SpectraSuite Data File
++++++++++++++++++++++++++++++++++++
Date: Fri Oct 25 11:26:34 EDT 2013
User: price-jones
Dark Spectrum Present: No
Reference Spectrum Present: No
Number of Sampled Component Spectra: 1
Spectrometers: USB2+H05261
Integration Time (usec): 100000 (USB2+H05261)
Spectra Averaged: 1 (USB2+H05261)
Boxcar Smoothing: 0 (USB2+H05261)
Correct for Electrical Dark: No (USB2+H05261)
Strobe/Lamp Enabled: No (USB2+H05261)
Correct for Detector Non-linearity: No (USB2+H05261)
Correct for Stray Light: No (USB2+H05261)
Number of Pixels in Processed Spectrum: 2048
>>>>>Begin Processed Spectral Data<<<<<
365.73	266.82
365.92	266.82
366.12	266.82
366.32	152.13
366.52	138.09
366.72	194.26
366.91	147.45
367.11	91.28
367.31	168.52
367.51	112.35
367.70	114.69
367.90	187.24
368.10	114.69
368.30	182.56
368.49	203.63
368.69	140.43
368.89	117.03
369.09	166.18
369.28	138.09
369.48	175.54
369.68	191.92
369.87	201.29
370.07	203.63
370.27	245.76
370.47	386.19
370.66	543.00
370.86	683.44
371.06	706.84
371.25	732.59
371.45	641.31
371.65	699.82
371.84	643.65
372.04	718.54
372.24	727.91
372.44	746.63
372.63	760.67
372.83	688.12
373.03	777.06
373.22	730.25
373.42	772.38
373.62	781.74
373.81	870.68
374.01	784.08
374.21	814.51
374.40	816.85
374.60	856.64
374.79	837.91
374.99	849.61
375.19	823.87
375.38	800.46
375.58	887.06
375.78	882.38
375.97	819.19
376.17	922.17
376.37	823.87
376.56	891.74
376.76	915.15
376.95	936.21
377.15	866.00
377.35	999.41
377.54	896.43
377.74	880.04
377.93	983.02
378.13	959.62
378.33	931.53
378.52	954.94
378.72	835.57
378.91	987.71
379.11	938.55
379.31	959.62
379.50	966.64
379.70	1069.62
379.89	976.00
380.09	1032.18
380.28	938.55
380.48	917.49
380.68	943.24
380.87	931.53
381.07	1116.44
381.26	1027.50
381.46	1074.31
381.65	1011.11
381.85	1074.31
382.04	1100.05
382.24	1034.52
382.43	1071.97
382.63	1142.18
382.83	1132.82
383.02	1219.42
383.22	1146.86
383.41	1067.28
383.61	1163.25
383.80	1198.35
384.00	1048.56
384.19	1205.38
384.39	1076.65
384.58	1144.52
384.78	1111.75
384.97	1196.01
385.17	1212.40
385.36	1111.75
385.56	1174.95
385.75	1172.61
385.95	1221.76
386.14	1224.10
386.34	1177.29
386.53	1200.69
386.72	1214.74
386.92	1217.08
387.11	1301.34
387.31	1240.48
387.50	1205.38
387.70	1235.80
387.89	1221.76
388.09	1317.72
388.28	1231.12
388.48	1256.87
388.67	1383.26
388.86	1423.05
389.06	1301.34
389.25	1315.38
389.45	1416.02
389.64	1364.53
389.84	1327.08
390.03	1369.21
390.22	1394.96
390.42	1397.30
390.61	1385.60
390.81	1420.71
391.00	1331.76
391.19	1472.20
391.39	1411.34
391.58	1509.65
391.78	1500.28
391.97	1404.32
392.16	1493.26
392.36	1589.22
392.55	1554.12
392.75	1572.84
392.94	1497.94
393.13	1533.05
393.33	1561.14
393.52	1526.03
393.71	1584.54
393.91	1521.35
394.10	1495.60
394.29	1586.88
394.49	1626.67
394.68	1659.44
394.88	1696.89
395.07	1617.31
395.26	1673.48
395.46	1614.97
395.65	1722.63
395.84	1708.59
396.04	1830.30
396.23	1806.89
396.42	1769.44
396.62	1839.66
396.81	1856.04
397.00	1685.19
397.19	1853.70
397.39	1792.85
397.58	1879.45
397.77	1907.54
397.97	1839.66
398.16	1926.26
398.35	1809.23
398.55	1872.43
398.74	1884.13
398.93	1928.60
399.12	1928.60
399.32	1886.47
399.51	1968.39
399.70	2108.82
399.90	2001.16
400.09	2054.99
400.28	2127.55
400.47	2005.84
400.67	2106.48
400.86	2057.33
401.05	2050.31
401.24	2120.53
401.44	2076.06
401.63	2183.72
401.82	2179.04
402.01	2090.10
402.21	2253.94
402.40	2197.76
402.59	2162.66
402.78	2214.15
402.97	2183.72
403.17	2303.09
403.36	2300.75
403.55	2340.54
403.74	2354.58
403.93	2464.58
404.13	2441.18
404.32	2349.90
404.51	2326.49
404.70	2438.84
404.89	2436.50
405.09	2551.18
405.28	2459.90
405.47	2410.75
405.66	2462.24
405.85	2495.01
406.05	2588.63
406.24	2623.74
406.43	2478.63
406.62	2640.12
406.81	2708.00
407.00	2771.19
407.20	2630.76
407.39	2670.55
407.58	2736.09
407.77	2726.72
407.96	2796.94
408.15	2892.90
408.34	2731.41
408.54	2796.94
408.73	2787.58
408.92	2806.30
409.11	2850.77
409.30	2935.03
409.49	2850.77
409.68	2923.33
409.87	2925.67
410.07	3098.87
410.26	3002.91
410.45	2991.20
410.64	3012.27
410.83	3040.36
411.02	3105.89
411.21	3087.17
411.40	3089.51
411.59	3206.53
411.78	3208.87
411.98	3295.47
412.17	3206.53
412.36	3260.37
412.55	3325.90
412.74	3335.26
412.93	3391.44
413.12	3370.37
413.31	3599.74
413.50	3426.54
413.69	3543.57
413.88	3623.15
414.07	3527.19
414.26	3595.06
414.45	3637.19
414.64	3674.64
414.83	3691.02
415.02	3796.35
415.22	3819.75
415.41	3854.86
415.60	3955.51
415.79	4011.68
415.98	4002.32
416.17	4070.19
416.36	3908.69
416.55	3955.51
416.74	4084.23
416.93	4112.32
417.12	4037.42
417.31	4145.09
417.50	4203.60
417.69	4311.27
417.88	4432.97
418.07	4306.59
418.26	4278.50
418.45	4344.03
418.64	4521.92
418.83	4458.72
419.02	4318.29
419.21	4648.30
419.39	4622.56
419.58	4472.76
419.77	4409.57
419.96	4568.73
420.15	4524.26
420.34	4561.70
420.53	4629.58
420.72	4697.46
420.91	4620.22
421.10	4741.93
421.29	4889.38
421.48	4613.20
421.67	4713.84
421.86	4760.65
422.05	4868.31
422.24	4741.93
422.43	4851.93
422.61	5032.15
422.80	4924.49
422.99	4861.29
423.18	4990.02
423.37	5219.39
423.56	4968.96
423.75	4908.10
423.94	4968.96
424.13	4709.16
424.32	4926.83
424.50	4926.83
424.69	5235.78
424.88	5027.47
425.07	4774.69
425.26	4833.21
425.45	4964.28
425.64	4884.70
425.83	5163.22
426.01	5095.35
426.20	5177.26
426.39	5137.48
426.58	5078.96
426.77	5083.64
426.96	5093.01
427.15	5025.13
427.33	5277.91
427.52	5156.20
427.71	5327.06
427.90	5242.80
428.09	5303.65
428.28	5313.02
428.46	5266.21
428.65	5324.72
428.84	5549.41
429.03	5584.52
429.22	5284.93
429.40	5408.98
429.59	5434.72
429.78	5341.10
429.97	5114.07
430.16	5493.24
430.34	5589.20
430.53	5675.80
430.72	5804.53
430.91	5645.37
431.10	5673.46
431.28	5666.44
431.47	5783.46
431.66	5820.91
431.85	5617.29
432.03	5870.06
432.22	5994.11
432.41	5886.45
432.60	5802.19
432.79	5996.45
432.97	6125.18
433.16	6066.67
433.35	6078.37
433.54	6186.04
433.72	6106.46
433.91	6197.74
434.10	6174.33
434.28	6153.27
434.47	6303.06
434.66	6228.17
434.85	6359.24
435.03	6373.28
435.22	6312.42
435.41	6413.07
435.59	6424.77
435.78	6359.24
435.97	6399.02
436.16	6342.85
436.34	6420.09
436.53	6462.22
436.72	6602.65
436.90	6586.27
437.09	6743.08
437.28	6600.31
437.46	6658.82
437.65	6637.76
437.84	6792.23
438.02	6729.04
438.21	6649.46
438.40	6712.66
438.58	6878.83
438.77	6843.73
438.96	6843.73
439.14	7101.19
439.33	7190.13
439.52	7246.30
439.70	7396.09
439.89	7234.60
440.08	7360.98
440.26	7463.97
440.45	7424.18
440.63	7501.42
440.82	7714.41
441.01	7513.12
441.19	7520.14
441.38	7763.56
441.57	7569.29
441.75	7857.18
441.94	8032.72
442.12	8018.68
442.31	7967.18
442.50	7929.74
442.68	8072.51
442.87	8100.59
443.05	8376.78
443.24	8224.64
443.43	8124.00
443.61	8086.55
443.80	8402.52
443.98	8042.08
444.17	7967.18
444.35	8418.91
444.54	8477.42
444.73	8222.30
444.91	8304.22
445.10	8521.89
445.28	8222.30
445.47	8287.84
445.65	8367.42
445.84	8355.71
446.02	8344.01
446.21	8425.93
446.39	8351.03
446.58	8643.60
446.77	8542.96
446.95	8315.92
447.14	8299.54
447.32	8638.92
447.51	8524.23
447.69	8638.92
447.88	8624.87
448.06	8601.47
448.25	8634.24
448.43	8802.75
448.62	8489.12
448.80	8482.10
448.99	8608.49
449.17	8788.71
449.36	8603.81
449.54	8697.43
449.73	9062.55
449.91	9057.87
450.10	9114.05
450.28	9095.32
450.46	9207.67
450.65	9029.79
450.83	9165.54
451.02	9301.29
451.20	9174.90
451.39	9109.36
451.57	9137.45
451.76	9149.15
451.94	9172.56
452.13	9334.06
452.31	9195.96
452.49	9341.08
452.68	9252.14
452.86	9317.67
453.05	9343.42
453.23	9469.81
453.42	9425.34
453.60	9535.34
453.78	9497.89
453.97	9533.00
454.15	9523.64
454.34	9537.68
454.52	9785.78
454.70	9619.60
454.89	9734.29
455.07	9888.76
455.26	9888.76
455.44	9907.49
455.62	9818.55
455.81	9867.70
455.99	9994.09
456.17	10129.84
456.36	10052.60
456.54	10057.28
456.73	10242.18
456.91	10485.60
457.09	10558.16
457.28	10509.01
457.46	10317.08
457.64	10600.29
457.83	10363.89
458.01	10464.54
458.19	10710.29
458.38	10778.17
458.56	10621.35
458.74	10677.52
458.93	10787.53
459.11	10724.33
459.29	10703.27
459.48	11110.52
459.66	10855.40
459.84	10824.98
460.03	10942.00
460.21	11070.73
460.39	10960.73
460.57	11110.52
460.76	11096.48
460.94	11047.33
461.12	11007.54
461.31	11218.19
461.49	11232.23
461.67	11300.11
461.85	11412.45
462.04	11353.94
462.22	11382.03
462.40	11693.32
462.59	11396.07
462.77	11396.07
462.95	11700.34
463.13	11363.30
463.32	11454.58
463.50	11826.73
463.68	11644.17
463.86	11672.25
464.05	11798.64
464.23	11913.33
464.41	11957.80
464.59	11669.91
464.78	12119.29
464.96	12042.06
465.14	11829.07
465.32	11922.69
465.50	12217.60
465.69	12212.92
465.87	12152.06
466.05	12297.17
466.23	12025.67
466.41	12135.68
466.60	12365.05
466.78	12217.60
466.96	12423.56
467.14	12346.33
467.32	12592.08
467.51	12465.69
467.69	12222.28
467.87	12568.68
468.05	12730.17
468.23	12360.37
468.41	12453.99
468.60	12685.70
468.78	12688.04
468.96	12835.50
469.14	12746.56
469.32	13284.88
469.50	12666.98
469.69	13121.04
469.87	13076.57
470.05	13095.30
470.23	12996.99
470.41	13247.43
470.59	13352.76
470.77	13245.09
470.95	12950.18
471.14	13448.72
471.32	13057.85
471.50	13619.58
471.68	13469.78
471.86	13319.99
472.04	13582.13
472.22	13963.64
472.40	13680.43
472.58	13717.88
472.77	14104.07
472.95	14024.49
473.13	14710.27
473.31	14368.55
473.49	14228.12
473.67	14047.90
473.85	14408.34
474.03	14567.49
474.21	14609.62
474.39	14682.18
474.57	14644.73
474.75	14981.77
474.93	14995.81
475.12	14839.00
475.30	15087.09
475.48	15213.48
475.66	15459.24
475.84	15295.40
476.02	15587.97
476.20	15524.77
476.38	15789.25
476.56	16147.36
476.74	15995.22
476.92	15990.54
477.10	16027.99
477.28	16203.53
477.46	15995.22
477.64	16084.16
477.82	16446.94
478.00	16744.19
478.18	16938.46
478.36	17039.10
478.54	17029.74
478.72	17118.68
478.90	17144.42
479.08	17479.12
479.26	17752.96
479.44	17708.49
479.62	17846.58
479.80	18059.57
479.98	18080.64
480.16	18553.43
480.34	18164.90
480.52	18609.60
480.70	18471.51
480.88	18499.59
481.06	18654.07
481.24	18815.57
481.41	18836.63
481.59	19459.21
481.77	19419.42
481.95	19807.95
482.13	19875.83
482.31	19737.74
482.49	20446.92
482.67	20161.37
482.85	20545.22
483.03	20606.08
483.21	20959.50
483.39	20961.84
483.57	20734.81
483.74	21099.93
483.92	21179.51
484.10	21242.70
484.28	21514.20
484.46	22012.74
484.64	22380.20
484.82	22183.60
485.00	22260.84
485.18	22930.23
485.35	23124.49
485.53	23058.96
485.71	23208.75
485.89	23545.79
486.07	23391.31
486.25	23077.68
486.43	23534.09
486.61	23814.95
486.78	24025.60
486.96	24142.63
487.14	24676.27
487.32	24547.54
487.50	24706.70
487.68	25099.90
487.85	25170.12
488.03	25448.64
488.21	25823.13
488.39	26293.58
488.57	25727.17
488.75	26045.48
488.92	26295.92
489.10	26607.21
489.28	26766.37
489.46	27190.00
489.64	26934.88
489.81	27754.07
489.99	27782.16
490.17	27620.66
490.35	28711.35
490.53	27908.55
490.70	28650.50
490.88	28009.19
491.06	28922.00
491.24	28835.40
491.41	29057.75
491.59	29046.05
491.77	29642.88
491.95	29682.67
492.13	29677.99
492.30	30314.62
492.48	30464.41
492.66	30005.67
492.84	30281.85
493.01	30766.34
493.19	30686.76
493.37	31096.36
493.54	31454.46
493.72	31559.78
493.90	31850.01
494.08	31929.59
494.25	32212.79
494.43	32009.17
494.61	31828.95
494.79	32456.21
494.96	32510.04
495.14	32947.72
495.32	33174.75
495.49	33420.51
495.67	32975.81
495.85	33441.57
496.02	33970.54
496.20	34000.96
496.38	34164.80
496.55	34064.16
496.73	35110.38
496.91	34569.71
497.09	34899.73
497.26	34801.43
497.44	34836.53
497.62	35426.35
497.79	35505.93
497.97	35330.39
498.14	35798.49
498.32	36254.90
498.50	36002.12
498.67	36556.83
498.85	36577.89
499.03	37074.09
499.20	36514.70
499.38	36830.67
499.56	36978.12
499.73	37170.05
499.91	37626.45
500.08	37298.78
500.26	37479.00
500.44	37596.03
500.61	37661.56
500.79	37914.34
500.97	38366.06
501.14	38579.05
501.32	38785.02
501.49	38040.73
501.67	38508.83
501.84	39218.02
502.02	39117.37
502.20	39093.97
502.37	39175.89
502.55	39477.82
502.72	39461.43
502.90	39625.27
503.07	39585.48
503.25	39866.34
503.43	40011.46
503.60	40320.41
503.78	40713.62
503.95	40175.30
504.13	40404.67
504.30	40926.61
504.48	40797.88
504.65	40725.32
504.83	41289.39
505.01	41504.72
505.18	41581.96
505.36	41354.93
505.53	41680.26
505.71	41808.99
505.88	41588.98
506.06	41783.24
506.23	41956.44
506.41	41904.95
506.58	41935.38
506.76	42216.24
506.93	42249.01
507.11	42155.39
507.28	42506.47
507.46	42410.51
507.63	42777.97
507.81	43309.27
507.98	42932.45
508.16	43400.55
508.33	43466.09
508.50	43407.58
508.68	44142.50
508.85	43821.85
509.03	43349.06
509.20	43882.70
509.38	44451.45
509.55	44414.01
509.73	44301.66
509.90	44472.52
510.08	44748.70
510.25	44493.58
510.42	44596.57
510.60	44928.92
510.77	45387.67
510.95	45333.84
511.12	45104.46
511.30	45179.36
511.47	45415.76
511.64	45312.77
511.82	46234.94
511.99	45916.63
512.17	45872.16
512.34	45895.56
512.51	46171.75
512.69	46595.38
512.86	46639.86
513.04	46625.81
513.21	46745.18
513.38	46457.29
513.56	47271.80
513.73	46897.31
513.90	47269.46
514.08	46707.73
514.25	47533.94
514.43	47105.62
514.60	46969.87
514.77	47351.38
514.95	47770.33
515.12	47594.79
515.29	47798.42
515.47	47992.68
515.64	48282.91
515.81	48027.79
515.99	48381.21
516.16	48509.94
516.33	48212.70
516.51	48453.77
516.68	48385.89
516.85	48458.45
517.03	48877.41
517.20	49092.74
517.37	48823.58
517.54	48788.47
517.72	49008.48
517.89	49205.08
518.06	49296.36
518.24	49387.64
518.41	49050.61
518.58	49668.51
518.75	49219.13
518.93	49820.64
519.10	49584.25
519.27	49935.33
519.45	49830.01
519.62	49874.48
519.79	50021.93
519.96	49799.58
520.14	50319.18
520.31	50188.11
520.48	50459.61
520.65	50454.93
520.83	50581.32
521.00	50731.11
521.17	50604.72
521.34	50747.50
521.52	50993.25
521.69	50831.75
521.86	51215.60
522.03	51208.58
522.20	51042.40
522.38	51854.57
522.55	51440.29
522.72	51264.75
522.89	51613.49
523.07	51536.26
523.24	51487.10
523.41	51681.37
523.58	51735.20
523.75	51980.96
523.92	51920.10
524.10	51838.18
524.27	52196.29
524.44	51950.53
524.61	52294.59
524.78	52121.39
524.96	52079.26
525.13	52325.02
525.30	52315.65
525.47	52701.84
525.64	52566.09
525.81	52825.89
525.98	52633.97
526.16	52629.29
526.33	52484.17
526.50	52949.94
526.67	52907.81
526.84	52945.26
527.01	52868.02
527.18	52849.30
527.36	53029.52
527.53	53078.67
527.70	53298.68
527.87	53476.56
528.04	53088.03
528.21	53345.49
528.38	53223.78
528.55	53844.02
528.72	53698.91
528.89	53364.21
529.07	53551.46
529.24	53268.25
529.41	53694.23
529.58	53727.00
529.75	53577.20
529.92	53745.72
530.09	53963.39
530.26	53722.32
530.43	53909.56
530.60	53722.32
530.77	53968.07
530.94	54202.13
531.11	54101.48
531.28	54110.85
531.46	54265.32
531.63	54232.55
531.80	54239.57
531.97	54391.71
532.14	54286.39
532.31	54492.35
532.48	54576.61
532.65	54707.68
532.82	54698.32
532.99	54724.07
533.16	54440.86
533.33	54691.30
533.50	55178.13
533.67	54688.96
533.84	54850.45
534.01	54918.33
534.18	55061.10
534.35	55234.30
534.52	55084.51
534.69	55416.86
534.86	55185.15
535.03	55068.12
535.20	55519.85
535.37	55377.08
535.54	55454.31
535.71	55309.20
535.88	55236.64
536.05	55477.72
536.22	55847.52
536.38	55561.98
536.55	55274.09
536.72	55770.28
536.89	55409.84
537.06	55526.87
537.23	55693.05
537.40	55564.32
537.57	55894.33
537.74	55643.90
537.91	56123.71
538.08	56165.84
538.25	55664.96
538.42	56095.62
538.59	56463.08
538.75	56027.74
538.92	55931.78
539.09	56275.84
539.26	56083.92
539.43	55873.27
539.60	56207.97
539.77	56390.53
539.94	56603.52
540.11	56289.88
540.28	56568.41
540.44	56336.69
540.61	56388.19
540.78	56540.32
540.95	56533.30
541.12	56545.00
541.29	56432.66
541.46	56591.81
541.62	56774.37
541.79	56582.45
541.96	56355.42
542.13	56781.40
542.30	56900.76
542.47	56910.13
542.63	56926.51
542.80	57003.75
542.97	57265.89
543.14	57209.71
543.31	57069.28
543.48	57165.24
543.64	57530.37
543.81	57361.85
543.98	57506.96
544.15	57443.77
544.32	57429.72
544.48	57474.20
544.65	57347.81
544.82	57361.85
544.99	57282.27
545.16	57336.10
545.32	57382.91
545.49	57593.56
545.66	57886.13
545.83	57567.82
546.00	57937.62
546.16	57764.42
546.33	57588.88
546.50	57614.63
546.67	57733.99
546.83	57446.11
547.00	57984.43
547.17	57733.99
547.34	57832.30
547.50	57946.98
547.67	58127.20
547.84	58094.44
548.00	58134.23
548.17	58372.96
548.34	58141.25
548.51	58335.51
548.67	58358.92
548.84	58106.14
549.01	58087.42
549.18	58162.31
549.34	58134.23
549.51	58342.53
549.68	58424.45
549.84	58244.23
550.01	58401.05
550.18	58307.43
550.34	58363.60
550.51	58534.46
550.68	58459.56
550.84	58305.09
551.01	58574.25
551.18	58674.89
551.34	58464.24
551.51	58527.44
551.68	58473.60
551.84	58548.50
552.01	58506.37
552.18	58660.85
552.34	58637.44
552.51	58604.67
552.68	58323.81
552.84	58747.45
553.01	58822.34
553.18	58738.08
553.34	58922.99
553.51	58738.08
553.67	58941.71
553.84	59121.93
554.01	59077.46
554.17	58810.64
554.34	59126.61
554.51	59105.55
554.67	59035.33
554.84	59140.66
555.00	59180.45
555.17	59018.95
555.33	58913.62
555.50	59021.29
555.67	58897.24
555.83	59032.99
556.00	59126.61
556.16	59552.59
556.33	59185.13
556.50	59222.58
556.66	59421.52
556.83	59107.89
556.99	59494.08
557.16	59365.35
557.32	59536.21
557.49	59512.80
557.65	59381.73
557.82	59461.31
557.98	59526.84
558.15	59653.23
558.32	59629.83
558.48	59295.13
558.65	59444.93
558.81	59423.86
558.98	59606.42
559.14	59646.21
559.31	59686.00
559.47	59791.33
559.64	59833.46
559.80	59866.22
559.97	59739.83
560.13	59533.87
560.30	59732.81
560.46	59852.18
560.63	59807.71
560.79	59751.54
560.96	59973.89
561.12	59849.84
561.29	59910.69
561.45	59711.75
561.61	59742.17
561.78	59657.91
561.94	59739.83
562.11	59765.58
562.27	59955.16
562.44	59854.52
562.60	59969.21
562.77	60097.94
562.93	59805.37
563.10	60051.12
563.26	60006.65
563.42	60086.23
563.59	60182.19
563.75	59725.79
563.92	59969.21
564.08	60006.65
564.24	60219.64
564.41	60147.09
564.57	60168.15
564.74	60072.19
564.90	60147.09
565.07	59976.23
565.23	60065.17
565.39	60123.68
565.56	60364.76
565.72	60315.61
565.88	60245.39
566.05	60102.62
566.21	60170.49
566.38	60257.09
566.54	60301.56
566.70	60308.58
566.87	60308.58
567.03	60027.72
567.19	60268.79
567.36	60243.05
567.52	59985.59
567.68	60484.12
567.85	60322.63
568.01	60566.04
568.17	60486.46
568.34	60179.85
568.50	60275.82
568.66	60413.91
568.83	60491.15
568.99	60378.80
569.15	60296.88
569.32	60266.45
569.48	60259.43
569.64	60236.03
569.81	60317.95
569.97	60439.65
570.13	60502.85
570.30	60481.78
570.46	60596.47
570.62	60526.25
570.78	60650.30
570.95	60479.44
571.11	60694.77
571.27	60657.32
571.43	60673.71
571.60	60626.90
571.76	60409.23
571.92	60570.72
572.09	60584.77
572.25	60519.23
572.41	60350.71
572.57	60582.43
572.74	60704.13
572.90	60626.90
573.06	60643.28
573.22	60533.28
573.38	60631.58
573.55	60683.07
573.71	60795.42
573.87	60926.49
574.03	60617.53
574.20	60757.97
574.36	60687.75
574.52	60676.05
574.68	60769.67
574.84	60734.56
575.01	60896.06
575.17	60776.69
575.33	60530.93
575.49	60605.83
575.65	60863.29
575.82	60750.94
575.98	60704.13
576.14	60931.17
576.30	60786.05
576.46	60486.46
576.62	60821.16
576.79	60956.91
576.95	60561.36
577.11	60779.03
577.27	60940.53
577.43	60896.06
577.59	60870.31
577.75	60818.82
577.92	60755.63
578.08	60858.61
578.24	60884.36
578.40	61087.98
578.56	60928.83
578.72	60772.01
578.88	61087.98
579.04	61034.15
579.21	61031.81
579.37	60856.27
579.53	61038.83
579.69	60692.43
579.85	60715.84
580.01	60741.58
580.17	60788.39
580.33	60961.59
580.49	60954.57
580.65	61055.21
580.82	60811.80
580.98	60764.99
581.14	60760.31
581.30	60917.12
581.46	60961.59
581.62	61043.51
581.78	60760.31
581.94	61071.60
582.10	60842.23
582.26	60743.92
582.42	60973.30
582.58	60966.27
582.74	60832.86
582.90	60970.96
583.06	60921.80
583.22	60818.82
583.38	60914.78
583.54	60989.68
583.70	61022.45
583.86	60921.80
584.02	60863.29
584.18	61216.71
584.34	61050.53
584.50	61144.16
584.66	60748.60
584.82	60886.70
584.98	61137.13
585.14	61214.37
585.30	60968.61
585.46	61228.41
585.62	60947.55
585.78	61118.41
585.94	60917.12
586.10	61127.77
586.26	61174.58
586.42	61212.03
586.58	61071.60
586.74	61113.73
586.90	61006.06
587.06	61034.15
587.22	61265.86
587.38	61041.17
587.54	61120.75
587.70	61261.18
587.86	61099.68
588.02	61123.09
588.18	61214.37
588.34	60912.44
588.49	61064.58
