SpectraSuite Data File
++++++++++++++++++++++++++++++++++++
Date: Fri Oct 25 11:22:48 EDT 2013
User: price-jones
Dark Spectrum Present: No
Reference Spectrum Present: No
Number of Sampled Component Spectra: 1
Spectrometers: USB2+H05261
Integration Time (usec): 100000 (USB2+H05261)
Spectra Averaged: 1 (USB2+H05261)
Boxcar Smoothing: 0 (USB2+H05261)
Correct for Electrical Dark: No (USB2+H05261)
Strobe/Lamp Enabled: No (USB2+H05261)
Correct for Detector Non-linearity: No (USB2+H05261)
Correct for Stray Light: No (USB2+H05261)
Number of Pixels in Processed Spectrum: 2048
>>>>>Begin Processed Spectral Data<<<<<
365.73	224.69
365.92	224.69
366.12	224.69
366.32	135.75
366.52	107.66
366.72	135.75
366.91	86.60
367.11	126.39
367.31	128.73
367.51	112.35
367.70	98.30
367.90	128.73
368.10	63.19
368.30	166.18
368.49	121.71
368.69	196.60
368.89	149.79
369.09	112.35
369.28	95.96
369.48	163.84
369.68	187.24
369.87	147.45
370.07	163.84
370.27	273.84
370.47	248.10
370.66	645.99
370.86	535.98
371.06	636.63
371.25	629.60
371.45	622.58
371.65	683.44
371.84	706.84
372.04	650.67
372.24	660.03
372.44	723.23
372.63	648.33
372.83	772.38
373.03	725.57
373.22	723.23
373.42	713.86
373.62	784.08
373.81	784.08
374.01	875.36
374.21	887.06
374.40	821.53
374.60	828.55
374.79	800.46
374.99	770.04
375.19	877.70
375.38	793.44
375.58	821.53
375.78	823.87
375.97	791.10
376.17	875.36
376.37	940.90
376.56	819.19
376.76	823.87
376.95	926.85
377.15	889.40
377.35	901.11
377.54	987.71
377.74	814.51
377.93	854.30
378.13	812.17
378.33	868.34
378.52	861.32
378.72	929.19
378.91	894.08
379.11	950.26
379.31	894.08
379.50	877.70
379.70	931.53
379.89	992.39
380.09	976.00
380.28	966.64
380.48	1015.79
380.68	1020.47
380.87	1008.77
381.07	1013.45
381.26	992.39
381.46	1015.79
381.65	1093.03
381.85	1064.94
382.04	1048.56
382.24	1064.94
382.43	1086.01
382.63	1074.31
382.83	1055.58
383.02	1151.54
383.22	1153.88
383.41	1160.91
383.61	1069.62
383.80	1163.25
384.00	1142.18
384.19	1123.46
384.39	1144.52
384.58	1132.82
384.78	1041.54
384.97	1128.14
385.17	1179.63
385.36	1130.48
385.56	1118.78
385.75	1132.82
385.95	1184.31
386.14	1252.19
386.34	1153.88
386.53	1196.01
386.72	1235.80
386.92	1268.57
387.11	1263.89
387.31	1254.53
387.50	1301.34
387.70	1294.32
387.89	1329.42
388.09	1357.51
388.28	1256.87
388.48	1242.82
388.67	1268.57
388.86	1275.59
389.06	1359.85
389.25	1205.38
389.45	1390.28
389.64	1390.28
389.84	1306.02
390.03	1439.43
390.22	1263.89
390.42	1411.34
390.61	1376.24
390.81	1446.45
391.00	1338.79
391.19	1444.11
391.39	1439.43
391.58	1418.36
391.78	1434.75
391.97	1437.09
392.16	1376.24
392.36	1439.43
392.55	1565.82
392.75	1540.07
392.94	1582.20
393.13	1488.58
393.33	1542.41
393.52	1507.30
393.71	1636.03
393.91	1542.41
394.10	1621.99
394.29	1561.14
394.49	1563.48
394.68	1699.23
394.88	1547.09
395.07	1736.68
395.26	1619.65
395.46	1689.87
395.65	1699.23
395.84	1804.55
396.04	1806.89
396.23	1732.00
396.42	1755.40
396.62	1771.79
396.81	1820.94
397.00	1806.89
397.19	1802.21
397.39	1865.41
397.58	1863.07
397.77	1802.21
397.97	1823.28
398.16	1788.17
398.35	1818.60
398.55	1844.34
398.74	1788.17
398.93	1865.41
399.12	1909.88
399.32	1942.64
399.51	1998.82
399.70	1912.22
399.90	1940.30
400.09	2031.58
400.28	2036.27
400.47	2052.65
400.67	2083.08
400.86	2050.31
401.05	2118.18
401.24	2132.23
401.44	2134.57
401.63	2172.02
401.82	2165.00
402.01	2085.42
402.21	2190.74
402.40	2216.49
402.59	2125.21
402.78	2165.00
402.97	2270.32
403.17	2169.68
403.36	2197.76
403.55	2303.09
403.74	2459.90
403.93	2310.11
404.13	2321.81
404.32	2359.26
404.51	2436.50
404.70	2429.48
404.89	2406.07
405.09	2539.48
405.28	2438.84
405.47	2457.56
405.66	2450.54
405.85	2485.65
406.05	2408.41
406.24	2558.21
406.43	2553.52
406.62	2698.64
406.81	2782.90
407.00	2635.44
407.20	2644.81
407.39	2637.78
407.58	2626.08
407.77	2775.88
407.96	2827.37
408.15	2860.13
408.34	2825.03
408.54	2829.71
408.73	2843.75
408.92	2731.41
409.11	2888.22
409.30	2965.46
409.49	3047.38
409.68	2883.54
409.87	2923.33
410.07	2918.65
410.26	2953.76
410.45	2932.69
410.64	2956.10
410.83	3061.42
411.02	3101.21
411.21	3066.10
411.40	3131.64
411.59	3187.81
411.78	3211.22
411.98	3171.43
412.17	3232.28
412.36	3330.58
412.55	3461.65
412.74	3433.57
412.93	3412.50
413.12	3325.90
413.31	3604.42
413.50	3447.61
413.69	3433.57
413.88	3602.08
414.07	3545.91
414.26	3609.11
414.45	3695.71
414.64	3740.18
414.83	3712.09
415.02	3864.22
415.22	3726.13
415.41	3761.24
415.60	3915.72
415.79	3911.04
415.98	3978.91
416.17	3929.76
416.36	3981.25
416.55	3943.80
416.74	4187.22
416.93	3999.98
417.12	4009.34
417.31	4219.99
417.50	4205.94
417.69	4351.06
417.88	4376.80
418.07	4194.24
418.26	4365.10
418.45	4367.44
418.64	4425.95
418.83	4348.72
419.02	4533.62
419.21	4596.81
419.39	4500.85
419.58	4603.83
419.77	4510.21
419.96	4528.94
420.15	4620.22
420.34	4713.84
420.53	4578.09
420.72	4851.93
420.91	4645.96
421.10	4674.05
421.29	4826.18
421.48	4716.18
421.67	4716.18
421.86	4814.48
422.05	4868.31
422.24	4830.87
422.43	4950.23
422.61	4844.91
422.80	4882.36
422.99	4844.91
423.18	4898.74
423.37	4964.28
423.56	4975.98
423.75	4994.70
423.94	4847.25
424.13	4809.80
424.32	4861.29
424.50	5076.62
424.69	5188.97
424.88	5055.56
425.07	5027.47
425.26	4814.48
425.45	5018.11
425.64	4926.83
425.83	4938.53
426.01	5135.14
426.20	5146.84
426.39	5078.96
426.58	5022.79
426.77	5111.73
426.96	5195.99
427.15	5121.09
427.33	5177.26
427.52	5235.78
427.71	5270.89
427.90	5277.91
428.09	5378.55
428.28	5430.04
428.46	5380.89
428.65	5289.61
428.84	5568.13
429.03	5455.79
429.22	5465.15
429.40	5352.81
429.59	5474.51
429.78	5425.36
429.97	5282.59
430.16	5647.71
430.34	5748.36
430.53	5741.33
430.72	5617.29
430.91	5738.99
431.10	5628.99
431.28	5748.36
431.47	5804.53
431.66	5930.92
431.85	5769.42
432.03	5977.73
432.22	5884.11
432.41	5856.02
432.60	5870.06
432.79	5959.00
432.97	6076.03
433.16	6263.27
433.35	5881.77
433.54	6019.86
433.72	6225.82
433.91	6171.99
434.10	6127.52
434.28	5996.45
434.47	6209.44
434.66	6291.36
434.85	6338.17
435.03	6396.68
435.22	6408.39
435.41	6516.05
435.59	6256.25
435.78	6464.56
435.97	6469.24
436.16	6450.52
436.34	6504.35
436.53	6588.61
436.72	6600.31
436.90	6406.05
437.09	6703.29
437.28	6647.12
437.46	6682.23
437.65	6583.93
437.84	6810.96
438.02	6766.49
438.21	6761.81
438.40	6792.23
438.58	7063.74
438.77	6995.86
438.96	7016.93
439.14	7063.74
439.33	7248.64
439.52	7190.13
439.70	7337.58
439.89	7265.02
440.08	7339.92
440.26	7613.76
440.45	7417.16
440.63	7452.27
440.82	7651.21
441.01	7646.53
441.19	7651.21
441.38	7667.60
441.57	7817.39
441.75	8035.06
441.94	7873.56
442.12	7843.14
442.31	7808.03
442.50	7911.01
442.68	8102.93
442.87	8114.64
443.05	8241.03
443.24	8252.73
443.43	8168.47
443.61	8196.56
443.80	8336.99
443.98	7997.61
444.17	7922.71
444.35	8098.25
444.54	8418.91
444.73	8381.46
444.91	8475.08
445.10	8262.09
445.28	8451.67
445.47	8360.39
445.65	8535.93
445.84	8372.10
446.02	8500.83
446.21	8498.49
446.39	8376.78
446.58	8432.95
446.77	8615.51
446.95	8093.57
447.14	8332.31
447.32	8641.26
447.51	8496.14
447.69	8449.33
447.88	8535.93
448.06	8578.06
448.25	8592.11
448.43	8561.68
448.62	8557.00
448.80	8468.06
448.99	8634.24
449.17	8664.66
449.36	8613.17
449.54	9032.13
449.73	9025.11
449.91	8980.64
450.10	9146.81
450.28	9238.09
450.46	8987.66
450.65	8917.44
450.83	9238.09
451.02	9137.45
451.20	9025.11
451.39	9280.22
451.57	9266.18
451.76	9074.26
451.94	9329.38
452.13	9390.23
452.31	9425.34
452.49	9352.78
452.68	9448.74
452.86	9226.39
453.05	9425.34
453.23	9570.45
453.42	9369.16
453.60	9338.74
453.78	9589.17
453.97	9423.00
454.15	9570.45
454.34	9572.79
454.52	9584.49
454.70	9764.72
454.89	9610.24
455.07	9694.50
455.26	9837.27
455.44	9881.74
455.62	10017.49
455.81	9905.15
455.99	10094.73
456.17	10162.61
456.36	9984.73
456.54	10099.41
456.73	10043.24
456.91	10462.19
457.09	10640.08
457.28	10434.11
457.46	10424.75
457.64	10696.25
457.83	10590.92
458.01	10228.14
458.19	10771.15
458.38	10555.82
458.56	10736.04
458.74	10520.71
458.93	10747.74
459.11	10932.64
459.29	10843.70
459.48	10857.75
459.66	10820.30
459.84	10984.13
460.03	11133.93
460.21	11190.10
460.39	10981.79
460.57	11082.44
460.76	11068.39
460.94	11019.24
461.12	11131.59
461.31	11304.79
461.49	11234.57
461.67	11108.18
461.85	11442.88
462.04	11466.28
462.22	11852.47
462.40	11550.54
462.59	11300.11
462.77	11548.20
462.95	11798.64
463.13	11351.60
463.32	11824.39
463.50	12023.33
463.68	11758.85
463.86	11772.89
464.05	11639.48
464.23	11810.34
464.41	11950.78
464.59	11726.08
464.78	12123.98
464.96	11903.96
465.14	11953.12
465.32	12044.40
465.50	12231.64
465.69	12332.28
465.87	12245.68
466.05	12035.03
466.23	12093.55
466.41	12451.65
466.60	12613.15
466.78	12278.45
466.96	12189.51
467.14	12257.39
467.32	12353.35
467.51	12699.75
467.69	12203.55
467.87	12395.48
468.05	12678.68
468.23	12512.50
468.41	12674.00
468.60	12823.80
468.78	12819.11
468.96	12568.68
469.14	12676.34
469.32	13142.11
469.50	12491.44
469.69	12716.13
469.87	13228.71
470.05	13172.54
470.23	13001.68
470.41	13111.68
470.59	13249.77
470.77	13062.53
470.95	13408.93
471.14	13610.22
471.32	13200.62
471.50	13591.49
471.68	13703.84
471.86	13596.17
472.04	13720.22
472.22	14075.98
472.40	13846.61
472.58	13930.87
472.77	14061.94
472.95	14148.54
473.13	14595.58
473.31	14080.66
473.49	14211.73
473.67	14164.92
473.85	14319.40
474.03	14558.13
474.21	14558.13
474.39	14803.89
474.57	14677.50
474.75	15023.90
474.93	14927.94
475.12	15026.24
475.30	15211.14
475.48	15328.17
475.66	15297.74
475.84	15161.99
476.02	15644.14
476.20	15482.64
476.38	15534.14
476.56	16030.33
476.74	15840.75
476.92	15751.81
477.10	15957.77
477.28	16388.43
477.46	16119.27
477.64	16460.99
477.82	16716.11
478.00	16915.05
478.18	16987.61
478.36	16980.59
478.54	17240.39
478.72	17149.11
478.90	17451.03
479.08	17731.90
479.26	17626.57
479.44	17820.84
479.62	17933.18
479.80	18317.03
479.98	18342.78
480.16	18565.13
480.34	18490.23
480.52	18494.91
480.70	18888.12
480.88	18452.78
481.06	18710.24
481.24	19110.47
481.41	19262.61
481.59	19389.00
481.77	19555.18
481.95	19917.96
482.13	19527.09
482.31	19702.63
482.49	20404.79
482.67	20194.14
482.85	20290.10
483.03	20697.36
483.21	21043.76
483.39	20971.20
483.57	21216.96
483.74	21130.36
483.92	21460.37
484.10	21179.51
484.28	21921.46
484.46	21706.13
484.64	22368.50
484.82	22192.96
485.00	22181.26
485.18	22775.75
485.35	23042.57
485.53	23173.64
485.71	22761.71
485.89	23421.74
486.07	23309.40
486.25	23538.77
486.43	23480.25
486.61	24025.60
486.78	24079.43
486.96	24243.27
487.14	24652.86
487.32	24854.15
487.50	25160.76
487.68	25123.31
487.85	25516.52
488.03	25617.16
488.21	25792.70
488.39	25696.74
488.57	26396.56
488.75	26576.78
488.92	26490.18
489.10	26867.01
489.28	26536.99
489.46	27253.20
489.64	26988.72
489.81	27552.79
489.99	27625.34
490.17	27843.01
490.35	28048.98
490.53	28278.35
490.70	28425.81
490.88	28386.02
491.06	28842.42
491.24	28844.76
491.41	29472.03
491.59	29612.46
491.77	29383.09
491.95	29603.10
492.13	30040.78
492.30	30218.66
492.48	30167.16
492.66	30284.19
492.84	30607.19
493.01	30597.82
493.19	30644.63
493.37	31002.74
493.54	31108.06
493.72	31700.22
493.90	31608.93
494.08	31702.56
494.25	32364.93
494.43	32196.41
494.61	32364.93
494.79	32662.18
494.96	32395.35
495.14	33055.39
495.32	33289.44
495.49	33362.00
495.67	33570.30
495.85	33731.80
496.02	33909.68
496.20	34361.40
496.38	34492.47
496.55	34178.84
496.73	34976.97
496.91	34831.85
497.09	35115.06
497.26	35077.61
497.44	34883.34
497.62	35611.25
497.79	35852.33
497.97	35707.21
498.14	35847.64
498.32	36109.78
498.50	36062.97
498.67	36488.95
498.85	36842.37
499.03	36807.26
499.20	37015.57
499.38	36861.10
499.56	37160.69
499.73	37060.04
499.91	37521.13
500.08	37970.51
500.26	37645.18
500.44	38101.58
500.61	38012.64
500.79	38220.95
500.97	38256.06
501.14	38424.57
501.32	38260.74
501.49	38553.30
501.67	38981.62
501.84	39112.69
502.02	39164.18
502.20	39409.94
502.37	39505.90
502.55	39629.95
502.72	39007.37
502.90	39791.45
503.07	39332.70
503.25	40245.51
503.43	39754.00
503.60	40364.88
503.78	40493.61
503.95	40311.05
504.13	40582.55
504.30	40755.75
504.48	40229.13
504.65	40912.56
504.83	41202.79
505.01	41214.49
505.18	41275.35
505.36	42073.47
505.53	41448.55
505.71	42075.81
505.88	42117.94
506.06	41816.01
506.23	41572.60
506.41	42050.06
506.58	42564.98
506.76	42270.08
506.93	42691.37
507.11	42513.49
507.28	43096.28
507.46	42829.46
507.63	43367.79
507.81	42899.68
507.98	43058.84
508.16	43267.14
508.33	43674.40
508.50	43800.79
508.68	43856.96
508.85	44156.55
509.03	43976.33
509.20	43672.06
509.38	44332.09
509.55	44142.50
509.73	44655.08
509.90	44825.94
510.08	44996.80
510.25	44830.62
510.42	44786.15
510.60	45319.79
510.77	45490.65
510.95	45656.83
511.12	45071.70
511.30	45249.58
511.47	45574.91
511.64	45815.99
511.82	45832.37
511.99	46117.92
512.17	46230.26
512.34	45872.16
512.51	46555.60
512.69	46373.03
512.86	46447.93
513.04	46646.88
513.21	46672.62
513.38	47143.07
513.56	47208.61
513.73	46782.63
513.90	47290.52
514.08	47578.41
514.25	47915.45
514.43	47826.51
514.60	47943.53
514.77	47765.65
514.95	47849.91
515.12	47466.06
515.29	47856.93
515.47	48069.92
515.64	48458.45
515.81	48292.27
515.99	48519.31
516.16	48399.94
516.33	48409.30
516.51	48877.41
516.68	48758.04
516.85	48589.52
517.03	48870.39
517.20	48914.86
517.37	48884.43
517.54	48910.17
517.72	49284.66
517.89	49350.20
518.06	49333.81
518.24	49399.35
518.41	49471.90
518.58	49504.67
518.75	49258.91
518.93	49703.62
519.10	49385.30
519.27	50042.99
519.45	50061.72
519.62	50120.23
519.79	50279.39
519.96	50265.34
520.14	50511.10
520.31	50164.70
520.48	50686.64
520.65	50408.12
520.83	50714.73
521.00	50803.67
521.17	50733.45
521.34	50852.82
521.52	50698.34
521.69	50890.27
521.86	51246.03
522.03	51470.72
522.20	51711.80
522.38	51714.14
522.55	51779.67
522.72	51709.46
522.89	51777.33
523.07	51524.55
523.24	51707.12
523.41	52261.82
523.58	51461.36
523.75	52097.98
523.92	51971.60
524.10	51969.26
524.27	52093.30
524.44	52179.90
524.61	51987.98
524.78	52355.44
524.96	52498.22
525.13	52376.51
525.30	52542.69
525.47	52786.10
525.64	52542.69
525.81	52575.45
525.98	52767.38
526.16	52994.41
526.33	53029.52
526.50	53132.50
526.67	52573.11
526.84	52875.04
527.01	52959.30
527.18	53099.73
527.36	53162.93
527.53	53153.57
527.70	53340.81
527.87	53418.05
528.04	53420.39
528.21	53514.01
528.38	53249.53
528.55	53497.62
528.72	53598.27
528.89	53291.66
529.07	53591.25
529.24	53691.89
529.41	54087.44
529.58	53881.47
529.75	53808.92
529.92	53841.68
530.09	54199.79
530.26	54026.59
530.43	53846.36
530.60	53736.36
530.77	53860.41
530.94	54342.56
531.11	54234.89
531.28	54351.92
531.46	54356.60
531.63	54408.09
531.80	54068.72
531.97	54621.08
532.14	54672.57
532.31	54522.78
532.48	54824.71
532.65	54672.57
532.82	54731.09
532.99	54728.75
533.16	54639.81
533.33	54995.57
533.50	54932.37
533.67	55199.19
533.84	54878.54
534.01	54951.10
534.18	54911.31
534.35	55374.73
534.52	55086.85
534.69	55269.41
534.86	55372.39
535.03	54990.89
535.20	55250.69
535.37	55292.82
535.54	55145.36
535.71	55166.43
535.88	55636.87
536.05	55664.96
536.22	55835.82
536.38	55866.25
536.55	55714.11
536.72	55819.44
536.89	55763.26
537.06	55695.39
537.23	55693.05
537.40	55606.45
537.57	56002.00
537.74	55929.44
537.91	55976.25
538.08	56013.70
538.25	55735.18
538.42	55861.57
538.59	56430.32
538.75	55969.23
538.92	56367.12
539.09	56327.33
539.26	56069.87
539.43	56259.46
539.60	56102.64
539.77	56306.27
539.94	56694.80
540.11	56753.31
540.28	56584.79
540.44	56411.59
540.61	56435.00
540.78	56495.85
540.95	56530.96
541.12	56442.02
541.29	56722.88
541.46	56615.22
541.62	56786.08
541.79	56797.78
541.96	56535.64
542.13	56743.95
542.30	56753.31
542.47	57036.51
542.63	56896.08
542.80	57001.41
542.97	57034.17
543.14	57502.28
543.31	57104.39
543.48	57345.47
543.64	57581.86
543.81	57396.96
543.98	57485.90
544.15	57415.68
544.32	57731.65
544.48	57605.26
544.65	57467.17
544.82	57574.84
544.99	57326.74
545.16	57633.35
545.32	57588.88
545.49	57750.38
545.66	57909.53
545.83	57647.39
546.00	57888.47
546.16	57799.53
546.33	57616.97
546.50	57579.52
546.67	57780.81
546.83	57602.92
547.00	57741.02
547.17	57879.11
547.34	57712.93
547.50	58150.61
547.67	58113.16
547.84	58265.30
548.00	58267.64
548.17	58398.71
548.34	58424.45
548.51	58267.64
548.67	58305.09
548.84	58293.38
549.01	58220.83
549.18	58328.49
549.34	58576.59
549.51	58485.31
549.68	58363.60
549.84	58382.32
550.01	58518.07
550.18	58333.17
550.34	58578.93
550.51	58585.95
550.68	58478.28
550.84	58513.39
551.01	58611.70
551.18	58639.78
551.34	58532.12
551.51	58866.81
551.68	58534.46
551.84	58700.64
552.01	58824.68
552.18	58937.03
552.34	58588.29
552.51	59112.57
552.68	58794.26
552.84	58773.19
553.01	59175.76
553.18	58894.90
553.34	59044.69
553.51	59030.65
553.67	59138.32
553.84	58866.81
554.01	58873.84
554.17	59093.85
554.34	59187.47
554.51	59014.27
554.67	59145.34
554.84	59194.49
555.00	59112.57
555.17	59217.89
555.33	59096.19
555.50	59126.61
555.67	59117.25
555.83	59281.09
556.00	59215.55
556.16	59456.63
556.33	59583.02
556.50	59332.58
556.66	59365.35
556.83	59168.74
556.99	59370.03
557.16	59465.99
557.32	59657.91
557.49	59791.33
557.65	59344.28
557.82	59648.55
557.98	59458.97
558.15	59629.83
558.32	59580.68
558.48	59412.16
558.65	59531.53
558.81	59599.40
558.98	59650.89
559.14	59711.75
559.31	59510.46
559.47	59840.48
559.64	59959.84
559.80	59711.75
559.97	59711.75
560.13	59634.51
560.30	59884.95
560.46	59990.27
560.63	59896.65
560.79	59781.96
560.96	60018.36
561.12	59931.76
561.29	59964.52
561.45	59994.95
561.61	59781.96
561.78	59767.92
561.94	59934.10
562.11	59854.52
562.27	59971.55
562.44	59927.08
562.60	60140.07
562.77	60144.75
562.93	59861.54
563.10	60205.60
563.26	60058.15
563.42	60547.32
563.59	60074.53
563.75	60229.01
563.92	60170.49
564.08	60037.08
564.24	60203.26
564.41	60170.49
564.57	60285.18
564.74	60336.67
564.90	60198.58
565.07	60219.64
565.23	60219.64
565.39	60158.79
565.56	60268.79
565.72	60163.47
565.88	60549.66
566.05	60116.66
566.21	60137.72
566.38	60252.41
566.54	60273.48
566.70	60556.68
566.87	60566.04
567.03	60165.81
567.19	60605.83
567.36	60540.30
567.52	60662.00
567.68	60479.44
567.85	60491.15
568.01	60697.11
568.17	60544.98
568.34	60561.36
568.50	60341.35
568.66	60205.60
568.83	60786.05
568.99	60388.16
569.15	60449.02
569.32	60430.29
569.48	60486.46
569.64	60547.32
569.81	60355.39
569.97	60488.80
570.13	60374.12
570.30	60317.95
570.46	60713.50
570.62	60647.96
570.78	60587.11
570.95	60664.35
571.11	60903.08
571.27	60694.77
571.43	60662.00
571.60	60999.04
571.76	60664.35
571.92	60767.33
572.09	60790.73
572.25	60743.92
572.41	60591.79
572.57	60654.98
572.74	60947.55
572.90	60748.60
573.06	60692.43
573.22	60617.53
573.38	60629.24
573.55	60776.69
573.71	60858.61
573.87	60722.86
574.03	60664.35
574.20	60727.54
574.36	60580.09
574.52	60849.25
574.68	60743.92
574.84	60947.55
575.01	60926.49
575.17	60786.05
575.33	60874.99
575.49	60804.78
575.65	60860.95
575.82	60938.19
575.98	60870.31
576.14	61024.79
576.30	61003.72
576.46	60790.73
576.62	60786.05
576.79	60816.48
576.95	60697.11
577.11	60910.10
577.27	61013.08
577.43	60905.42
577.59	60884.36
577.75	60788.39
577.92	60926.49
578.08	61052.87
578.24	60762.65
578.40	61111.39
578.56	60914.78
578.72	60842.23
578.88	61176.92
579.04	61155.86
579.21	60767.33
579.37	61038.83
579.53	60956.91
579.69	60914.78
579.85	60903.08
580.01	60910.10
580.17	60865.63
580.33	60912.44
580.49	61052.87
580.65	61017.77
580.82	61038.83
580.98	60804.78
581.14	61034.15
581.30	61106.71
581.46	61050.53
581.62	61197.99
581.78	60947.55
581.94	61059.90
582.10	61057.56
582.26	61123.09
582.42	61083.30
582.58	61134.79
582.74	60947.55
582.90	60907.76
583.06	61092.66
583.22	60903.08
583.38	60977.98
583.54	61099.68
583.70	61155.86
583.86	61097.34
584.02	60832.86
584.18	61258.84
584.34	61116.07
584.50	61010.74
584.66	60992.02
584.82	60774.35
584.98	61188.63
585.14	61165.22
585.30	60982.66
585.46	61008.40
585.62	61057.56
585.78	61371.19
585.94	60837.54
586.10	61160.54
586.26	61137.13
586.42	61293.95
586.58	61219.05
586.74	61190.97
586.90	61015.43
587.06	61071.60
587.22	61263.52
587.38	61038.83
587.54	61312.67
587.70	61263.52
587.86	61134.79
588.02	61109.05
588.18	61099.68
588.34	61195.65
588.49	61116.07
