SpectraSuite Data File
++++++++++++++++++++++++++++++++++++
Date: Fri Oct 25 10:43:16 EDT 2013
User: price-jones
Dark Spectrum Present: No
Reference Spectrum Present: No
Number of Sampled Component Spectra: 1
Spectrometers: USB2+H05261
Integration Time (usec): 100000 (USB2+H05261)
Spectra Averaged: 1 (USB2+H05261)
Boxcar Smoothing: 0 (USB2+H05261)
Correct for Electrical Dark: No (USB2+H05261)
Strobe/Lamp Enabled: No (USB2+H05261)
Correct for Detector Non-linearity: No (USB2+H05261)
Correct for Stray Light: No (USB2+H05261)
Number of Pixels in Processed Spectrum: 2048
>>>>>Begin Processed Spectral Data<<<<<
365.73	91.28
365.92	91.28
366.12	91.28
366.32	63.19
366.52	0.00
366.72	0.00
366.91	16.38
367.11	0.00
367.31	32.77
367.51	70.22
367.70	0.00
367.90	32.77
368.10	72.56
368.30	46.81
368.49	70.22
368.69	100.64
368.89	37.45
369.09	110.01
369.28	100.64
369.48	28.09
369.68	46.81
369.87	72.56
370.07	86.60
370.27	53.83
370.47	156.82
370.66	374.49
370.86	468.11
371.06	484.49
371.25	475.13
371.45	397.89
371.65	482.15
371.84	498.53
372.04	418.96
372.24	435.34
372.44	540.66
372.63	538.32
372.83	503.22
373.03	521.94
373.22	449.38
373.42	444.70
373.62	535.98
373.81	582.79
374.01	566.41
374.21	587.47
374.40	538.32
374.60	575.77
374.79	557.05
374.99	512.58
375.19	580.45
375.38	608.54
375.58	585.13
375.78	557.05
375.97	662.37
376.17	671.73
376.37	559.39
376.56	596.84
376.76	554.71
376.95	629.60
377.15	617.90
377.35	624.92
377.54	664.71
377.74	725.57
377.93	564.07
378.13	608.54
378.33	699.82
378.52	645.99
378.72	629.60
378.91	580.45
379.11	706.84
379.31	601.52
379.50	655.35
379.70	620.24
379.89	685.78
380.09	582.79
380.28	671.73
380.48	678.76
380.68	674.07
380.87	667.05
381.07	732.59
381.26	732.59
381.46	751.31
381.65	748.97
381.85	617.90
382.04	688.12
382.24	650.67
382.43	678.76
382.63	725.57
382.83	690.46
383.02	732.59
383.22	737.27
383.41	706.84
383.61	777.06
383.80	699.82
384.00	653.01
384.19	674.07
384.39	779.40
384.58	744.29
384.78	763.01
384.97	821.53
385.17	781.74
385.36	730.25
385.56	786.42
385.75	739.61
385.95	793.44
386.14	884.72
386.34	866.00
386.53	748.97
386.72	791.10
386.92	847.27
387.11	835.57
387.31	929.19
387.50	835.57
387.70	837.91
387.89	901.11
388.09	931.53
388.28	880.04
388.48	863.66
388.67	915.15
388.86	910.47
389.06	961.96
389.25	971.32
389.45	1013.45
389.64	915.15
389.84	997.07
390.03	961.96
390.22	968.98
390.42	940.90
390.61	950.26
390.81	1043.88
391.00	952.60
391.19	1008.77
391.39	1053.24
391.58	1130.48
391.78	1158.57
391.97	964.30
392.16	987.71
392.36	999.41
392.55	1057.92
392.75	976.00
392.94	1025.15
393.13	1088.35
393.33	968.98
393.52	992.39
393.71	1050.90
393.91	1025.15
394.10	968.98
394.29	1139.84
394.49	1203.04
394.68	1203.04
394.88	1210.06
395.07	1245.16
395.26	1287.29
395.46	1165.59
395.65	1296.66
395.84	1172.61
396.04	1196.01
396.23	1200.69
396.42	1170.27
396.62	1188.99
396.81	1235.80
397.00	1207.72
397.19	1294.32
397.39	1366.87
397.58	1317.72
397.77	1364.53
397.97	1385.60
398.16	1287.29
398.35	1413.68
398.55	1411.34
398.74	1472.20
398.93	1469.86
399.12	1511.99
399.32	1514.33
399.51	1533.05
399.70	1500.28
399.90	1500.28
400.09	1591.56
400.28	1614.97
400.47	1621.99
400.67	1596.25
400.86	1668.80
401.05	1720.29
401.24	1631.35
401.44	1715.61
401.63	1792.85
401.82	1877.11
402.01	1703.91
402.21	1755.40
402.40	1785.83
402.59	1727.32
402.78	1767.10
402.97	1727.32
403.17	1750.72
403.36	1682.85
403.55	1675.82
403.74	1792.85
403.93	1781.15
404.13	1900.52
404.32	1806.89
404.51	1776.47
404.70	1987.11
404.89	1930.94
405.09	1987.11
405.28	2038.61
405.47	1919.24
405.66	2038.61
405.85	2071.37
406.05	1909.88
406.24	1982.43
406.43	1944.99
406.62	2141.59
406.81	2127.55
407.00	2064.35
407.20	1937.96
407.39	2092.44
407.58	1996.48
407.77	2069.03
407.96	2218.83
408.15	2200.10
408.34	2211.81
408.54	2249.25
408.73	2258.62
408.92	2298.41
409.11	2237.55
409.30	2319.47
409.49	2195.42
409.68	2200.10
409.87	2272.66
410.07	2333.51
410.26	2436.50
410.45	2387.35
410.64	2380.32
410.83	2389.69
411.02	2480.97
411.21	2499.69
411.40	2605.02
411.59	2698.64
411.78	2672.89
411.98	2572.25
412.17	2555.86
412.36	2576.93
412.55	2729.06
412.74	2661.19
412.93	2759.49
413.12	2656.51
413.31	2775.88
413.50	2743.11
413.69	2857.79
413.88	2827.37
414.07	2920.99
414.26	2918.65
414.45	3009.93
414.64	2899.92
414.83	3002.91
415.02	2998.23
415.22	2946.73
415.41	3169.09
415.60	3063.76
415.79	3171.43
415.98	3215.90
416.17	3222.92
416.36	3185.47
416.55	3243.98
416.74	3148.02
416.93	3269.73
417.12	3194.83
417.31	3262.71
417.50	3412.50
417.69	3475.70
417.88	3466.33
418.07	3304.84
418.26	3442.93
418.45	3599.74
418.64	3660.60
418.83	3449.95
419.02	3564.64
419.21	3620.81
419.39	3463.99
419.58	3543.57
419.77	3482.72
419.96	3702.73
420.15	3686.34
420.34	3726.13
420.53	3674.64
420.72	3815.07
420.91	3585.70
421.10	3906.35
421.29	3866.56
421.48	3894.65
421.67	3794.01
421.86	3749.54
422.05	3742.52
422.24	3777.62
422.43	3880.61
422.61	3768.26
422.80	3896.99
422.99	3880.61
423.18	3908.69
423.37	3826.78
423.56	3950.82
423.75	3943.80
423.94	3829.12
424.13	3707.41
424.32	3927.42
424.50	4074.87
424.69	4046.79
424.88	4044.45
425.07	4086.58
425.26	3899.33
425.45	3882.95
425.64	3845.50
425.83	4042.11
426.01	3929.76
426.20	3861.88
426.39	3913.38
426.58	3927.42
426.77	3927.42
426.96	3981.25
427.15	3845.50
427.33	4131.05
427.52	3999.98
427.71	4028.06
427.90	4072.53
428.09	4149.77
428.28	4170.83
428.46	4079.55
428.65	4109.98
428.84	4250.41
429.03	4287.86
429.22	4070.19
429.40	4135.73
429.59	4203.60
429.78	3819.75
429.97	3948.48
430.16	4025.72
430.34	4224.67
430.53	4063.17
430.72	4156.79
430.91	4315.95
431.10	4344.03
431.28	4489.15
431.47	4669.37
431.66	4723.20
431.85	4390.84
432.03	4489.15
432.22	4622.56
432.41	4678.73
432.60	4823.84
432.79	4730.22
432.97	4692.77
433.16	4624.90
433.35	4582.77
433.54	4528.94
433.72	4788.74
433.91	4690.43
434.10	4936.19
434.28	4823.84
434.47	4819.16
434.66	4954.91
434.85	4919.81
435.03	5095.35
435.22	5057.90
435.41	5004.07
435.59	4931.51
435.78	4898.74
435.97	5118.75
436.16	5167.90
436.34	5060.24
436.53	5123.43
436.72	5210.03
436.90	4870.65
437.09	5219.39
437.28	5034.49
437.46	5205.35
437.65	5261.52
437.84	5095.35
438.02	5081.30
438.21	5123.43
438.40	5226.42
438.58	5418.34
438.77	5460.47
438.96	5472.17
439.14	5521.32
439.33	5551.75
439.52	5605.58
439.70	5659.42
439.89	5624.31
440.08	5729.63
440.26	5591.54
440.45	5654.73
440.63	5750.70
440.82	5937.94
441.01	6033.90
441.19	5863.04
441.38	6008.16
441.57	6080.71
441.75	6061.99
441.94	6403.71
442.12	6286.68
442.31	6464.56
442.50	6293.70
442.68	6186.04
442.87	6326.47
443.05	6303.06
443.24	6553.50
443.43	6272.64
443.61	6321.79
443.80	6604.99
443.98	6487.96
444.17	6384.98
444.35	6581.59
444.54	6462.22
444.73	6494.99
444.91	6642.44
445.10	6478.60
445.28	6314.77
445.47	6260.93
445.65	6361.58
445.84	6480.94
446.02	6436.47
446.21	6593.29
446.39	6478.60
446.58	6649.46
446.77	6698.61
446.95	6450.52
447.14	6810.96
447.32	6698.61
447.51	6679.89
447.69	6541.80
447.88	6644.78
448.06	6700.95
448.25	6654.14
448.43	6747.76
448.62	6555.84
448.80	6733.72
448.99	6733.72
449.17	6729.04
449.36	6810.96
449.54	7037.99
449.73	7197.15
449.91	7052.03
450.10	7030.97
450.28	7145.66
450.46	7169.06
450.65	7232.26
450.83	7103.53
451.02	7185.44
451.20	7314.17
451.39	7274.38
451.57	7328.22
451.76	7157.36
451.94	7002.88
452.13	7152.68
452.31	7026.29
452.49	7023.95
452.68	7124.59
452.86	7115.23
453.05	7360.98
453.23	7297.79
453.42	7314.17
453.60	7428.86
453.78	7328.22
453.97	7419.50
454.15	7318.86
454.34	7325.88
454.52	7358.64
454.70	7599.72
454.89	7637.17
455.07	7396.09
455.26	7630.15
455.44	7700.36
455.62	7740.15
455.81	7763.56
455.99	7911.01
456.17	7793.98
456.36	7882.92
456.54	7740.15
456.73	8074.85
456.91	8119.32
457.09	8035.06
457.28	8234.00
457.46	7981.23
457.64	8173.15
457.83	8119.32
458.01	8116.98
458.19	8257.41
458.38	8166.13
458.56	8393.16
458.74	8430.61
458.93	8145.06
459.11	8149.75
459.29	8224.64
459.48	8348.69
459.66	8432.95
459.84	8336.99
460.03	8432.95
460.21	8322.94
460.39	8442.31
460.57	8540.61
460.76	8533.59
460.94	8727.86
461.12	8594.45
461.31	8767.65
461.49	8540.61
461.67	8547.64
461.85	8863.61
462.04	8723.18
462.22	9348.10
462.40	8884.67
462.59	8779.35
462.77	8917.44
462.95	8966.59
463.13	8769.99
463.32	8858.93
463.50	8858.93
463.68	8835.52
463.86	9032.13
464.05	9102.34
464.23	8926.80
464.41	8910.42
464.59	8753.60
464.78	9275.54
464.96	8966.59
465.14	9116.39
465.32	9006.38
465.50	9125.75
465.69	9078.94
465.87	9221.71
466.05	9130.43
466.23	9125.75
466.41	9132.77
466.60	9315.33
466.78	9174.90
466.96	9090.64
467.14	9287.25
467.32	9177.24
467.51	9296.61
467.69	9205.33
467.87	9355.12
468.05	9261.50
468.23	9305.97
468.41	9289.59
468.60	9348.10
468.78	9666.41
468.96	9528.32
469.14	9783.44
469.32	10047.92
469.50	9397.25
469.69	9638.33
469.87	9790.46
470.05	10076.01
470.23	9921.53
470.41	9846.63
470.59	10052.60
470.77	9970.68
470.95	9942.60
471.14	9916.85
471.32	9839.61
471.50	10214.10
471.68	10340.49
471.86	10443.47
472.04	10321.76
472.22	10403.68
472.40	10204.74
472.58	10464.54
472.77	10326.44
472.95	10506.66
473.13	10721.99
473.31	10366.23
473.49	10555.82
473.67	10527.73
473.85	10581.56
474.03	10780.51
474.21	10986.47
474.39	10850.72
474.57	10934.98
474.75	11257.98
474.93	11096.48
475.12	11080.10
475.30	11349.26
475.48	11075.42
475.66	11239.25
475.84	11166.70
476.02	11482.67
476.20	11590.33
476.38	11325.85
476.56	11889.92
476.74	11763.53
476.92	11854.81
477.10	11927.37
477.28	12056.10
477.46	12126.32
477.64	12112.27
477.82	12135.68
478.00	12423.56
478.18	12315.90
478.36	12486.76
478.54	12585.06
478.72	12844.86
478.90	12809.75
479.08	12987.63
479.26	13067.21
479.44	13198.28
479.62	13177.22
479.80	13465.10
479.98	13231.05
480.16	13509.57
480.34	13371.48
480.52	13795.12
480.70	13598.51
480.88	13547.02
481.06	13907.46
481.24	14001.08
481.41	14331.10
481.59	14303.01
481.77	14251.52
481.95	14200.03
482.13	14527.71
482.31	14452.81
482.49	14874.10
482.67	14817.93
482.85	14958.36
483.03	15213.48
483.21	15557.54
483.39	15307.10
483.57	15391.36
483.74	15489.67
483.92	15431.15
484.10	15723.72
484.28	15920.32
484.46	15850.11
484.64	16416.52
484.82	15957.77
485.00	15922.66
485.18	16292.47
485.35	16294.81
485.53	15861.81
485.71	16058.42
485.89	16325.24
486.07	16332.26
486.25	16458.65
486.43	16760.58
486.61	17020.38
486.78	17057.82
486.96	17465.08
487.14	17516.57
487.32	17610.19
487.50	18001.06
487.68	18111.07
487.85	18115.75
488.03	18588.53
488.21	18576.83
488.39	18427.04
488.57	18434.06
488.75	18824.93
488.92	18808.54
489.10	19325.80
489.28	19398.36
489.46	19468.58
489.64	19807.95
489.81	20123.93
489.99	20292.44
490.17	20130.95
490.35	20465.64
490.53	20222.23
490.70	20458.62
490.88	20308.83
491.06	20765.23
491.24	20966.52
491.41	20713.74
491.59	20425.86
491.77	20547.56
491.95	20863.54
492.13	20961.84
492.30	21502.50
492.48	21238.02
492.66	21582.08
492.84	21703.79
493.01	22064.23
493.19	21757.62
493.37	21792.73
493.54	22141.47
493.72	22279.56
493.90	22544.04
494.08	22806.18
494.25	23005.13
494.43	23126.83
494.61	23250.88
494.79	23386.63
494.96	23276.63
495.14	23477.91
495.32	23438.12
495.49	23484.94
495.67	23775.16
495.85	24168.37
496.02	24159.01
496.20	24116.88
496.38	24519.45
496.55	24421.15
496.73	24856.49
496.91	24510.09
497.09	24774.57
497.26	24767.55
497.44	24926.71
497.62	25350.34
497.79	25322.26
497.97	24961.81
498.14	25560.99
498.32	25699.08
498.50	25275.45
498.67	25937.82
498.85	25474.39
499.03	26064.21
499.20	26045.48
499.38	26071.23
499.56	26141.44
499.73	26295.92
499.91	26808.50
500.08	26721.90
500.26	26232.72
500.44	26380.18
500.61	26604.87
500.79	26415.29
500.97	26614.23
501.14	27452.14
501.32	26881.05
501.49	26810.84
501.67	27023.83
501.84	27358.52
502.02	26991.06
502.20	27307.03
502.37	27688.54
502.55	27365.54
502.72	27835.99
502.90	27676.83
503.07	27709.60
503.25	28233.88
503.43	27693.22
503.60	27950.68
503.78	27718.96
503.95	28238.56
504.13	28465.60
504.30	28563.90
504.48	28259.63
504.65	28776.89
504.83	29015.62
505.01	29385.43
505.18	28847.10
505.36	29273.08
505.53	29209.89
505.71	29221.59
505.88	29275.42
506.06	29362.02
506.23	29659.27
506.41	29532.88
506.58	29928.43
506.76	29888.64
506.93	29872.26
507.11	30122.69
507.28	29944.81
507.46	29694.38
507.63	29764.59
507.81	30108.65
507.98	30064.18
508.16	30338.02
508.33	30616.55
508.50	30352.07
508.68	30497.18
508.85	30726.55
509.03	30623.57
509.20	31166.57
509.38	30855.28
509.55	31126.78
509.73	31075.29
509.90	31133.81
510.08	31143.17
510.25	30955.93
510.42	31213.38
510.60	31901.50
510.77	31615.96
510.95	31693.19
511.12	31543.40
511.30	32245.56
511.47	31992.78
511.64	32236.20
511.82	31967.04
511.99	31927.25
512.17	32519.40
512.34	32474.93
512.51	32318.12
512.69	32589.62
512.86	32334.50
513.04	32723.03
513.21	32828.35
513.38	32339.18
513.56	32708.99
513.73	32622.39
513.90	32821.33
514.08	32804.95
514.25	33120.92
514.43	32861.12
514.60	33031.98
514.77	33029.64
514.95	33174.75
515.12	33352.63
515.29	33652.22
515.47	33977.56
515.64	33589.03
515.81	33439.23
515.99	33893.30
516.16	33521.15
516.33	33163.05
516.51	33319.87
516.68	32999.21
516.85	33015.60
517.03	33024.96
517.20	33764.57
517.37	33888.62
517.54	34068.84
517.72	34029.05
517.89	33549.24
518.06	33715.42
518.24	33673.29
518.41	34029.05
518.58	34529.92
518.75	34134.37
518.93	34679.72
519.10	34593.12
519.27	34618.86
519.45	34782.70
519.62	35119.74
519.79	35009.73
519.96	34998.03
520.14	35201.66
520.31	34401.19
520.48	35395.92
520.65	35204.00
520.83	35655.72
521.00	35571.46
521.17	35929.56
521.34	35964.67
521.52	35992.76
521.69	35695.51
521.86	35770.41
522.03	36484.27
522.20	35910.84
522.38	36517.04
522.55	36254.90
522.72	36018.50
522.89	35835.94
523.07	36381.29
523.24	36484.27
523.41	36664.49
523.58	36833.01
523.75	37109.19
523.92	37038.98
524.10	36971.10
524.27	37205.16
524.44	36863.44
524.61	37237.92
524.78	37500.06
524.96	37167.71
525.13	37462.61
525.30	37546.87
525.47	37509.43
525.64	37404.10
525.81	37390.06
525.98	37893.27
526.16	36886.84
526.33	37053.02
526.50	37303.46
526.67	36952.38
526.84	37174.73
527.01	37193.45
527.18	37699.01
527.36	38068.81
527.53	37823.06
527.70	38398.83
527.87	37996.26
528.04	38005.62
528.21	38031.36
528.38	38312.23
528.55	38513.52
528.72	38679.69
528.89	39063.54
529.07	38522.88
529.24	38398.83
529.41	38829.49
529.58	38726.50
529.75	38808.42
529.92	38675.01
530.09	39014.39
530.26	39131.42
530.43	38902.04
530.60	38728.84
530.77	38754.59
530.94	39381.85
531.11	38974.60
531.28	39063.54
531.46	39426.32
531.63	39306.96
531.80	39070.56
531.97	39131.42
532.14	39496.54
532.31	39014.39
532.48	39454.41
532.65	39576.12
532.82	39346.75
532.99	39512.92
533.16	38948.85
533.33	39606.55
533.50	39800.81
533.67	39800.81
533.84	39557.39
534.01	39606.55
534.18	39435.69
534.35	40362.54
534.52	39952.94
534.69	40240.83
534.86	40542.76
535.03	40165.93
535.20	40334.45
535.37	40594.25
535.54	40755.75
535.71	40402.33
535.88	40605.95
536.05	40341.47
536.22	40620.00
536.38	40783.83
536.55	40353.18
536.72	40488.93
536.89	40222.11
537.06	40533.40
537.23	40856.39
537.40	40931.29
537.57	40900.86
537.74	40734.68
537.91	41263.64
538.08	40999.16
538.25	41167.68
538.42	40938.31
538.59	40877.46
538.75	40617.66
538.92	40950.01
539.09	40952.35
539.26	41294.07
539.43	40760.43
539.60	41158.32
539.77	41031.93
539.94	41457.91
540.11	40987.46
540.28	41448.55
540.44	41558.55
540.61	41074.06
540.78	41024.91
540.95	41195.77
541.12	41600.68
541.29	41319.82
541.46	41553.87
541.62	41453.23
541.79	42316.89
541.96	41532.81
542.13	41518.76
542.30	41879.21
542.47	41872.18
542.63	41453.23
542.80	42337.95
542.97	42232.63
543.14	42150.71
543.31	42167.09
543.48	42403.49
543.64	42431.57
543.81	42712.44
543.98	42167.09
544.15	42389.44
544.32	42986.28
544.48	42473.70
544.65	42492.43
544.82	42845.85
544.99	42581.37
545.16	42190.50
545.32	42522.85
545.49	43012.02
545.66	42974.58
545.83	42983.94
546.00	42906.70
546.16	42630.52
546.33	42621.16
546.50	42593.07
546.67	43173.52
546.83	42340.29
547.00	42567.32
547.17	42520.51
547.34	42841.17
547.50	42829.46
547.67	43070.54
547.84	43070.54
548.00	43377.15
548.17	43040.11
548.34	43636.95
548.51	43793.76
548.67	44041.86
548.84	43501.20
549.01	43239.06
549.18	43274.16
549.34	43510.56
549.51	43173.52
549.68	43302.25
549.84	43325.66
550.01	43707.16
550.18	43377.15
550.34	43796.10
550.51	43571.41
550.68	43540.99
550.84	43248.42
551.01	43952.92
551.18	43536.30
551.34	43849.94
551.51	43658.01
551.68	44161.23
551.84	43697.80
552.01	43679.08
552.18	43964.62
552.34	43480.13
552.51	43826.53
552.68	43969.30
552.84	44116.76
553.01	44020.80
553.18	44060.58
553.34	44142.50
553.51	43992.71
553.67	44098.03
553.84	44446.77
554.01	44720.62
554.17	45006.16
554.34	44554.44
554.51	44486.56
554.67	44968.71
554.84	44533.37
555.00	44402.30
555.17	44296.98
555.33	44863.39
555.50	44194.00
555.67	44334.43
555.83	44547.42
556.00	44648.06
556.16	44870.41
556.33	44362.51
556.50	44406.98
556.66	44334.43
556.83	44013.77
556.99	44257.19
557.16	44648.06
557.32	44865.73
557.49	44514.65
557.65	44708.91
557.82	44746.36
557.98	45085.74
558.15	45036.59
558.32	45006.16
558.48	44273.57
558.65	44582.52
558.81	44781.47
558.98	44432.73
559.14	44971.05
559.31	45003.82
559.47	44891.48
559.64	45153.62
559.80	45057.65
559.97	45055.31
560.13	44821.26
560.30	45151.27
560.46	44856.37
560.63	44964.03
560.79	44980.42
560.96	45469.59
561.12	45085.74
561.29	45078.72
561.45	45001.48
561.61	44889.13
561.78	44928.92
561.94	44690.19
562.11	45380.65
562.27	44966.37
562.44	45659.17
562.60	45319.79
562.77	45265.96
562.93	45209.79
563.10	45600.66
563.26	45441.50
563.42	45354.90
563.59	45001.48
563.75	45081.06
563.92	45343.20
564.08	45162.98
564.24	45556.19
564.41	45130.21
564.57	45411.07
564.74	45570.23
564.90	45233.19
565.07	45361.92
565.23	45317.45
565.39	45219.15
565.56	45195.74
565.72	45102.12
565.88	45570.23
566.05	44854.03
566.21	45448.52
566.38	45315.11
566.54	45024.89
566.70	45841.73
566.87	45731.73
567.03	45729.39
567.19	46227.92
567.36	46005.57
567.52	45546.82
567.68	45766.84
567.85	44624.65
568.01	45228.51
568.17	45333.84
568.34	45439.16
568.50	45614.70
568.66	45104.46
568.83	45422.78
568.99	45443.84
569.15	45598.32
569.32	45357.24
569.48	45385.33
569.64	45890.88
569.81	45759.81
569.97	45727.05
570.13	45385.33
570.30	45120.85
570.46	45076.38
570.62	44893.82
570.78	44835.30
570.95	44999.14
571.11	45485.97
571.27	45542.14
571.43	45219.15
571.60	45895.56
571.76	45514.06
571.92	45422.78
572.09	45605.34
572.25	45673.21
572.41	46225.58
572.57	45804.28
572.74	45886.20
572.90	45734.07
573.06	45827.69
573.22	46206.86
573.38	45944.72
573.55	45502.35
573.71	45729.39
573.87	45741.09
574.03	45137.23
574.20	45549.17
574.36	45766.84
574.52	45832.37
574.68	45804.28
574.84	45656.83
575.01	45886.20
575.17	45631.08
575.33	45242.56
575.49	45570.23
575.65	45914.29
575.82	46038.34
575.98	45600.66
576.14	46239.62
576.30	46169.41
576.46	45378.31
576.62	45546.82
576.79	45261.28
576.95	45708.32
577.11	45783.22
577.27	45837.05
577.43	45488.31
577.59	45052.97
577.75	45249.58
577.92	45251.92
578.08	45682.58
578.24	45158.30
578.40	45598.32
578.56	45333.84
578.72	45354.90
578.88	45895.56
579.04	45853.44
579.21	45771.52
579.37	45780.88
579.53	46054.72
579.69	45790.24
579.85	45659.17
580.01	45680.24
580.17	45504.70
580.33	45720.02
580.49	46082.81
580.65	45961.10
580.82	45839.39
580.98	45893.22
581.14	45312.77
581.30	46087.49
581.46	45776.20
581.62	45801.94
581.78	46153.02
581.94	46181.11
582.10	46202.18
582.26	45881.52
582.42	46389.42
582.58	45738.75
582.74	45649.81
582.90	46330.90
583.06	45911.95
583.22	45972.80
583.38	46239.62
583.54	45787.90
583.70	45844.07
583.86	45930.67
584.02	45942.38
584.18	45935.35
584.34	45516.40
584.50	46033.66
584.66	46040.68
584.82	46059.40
584.98	46136.64
585.14	46073.45
585.30	45626.40
585.46	45368.94
585.62	45469.59
585.78	45462.57
585.94	45586.61
586.10	45635.77
586.26	45621.72
586.42	45911.95
586.58	45888.54
586.74	45462.57
586.90	45574.91
587.06	45319.79
587.22	45804.28
587.38	45640.45
587.54	45984.51
587.70	45968.12
587.86	45844.07
588.02	45633.42
588.18	46054.72
588.34	45418.10
588.49	45612.36
588.65	45123.19
588.81	45361.92
588.97	45654.49
589.13	45165.32
589.29	45340.86
589.45	45420.44
589.61	45776.20
589.77	45993.87
589.93	46050.04
590.08	45811.31
