SpectraSuite Data File
++++++++++++++++++++++++++++++++++++
Date: Fri Oct 25 11:23:18 EDT 2013
User: price-jones
Dark Spectrum Present: No
Reference Spectrum Present: No
Number of Sampled Component Spectra: 1
Spectrometers: USB2+H05261
Integration Time (usec): 100000 (USB2+H05261)
Spectra Averaged: 1 (USB2+H05261)
Boxcar Smoothing: 0 (USB2+H05261)
Correct for Electrical Dark: No (USB2+H05261)
Strobe/Lamp Enabled: No (USB2+H05261)
Correct for Detector Non-linearity: No (USB2+H05261)
Correct for Stray Light: No (USB2+H05261)
Number of Pixels in Processed Spectrum: 2048
>>>>>Begin Processed Spectral Data<<<<<
365.73	257.46
365.92	257.46
366.12	257.46
366.32	152.13
366.52	102.98
366.72	128.73
366.91	56.17
367.11	194.26
367.31	98.30
367.51	170.86
367.70	110.01
367.90	107.66
368.10	93.62
368.30	63.19
368.49	44.47
368.69	168.52
368.89	191.92
369.09	198.95
369.28	147.45
369.48	161.50
369.68	138.09
369.87	227.03
370.07	173.20
370.27	205.97
370.47	334.70
370.66	643.65
370.86	617.90
371.06	552.37
371.25	791.10
371.45	631.94
371.65	681.10
371.84	699.82
372.04	662.37
372.24	791.10
372.44	688.12
372.63	767.70
372.83	725.57
373.03	763.01
373.22	730.25
373.42	816.85
373.62	786.42
373.81	751.31
374.01	901.11
374.21	795.78
374.40	760.67
374.60	837.91
374.79	842.59
374.99	847.27
375.19	851.96
375.38	833.23
375.58	788.76
375.78	868.34
375.97	905.79
376.17	954.94
376.37	849.61
376.56	889.40
376.76	835.57
376.95	926.85
377.15	866.00
377.35	896.43
377.54	891.74
377.74	940.90
377.93	950.26
378.13	999.41
378.33	929.19
378.52	940.90
378.72	1020.47
378.91	978.34
379.11	971.32
379.31	1006.43
379.50	898.77
379.70	940.90
379.89	1041.54
380.09	997.07
380.28	973.66
380.48	973.66
380.68	1053.24
380.87	978.34
381.07	957.28
381.26	968.98
381.46	1043.88
381.65	1048.56
381.85	994.73
382.04	1095.37
382.24	973.66
382.43	1011.11
382.63	1081.33
382.83	1062.60
383.02	1121.12
383.22	1086.01
383.41	1104.73
383.61	1172.61
383.80	1156.22
384.00	1193.67
384.19	1207.72
384.39	1060.26
384.58	1074.31
384.78	1170.27
384.97	1116.44
385.17	1118.78
385.36	1233.46
385.56	1170.27
385.75	1210.06
385.95	1198.35
386.14	1181.97
386.34	1191.33
386.53	1249.85
386.72	1163.25
386.92	1226.44
387.11	1226.44
387.31	1256.87
387.50	1268.57
387.70	1306.02
387.89	1254.53
388.09	1261.55
388.28	1336.45
388.48	1315.38
388.67	1334.11
388.86	1357.51
389.06	1320.06
389.25	1345.81
389.45	1270.91
389.64	1432.41
389.84	1458.15
390.03	1455.81
390.22	1376.24
390.42	1317.72
390.61	1336.45
390.81	1371.55
391.00	1373.89
391.19	1418.36
391.39	1413.68
391.58	1434.75
391.78	1430.07
391.97	1469.86
392.16	1460.49
392.36	1605.61
392.55	1511.99
392.75	1453.47
392.94	1540.07
393.13	1554.12
393.33	1497.94
393.52	1526.03
393.71	1593.90
393.91	1678.16
394.10	1579.86
394.29	1636.03
394.49	1659.44
394.68	1633.69
394.88	1715.61
395.07	1652.42
395.26	1710.93
395.46	1692.21
395.65	1706.25
395.84	1699.23
396.04	1785.83
396.23	1797.53
396.42	1834.98
396.62	1926.26
396.81	1769.44
397.00	1858.39
397.19	1771.79
397.39	1783.49
397.58	1860.73
397.77	1827.96
397.97	1935.62
398.16	1839.66
398.35	1886.47
398.55	1870.09
398.74	1886.47
398.93	1905.20
399.12	1944.99
399.32	1879.45
399.51	1914.56
399.70	1930.94
399.90	1935.62
400.09	1928.60
400.28	2179.04
400.47	2033.93
400.67	1994.14
400.86	2134.57
401.05	2118.18
401.24	2050.31
401.44	2071.37
401.63	2090.10
401.82	2120.53
402.01	2141.59
402.21	2279.68
402.40	2218.83
402.59	2136.91
402.78	2221.17
402.97	2246.91
403.17	2291.38
403.36	2303.09
403.55	2363.94
403.74	2345.22
403.93	2324.15
404.13	2328.83
404.32	2286.70
404.51	2373.30
404.70	2499.69
404.89	2485.65
405.09	2527.78
405.28	2513.74
405.47	2497.35
405.66	2478.63
405.85	2597.99
406.05	2623.74
406.24	2637.78
406.43	2546.50
406.62	2595.65
406.81	2724.38
407.00	2686.94
407.20	2682.25
407.39	2605.02
407.58	2677.57
407.77	2918.65
407.96	2799.28
408.15	2818.00
408.34	2761.83
408.54	2806.30
408.73	2853.11
408.92	2745.45
409.11	2883.54
409.30	2806.30
409.49	2815.66
409.68	2897.58
409.87	3000.57
410.07	3077.80
410.26	3045.04
410.45	2998.23
410.64	3105.89
410.83	3131.64
411.02	3136.32
411.21	3246.32
411.40	3297.81
411.59	3309.52
411.78	3304.84
411.98	3225.26
412.17	3169.09
412.36	3321.22
412.55	3492.08
412.74	3368.03
412.93	3442.93
413.12	3431.23
413.31	3623.15
413.50	3611.45
413.69	3583.36
413.88	3538.89
414.07	3707.41
414.26	3676.98
414.45	3595.06
414.64	3721.45
414.83	3808.05
415.02	3777.62
415.22	3878.27
415.41	3822.09
415.60	3962.53
415.79	3911.04
415.98	4042.11
416.17	4098.28
416.36	3985.93
416.55	3990.61
416.74	4187.22
416.93	4084.23
417.12	4140.41
417.31	4156.79
417.50	4243.39
417.69	4292.54
417.88	4273.82
418.07	4409.57
418.26	4306.59
418.45	4465.74
418.64	4461.06
418.83	4524.26
419.02	4585.11
419.21	4660.01
419.39	4517.23
419.58	4592.13
419.77	4463.40
419.96	4542.98
420.15	4638.94
420.34	4681.07
420.53	4648.30
420.72	4758.31
420.91	4844.91
421.10	4865.97
421.29	4863.63
421.48	4812.14
421.67	4821.50
421.86	4809.80
422.05	5013.43
422.24	4863.63
422.43	4835.55
422.61	4992.36
422.80	5050.88
422.99	5004.07
423.18	4973.64
423.37	5039.17
423.56	5013.43
423.75	5062.58
423.94	4905.76
424.13	4709.16
424.32	4826.18
424.50	5076.62
424.69	5146.84
424.88	5186.63
425.07	4947.89
425.26	4992.36
425.45	4943.21
425.64	5104.71
425.83	4990.02
426.01	5074.28
426.20	5048.54
426.39	5231.10
426.58	5039.17
426.77	5109.39
426.96	5252.16
427.15	5247.48
427.33	5177.26
427.52	5390.25
427.71	5364.51
427.90	5294.29
428.09	5221.74
428.28	5413.66
428.46	5490.90
428.65	5467.49
428.84	5603.24
429.03	5542.39
429.22	5294.29
429.40	5446.43
429.59	5518.98
429.78	5528.35
429.97	5331.74
430.16	5427.70
430.34	5474.51
430.53	5755.38
430.72	5706.23
430.91	5666.44
431.10	5614.95
431.28	5851.34
431.47	5755.38
431.66	5870.06
431.85	5790.49
432.03	5907.51
432.22	6045.60
432.41	6097.10
432.60	6003.47
432.79	5968.37
432.97	6057.31
433.16	6249.23
433.35	6019.86
433.54	6242.21
433.72	6221.14
433.91	6120.50
434.10	6141.57
434.28	6239.87
434.47	6214.12
434.66	6403.71
434.85	6251.57
435.03	6249.23
435.22	6272.64
435.41	6459.88
435.59	6612.01
435.78	6511.37
435.97	6635.42
436.16	6466.90
436.34	6387.32
436.53	6670.53
436.72	6729.04
436.90	6494.99
437.09	6588.61
437.28	6504.35
437.46	6799.26
437.65	6759.47
437.84	6904.58
438.02	6841.39
438.21	6825.00
438.40	6696.27
438.58	7169.06
438.77	7061.40
438.96	7023.95
439.14	7316.51
439.33	7194.81
439.52	7407.80
439.70	7164.38
439.89	7337.58
440.08	7356.30
440.26	7426.52
440.45	7531.84
440.63	7440.56
440.82	7581.00
441.01	7719.09
441.19	7744.83
441.38	7751.85
441.57	7791.64
441.75	7906.33
441.94	8166.13
442.12	7831.43
442.31	8248.05
442.50	8121.66
442.68	8189.53
442.87	8344.01
443.05	8219.96
443.24	8170.81
443.43	8224.64
443.61	8442.31
443.80	8379.12
443.98	8180.17
444.17	8002.29
444.35	8248.05
444.54	8430.61
444.73	8393.16
444.91	8425.93
445.10	8587.43
445.28	8292.52
445.47	8404.86
445.65	8505.51
445.84	8585.08
446.02	8659.98
446.21	8486.78
446.39	8528.91
446.58	8692.75
446.77	8575.72
446.95	8299.54
447.14	8538.27
447.32	8542.96
447.51	8514.87
447.69	8407.20
447.88	8725.52
448.06	8432.95
448.25	8685.73
448.43	8748.92
448.62	8854.25
448.80	8622.53
448.99	8634.24
449.17	8779.35
449.36	8631.90
449.54	8847.22
449.73	9095.32
449.91	9191.28
450.10	9139.79
450.28	9249.80
450.46	9259.16
450.65	9102.34
450.83	9151.49
451.02	9083.62
451.20	9373.85
451.39	9158.52
451.57	9263.84
451.76	9284.91
451.94	9355.12
452.13	9495.55
452.31	9341.08
452.49	9345.76
452.68	9418.32
452.86	9579.81
453.05	9486.19
453.23	9549.39
453.42	9434.70
453.60	9427.68
453.78	9729.61
453.97	9364.48
454.15	9518.96
454.34	9495.55
454.52	9846.63
454.70	9827.91
454.89	9980.04
455.07	9820.89
455.26	10092.39
455.44	10085.37
455.62	9942.60
455.81	10033.88
455.99	10099.41
456.17	10174.31
456.36	10279.63
456.54	10190.69
456.73	10459.85
456.91	10668.16
457.09	10630.71
457.28	10801.57
457.46	10492.62
457.64	10565.18
457.83	10579.22
458.01	10420.06
458.19	11005.20
458.38	10853.06
458.56	10799.23
458.74	10560.50
458.93	10740.72
459.11	10686.89
459.29	11112.86
459.48	10839.02
459.66	10970.09
459.84	11253.30
460.03	11183.08
460.21	11192.44
460.39	10972.43
460.57	11077.76
460.76	11143.29
460.94	11321.17
461.12	11194.78
461.31	11431.18
461.49	11391.39
461.67	11267.34
461.85	11454.58
462.04	11468.62
462.22	11658.21
462.40	11793.96
462.59	11667.57
462.77	11620.76
462.95	11506.07
463.13	11690.98
463.32	11735.45
463.50	11981.20
463.68	11859.49
463.86	11873.54
464.05	11850.13
464.23	11873.54
464.41	12100.57
464.59	11964.82
464.78	12351.01
464.96	12184.83
465.14	11808.00
465.32	12489.10
465.50	12252.70
465.69	12400.16
465.87	12131.00
466.05	12306.54
466.23	12226.96
466.41	12395.48
466.60	12631.87
466.78	12273.77
466.96	12358.03
467.14	12152.06
467.32	12409.52
467.51	12739.54
467.69	12556.97
467.87	12507.82
468.05	12730.17
468.23	12341.64
468.41	12659.96
468.60	12727.83
468.78	12760.60
468.96	12744.22
469.14	12957.21
469.32	13233.39
469.50	12837.84
469.69	13022.74
469.87	13371.48
470.05	13163.17
470.23	13240.41
470.41	13270.84
470.59	13380.84
470.77	13207.64
470.95	13469.78
471.14	13984.70
471.32	13376.16
471.50	13586.81
471.68	13652.34
471.86	13870.01
472.04	13788.10
472.22	14118.11
472.40	13710.86
472.58	14167.26
472.77	14382.59
472.95	14244.50
473.13	14892.83
473.31	14239.82
473.49	14382.59
473.67	14012.79
473.85	14637.71
474.03	14586.22
474.21	14820.27
474.39	15136.24
474.57	15194.76
474.75	15164.33
474.93	15161.99
475.12	15323.49
475.30	15040.28
475.48	15215.82
475.66	15288.38
475.84	15115.18
476.02	15775.21
476.20	15604.35
476.38	15590.31
476.56	16341.62
476.74	16201.19
476.92	15934.37
477.10	15985.86
477.28	16191.83
477.46	16407.16
477.64	16489.07
477.82	16669.30
478.00	17341.03
478.18	16851.86
478.36	17394.86
478.54	17584.44
478.72	17334.01
478.90	17717.86
479.08	17759.98
479.26	17839.56
479.44	17834.88
479.62	18113.41
479.80	18211.71
479.98	18452.78
480.16	18614.28
480.34	18302.99
480.52	18874.08
480.70	18815.57
480.88	18539.38
481.06	18993.45
481.24	19101.11
481.41	19248.57
481.59	19470.92
481.77	19765.82
481.95	19719.01
482.13	20119.24
482.31	19838.38
482.49	20362.66
482.67	20521.82
482.85	21015.67
483.03	20882.26
483.21	20900.98
483.39	21179.51
483.57	21200.57
483.74	21429.94
483.92	21488.46
484.10	21579.74
484.28	22085.30
484.46	21972.95
484.64	22551.06
484.82	22176.58
485.00	22649.36
485.18	22787.46
485.35	23463.87
485.53	23197.05
485.71	23370.25
485.89	23866.44
486.07	23789.20
486.25	23723.67
486.43	23803.25
486.61	23974.11
486.78	24348.59
486.96	24423.49
487.14	24826.06
487.32	24802.66
487.50	25329.28
487.68	25446.30
487.85	25935.48
488.03	25893.35
488.21	26103.99
488.39	26342.73
488.57	26581.46
488.75	26588.49
488.92	26848.29
489.10	27103.40
489.28	27218.09
489.46	27543.42
489.64	27545.76
489.81	27782.16
489.99	28109.83
490.17	28011.53
490.35	28257.29
490.53	28683.27
490.70	28905.62
490.88	28620.07
491.06	29191.16
491.24	29331.59
491.41	29212.23
491.59	29685.01
491.77	29682.67
491.95	30059.50
492.13	30073.54
492.30	30291.21
492.48	30621.23
492.66	30497.18
492.84	30724.21
493.01	30866.98
493.19	31030.82
493.37	31559.78
493.54	31594.89
493.72	31983.42
493.90	31903.84
494.08	32198.75
494.25	32395.35
494.43	32299.39
494.61	32837.72
494.79	32458.55
494.96	32900.91
495.14	33046.02
495.32	33607.75
495.49	33624.14
495.67	33497.75
495.85	33972.88
496.02	33802.02
496.20	34263.10
496.38	34576.73
496.55	34646.95
496.73	35178.25
496.91	34962.92
497.09	35503.59
497.26	35409.96
497.44	35416.99
497.62	35765.73
497.79	36414.05
497.97	35882.75
498.14	36423.42
498.32	36748.75
498.50	36355.54
498.67	36924.29
498.85	37251.97
499.03	37392.40
499.20	37247.29
499.38	37663.90
499.56	37125.58
499.73	37961.15
499.91	37661.56
500.08	38031.36
500.26	37986.89
500.44	38059.45
500.61	38607.14
500.79	38403.51
500.97	38621.18
501.14	39082.27
501.32	38859.91
501.49	38899.70
501.67	39103.33
501.84	39330.36
502.02	39505.90
502.20	39063.54
502.37	39868.69
502.55	39667.40
502.72	40142.53
502.90	40037.20
503.07	40156.57
503.25	40030.18
503.43	40203.38
503.60	40779.15
503.78	40928.95
503.95	40858.73
504.13	41434.50
504.30	40987.46
504.48	40704.26
504.65	41207.47
504.83	41670.90
505.01	41715.37
505.18	41832.39
505.36	42085.17
505.53	41603.02
505.71	41858.14
505.88	42349.65
506.06	42197.52
506.23	42417.53
506.41	42511.15
506.58	42490.09
506.76	43072.88
506.93	42710.10
507.11	42705.41
507.28	43335.02
507.46	43187.56
507.63	43583.12
507.81	43962.28
507.98	43337.36
508.16	43679.08
508.33	43868.66
508.50	43948.24
508.68	44205.70
508.85	44062.93
509.03	44271.23
509.20	44608.27
509.38	44533.37
509.55	44854.03
509.73	45729.39
509.90	45677.90
510.08	44903.18
510.25	45130.21
510.42	45460.23
510.60	45500.01
510.77	45364.26
510.95	46138.98
511.12	45888.54
511.30	45867.48
511.47	45977.48
511.64	46054.72
511.82	46541.55
511.99	46700.71
512.17	46445.59
512.34	46600.07
512.51	47143.07
512.69	47012.00
512.86	46927.74
513.04	47082.22
513.21	47114.98
513.38	46981.57
513.56	47803.10
513.73	47358.40
513.90	47559.69
514.08	47154.77
514.25	48076.94
514.43	47971.62
514.60	48374.19
514.77	48020.77
514.95	48250.14
515.12	48245.46
515.29	47868.64
515.47	48198.65
515.64	48552.07
515.81	48449.09
515.99	48722.93
516.16	49045.93
516.33	48865.70
516.51	49188.70
516.68	49148.91
516.85	49043.59
517.03	49354.88
517.20	49385.30
517.37	49450.84
517.54	49216.78
517.72	49418.07
517.89	49357.22
518.06	49855.75
518.24	49495.31
518.41	49640.42
518.58	49696.59
518.75	49457.86
518.93	49986.82
519.10	49804.26
519.27	50040.65
519.45	50108.53
519.62	50560.25
519.79	50391.73
519.96	50412.80
520.14	50555.57
520.31	50707.71
520.48	50646.85
520.65	50618.77
520.83	51114.96
521.00	51253.05
521.17	50976.87
521.34	51428.59
521.52	51246.03
521.69	51576.04
521.86	51033.04
522.03	51587.75
522.20	51625.20
522.38	52112.03
522.55	51847.55
522.72	51749.24
522.89	51412.21
523.07	51861.59
523.24	51882.66
523.41	52130.75
523.58	51730.52
523.75	52259.48
523.92	52341.40
524.10	52268.84
524.27	52488.85
524.44	52158.84
524.61	52830.57
524.78	52568.43
524.96	52795.46
525.13	52734.61
525.30	52795.46
525.47	52949.94
525.64	52856.32
525.81	52743.97
525.98	53244.85
526.16	52985.05
526.33	53001.43
526.50	53394.64
526.67	53195.70
526.84	53282.30
527.01	53088.03
527.18	53373.58
527.36	53317.40
527.53	53413.37
527.70	53696.57
527.87	53727.00
528.04	53631.04
528.21	53408.68
528.38	53684.87
528.55	53965.73
528.72	53787.85
528.89	53996.16
529.07	54092.12
529.24	53930.62
529.41	53942.33
529.58	54143.61
529.75	53855.73
529.92	54164.68
530.09	54319.15
530.26	54262.98
530.43	54253.62
530.60	54045.31
530.77	54307.45
530.94	54354.26
531.11	54660.87
531.28	54270.00
531.46	54433.84
531.63	54471.29
531.80	54368.30
531.97	54625.76
532.14	54845.77
532.31	54747.47
532.48	54436.18
532.65	55028.34
532.82	54731.09
532.99	54983.86
533.16	55075.15
533.33	55058.76
533.50	55313.88
533.67	55213.24
533.84	55136.00
534.01	55337.29
534.18	55189.83
534.35	55655.60
534.52	55159.41
534.69	55810.07
534.86	55332.60
535.03	55430.91
535.20	55348.99
535.37	55585.38
535.54	55676.66
535.71	55587.72
535.88	56076.90
536.05	55861.57
536.22	56266.48
536.38	55828.80
536.55	56013.70
536.72	55934.12
536.89	55999.66
537.06	55980.93
537.23	56219.67
537.40	55964.55
537.57	55868.59
537.74	56172.86
537.91	56177.54
538.08	56273.50
538.25	56275.84
538.42	56378.82
538.59	56509.89
538.75	56388.19
538.92	56224.35
539.09	56755.65
539.26	56711.18
539.43	56360.10
539.60	56704.16
539.77	56432.66
539.94	56624.58
540.11	56860.97
540.28	56790.76
540.44	56676.07
540.61	56741.61
540.78	56870.34
540.95	56722.88
541.12	56671.39
541.29	56720.54
541.46	56898.42
541.62	56849.27
541.79	57045.88
541.96	56650.33
542.13	56942.89
542.30	57003.75
542.47	57226.10
542.63	57237.80
542.80	57174.61
542.97	57387.60
543.14	57364.19
543.31	57329.08
543.48	57403.98
543.64	57635.69
543.81	57675.48
543.98	57481.22
544.15	57638.03
544.32	57757.40
544.48	57701.23
544.65	57490.58
544.82	57759.74
544.99	57705.91
545.16	57879.11
545.32	57680.16
545.49	58038.26
545.66	58197.42
545.83	58054.65
546.00	58061.67
546.16	58052.31
546.33	57904.85
546.50	57729.31
546.67	57932.94
546.83	57689.52
547.00	58085.07
547.17	58080.39
547.34	58183.38
547.50	58375.30
547.67	58223.17
547.84	58269.98
548.00	58438.50
548.17	58604.67
548.34	58358.92
548.51	58480.63
548.67	58513.39
548.84	58604.67
549.01	58401.05
549.18	58349.56
549.34	58698.30
549.51	58677.23
549.68	58740.42
549.84	58616.38
550.01	58782.55
550.18	58635.10
550.34	58796.60
550.51	58922.99
550.68	58979.16
550.84	58560.20
551.01	58805.96
551.18	58915.96
551.34	58850.43
551.51	58674.89
551.68	59007.25
551.84	58777.87
552.01	58756.81
552.18	58829.37
552.34	58780.21
552.51	59119.59
552.68	58871.49
552.84	58979.16
553.01	59234.28
553.18	58824.68
553.34	59171.08
553.51	59063.42
553.67	59068.10
553.84	59121.93
554.01	59028.31
554.17	59238.96
554.34	59365.35
554.51	59346.62
554.67	59353.65
554.84	59234.28
555.00	59358.33
555.17	59267.05
555.33	59297.47
555.50	59199.17
555.67	59260.02
555.83	59484.72
556.00	59465.99
556.16	59618.13
556.33	59606.42
556.50	59594.72
556.66	59566.63
556.83	59480.03
556.99	59632.17
557.16	59707.07
557.32	59906.01
557.49	59999.63
557.65	59578.34
557.82	59756.22
557.98	59592.38
558.15	59629.83
558.32	59732.81
558.48	59583.02
558.65	59718.77
558.81	59798.35
558.98	59983.25
559.14	60083.89
559.31	59992.61
559.47	60046.44
559.64	60046.44
559.80	59959.84
559.97	60065.17
560.13	59732.81
560.30	59903.67
560.46	59999.63
560.63	60074.53
560.79	60013.68
560.96	60076.87
561.12	60170.49
561.29	60116.66
561.45	60111.98
561.61	59945.80
561.78	59945.80
561.94	60109.64
562.11	60074.53
562.27	60109.64
562.44	60196.24
562.60	60346.03
562.77	60388.16
562.93	60030.06
563.10	60247.73
563.26	60296.88
563.42	60336.67
563.59	60205.60
563.75	60259.43
563.92	60416.25
564.08	60247.73
564.24	60493.49
564.41	60423.27
564.57	60413.91
564.74	60683.07
564.90	60343.69
565.07	60584.77
565.23	60273.48
565.39	60378.80
565.56	60493.49
565.72	60282.84
565.88	60390.50
566.05	60439.65
566.21	60516.89
566.38	60456.04
566.54	60601.15
566.70	60652.64
566.87	60704.13
567.03	60528.59
567.19	60676.05
567.36	60420.93
567.52	60559.02
567.68	60865.63
567.85	60664.35
568.01	60750.94
568.17	60537.96
568.34	60683.07
568.50	60626.90
568.66	60533.28
568.83	60755.63
568.99	60671.37
569.15	60601.15
569.32	60729.88
569.48	60566.04
569.64	60715.84
569.81	60645.62
569.97	60767.33
570.13	60882.02
570.30	60767.33
570.46	60676.05
570.62	60832.86
570.78	60842.23
570.95	60814.14
571.11	60926.49
571.27	60570.72
571.43	60926.49
571.60	60877.33
571.76	60942.87
571.92	60949.89
572.09	60739.24
572.25	60882.02
572.41	60900.74
572.57	60872.65
572.74	60949.89
572.90	60935.85
573.06	61029.47
573.22	60921.80
573.38	60893.72
573.55	61008.40
573.71	60968.61
573.87	60949.89
574.03	60917.12
574.20	60935.85
574.36	60907.76
574.52	61041.17
574.68	61034.15
574.84	61207.35
575.01	61104.37
575.17	60818.82
575.33	60863.29
575.49	60832.86
575.65	61085.64
575.82	60996.70
575.98	61090.32
576.14	61167.56
576.30	61092.66
576.46	61003.72
576.62	60910.10
576.79	60980.32
576.95	60774.35
577.11	61118.41
577.27	61165.22
577.43	60968.61
577.59	60935.85
577.75	60942.87
577.92	60921.80
578.08	61078.62
578.24	61176.92
578.40	61261.18
578.56	61226.07
578.72	61134.79
578.88	60970.96
579.04	61066.92
579.21	61059.90
579.37	61296.29
579.53	61188.63
579.69	61277.57
579.85	61286.93
580.01	61118.41
580.17	60940.53
580.33	61310.33
580.49	61097.34
580.65	61193.31
580.82	60961.59
580.98	61097.34
581.14	61066.92
581.30	61151.18
581.46	61153.52
581.62	61130.11
581.78	61223.73
581.94	61116.07
582.10	61036.49
582.26	61111.39
582.42	60931.17
582.58	61085.64
582.74	61095.00
582.90	61233.10
583.06	61146.50
583.22	61055.21
583.38	61319.70
583.54	61202.67
583.70	61347.78
583.86	61249.48
584.02	60982.66
584.18	61207.35
584.34	61357.14
584.50	61434.38
584.66	61155.86
584.82	61099.68
584.98	61293.95
585.14	61186.28
585.30	61111.39
585.46	61293.95
585.62	61256.50
585.78	61368.85
585.94	61109.05
586.10	61183.94
586.26	61282.25
586.42	61300.97
586.58	61464.81
586.74	61291.61
586.90	61315.01
587.06	61153.52
587.22	61345.44
587.38	61254.16
587.54	61361.82
587.70	61380.55
587.86	61179.26
588.02	61366.51
588.18	61387.57
588.34	61031.81
588.49	61312.67
