SpectraSuite Data File
++++++++++++++++++++++++++++++++++++
Date: Fri Oct 25 11:25:38 EDT 2013
User: price-jones
Dark Spectrum Present: No
Reference Spectrum Present: No
Number of Sampled Component Spectra: 1
Spectrometers: USB2+H05261
Integration Time (usec): 100000 (USB2+H05261)
Spectra Averaged: 1 (USB2+H05261)
Boxcar Smoothing: 0 (USB2+H05261)
Correct for Electrical Dark: No (USB2+H05261)
Strobe/Lamp Enabled: No (USB2+H05261)
Correct for Detector Non-linearity: No (USB2+H05261)
Correct for Stray Light: No (USB2+H05261)
Number of Pixels in Processed Spectrum: 2048
>>>>>Begin Processed Spectral Data<<<<<
365.73	280.86
365.92	280.86
366.12	280.86
366.32	142.77
366.52	100.64
366.72	149.79
366.91	114.69
367.11	107.66
367.31	147.45
367.51	149.79
367.70	95.96
367.90	147.45
368.10	110.01
368.30	173.20
368.49	100.64
368.69	114.69
368.89	142.77
369.09	126.39
369.28	191.92
369.48	220.01
369.68	161.50
369.87	196.60
370.07	255.12
370.27	264.48
370.47	337.04
370.66	606.20
370.86	573.43
371.06	610.88
371.25	627.26
371.45	699.82
371.65	711.52
371.84	711.52
372.04	641.31
372.24	678.76
372.44	648.33
372.63	730.25
372.83	826.21
373.03	816.85
373.22	777.06
373.42	760.67
373.62	767.70
373.81	779.40
374.01	840.25
374.21	828.55
374.40	830.89
374.60	851.96
374.79	835.57
374.99	809.83
375.19	950.26
375.38	844.93
375.58	877.70
375.78	847.27
375.97	770.04
376.17	978.34
376.37	781.74
376.56	819.19
376.76	884.72
376.95	938.55
377.15	880.04
377.35	903.45
377.54	884.72
377.74	905.79
377.93	837.91
378.13	880.04
378.33	999.41
378.52	990.05
378.72	898.77
378.91	873.02
379.11	947.92
379.31	926.85
379.50	861.32
379.70	915.15
379.89	1093.03
380.09	1018.13
380.28	1027.50
380.48	910.47
380.68	1043.88
380.87	924.51
381.07	994.73
381.26	1048.56
381.46	1076.65
381.65	1067.28
381.85	1158.57
382.04	1022.81
382.24	1013.45
382.43	1034.52
382.63	922.17
382.83	1062.60
383.02	1184.31
383.22	1062.60
383.41	1053.24
383.61	1111.75
383.80	1137.50
384.00	1177.29
384.19	1083.67
384.39	1153.88
384.58	1170.27
384.78	1210.06
384.97	1240.48
385.17	1174.95
385.36	1137.50
385.56	1107.07
385.75	1071.97
385.95	1123.46
386.14	1198.35
386.34	1174.95
386.53	1170.27
386.72	1151.54
386.92	1200.69
387.11	1263.89
387.31	1299.00
387.50	1214.74
387.70	1217.08
387.89	1327.08
388.09	1196.01
388.28	1273.25
388.48	1306.02
388.67	1294.32
388.86	1413.68
389.06	1320.06
389.25	1416.02
389.45	1294.32
389.64	1338.79
389.84	1357.51
390.03	1336.45
390.22	1287.29
390.42	1343.47
390.61	1444.11
390.81	1455.81
391.00	1390.28
391.19	1406.66
391.39	1495.60
391.58	1289.64
391.78	1460.49
391.97	1469.86
392.16	1401.98
392.36	1537.73
392.55	1540.07
392.75	1486.24
392.94	1479.22
393.13	1535.39
393.33	1565.82
393.52	1600.93
393.71	1610.29
393.91	1561.14
394.10	1600.93
394.29	1575.18
394.49	1614.97
394.68	1694.55
394.88	1589.22
395.07	1558.80
395.26	1640.72
395.46	1703.91
395.65	1685.19
395.84	1736.68
396.04	1736.68
396.23	1732.00
396.42	1783.49
396.62	1774.13
396.81	1692.21
397.00	1769.44
397.19	1771.79
397.39	1858.39
397.58	1734.34
397.77	1820.94
397.97	1820.94
398.16	1830.30
398.35	1849.02
398.55	1811.57
398.74	1834.98
398.93	1874.77
399.12	1928.60
399.32	1872.43
399.51	1952.01
399.70	1952.01
399.90	1989.46
400.09	1977.75
400.28	2015.20
400.47	1954.35
400.67	2073.71
400.86	2045.63
401.05	2172.02
401.24	2069.03
401.44	2141.59
401.63	2134.57
401.82	2249.25
402.01	2216.49
402.21	2125.21
402.40	2225.85
402.59	2223.51
402.78	2115.84
402.97	2251.60
403.17	2221.17
403.36	2279.68
403.55	2289.04
403.74	2258.62
403.93	2293.72
404.13	2317.13
404.32	2317.13
404.51	2366.28
404.70	2349.90
404.89	2389.69
405.09	2387.35
405.28	2525.44
405.47	2464.58
405.66	2480.97
405.85	2485.65
406.05	2605.02
406.24	2534.80
406.43	2579.27
406.62	2597.99
406.81	2590.97
407.00	2640.12
407.20	2537.14
407.39	2511.39
407.58	2658.85
407.77	2806.30
407.96	2700.98
408.15	2750.13
408.34	2773.53
408.54	2822.69
408.73	2778.22
408.92	2815.66
409.11	2808.64
409.30	2803.96
409.49	2953.76
409.68	2974.82
409.87	2864.82
410.07	2951.42
410.26	3038.02
410.45	3026.31
410.64	3089.51
410.83	3005.25
411.02	3054.40
411.21	3061.42
411.40	3164.40
411.59	3276.75
411.78	3192.49
411.98	3187.81
412.17	3311.86
412.36	3279.09
412.55	3382.07
412.74	3407.82
412.93	3480.38
413.12	3307.18
413.31	3478.04
413.50	3508.46
413.69	3438.25
413.88	3684.00
414.07	3445.27
414.26	3744.86
414.45	3449.95
414.64	3665.28
414.83	3604.42
415.02	3765.92
415.22	3749.54
415.41	3920.40
415.60	3712.09
415.79	3857.20
415.98	3967.21
416.17	3831.46
416.36	3992.95
416.55	4072.53
416.74	4016.36
416.93	4051.47
417.12	4102.96
417.31	4201.26
417.50	4067.85
417.69	4283.18
417.88	4229.35
418.07	4198.92
418.26	4205.94
418.45	4358.08
418.64	4489.15
418.83	4418.93
419.02	4365.10
419.21	4475.10
419.39	4559.36
419.58	4571.07
419.77	4489.15
419.96	4601.49
420.15	4568.73
420.34	4631.92
420.53	4730.22
420.72	4624.90
420.91	4711.50
421.10	4727.88
421.29	4807.46
421.48	4744.27
421.67	4788.74
421.86	4807.46
422.05	4713.84
422.24	4765.33
422.43	4947.89
422.61	4786.40
422.80	4863.63
422.99	5027.47
423.18	5006.41
423.37	4924.49
423.56	4933.85
423.75	4847.25
423.94	4887.04
424.13	4608.51
424.32	4901.08
424.50	4973.64
424.69	5156.20
424.88	4987.68
425.07	4833.21
425.26	4887.04
425.45	4957.25
425.64	4905.76
425.83	4856.61
426.01	5102.37
426.20	5018.11
426.39	5107.05
426.58	4971.30
426.77	5116.41
426.96	5144.50
427.15	5130.45
427.33	5167.90
427.52	5097.69
427.71	5226.42
427.90	5336.42
428.09	5207.69
428.28	5373.87
428.46	5364.51
428.65	5317.70
428.84	5540.05
429.03	5418.34
429.22	5352.81
429.40	5481.53
429.59	5441.75
429.78	5296.63
429.97	5219.39
430.16	5558.77
430.34	5675.80
430.53	5652.39
430.72	5626.65
430.91	5633.67
431.10	5490.90
431.28	5692.18
431.47	5593.88
431.66	5844.32
431.85	5741.33
432.03	5930.92
432.22	5935.60
432.41	5806.87
432.60	5914.53
432.79	6069.01
432.97	5975.39
433.16	5973.05
433.35	5951.98
433.54	5998.79
433.72	6122.84
433.91	6059.65
434.10	6106.46
434.28	6162.63
434.47	6125.18
434.66	6181.35
434.85	6326.47
435.03	6345.19
435.22	6347.53
435.41	6457.54
435.59	6473.92
435.78	6452.86
435.97	6459.88
436.16	6457.54
436.34	6413.07
436.53	6553.50
436.72	6815.64
436.90	6429.45
437.09	6516.05
437.28	6518.39
437.46	6654.14
437.65	6644.78
437.84	6771.17
438.02	6752.45
438.21	6759.47
438.40	6370.94
438.58	6979.48
438.77	7026.29
438.96	6827.34
439.14	7138.63
439.33	7162.04
439.52	7112.89
439.70	7300.13
439.89	7187.79
440.08	7447.58
440.26	7351.62
440.45	7473.33
440.63	7473.33
440.82	7747.17
441.01	7449.93
441.19	7590.36
441.38	7716.75
441.57	7714.41
441.75	7815.05
441.94	7981.23
442.12	7908.67
442.31	8114.64
442.50	7922.71
442.68	7915.69
442.87	7880.58
443.05	8147.40
443.24	8212.94
443.43	8021.02
443.61	8336.99
443.80	8491.46
443.98	8105.28
444.17	7831.43
444.35	8039.74
444.54	8409.54
444.73	8311.24
444.91	8276.13
445.10	8208.26
445.28	8393.16
445.47	8074.85
445.65	8287.84
445.84	8329.97
446.02	8468.06
446.21	8507.85
446.39	8327.63
446.58	8432.95
446.77	8418.91
446.95	8372.10
447.14	8367.42
447.32	8507.85
447.51	8287.84
447.69	8407.20
447.88	8355.71
448.06	8437.63
448.25	8557.00
448.43	8547.64
448.62	8540.61
448.80	8662.32
448.99	8606.15
449.17	8580.40
449.36	8634.24
449.54	8786.37
449.73	8926.80
449.91	8931.48
450.10	8887.01
450.28	9076.60
450.46	8964.25
450.65	9008.72
450.83	9006.38
451.02	9006.38
451.20	9296.61
451.39	9170.22
451.57	9144.47
451.76	9062.55
451.94	9118.73
452.13	9444.06
452.31	9310.65
452.49	8957.23
452.68	9067.24
452.86	9298.95
453.05	9523.64
453.23	9441.72
453.42	9261.50
453.60	9338.74
453.78	9589.17
453.97	9423.00
454.15	9540.02
454.34	9516.62
454.52	9579.81
454.70	9657.05
454.89	9872.38
455.07	9865.36
455.26	9518.96
455.44	9687.48
455.62	9839.61
455.81	9886.42
455.99	9905.15
456.17	10085.37
456.36	9994.09
456.54	10071.33
456.73	10239.84
456.91	10389.64
457.09	10331.12
457.28	10569.86
457.46	10277.29
457.64	10429.43
457.83	10546.45
458.01	10281.97
458.19	10689.23
458.38	10518.37
458.56	10654.12
458.74	10691.57
458.93	10729.02
459.11	10707.95
459.29	10712.63
459.48	10775.83
459.66	10864.77
459.84	10773.49
460.03	10972.43
460.21	10843.70
460.39	10981.79
460.57	11105.84
460.76	11119.89
460.94	11094.14
461.12	11197.12
461.31	11257.98
461.49	11330.53
461.67	10888.17
461.85	11407.77
462.04	11126.91
462.22	11681.61
462.40	11384.37
462.59	11515.44
462.77	11365.64
462.95	11494.37
463.13	11440.54
463.32	11660.55
463.50	11894.60
463.68	11587.99
463.86	11648.85
464.05	11800.98
464.23	11667.57
464.41	11983.54
464.59	11620.76
464.78	11967.16
464.96	11932.05
465.14	11791.62
465.32	12175.47
465.50	12039.72
465.69	11967.16
465.87	12248.02
466.05	12142.70
466.23	12011.63
466.41	12355.69
466.60	12554.63
466.78	12063.12
466.96	12077.16
467.14	12334.62
467.32	12547.61
467.51	12592.08
467.69	12138.02
467.87	12411.86
468.05	12589.74
468.23	12521.87
468.41	12461.01
468.60	12505.48
468.78	12697.41
468.96	12517.18
469.14	12784.01
469.32	13039.12
469.50	12479.74
469.69	12868.27
469.87	12957.21
470.05	12945.50
470.23	13064.87
470.41	13018.06
470.59	13198.28
470.77	13198.28
470.95	13149.13
471.14	13591.49
471.32	13167.85
471.50	13437.02
471.68	13631.28
471.86	13598.51
472.04	13537.66
472.22	14221.10
472.40	13687.45
472.58	13715.54
472.77	13862.99
472.95	14045.55
473.13	14576.86
473.31	14029.17
473.49	14260.88
473.67	13827.88
473.85	14284.29
474.03	14602.60
474.21	14586.22
474.39	14523.02
474.57	14583.88
474.75	14946.66
474.93	14843.68
475.12	14839.00
475.30	15019.22
475.48	15103.48
475.66	14806.23
475.84	15152.63
476.02	15602.01
476.20	15037.94
476.38	15625.42
476.56	15990.54
476.74	15861.81
476.92	15686.27
477.10	15770.53
477.28	16257.36
477.46	16177.78
477.64	16348.64
477.82	16453.97
478.00	16870.58
478.18	16828.45
478.36	16936.12
478.54	17170.17
478.72	17153.79
478.90	17130.38
479.08	17408.90
479.26	17799.77
479.44	17680.41
479.62	17664.02
479.80	17872.33
479.98	18080.64
480.16	18679.82
480.34	18340.44
480.52	18457.46
480.70	18546.40
480.88	18342.78
481.06	18710.24
481.24	18579.17
481.41	19103.45
481.59	19257.93
481.77	19440.49
481.95	19183.03
482.13	19625.39
482.31	19531.77
482.49	19990.52
482.67	19978.81
482.85	20514.80
483.03	20393.09
483.21	20835.45
483.39	20959.50
483.57	20580.33
483.74	20985.24
483.92	20889.28
484.10	21486.12
484.28	21647.61
484.46	21591.44
484.64	22256.15
484.82	21802.09
485.00	22202.32
485.18	22665.75
485.35	22876.40
485.53	22934.91
485.71	22822.56
485.89	23428.76
486.07	22927.89
486.25	23508.34
486.43	23520.04
486.61	23576.22
486.78	23676.86
486.96	24346.25
487.14	24397.74
487.32	24470.30
487.50	24915.00
487.68	25008.62
487.85	25113.95
488.03	25450.99
488.21	25696.74
488.39	25631.21
488.57	25937.82
488.75	25928.45
488.92	26412.95
489.10	26541.68
489.28	26469.12
489.46	27140.85
489.64	26836.58
489.81	27660.45
489.99	27779.82
490.17	27697.90
490.35	27835.99
490.53	27962.38
490.70	28336.87
490.88	27908.55
491.06	28589.64
491.24	28725.39
491.41	29092.86
491.59	29296.49
491.77	29359.68
491.95	29549.26
492.13	29518.84
492.30	29820.77
492.48	29919.07
492.66	30066.52
492.84	30319.30
493.01	30604.84
493.19	30541.65
493.37	30726.55
493.54	31143.17
493.72	31796.18
493.90	31356.16
494.08	31573.83
494.25	31875.76
494.43	32074.70
494.61	31899.16
494.79	31988.10
494.96	32526.42
495.14	32718.35
495.32	32657.49
495.49	32657.49
495.67	33057.73
495.85	33511.79
496.02	33425.19
496.20	33984.58
496.38	33989.26
496.55	33717.76
496.73	34646.95
496.91	34801.43
497.09	34906.75
497.26	34890.37
497.44	34836.53
497.62	35152.51
497.79	35519.97
497.97	35108.04
498.14	36053.61
498.32	36013.82
498.50	36065.31
498.67	36177.66
498.85	36624.70
499.03	36816.63
499.20	36594.28
499.38	36718.32
499.56	36631.72
499.73	37113.87
499.91	37113.87
500.08	37432.19
500.26	37645.18
500.44	37574.96
500.61	37853.48
500.79	37525.81
500.97	38188.18
501.14	38782.68
501.32	38267.76
501.49	38394.15
501.67	38073.49
501.84	38738.21
502.02	39115.03
502.20	38869.28
502.37	39288.23
502.55	38911.41
502.72	39365.47
502.90	39358.45
503.07	39810.17
503.25	39791.45
503.43	39641.65
503.60	40156.57
503.78	40210.40
503.95	40348.50
504.13	40573.19
504.30	40411.69
504.48	40018.48
504.65	40315.73
504.83	41188.75
505.01	41209.81
505.18	41198.11
505.36	41544.51
505.53	41001.50
505.71	41263.64
505.88	42033.68
506.06	41170.02
506.23	41647.49
506.41	41481.31
506.58	41949.42
506.76	42082.83
506.93	42274.76
507.11	42316.89
507.28	42567.32
507.46	42462.00
507.63	42827.12
507.81	42831.80
507.98	42948.83
508.16	43297.57
508.33	43400.55
508.50	43463.75
508.68	43234.38
508.85	43693.12
509.03	43592.48
509.20	43381.83
509.38	44362.51
509.55	43828.87
509.73	44535.71
509.90	44238.47
510.08	44266.55
510.25	44484.22
510.42	44825.94
510.60	44832.96
510.77	44996.80
510.95	45298.73
511.12	44809.56
511.30	45031.91
511.47	45310.43
511.64	45181.70
511.82	45867.48
511.99	45514.06
512.17	45633.42
512.34	45677.90
512.51	46131.96
512.69	45879.18
512.86	46204.52
513.04	46461.97
513.21	46146.00
513.38	46361.33
513.56	46960.51
513.73	46272.39
513.90	46953.49
514.08	46454.95
514.25	46967.53
514.43	47229.67
514.60	46820.08
514.77	47171.16
514.95	47667.35
515.12	47463.72
515.29	47299.89
515.47	48016.09
515.64	47772.67
515.81	47569.05
515.99	48378.87
516.16	48374.19
516.33	48257.17
516.51	48399.94
516.68	48322.70
516.85	48325.04
517.03	48722.93
517.20	48741.66
517.37	48575.48
517.54	48648.03
517.72	48664.42
517.89	48711.23
518.06	48978.05
518.24	48900.81
518.41	48790.81
518.58	49380.62
518.75	49397.01
518.93	49301.04
519.10	49350.20
519.27	49626.38
519.45	49614.68
519.62	49528.08
519.79	49947.03
519.96	49837.03
520.14	50157.68
520.31	49916.61
520.48	50059.38
520.65	49975.12
520.83	50305.13
521.00	50798.99
521.17	50192.79
521.34	50382.37
521.52	50733.45
521.69	50773.24
521.86	50574.30
522.03	51019.00
522.20	50997.93
522.38	51061.13
522.55	51196.88
522.72	50986.23
522.89	51236.67
523.07	51554.98
523.24	51374.76
523.41	51566.68
523.58	51423.91
523.75	51739.88
523.92	51779.67
524.10	51915.42
524.27	52119.05
524.44	51929.47
524.61	51938.83
524.78	52060.54
524.96	52044.15
525.13	52502.90
525.30	52523.96
525.47	52390.55
525.64	52020.75
525.81	52601.20
525.98	52610.56
526.16	52121.39
526.33	52617.58
526.50	52781.42
526.67	52947.60
526.84	52903.13
527.01	53038.88
527.18	52610.56
527.36	52861.00
527.53	53029.52
527.70	53535.07
527.87	52870.36
528.04	52978.03
528.21	53263.57
528.38	53017.82
528.55	53223.78
528.72	53315.06
528.89	53439.11
529.07	53345.49
529.24	53165.27
529.41	53476.56
529.58	53387.62
529.75	53595.93
529.92	53408.68
530.09	53745.72
530.26	54080.42
530.43	54078.08
530.60	53649.76
530.77	53780.83
530.94	53911.90
531.11	53865.09
531.28	53956.37
531.46	53834.66
531.63	53881.47
531.80	54110.85
531.97	53975.09
532.14	54370.64
532.31	54169.36
532.48	54382.35
532.65	54548.53
532.82	54433.84
532.99	54695.98
533.16	54487.67
533.33	54773.22
533.50	54967.48
533.67	54726.41
533.84	54630.44
534.01	54801.30
534.18	54871.52
534.35	55065.78
534.52	54824.71
534.69	55016.63
534.86	55306.86
535.03	54808.32
535.20	54927.69
535.37	55021.31
535.54	55304.52
535.71	55065.78
535.88	55283.45
536.05	55227.28
536.22	55440.27
536.38	55641.56
536.55	55363.03
536.72	55288.13
536.89	55255.37
537.06	55463.67
537.23	55742.20
537.40	55426.23
537.57	55585.38
537.74	55856.88
537.91	55777.31
538.08	55840.50
538.25	55819.44
538.42	55854.54
538.59	56207.97
538.75	55697.73
538.92	55929.44
539.09	55842.84
539.26	55983.27
539.43	56006.68
539.60	56222.01
539.77	56020.72
539.94	56465.42
540.11	56130.73
540.28	56226.69
540.44	56427.98
540.61	56545.00
540.78	56348.40
540.95	56383.51
541.12	56484.15
541.29	56472.45
541.46	56465.42
541.62	56514.58
541.79	56643.30
541.96	56545.00
542.13	56528.62
542.30	56638.62
542.47	56687.78
542.63	56676.07
542.80	57031.83
542.97	57069.28
543.14	57172.27
543.31	57031.83
543.48	57111.41
543.64	57214.40
543.81	57263.55
543.98	57202.69
544.15	56966.30
544.32	57076.30
544.48	57516.32
544.65	57329.08
544.82	57279.93
544.99	57457.81
545.16	57441.43
545.32	57230.78
545.49	57593.56
545.66	57673.14
545.83	57448.45
546.00	57815.91
546.16	57462.49
546.33	57691.86
546.50	57345.47
546.67	57668.46
546.83	57455.47
547.00	57649.74
547.17	57469.51
547.34	57652.08
547.50	57909.53
547.67	58024.22
547.84	57869.75
548.00	57951.66
548.17	57944.64
548.34	57907.19
548.51	58277.00
548.67	58181.04
548.84	57932.94
549.01	57701.23
549.18	58082.73
549.34	57977.41
549.51	58223.17
549.68	58141.25
549.84	58211.46
550.01	58241.89
550.18	58230.19
550.34	58351.90
550.51	58562.54
550.68	58244.23
550.84	58045.29
551.01	58225.51
551.18	58445.52
551.34	58550.84
551.51	58541.48
551.68	58457.22
551.84	58492.33
552.01	58330.83
552.18	58674.89
552.34	58412.75
552.51	58845.75
552.68	58277.00
552.84	58592.97
553.01	58955.75
553.18	58695.95
553.34	58958.09
553.51	58777.87
553.67	58663.19
553.84	58829.37
554.01	58796.60
554.17	58878.52
554.34	59077.46
554.51	59007.25
554.67	58946.39
554.84	59040.01
555.00	58944.05
555.17	59011.93
555.33	59018.95
555.50	58850.43
555.67	59152.36
555.83	58972.14
556.00	59061.08
556.16	59061.08
556.33	59009.59
556.50	59072.78
556.66	59337.26
556.83	58915.96
556.99	59229.60
557.16	59461.31
557.32	59405.14
557.49	59412.16
557.65	59241.30
557.82	59407.48
557.98	59231.94
558.15	59316.20
558.32	59405.14
558.48	59180.45
558.65	59522.16
558.81	59393.43
558.98	59430.88
559.14	59552.59
559.31	59550.25
559.47	59667.28
559.64	59519.82
559.80	59678.98
559.97	59662.60
560.13	59599.40
560.30	59620.47
560.46	59671.96
560.63	59772.60
560.79	59510.46
560.96	59597.06
561.12	59615.79
561.29	59554.93
561.45	59725.79
561.61	59772.60
561.78	59840.48
561.94	59664.94
562.11	59786.64
562.27	59819.41
562.44	60039.42
562.60	60039.42
562.77	59543.23
562.93	59807.71
563.10	60067.51
563.26	59753.88
563.42	60196.24
563.59	59807.71
563.75	59849.84
563.92	59845.16
564.08	59700.04
564.24	60095.60
564.41	60250.07
564.57	59950.48
564.74	60102.62
564.90	59971.55
565.07	60009.00
565.23	59959.84
565.39	59973.89
565.56	60121.34
565.72	60095.60
565.88	60065.17
566.05	60191.56
566.21	59922.40
566.38	59994.95
566.54	60205.60
566.70	60308.58
566.87	60254.75
567.03	60264.11
567.19	60385.82
567.36	60240.71
567.52	60168.15
567.68	60535.62
567.85	60156.45
568.01	60341.35
568.17	60404.55
568.34	60266.45
568.50	60189.22
568.66	60114.32
568.83	60533.28
568.99	60556.68
569.15	60306.24
569.32	60367.10
569.48	60353.05
569.64	60364.76
569.81	60402.21
569.97	60362.42
570.13	60568.38
570.30	60278.16
570.46	60404.55
570.62	60315.61
570.78	60317.95
570.95	60196.24
571.11	60463.06
571.27	60327.31
571.43	60530.93
571.60	60589.45
571.76	60390.50
571.92	60544.98
572.09	60434.97
572.25	60566.04
572.41	60479.44
572.57	60636.26
572.74	60683.07
572.90	60451.36
573.06	60544.98
573.22	60542.64
573.38	60537.96
573.55	60631.58
573.71	60671.37
573.87	60701.79
574.03	60416.25
574.20	60554.34
574.36	60582.43
574.52	60704.13
574.68	60704.13
574.84	60605.83
575.01	60762.65
575.17	60568.38
575.33	60390.50
575.49	60477.10
575.65	60708.82
575.82	60605.83
575.98	60772.01
576.14	60626.90
576.30	60907.76
576.46	60666.69
576.62	60610.51
576.79	60748.60
576.95	60680.73
577.11	60718.18
577.27	60790.73
577.43	60715.84
577.59	60889.04
577.75	60842.23
577.92	60608.17
578.08	60736.90
578.24	60552.00
578.40	60818.82
578.56	60844.57
578.72	60795.42
578.88	60987.34
579.04	60938.19
579.21	60811.80
579.37	60940.53
579.53	60757.97
579.69	60652.64
579.85	60608.17
580.01	60680.73
580.17	60739.24
580.33	60776.69
580.49	60874.99
580.65	60753.29
580.82	60734.56
580.98	60505.19
581.14	60645.62
581.30	61008.40
581.46	60917.12
581.62	60779.03
581.78	60673.71
581.94	60961.59
582.10	60701.79
582.26	60748.60
582.42	60828.18
582.58	60921.80
582.74	60818.82
582.90	60741.58
583.06	61034.15
583.22	60535.62
583.38	60896.06
583.54	60804.78
583.70	60802.44
583.86	60793.07
584.02	60879.67
584.18	60956.91
584.34	60877.33
584.50	60842.23
584.66	60725.20
584.82	60807.12
584.98	61080.96
585.14	60928.83
585.30	60898.40
585.46	60952.23
585.62	60814.14
585.78	60872.65
585.94	60860.95
586.10	60896.06
586.26	60982.66
586.42	60947.55
586.58	60985.00
586.74	60912.44
586.90	60989.68
587.06	61022.45
587.22	61102.03
587.38	60802.44
587.54	61137.13
587.70	61340.76
587.86	61006.06
588.02	60807.12
588.18	61254.16
588.34	60907.76
588.49	61059.90
