SpectraSuite Data File
++++++++++++++++++++++++++++++++++++
Date: Fri Oct 25 10:48:16 EDT 2013
User: price-jones
Dark Spectrum Present: No
Reference Spectrum Present: No
Number of Sampled Component Spectra: 1
Spectrometers: USB2+H05261
Integration Time (usec): 100000 (USB2+H05261)
Spectra Averaged: 1 (USB2+H05261)
Boxcar Smoothing: 0 (USB2+H05261)
Correct for Electrical Dark: No (USB2+H05261)
Strobe/Lamp Enabled: No (USB2+H05261)
Correct for Detector Non-linearity: No (USB2+H05261)
Correct for Stray Light: No (USB2+H05261)
Number of Pixels in Processed Spectrum: 2048
>>>>>Begin Processed Spectral Data<<<<<
365.73	161.50
365.92	161.50
366.12	161.50
366.32	107.66
366.52	81.92
366.72	53.83
366.91	16.38
367.11	18.72
367.31	2.34
367.51	63.19
367.70	42.13
367.90	35.11
368.10	42.13
368.30	46.81
368.49	25.75
368.69	49.15
368.89	133.41
369.09	23.41
369.28	91.28
369.48	102.98
369.68	46.81
369.87	86.60
370.07	86.60
370.27	121.71
370.47	189.58
370.66	395.55
370.86	383.85
371.06	493.85
371.25	479.81
371.45	444.70
371.65	496.19
371.84	461.09
372.04	468.11
372.24	561.73
372.44	566.41
372.63	507.90
372.83	449.38
373.03	484.49
373.22	421.30
373.42	458.74
373.62	554.71
373.81	566.41
374.01	636.63
374.21	545.34
374.40	528.96
374.60	561.73
374.79	547.69
374.99	531.30
375.19	667.05
375.38	606.20
375.58	540.66
375.78	641.31
375.97	592.16
376.17	592.16
376.37	582.79
376.56	603.86
376.76	636.63
376.95	596.84
377.15	657.69
377.35	645.99
377.54	664.71
377.74	643.65
377.93	650.67
378.13	634.29
378.33	704.50
378.52	636.63
378.72	613.22
378.91	650.67
379.11	648.33
379.31	660.03
379.50	678.76
379.70	683.44
379.89	725.57
380.09	645.99
380.28	699.82
380.48	676.41
380.68	671.73
380.87	704.50
381.07	699.82
381.26	753.65
381.46	622.58
381.65	755.99
381.85	671.73
382.04	725.57
382.24	819.19
382.43	681.10
382.63	777.06
382.83	674.07
383.02	751.31
383.22	748.97
383.41	720.88
383.61	695.14
383.80	734.93
384.00	765.36
384.19	784.08
384.39	919.83
384.58	741.95
384.78	819.19
384.97	842.59
385.17	814.51
385.36	830.89
385.56	856.64
385.75	755.99
385.95	788.76
386.14	849.61
386.34	826.21
386.53	854.30
386.72	823.87
386.92	922.17
387.11	919.83
387.31	905.79
387.50	887.06
387.70	889.40
387.89	917.49
388.09	861.32
388.28	840.25
388.48	823.87
388.67	940.90
388.86	842.59
389.06	915.15
389.25	959.62
389.45	889.40
389.64	905.79
389.84	1039.20
390.03	999.41
390.22	901.11
390.42	945.58
390.61	978.34
390.81	1015.79
391.00	978.34
391.19	1078.99
391.39	1048.56
391.58	1008.77
391.78	990.05
391.97	966.64
392.16	952.60
392.36	1055.58
392.55	1001.75
392.75	971.32
392.94	1015.79
393.13	1011.11
393.33	983.02
393.52	1071.97
393.71	1149.20
393.91	1055.58
394.10	1048.56
394.29	1139.84
394.49	1093.03
394.68	1116.44
394.88	1172.61
395.07	1214.74
395.26	1177.29
395.46	1121.12
395.65	1231.12
395.84	1270.91
396.04	1205.38
396.23	1172.61
396.42	1123.46
396.62	1137.50
396.81	1210.06
397.00	1200.69
397.19	1317.72
397.39	1299.00
397.58	1303.68
397.77	1259.21
397.97	1411.34
398.16	1350.49
398.35	1235.80
398.55	1341.13
398.74	1401.98
398.93	1486.24
399.12	1324.74
399.32	1427.73
399.51	1467.52
399.70	1500.28
399.90	1416.02
400.09	1535.39
400.28	1490.92
400.47	1488.58
400.67	1593.90
400.86	1591.56
401.05	1504.96
401.24	1507.30
401.44	1621.99
401.63	1689.87
401.82	1654.76
402.01	1640.72
402.21	1621.99
402.40	1638.38
402.59	1701.57
402.78	1664.12
402.97	1614.97
403.17	1687.53
403.36	1673.48
403.55	1694.55
403.74	1797.53
403.93	1720.29
404.13	1809.23
404.32	1708.59
404.51	1825.62
404.70	1856.04
404.89	1708.59
405.09	1949.67
405.28	1762.42
405.47	1919.24
405.66	1912.22
405.85	1905.20
406.05	1877.11
406.24	1923.92
406.43	1877.11
406.62	1961.37
406.81	1989.46
407.00	1959.03
407.20	1966.05
407.39	1952.01
407.58	2026.90
407.77	2087.76
407.96	2029.24
408.15	2104.14
408.34	2017.54
408.54	2148.61
408.73	2115.84
408.92	2211.81
409.11	2209.47
409.30	2181.38
409.49	2134.57
409.68	2275.00
409.87	2139.25
410.07	2312.45
410.26	2235.21
410.45	2267.98
410.64	2291.38
410.83	2387.35
411.02	2314.79
411.21	2452.88
411.40	2314.79
411.59	2441.18
411.78	2490.33
411.98	2520.76
412.17	2478.63
412.36	2527.78
412.55	2495.01
412.74	2485.65
412.93	2672.89
413.12	2672.89
413.31	2792.26
413.50	2801.62
413.69	2689.28
413.88	2794.60
414.07	2855.45
414.26	2782.90
414.45	2818.00
414.64	2708.00
414.83	2860.13
415.02	2892.90
415.22	2899.92
415.41	2951.42
415.60	2988.86
415.79	3016.95
415.98	3098.87
416.17	3145.68
416.36	3157.38
416.55	3035.67
416.74	3138.66
416.93	3178.45
417.12	3047.38
417.31	3108.23
417.50	3325.90
417.69	3243.98
417.88	3229.94
418.07	3236.96
418.26	3251.00
418.45	3337.60
418.64	3309.52
418.83	3482.72
419.02	3431.23
419.21	3396.12
419.39	3485.06
419.58	3384.41
419.77	3290.79
419.96	3463.99
420.15	3531.87
420.34	3581.02
420.53	3566.98
420.72	3655.92
420.91	3496.76
421.10	3719.11
421.29	3517.83
421.48	3637.19
421.67	3662.94
421.86	3609.11
422.05	3536.55
422.24	3503.78
422.43	3688.68
422.61	3667.62
422.80	3700.39
422.99	3733.15
423.18	3662.94
423.37	3817.41
423.56	3749.54
423.75	3648.90
423.94	3691.02
424.13	3536.55
424.32	3576.34
424.50	3714.43
424.69	3803.37
424.88	3756.56
425.07	3712.09
425.26	3754.22
425.45	3805.71
425.64	3801.03
425.83	3866.56
426.01	3915.72
426.20	3939.12
426.39	3742.52
426.58	3833.80
426.77	3850.18
426.96	3770.60
427.15	3707.41
427.33	3934.44
427.52	3918.06
427.71	3871.25
427.90	3997.64
428.09	3948.48
428.28	3967.21
428.46	4107.64
428.65	4021.04
428.84	4093.60
429.03	4002.32
429.22	3943.80
429.40	3950.82
429.59	3976.57
429.78	3995.29
429.97	3901.67
430.16	3885.29
430.34	3915.72
430.53	4098.28
430.72	4124.02
430.91	4163.81
431.10	4194.24
431.28	4217.65
431.47	4479.79
431.66	4421.27
431.85	4379.14
432.03	4535.96
432.22	4454.04
432.41	4554.68
432.60	4376.80
432.79	4479.79
432.97	4547.66
433.16	4449.36
433.35	4435.32
433.54	4533.62
433.72	4592.13
433.91	4634.26
434.10	4599.15
434.28	4660.01
434.47	4507.87
434.66	4641.28
434.85	4723.20
435.03	4770.01
435.22	4711.50
435.41	4894.06
435.59	4842.57
435.78	4786.40
435.97	4964.28
436.16	4905.76
436.34	4805.12
436.53	4903.42
436.72	4938.53
436.90	4699.80
437.09	4849.59
437.28	4896.40
437.46	4994.70
437.65	5008.75
437.84	4975.98
438.02	4952.57
438.21	4980.66
438.40	4945.55
438.58	5078.96
438.77	5128.11
438.96	5102.37
439.14	5263.86
439.33	5469.83
439.52	5357.49
439.70	5516.64
439.89	5444.09
440.08	5540.05
440.26	5533.03
440.45	5427.70
440.63	5528.35
440.82	5769.42
441.01	5507.28
441.19	5776.44
441.38	5863.04
441.57	5947.30
441.75	5860.70
441.94	5944.96
442.12	5947.30
442.31	5940.28
442.50	5996.45
442.68	6146.25
442.87	6120.50
443.05	6090.07
443.24	6143.91
443.43	5998.79
443.61	6188.38
443.80	6174.33
443.98	5951.98
444.17	5961.34
444.35	6179.01
444.54	6321.79
444.73	6218.80
444.91	6115.82
445.10	6164.97
445.28	6054.97
445.47	6237.53
445.65	6143.91
445.84	6164.97
446.02	6223.48
446.21	6225.82
446.39	6258.59
446.58	6368.60
446.77	6370.94
446.95	6141.57
447.14	6186.04
447.32	6445.84
447.51	6342.85
447.69	6303.06
447.88	6394.34
448.06	6438.81
448.25	6340.51
448.43	6443.49
448.62	6539.46
448.80	6457.54
448.99	6384.98
449.17	6574.56
449.36	6492.65
449.54	6546.48
449.73	6518.39
449.91	6773.51
450.10	6855.43
450.28	6752.45
450.46	6846.07
450.65	6778.19
450.83	6729.04
451.02	6696.27
451.20	7007.56
451.39	6918.62
451.57	6956.07
451.76	6593.29
451.94	6883.52
452.13	6986.50
452.31	6848.41
452.49	6764.15
452.68	6874.15
452.86	6897.56
453.05	6836.70
453.23	6911.60
453.42	6759.47
453.60	6963.09
453.78	7197.15
453.97	7098.84
454.15	7033.31
454.34	7197.15
454.52	7091.82
454.70	7129.27
454.89	7059.06
455.07	7267.36
455.26	7316.51
455.44	7370.35
455.62	7276.73
455.81	7187.79
455.99	7438.22
456.17	7438.22
456.36	7592.70
456.54	7611.42
456.73	7581.00
456.91	7770.58
457.09	7758.88
457.28	7934.42
457.46	7445.24
457.64	7836.11
457.83	7646.53
458.01	7698.02
458.19	7943.78
458.38	7754.19
458.56	7756.54
458.74	7845.48
458.93	7786.96
459.11	7892.29
459.29	8044.42
459.48	8102.93
459.66	7784.62
459.84	7995.27
460.03	7990.59
460.21	8102.93
460.39	8252.73
460.57	8236.35
460.76	8081.87
460.94	8322.94
461.12	8402.52
461.31	8269.11
461.49	8259.75
461.67	8463.38
461.85	8454.02
462.04	8416.57
462.22	8973.61
462.40	8638.92
462.59	8264.43
462.77	8360.39
462.95	8524.23
463.13	8500.83
463.32	8535.93
463.50	8645.94
463.68	8454.02
463.86	8564.02
464.05	8315.92
464.23	8676.37
464.41	8641.26
464.59	8355.71
464.78	8678.71
464.96	8547.64
465.14	8669.34
465.32	8835.52
465.50	8861.27
465.69	8901.06
465.87	8746.58
466.05	8788.71
466.23	8842.54
466.41	8720.84
466.60	8903.40
466.78	8879.99
466.96	8805.10
467.14	8924.46
467.32	8938.51
467.51	9025.11
467.69	8833.18
467.87	8971.27
468.05	9205.33
468.23	8924.46
468.41	9137.45
468.60	8973.61
468.78	9214.69
468.96	9153.84
469.14	9371.50
469.32	9268.52
469.50	9151.49
469.69	9191.28
469.87	9366.82
470.05	9554.07
470.23	9376.19
470.41	9249.80
470.59	9500.23
470.77	9296.61
470.95	9561.09
471.14	9692.16
471.32	9668.75
471.50	9788.12
471.68	9874.72
471.86	9951.96
472.04	9991.75
472.22	10040.90
472.40	9919.19
472.58	9970.68
472.77	10031.54
472.95	10244.52
473.13	10459.85
473.31	10129.84
473.49	10071.33
473.67	10148.56
473.85	10249.21
474.03	10368.57
474.21	10602.63
474.39	10553.48
474.57	10616.67
474.75	10436.45
474.93	10729.02
475.12	10609.65
475.30	10890.51
475.48	10862.43
475.66	11047.33
475.84	10778.17
476.02	11037.97
476.20	10953.71
476.38	11157.33
476.56	11517.78
476.74	11360.96
476.92	11110.52
477.10	11571.61
477.28	11690.98
477.46	11501.39
477.64	11513.10
477.82	11735.45
478.00	11943.75
478.18	12133.34
478.36	11967.16
478.54	12138.02
478.72	12533.57
478.90	12369.73
479.08	12549.95
479.26	12526.55
479.44	12657.62
479.62	12648.26
479.80	12947.84
479.98	12779.32
480.16	13254.45
480.34	13046.15
480.52	12922.10
480.70	13170.19
480.88	13193.60
481.06	13411.27
481.24	13317.65
481.41	13568.09
481.59	13717.88
481.77	13554.04
481.95	14012.79
482.13	14176.62
482.31	13954.27
482.49	14008.11
482.67	14153.22
482.85	14562.81
483.03	14441.11
483.21	14778.14
483.39	14602.60
483.57	14970.07
483.74	14829.63
483.92	15091.77
484.10	14651.75
484.28	15192.42
484.46	15393.70
484.64	15557.54
484.82	15386.68
485.00	15637.12
485.18	15922.66
485.35	15896.92
485.53	15726.06
485.71	15585.63
485.89	15990.54
486.07	15850.11
486.25	16159.06
486.43	16372.05
486.61	16500.78
486.78	16489.07
486.96	16711.42
487.14	17224.00
487.32	16812.07
487.50	17179.53
487.68	17724.88
487.85	17598.49
488.03	17853.61
488.21	17818.50
488.39	17710.83
488.57	17919.14
488.75	18162.56
488.92	18441.08
489.10	18792.16
489.28	18892.80
489.46	18771.10
489.64	18977.06
489.81	19171.33
489.99	19236.86
490.17	19611.35
490.35	19775.19
490.53	19644.12
490.70	19524.75
490.88	19857.10
491.06	19901.58
491.24	20039.67
491.41	19845.40
491.59	20306.49
491.77	19927.32
491.95	20266.70
492.13	20484.37
492.30	20933.75
492.48	20936.09
492.66	20840.13
492.84	20989.92
493.01	21174.83
493.19	21310.58
493.37	21451.01
493.54	21532.93
493.72	21762.30
493.90	22136.79
494.08	22218.71
494.25	22422.33
494.43	22328.71
494.61	22623.62
494.79	22878.74
494.96	22410.63
495.14	22455.10
495.32	22747.67
495.49	22843.63
495.67	23122.15
495.85	23126.83
496.02	23529.41
496.20	23374.93
496.38	23529.41
496.55	23419.40
496.73	23896.87
496.91	23836.02
497.09	24203.48
497.26	24215.18
497.44	24056.03
497.62	24219.86
497.79	24290.08
497.97	24332.21
498.14	24517.11
498.32	24891.60
498.50	24898.62
498.67	24989.90
498.85	25212.25
499.03	25282.47
499.20	25284.81
499.38	25455.67
499.56	25247.36
499.73	25593.76
499.91	25420.56
500.08	25750.57
500.26	25291.83
500.44	25420.56
500.61	25563.33
500.79	25961.22
500.97	26057.18
501.14	26574.44
501.32	26331.03
501.49	26534.65
501.67	26574.44
501.84	26726.58
502.02	26595.51
502.20	26757.00
502.37	26888.07
502.55	26897.44
502.72	27260.22
502.90	27339.80
503.07	26920.84
503.25	27475.55
503.43	27428.74
503.60	27363.20
503.78	27494.27
503.95	27023.83
504.13	27442.78
504.30	27487.25
504.48	27648.75
504.65	28107.49
504.83	27871.10
505.01	28123.88
505.18	28315.80
505.36	28332.18
505.53	28322.82
505.71	28463.25
505.88	28982.85
506.06	28435.17
506.23	28409.42
506.41	28589.64
506.58	28964.13
506.76	28840.08
506.93	28891.57
507.11	29240.31
507.28	29083.50
507.46	29247.33
507.63	29317.55
507.81	29163.08
507.98	29242.65
508.16	29902.68
508.33	29425.22
508.50	30153.12
508.68	29965.88
508.85	30000.99
509.03	30099.29
509.20	30228.02
509.38	30338.02
509.55	30417.60
509.73	30314.62
509.90	30237.38
510.08	30164.82
510.25	30448.03
510.42	30415.26
510.60	30974.65
510.77	30909.11
510.95	31164.23
511.12	31084.65
511.30	30995.71
511.47	31409.99
511.64	31573.83
511.82	31489.57
511.99	31002.74
512.17	31515.31
512.34	31159.55
512.51	31522.34
512.69	31756.39
512.86	31861.71
513.04	31955.33
513.21	31707.24
513.38	31845.33
513.56	32020.87
513.73	31695.53
513.90	32067.68
514.08	32051.30
514.25	31929.59
514.43	32098.11
514.60	32503.02
514.77	32467.91
514.95	32636.43
515.12	32449.19
515.29	32818.99
515.47	33244.97
515.64	33097.52
515.81	32701.96
515.99	32861.12
516.16	33027.30
516.33	32837.72
516.51	33015.60
516.68	32505.36
516.85	32774.52
517.03	32980.49
517.20	33280.08
517.37	33605.41
517.54	33504.77
517.72	33558.60
517.89	33165.39
518.06	33467.32
518.24	33563.28
518.41	33495.41
518.58	33612.43
518.75	33530.51
518.93	33958.83
519.10	33731.80
519.27	33844.15
519.45	34616.52
519.62	34373.11
519.79	34504.18
519.96	34602.48
520.14	34440.98
520.31	34527.58
520.48	34621.20
520.65	34635.25
520.83	34780.36
521.00	35147.82
521.17	35016.75
521.34	34885.68
521.52	35079.95
521.69	35072.93
521.86	35138.46
522.03	35133.78
522.20	35477.84
522.38	35426.35
522.55	35931.90
522.72	35440.39
522.89	35311.66
523.07	35569.12
523.24	35594.87
523.41	35751.68
523.58	35775.09
523.75	36025.53
523.92	36311.07
524.10	35861.69
524.27	36222.13
524.44	36495.97
524.61	36304.05
524.78	36268.94
524.96	36563.85
525.13	36985.15
525.30	36865.78
525.47	37167.71
525.64	36575.55
525.81	36222.13
525.98	36928.97
526.16	36261.92
526.33	36559.17
526.50	36907.91
526.67	36343.84
526.84	36910.25
527.01	36692.58
527.18	36760.45
527.36	37481.34
527.53	36931.31
527.70	37343.25
527.87	37745.82
528.04	37333.89
528.21	37385.38
528.38	37619.43
528.55	38022.00
528.72	37708.37
528.89	37963.49
529.07	38066.47
529.24	37624.11
529.41	37811.35
529.58	37376.01
529.75	37759.86
529.92	37848.80
530.09	38206.90
530.26	38237.33
530.43	38115.62
530.60	38494.79
530.77	37968.17
530.94	38525.22
531.11	38309.89
531.28	38693.74
531.46	38703.10
531.63	38696.08
531.80	38944.17
531.97	38726.50
532.14	38562.67
532.31	38536.92
532.48	38941.83
532.65	38876.30
532.82	39021.41
532.99	39056.52
533.16	38651.61
533.33	39225.04
533.50	39246.10
533.67	39122.05
533.84	39021.41
534.01	39100.99
534.18	38930.13
534.35	40006.78
534.52	39236.74
534.69	39391.22
534.86	39199.29
535.03	39564.42
535.20	40048.91
535.37	39934.22
535.54	39920.18
535.71	40034.86
535.88	39777.40
536.05	39948.26
536.22	39849.96
536.38	40060.61
536.55	39985.71
536.72	40058.27
536.89	39770.38
537.06	40140.19
537.23	39899.11
537.40	40105.08
537.57	40289.98
537.74	40081.67
537.91	40502.97
538.08	40327.43
538.25	40524.04
538.42	40079.33
538.59	40950.01
538.75	40168.27
538.92	40582.55
539.09	40442.12
539.26	40233.81
539.43	40942.99
539.60	40378.92
539.77	40439.78
539.94	40730.00
540.11	40643.40
540.28	40486.59
540.44	40837.67
540.61	40910.22
540.78	40374.24
540.95	40428.07
541.12	40374.24
541.29	40760.43
541.46	40938.31
541.62	41013.21
541.79	41333.86
541.96	40765.11
542.13	40582.55
542.30	41163.00
542.47	41483.66
542.63	40851.71
542.80	41420.46
542.97	41776.22
543.14	41956.44
543.31	41642.81
543.48	41951.76
543.64	42000.91
543.81	42057.09
543.98	41949.42
544.15	41691.96
544.32	42171.77
544.48	42616.47
544.65	42050.06
544.82	42113.26
544.99	41598.34
545.16	42653.92
545.32	41984.53
545.49	42396.46
545.66	42848.19
545.83	42281.78
546.00	42714.78
546.16	42464.34
546.33	41869.84
546.50	41745.80
546.67	42607.11
546.83	41780.90
547.00	42672.65
547.17	42611.79
547.34	42452.64
547.50	42525.19
547.67	42834.14
547.84	42784.99
548.00	42997.98
548.17	42972.24
548.34	43377.15
548.51	42724.14
548.67	42934.79
548.84	43318.64
549.01	42780.31
549.18	42831.80
549.34	43136.07
549.51	42983.94
549.68	43166.50
549.84	43124.37
550.01	43061.18
550.18	43325.66
550.34	43033.09
550.51	43285.87
550.68	43225.01
550.84	43005.00
551.01	43473.11
551.18	43311.61
551.34	43459.07
551.51	43213.31
551.68	43393.53
551.84	43784.40
552.01	43328.00
552.18	43178.20
552.34	43438.00
552.51	43096.28
552.68	43510.56
552.84	43700.14
553.01	43824.19
553.18	43529.28
553.34	43449.70
553.51	44018.46
553.67	43878.02
553.84	44072.29
554.01	44074.63
554.17	44573.16
554.34	44025.48
554.51	44105.06
554.67	43894.41
554.84	44212.72
555.00	44009.09
555.17	43842.92
555.33	44074.63
555.50	44076.97
555.67	44191.65
555.83	44301.66
556.00	44320.38
556.16	44296.98
556.33	44252.51
556.50	44430.39
556.66	44168.25
556.83	44147.18
556.99	44144.84
557.16	44659.76
557.32	44444.43
557.49	44629.34
557.65	44264.21
557.82	44196.34
557.98	44519.33
558.15	44397.62
558.32	44116.76
558.48	44587.21
558.65	44830.62
558.81	44093.35
558.98	44875.09
559.14	44247.83
559.31	44339.11
559.47	44673.81
559.64	44748.70
559.80	44622.31
559.97	44781.47
560.13	44797.85
560.30	44502.95
560.46	44638.70
560.63	45015.52
560.79	44790.83
560.96	44680.83
561.12	45195.74
561.29	45170.00
561.45	44919.56
561.61	44793.17
561.78	44779.13
561.94	44800.19
562.11	45202.77
562.27	44837.64
562.44	44964.03
562.60	45223.83
562.77	44891.48
562.93	45003.82
563.10	45181.70
563.26	45308.09
563.42	45141.91
563.59	44779.13
563.75	44818.92
563.92	45504.70
564.08	45052.97
564.24	45214.47
564.41	45500.01
564.57	45022.54
564.74	45312.77
564.90	45179.36
565.07	44872.75
565.23	44783.81
565.39	45052.97
565.56	45488.31
565.72	44795.51
565.88	45525.76
566.05	45083.40
566.21	45130.21
566.38	44931.26
566.54	45242.56
566.70	45258.94
566.87	45549.17
567.03	45242.56
567.19	46068.76
567.36	45361.92
567.52	45034.25
567.68	45319.79
567.85	45158.30
568.01	45265.96
568.17	45001.48
568.34	45289.37
568.50	45577.25
568.66	45270.64
568.83	45450.86
568.99	45298.73
569.15	45361.92
569.32	45530.44
569.48	44982.76
569.64	45799.60
569.81	45631.08
569.97	45645.13
570.13	45436.82
570.30	45184.04
570.46	45024.89
570.62	45198.09
570.78	44872.75
570.95	45289.37
571.11	45429.80
571.27	45216.81
571.43	45560.87
571.60	45401.71
571.76	45563.21
571.92	45727.05
572.09	45167.66
572.25	45638.11
572.41	45593.64
572.57	45301.07
572.74	45872.16
572.90	45343.20
573.06	45504.70
573.22	45830.03
573.38	45453.20
573.55	45542.14
573.71	46150.68
573.87	45598.32
574.03	45434.48
574.20	44863.39
574.36	45668.53
574.52	45308.09
574.68	45518.74
574.84	45338.52
575.01	45975.14
575.17	45340.86
575.33	45387.67
575.49	45701.30
575.65	45628.74
575.82	45518.74
575.98	45553.85
576.14	45907.27
576.30	45600.66
576.46	45663.85
576.62	45429.80
576.79	45256.60
576.95	45146.59
577.11	45556.19
577.27	45584.27
577.43	45792.58
577.59	45364.26
577.75	45450.86
577.92	45078.72
578.08	45146.59
578.24	45247.24
578.40	45904.93
578.56	45701.30
578.72	45794.92
578.88	45965.78
579.04	45942.38
579.21	45455.54
579.37	45556.19
579.53	45294.05
579.69	45595.98
579.85	45471.93
580.01	45668.53
580.17	45804.28
580.33	45867.48
580.49	45755.13
580.65	45874.50
580.82	45577.25
580.98	45656.83
581.14	45741.09
581.30	45958.76
581.46	45542.14
581.62	45942.38
581.78	46028.98
581.94	46312.18
582.10	46358.99
582.26	46124.94
582.42	46000.89
582.58	45755.13
582.74	45851.09
582.90	45525.76
583.06	46085.15
583.22	45841.73
583.38	46417.50
583.54	45886.20
583.70	45956.42
583.86	45848.75
584.02	45357.24
584.18	45893.22
584.34	45734.07
584.50	46174.09
584.66	45830.03
584.82	45258.94
584.98	45979.82
585.14	45764.49
585.30	45715.34
585.46	45640.45
585.62	45509.38
585.78	45806.62
585.94	45574.91
586.10	45460.23
586.26	45525.76
586.42	45876.84
586.58	45736.41
586.74	46113.23
586.90	45504.70
587.06	45450.86
587.22	45703.64
587.38	45338.52
587.54	45998.55
587.70	46293.46
587.86	45738.75
588.02	45546.82
588.18	45652.15
588.34	45600.66
588.49	45687.26
588.65	45364.26
588.81	45523.42
588.97	44912.54
589.13	45666.19
589.29	45284.68
589.45	45549.17
589.61	45993.87
589.77	45731.73
589.93	45986.85
590.08	46323.88
