SpectraSuite Data File
++++++++++++++++++++++++++++++++++++
Date: Fri Oct 25 10:48:20 EDT 2013
User: price-jones
Dark Spectrum Present: No
Reference Spectrum Present: No
Number of Sampled Component Spectra: 1
Spectrometers: USB2+H05261
Integration Time (usec): 100000 (USB2+H05261)
Spectra Averaged: 1 (USB2+H05261)
Boxcar Smoothing: 0 (USB2+H05261)
Correct for Electrical Dark: No (USB2+H05261)
Strobe/Lamp Enabled: No (USB2+H05261)
Correct for Detector Non-linearity: No (USB2+H05261)
Correct for Stray Light: No (USB2+H05261)
Number of Pixels in Processed Spectrum: 2048
>>>>>Begin Processed Spectral Data<<<<<
365.73	159.16
365.92	159.16
366.12	159.16
366.32	32.77
366.52	42.13
366.72	77.24
366.91	14.04
367.11	49.15
367.31	60.85
367.51	44.47
367.70	0.00
367.90	37.45
368.10	93.62
368.30	51.49
368.49	81.92
368.69	124.05
368.89	140.43
369.09	88.94
369.28	110.01
369.48	63.19
369.68	37.45
369.87	119.37
370.07	159.16
370.27	170.86
370.47	243.42
370.66	425.98
370.86	409.59
371.06	479.81
371.25	517.26
371.45	482.15
371.65	543.00
371.84	470.45
372.04	559.39
372.24	503.22
372.44	484.49
372.63	526.62
372.83	533.64
373.03	524.28
373.22	559.39
373.42	585.13
373.62	540.66
373.81	582.79
374.01	601.52
374.21	629.60
374.40	575.77
374.60	601.52
374.79	528.96
374.99	641.31
375.19	554.71
375.38	578.11
375.58	624.92
375.78	627.26
375.97	660.03
376.17	704.50
376.37	573.43
376.56	662.37
376.76	641.31
376.95	629.60
377.15	671.73
377.35	615.56
377.54	678.76
377.74	643.65
377.93	720.88
378.13	709.18
378.33	601.52
378.52	645.99
378.72	695.14
378.91	723.23
379.11	631.94
379.31	664.71
379.50	692.80
379.70	706.84
379.89	753.65
380.09	709.18
380.28	741.95
380.48	730.25
380.68	732.59
380.87	730.25
381.07	734.93
381.26	723.23
381.46	748.97
381.65	683.44
381.85	793.44
382.04	821.53
382.24	671.73
382.43	767.70
382.63	753.65
382.83	727.91
383.02	777.06
383.22	823.87
383.41	713.86
383.61	854.30
383.80	819.19
384.00	807.48
384.19	875.36
384.39	830.89
384.58	763.01
384.78	837.91
384.97	849.61
385.17	830.89
385.36	880.04
385.56	718.54
385.75	812.17
385.95	858.98
386.14	849.61
386.34	971.32
386.53	823.87
386.72	940.90
386.92	936.21
387.11	915.15
387.31	884.72
387.50	938.55
387.70	968.98
387.89	912.81
388.09	901.11
388.28	922.17
388.48	950.26
388.67	957.28
388.86	1011.11
389.06	1034.52
389.25	1008.77
389.45	1095.37
389.64	999.41
389.84	1081.33
390.03	1050.90
390.22	1039.20
390.42	1076.65
390.61	1128.14
390.81	1104.73
391.00	1174.95
391.19	1116.44
391.39	1156.22
391.58	1181.97
391.78	1055.58
391.97	1097.71
392.16	1144.52
392.36	1109.41
392.55	1078.99
392.75	1128.14
392.94	943.24
393.13	1100.05
393.33	1109.41
393.52	1163.25
393.71	1146.86
393.91	1165.59
394.10	1149.20
394.29	1219.42
394.49	1207.72
394.68	1308.36
394.88	1352.83
395.07	1387.94
395.26	1294.32
395.46	1277.93
395.65	1334.11
395.84	1277.93
396.04	1203.04
396.23	1259.21
396.42	1137.50
396.62	1252.19
396.81	1270.91
397.00	1334.11
397.19	1359.85
397.39	1327.08
397.58	1420.71
397.77	1401.98
397.97	1497.94
398.16	1441.77
398.35	1495.60
398.55	1486.24
398.74	1619.65
398.93	1605.61
399.12	1631.35
399.32	1631.35
399.51	1542.41
399.70	1577.52
399.90	1610.29
400.09	1586.88
400.28	1722.63
400.47	1654.76
400.67	1710.93
400.86	1743.70
401.05	1748.38
401.24	1767.10
401.44	1722.63
401.63	1858.39
401.82	1703.91
402.01	1881.79
402.21	1717.95
402.40	1792.85
402.59	1832.64
402.78	1846.68
402.97	1879.45
403.17	1788.17
403.36	1966.05
403.55	1926.26
403.74	1975.41
403.93	2017.54
404.13	1881.79
404.32	1940.30
404.51	1837.32
404.70	2073.71
404.89	2083.08
405.09	2062.01
405.28	1935.62
405.47	1916.90
405.66	2062.01
405.85	2019.88
406.05	2136.91
406.24	2223.51
406.43	2078.40
406.62	2204.78
406.81	2134.57
407.00	2129.89
407.20	2150.95
407.39	2132.23
407.58	2356.92
407.77	2289.04
407.96	2223.51
408.15	2228.19
408.34	2363.94
408.54	2366.28
408.73	2307.77
408.92	2459.90
409.11	2452.88
409.30	2455.22
409.49	2366.28
409.68	2450.54
409.87	2394.37
410.07	2527.78
410.26	2431.82
410.45	2445.86
410.64	2518.42
410.83	2597.99
411.02	2693.96
411.21	2754.81
411.40	2544.16
411.59	2729.06
411.78	2881.20
411.98	2668.21
412.17	2801.62
412.36	2754.81
412.55	2771.19
412.74	2822.69
412.93	2738.43
413.12	2789.92
413.31	2958.44
413.50	3049.72
413.69	3059.08
413.88	3178.45
414.07	3052.06
414.26	3112.91
414.45	3061.42
414.64	3124.62
414.83	3049.72
415.02	3208.87
415.22	3293.13
415.41	3339.94
415.60	3215.90
415.79	3283.77
415.98	3431.23
416.17	3304.84
416.36	3438.25
416.55	3382.07
416.74	3412.50
416.93	3449.95
417.12	3499.10
417.31	3543.57
417.50	3386.76
417.69	3555.27
417.88	3648.90
418.07	3557.61
418.26	3428.88
418.45	3646.55
418.64	3838.48
418.83	3665.28
419.02	3705.07
419.21	3768.26
419.39	3742.52
419.58	3702.73
419.77	3719.11
419.96	3810.39
420.15	3836.14
420.34	3906.35
420.53	3967.21
420.72	4016.36
420.91	3899.33
421.10	3817.41
421.29	3934.44
421.48	3953.16
421.67	3999.98
421.86	3913.38
422.05	3901.67
422.24	3932.10
422.43	3974.23
422.61	3992.95
422.80	4002.32
422.99	4117.00
423.18	3997.64
423.37	4119.34
423.56	4219.99
423.75	4086.58
423.94	4105.30
424.13	4035.08
424.32	4053.81
424.50	4095.94
424.69	4320.63
424.88	4170.83
425.07	4131.05
425.26	4046.79
425.45	4086.58
425.64	3967.21
425.83	4025.72
426.01	4114.66
426.20	4081.89
426.39	4241.05
426.58	4149.77
426.77	3971.89
426.96	4053.81
427.15	4124.02
427.33	4231.69
427.52	4269.14
427.71	4327.65
427.90	4290.20
428.09	4203.60
428.28	4320.63
428.46	4449.36
428.65	4355.74
428.84	4526.60
429.03	4388.50
429.22	4187.22
429.40	4346.37
429.59	4201.26
429.78	4133.39
429.97	4011.68
430.16	4395.53
430.34	4311.27
430.53	4440.00
430.72	4329.99
430.91	4416.59
431.10	4428.29
431.28	4557.02
431.47	4828.53
431.66	4833.21
431.85	4662.35
432.03	4678.73
432.22	4898.74
432.41	4847.25
432.60	4844.91
432.79	5001.72
432.97	4915.12
433.16	4910.44
433.35	4809.80
433.54	4915.12
433.72	4732.56
433.91	4856.61
434.10	4952.57
434.28	4959.60
434.47	5081.30
434.66	4950.23
434.85	5118.75
435.03	5064.92
435.22	5149.18
435.41	5533.03
435.59	5240.46
435.78	5341.10
435.97	5263.86
436.16	5334.08
436.34	5268.55
436.53	5432.38
436.72	5558.77
436.90	5233.44
437.09	5394.93
437.28	5284.93
437.46	5479.19
437.65	5439.40
437.84	5451.11
438.02	5394.93
438.21	5453.45
438.40	5268.55
438.58	5610.26
438.77	5748.36
438.96	5682.82
439.14	5863.04
439.33	5823.25
439.52	5841.98
439.70	5755.38
439.89	6085.39
440.08	5961.34
440.26	5832.62
440.45	6015.18
440.63	6232.85
440.82	6284.34
441.01	6195.40
441.19	6270.30
441.38	6509.03
441.57	6331.15
441.75	6459.88
441.94	6633.08
442.12	6633.08
442.31	6626.06
442.50	6569.88
442.68	6579.25
442.87	6726.70
443.05	6738.40
443.24	6686.91
443.43	6736.06
443.61	6768.83
443.80	6871.81
443.98	6691.59
444.17	6520.73
444.35	6736.06
444.54	6965.43
444.73	6902.24
444.91	6637.76
445.10	6700.95
445.28	6703.29
445.47	6628.40
445.65	6759.47
445.84	6787.55
446.02	6878.83
446.21	6773.51
446.39	6846.07
446.58	7080.12
446.77	6836.70
446.95	6841.39
447.14	6939.69
447.32	7339.92
447.51	6960.75
447.69	6883.52
447.88	6979.48
448.06	7052.03
448.25	6974.80
448.43	7115.23
448.62	6817.98
448.80	6918.62
448.99	7098.84
449.17	7239.28
449.36	7122.25
449.54	7405.46
449.73	7227.57
449.91	7407.80
450.10	7286.09
450.28	7492.05
450.46	7407.80
450.65	7489.71
450.83	7461.63
451.02	7552.91
451.20	7604.40
451.39	7489.71
451.57	7468.65
451.76	7316.51
451.94	7590.36
452.13	7864.20
452.31	7613.76
452.49	7379.71
452.68	7520.14
452.86	7534.18
453.05	7564.61
453.23	7735.47
453.42	7564.61
453.60	7548.23
453.78	7988.25
453.97	7541.21
454.15	7751.85
454.34	7646.53
454.52	7854.84
454.70	7953.14
454.89	7777.60
455.07	7922.71
455.26	7831.43
455.44	8152.09
455.62	8046.76
455.81	8287.84
455.99	7985.91
456.17	8241.03
456.36	8212.94
456.54	8273.79
456.73	8336.99
456.91	8437.63
457.09	8379.12
457.28	8564.02
457.46	8107.62
457.64	8423.59
457.83	8365.07
458.01	8428.27
458.19	8479.76
458.38	8465.72
458.56	8669.34
458.74	8451.67
458.93	8540.61
459.11	8676.37
459.29	8781.69
459.48	8627.21
459.66	8486.78
459.84	8727.86
460.03	8828.50
460.21	8730.20
460.39	8798.07
460.57	8844.88
460.76	8858.93
460.94	8964.25
461.12	9130.43
461.31	9177.24
461.49	8980.64
461.67	9090.64
461.85	9228.73
462.04	9221.71
462.22	9458.10
462.40	9270.86
462.59	9165.54
462.77	9160.86
462.95	9156.18
463.13	9132.77
463.32	9090.64
463.50	9355.12
463.68	9331.72
463.86	9404.27
464.05	9317.67
464.23	9076.60
464.41	9502.58
464.59	9174.90
464.78	9591.52
464.96	9425.34
465.14	9465.13
465.32	9717.90
465.50	9401.93
465.69	9551.73
465.87	9781.10
466.05	9432.36
466.23	9530.66
466.41	9708.54
466.60	9701.52
466.78	9657.05
466.96	9530.66
467.14	9778.76
467.32	9579.81
467.51	9797.48
467.69	9497.89
467.87	9851.31
468.05	9881.74
468.23	9788.12
468.41	9556.41
468.60	9961.32
468.78	10019.83
468.96	10076.01
469.14	9966.00
469.32	10127.50
469.50	9659.39
469.69	10277.29
469.87	10080.69
470.05	10342.83
470.23	10122.82
470.41	10312.40
470.59	10256.23
470.77	10490.28
470.95	10274.95
471.14	10611.99
471.32	10338.15
471.50	10588.58
471.68	10532.41
471.86	10841.36
472.04	10684.55
472.22	10967.75
472.40	10785.19
472.58	10874.13
472.77	10869.45
472.95	10963.07
473.13	11187.76
473.31	10939.66
473.49	11005.20
473.67	11286.06
473.85	10972.43
474.03	11108.18
474.21	11332.87
474.39	11655.87
474.57	11576.29
474.75	11641.82
474.93	11662.89
475.12	11667.57
475.30	11527.14
475.48	11597.35
475.66	11836.09
475.84	11779.92
476.02	11747.15
476.20	11866.52
476.38	11969.50
476.56	12229.30
476.74	12313.56
476.92	11929.71
477.10	12233.98
477.28	12601.44
477.46	12643.57
477.64	12561.66
477.82	12938.48
478.00	13247.43
478.18	12959.55
478.36	13102.32
478.54	13373.82
478.72	13357.44
478.90	13310.63
479.08	13582.13
479.26	13692.13
479.44	13827.88
479.62	13848.95
479.80	13771.71
479.98	13909.80
480.16	14291.31
480.34	14171.94
480.52	14537.07
480.70	14157.90
480.88	14115.77
481.06	14501.96
481.24	14731.33
481.41	14927.94
481.59	14771.12
481.77	15356.25
481.95	15161.99
482.13	15264.97
482.31	15213.48
482.49	15428.81
482.67	15571.58
482.85	15623.08
483.03	15763.51
483.21	15819.68
483.39	15716.70
483.57	15939.05
483.74	16037.35
483.92	16084.16
484.10	16056.08
484.28	16456.31
484.46	16460.99
484.64	17235.70
484.82	16776.96
485.00	16779.30
485.18	16982.93
485.35	16830.79
485.53	16748.87
485.71	16713.77
485.89	17109.32
486.07	16917.39
486.25	17420.61
486.43	17429.97
486.61	17657.00
486.78	17600.83
486.96	18001.06
487.14	18279.58
487.32	18214.05
487.50	18735.99
487.68	18890.46
487.85	19176.01
488.03	19267.29
488.21	19536.45
488.39	19080.05
488.57	19262.61
488.75	19227.50
488.92	19765.82
489.10	19861.79
489.28	20283.08
489.46	20372.02
489.64	20479.69
489.81	20318.19
489.99	20865.88
490.17	21001.63
490.35	21135.04
490.53	21120.99
490.70	21357.39
490.88	21074.18
491.06	22078.27
491.24	21350.37
491.41	21376.11
491.59	21516.54
491.77	21673.36
491.95	22115.72
492.13	21965.93
492.30	22293.60
492.48	22625.96
492.66	22632.98
492.84	22663.41
493.01	22780.43
493.19	23040.23
493.37	22972.36
493.54	22979.38
493.72	23440.47
493.90	23686.22
494.08	23761.12
494.25	23936.66
494.43	24254.97
494.61	24301.78
494.79	24259.65
494.96	24151.99
495.14	24233.91
495.32	24615.41
495.49	24456.26
495.67	24629.46
495.85	24489.03
496.02	25319.92
496.20	25333.96
496.38	25144.38
496.55	25645.25
496.73	26307.62
496.91	25551.63
497.09	25624.18
497.26	25841.85
497.44	25933.14
497.62	26253.79
497.79	25935.48
497.97	26087.61
498.14	26424.65
498.32	26773.39
498.50	26494.86
498.67	26855.31
498.85	27101.06
499.03	27379.59
499.20	27274.26
499.38	27262.56
499.56	27152.55
499.73	27232.13
499.91	27414.69
500.08	27466.19
500.26	27243.84
500.44	27630.02
500.61	27489.59
500.79	27578.53
500.97	27847.69
501.14	28409.42
501.32	28130.90
501.49	28013.87
501.67	27957.70
501.84	28259.63
502.02	28418.78
502.20	28755.82
502.37	28989.88
502.55	28631.77
502.72	28992.22
502.90	29046.05
503.07	29149.03
503.25	28814.34
503.43	29010.94
503.60	29109.24
503.78	29406.49
503.95	29092.86
504.13	29706.08
504.30	29635.86
504.48	29481.39
504.65	29778.64
504.83	29921.41
505.01	30492.50
505.18	30157.80
505.36	30199.93
505.53	30445.69
505.71	30735.92
505.88	30719.53
506.06	30438.67
506.23	30724.21
506.41	30829.54
506.58	30834.22
506.76	30881.03
506.93	31536.38
507.11	30869.33
507.28	31222.75
507.46	31234.45
507.63	31094.02
507.81	31480.21
507.98	31201.68
508.16	31962.36
508.33	31496.59
508.50	31805.54
508.68	31702.56
508.85	32229.18
509.03	32252.58
509.20	32168.32
509.38	32395.35
509.55	32219.81
509.73	32411.74
509.90	32528.77
510.08	32385.99
510.25	32800.27
510.42	32781.54
510.60	32652.81
510.77	33322.21
510.95	33343.27
511.12	32886.87
511.30	33448.60
511.47	33603.07
511.64	33694.35
511.82	33659.24
511.99	33251.99
512.17	33532.86
512.34	33441.57
512.51	33418.17
512.69	33844.15
512.86	34066.50
513.04	34321.62
513.21	33816.06
513.38	33755.21
513.56	33951.81
513.73	33902.66
513.90	34103.95
514.08	33982.24
514.25	34410.56
514.43	34197.57
514.60	33876.91
514.77	34511.20
514.95	34691.42
515.12	34796.74
515.29	34951.22
515.47	35407.62
515.64	35098.67
515.81	34778.02
515.99	34895.05
516.16	34682.06
516.33	34560.35
516.51	34974.63
516.68	33930.75
516.85	34375.45
517.03	34773.34
517.20	35002.71
517.37	35002.71
517.54	35477.84
517.72	35515.29
517.89	35192.30
518.06	35393.58
518.24	35206.34
518.41	35402.94
518.58	36044.25
518.75	35405.28
518.93	35803.17
519.10	35866.37
519.27	36341.50
519.45	36278.30
519.62	36577.89
519.79	36294.69
519.96	36903.23
520.14	36802.58
520.31	36479.59
520.48	36940.68
520.65	36566.19
520.83	36849.39
521.00	37277.71
521.17	37015.57
521.34	37179.41
521.52	37710.71
521.69	37350.27
521.86	37284.73
522.03	37607.73
522.20	37560.92
522.38	37876.89
522.55	37427.51
522.72	37390.06
522.89	37532.83
523.07	37209.84
523.24	37745.82
523.41	38101.58
523.58	37687.31
523.75	38391.81
523.92	38326.27
524.10	38787.36
524.27	38277.12
524.44	38541.60
524.61	38391.81
524.78	38773.31
524.96	39086.95
525.13	38820.13
525.30	39328.02
525.47	39054.18
525.64	38930.13
525.81	38845.87
525.98	38909.07
526.16	38759.27
526.33	38401.17
526.50	38775.66
526.67	38876.30
526.84	39105.67
527.01	38663.31
527.18	39026.09
527.36	39173.55
527.53	39438.03
527.70	39330.36
527.87	39459.09
528.04	39470.79
528.21	39585.48
528.38	39569.10
528.55	40369.56
528.72	40289.98
528.89	40266.58
529.07	40142.53
529.24	39718.89
529.41	40123.80
529.58	39784.43
529.75	40074.65
529.92	40112.10
530.09	40376.58
530.26	40645.74
530.43	40776.81
530.60	40182.32
530.77	40629.36
530.94	40978.10
531.11	40793.20
531.28	40856.39
531.46	41045.97
531.63	40673.83
531.80	40517.01
531.97	40851.71
532.14	40521.69
532.31	40435.10
532.48	40699.58
532.65	41233.22
532.82	40299.34
532.99	40978.10
533.16	41078.74
533.33	41521.10
533.50	41776.22
533.67	41530.47
533.84	40938.31
534.01	41418.12
534.18	41689.62
534.35	41808.99
534.52	41418.12
534.69	41701.32
534.86	41743.45
535.03	41614.72
535.20	41848.78
535.37	42153.05
535.54	42153.05
535.71	41823.03
535.88	41942.40
536.05	41963.46
536.22	41858.14
536.38	42014.96
536.55	41909.63
536.72	42141.35
536.89	42206.88
537.06	41909.63
537.23	42293.48
537.40	42225.60
537.57	42349.65
537.74	42412.85
537.91	43030.75
538.08	42595.41
538.25	41865.16
538.42	42515.83
538.59	42539.24
538.75	42288.80
538.92	42670.31
539.09	42777.97
539.26	42419.87
539.43	42731.16
539.60	42916.06
539.77	42445.62
539.94	42319.23
540.11	42270.08
540.28	42838.83
540.44	42209.22
540.61	42747.54
540.78	42511.15
540.95	42359.02
541.12	42745.20
541.29	42951.17
541.46	42990.96
541.62	43070.54
541.79	42909.04
541.96	43199.27
542.13	43283.53
542.30	43084.58
542.47	43054.15
542.63	43438.00
542.80	43515.24
542.97	43606.52
543.14	43728.23
543.31	43632.27
543.48	43789.08
543.64	44266.55
543.81	43976.33
543.98	44360.17
544.15	44177.61
544.32	44383.58
544.48	44650.40
544.65	44477.20
544.82	44406.98
544.99	43594.82
545.16	44430.39
545.32	44135.48
545.49	45123.19
545.66	44605.93
545.83	44568.48
546.00	44622.31
546.16	44568.48
546.33	44561.46
546.50	44098.03
546.67	44737.00
546.83	44376.56
547.00	44376.56
547.17	44545.08
547.34	44460.82
547.50	44638.70
547.67	45207.45
547.84	44692.53
548.00	44332.09
548.17	45186.38
548.34	44816.58
548.51	45027.23
548.67	45141.91
548.84	44814.24
549.01	45137.23
549.18	44891.48
549.34	45223.83
549.51	45322.13
549.68	44863.39
549.84	45354.90
550.01	45310.43
550.18	45303.41
550.34	45404.05
550.51	45521.08
550.68	45172.34
550.84	44783.81
551.01	45502.35
551.18	45734.07
551.34	45322.13
551.51	45265.96
551.68	45722.37
551.84	45595.98
552.01	45071.70
552.18	45511.72
552.34	45649.81
552.51	45301.07
552.68	45361.92
552.84	45848.75
553.01	45867.48
553.18	45553.85
553.34	46092.17
553.51	45715.34
553.67	45968.12
553.84	46136.64
554.01	46052.38
554.17	46204.52
554.34	46277.07
554.51	46066.42
554.67	46447.93
554.84	46117.92
555.00	46131.96
555.17	45542.14
555.33	46270.05
555.50	46127.28
555.67	46192.81
555.83	46305.16
556.00	45858.12
556.16	46506.44
556.33	46131.96
556.50	46487.72
556.66	46150.68
556.83	45977.48
556.99	46429.21
557.16	46101.53
557.32	46419.84
557.49	46806.03
557.65	46319.20
557.82	46447.93
557.98	46279.41
558.15	46246.65
558.32	46316.86
558.48	46443.25
558.65	46227.92
558.81	46454.95
558.98	46237.28
559.14	46293.46
559.31	46124.94
559.47	46553.26
559.64	46504.10
559.80	46639.86
559.97	46373.03
560.13	46581.34
560.30	46309.84
560.46	46541.55
560.63	46410.48
560.79	46759.22
560.96	47309.25
561.12	46782.63
561.29	46696.03
561.45	47089.24
561.61	47086.90
561.78	46464.32
561.94	46394.10
562.11	46539.21
562.27	46803.69
562.44	46703.05
562.60	47035.41
562.77	46726.46
562.93	46799.01
563.10	46937.10
563.26	46873.91
563.42	47145.41
563.59	46653.90
563.75	46667.94
563.92	46976.89
564.08	46923.06
564.24	47140.73
564.41	46932.42
564.57	46876.25
564.74	47044.77
564.90	47049.45
565.07	47016.68
565.23	46733.48
565.39	46841.14
565.56	47044.77
565.72	47096.26
565.88	47007.32
566.05	46927.74
566.21	47215.63
566.38	46864.55
566.54	46848.16
566.70	47351.38
566.87	47622.88
567.03	47157.11
567.19	47767.99
567.36	47353.72
567.52	47189.88
567.68	47100.94
567.85	46827.10
568.01	47161.79
568.17	46965.19
568.34	47000.30
568.50	46925.40
568.66	47526.92
568.83	47250.74
568.99	46761.56
569.15	47068.17
569.32	46913.70
569.48	47117.32
569.64	47456.70
569.81	47346.70
569.97	46829.44
570.13	47253.08
570.30	46953.49
570.46	46902.00
570.62	47026.04
570.78	46909.02
570.95	47075.19
571.11	47344.36
571.27	47117.32
571.43	47077.54
571.60	47269.46
571.76	47349.04
571.92	47206.26
572.09	47288.18
572.25	46632.83
572.41	46782.63
572.57	47395.85
572.74	47412.23
572.90	47573.73
573.06	47739.91
573.22	47442.66
573.38	47290.52
573.55	46892.63
573.71	47503.51
573.87	47618.20
574.03	47051.79
574.20	47192.22
574.36	47019.02
574.52	47138.39
574.68	47217.97
574.84	47435.64
575.01	47304.57
575.17	47089.24
575.33	47433.30
575.49	47171.16
575.65	47686.07
575.82	47660.33
575.98	47302.23
576.14	47800.76
576.30	47377.12
576.46	47243.71
576.62	46880.93
576.79	47264.78
576.95	47232.01
577.11	46986.25
577.27	46967.53
577.43	47096.26
577.59	47072.85
577.75	47318.61
577.92	46621.13
578.08	46564.96
578.24	47033.07
578.40	46974.55
578.56	47578.41
578.72	47522.24
578.88	47437.98
579.04	47189.88
579.21	46916.04
579.37	47302.23
579.53	47330.31
579.69	47290.52
579.85	47449.68
580.01	47402.87
580.17	47412.23
580.33	47688.42
580.49	47253.08
580.65	47489.47
580.82	47695.44
580.98	47304.57
581.14	47547.98
581.30	47772.67
581.46	47047.11
581.62	47587.77
581.78	47187.54
581.94	48023.11
582.10	47262.44
582.26	47318.61
582.42	47718.84
582.58	47365.42
582.74	47147.75
582.90	47180.52
583.06	47496.49
583.22	47547.98
583.38	47622.88
583.54	47150.09
583.70	47763.31
583.86	47454.36
584.02	47269.46
584.18	47510.53
584.34	47798.42
584.50	47456.70
584.66	47531.60
584.82	47349.04
584.98	47627.56
585.14	47452.02
585.30	47433.30
585.46	47203.92
585.62	47222.65
585.78	47482.45
585.94	46810.71
586.10	47257.76
586.26	47103.28
586.42	47313.93
586.58	47505.85
586.74	47103.28
586.90	47578.41
587.06	47377.12
587.22	47522.24
587.38	47281.16
587.54	47470.75
587.70	47772.67
587.86	47318.61
588.02	47737.57
588.18	47622.88
588.34	47058.81
588.49	47009.66
588.65	47028.38
588.81	46710.07
588.97	46834.12
589.13	47140.73
589.29	47126.69
589.45	47363.08
589.61	47129.03
589.77	47501.17
