SpectraSuite Data File
++++++++++++++++++++++++++++++++++++
Date: Fri Oct 25 11:34:24 EDT 2013
User: price-jones
Dark Spectrum Present: No
Reference Spectrum Present: No
Number of Sampled Component Spectra: 1
Spectrometers: USB2+H05261
Integration Time (usec): 100000 (USB2+H05261)
Spectra Averaged: 1 (USB2+H05261)
Boxcar Smoothing: 0 (USB2+H05261)
Correct for Electrical Dark: No (USB2+H05261)
Strobe/Lamp Enabled: No (USB2+H05261)
Correct for Detector Non-linearity: No (USB2+H05261)
Correct for Stray Light: No (USB2+H05261)
Number of Pixels in Processed Spectrum: 2048
>>>>>Begin Processed Spectral Data<<<<<
365.73	341.72
365.92	341.72
366.12	341.72
366.32	224.69
366.52	170.86
366.72	212.99
366.91	131.07
367.11	159.16
367.31	128.73
367.51	173.20
367.70	203.63
367.90	173.20
368.10	191.92
368.30	187.24
368.49	189.58
368.69	180.22
368.89	252.78
369.09	220.01
369.28	196.60
369.48	243.42
369.68	187.24
369.87	301.93
370.07	215.33
370.27	297.25
370.47	271.50
370.66	416.62
370.86	503.22
371.06	531.30
371.25	582.79
371.45	559.39
371.65	657.69
371.84	524.28
372.04	564.07
372.24	645.99
372.44	517.26
372.63	554.71
372.83	561.73
373.03	585.13
373.22	482.15
373.42	606.20
373.62	568.75
373.81	566.41
374.01	660.03
374.21	580.45
374.40	669.39
374.60	657.69
374.79	610.88
374.99	608.54
375.19	585.13
375.38	622.58
375.58	718.54
375.78	554.71
375.97	706.84
376.17	741.95
376.37	601.52
376.56	657.69
376.76	688.12
376.95	634.29
377.15	648.33
377.35	683.44
377.54	657.69
377.74	671.73
377.93	676.41
378.13	631.94
378.33	688.12
378.52	709.18
378.72	737.27
378.91	730.25
379.11	648.33
379.31	716.20
379.50	793.44
379.70	774.72
379.89	699.82
380.09	683.44
380.28	772.38
380.48	760.67
380.68	676.41
380.87	755.99
381.07	772.38
381.26	770.04
381.46	737.27
381.65	767.70
381.85	802.80
382.04	807.48
382.24	744.29
382.43	725.57
382.63	814.51
382.83	737.27
383.02	844.93
383.22	772.38
383.41	678.76
383.61	746.63
383.80	887.06
384.00	786.42
384.19	772.38
384.39	739.61
384.58	765.36
384.78	798.12
384.97	816.85
385.17	774.72
385.36	812.17
385.56	770.04
385.75	816.85
385.95	767.70
386.14	856.64
386.34	784.08
386.53	816.85
386.72	767.70
386.92	936.21
387.11	887.06
387.31	833.23
387.50	842.59
387.70	777.06
387.89	870.68
388.09	915.15
388.28	880.04
388.48	842.59
388.67	922.17
388.86	774.72
389.06	952.60
389.25	887.06
389.45	898.77
389.64	901.11
389.84	999.41
390.03	910.47
390.22	959.62
390.42	964.30
390.61	936.21
390.81	912.81
391.00	1041.54
391.19	945.58
391.39	976.00
391.58	994.73
391.78	1006.43
391.97	1057.92
392.16	976.00
392.36	966.64
392.55	943.24
392.75	1013.45
392.94	1083.67
393.13	1114.10
393.33	1008.77
393.52	997.07
393.71	1048.56
393.91	1057.92
394.10	1062.60
394.29	1107.07
394.49	973.66
394.68	1146.86
394.88	1011.11
395.07	1125.80
395.26	1121.12
395.46	1081.33
395.65	1121.12
395.84	1081.33
396.04	1210.06
396.23	1121.12
396.42	1025.15
396.62	1200.69
396.81	1156.22
397.00	1205.38
397.19	1170.27
397.39	1156.22
397.58	1256.87
397.77	1123.46
397.97	1186.65
398.16	1198.35
398.35	1200.69
398.55	1355.17
398.74	1245.16
398.93	1270.91
399.12	1226.44
399.32	1359.85
399.51	1219.42
399.70	1359.85
399.90	1240.48
400.09	1277.93
400.28	1324.74
400.47	1401.98
400.67	1376.24
400.86	1371.55
401.05	1334.11
401.24	1416.02
401.44	1451.13
401.63	1383.26
401.82	1399.64
402.01	1362.19
402.21	1474.54
402.40	1376.24
402.59	1390.28
402.78	1460.49
402.97	1418.36
403.17	1526.03
403.36	1533.05
403.55	1437.09
403.74	1558.80
403.93	1504.96
404.13	1614.97
404.32	1488.58
404.51	1455.81
404.70	1556.46
404.89	1554.12
405.09	1582.20
405.28	1577.52
405.47	1689.87
405.66	1638.38
405.85	1619.65
406.05	1682.85
406.24	1689.87
406.43	1706.25
406.62	1769.44
406.81	1661.78
407.00	1675.82
407.20	1748.38
407.39	1783.49
407.58	1799.87
407.77	1724.97
407.96	1830.30
408.15	1842.00
408.34	1823.28
408.54	1891.15
408.73	1809.23
408.92	1839.66
409.11	1846.68
409.30	2101.80
409.49	1949.67
409.68	1872.43
409.87	1935.62
410.07	2015.20
410.26	1912.22
410.45	1961.37
410.64	2101.80
410.83	2033.93
411.02	2101.80
411.21	2132.23
411.40	2087.76
411.59	2160.31
411.78	2059.67
411.98	2129.89
412.17	2197.76
412.36	2200.10
412.55	2289.04
412.74	2235.21
412.93	2188.40
413.12	2260.96
413.31	2408.41
413.50	2148.61
413.69	2246.91
413.88	2387.35
414.07	2298.41
414.26	2415.43
414.45	2462.24
414.64	2413.09
414.83	2392.03
415.02	2516.08
415.22	2511.39
415.41	2462.24
415.60	2607.36
415.79	2471.61
415.98	2623.74
416.17	2583.95
416.36	2677.57
416.55	2644.81
416.74	2733.75
416.93	2668.21
417.12	2764.17
417.31	2684.59
417.50	2829.71
417.69	2883.54
417.88	2874.18
418.07	2820.35
418.26	2829.71
418.45	2794.60
418.64	2998.23
418.83	2998.23
419.02	2846.09
419.21	3014.61
419.39	2925.67
419.58	2949.08
419.77	3042.70
419.96	3028.65
420.15	3009.93
420.34	3070.78
420.53	3148.02
420.72	3129.30
420.91	3180.79
421.10	3136.32
421.29	3176.11
421.48	3052.06
421.67	3208.87
421.86	3038.02
422.05	3126.96
422.24	3138.66
422.43	3204.19
422.61	3199.51
422.80	3192.49
422.99	3346.97
423.18	3185.47
423.37	3363.35
423.56	3222.92
423.75	3260.37
423.94	3232.28
424.13	3171.43
424.32	3220.58
424.50	3258.03
424.69	3339.94
424.88	3534.21
425.07	3272.07
425.26	3267.39
425.45	3375.05
425.64	3286.11
425.83	3293.13
426.01	3260.37
426.20	3286.11
426.39	3379.73
426.58	3328.24
426.77	3424.20
426.96	3515.48
427.15	3581.02
427.33	3489.74
427.52	3564.64
427.71	3445.27
427.90	3452.29
428.09	3571.66
428.28	3592.72
428.46	3536.55
428.65	3501.44
428.84	3658.26
429.03	3761.24
429.22	3468.67
429.40	3676.98
429.59	3531.87
429.78	3487.40
429.97	3449.95
430.16	3646.55
430.34	3609.11
430.53	3632.51
430.72	3819.75
430.91	3742.52
431.10	3719.11
431.28	3836.14
431.47	3866.56
431.66	3915.72
431.85	3873.59
432.03	3920.40
432.22	3967.21
432.41	3847.84
432.60	3899.33
432.79	3939.12
432.97	3913.38
433.16	3887.63
433.35	4030.40
433.54	3929.76
433.72	4072.53
433.91	4086.58
434.10	3983.59
434.28	4060.83
434.47	4107.64
434.66	4182.54
434.85	4219.99
435.03	4093.60
435.22	4102.96
435.41	4234.03
435.59	4215.30
435.78	4292.54
435.97	4271.48
436.16	4177.86
436.34	4304.25
436.53	4203.60
436.72	4283.18
436.90	4241.05
437.09	4397.87
437.28	4365.10
437.46	4234.03
437.65	4276.16
437.84	4414.25
438.02	4386.16
438.21	4444.68
438.40	4306.59
438.58	4589.79
438.77	4643.62
438.96	4631.92
439.14	4720.86
439.33	4699.80
439.52	4765.33
439.70	4730.22
439.89	4819.16
440.08	4762.99
440.26	4919.81
440.45	4882.36
440.63	4901.08
440.82	5046.20
441.01	4999.38
441.19	4985.34
441.38	5102.37
441.57	5078.96
441.75	5144.50
441.94	5303.65
442.12	5217.05
442.31	5254.50
442.50	5261.52
442.68	5118.75
442.87	5121.09
443.05	5355.15
443.24	5371.53
443.43	5254.50
443.61	5238.12
443.80	5542.39
443.98	5261.52
444.17	5149.18
444.35	5357.49
444.54	5502.60
444.73	5406.64
444.91	5313.02
445.10	5605.58
445.28	5348.12
445.47	5458.13
445.65	5315.36
445.84	5572.82
446.02	5455.79
446.21	5514.30
446.39	5537.71
446.58	5500.26
446.77	5502.60
446.95	5437.06
447.14	5518.98
447.32	5554.09
447.51	5544.73
447.69	5598.56
447.88	5500.26
448.06	5589.20
448.25	5516.64
448.43	5518.98
448.62	5687.50
448.80	5446.43
448.99	5708.57
449.17	5790.49
449.36	5514.30
449.54	5722.61
449.73	5849.00
449.91	5937.94
450.10	5863.04
450.28	6026.88
450.46	5799.85
450.65	5937.94
450.83	5956.66
451.02	5867.72
451.20	6038.58
451.39	5830.27
451.57	5788.14
451.76	6045.60
451.94	5940.28
452.13	6190.72
452.31	6099.44
452.49	5888.79
452.68	5921.56
452.86	6057.31
453.05	6033.90
453.23	6228.17
453.42	6036.24
453.60	6040.92
453.78	6230.51
453.97	6122.84
454.15	6284.34
454.34	6239.87
454.52	6214.12
454.70	6251.57
454.89	6242.21
455.07	6211.78
455.26	6408.39
455.44	6492.65
455.62	6319.45
455.81	6296.04
455.99	6523.07
456.17	6546.48
456.36	6513.71
456.54	6588.61
456.73	6710.32
456.91	6825.00
457.09	6656.48
457.28	6853.09
457.46	6740.74
457.64	6712.66
457.83	6963.09
458.01	6700.95
458.19	7023.95
458.38	6719.68
458.56	6841.39
458.74	6977.14
458.93	7089.48
459.11	6808.62
459.29	6963.09
459.48	6974.80
459.66	6977.14
459.84	7140.97
460.03	7372.69
460.21	7180.76
460.39	6965.43
460.57	7040.33
460.76	7274.38
460.94	7101.19
461.12	7307.15
461.31	7258.00
461.49	7262.68
461.67	7115.23
461.85	7456.95
462.04	7412.48
462.22	7559.93
462.40	7478.01
462.59	7279.07
462.77	7447.58
462.95	7485.03
463.13	7309.49
463.32	7754.19
463.50	7667.60
463.68	7555.25
463.86	7683.98
464.05	7489.71
464.23	7585.68
464.41	7714.41
464.59	7616.10
464.78	7829.09
464.96	7599.72
465.14	7524.82
465.32	7838.45
465.50	7749.51
465.69	7925.05
465.87	7737.81
466.05	7669.94
466.23	7808.03
466.41	7887.61
466.60	7882.92
466.78	7854.84
466.96	7826.75
467.14	7695.68
467.32	8018.68
467.51	8023.36
467.69	7749.51
467.87	7960.16
468.05	8070.17
468.23	7918.03
468.41	8072.51
468.60	8140.38
468.78	8142.72
468.96	7983.57
469.14	8004.63
469.32	8278.47
469.50	8236.35
469.69	8283.16
469.87	8652.96
470.05	8505.51
470.23	8409.54
470.41	8407.20
470.59	8404.86
470.77	8372.10
470.95	8423.59
471.14	8461.04
471.32	8451.67
471.50	8781.69
471.68	8826.16
471.86	8882.33
472.04	8884.67
472.22	9020.42
472.40	8858.93
472.58	8833.18
472.77	8980.64
472.95	9158.52
473.13	9357.46
473.31	8877.65
473.49	9327.03
473.67	9170.22
473.85	9107.02
474.03	9376.19
474.21	9359.80
474.39	9380.87
474.57	9357.46
474.75	9423.00
474.93	9504.92
475.12	9565.77
475.30	9668.75
475.48	9554.07
475.66	9760.03
475.84	9696.84
476.02	9671.09
476.20	9823.23
476.38	10008.13
476.56	10214.10
476.74	10148.56
476.92	10190.69
477.10	10195.37
477.28	10319.42
477.46	10174.31
477.64	10298.36
477.82	10539.43
478.00	10867.11
478.18	10614.33
478.36	10871.79
478.54	10757.10
478.72	10897.53
478.90	10934.98
479.08	11066.05
479.26	11068.39
479.44	11211.17
479.62	11372.66
479.80	11145.63
479.98	11534.16
480.16	11707.36
480.34	11693.32
480.52	11751.83
480.70	11803.32
480.88	11566.93
481.06	11892.26
481.24	11932.05
481.41	12283.13
481.59	12381.43
481.77	12173.13
481.95	12336.96
482.13	12475.06
482.31	12479.74
482.49	13062.53
482.67	12819.11
482.85	13156.15
483.03	12795.71
483.21	13099.98
483.39	13249.77
483.57	13111.68
483.74	13139.77
483.92	13376.16
484.10	13434.68
484.28	13781.07
484.46	13937.89
484.64	13879.38
484.82	13881.72
485.00	13996.40
485.18	14176.62
485.35	14640.05
485.53	14422.38
485.71	14391.95
485.89	14747.72
486.07	14457.49
486.25	14815.59
486.43	14717.29
486.61	15180.71
486.78	15257.95
486.96	15274.34
487.14	15484.98
487.32	15597.33
487.50	15625.42
487.68	15829.04
487.85	15616.05
488.03	16294.81
488.21	16245.66
488.39	16350.98
488.57	16236.30
488.75	16336.94
488.92	16800.37
489.10	17011.01
489.28	16786.32
489.46	17008.67
489.64	17226.34
489.81	17406.56
489.99	17343.37
490.17	17338.69
490.35	17556.36
490.53	17696.79
490.70	18026.81
490.88	17968.29
491.06	18019.78
491.24	17989.36
491.41	18417.68
491.59	18345.12
491.77	18377.89
491.95	18595.56
492.13	18743.01
492.30	18735.99
492.48	18904.51
492.66	19021.53
492.84	19311.76
493.01	18939.62
493.19	19613.69
493.37	19508.37
493.54	19494.32
493.72	19604.33
493.90	19901.58
494.08	19707.31
494.25	19976.47
494.43	20140.31
494.61	20402.45
494.79	20648.21
494.96	20247.97
495.14	20444.58
495.32	20783.96
495.49	20849.49
495.67	21067.16
495.85	20989.92
496.02	21647.61
496.20	21364.41
496.38	21408.88
496.55	21212.28
496.73	21942.52
496.91	21694.43
497.09	22001.04
497.26	22038.48
497.44	22192.96
497.62	22150.83
497.79	22305.31
497.97	22387.22
498.14	22476.16
498.32	22574.47
498.50	22724.26
498.67	22955.97
498.85	22841.29
499.03	22789.80
499.20	23019.17
499.38	23262.58
499.56	23096.41
499.73	23363.23
499.91	23470.89
500.08	23723.67
500.26	23887.51
500.44	23793.89
500.61	23676.86
500.79	23850.06
500.97	23953.04
501.14	23978.79
501.32	24140.29
501.49	24334.55
501.67	24769.89
501.84	24627.12
502.02	24753.51
502.20	24526.47
502.37	24510.09
502.55	24746.48
502.72	25085.86
502.90	24692.65
503.07	24456.26
503.25	25067.14
503.43	24926.71
503.60	25179.48
503.78	25282.47
503.95	25181.82
504.13	25240.34
504.30	25439.28
504.48	25858.24
504.65	25727.17
504.83	25640.57
505.01	25879.30
505.18	25989.31
505.36	26064.21
505.53	26066.55
505.71	26274.85
505.88	26162.51
506.06	26242.09
506.23	27094.04
506.41	26405.92
506.58	26625.93
506.76	26426.99
506.93	27035.53
507.11	26764.03
507.28	26850.63
507.46	26951.27
507.63	27222.77
507.81	27239.15
507.98	27175.96
508.16	27325.75
508.33	27325.75
508.50	27218.09
508.68	27695.56
508.85	27835.99
509.03	27564.49
509.20	27639.39
509.38	28023.23
509.55	28086.43
509.73	27934.29
509.90	28381.34
510.08	28306.44
510.25	28231.54
510.42	28278.35
510.60	28760.50
510.77	28489.00
510.95	28868.17
511.12	28868.17
511.30	28870.51
511.47	28882.21
511.64	28889.23
511.82	29099.88
511.99	28978.17
512.17	29214.57
512.34	29252.02
512.51	29537.56
512.69	29764.59
512.86	29694.38
513.04	29626.50
513.21	29521.18
513.38	29909.71
513.56	30195.25
513.73	29806.72
513.90	29677.99
514.08	29764.59
514.25	30043.12
514.43	30029.07
514.60	30162.48
514.77	30139.08
514.95	30429.30
515.12	30382.49
515.29	30441.01
515.47	30412.92
515.64	30349.73
515.81	30656.34
515.99	30588.46
516.16	31009.76
516.33	31285.94
516.51	31246.15
516.68	30866.98
516.85	31054.23
517.03	31166.57
517.20	31269.56
517.37	31108.06
517.54	31166.57
517.72	31735.32
517.89	31321.05
518.06	31531.70
518.24	31690.85
518.41	31913.20
518.58	31789.16
518.75	31400.63
518.93	32142.58
519.10	31908.52
519.27	31945.97
519.45	32154.28
519.62	32245.56
519.79	32594.30
519.96	32353.23
520.14	32549.83
520.31	32552.17
520.48	32439.82
520.65	32601.32
520.83	33170.07
521.00	32617.71
521.17	32786.22
521.34	32655.15
521.52	32919.63
521.69	33249.65
521.86	33553.92
522.03	33266.03
522.20	33284.76
522.38	33722.44
522.55	33621.80
522.72	33736.48
522.89	34057.14
523.07	33998.62
523.24	33855.85
523.41	33663.93
523.58	33755.21
523.75	33895.64
523.92	34031.39
524.10	34330.98
524.27	34923.13
524.44	34438.64
524.61	34288.85
524.78	34536.94
524.96	34799.08
525.13	34298.21
525.30	34768.66
525.47	34834.19
525.64	34796.74
525.81	34773.34
525.98	35150.17
526.16	34752.27
526.33	34813.13
526.50	35311.66
526.67	34396.51
526.84	34522.90
527.01	35311.66
527.18	35164.21
527.36	35328.05
527.53	35138.46
527.70	35690.83
527.87	35529.33
528.04	35157.19
528.21	35754.02
528.38	35164.21
528.55	35711.89
528.72	35861.69
528.89	35555.08
529.07	35796.15
529.24	35721.26
529.41	35929.56
529.58	35931.90
529.75	35845.30
529.92	36170.64
530.09	36177.66
530.26	36091.06
530.43	36217.45
530.60	36257.24
530.77	36187.02
530.94	36360.22
531.11	36055.95
531.28	36353.20
531.46	36507.68
531.63	36769.82
531.80	36325.11
531.97	36650.45
532.14	36570.87
532.31	36833.01
532.48	37123.24
532.65	37123.24
532.82	36964.08
532.99	37476.66
533.16	37015.57
533.33	37322.18
533.50	37085.79
533.67	36896.20
533.84	37404.10
534.01	37600.71
534.18	37404.10
534.35	37734.12
534.52	37310.48
534.69	37858.17
534.86	37790.29
535.03	37347.93
535.20	37706.03
535.37	37610.07
535.54	38319.25
535.71	37666.24
535.88	37757.52
536.05	37928.38
536.22	38033.71
536.38	37970.51
536.55	38272.44
536.72	38188.18
536.89	38071.15
537.06	38073.49
537.23	38529.90
537.40	38141.37
537.57	38174.14
537.74	38431.60
537.91	38480.75
538.08	38501.81
538.25	38274.78
538.42	38555.64
538.59	38525.22
538.75	38464.36
538.92	38607.14
539.09	38785.02
539.26	38845.87
539.43	39225.04
539.60	38785.02
539.77	38756.93
539.94	39138.44
540.11	39058.86
540.28	39143.12
540.44	39049.50
540.61	38911.41
540.78	39035.45
540.95	39236.74
541.12	39218.02
541.29	38904.38
541.46	39384.19
541.62	39749.32
541.79	39878.05
541.96	39133.76
542.13	39449.73
542.30	39690.80
542.47	39690.80
542.63	39636.97
542.80	39882.73
542.97	40240.83
543.14	40189.34
543.31	40350.84
543.48	40297.00
543.64	40624.68
543.81	40198.70
543.98	40044.23
544.15	40151.89
544.32	40414.03
544.48	40921.93
544.65	40594.25
544.82	40575.53
544.99	40156.57
545.16	40355.52
545.32	40715.96
545.49	40582.55
545.66	40776.81
545.83	40730.00
546.00	40601.27
546.16	40676.17
546.33	40938.31
546.50	40973.42
546.67	41155.98
546.83	40334.45
547.00	40676.17
547.17	40591.91
547.34	40914.90
547.50	41270.67
547.67	41528.13
547.84	41343.22
548.00	41516.42
548.17	41780.90
548.34	41635.79
548.51	41464.93
548.67	41937.72
548.84	41556.21
549.01	41422.80
549.18	41141.94
549.34	41790.27
549.51	42085.17
549.68	41736.43
549.84	41633.45
550.01	41860.48
550.18	41495.36
550.34	41797.29
550.51	41813.67
550.68	42071.13
550.84	41783.24
551.01	42066.45
551.18	41706.01
551.34	41982.19
551.51	42356.67
551.68	42312.20
551.84	42277.10
552.01	41963.46
552.18	42216.24
552.34	41776.22
552.51	42415.19
552.68	42136.66
552.84	42188.16
553.01	42293.48
553.18	42440.93
553.34	42206.88
553.51	42419.87
553.67	42300.50
553.84	42768.61
554.01	42553.28
554.17	42487.74
554.34	43615.88
554.51	42665.63
554.67	42796.70
554.84	43178.20
555.00	42909.04
555.17	42476.04
555.33	43173.52
555.50	42838.83
555.67	42824.78
555.83	43185.22
556.00	43182.88
556.16	43210.97
556.33	43316.29
556.50	42997.98
556.66	43005.00
556.83	42799.04
556.99	43012.02
557.16	43487.15
557.32	43580.78
557.49	43700.14
557.65	43391.19
557.82	42951.17
557.98	43489.49
558.15	43215.65
558.32	43447.36
558.48	43358.42
558.65	43620.56
558.81	43650.99
558.98	43391.19
559.14	43894.41
559.31	43557.37
559.47	43143.09
559.64	43225.01
559.80	43510.56
559.97	43552.69
560.13	43477.79
560.30	43770.36
560.46	43976.33
560.63	44027.82
560.79	44360.17
560.96	43952.92
561.12	44196.34
561.29	44327.41
561.45	43859.30
561.61	43959.94
561.78	43599.50
561.94	43929.51
562.11	44156.55
562.27	44093.35
562.44	43695.46
562.60	44109.74
562.77	44041.86
562.93	43842.92
563.10	43772.70
563.26	44105.06
563.42	44016.11
563.59	44231.44
563.75	43985.69
563.92	44011.43
564.08	44224.42
564.24	44793.17
564.41	44451.45
564.57	44327.41
564.74	43941.22
564.90	44032.50
565.07	44229.10
565.23	44421.03
565.39	44385.92
565.56	44446.77
565.72	44074.63
565.88	44140.16
566.05	44065.27
566.21	44533.37
566.38	44299.32
566.54	44486.56
566.70	44547.42
566.87	44856.37
567.03	44163.57
567.19	44404.64
567.36	44554.44
567.52	44776.79
567.68	45200.43
567.85	44624.65
568.01	44835.30
568.17	44591.89
568.34	45071.70
568.50	44891.48
568.66	44250.17
568.83	44367.20
568.99	44961.69
569.15	44547.42
569.32	44598.91
569.48	44481.88
569.64	45076.38
569.81	44648.06
569.97	44823.60
570.13	44669.12
570.30	44842.32
570.46	44835.30
570.62	45127.87
570.78	44655.08
570.95	44715.93
571.11	45006.16
571.27	44720.62
571.43	44355.49
571.60	44467.84
571.76	45083.40
571.92	44797.85
572.09	44659.76
572.25	44774.45
572.41	44603.59
572.57	44964.03
572.74	45553.85
572.90	44823.60
573.06	44903.18
573.22	45071.70
573.38	45050.63
573.55	45081.06
573.71	45282.34
573.87	45139.57
574.03	45118.51
574.20	45181.70
574.36	45265.96
574.52	45099.78
574.68	45195.74
574.84	45280.00
575.01	45666.19
575.17	45106.80
575.33	45233.19
575.49	45052.97
575.65	45436.82
575.82	45134.89
575.98	44734.66
576.14	45605.34
576.30	45778.54
576.46	45509.38
576.62	45212.13
576.79	45308.09
576.95	45120.85
577.11	45059.99
577.27	45525.76
577.43	45638.11
577.59	45490.65
577.75	45223.83
577.92	44786.15
578.08	45088.08
578.24	45118.51
578.40	45364.26
578.56	45214.47
578.72	45551.51
578.88	45605.34
579.04	45394.69
579.21	44957.01
579.37	45558.53
579.53	45790.24
579.69	45160.64
579.85	45237.87
580.01	45420.44
580.17	45567.89
580.33	45467.25
580.49	45537.46
580.65	45284.68
580.82	45247.24
580.98	45291.71
581.14	45123.19
581.30	45436.82
581.46	45603.00
581.62	44959.35
581.78	45174.68
581.94	45251.92
582.10	45118.51
582.26	45432.14
582.42	45584.27
582.58	45647.47
582.74	45450.86
582.90	45443.84
583.06	45776.20
583.22	45422.78
583.38	45310.43
583.54	45387.67
583.70	45584.27
583.86	45773.86
584.02	45443.84
584.18	45492.99
584.34	45364.26
584.50	45986.85
584.66	45935.35
584.82	45448.52
584.98	45736.41
585.14	45593.64
585.30	45373.63
585.46	45720.02
585.62	45478.95
585.78	45698.96
585.94	45535.12
586.10	45205.11
586.26	45771.52
586.42	45418.10
586.58	45694.28
586.74	45436.82
586.90	45329.16
587.06	45773.86
587.22	45911.95
587.38	45155.96
587.54	45647.47
587.70	46227.92
587.86	45659.17
588.02	45258.94
588.18	45661.51
588.34	45614.70
588.49	45453.20
588.65	45607.68
588.81	45586.61
588.97	45914.29
589.13	45713.00
589.29	45624.06
589.45	46124.94
589.61	45853.44
589.77	45705.98
589.93	46021.95
590.08	45830.03
