SpectraSuite Data File
++++++++++++++++++++++++++++++++++++
Date: Fri Oct 25 10:44:24 EDT 2013
User: price-jones
Dark Spectrum Present: No
Reference Spectrum Present: No
Number of Sampled Component Spectra: 1
Spectrometers: USB2+H05261
Integration Time (usec): 100000 (USB2+H05261)
Spectra Averaged: 1 (USB2+H05261)
Boxcar Smoothing: 0 (USB2+H05261)
Correct for Electrical Dark: No (USB2+H05261)
Strobe/Lamp Enabled: No (USB2+H05261)
Correct for Detector Non-linearity: No (USB2+H05261)
Correct for Stray Light: No (USB2+H05261)
Number of Pixels in Processed Spectrum: 2048
>>>>>Begin Processed Spectral Data<<<<<
365.73	60.85
365.92	60.85
366.12	60.85
366.32	72.56
366.52	0.00
366.72	30.43
366.91	84.26
367.11	81.92
367.31	0.00
367.51	100.64
367.70	98.30
367.90	30.43
368.10	79.58
368.30	4.68
368.49	46.81
368.69	37.45
368.89	95.96
369.09	56.17
369.28	58.51
369.48	70.22
369.68	98.30
369.87	159.16
370.07	133.41
370.27	126.39
370.47	201.29
370.66	404.91
370.86	456.40
371.06	409.59
371.25	503.22
371.45	416.62
371.65	397.89
371.84	547.69
372.04	482.15
372.24	472.79
372.44	486.83
372.63	517.26
372.83	484.49
373.03	564.07
373.22	512.58
373.42	524.28
373.62	510.24
373.81	568.75
374.01	535.98
374.21	545.34
374.40	606.20
374.60	606.20
374.79	587.47
374.99	545.34
375.19	641.31
375.38	599.18
375.58	589.82
375.78	669.39
375.97	627.26
376.17	704.50
376.37	655.35
376.56	636.63
376.76	573.43
376.95	601.52
377.15	702.16
377.35	753.65
377.54	594.50
377.74	709.18
377.93	653.01
378.13	695.14
378.33	788.76
378.52	683.44
378.72	702.16
378.91	662.37
379.11	594.50
379.31	580.45
379.50	603.86
379.70	695.14
379.89	772.38
380.09	753.65
380.28	734.93
380.48	692.80
380.68	648.33
380.87	746.63
381.07	758.33
381.26	784.08
381.46	650.67
381.65	737.27
381.85	711.52
382.04	699.82
382.24	664.71
382.43	660.03
382.63	727.91
382.83	781.74
383.02	732.59
383.22	685.78
383.41	784.08
383.61	809.83
383.80	884.72
384.00	805.14
384.19	835.57
384.39	812.17
384.58	826.21
384.78	758.33
384.97	847.27
385.17	800.46
385.36	870.68
385.56	858.98
385.75	802.80
385.95	851.96
386.14	936.21
386.34	826.21
386.53	826.21
386.72	837.91
386.92	985.37
387.11	842.59
387.31	856.64
387.50	868.34
387.70	889.40
387.89	880.04
388.09	737.27
388.28	887.06
388.48	924.51
388.67	938.55
388.86	910.47
389.06	987.71
389.25	1039.20
389.45	973.66
389.64	1036.86
389.84	952.60
390.03	1039.20
390.22	1067.28
390.42	1032.18
390.61	1029.84
390.81	959.62
391.00	1013.45
391.19	1088.35
391.39	1135.16
391.58	1025.15
391.78	1097.71
391.97	1076.65
392.16	1128.14
392.36	1086.01
392.55	1090.69
392.75	1020.47
392.94	1064.94
393.13	936.21
393.33	1013.45
393.52	1027.50
393.71	1142.18
393.91	1177.29
394.10	1156.22
394.29	1167.93
394.49	1240.48
394.68	1301.34
394.88	1364.53
395.07	1249.85
395.26	1315.38
395.46	1306.02
395.65	1291.98
395.84	1263.89
396.04	1331.76
396.23	1242.82
396.42	1238.14
396.62	1252.19
396.81	1167.93
397.00	1277.93
397.19	1275.59
397.39	1364.53
397.58	1397.30
397.77	1289.64
397.97	1488.58
398.16	1483.90
398.35	1479.22
398.55	1458.15
398.74	1544.75
398.93	1605.61
399.12	1645.40
399.32	1519.01
399.51	1497.94
399.70	1720.29
399.90	1572.84
400.09	1624.33
400.28	1645.40
400.47	1589.22
400.67	1795.19
400.86	1652.42
401.05	1748.38
401.24	1722.63
401.44	1678.16
401.63	1834.98
401.82	1802.21
402.01	1753.06
402.21	1886.47
402.40	1832.64
402.59	1851.36
402.78	1837.32
402.97	1863.07
403.17	1734.34
403.36	1849.02
403.55	1799.87
403.74	1947.33
403.93	1942.64
404.13	1933.28
404.32	1954.35
404.51	1823.28
404.70	1914.56
404.89	2062.01
405.09	1977.75
405.28	1930.94
405.47	2062.01
405.66	2024.56
405.85	1970.73
406.05	2069.03
406.24	2101.80
406.43	2047.97
406.62	2139.25
406.81	2202.44
407.00	2169.68
407.20	2052.65
407.39	2008.18
407.58	2155.63
407.77	2319.47
407.96	2267.98
408.15	2380.32
408.34	2370.96
408.54	2431.82
408.73	2303.09
408.92	2408.41
409.11	2286.70
409.30	2401.39
409.49	2349.90
409.68	2424.80
409.87	2342.88
410.07	2380.32
410.26	2473.95
410.45	2436.50
410.64	2504.37
410.83	2513.74
411.02	2523.10
411.21	2579.27
411.40	2670.55
411.59	2792.26
411.78	2696.30
411.98	2593.31
412.17	2616.72
412.36	2754.81
412.55	2722.04
412.74	2787.58
412.93	2647.15
413.12	2796.94
413.31	2979.50
413.50	3014.61
413.69	2871.84
413.88	2970.14
414.07	2977.16
414.26	2960.78
414.45	3061.42
414.64	3098.87
414.83	3265.05
415.02	3119.93
415.22	3255.69
415.41	3131.64
415.60	3194.83
415.79	3335.26
415.98	3419.52
416.17	3363.35
416.36	3351.65
416.55	3363.35
416.74	3368.03
416.93	3253.34
417.12	3391.44
417.31	3452.29
417.50	3522.51
417.69	3536.55
417.88	3576.34
418.07	3426.54
418.26	3644.21
418.45	3456.97
418.64	3679.32
418.83	3471.01
419.02	3597.40
419.21	3721.45
419.39	3747.20
419.58	3672.30
419.77	3676.98
419.96	3779.97
420.15	3822.09
420.34	3826.78
420.53	3971.89
420.72	3946.14
420.91	3882.95
421.10	3826.78
421.29	4021.04
421.48	3817.41
421.67	4084.23
421.86	3829.12
422.05	3962.53
422.24	3803.37
422.43	3946.14
422.61	3997.64
422.80	4046.79
422.99	4016.36
423.18	4124.02
423.37	4046.79
423.56	3964.87
423.75	4074.87
423.94	3941.46
424.13	3740.18
424.32	3878.27
424.50	4086.58
424.69	4135.73
424.88	4124.02
425.07	3999.98
425.26	4039.76
425.45	4035.08
425.64	4018.70
425.83	4222.33
426.01	4128.70
426.20	4140.41
426.39	4063.17
426.58	4201.26
426.77	4070.19
426.96	4177.86
427.15	4121.68
427.33	4147.43
427.52	4173.18
427.71	4276.16
427.90	4203.60
428.09	4241.05
428.28	4215.30
428.46	4250.41
428.65	4276.16
428.84	4301.90
429.03	4329.99
429.22	4243.39
429.40	4250.41
429.59	4236.37
429.78	4107.64
429.97	3922.74
430.16	4121.68
430.34	4168.49
430.53	4351.06
430.72	4210.62
430.91	4568.73
431.10	4432.97
431.28	4596.81
431.47	4650.64
431.66	4784.06
431.85	4690.43
432.03	4779.37
432.22	4699.80
432.41	4727.88
432.60	4861.29
432.79	4816.82
432.97	4882.36
433.16	4781.71
433.35	4734.90
433.54	4898.74
433.72	4887.04
433.91	4791.08
434.10	4823.84
434.28	4887.04
434.47	5046.20
434.66	5135.14
434.85	5001.72
435.03	5174.92
435.22	5011.09
435.41	5310.68
435.59	5291.95
435.78	5242.80
435.97	5310.68
436.16	5224.08
436.34	5128.11
436.53	5284.93
436.72	5282.59
436.90	5261.52
437.09	5303.65
437.28	5144.50
437.46	5502.60
437.65	5352.81
437.84	5303.65
438.02	5235.78
438.21	5320.04
438.40	5193.65
438.58	5359.83
438.77	5692.18
438.96	5511.96
439.14	5521.32
439.33	5701.54
439.52	5790.49
439.70	5947.30
439.89	5898.15
440.08	5895.81
440.26	5841.98
440.45	5851.34
440.63	5926.24
440.82	6076.03
441.01	6106.46
441.19	6094.76
441.38	6270.30
441.57	6202.42
441.75	6415.41
441.94	6342.85
442.12	6466.90
442.31	6497.33
442.50	6504.35
442.68	6569.88
442.87	6417.75
443.05	6583.93
443.24	6649.46
443.43	6597.97
443.61	6616.69
443.80	6979.48
443.98	6499.67
444.17	6532.44
444.35	6670.53
444.54	6796.92
444.73	6651.80
444.91	6576.91
445.10	6607.33
445.28	6754.79
445.47	6665.85
445.65	6658.82
445.84	6682.23
446.02	6876.49
446.21	6782.87
446.39	6890.54
446.58	6846.07
446.77	6691.59
446.95	6829.68
447.14	7115.23
447.32	6998.20
447.51	6789.89
447.69	6707.98
447.88	6899.90
448.06	6932.67
448.25	6911.60
448.43	7136.29
448.62	6850.75
448.80	7007.56
448.99	7101.19
449.17	7117.57
449.36	6979.48
449.54	6991.18
449.73	7199.49
449.91	7304.81
450.10	7234.60
450.28	7440.56
450.46	7508.44
450.65	7499.08
450.83	7363.33
451.02	7405.46
451.20	7494.40
451.39	7262.68
451.57	7569.29
451.76	7389.07
451.94	7466.31
452.13	7470.99
452.31	7321.20
452.49	7372.69
452.68	7307.15
452.86	7346.94
453.05	7442.90
453.23	7555.25
453.42	7513.12
453.60	7548.23
453.78	7557.59
453.97	7489.71
454.15	7796.32
454.34	7543.55
454.52	7571.63
454.70	7861.86
454.89	7719.09
455.07	7878.24
455.26	7929.74
455.44	8072.51
455.62	7892.29
455.81	7770.58
455.99	8156.77
456.17	8037.40
456.36	8084.21
456.54	8098.25
456.73	8269.11
456.91	8339.33
457.09	8355.71
457.28	8552.32
457.46	8163.79
457.64	8198.90
457.83	8126.34
458.01	8259.75
458.19	8491.46
458.38	8418.91
458.56	8456.36
458.74	8454.02
458.93	8397.84
459.11	8505.51
459.29	8533.59
459.48	8507.85
459.66	8718.50
459.84	8741.90
460.03	8681.05
460.21	8636.58
460.39	8802.75
460.57	8833.18
460.76	8732.54
460.94	8980.64
461.12	8798.07
461.31	8760.63
461.49	8805.10
461.67	8828.50
461.85	9153.84
462.04	8959.57
462.22	9252.14
462.40	9050.85
462.59	9081.28
462.77	9097.66
462.95	9158.52
463.13	9224.05
463.32	9334.06
463.50	9408.95
463.68	9205.33
463.86	9149.15
464.05	9172.56
464.23	9188.94
464.41	9231.07
464.59	9210.01
464.78	9362.14
464.96	9406.61
465.14	9352.78
465.32	9584.49
465.50	9406.61
465.69	9591.52
465.87	9502.58
466.05	9540.02
466.23	9289.59
466.41	9322.35
466.60	9657.05
466.78	9483.85
466.96	9530.66
467.14	9448.74
467.32	9483.85
467.51	9708.54
467.69	9474.49
467.87	9554.07
468.05	9706.20
468.23	9582.15
468.41	9776.42
468.60	9989.41
468.78	9898.13
468.96	9455.76
469.14	10101.75
469.32	10256.23
469.50	9769.40
469.69	10005.79
469.87	10026.86
470.05	10150.90
470.23	10153.24
470.41	10291.34
470.59	10274.95
470.77	10176.65
470.95	10064.30
471.14	10120.48
471.32	10415.38
471.50	10427.09
471.68	10511.35
471.86	10647.10
472.04	10707.95
472.22	10677.52
472.40	10431.77
472.58	10541.77
472.77	10724.33
472.95	10930.30
473.13	11204.14
473.31	10794.55
473.49	10836.68
473.67	10761.78
473.85	10874.13
474.03	11293.08
474.21	11447.56
474.39	11201.80
474.57	11314.15
474.75	11279.04
474.93	11375.00
475.12	11555.22
475.30	11620.76
475.48	11571.61
475.66	11370.32
475.84	11597.35
476.02	11812.68
476.20	11880.56
476.38	11749.49
476.56	12233.98
476.74	12226.96
476.92	12086.53
477.10	12322.92
477.28	12610.81
477.46	12540.59
477.64	12526.55
477.82	12748.90
478.00	12966.57
478.18	12486.76
478.36	12964.23
478.54	12849.54
478.72	13282.54
478.90	13273.18
479.08	13472.12
479.26	13497.87
479.44	13589.15
479.62	13413.61
479.80	13549.36
479.98	13706.18
480.16	14155.56
480.34	14015.13
480.52	14207.05
480.70	14338.12
480.88	14064.28
481.06	14171.94
481.24	14300.67
481.41	14450.47
481.59	14916.23
481.77	14771.12
481.95	14736.01
482.13	14909.21
482.31	15019.22
482.49	15150.29
482.67	15318.81
482.85	15393.70
483.03	15695.63
483.21	15702.65
483.39	15903.94
483.57	15751.81
483.74	15833.72
483.92	16145.02
484.10	15922.66
484.28	16137.99
484.46	16659.93
484.64	16659.93
484.82	16622.48
485.00	16776.96
485.18	16556.95
485.35	16847.18
485.53	16418.86
485.71	16617.80
485.89	16519.50
486.07	16578.01
486.25	16957.18
486.43	17214.64
486.61	17193.58
486.78	17755.30
486.96	17935.53
487.14	18031.49
487.32	17982.34
487.50	18572.15
487.68	18539.38
487.85	18892.80
488.03	19014.51
488.21	19028.56
488.39	18780.46
488.57	19192.39
488.75	19250.91
488.92	19616.03
489.10	19798.59
489.28	19850.08
489.46	20451.60
489.64	19978.81
489.81	20510.11
489.99	20484.37
490.17	20666.93
490.35	20776.94
490.53	20931.41
490.70	21179.51
490.88	20898.64
491.06	21502.50
491.24	21366.75
491.41	21364.41
491.59	21577.40
491.77	21261.43
491.95	21411.22
492.13	21876.99
492.30	22441.06
492.48	22249.13
492.66	22309.99
492.84	22419.99
493.01	22750.01
493.19	22565.10
493.37	22857.67
493.54	22649.36
493.72	23264.92
493.90	23171.30
494.08	23555.15
494.25	23770.48
494.43	23506.00
494.61	23807.93
494.79	24393.06
494.96	23840.70
495.14	23969.43
495.32	24121.56
495.49	24233.91
495.67	24245.61
495.85	24816.70
496.02	24870.53
496.20	25191.19
496.38	24786.27
496.55	25467.37
496.73	25806.75
496.91	25465.03
497.09	25701.42
497.26	25621.84
497.44	25811.43
497.62	25434.60
497.79	25888.67
497.97	25785.68
498.14	26197.62
498.32	25844.20
498.50	26366.13
498.67	26532.31
498.85	26518.27
499.03	26890.41
499.20	26780.41
499.38	26651.68
499.56	26717.22
499.73	26881.05
499.91	26913.82
500.08	27314.05
500.26	26759.34
500.44	27484.91
500.61	27351.50
500.79	27428.74
500.97	27536.40
501.14	27641.73
501.32	27618.32
501.49	27620.66
501.67	27763.43
501.84	27917.91
502.02	28119.20
502.20	28086.43
502.37	28334.53
502.55	28313.46
502.72	28809.65
502.90	28573.26
503.07	28783.91
503.25	28807.31
503.43	28587.30
503.60	28760.50
503.78	28627.09
503.95	28865.83
504.13	29139.67
504.30	29420.53
504.48	29509.47
504.65	29673.31
504.83	29830.13
505.01	29813.74
505.18	29544.58
505.36	30148.44
505.53	30047.80
505.71	30148.44
505.88	30572.08
506.06	29886.30
506.23	30476.12
506.41	30387.18
506.58	30672.72
506.76	30565.06
506.93	30780.39
507.11	30778.04
507.28	30892.73
507.46	30719.53
507.63	30686.76
507.81	30913.80
507.98	30707.83
508.16	31503.61
508.33	31098.70
508.50	31386.58
508.68	31901.50
508.85	31740.00
509.03	31646.38
509.20	31585.53
509.38	31828.95
509.55	31534.04
509.73	31924.91
509.90	32538.13
510.08	31887.46
510.25	31948.31
510.42	32411.74
510.60	33031.98
510.77	32727.71
510.95	32779.20
511.12	32617.71
511.30	32641.11
511.47	33092.83
511.64	33036.66
511.82	33266.03
511.99	32683.24
512.17	33113.90
512.34	33223.90
512.51	33034.32
512.69	33596.05
512.86	33521.15
513.04	33493.07
513.21	33312.84
513.38	33813.72
513.56	33567.96
513.73	33486.04
513.90	33523.49
514.08	33642.86
514.25	33577.33
514.43	33816.06
514.60	33734.14
514.77	33986.92
514.95	34532.26
515.12	34284.17
515.29	34380.13
515.47	34904.41
515.64	34611.84
515.81	34541.63
515.99	34581.42
516.16	34316.93
516.33	34375.45
516.51	34141.39
516.68	34199.91
516.85	34082.88
517.03	34616.52
517.20	34431.62
517.37	34909.09
517.54	35311.66
517.72	35154.85
517.89	34848.24
518.06	34756.96
518.24	34340.34
518.41	34705.46
518.58	34958.24
518.75	35482.52
518.93	35510.61
519.10	35391.24
519.27	35367.84
519.45	36215.11
519.62	36025.53
519.79	36259.58
519.96	35959.99
520.14	36781.52
520.31	35957.65
520.48	36437.46
520.65	36194.04
520.83	36650.45
521.00	36907.91
521.17	36697.26
521.34	36779.18
521.52	37120.90
521.69	36882.16
521.86	36978.12
522.03	37516.45
522.20	36739.39
522.38	37156.00
522.55	37469.64
522.72	37038.98
522.89	37207.50
523.07	37376.01
523.24	37287.07
523.41	37963.49
523.58	37390.06
523.75	38134.35
523.92	37848.80
524.10	38117.96
524.27	38007.96
524.44	38223.29
524.61	38319.25
524.78	38483.09
524.96	38206.90
525.13	38403.51
525.30	38328.61
525.47	38660.97
525.64	38457.34
525.81	38061.79
525.98	38197.54
526.16	38017.32
526.33	37780.93
526.50	38265.42
526.67	37862.85
526.84	38312.23
527.01	38057.11
527.18	38433.94
527.36	38637.56
527.53	39168.87
527.70	39344.41
527.87	39311.64
528.04	39016.73
528.21	39187.59
528.38	39253.12
528.55	39335.04
528.72	39117.37
528.89	39529.31
529.07	39604.20
529.24	39475.48
529.41	39201.63
529.58	39386.54
529.75	39262.49
529.92	39882.73
530.09	39639.31
530.26	39861.66
530.43	39913.16
530.60	39882.73
530.77	39990.39
530.94	40133.17
531.11	40055.93
531.28	40388.28
531.46	40336.79
531.63	40341.47
531.80	39800.81
531.97	40119.12
532.14	40116.78
532.31	39721.23
532.48	40545.10
532.65	40531.06
532.82	40505.31
532.99	40353.18
533.16	40638.72
533.33	41036.61
533.50	41090.44
533.67	40992.14
533.84	40816.60
534.01	40893.84
534.18	40844.69
534.35	41483.66
534.52	40996.82
534.69	41478.97
534.86	40964.06
535.03	41371.31
535.20	41354.93
535.37	41750.48
535.54	41776.22
535.71	41223.86
535.88	41413.44
536.05	41544.51
536.22	41794.95
536.38	41523.44
536.55	41500.04
536.72	41401.74
536.89	41626.43
537.06	41598.34
537.23	41598.34
537.40	41680.26
537.57	41411.10
537.74	41497.70
537.91	42457.32
538.08	42220.92
538.25	42326.25
538.42	42153.05
538.59	42120.28
538.75	42185.82
538.92	42284.12
539.09	42040.70
539.26	42007.94
539.43	42307.52
539.60	42103.90
539.77	42277.10
539.94	42108.58
540.11	41806.65
540.28	42040.70
540.44	42270.08
540.61	42241.99
540.78	41982.19
540.95	42288.80
541.12	42281.78
541.29	42391.78
541.46	42700.73
541.62	42967.55
541.79	42813.08
541.96	42703.07
542.13	42354.33
542.30	42609.45
542.47	42555.62
542.63	42955.85
542.80	43325.66
542.97	43154.80
543.14	43517.58
543.31	43529.28
543.48	43351.40
543.64	44130.80
543.81	43812.49
543.98	43283.53
544.15	43393.53
544.32	43461.41
544.48	43665.03
544.65	43515.24
544.82	44182.29
544.99	43372.47
545.16	43899.09
545.32	43578.43
545.49	43959.94
545.66	44119.10
545.83	43840.57
546.00	43889.73
546.16	43852.28
546.33	43847.60
546.50	43665.03
546.67	44006.75
546.83	43753.97
547.00	43540.99
547.17	43978.67
547.34	43796.10
547.50	44135.48
547.67	44399.96
547.84	44140.16
548.00	44421.03
548.17	44624.65
548.34	44385.92
548.51	44261.87
548.67	44626.99
548.84	44105.06
549.01	44325.07
549.18	44210.38
549.34	44708.91
549.51	45275.32
549.68	44706.57
549.84	44854.03
550.01	44634.02
550.18	44610.61
550.34	44744.02
550.51	44369.54
550.68	44598.91
550.84	44554.44
551.01	44964.03
551.18	44664.44
551.34	44755.72
551.51	45172.34
551.68	45146.59
551.84	44980.42
552.01	45106.80
552.18	44545.08
552.34	44779.13
552.51	45099.78
552.68	44912.54
552.84	45272.98
553.01	45322.13
553.18	45340.86
553.34	44919.56
553.51	45167.66
553.67	45167.66
553.84	45249.58
554.01	45560.87
554.17	45371.28
554.34	45188.72
554.51	45633.42
554.67	45469.59
554.84	45275.32
555.00	45645.13
555.17	45495.33
555.33	45151.27
555.50	45368.94
555.67	45247.24
555.83	45319.79
556.00	45638.11
556.16	45624.06
556.33	45567.89
556.50	45406.39
556.66	45729.39
556.83	45179.36
556.99	46026.63
557.16	46040.68
557.32	45935.35
557.49	45745.77
557.65	45689.60
557.82	45989.19
557.98	46141.32
558.15	45687.26
558.32	46277.07
558.48	45490.65
558.65	45961.10
558.81	45708.32
558.98	45572.57
559.14	45855.78
559.31	45741.09
559.47	45588.95
559.64	45923.65
559.80	46291.12
559.97	45893.22
560.13	45640.45
560.30	45736.41
560.46	45998.55
560.63	45954.08
560.79	46368.35
560.96	46321.54
561.12	46089.83
561.29	46061.74
561.45	45921.31
561.61	45925.99
561.78	45979.82
561.94	45675.55
562.11	46101.53
562.27	46019.61
562.44	46256.01
562.60	46335.59
562.77	46314.52
562.93	46096.85
563.10	46361.33
563.26	45900.25
563.42	46415.16
563.59	45921.31
563.75	46277.07
563.92	46586.02
564.08	46101.53
564.24	46543.89
564.41	46265.37
564.57	46087.49
564.74	46405.80
564.90	46415.16
565.07	46403.46
565.23	46541.55
565.39	46188.13
565.56	46314.52
565.72	46358.99
565.88	46335.59
566.05	46256.01
566.21	46342.61
566.38	46227.92
566.54	46710.07
566.70	46520.49
566.87	46836.46
567.03	46567.30
567.19	46513.47
567.36	46838.80
567.52	46167.07
567.68	46536.87
567.85	46263.03
568.01	46995.62
568.17	46443.25
568.34	46595.38
568.50	46483.04
568.66	46597.73
568.83	46188.13
568.99	46117.92
569.15	46387.08
569.32	46389.42
569.48	46010.25
569.64	46995.62
569.81	46506.44
569.97	46454.95
570.13	46543.89
570.30	46122.60
570.46	46028.98
570.62	46124.94
570.78	45872.16
570.95	46555.60
571.11	46555.60
571.27	46541.55
571.43	46527.51
571.60	46508.79
571.76	46476.02
571.92	46452.61
572.09	46515.81
572.25	46864.55
572.41	47086.90
572.57	46665.60
572.74	46794.33
572.90	47002.64
573.06	46845.82
573.22	46904.34
573.38	46642.20
573.55	46457.29
573.71	46817.74
573.87	46309.84
574.03	46368.35
574.20	46309.84
574.36	46799.01
574.52	46557.94
574.68	46717.09
574.84	46726.46
575.01	46618.79
575.17	46616.45
575.33	46403.46
575.49	46808.37
575.65	46962.85
575.82	46740.50
575.98	46672.62
576.14	46609.43
576.30	46712.41
576.46	46700.71
576.62	46775.61
576.79	46548.57
576.95	46342.61
577.11	46752.20
577.27	46918.38
577.43	46756.88
577.59	46965.19
577.75	46927.74
577.92	46138.98
578.08	46588.36
578.24	46227.92
578.40	46302.82
578.56	46770.93
578.72	46712.41
578.88	47061.15
579.04	46796.67
579.21	46277.07
579.37	47012.00
579.53	46663.26
579.69	46525.17
579.85	46780.29
580.01	46653.90
580.17	47112.64
580.33	46859.87
580.49	46696.03
580.65	46913.70
580.82	46630.49
580.98	46220.90
581.14	46422.19
581.30	47484.79
581.46	46665.60
581.62	46768.58
581.78	46672.62
581.94	47334.99
582.10	46426.87
582.26	46719.43
582.42	47028.38
582.58	46497.08
582.74	46693.69
582.90	46918.38
583.06	47379.46
583.22	47014.34
583.38	47288.18
583.54	46969.87
583.70	47185.20
583.86	46862.21
584.02	46806.03
584.18	47119.66
584.34	46560.28
584.50	46799.01
584.66	46873.91
584.82	46944.12
584.98	47119.66
585.14	46791.99
585.30	46794.33
585.46	47044.77
585.62	46497.08
585.78	46913.70
585.94	46464.32
586.10	46579.00
586.26	46426.87
586.42	47047.11
586.58	47058.81
586.74	47070.51
586.90	46555.60
587.06	46862.21
587.22	46941.78
587.38	46429.21
587.54	46672.62
587.70	46773.27
587.86	46864.55
588.02	47098.60
588.18	47206.26
588.34	46902.00
588.49	46419.84
588.65	45652.15
588.81	46122.60
588.97	46394.10
589.13	46031.32
589.29	46363.67
589.45	46426.87
589.61	46738.16
589.77	47112.64
