SpectraSuite Data File
++++++++++++++++++++++++++++++++++++
Date: Fri Oct 25 11:34:23 EDT 2013
User: price-jones
Dark Spectrum Present: No
Reference Spectrum Present: No
Number of Sampled Component Spectra: 1
Spectrometers: USB2+H05261
Integration Time (usec): 100000 (USB2+H05261)
Spectra Averaged: 1 (USB2+H05261)
Boxcar Smoothing: 0 (USB2+H05261)
Correct for Electrical Dark: No (USB2+H05261)
Strobe/Lamp Enabled: No (USB2+H05261)
Correct for Detector Non-linearity: No (USB2+H05261)
Correct for Stray Light: No (USB2+H05261)
Number of Pixels in Processed Spectrum: 2048
>>>>>Begin Processed Spectral Data<<<<<
365.73	287.89
365.92	287.89
366.12	287.89
366.32	184.90
366.52	215.33
366.72	229.37
366.91	196.60
367.11	159.16
367.31	135.75
367.51	161.50
367.70	189.58
367.90	215.33
368.10	86.60
368.30	180.22
368.49	215.33
368.69	205.97
368.89	201.29
369.09	187.24
369.28	229.37
369.48	187.24
369.68	217.67
369.87	322.99
370.07	238.73
370.27	301.93
370.47	383.85
370.66	503.22
370.86	498.53
371.06	550.03
371.25	564.07
371.45	475.13
371.65	552.37
371.84	550.03
372.04	531.30
372.24	571.09
372.44	571.09
372.63	645.99
372.83	589.82
373.03	561.73
373.22	613.22
373.42	631.94
373.62	557.05
373.81	664.71
374.01	671.73
374.21	622.58
374.40	636.63
374.60	648.33
374.79	620.24
374.99	589.82
375.19	631.94
375.38	636.63
375.58	641.31
375.78	617.90
375.97	650.67
376.17	671.73
376.37	662.37
376.56	620.24
376.76	734.93
376.95	718.54
377.15	643.65
377.35	669.39
377.54	685.78
377.74	608.54
377.93	631.94
378.13	718.54
378.33	674.07
378.52	720.88
378.72	692.80
378.91	702.16
379.11	732.59
379.31	716.20
379.50	699.82
379.70	755.99
379.89	805.14
380.09	723.23
380.28	636.63
380.48	751.31
380.68	655.35
380.87	692.80
381.07	737.27
381.26	784.08
381.46	765.36
381.65	777.06
381.85	676.41
382.04	779.40
382.24	772.38
382.43	791.10
382.63	760.67
382.83	844.93
383.02	727.91
383.22	788.76
383.41	765.36
383.61	748.97
383.80	786.42
384.00	835.57
384.19	784.08
384.39	809.83
384.58	823.87
384.78	784.08
384.97	770.04
385.17	741.95
385.36	777.06
385.56	866.00
385.75	887.06
385.95	821.53
386.14	868.34
386.34	826.21
386.53	807.48
386.72	816.85
386.92	898.77
387.11	894.08
387.31	861.32
387.50	858.98
387.70	828.55
387.89	957.28
388.09	880.04
388.28	866.00
388.48	861.32
388.67	926.85
388.86	908.13
389.06	938.55
389.25	947.92
389.45	866.00
389.64	1060.26
389.84	908.13
390.03	912.81
390.22	997.07
390.42	889.40
390.61	999.41
390.81	997.07
391.00	1050.90
391.19	983.02
391.39	1013.45
391.58	985.37
391.78	1039.20
391.97	980.68
392.16	933.87
392.36	1064.94
392.55	1022.81
392.75	1050.90
392.94	1029.84
393.13	1036.86
393.33	1025.15
393.52	1043.88
393.71	1083.67
393.91	1078.99
394.10	1027.50
394.29	987.71
394.49	1111.75
394.68	1107.07
394.88	1097.71
395.07	1125.80
395.26	1109.41
395.46	1102.39
395.65	1174.95
395.84	1132.82
396.04	1165.59
396.23	1268.57
396.42	1158.57
396.62	1334.11
396.81	1170.27
397.00	1179.63
397.19	1081.33
397.39	1146.86
397.58	1088.35
397.77	1329.42
397.97	1235.80
398.16	1284.95
398.35	1261.55
398.55	1224.10
398.74	1277.93
398.93	1219.42
399.12	1291.98
399.32	1247.51
399.51	1287.29
399.70	1275.59
399.90	1327.08
400.09	1364.53
400.28	1369.21
400.47	1291.98
400.67	1376.24
400.86	1238.14
401.05	1357.51
401.24	1247.51
401.44	1315.38
401.63	1432.41
401.82	1359.85
402.01	1406.66
402.21	1392.62
402.40	1458.15
402.59	1519.01
402.78	1455.81
402.97	1486.24
403.17	1572.84
403.36	1448.79
403.55	1439.43
403.74	1495.60
403.93	1504.96
404.13	1570.50
404.32	1558.80
404.51	1561.14
404.70	1621.99
404.89	1497.94
405.09	1593.90
405.28	1598.59
405.47	1647.74
405.66	1636.03
405.85	1631.35
406.05	1668.80
406.24	1750.72
406.43	1724.97
406.62	1767.10
406.81	1746.04
407.00	1722.63
407.20	1811.57
407.39	1739.02
407.58	1732.00
407.77	1820.94
407.96	1844.34
408.15	1928.60
408.34	1797.53
408.54	1858.39
408.73	1863.07
408.92	1858.39
409.11	1877.11
409.30	1870.09
409.49	1839.66
409.68	2031.58
409.87	2017.54
410.07	1853.70
410.26	2043.29
410.45	1961.37
410.64	2066.69
410.83	2099.46
411.02	2094.78
411.21	2120.53
411.40	2087.76
411.59	2057.33
411.78	2172.02
411.98	2317.13
412.17	2162.66
412.36	2211.81
412.55	2134.57
412.74	2310.11
412.93	2190.74
413.12	2160.31
413.31	2251.60
413.50	2228.19
413.69	2415.43
413.88	2387.35
414.07	2462.24
414.26	2427.14
414.45	2335.85
414.64	2558.21
414.83	2504.37
415.02	2476.29
415.22	2499.69
415.41	2628.42
415.60	2539.48
415.79	2511.39
415.98	2558.21
416.17	2621.40
416.36	2649.49
416.55	2633.10
416.74	2677.57
416.93	2747.79
417.12	2705.66
417.31	2801.62
417.50	2803.96
417.69	2733.75
417.88	2848.43
418.07	2951.42
418.26	2960.78
418.45	2874.18
418.64	2916.31
418.83	2885.88
419.02	3059.08
419.21	3016.95
419.39	3007.59
419.58	3014.61
419.77	2965.46
419.96	2974.82
420.15	3068.44
420.34	3143.34
420.53	3208.87
420.72	3229.94
420.91	3199.51
421.10	3145.68
421.29	3194.83
421.48	3155.04
421.67	3126.96
421.86	3082.49
422.05	3110.57
422.24	3178.45
422.43	3236.96
422.61	3190.15
422.80	3241.64
422.99	3162.06
423.18	3377.39
423.37	3297.81
423.56	3279.09
423.75	3241.64
423.94	3255.69
424.13	3075.46
424.32	3246.32
424.50	3314.20
424.69	3358.67
424.88	3286.11
425.07	3251.00
425.26	3351.65
425.45	3262.71
425.64	3274.41
425.83	3267.39
426.01	3361.01
426.20	3419.52
426.39	3323.56
426.58	3407.82
426.77	3361.01
426.96	3361.01
427.15	3485.06
427.33	3438.25
427.52	3482.72
427.71	3386.76
427.90	3566.98
428.09	3674.64
428.28	3468.67
428.46	3576.34
428.65	3538.89
428.84	3623.15
429.03	3536.55
429.22	3524.85
429.40	3707.41
429.59	3751.88
429.78	3648.90
429.97	3552.93
430.16	3627.83
430.34	3735.50
430.53	3794.01
430.72	3786.99
430.91	3679.32
431.10	3604.42
431.28	3789.33
431.47	3845.50
431.66	3822.09
431.85	3822.09
432.03	3831.46
432.22	4037.42
432.41	3885.29
432.60	3831.46
432.79	3882.95
432.97	3896.99
433.16	4060.83
433.35	4014.02
433.54	4102.96
433.72	4032.74
433.91	4124.02
434.10	4166.15
434.28	4088.92
434.47	4128.70
434.66	4161.47
434.85	4074.87
435.03	4283.18
435.22	4205.94
435.41	4369.78
435.59	4255.09
435.78	4278.50
435.97	4266.80
436.16	4337.01
436.34	4159.13
436.53	4313.61
436.72	4365.10
436.90	4320.63
437.09	4327.65
437.28	4285.52
437.46	4273.82
437.65	4285.52
437.84	4566.39
438.02	4411.91
438.21	4423.61
438.40	4486.81
438.58	4699.80
438.77	4571.07
438.96	4638.94
439.14	4741.93
439.33	4683.41
439.52	4652.98
439.70	4657.67
439.89	4809.80
440.08	4730.22
440.26	4875.34
440.45	4992.36
440.63	4931.51
440.82	4985.34
441.01	4903.42
441.19	5008.75
441.38	5071.94
441.57	5076.62
441.75	5226.42
441.94	5207.69
442.12	5181.95
442.31	5268.55
442.50	5270.89
442.68	5245.14
442.87	5221.74
443.05	5308.34
443.24	5350.46
443.43	5558.77
443.61	5371.53
443.80	5600.90
443.98	5238.12
444.17	5111.73
444.35	5568.13
444.54	5329.40
444.73	5437.06
444.91	5355.15
445.10	5427.70
445.28	5282.59
445.47	5427.70
445.65	5561.11
445.84	5589.20
446.02	5586.86
446.21	5373.87
446.39	5558.77
446.58	5628.99
446.77	5568.13
446.95	5441.75
447.14	5453.45
447.32	5764.74
447.51	5535.37
447.69	5666.44
447.88	5687.50
448.06	5547.07
448.25	5661.76
448.43	5776.44
448.62	5614.95
448.80	5600.90
448.99	5659.42
449.17	5650.05
449.36	5724.95
449.54	5781.12
449.73	5621.97
449.91	5832.62
450.10	5813.89
450.28	5708.57
450.46	5921.56
450.65	5989.43
450.83	5834.96
451.02	5949.64
451.20	6059.65
451.39	6045.60
451.57	5858.36
451.76	5841.98
451.94	5966.03
452.13	6132.20
452.31	6054.97
452.49	6005.81
452.68	6143.91
452.86	6101.78
453.05	6216.46
453.23	6143.91
453.42	6125.18
453.60	6033.90
453.78	6146.25
453.97	6092.41
454.15	6024.54
454.34	6207.10
454.52	6333.49
454.70	6279.66
454.89	6331.15
455.07	6331.15
455.26	6553.50
455.44	6656.48
455.62	6326.47
455.81	6335.83
455.99	6546.48
456.17	6490.31
456.36	6438.81
456.54	6565.20
456.73	6651.80
456.91	6780.53
457.09	6719.68
457.28	6878.83
457.46	6724.36
457.64	6815.64
457.83	6761.81
458.01	6534.78
458.19	7101.19
458.38	6897.56
458.56	6911.60
458.74	6977.14
458.93	6902.24
459.11	7014.59
459.29	6825.00
459.48	7105.87
459.66	6988.84
459.84	6923.30
460.03	7213.53
460.21	7112.89
460.39	7157.36
460.57	7119.91
460.76	7040.33
460.94	7059.06
461.12	7253.32
461.31	7108.21
461.49	7157.36
461.67	7239.28
461.85	7281.41
462.04	7243.96
462.22	7683.98
462.40	7627.81
462.59	7487.37
462.77	7428.86
462.95	7609.08
463.13	7492.05
463.32	7552.91
463.50	7426.52
463.68	7665.25
463.86	7714.41
464.05	7515.46
464.23	7566.95
464.41	7695.68
464.59	7538.87
464.78	7901.65
464.96	7618.44
465.14	7803.35
465.32	7857.18
465.50	7728.45
465.69	7765.90
465.87	7999.95
466.05	7761.22
466.23	7728.45
466.41	7946.12
466.60	8070.17
466.78	7765.90
466.96	8011.65
467.14	7878.24
467.32	7939.10
467.51	8049.10
467.69	7751.85
467.87	8002.29
468.05	8044.42
468.23	8009.31
468.41	7953.14
468.60	8107.62
468.78	8032.72
468.96	8145.06
469.14	8304.22
469.32	8252.73
469.50	8109.96
469.69	8372.10
469.87	8477.42
470.05	8414.23
470.23	8568.70
470.41	8617.85
470.59	8528.91
470.77	8383.80
470.95	8566.36
471.14	8709.13
471.32	8557.00
471.50	8741.90
471.68	8727.86
471.86	8905.74
472.04	8788.71
472.22	9092.98
472.40	8681.05
472.58	8929.14
472.77	8847.22
472.95	9195.96
473.13	9273.20
473.31	9076.60
473.49	9048.51
473.67	9109.36
473.85	9406.61
474.03	9174.90
474.21	9305.97
474.39	9348.10
474.57	9362.14
474.75	9547.05
474.93	9554.07
475.12	9310.65
475.30	9565.77
475.48	9596.20
475.66	9591.52
475.84	9647.69
476.02	9858.34
476.20	9905.15
476.38	9973.02
476.56	10146.22
476.74	9956.64
476.92	10003.45
477.10	10036.22
477.28	10345.17
477.46	10300.70
477.64	10677.52
477.82	10745.40
478.00	10967.75
478.18	10518.37
478.36	10731.36
478.54	10958.39
478.72	10869.45
478.90	11147.97
479.08	11302.45
479.26	11342.24
479.44	11351.60
479.62	11304.79
479.80	11414.79
479.98	11611.40
480.16	11857.15
480.34	11513.10
480.52	11882.90
480.70	12009.29
480.88	11597.35
481.06	12044.40
481.24	11934.39
481.41	11943.75
481.59	12407.18
481.77	12255.04
481.95	12421.22
482.13	12346.33
482.31	12587.40
482.49	12830.82
482.67	12627.19
482.85	12936.14
483.03	12996.99
483.21	13130.41
483.39	13329.35
483.57	13209.98
483.74	13420.63
483.92	13507.23
484.10	13458.08
484.28	13675.75
484.46	13715.54
484.64	14001.08
484.82	13708.52
485.00	14214.07
485.18	14157.90
485.35	14504.30
485.53	14471.53
485.71	14672.82
485.89	14794.53
486.07	14658.78
486.25	14909.21
486.43	14843.68
486.61	15147.95
486.78	15283.70
486.96	15393.70
487.14	15426.47
487.32	15543.50
487.50	15688.61
487.68	15721.38
487.85	15852.45
488.03	15836.06
488.21	16236.30
488.39	16280.77
488.57	16369.71
488.75	16376.73
488.92	16489.07
489.10	17001.65
489.28	16994.63
489.46	17221.66
489.64	17050.80
489.81	17528.27
489.99	17584.44
490.17	17490.82
490.35	17673.39
490.53	17930.84
490.70	17694.45
490.88	17862.97
491.06	18066.60
491.24	18200.01
491.41	18408.31
491.59	18228.09
491.77	18438.74
491.95	18794.50
492.13	18977.06
492.30	18799.18
492.48	18794.50
492.66	18883.44
492.84	19208.78
493.01	19300.06
493.19	19150.26
493.37	19833.70
493.54	19583.26
493.72	20058.39
493.90	20006.90
494.08	19955.41
494.25	19974.13
494.43	20264.36
494.61	20449.26
494.79	20149.67
494.96	20416.49
495.14	20673.95
495.32	20940.77
495.49	20776.94
495.67	20664.59
495.85	21221.64
496.02	20898.64
496.20	21158.44
496.38	21188.87
496.55	21774.00
496.73	21954.22
496.91	21752.94
497.09	22073.59
497.26	21930.82
497.44	21771.66
497.62	22087.64
497.79	22405.95
497.97	22607.23
498.14	22546.38
498.32	22719.58
498.50	22810.86
498.67	23051.94
498.85	22881.08
499.03	23000.44
499.20	23129.17
499.38	23147.90
499.56	23126.83
499.73	23494.30
499.91	23608.98
500.08	23772.82
500.26	23583.24
500.44	23704.95
500.61	24100.50
500.79	23950.70
500.97	23871.12
501.14	24217.52
501.32	24470.30
501.49	24610.73
501.67	24601.37
501.84	24694.99
502.02	24414.13
502.20	24526.47
502.37	24760.53
502.55	24449.24
502.72	24797.98
502.90	24697.33
503.07	25010.96
503.25	25294.17
503.43	25029.69
503.60	25207.57
503.78	24882.24
503.95	25565.67
504.13	25326.94
504.30	25509.50
504.48	25392.47
504.65	25905.05
504.83	25874.62
505.01	26211.66
505.18	26024.42
505.36	26122.72
505.53	26127.40
505.71	26064.21
505.88	26260.81
506.06	25972.92
506.23	26551.04
506.41	26405.92
506.58	26658.70
506.76	26778.07
506.93	26815.52
507.11	27260.22
507.28	26775.73
507.46	27154.90
507.63	27384.27
507.81	27433.42
507.98	27197.02
508.16	27592.58
508.33	27576.19
508.50	27578.53
508.68	27438.10
508.85	27709.60
509.03	27674.49
509.20	27662.79
509.38	28266.65
509.55	27850.03
509.73	28355.59
509.90	27882.80
510.08	28280.69
510.25	28580.28
510.42	28531.13
510.60	28531.13
510.77	28907.96
510.95	28664.54
511.12	28809.65
511.30	29074.13
511.47	29020.30
511.64	29125.63
511.82	29015.62
511.99	29003.92
512.17	28968.81
512.34	29462.66
512.51	29638.20
512.69	29460.32
512.86	29577.35
513.04	29853.53
513.21	29546.92
513.38	30129.72
513.56	30078.22
513.73	29563.31
513.90	30033.75
514.08	30036.09
514.25	30391.86
514.43	30242.06
514.60	30251.42
514.77	30209.29
514.95	30501.86
515.12	30593.14
515.29	30185.89
515.47	31002.74
515.64	30803.79
515.81	30586.12
515.99	31035.50
516.16	31105.72
516.33	30962.95
516.51	31248.49
516.68	30998.06
516.85	30946.56
517.03	31608.93
517.20	31704.90
517.37	31555.10
517.54	31349.14
517.72	31630.00
517.89	31297.64
518.06	31527.02
518.24	32053.64
518.41	31608.93
518.58	31826.60
518.75	32224.50
518.93	31992.78
519.10	32023.21
519.27	32151.94
519.45	32203.43
519.62	32521.74
519.79	32212.79
519.96	32779.20
520.14	32407.06
520.31	32418.76
520.48	32453.87
520.65	32479.61
520.83	33085.81
521.00	32950.06
521.17	33228.59
521.34	33242.63
521.52	33139.65
521.69	33219.22
521.86	33497.75
522.03	33549.24
522.20	33284.76
522.38	33841.81
522.55	33394.76
522.72	33385.40
522.89	33235.61
523.07	33919.04
523.24	33694.35
523.41	33862.87
523.58	33603.07
523.75	34209.27
523.92	34087.56
524.10	34213.95
524.27	34183.52
524.44	34415.24
524.61	34363.75
524.78	34579.07
524.96	34780.36
525.13	34499.50
525.30	34972.28
525.47	34824.83
525.64	34621.20
525.81	35243.79
525.98	34972.28
526.16	34866.96
526.33	34740.57
526.50	35136.12
526.67	34979.31
526.84	35337.41
527.01	35248.47
527.18	35412.31
527.36	35304.64
527.53	35220.38
527.70	35651.04
527.87	35885.09
528.04	35578.48
528.21	35618.27
528.38	35859.35
528.55	35545.72
528.72	35426.35
528.89	35545.72
529.07	36055.95
529.24	35651.04
529.41	35952.97
529.58	35971.69
529.75	35737.64
529.92	36334.48
530.09	35896.80
530.26	35852.33
530.43	36156.60
530.60	36327.45
530.77	36194.04
530.94	37034.30
531.11	36112.13
531.28	36767.48
531.46	36205.75
531.63	36814.29
531.80	36500.65
531.97	37060.04
532.14	36905.57
532.31	36442.14
532.48	37223.88
532.65	37329.20
532.82	36760.45
532.99	37261.33
533.16	37282.39
533.33	37221.54
533.50	37308.14
533.67	37427.51
533.84	37574.96
534.01	37336.23
534.18	37392.40
534.35	37460.27
534.52	37600.71
534.69	37378.36
534.86	37586.66
535.03	37687.31
535.20	37883.91
535.37	37883.91
535.54	38234.99
535.71	37942.42
535.88	38347.34
536.05	38447.98
536.22	37886.25
536.38	37956.47
536.55	38307.55
536.72	38279.46
536.89	38075.84
537.06	38045.41
537.23	38527.56
537.40	38082.86
537.57	38593.09
537.74	38333.29
537.91	38810.76
538.08	38787.36
538.25	38630.54
538.42	38726.50
538.59	39138.44
538.75	38550.96
538.92	39070.56
539.09	39220.36
539.26	38843.53
539.43	38731.18
539.60	39049.50
539.77	38902.04
539.94	39192.27
540.11	39154.82
540.28	39159.50
540.44	39072.90
540.61	39196.95
540.78	39643.99
540.95	39129.08
541.12	39016.73
541.29	39271.85
541.46	39447.39
541.62	39552.71
541.79	40088.70
541.96	39526.97
542.13	39349.09
542.30	39288.23
542.47	39339.72
542.63	39803.15
542.80	39899.11
542.97	40039.54
543.14	40194.02
543.31	40107.42
543.48	40231.47
543.64	40512.33
543.81	40226.79
543.98	40266.58
544.15	40023.16
544.32	40385.94
544.48	40823.62
544.65	40692.55
544.82	40835.33
544.99	40671.49
545.16	40933.63
545.32	40645.74
545.49	41214.49
545.66	41298.75
545.83	41045.97
546.00	40823.62
546.16	40912.56
546.33	41141.94
546.50	40797.88
546.67	41179.39
546.83	41132.57
547.00	40781.49
547.17	40825.96
547.34	41249.60
547.50	41219.17
547.67	41649.83
547.84	41265.99
548.00	41715.37
548.17	41811.33
548.34	41305.77
548.51	41670.90
548.67	41392.37
548.84	41858.14
549.01	41298.75
549.18	41511.74
549.34	42024.32
549.51	42192.84
549.68	41881.55
549.84	41406.42
550.01	42071.13
550.18	41830.05
550.34	42103.90
550.51	42330.93
550.68	42117.94
550.84	41572.60
551.01	42085.17
551.18	41958.78
551.34	41823.03
551.51	42344.97
551.68	42143.69
551.84	42043.04
552.01	42071.13
552.18	42241.99
552.34	42279.44
552.51	42316.89
552.68	42199.86
552.84	42534.56
553.01	42696.05
553.18	42752.23
553.34	42129.64
553.51	42440.93
553.67	42836.48
553.84	42930.11
554.01	42623.50
554.17	42335.61
554.34	43311.61
554.51	42817.76
554.67	43119.69
554.84	42836.48
555.00	43119.69
555.17	42398.80
555.33	42724.14
555.50	42890.32
555.67	42799.04
555.83	42749.88
556.00	43091.60
556.16	43147.78
556.33	43311.61
556.50	43433.32
556.66	43236.72
556.83	43236.72
556.99	43234.38
557.16	43475.45
557.32	44158.89
557.49	43768.02
557.65	43126.71
557.82	43388.85
557.98	43243.74
558.15	43445.02
558.32	43225.01
558.48	43194.59
558.65	43571.41
558.81	43636.95
558.98	43627.59
559.14	43475.45
559.31	43824.19
559.47	43592.48
559.64	43718.87
559.80	43880.36
559.97	44170.59
560.13	43559.71
560.30	44002.07
560.46	43924.83
560.63	43777.38
560.79	43786.74
560.96	43985.69
561.12	43952.92
561.29	44023.14
561.45	44046.54
561.61	44416.35
561.78	43929.51
561.94	44163.57
562.11	43920.15
562.27	43796.10
562.44	44051.22
562.60	44229.10
562.77	44266.55
562.93	44121.44
563.10	44542.74
563.26	44126.12
563.42	44685.51
563.59	43901.43
563.75	43749.29
563.92	43711.84
564.08	44191.65
564.24	44201.02
564.41	44231.44
564.57	44603.59
564.74	44315.70
564.90	43922.49
565.07	44353.15
565.23	44189.31
565.39	44467.84
565.56	44414.01
565.72	44062.93
565.88	44245.49
566.05	44435.07
566.21	44772.11
566.38	44004.41
566.54	44608.27
566.70	44591.89
566.87	44800.19
567.03	44421.03
567.19	45064.67
567.36	44942.97
567.52	44662.10
567.68	45137.23
567.85	44414.01
568.01	45242.56
568.17	44545.08
568.34	45280.00
568.50	44634.02
568.66	44886.79
568.83	44804.88
568.99	44985.10
569.15	44605.93
569.32	44648.06
569.48	44533.37
569.64	45296.39
569.81	44847.00
569.97	45036.59
570.13	45020.20
570.30	45017.86
570.46	45041.27
570.62	45010.84
570.78	44947.65
570.95	44856.37
571.11	44924.24
571.27	45034.25
571.43	44940.63
571.60	45223.83
571.76	45017.86
571.92	45029.57
572.09	44931.26
572.25	44751.04
572.41	44797.85
572.57	44914.88
572.74	45162.98
572.90	44868.07
573.06	45305.75
573.22	45261.28
573.38	45317.45
573.55	45312.77
573.71	45666.19
573.87	45317.45
574.03	45188.72
574.20	45291.71
574.36	45303.41
574.52	45153.62
574.68	45277.66
574.84	45261.28
575.01	45317.45
575.17	45720.02
575.33	45656.83
575.49	45193.40
575.65	45577.25
575.82	45235.53
575.98	45170.00
576.14	45734.07
576.30	46003.23
576.46	45380.65
576.62	45322.13
576.79	45336.18
576.95	44985.10
577.11	45174.68
577.27	45380.65
577.43	44975.73
577.59	45165.32
577.75	45120.85
577.92	45450.86
578.08	45387.67
578.24	45462.57
578.40	45567.89
578.56	45441.50
578.72	45525.76
578.88	45478.95
579.04	45390.01
579.21	45453.20
579.37	45280.00
579.53	45572.57
579.69	45670.87
579.85	45507.04
580.01	45338.52
580.17	45235.53
580.33	45577.25
580.49	45696.62
580.65	45188.72
580.82	45673.21
580.98	45539.80
581.14	45298.73
581.30	45382.99
581.46	45287.03
581.62	45235.53
581.78	45404.05
581.94	45570.23
582.10	45645.13
582.26	45387.67
582.42	45539.80
582.58	45787.90
582.74	45434.48
582.90	45581.93
583.06	45638.11
583.22	45738.75
583.38	45954.08
583.54	45710.66
583.70	45841.73
583.86	45689.60
584.02	45565.55
584.18	45944.72
584.34	45619.38
584.50	45808.96
584.66	45715.34
584.82	45715.34
584.98	46073.45
585.14	45598.32
585.30	45188.72
585.46	45982.16
585.62	45668.53
585.78	46050.04
585.94	45605.34
586.10	45474.27
586.26	45331.50
586.42	46007.91
586.58	45787.90
586.74	45813.65
586.90	45769.18
587.06	45399.37
587.22	45701.30
587.38	45514.06
587.54	46209.20
587.70	46342.61
587.86	45680.24
588.02	45670.87
588.18	45755.13
588.34	45617.04
588.49	45958.76
588.65	45656.83
588.81	45883.86
588.97	45982.16
589.13	45483.63
589.29	45336.18
589.45	45947.06
589.61	46309.84
589.77	45502.35
589.93	45904.93
590.08	46108.55
