SpectraSuite Data File
++++++++++++++++++++++++++++++++++++
Date: Fri Oct 25 11:23:48 EDT 2013
User: price-jones
Dark Spectrum Present: No
Reference Spectrum Present: No
Number of Sampled Component Spectra: 1
Spectrometers: USB2+H05261
Integration Time (usec): 100000 (USB2+H05261)
Spectra Averaged: 1 (USB2+H05261)
Boxcar Smoothing: 0 (USB2+H05261)
Correct for Electrical Dark: No (USB2+H05261)
Strobe/Lamp Enabled: No (USB2+H05261)
Correct for Detector Non-linearity: No (USB2+H05261)
Correct for Stray Light: No (USB2+H05261)
Number of Pixels in Processed Spectrum: 2048
>>>>>Begin Processed Spectral Data<<<<<
365.73	266.82
365.92	266.82
366.12	266.82
366.32	191.92
366.52	84.26
366.72	180.22
366.91	74.90
367.11	159.16
367.31	128.73
367.51	124.05
367.70	102.98
367.90	110.01
368.10	107.66
368.30	63.19
368.49	140.43
368.69	114.69
368.89	140.43
369.09	161.50
369.28	203.63
369.48	142.77
369.68	198.95
369.87	161.50
370.07	187.24
370.27	238.73
370.47	374.49
370.66	641.31
370.86	606.20
371.06	648.33
371.25	730.25
371.45	634.29
371.65	718.54
371.84	676.41
372.04	734.93
372.24	704.50
372.44	727.91
372.63	741.95
372.83	734.93
373.03	772.38
373.22	704.50
373.42	809.83
373.62	744.29
373.81	692.80
374.01	830.89
374.21	840.25
374.40	765.36
374.60	840.25
374.79	844.93
374.99	823.87
375.19	791.10
375.38	823.87
375.58	844.93
375.78	805.14
375.97	840.25
376.17	856.64
376.37	917.49
376.56	833.23
376.76	891.74
376.95	884.72
377.15	847.27
377.35	868.34
377.54	891.74
377.74	875.36
377.93	903.45
378.13	861.32
378.33	931.53
378.52	896.43
378.72	910.47
378.91	877.70
379.11	894.08
379.31	898.77
379.50	936.21
379.70	1008.77
379.89	1015.79
380.09	978.34
380.28	1015.79
380.48	1043.88
380.68	964.30
380.87	994.73
381.07	1078.99
381.26	1074.31
381.46	1034.52
381.65	987.71
381.85	1032.18
382.04	1029.84
382.24	1048.56
382.43	1022.81
382.63	1036.86
382.83	1020.47
383.02	1156.22
383.22	1130.48
383.41	1060.26
383.61	1083.67
383.80	1139.84
384.00	1104.73
384.19	1177.29
384.39	1078.99
384.58	1165.59
384.78	1158.57
384.97	1081.33
385.17	1172.61
385.36	1095.37
385.56	1156.22
385.75	1132.82
385.95	1149.20
386.14	1235.80
386.34	1132.82
386.53	1149.20
386.72	1100.05
386.92	1259.21
387.11	1378.58
387.31	1210.06
387.50	1217.08
387.70	1277.93
387.89	1294.32
388.09	1240.48
388.28	1303.68
388.48	1317.72
388.67	1336.45
388.86	1256.87
389.06	1364.53
389.25	1366.87
389.45	1317.72
389.64	1385.60
389.84	1409.00
390.03	1411.34
390.22	1343.47
390.42	1348.15
390.61	1352.83
390.81	1345.81
391.00	1500.28
391.19	1476.88
391.39	1413.68
391.58	1441.77
391.78	1427.73
391.97	1458.15
392.16	1483.90
392.36	1514.33
392.55	1448.79
392.75	1521.35
392.94	1488.58
393.13	1603.27
393.33	1511.99
393.52	1612.63
393.71	1448.79
393.91	1526.03
394.10	1556.46
394.29	1537.73
394.49	1624.33
394.68	1556.46
394.88	1568.16
395.07	1706.25
395.26	1624.33
395.46	1727.32
395.65	1673.48
395.84	1703.91
396.04	1790.51
396.23	1671.14
396.42	1659.44
396.62	1729.66
396.81	1811.57
397.00	1755.40
397.19	1788.17
397.39	1729.66
397.58	1809.23
397.77	1715.61
397.97	1818.60
398.16	1867.75
398.35	1790.51
398.55	1832.64
398.74	1877.11
398.93	2033.93
399.12	1963.71
399.32	1928.60
399.51	1888.81
399.70	1996.48
399.90	1923.92
400.09	1858.39
400.28	2085.42
400.47	2015.20
400.67	2097.12
400.86	2101.80
401.05	2092.44
401.24	2181.38
401.44	2094.78
401.63	2129.89
401.82	2090.10
402.01	2099.46
402.21	2169.68
402.40	2129.89
402.59	2260.96
402.78	2176.70
402.97	2197.76
403.17	2284.36
403.36	2246.91
403.55	2265.64
403.74	2363.94
403.93	2415.43
404.13	2373.30
404.32	2307.77
404.51	2396.71
404.70	2368.62
404.89	2490.33
405.09	2602.68
405.28	2441.18
405.47	2457.56
405.66	2588.63
405.85	2518.42
406.05	2502.03
406.24	2539.48
406.43	2593.31
406.62	2626.08
406.81	2717.36
407.00	2495.01
407.20	2637.78
407.39	2696.30
407.58	2672.89
407.77	2752.47
407.96	2761.83
408.15	2696.30
408.34	2771.19
408.54	2860.13
408.73	2857.79
408.92	2841.41
409.11	2827.37
409.30	2892.90
409.49	2885.88
409.68	2956.10
409.87	2876.52
410.07	2972.48
410.26	2906.95
410.45	3047.38
410.64	3098.87
410.83	2993.55
411.02	3155.04
411.21	3141.00
411.40	3129.30
411.59	3150.36
411.78	3150.36
411.98	3173.77
412.17	3361.01
412.36	3353.99
412.55	3344.63
412.74	3342.28
412.93	3454.63
413.12	3435.91
413.31	3686.34
413.50	3492.08
413.69	3435.91
413.88	3599.74
414.07	3592.72
414.26	3585.70
414.45	3620.81
414.64	3700.39
414.83	3805.71
415.02	3840.82
415.22	3784.65
415.41	3892.31
415.60	3934.44
415.79	3946.14
415.98	3904.01
416.17	3878.27
416.36	4018.70
416.55	4007.00
416.74	4042.11
416.93	4079.55
417.12	4002.32
417.31	4222.33
417.50	4187.22
417.69	4234.03
417.88	4301.90
418.07	4329.99
418.26	4248.07
418.45	4376.80
418.64	4550.00
418.83	4409.57
419.02	4346.37
419.21	4568.73
419.39	4479.79
419.58	4421.27
419.77	4528.94
419.96	4631.92
420.15	4554.68
420.34	4531.28
420.53	4573.41
420.72	4751.29
420.91	4709.16
421.10	4767.67
421.29	4683.41
421.48	4732.56
421.67	4786.40
421.86	4868.31
422.05	4697.46
422.24	4791.08
422.43	4880.02
422.61	4947.89
422.80	4975.98
422.99	4863.63
423.18	4929.17
423.37	5048.54
423.56	4868.31
423.75	4851.93
423.94	4870.65
424.13	4479.79
424.32	4858.95
424.50	4990.02
424.69	5090.67
424.88	5158.54
425.07	5034.49
425.26	4915.12
425.45	4905.76
425.64	4980.66
425.83	4971.30
426.01	5142.16
426.20	5107.05
426.39	5041.51
426.58	5146.84
426.77	5181.95
426.96	5172.58
427.15	5177.26
427.33	5167.90
427.52	5240.46
427.71	5404.30
427.90	5231.10
428.09	5329.40
428.28	5434.72
428.46	5373.87
428.65	5467.49
428.84	5483.88
429.03	5504.94
429.22	5366.85
429.40	5453.45
429.59	5430.04
429.78	5247.48
429.97	5247.48
430.16	5523.66
430.34	5530.69
430.53	5593.88
430.72	5731.97
430.91	5774.10
431.10	5757.72
431.28	5645.37
431.47	5809.21
431.66	5774.10
431.85	5853.68
432.03	5827.93
432.22	5970.71
432.41	5949.64
432.60	5966.03
432.79	6113.48
432.97	6073.69
433.16	6127.52
433.35	6026.88
433.54	6249.23
433.72	6047.94
433.91	6171.99
434.10	6092.41
434.28	6218.80
434.47	6298.38
434.66	6338.17
434.85	6354.55
435.03	6300.72
435.22	6464.56
435.41	6483.28
435.59	6370.94
435.78	6576.91
435.97	6682.23
436.16	6576.91
436.34	6532.44
436.53	6553.50
436.72	6787.55
436.90	6497.33
437.09	6808.62
437.28	6511.37
437.46	6775.85
437.65	6665.85
437.84	6766.49
438.02	6693.93
438.21	6988.84
438.40	6743.08
438.58	6836.70
438.77	7119.91
438.96	7066.08
439.14	7225.23
439.33	7267.36
439.52	7084.80
439.70	7386.73
439.89	7386.73
440.08	7482.69
440.26	7527.16
440.45	7304.81
440.63	7421.84
440.82	7604.40
441.01	7606.74
441.19	7639.51
441.38	7705.04
441.57	7763.56
441.75	7786.96
441.94	8081.87
442.12	7892.29
442.31	7911.01
442.50	8105.28
442.68	8013.99
442.87	8030.38
443.05	8138.04
443.24	8156.77
443.43	8311.24
443.61	8276.13
443.80	8283.16
443.98	8159.11
444.17	8004.63
444.35	8355.71
444.54	8437.63
444.73	8243.37
444.91	8475.08
445.10	8353.37
445.28	8318.26
445.47	8285.50
445.65	8521.89
445.84	8379.12
446.02	8540.61
446.21	8507.85
446.39	8510.19
446.58	8465.72
446.77	8465.72
446.95	8341.67
447.14	8538.27
447.32	8564.02
447.51	8491.46
447.69	8643.60
447.88	8676.37
448.06	8678.71
448.25	8617.85
448.43	8545.30
448.62	8737.22
448.80	8681.05
448.99	8798.07
449.17	8739.56
449.36	8603.81
449.54	8999.36
449.73	8919.78
449.91	9039.15
450.10	9172.56
450.28	9022.77
450.46	9160.86
450.65	8966.59
450.83	9041.49
451.02	9055.53
451.20	9104.68
451.39	9205.33
451.57	9128.09
451.76	9158.52
451.94	9263.84
452.13	9376.19
452.31	9305.97
452.49	9270.86
452.68	9350.44
452.86	9282.56
453.05	9528.32
453.23	9738.97
453.42	9298.95
453.60	9305.97
453.78	9617.26
453.97	9427.68
454.15	9387.89
454.34	9376.19
454.52	9734.29
454.70	9614.92
454.89	9717.90
455.07	10050.26
455.26	10080.69
455.44	10092.39
455.62	9811.53
455.81	9970.68
455.99	10221.12
456.17	10033.88
456.36	9998.77
456.54	10160.27
456.73	10265.59
456.91	10682.20
457.09	10546.45
457.28	10469.22
457.46	10314.74
457.64	10511.35
457.83	10579.22
458.01	10391.98
458.19	10581.56
458.38	10520.71
458.56	10602.63
458.74	10846.04
458.93	10644.76
459.11	10658.80
459.29	10581.56
459.48	10729.02
459.66	10960.73
459.84	11000.52
460.03	11192.44
460.21	11454.58
460.39	11056.69
460.57	10930.30
460.76	11239.25
460.94	11213.51
461.12	11117.54
461.31	11124.57
461.49	11337.56
461.67	11119.89
461.85	11419.47
462.04	11159.67
462.22	11569.27
462.40	11492.03
462.59	11435.86
462.77	11660.55
462.95	11712.04
463.13	11646.51
463.32	11836.09
463.50	11950.78
463.68	11763.53
463.86	11967.16
464.05	11978.86
464.23	11573.95
464.41	12095.89
464.59	11662.89
464.78	12343.99
464.96	11901.62
465.14	11962.48
465.32	12149.72
465.50	11852.47
465.69	12119.29
465.87	12262.07
466.05	12161.42
466.23	12233.98
466.41	12313.56
466.60	12734.85
466.78	12243.34
466.96	12325.26
467.14	12322.92
467.32	12561.66
467.51	12524.21
467.69	12376.75
467.87	12353.35
468.05	12678.68
468.23	12521.87
468.41	12353.35
468.60	12826.14
468.78	12695.07
468.96	12692.73
469.14	13097.64
469.32	13025.08
469.50	12505.48
469.69	13085.94
469.87	13081.25
470.05	13015.72
470.23	13327.01
470.41	13558.72
470.59	13266.16
470.77	13441.70
470.95	13291.90
471.14	13666.39
471.32	12975.93
471.50	13652.34
471.68	13888.74
471.86	13422.97
472.04	13654.69
472.22	14057.26
472.40	13652.34
472.58	13954.27
472.77	14085.34
472.95	14553.45
473.13	14576.86
473.31	14396.64
473.49	14242.16
473.67	14321.74
473.85	14448.13
474.03	14799.21
474.21	14846.02
474.39	14827.29
474.57	14682.18
474.75	15089.43
474.93	14923.26
475.12	15192.42
475.30	14864.74
475.48	15232.21
475.66	15300.08
475.84	15374.98
476.02	15634.78
476.20	15236.89
476.38	15770.53
476.56	15997.56
476.74	15803.30
476.92	15803.30
477.10	15950.75
477.28	16306.51
477.46	16240.98
477.64	16304.17
477.82	16453.97
478.00	16868.24
478.18	16769.94
478.36	16875.26
478.54	17207.62
478.72	17507.21
478.90	17483.80
479.08	17680.41
479.26	18031.49
479.44	17610.19
479.62	18061.91
479.80	18200.01
479.98	18225.75
480.16	18691.52
480.34	18572.15
480.52	18745.35
480.70	18815.57
480.88	18787.48
481.06	18443.42
481.24	18817.91
481.41	19087.07
481.59	19428.79
481.77	19377.30
481.95	19695.61
482.13	19683.91
482.31	19859.45
482.49	20187.12
482.67	20009.24
482.85	20828.43
483.03	20723.10
483.21	20964.18
483.39	21069.50
483.57	21085.89
483.74	21088.23
483.92	21436.97
484.10	21352.71
484.28	21752.94
484.46	22139.13
484.64	22478.50
484.82	21617.19
485.00	22801.50
485.18	22679.79
485.35	22899.80
485.53	23051.94
485.71	22967.68
485.89	23587.92
486.07	23583.24
486.25	23335.14
486.43	23847.72
486.61	24056.03
486.78	24196.46
486.96	24456.26
487.14	25057.78
487.32	24905.64
487.50	24772.23
487.68	25015.65
487.85	25781.00
488.03	25729.51
488.21	26120.38
488.39	25961.22
488.57	26195.28
488.75	26214.00
488.92	26485.50
489.10	26712.53
489.28	27124.47
489.46	27360.86
489.64	27342.14
489.81	27641.73
489.99	28058.34
490.17	27810.25
490.35	28453.89
490.53	28566.24
490.70	28659.86
490.88	28299.42
491.06	28989.88
491.24	28938.38
491.41	29130.31
491.59	29118.60
491.77	29439.26
491.95	29605.44
492.13	30274.83
492.30	30110.99
492.48	30221.00
492.66	30340.36
492.84	30581.44
493.01	30546.33
493.19	30703.15
493.37	31405.31
493.54	31515.31
493.72	31798.52
493.90	31571.49
494.08	31924.91
494.25	31992.78
494.43	32135.56
494.61	32254.92
494.79	32336.84
494.96	32549.83
495.14	33046.02
495.32	33563.28
495.49	33687.33
495.67	33067.09
495.85	33783.29
496.02	33394.76
496.20	34089.90
496.38	34363.75
496.55	34075.86
496.73	34993.35
496.91	34635.25
497.09	34806.11
497.26	35206.34
497.44	34871.64
497.62	35283.58
497.79	35847.64
497.97	35889.77
498.14	35803.17
498.32	36086.38
498.50	36449.16
498.67	37003.87
498.85	36421.08
499.03	36737.05
499.20	36905.57
499.38	37490.70
499.56	37247.29
499.73	37193.45
499.91	37750.50
500.08	37848.80
500.26	37291.76
500.44	37691.99
500.61	37926.04
500.79	38040.73
500.97	38286.48
501.14	38768.63
501.32	38717.14
501.49	38658.63
501.67	38850.55
501.84	39365.47
502.02	39051.84
502.20	39414.62
502.37	39618.25
502.55	39709.53
502.72	39842.94
502.90	39360.79
503.07	40114.44
503.25	39814.85
503.43	39981.03
503.60	40332.11
503.78	40339.13
503.95	40313.39
504.13	40713.62
504.30	40596.59
504.48	40985.12
504.65	40968.74
504.83	41268.33
505.01	41490.68
505.18	41106.83
505.36	41867.50
505.53	41436.84
505.71	41755.16
505.88	41750.48
506.06	41333.86
506.23	41940.06
506.41	42249.01
506.58	42122.62
506.76	42368.38
506.93	42555.62
507.11	42806.06
507.28	43239.06
507.46	43138.41
507.63	43096.28
507.81	43407.58
507.98	42857.55
508.16	43641.63
508.33	43250.76
508.50	43578.43
508.68	44020.80
508.85	44334.43
509.03	43852.28
509.20	44147.18
509.38	44311.02
509.55	44678.49
509.73	44769.77
509.90	45001.48
510.08	45031.91
510.25	44512.31
510.42	44790.83
510.60	44626.99
510.77	45357.24
510.95	45275.32
511.12	45268.30
511.30	45600.66
511.47	45996.21
511.64	45841.73
511.82	46190.47
511.99	45654.49
512.17	46197.49
512.34	46213.88
512.51	46485.38
512.69	46370.69
512.86	46529.85
513.04	46983.91
513.21	46972.21
513.38	47168.82
513.56	47054.13
513.73	46700.71
513.90	47077.54
514.08	47505.85
514.25	47367.76
514.43	47522.24
514.60	47381.80
514.77	47292.86
514.95	48105.03
515.12	47585.43
515.29	47641.60
515.47	48545.05
515.64	48018.43
515.81	47950.56
515.99	48264.19
516.16	48655.06
516.33	48413.98
516.51	49221.47
516.68	48601.22
516.85	49006.14
517.03	49132.53
517.20	49074.01
517.37	48849.32
517.54	49413.39
517.72	49160.61
517.89	48999.12
518.06	49420.41
518.24	49666.17
518.41	49715.32
518.58	49638.08
518.75	49469.56
518.93	49436.80
519.10	49532.76
519.27	50131.93
519.45	50124.91
519.62	49949.37
519.79	50134.28
519.96	50024.27
520.14	50192.79
520.31	50431.52
520.48	51019.00
520.65	50656.21
520.83	50553.23
521.00	51065.81
521.17	50658.56
521.34	50810.69
521.52	50721.75
521.69	50965.17
521.86	51093.89
522.03	51201.56
522.20	51173.47
522.38	51447.32
522.55	51360.72
522.72	51877.97
522.89	51545.62
523.07	51798.40
523.24	51498.81
523.41	51789.03
523.58	51746.90
523.75	51959.89
523.92	52212.67
524.10	52133.09
524.27	52032.45
524.44	52561.41
524.61	52240.76
524.78	52315.65
524.96	52191.61
525.13	52704.18
525.30	52533.32
525.47	52631.63
525.64	52563.75
525.81	52633.97
525.98	52797.80
526.16	52617.58
526.33	52853.98
526.50	53212.08
526.67	53062.29
526.84	53010.79
527.01	53212.08
527.18	52912.49
527.36	53052.92
527.53	53462.52
527.70	53415.71
527.87	53535.07
528.04	53303.36
528.21	53476.56
528.38	53296.34
528.55	53556.14
528.72	53525.71
528.89	53532.73
529.07	53577.20
529.24	53322.08
529.41	53710.61
529.58	53738.70
529.75	53862.75
529.92	53865.09
530.09	54049.99
530.26	54270.00
530.43	54384.69
530.60	53858.07
530.77	53932.96
530.94	54099.14
531.11	54033.61
531.28	54358.94
531.46	54457.24
531.63	54372.99
531.80	54429.16
531.97	54546.18
532.14	54726.41
532.31	54550.87
532.48	54677.25
532.65	54892.58
532.82	54686.62
532.99	55072.81
533.16	54756.83
533.33	55112.59
533.50	55100.89
533.67	54672.57
533.84	54894.92
534.01	55049.40
534.18	54848.11
534.35	55512.83
534.52	55246.00
534.69	55311.54
534.86	55580.70
535.03	55262.39
535.20	55547.93
535.37	55545.59
535.54	55330.26
535.71	55454.31
535.88	55590.06
536.05	55695.39
536.22	55702.41
536.38	55554.96
536.55	55634.53
536.72	55756.24
536.89	55812.41
537.06	55896.67
537.23	55950.51
537.40	55936.46
537.57	56039.45
537.74	56034.77
537.91	56196.26
538.08	55973.91
538.25	55948.17
538.42	55873.27
538.59	56477.13
538.75	56048.81
538.92	56378.82
539.09	56243.07
539.26	56432.66
539.43	56280.52
539.60	56282.86
539.77	56446.70
539.94	56594.15
540.11	56519.26
540.28	56584.79
540.44	56343.72
540.61	56598.83
540.78	56411.59
540.95	56437.34
541.12	56594.15
541.29	56893.74
541.46	56846.93
541.62	56650.33
541.79	56753.31
541.96	56519.26
542.13	56797.78
542.30	56680.75
542.47	57001.41
542.63	57008.43
542.80	56893.74
542.97	57200.35
543.14	57506.96
543.31	57286.95
543.48	57455.47
543.64	57609.95
543.81	57429.72
543.98	57488.24
544.15	57563.14
544.32	57460.15
544.48	57600.58
544.65	57535.05
544.82	57467.17
544.99	57357.17
545.16	57701.23
545.32	57848.68
545.49	57647.39
545.66	57851.02
545.83	57832.30
546.00	57787.83
546.16	57846.34
546.33	57750.38
546.50	57635.69
546.67	57794.85
546.83	57949.32
547.00	57832.30
547.17	58117.84
547.34	57717.61
547.50	58113.16
547.67	58047.63
547.84	58014.86
548.00	58415.09
548.17	58363.60
548.34	58408.07
548.51	58415.09
548.67	58262.96
548.84	58197.42
549.01	58269.98
549.18	58269.98
549.34	57986.77
549.51	58614.04
549.68	58628.08
549.84	58485.31
550.01	58595.31
550.18	58354.24
550.34	58592.97
550.51	58635.10
550.68	58450.20
550.84	58525.10
551.01	58597.65
551.18	58585.95
551.34	58852.77
551.51	58602.33
551.68	58670.21
551.84	58576.59
552.01	58623.40
552.18	58717.02
552.34	58733.40
552.51	58899.58
552.68	58660.85
552.84	58878.52
553.01	59014.27
553.18	58979.16
553.34	59119.59
553.51	58705.32
553.67	58972.14
553.84	58939.37
554.01	58948.73
554.17	59044.69
554.34	59023.63
554.51	59222.58
554.67	59124.27
554.84	59150.02
555.00	59168.74
555.17	59175.76
555.33	59341.94
555.50	59196.83
555.67	59313.86
555.83	59194.49
556.00	59119.59
556.16	59426.20
556.33	59533.87
556.50	59348.96
556.66	59440.24
556.83	59297.47
556.99	59576.00
557.16	59557.27
557.32	59597.06
557.49	59732.81
557.65	59379.39
557.82	59358.33
557.98	59377.05
558.15	59409.82
558.32	59585.36
558.48	59348.96
558.65	59749.20
558.81	59601.74
558.98	59751.54
559.14	59929.42
559.31	59662.60
559.47	59868.56
559.64	59796.01
559.80	59994.95
559.97	60088.57
560.13	59700.04
560.30	60011.34
560.46	59987.93
560.63	59891.97
560.79	60032.40
560.96	60193.90
561.12	60074.53
561.29	59915.37
561.45	60041.76
561.61	60163.47
561.78	60062.83
561.94	60079.21
562.11	60044.10
562.27	59994.95
562.44	60088.57
562.60	60219.64
562.77	60095.60
562.93	59987.93
563.10	60149.43
563.26	60219.64
563.42	60142.41
563.59	60168.15
563.75	60161.13
563.92	60413.91
564.08	60203.26
564.24	60275.82
564.41	60339.01
564.57	60259.43
564.74	60100.28
564.90	60083.89
565.07	60264.11
565.23	60065.17
565.39	60317.95
565.56	60362.42
565.72	60062.83
565.88	60390.50
566.05	60151.77
566.21	60395.18
566.38	60491.15
566.54	60575.40
566.70	60493.49
566.87	60388.16
567.03	60229.01
567.19	60622.22
567.36	60362.42
567.52	60507.53
567.68	60603.49
567.85	60465.40
568.01	60299.22
568.17	60161.13
568.34	60516.89
568.50	60367.10
568.66	60535.62
568.83	60537.96
568.99	60612.85
569.15	60570.72
569.32	60416.25
569.48	60491.15
569.64	60580.09
569.81	60741.58
569.97	60573.06
570.13	60739.24
570.30	60271.14
570.46	60622.22
570.62	60741.58
570.78	60701.79
570.95	60783.71
571.11	60823.50
571.27	60488.80
571.43	60589.45
571.60	60626.90
571.76	60610.51
571.92	60804.78
572.09	60645.62
572.25	60729.88
572.41	60605.83
572.57	60811.80
572.74	60743.92
572.90	60900.74
573.06	60795.42
573.22	60673.71
573.38	60788.39
573.55	60856.27
573.71	60963.93
573.87	60699.45
574.03	60706.47
574.20	60718.18
574.36	60640.94
574.52	60764.99
574.68	60977.98
574.84	60970.96
575.01	60769.67
575.17	60715.84
575.33	60830.52
575.49	60542.64
575.65	61057.56
575.82	61078.62
575.98	61050.53
576.14	61261.18
576.30	61076.28
576.46	60704.13
576.62	60804.78
576.79	60842.23
576.95	60776.69
577.11	60977.98
577.27	60989.68
577.43	60647.96
577.59	60802.44
577.75	61048.19
577.92	60912.44
578.08	60816.48
578.24	60968.61
578.40	60954.57
578.56	61153.52
578.72	60907.76
578.88	60992.02
579.04	61097.34
579.21	61085.64
579.37	61118.41
579.53	61144.16
579.69	60863.29
579.85	60931.17
580.01	61024.79
580.17	60956.91
580.33	61092.66
580.49	61050.53
580.65	61027.13
580.82	60919.46
580.98	60757.97
581.14	60874.99
581.30	61123.09
581.46	61003.72
581.62	60982.66
581.78	60996.70
581.94	61139.47
582.10	61097.34
582.26	60985.00
582.42	61102.03
582.58	61172.24
582.74	60996.70
582.90	60898.40
583.06	60963.93
583.22	60825.84
583.38	61043.51
583.54	61109.05
583.70	61139.47
583.86	61078.62
584.02	60987.34
584.18	61118.41
584.34	61200.33
584.50	60977.98
584.66	61041.17
584.82	61003.72
584.98	61223.73
585.14	61099.68
585.30	61010.74
585.46	61165.22
585.62	60994.36
585.78	61298.63
585.94	61291.61
586.10	61212.03
586.26	61073.94
586.42	61324.38
586.58	61214.37
586.74	61256.50
586.90	61329.06
587.06	61127.77
587.22	61261.18
587.38	61202.67
587.54	61066.92
587.70	61591.20
587.86	61380.55
588.02	60828.18
588.18	61284.59
588.34	61207.35
