SpectraSuite Data File
++++++++++++++++++++++++++++++++++++
Date: Fri Oct 25 11:33:34 EDT 2013
User: price-jones
Dark Spectrum Present: No
Reference Spectrum Present: No
Number of Sampled Component Spectra: 1
Spectrometers: USB2+H05261
Integration Time (usec): 100000 (USB2+H05261)
Spectra Averaged: 1 (USB2+H05261)
Boxcar Smoothing: 0 (USB2+H05261)
Correct for Electrical Dark: No (USB2+H05261)
Strobe/Lamp Enabled: No (USB2+H05261)
Correct for Detector Non-linearity: No (USB2+H05261)
Correct for Stray Light: No (USB2+H05261)
Number of Pixels in Processed Spectrum: 2048
>>>>>Begin Processed Spectral Data<<<<<
365.73	287.89
365.92	287.89
366.12	287.89
366.32	175.54
366.52	248.10
366.72	175.54
366.91	189.58
367.11	124.05
367.31	152.13
367.51	210.65
367.70	138.09
367.90	189.58
368.10	154.48
368.30	161.50
368.49	175.54
368.69	215.33
368.89	170.86
369.09	208.31
369.28	173.20
369.48	184.90
369.68	194.26
369.87	248.10
370.07	231.71
370.27	322.99
370.47	334.70
370.66	491.51
370.86	468.11
371.06	589.82
371.25	622.58
371.45	610.88
371.65	592.16
371.84	510.24
372.04	554.71
372.24	493.85
372.44	557.05
372.63	582.79
372.83	629.60
373.03	622.58
373.22	613.22
373.42	613.22
373.62	706.84
373.81	561.73
374.01	643.65
374.21	648.33
374.40	662.37
374.60	645.99
374.79	692.80
374.99	636.63
375.19	606.20
375.38	681.10
375.58	657.69
375.78	671.73
375.97	653.01
376.17	683.44
376.37	685.78
376.56	667.05
376.76	669.39
376.95	638.97
377.15	669.39
377.35	716.20
377.54	725.57
377.74	657.69
377.93	641.31
378.13	739.61
378.33	755.99
378.52	697.48
378.72	727.91
378.91	732.59
379.11	699.82
379.31	763.01
379.50	690.46
379.70	746.63
379.89	720.88
380.09	763.01
380.28	732.59
380.48	709.18
380.68	692.80
380.87	650.67
381.07	709.18
381.26	842.59
381.46	779.40
381.65	779.40
381.85	748.97
382.04	795.78
382.24	751.31
382.43	767.70
382.63	770.04
382.83	709.18
383.02	858.98
383.22	873.02
383.41	793.44
383.61	802.80
383.80	851.96
384.00	772.38
384.19	858.98
384.39	821.53
384.58	781.74
384.78	826.21
384.97	823.87
385.17	851.96
385.36	812.17
385.56	828.55
385.75	854.30
385.95	903.45
386.14	880.04
386.34	842.59
386.53	823.87
386.72	889.40
386.92	894.08
387.11	877.70
387.31	863.66
387.50	866.00
387.70	858.98
387.89	919.83
388.09	858.98
388.28	924.51
388.48	926.85
388.67	924.51
388.86	983.02
389.06	945.58
389.25	896.43
389.45	898.77
389.64	926.85
389.84	994.73
390.03	1004.09
390.22	945.58
390.42	947.92
390.61	959.62
390.81	908.13
391.00	997.07
391.19	992.39
391.39	1011.11
391.58	1008.77
391.78	945.58
391.97	1027.50
392.16	1036.86
392.36	1076.65
392.55	992.39
392.75	1062.60
392.94	1050.90
393.13	1071.97
393.33	1004.09
393.52	1081.33
393.71	1062.60
393.91	1062.60
394.10	1121.12
394.29	1093.03
394.49	1121.12
394.68	1151.54
394.88	1090.69
395.07	1130.48
395.26	1172.61
395.46	1144.52
395.65	1252.19
395.84	1203.04
396.04	1198.35
396.23	1156.22
396.42	1245.16
396.62	1240.48
396.81	1151.54
397.00	1214.74
397.19	1167.93
397.39	1193.67
397.58	1224.10
397.77	1226.44
397.97	1287.29
398.16	1268.57
398.35	1221.76
398.55	1167.93
398.74	1303.68
398.93	1343.47
399.12	1231.12
399.32	1322.40
399.51	1280.27
399.70	1301.34
399.90	1273.25
400.09	1385.60
400.28	1416.02
400.47	1371.55
400.67	1509.65
400.86	1409.00
401.05	1336.45
401.24	1380.92
401.44	1453.47
401.63	1537.73
401.82	1458.15
402.01	1434.75
402.21	1495.60
402.40	1455.81
402.59	1509.65
402.78	1409.00
402.97	1495.60
403.17	1516.67
403.36	1593.90
403.55	1586.88
403.74	1530.71
403.93	1591.56
404.13	1544.75
404.32	1607.95
404.51	1575.18
404.70	1724.97
404.89	1619.65
405.09	1748.38
405.28	1722.63
405.47	1685.19
405.66	1666.46
405.85	1760.08
406.05	1727.32
406.24	1825.62
406.43	1748.38
406.62	1844.34
406.81	1764.76
407.00	1703.91
407.20	1825.62
407.39	1797.53
407.58	1755.40
407.77	1762.42
407.96	1863.07
408.15	1858.39
408.34	1795.19
408.54	1952.01
408.73	1940.30
408.92	1827.96
409.11	1902.86
409.30	1940.30
409.49	1900.52
409.68	2057.33
409.87	1935.62
410.07	2026.90
410.26	2078.40
410.45	2019.88
410.64	2223.51
410.83	1980.09
411.02	2076.06
411.21	2157.97
411.40	2101.80
411.59	2172.02
411.78	2108.82
411.98	2155.63
412.17	2153.29
412.36	2200.10
412.55	2356.92
412.74	2352.24
412.93	2225.85
413.12	2193.08
413.31	2459.90
413.50	2319.47
413.69	2382.67
413.88	2417.77
414.07	2445.86
414.26	2389.69
414.45	2480.97
414.64	2560.55
414.83	2612.04
415.02	2558.21
415.22	2597.99
415.41	2628.42
415.60	2572.25
415.79	2736.09
415.98	2656.51
416.17	2768.85
416.36	2738.43
416.55	2825.03
416.74	2782.90
416.93	2818.00
417.12	2803.96
417.31	2775.88
417.50	2782.90
417.69	3038.02
417.88	3009.93
418.07	2939.71
418.26	3012.27
418.45	3019.29
418.64	3056.74
418.83	3173.77
419.02	3136.32
419.21	3045.04
419.39	2998.23
419.58	3040.36
419.77	3126.96
419.96	3159.72
420.15	3187.81
420.34	3082.49
420.53	3218.24
420.72	3164.40
420.91	3204.19
421.10	3243.98
421.29	3307.18
421.48	3218.24
421.67	3342.28
421.86	3190.15
422.05	3368.03
422.24	3253.34
422.43	3307.18
422.61	3339.94
422.80	3398.46
422.99	3321.22
423.18	3323.56
423.37	3410.16
423.56	3494.42
423.75	3461.65
423.94	3386.76
424.13	3192.49
424.32	3180.79
424.50	3456.97
424.69	3442.93
424.88	3449.95
425.07	3372.71
425.26	3386.76
425.45	3454.63
425.64	3391.44
425.83	3375.05
426.01	3524.85
426.20	3421.86
426.39	3487.40
426.58	3499.10
426.77	3377.39
426.96	3559.95
427.15	3466.33
427.33	3545.91
427.52	3485.06
427.71	3576.34
427.90	3630.17
428.09	3676.98
428.28	3623.15
428.46	3688.68
428.65	3686.34
428.84	3700.39
429.03	3789.33
429.22	3620.81
429.40	3770.60
429.59	3721.45
429.78	3712.09
429.97	3494.42
430.16	3700.39
430.34	3789.33
430.53	3859.54
430.72	3843.16
430.91	3826.78
431.10	3857.20
431.28	3911.04
431.47	4124.02
431.66	4018.70
431.85	3957.85
432.03	3953.16
432.22	4119.34
432.41	4142.75
432.60	4014.02
432.79	3995.29
432.97	4035.08
433.16	4100.62
433.35	4117.00
433.54	4189.56
433.72	4194.24
433.91	4285.52
434.10	4187.22
434.28	4203.60
434.47	4355.74
434.66	4252.75
434.85	4245.73
435.03	4271.48
435.22	4367.44
435.41	4477.44
435.59	4432.97
435.78	4423.61
435.97	4489.15
436.16	4367.44
436.34	4503.19
436.53	4376.80
436.72	4699.80
436.90	4362.76
437.09	4390.84
437.28	4421.27
437.46	4444.68
437.65	4531.28
437.84	4559.36
438.02	4568.73
438.21	4533.62
438.40	4580.43
438.58	4739.58
438.77	4762.99
438.96	4723.20
439.14	4894.06
439.33	4870.65
439.52	4936.19
439.70	4856.61
439.89	5018.11
440.08	5048.54
440.26	4821.50
440.45	5114.07
440.63	5104.71
440.82	5090.67
441.01	5107.05
441.19	5231.10
441.38	5221.74
441.57	5217.05
441.75	5324.72
441.94	5320.04
442.12	5416.00
442.31	5411.32
442.50	5324.72
442.68	5373.87
442.87	5502.60
443.05	5411.32
443.24	5537.71
443.43	5430.04
443.61	5584.52
443.80	5643.03
443.98	5467.49
444.17	5334.08
444.35	5720.27
444.54	5685.16
444.73	5664.10
444.91	5790.49
445.10	5596.22
445.28	5638.35
445.47	5497.92
445.65	5685.16
445.84	5844.32
446.02	5813.89
446.21	5734.31
446.39	5673.46
446.58	5703.89
446.77	5741.33
446.95	5657.07
447.14	5738.99
447.32	5755.38
447.51	5738.99
447.69	5757.72
447.88	5884.11
448.06	5813.89
448.25	5771.76
448.43	5820.91
448.62	5788.14
448.80	5748.36
448.99	5809.21
449.17	5898.15
449.36	5916.87
449.54	6101.78
449.73	5998.79
449.91	6078.37
450.10	6033.90
450.28	6113.48
450.46	6256.25
450.65	6272.64
450.83	6083.05
451.02	6237.53
451.20	6291.36
451.39	6305.40
451.57	6244.55
451.76	6076.03
451.94	6171.99
452.13	6167.31
452.31	6146.25
452.49	6094.76
452.68	6260.93
452.86	6251.57
453.05	6394.34
453.23	6469.24
453.42	6286.68
453.60	6497.33
453.78	6565.20
453.97	6277.32
454.15	6537.12
454.34	6382.64
454.52	6537.12
454.70	6553.50
454.89	6623.72
455.07	6604.99
455.26	6490.31
455.44	6642.44
455.62	6590.95
455.81	6679.89
455.99	6616.69
456.17	6686.91
456.36	6775.85
456.54	6897.56
456.73	7030.97
456.91	6984.16
457.09	6918.62
457.28	7061.40
457.46	7014.59
457.64	6991.18
457.83	7002.88
458.01	7110.55
458.19	7227.57
458.38	7332.90
458.56	7140.97
458.74	7183.10
458.93	7056.72
459.11	7176.08
459.29	7276.73
459.48	7211.19
459.66	7211.19
459.84	7386.73
460.03	7337.58
460.21	7442.90
460.39	7353.96
460.57	7468.65
460.76	7421.84
460.94	7438.22
461.12	7258.00
461.31	7564.61
461.49	7447.58
461.67	7370.35
461.85	7801.01
462.04	7716.75
462.22	8077.19
462.40	7714.41
462.59	7709.72
462.77	7679.30
462.95	7744.83
463.13	7786.96
463.32	7740.15
463.50	7857.18
463.68	8011.65
463.86	7903.99
464.05	7946.12
464.23	8013.99
464.41	8023.36
464.59	7702.70
464.78	8149.75
464.96	8138.04
465.14	7812.71
465.32	8145.06
465.50	8121.66
465.69	8131.02
465.87	7988.25
466.05	8070.17
466.23	7995.27
466.41	7988.25
466.60	8226.98
466.78	7988.25
466.96	8229.32
467.14	8173.15
467.32	8358.05
467.51	8301.88
467.69	8191.88
467.87	8238.69
468.05	8386.14
468.23	8430.61
468.41	8294.86
468.60	8290.18
468.78	8528.91
468.96	8269.11
469.14	8526.57
469.32	8575.72
469.50	8222.30
469.69	8589.77
469.87	8674.03
470.05	8617.85
470.23	8800.41
470.41	8847.22
470.59	8987.66
470.77	8774.67
470.95	8753.60
471.14	8898.72
471.32	8781.69
471.50	9027.45
471.68	8933.82
471.86	8954.89
472.04	9055.53
472.22	9397.25
472.40	9411.29
472.58	9254.48
472.77	9338.74
472.95	9415.98
473.13	9666.41
473.31	9310.65
473.49	9490.87
473.67	9392.57
473.85	9708.54
474.03	9614.92
474.21	9795.14
474.39	9830.25
474.57	9720.24
474.75	9713.22
474.93	9977.70
475.12	9767.06
475.30	9818.55
475.48	9996.43
475.66	10303.04
475.84	10083.03
476.02	10244.52
476.20	9958.98
476.38	10558.16
476.56	10698.59
476.74	10604.97
476.92	10588.58
477.10	10497.30
477.28	10640.08
477.46	10890.51
477.64	10944.34
477.82	11005.20
478.00	11281.38
478.18	11023.92
478.36	11089.46
478.54	11456.92
478.72	11297.77
478.90	11499.05
479.08	11667.57
479.26	11550.54
479.44	11660.55
479.62	11779.92
479.80	11826.73
479.98	12028.01
480.16	12018.65
480.34	11960.14
480.52	12023.33
480.70	12592.08
480.88	12077.16
481.06	12430.59
481.24	12627.19
481.41	12472.71
481.59	12713.79
481.77	12819.11
481.95	13057.85
482.13	12982.95
482.31	12844.86
482.49	13193.60
482.67	13179.56
482.85	13614.90
483.03	13390.20
483.21	13406.59
483.39	13867.67
483.57	13572.77
483.74	13865.33
483.92	14026.83
484.10	14029.17
484.28	14237.48
484.46	14558.13
484.64	14665.80
484.82	14221.10
485.00	14747.72
485.18	14979.43
485.35	15119.86
485.53	14963.04
485.71	15117.52
485.89	15510.73
486.07	15475.62
486.25	15515.41
486.43	15613.71
486.61	15646.48
486.78	15730.74
486.96	15721.38
487.14	16020.97
487.32	16163.74
487.50	16285.45
487.68	16336.94
487.85	16622.48
488.03	16870.58
488.21	16964.20
488.39	17341.03
488.57	17174.85
488.75	17125.70
488.92	17689.77
489.10	17603.17
489.28	17921.48
489.46	17949.57
489.64	17724.88
489.81	18047.87
489.99	17860.63
490.17	18038.51
490.35	18569.81
490.53	18394.27
490.70	18757.05
490.88	18633.00
491.06	18801.52
491.24	19098.77
491.41	18913.87
491.59	19145.58
491.77	19278.99
491.95	19426.45
492.13	19667.52
492.30	19545.81
492.48	19786.89
492.66	19761.14
492.84	19985.83
493.01	20170.74
493.19	20072.43
493.37	20365.00
493.54	20229.25
493.72	20514.80
493.90	20512.46
494.08	20826.09
494.25	20849.49
494.43	20896.30
494.61	21359.73
494.79	21296.53
494.96	21039.08
495.14	21420.58
495.32	21628.89
495.49	21769.32
495.67	21816.13
495.85	22057.21
496.02	22108.70
496.20	22295.94
496.38	22314.67
496.55	22398.93
496.73	23168.96
496.91	22679.79
497.09	23014.49
497.26	22834.27
497.44	23049.60
497.62	23110.45
497.79	23461.53
497.97	23276.63
498.14	23601.96
498.32	23468.55
498.50	23583.24
498.67	23946.02
498.85	23756.44
499.03	23903.89
499.20	23871.12
499.38	24369.66
499.56	24023.26
499.73	24386.04
499.91	24519.45
500.08	24807.34
500.26	24215.18
500.44	24767.55
500.61	24968.84
500.79	24503.07
500.97	25050.75
501.14	25355.02
501.32	25518.86
501.49	25406.52
501.67	25111.61
501.84	25584.40
502.02	25577.37
502.20	25486.09
502.37	25591.42
502.55	25942.50
502.72	25839.51
502.90	26115.70
503.07	25989.31
503.25	26026.76
503.43	26089.95
503.60	26354.43
503.78	26614.23
503.95	26361.45
504.13	26649.34
504.30	26518.27
504.48	26331.03
504.65	26731.26
504.83	26766.37
505.01	27063.61
505.18	26813.18
505.36	27201.71
505.53	27051.91
505.71	27304.69
505.88	27264.90
506.06	27288.31
506.23	27508.32
506.41	27435.76
506.58	27669.81
506.76	27700.24
506.93	28149.62
507.11	27772.80
507.28	27917.91
507.46	28704.33
507.63	28027.92
507.81	28477.30
507.98	28154.30
508.16	28222.18
508.33	28386.02
508.50	28762.84
508.68	28767.52
508.85	29207.55
509.03	28814.34
509.20	28905.62
509.38	29303.51
509.55	28999.24
509.73	29249.67
509.90	29479.05
510.08	29635.86
510.25	29380.74
510.42	29572.67
510.60	29682.67
510.77	29612.46
510.95	30242.06
511.12	29696.72
511.30	30050.14
511.47	30134.40
511.64	30143.76
511.82	30504.20
511.99	30354.41
512.17	30501.86
512.34	30394.20
512.51	30534.63
512.69	30937.20
512.86	30679.74
513.04	31072.95
513.21	31007.42
513.38	31512.97
513.56	30778.04
513.73	31103.38
513.90	31283.60
514.08	30782.73
514.25	31417.01
514.43	31297.64
514.60	31564.46
514.77	31672.13
514.95	31665.11
515.12	31740.00
515.29	31456.80
515.47	32020.87
515.64	31906.18
515.81	31924.91
515.99	32011.51
516.16	32418.76
516.33	32755.80
516.51	32657.49
516.68	32334.50
516.85	32566.21
517.03	32615.37
517.20	32496.00
517.37	32858.78
517.54	32608.34
517.72	32978.15
517.89	32943.04
518.06	32840.06
518.24	33397.10
518.41	32856.44
518.58	33287.10
518.75	33170.07
518.93	33476.68
519.10	33322.21
519.27	33331.57
519.45	33406.47
519.62	33773.93
519.79	33635.84
519.96	33708.40
520.14	34117.99
520.31	33359.66
520.48	34139.05
520.65	33771.59
520.83	34361.40
521.00	34452.69
521.17	34094.58
521.34	34443.32
521.52	34298.21
521.69	34511.20
521.86	34518.22
522.03	34419.92
522.20	34756.96
522.38	35026.12
522.55	34792.06
522.72	35037.82
522.89	35072.93
523.07	35562.10
523.24	35283.58
523.41	35098.67
523.58	34829.51
523.75	35569.12
523.92	35470.82
524.10	35728.28
524.27	35358.47
524.44	35526.99
524.61	35388.90
524.78	35529.33
524.96	36170.64
525.13	35665.08
525.30	36034.89
525.47	36135.53
525.64	35782.11
525.81	36030.21
525.98	36594.28
526.16	36336.82
526.33	36184.68
526.50	36222.13
526.67	36746.41
526.84	36842.37
527.01	36432.78
527.18	36573.21
527.36	36648.11
527.53	36561.51
527.70	37015.57
527.87	37261.33
528.04	37251.97
528.21	36865.78
528.38	36811.95
528.55	37242.60
528.72	37085.79
528.89	37378.36
529.07	37474.32
529.24	37418.14
529.41	37518.79
529.58	37046.00
529.75	37532.83
529.92	37474.32
530.09	37502.40
530.26	37914.34
530.43	37801.99
530.60	37495.38
530.77	37563.26
530.94	38007.96
531.11	37965.83
531.28	37759.86
531.46	37949.45
531.63	37846.46
531.80	37933.06
531.97	38377.76
532.14	38651.61
532.31	38356.70
532.48	38251.38
532.65	38583.73
532.82	38457.34
532.99	38604.80
533.16	38616.50
533.33	38773.31
533.50	38714.80
533.67	38941.83
533.84	38450.32
534.01	38801.40
534.18	39093.97
534.35	39110.35
534.52	38899.70
534.69	39377.17
534.86	39569.10
535.03	38778.00
535.20	39557.39
535.37	39044.82
535.54	39475.48
535.71	39086.95
535.88	39690.80
536.05	39974.01
536.22	39859.32
536.38	39709.53
536.55	39431.01
536.72	39227.38
536.89	39681.44
537.06	39997.41
537.23	40385.94
537.40	39772.72
537.57	40044.23
537.74	39992.73
537.91	40060.61
538.08	39793.79
538.25	39966.99
538.42	40374.24
538.59	40306.37
538.75	40002.10
538.92	40477.22
539.09	40435.10
539.26	40273.60
539.43	40289.98
539.60	40575.53
539.77	40086.36
539.94	40772.13
540.11	40559.14
540.28	40622.34
540.44	40624.68
540.61	40739.36
540.78	40334.45
540.95	41024.91
541.12	40554.46
541.29	40957.03
541.46	40903.20
541.62	41146.62
541.79	41500.04
541.96	40329.77
542.13	41486.00
542.30	41116.19
542.47	41265.99
542.63	41439.18
542.80	41249.60
542.97	41467.27
543.14	41687.28
543.31	41785.58
543.48	41727.07
543.64	42576.69
543.81	42199.86
543.98	41989.21
544.15	41633.45
544.32	42204.54
544.48	42237.31
544.65	42279.44
544.82	42014.96
544.99	41851.12
545.16	41851.12
545.32	42305.18
545.49	42572.00
545.66	42967.55
545.83	42426.89
546.00	42527.53
546.16	42756.91
546.33	42440.93
546.50	42131.98
546.67	42834.14
546.83	42026.66
547.00	42506.47
547.17	42373.06
547.34	42370.72
547.50	43002.66
547.67	43079.90
547.84	42876.27
548.00	43461.41
548.17	43580.78
548.34	43093.94
548.51	43470.77
548.67	43339.70
548.84	43157.14
549.01	42852.87
549.18	43110.33
549.34	42995.64
549.51	43510.56
549.68	43313.95
549.84	43442.68
550.01	44044.20
550.18	43585.46
550.34	43220.33
550.51	44027.82
550.68	43395.87
550.84	43503.54
551.01	43714.19
551.18	43501.20
551.34	43346.72
551.51	43800.79
551.68	43414.60
551.84	43901.43
552.01	43555.03
552.18	43515.24
552.34	43924.83
552.51	43868.66
552.68	43927.17
552.84	44198.68
553.01	44390.60
553.18	43711.84
553.34	43875.68
553.51	44093.35
553.67	43992.71
553.84	44250.17
554.01	44416.35
554.17	44493.58
554.34	44435.07
554.51	44081.65
554.67	44793.17
554.84	44189.31
555.00	44428.05
555.17	44648.06
555.33	44893.82
555.50	44720.62
555.67	44439.75
555.83	44914.88
556.00	44582.52
556.16	45289.37
556.33	44847.00
556.50	44954.67
556.66	44849.35
556.83	44861.05
556.99	44638.70
557.16	45338.52
557.32	45448.52
557.49	45226.17
557.65	44886.79
557.82	45081.06
557.98	45191.06
558.15	44996.80
558.32	45162.98
558.48	44765.09
558.65	45067.02
558.81	45127.87
558.98	45062.33
559.14	45092.76
559.31	45146.59
559.47	45294.05
559.64	45544.48
559.80	45322.13
559.97	45448.52
560.13	45240.21
560.30	45371.28
560.46	45647.47
560.63	45621.72
560.79	45764.49
560.96	45801.94
561.12	45811.31
561.29	45787.90
561.45	45684.92
561.61	45605.34
561.78	45640.45
561.94	45439.16
562.11	45610.02
562.27	45677.90
562.44	45097.44
562.60	46068.76
562.77	45815.99
562.93	45638.11
563.10	45790.24
563.26	45691.94
563.42	45909.61
563.59	45595.98
563.75	45530.44
563.92	45977.48
564.08	45813.65
564.24	46216.22
564.41	45935.35
564.57	46298.14
564.74	46623.47
564.90	45764.49
565.07	45722.37
565.23	46052.38
565.39	46256.01
565.56	45874.50
565.72	46089.83
565.88	46148.34
566.05	46211.54
566.21	46155.36
566.38	46263.03
566.54	46443.25
566.70	46110.89
566.87	46169.41
567.03	46443.25
567.19	46487.72
567.36	46157.70
567.52	46440.91
567.68	46330.90
567.85	46674.96
568.01	46410.48
568.17	46583.68
568.34	46361.33
568.50	46623.47
568.66	46113.23
568.83	46494.74
568.99	46541.55
569.15	46621.13
569.32	46567.30
569.48	46028.98
569.64	46745.18
569.81	46742.84
569.97	46583.68
570.13	46740.50
570.30	46419.84
570.46	46747.52
570.62	46583.68
570.78	46672.62
570.95	46745.18
571.11	46740.50
571.27	46810.71
571.43	46550.91
571.60	46843.48
571.76	46408.14
571.92	46384.74
572.09	46747.52
572.25	46433.89
572.41	46548.57
572.57	46536.87
572.74	47147.75
572.90	46731.14
573.06	46791.99
573.22	46714.75
573.38	47089.24
573.55	46878.59
573.71	47449.68
573.87	47372.44
574.03	46731.14
574.20	47283.50
574.36	47253.08
574.52	47021.36
574.68	46934.76
574.84	47012.00
575.01	47180.52
575.17	47196.90
575.33	47016.68
575.49	46918.38
575.65	47295.21
575.82	47129.03
575.98	46686.67
576.14	47377.12
576.30	47157.11
576.46	46995.62
576.62	46969.87
576.79	47210.95
576.95	46894.97
577.11	46600.07
577.27	47278.82
577.43	46733.48
577.59	47388.83
577.75	47012.00
577.92	46424.53
578.08	47012.00
578.24	46995.62
578.40	47234.35
578.56	47423.93
578.72	46902.00
578.88	46927.74
579.04	47014.34
579.21	47089.24
579.37	47117.32
579.53	47302.23
579.69	46579.00
579.85	46848.16
580.01	47082.22
580.17	47023.70
580.33	47281.16
580.49	47325.63
580.65	47351.38
580.82	47239.03
580.98	46784.97
581.14	46880.93
581.30	47342.02
581.46	47047.11
581.62	47152.43
581.78	46946.47
581.94	47353.72
582.10	47351.38
582.26	47295.21
582.42	47220.31
582.58	47468.40
582.74	47552.66
582.90	47269.46
583.06	47524.58
583.22	46789.65
583.38	47569.05
583.54	47185.20
583.70	47674.37
583.86	47267.12
584.02	47103.28
584.18	47723.52
584.34	47508.19
584.50	47550.32
584.66	47562.03
584.82	47173.50
584.98	47484.79
585.14	47732.89
585.30	47648.63
585.46	47241.37
585.62	47320.95
585.78	47388.83
585.94	47126.69
586.10	47241.37
586.26	47070.51
586.42	47042.43
586.58	47608.84
586.74	47267.12
586.90	47409.89
587.06	47248.39
587.22	47182.86
587.38	47269.46
587.54	47660.33
587.70	47599.47
587.86	47608.84
588.02	47519.90
588.18	47351.38
588.34	47358.40
588.49	47578.41
588.65	47290.52
588.81	47370.10
588.97	47536.28
589.13	47391.17
589.29	47611.18
589.45	47845.23
589.61	47679.05
589.77	47899.06
589.93	47510.53
590.08	48121.41
