SpectraSuite Data File
++++++++++++++++++++++++++++++++++++
Date: Fri Oct 25 11:33:48 EDT 2013
User: price-jones
Dark Spectrum Present: No
Reference Spectrum Present: No
Number of Sampled Component Spectra: 1
Spectrometers: USB2+H05261
Integration Time (usec): 100000 (USB2+H05261)
Spectra Averaged: 1 (USB2+H05261)
Boxcar Smoothing: 0 (USB2+H05261)
Correct for Electrical Dark: No (USB2+H05261)
Strobe/Lamp Enabled: No (USB2+H05261)
Correct for Detector Non-linearity: No (USB2+H05261)
Correct for Stray Light: No (USB2+H05261)
Number of Pixels in Processed Spectrum: 2048
>>>>>Begin Processed Spectral Data<<<<<
365.73	301.93
365.92	301.93
366.12	301.93
366.32	159.16
366.52	163.84
366.72	189.58
366.91	149.79
367.11	196.60
367.31	131.07
367.51	95.96
367.70	159.16
367.90	191.92
368.10	234.05
368.30	227.03
368.49	177.88
368.69	217.67
368.89	227.03
369.09	182.56
369.28	196.60
369.48	147.45
369.68	198.95
369.87	290.23
370.07	208.31
370.27	252.78
370.47	379.17
370.66	505.56
370.86	545.34
371.06	575.77
371.25	456.40
371.45	535.98
371.65	641.31
371.84	543.00
372.04	566.41
372.24	617.90
372.44	615.56
372.63	554.71
372.83	592.16
373.03	657.69
373.22	629.60
373.42	582.79
373.62	582.79
373.81	557.05
374.01	660.03
374.21	596.84
374.40	657.69
374.60	657.69
374.79	615.56
374.99	669.39
375.19	653.01
375.38	676.41
375.58	650.67
375.78	688.12
375.97	678.76
376.17	674.07
376.37	685.78
376.56	732.59
376.76	582.79
376.95	653.01
377.15	587.47
377.35	690.46
377.54	603.86
377.74	667.05
377.93	669.39
378.13	688.12
378.33	753.65
378.52	711.52
378.72	770.04
378.91	702.16
379.11	599.18
379.31	613.22
379.50	697.48
379.70	753.65
379.89	746.63
380.09	732.59
380.28	746.63
380.48	720.88
380.68	706.84
380.87	667.05
381.07	734.93
381.26	882.38
381.46	779.40
381.65	788.76
381.85	704.50
382.04	767.70
382.24	730.25
382.43	781.74
382.63	692.80
382.83	779.40
383.02	840.25
383.22	800.46
383.41	788.76
383.61	814.51
383.80	770.04
384.00	814.51
384.19	791.10
384.39	767.70
384.58	767.70
384.78	718.54
384.97	812.17
385.17	889.40
385.36	910.47
385.56	858.98
385.75	734.93
385.95	795.78
386.14	870.68
386.34	891.74
386.53	947.92
386.72	849.61
386.92	819.19
387.11	919.83
387.31	868.34
387.50	898.77
387.70	908.13
387.89	877.70
388.09	912.81
388.28	936.21
388.48	961.96
388.67	903.45
388.86	999.41
389.06	954.94
389.25	940.90
389.45	994.73
389.64	933.87
389.84	1015.79
390.03	1015.79
390.22	952.60
390.42	947.92
390.61	938.55
390.81	990.05
391.00	1006.43
391.19	987.71
391.39	933.87
391.58	1036.86
391.78	947.92
391.97	1008.77
392.16	1008.77
392.36	1067.28
392.55	1128.14
392.75	1071.97
392.94	1078.99
393.13	1043.88
393.33	1081.33
393.52	1179.63
393.71	1102.39
393.91	1088.35
394.10	1057.92
394.29	1191.33
394.49	1160.91
394.68	1088.35
394.88	1200.69
395.07	1097.71
395.26	1221.76
395.46	1149.20
395.65	1121.12
395.84	1132.82
396.04	1233.46
396.23	1207.72
396.42	1268.57
396.62	1221.76
396.81	1252.19
397.00	1212.40
397.19	1205.38
397.39	1263.89
397.58	1205.38
397.77	1296.66
397.97	1317.72
398.16	1263.89
398.35	1280.27
398.55	1256.87
398.74	1228.78
398.93	1355.17
399.12	1289.64
399.32	1299.00
399.51	1334.11
399.70	1451.13
399.90	1390.28
400.09	1394.96
400.28	1423.05
400.47	1399.64
400.67	1394.96
400.86	1427.73
401.05	1416.02
401.24	1448.79
401.44	1406.66
401.63	1481.56
401.82	1411.34
402.01	1460.49
402.21	1481.56
402.40	1535.39
402.59	1439.43
402.78	1479.22
402.97	1526.03
403.17	1565.82
403.36	1519.01
403.55	1629.01
403.74	1582.20
403.93	1661.78
404.13	1535.39
404.32	1586.88
404.51	1526.03
404.70	1605.61
404.89	1689.87
405.09	1554.12
405.28	1659.44
405.47	1694.55
405.66	1750.72
405.85	1799.87
406.05	1675.82
406.24	1741.36
406.43	1741.36
406.62	1886.47
406.81	1820.94
407.00	1741.36
407.20	1842.00
407.39	1657.10
407.58	1809.23
407.77	1827.96
407.96	1907.54
408.15	1823.28
408.34	1912.22
408.54	1949.67
408.73	1916.90
408.92	1886.47
409.11	1930.94
409.30	1891.15
409.49	1998.82
409.68	2017.54
409.87	1996.48
410.07	2069.03
410.26	2050.31
410.45	2050.31
410.64	2026.90
410.83	2188.40
411.02	2223.51
411.21	2132.23
411.40	2059.67
411.59	2225.85
411.78	2225.85
411.98	2139.25
412.17	2237.55
412.36	2267.98
412.55	2296.07
412.74	2214.15
412.93	2356.92
413.12	2289.04
413.31	2328.83
413.50	2436.50
413.69	2342.88
413.88	2401.39
414.07	2539.48
414.26	2396.71
414.45	2455.22
414.64	2513.74
414.83	2532.46
415.02	2579.27
415.22	2626.08
415.41	2642.46
415.60	2712.68
415.79	2773.53
415.98	2750.13
416.17	2818.00
416.36	2698.64
416.55	2712.68
416.74	2745.45
416.93	2869.50
417.12	2818.00
417.31	2839.07
417.50	2853.11
417.69	2944.39
417.88	2843.75
418.07	2991.20
418.26	3047.38
418.45	3038.02
418.64	3080.14
418.83	3066.10
419.02	3143.34
419.21	3070.78
419.39	3122.27
419.58	3094.19
419.77	3070.78
419.96	3124.62
420.15	3215.90
420.34	3171.43
420.53	3232.28
420.72	3183.13
420.91	3274.41
421.10	3293.13
421.29	3241.64
421.48	3316.54
421.67	3269.73
421.86	3449.95
422.05	3323.56
422.24	3229.94
422.43	3215.90
422.61	3421.86
422.80	3410.16
422.99	3403.14
423.18	3351.65
423.37	3468.67
423.56	3541.23
423.75	3461.65
423.94	3344.63
424.13	3187.81
424.32	3314.20
424.50	3456.97
424.69	3494.42
424.88	3557.61
425.07	3337.60
425.26	3215.90
425.45	3499.10
425.64	3496.76
425.83	3454.63
426.01	3482.72
426.20	3468.67
426.39	3494.42
426.58	3543.57
426.77	3520.17
426.96	3510.80
427.15	3501.44
427.33	3459.31
427.52	3459.31
427.71	3758.90
427.90	3620.81
428.09	3735.50
428.28	3576.34
428.46	3627.83
428.65	3609.11
428.84	3777.62
429.03	3616.13
429.22	3590.38
429.40	3822.09
429.59	3714.43
429.78	3777.62
429.97	3667.62
430.16	3740.18
430.34	3990.61
430.53	4037.42
430.72	3932.10
430.91	3922.74
431.10	3889.97
431.28	3817.41
431.47	4053.81
431.66	4011.68
431.85	4053.81
432.03	3936.78
432.22	4100.62
432.41	4039.76
432.60	4107.64
432.79	4039.76
432.97	4219.99
433.16	4173.18
433.35	4243.39
433.54	4138.07
433.72	4135.73
433.91	4107.64
434.10	4149.77
434.28	4243.39
434.47	4234.03
434.66	4308.93
434.85	4114.66
435.03	4271.48
435.22	4332.33
435.41	4468.08
435.59	4447.02
435.78	4355.74
435.97	4472.76
436.16	4386.16
436.34	4348.72
436.53	4533.62
436.72	4482.13
436.90	4402.55
437.09	4458.72
437.28	4477.44
437.46	4545.32
437.65	4517.23
437.84	4552.34
438.02	4447.02
438.21	4564.04
438.40	4458.72
438.58	4697.46
438.77	4875.34
438.96	4788.74
439.14	4746.61
439.33	4873.00
439.52	4992.36
439.70	4954.91
439.89	5179.61
440.08	4922.15
440.26	4943.21
440.45	5083.64
440.63	5027.47
440.82	5142.16
441.01	5174.92
441.19	5289.61
441.38	5277.91
441.57	5224.08
441.75	5327.06
441.94	5495.58
442.12	5336.42
442.31	5406.64
442.50	5446.43
442.68	5385.57
442.87	5495.58
443.05	5570.48
443.24	5490.90
443.43	5694.52
443.61	5570.48
443.80	5703.89
443.98	5544.73
444.17	5423.02
444.35	5441.75
444.54	5724.95
444.73	5650.05
444.91	5734.31
445.10	5617.29
445.28	5675.80
445.47	5720.27
445.65	5612.60
445.84	5755.38
446.02	5816.23
446.21	5823.25
446.39	5682.82
446.58	5708.57
446.77	5678.14
446.95	5504.94
447.14	5668.78
447.32	5912.19
447.51	5661.76
447.69	5753.04
447.88	5806.87
448.06	5863.04
448.25	5738.99
448.43	5935.60
448.62	5783.46
448.80	5900.49
448.99	5891.13
449.17	5949.64
449.36	5846.66
449.54	5940.28
449.73	5949.64
449.91	6022.20
450.10	5919.21
450.28	6200.08
450.46	6155.61
450.65	6200.08
450.83	6115.82
451.02	6059.65
451.20	6190.72
451.39	6186.04
451.57	6080.71
451.76	6171.99
451.94	6193.06
452.13	6335.83
452.31	6375.62
452.49	6115.82
452.68	6263.27
452.86	6406.05
453.05	6445.84
453.23	6354.55
453.42	6282.00
453.60	6314.77
453.78	6644.78
453.97	6583.93
454.15	6246.89
454.34	6436.47
454.52	6499.67
454.70	6604.99
454.89	6502.01
455.07	6445.84
455.26	6775.85
455.44	6747.76
455.62	6628.40
455.81	6658.82
455.99	6920.96
456.17	6787.55
456.36	6822.66
456.54	6918.62
456.73	6958.41
456.91	6881.18
457.09	7009.90
457.28	7220.55
457.46	6977.14
457.64	6927.99
457.83	7136.29
458.01	6892.88
458.19	7101.19
458.38	7042.67
458.56	7300.13
458.74	7180.76
458.93	7162.04
459.11	7150.34
459.29	7187.79
459.48	7396.09
459.66	7126.93
459.84	7335.24
460.03	7426.52
460.21	7466.31
460.39	7311.83
460.57	7328.22
460.76	7573.97
460.94	7353.96
461.12	7527.16
461.31	7599.72
461.49	7590.36
461.67	7543.55
461.85	7658.23
462.04	7426.52
462.22	8107.62
462.40	7604.40
462.59	7913.35
462.77	7604.40
462.95	7885.26
463.13	7742.49
463.32	7693.34
463.50	7868.88
463.68	7798.66
463.86	7911.01
464.05	7880.58
464.23	7726.11
464.41	8013.99
464.59	7896.97
464.78	8131.02
464.96	7988.25
465.14	7943.78
465.32	8072.51
465.50	7901.65
465.69	8439.97
465.87	8124.00
466.05	8252.73
466.23	8212.94
466.41	8222.30
466.60	8210.60
466.78	8030.38
466.96	8266.77
467.14	8276.13
467.32	8365.07
467.51	8388.48
467.69	8145.06
467.87	8285.50
468.05	8306.56
468.23	8273.79
468.41	8472.74
468.60	8564.02
468.78	8374.44
468.96	8393.16
469.14	8709.13
469.32	8739.56
469.50	8500.83
469.69	8613.17
469.87	8681.05
470.05	8805.10
470.23	8692.75
470.41	8645.94
470.59	8769.99
470.77	8713.81
470.95	8758.28
471.14	8929.14
471.32	8711.47
471.50	9165.54
471.68	9109.36
471.86	9270.86
472.04	9195.96
472.22	9231.07
472.40	8891.70
472.58	9132.77
472.77	9376.19
472.95	9451.08
473.13	9495.55
473.31	9434.70
473.49	9563.43
473.67	9661.73
473.85	9647.69
474.03	9762.37
474.21	9544.70
474.39	9577.47
474.57	9750.67
474.75	9834.93
474.93	10087.71
475.12	9797.48
475.30	10317.08
475.48	10038.56
475.66	10022.17
475.84	10076.01
476.02	10253.89
476.20	10263.25
476.38	10417.72
476.56	10698.59
476.74	10509.01
476.92	10445.81
477.10	10555.82
477.28	10698.59
477.46	10892.85
477.64	10614.33
477.82	10925.62
478.00	11456.92
478.18	11098.82
478.36	11140.95
478.54	11314.15
478.72	11183.08
478.90	11286.06
479.08	11564.59
479.26	11728.42
479.44	11784.60
479.62	11861.84
479.80	11768.21
479.98	11665.23
480.16	12233.98
480.34	12030.35
480.52	12325.26
480.70	12081.85
480.88	12058.44
481.06	12336.96
481.24	12407.18
481.41	12624.85
481.59	12772.30
481.77	12697.41
481.95	12989.97
482.13	12992.31
482.31	13015.72
482.49	13362.12
482.67	13371.48
482.85	13694.47
483.03	13483.83
483.21	13547.02
483.39	13680.43
483.57	13685.11
483.74	13776.39
483.92	14012.79
484.10	13804.48
484.28	14328.76
484.46	14288.97
484.64	14920.92
484.82	14602.60
485.00	14574.52
485.18	14850.70
485.35	15492.01
485.53	15026.24
485.71	15068.37
485.89	15122.20
486.07	15421.79
486.25	15417.11
486.43	15426.47
486.61	15829.04
486.78	15901.60
486.96	15960.11
487.14	16173.10
487.32	16301.83
487.50	16060.76
487.68	16507.80
487.85	16769.94
488.03	16514.82
488.21	16809.73
488.39	16751.21
488.57	16896.33
488.75	17177.19
488.92	17401.88
489.10	17422.95
489.28	17572.74
489.46	17731.90
489.64	17989.36
489.81	18302.99
489.99	18061.91
490.17	18181.28
490.35	18441.08
490.53	18881.10
490.70	18438.74
490.88	18803.86
491.06	18951.32
491.24	18843.65
491.41	19129.20
491.59	19243.88
491.77	19229.84
491.95	19520.07
492.13	19283.67
492.30	19686.25
492.48	19960.09
492.66	19859.45
492.84	19571.56
493.01	20217.55
493.19	20102.86
493.37	20180.10
493.54	20407.13
493.72	20610.76
493.90	20641.18
494.08	20922.05
494.25	21163.12
494.43	20982.90
494.61	21249.72
494.79	21401.86
494.96	21214.62
495.14	21656.98
495.32	21699.11
495.49	21577.40
495.67	22127.42
495.85	21956.57
496.02	22277.22
496.20	22422.33
496.38	22284.24
496.55	22478.50
496.73	22787.46
496.91	22796.82
497.09	22574.47
497.26	22808.52
497.44	23065.98
497.62	22977.04
497.79	23349.18
497.97	23367.91
498.14	23262.58
498.32	23576.22
498.50	23501.32
498.67	23798.57
498.85	23882.83
499.03	23803.25
499.20	24032.62
499.38	24191.78
499.56	24149.65
499.73	24634.14
499.91	24353.27
500.08	24886.92
500.26	24217.52
500.44	24629.46
500.61	24987.56
500.79	24631.80
500.97	25280.13
501.14	25230.98
501.32	25553.97
501.49	25521.20
501.67	25434.60
501.84	25369.07
502.02	25680.36
502.20	25411.20
502.37	25680.36
502.55	25619.50
502.72	26377.84
502.90	25455.67
503.07	25806.75
503.25	25968.24
503.43	26132.08
503.60	26249.11
503.78	26267.83
503.95	26352.09
504.13	26562.74
504.30	26672.74
504.48	26679.77
504.65	26850.63
504.83	27021.48
505.01	26764.03
505.18	27187.66
505.36	27243.84
505.53	27154.90
505.71	27578.53
505.88	27552.79
506.06	27250.86
506.23	27688.54
506.41	27814.93
506.58	27704.92
506.76	27721.30
506.93	28077.07
507.11	27976.42
507.28	28212.82
507.46	28114.52
507.63	28404.74
507.81	28701.99
507.98	28437.51
508.16	28563.90
508.33	28596.67
508.50	28992.22
508.68	28774.55
508.85	28877.53
509.03	28680.92
509.20	28999.24
509.38	29329.25
509.55	29181.80
509.73	29600.76
509.90	29151.37
510.08	29467.34
510.25	29514.16
510.42	29848.85
510.60	29837.15
510.77	29422.87
510.95	30015.03
511.12	29790.34
511.30	30005.67
511.47	29837.15
511.64	30019.71
511.82	30668.04
511.99	30235.04
512.17	30284.19
512.34	30394.20
512.51	30766.34
512.69	30754.64
512.86	30852.94
513.04	31372.54
513.21	30661.02
513.38	30972.31
513.56	31288.28
513.73	31150.19
513.90	31400.63
514.08	31276.58
514.25	31740.00
514.43	31278.92
514.60	31501.27
514.77	31580.85
514.95	31569.15
515.12	31632.34
515.29	31695.53
515.47	32168.32
515.64	32020.87
515.81	31721.28
515.99	32327.48
516.16	32212.79
516.33	32020.87
516.51	32292.37
516.68	32133.21
516.85	32385.99
517.03	32774.52
517.20	32811.97
517.37	32779.20
517.54	32790.91
517.72	32849.42
517.89	33125.60
518.06	32898.57
518.24	32943.04
518.41	33158.37
518.58	33153.69
518.75	32907.93
518.93	33022.62
519.10	33364.34
519.27	33631.16
519.45	33518.81
519.62	33392.42
519.79	33956.49
519.96	33413.49
520.14	33790.31
520.31	33551.58
520.48	33869.89
520.65	33982.24
520.83	34445.66
521.00	34209.27
521.17	34171.82
521.34	34567.37
521.52	34602.48
521.69	34649.29
521.86	34817.81
522.03	34684.40
522.20	34574.39
522.38	34464.39
522.55	34916.11
522.72	34742.91
522.89	34965.26
523.07	35321.02
523.24	35201.66
523.41	34979.31
523.58	35040.16
523.75	35573.80
523.92	35138.46
524.10	35241.45
524.27	35758.70
524.44	35480.18
524.61	35587.85
524.78	35871.05
524.96	35697.85
525.13	36093.40
525.30	35971.69
525.47	35716.58
525.64	36341.50
525.81	36540.44
525.98	36327.45
526.16	36051.27
526.33	36086.38
526.50	36657.47
526.67	36341.50
526.84	36568.53
527.01	36598.96
527.18	36575.55
527.36	36989.83
527.53	36622.36
527.70	37310.48
527.87	37188.77
528.04	37102.17
528.21	36973.44
528.38	37008.55
528.55	37467.30
528.72	36851.73
528.89	37574.96
529.07	36842.37
529.24	37237.92
529.41	37291.76
529.58	37434.53
529.75	37741.14
529.92	36898.55
530.09	37368.99
530.26	37720.07
530.43	37909.66
530.60	37577.30
530.77	37727.10
530.94	37982.21
531.11	37991.58
531.28	37603.05
531.46	38162.43
531.63	38014.98
531.80	38476.07
531.97	38513.52
532.14	38403.51
532.31	38089.88
532.48	38590.75
532.65	38518.20
532.82	38312.23
532.99	38618.84
533.16	38433.94
533.33	38948.85
533.50	38850.55
533.67	38520.54
533.84	38438.62
534.01	38567.35
534.18	38422.23
534.35	39218.02
534.52	39112.69
534.69	39402.92
534.86	39349.09
535.03	39407.60
535.20	39175.89
535.37	39328.02
535.54	39468.45
535.71	39262.49
535.88	39957.63
536.05	39508.24
536.22	39569.10
536.38	39901.45
536.55	39435.69
536.72	39859.32
536.89	39496.54
537.06	39868.69
537.23	40313.39
537.40	39641.65
537.57	39679.10
537.74	39978.69
537.91	40009.12
538.08	39929.54
538.25	39922.52
538.42	40273.60
538.59	40418.71
538.75	40236.15
538.92	40301.68
539.09	40268.92
539.26	40336.79
539.43	40692.55
539.60	40390.62
539.77	40491.27
539.94	41071.72
540.11	40502.97
540.28	40734.68
540.44	40718.30
540.61	41324.50
540.78	40664.47
540.95	41010.87
541.12	40627.02
541.29	41043.63
541.46	40978.10
541.62	41092.79
541.79	40847.03
541.96	40399.99
542.13	40666.81
542.30	40872.78
542.47	41205.13
542.63	41509.40
542.80	41483.66
542.97	42117.94
543.14	41954.10
543.31	41624.09
543.48	42150.71
543.64	42026.66
543.81	41963.46
543.98	42024.32
544.15	42288.80
544.32	42031.34
544.48	42188.16
544.65	41956.44
544.82	42143.69
544.99	42012.62
545.16	42616.47
545.32	42108.58
545.49	42384.76
545.66	42595.41
545.83	42766.27
546.00	42639.88
546.16	42478.38
546.33	42534.56
546.50	42150.71
546.67	42920.74
546.83	42354.33
547.00	42717.12
547.17	42504.13
547.34	42508.81
547.50	42705.41
547.67	43278.85
547.84	42930.11
548.00	43072.88
548.17	43519.92
548.34	43459.07
548.51	43498.86
548.67	43040.11
548.84	43234.38
549.01	42997.98
549.18	43049.47
549.34	43110.33
549.51	43487.15
549.68	43735.25
549.84	43445.02
550.01	43707.16
550.18	43349.06
550.34	43871.00
550.51	44069.95
550.68	43849.94
550.84	43320.98
551.01	43622.90
551.18	43718.87
551.34	43463.75
551.51	43969.30
551.68	43730.57
551.84	43552.69
552.01	44109.74
552.18	43744.61
552.34	43470.77
552.51	44114.42
552.68	43768.02
552.84	44041.86
553.01	44095.69
553.18	43571.41
553.34	44062.93
553.51	43833.55
553.67	44210.38
553.84	44390.60
554.01	43880.36
554.17	44168.25
554.34	44605.93
554.51	44306.34
554.67	44444.43
554.84	44327.41
555.00	44233.78
555.17	43922.49
555.33	44547.42
555.50	44683.17
555.67	44500.61
555.83	44816.58
556.00	44708.91
556.16	45394.69
556.33	44680.83
556.50	44964.03
556.66	44877.43
556.83	44362.51
556.99	45048.29
557.16	45022.54
557.32	44858.71
557.49	45312.77
557.65	44912.54
557.82	44952.33
557.98	45579.59
558.15	45109.14
558.32	45102.12
558.48	44535.71
558.65	44954.67
558.81	45167.66
558.98	45567.89
559.14	44985.10
559.31	45148.93
559.47	45261.28
559.64	45310.43
559.80	45172.34
559.97	45703.64
560.13	45184.04
560.30	45277.66
560.46	45329.16
560.63	45607.68
560.79	45673.21
560.96	45677.90
561.12	45954.08
561.29	45605.34
561.45	45308.09
561.61	45834.71
561.78	45425.12
561.94	46134.30
562.11	45619.38
562.27	45663.85
562.44	45584.27
562.60	45893.22
562.77	45827.69
562.93	45448.52
563.10	45923.65
563.26	45748.11
563.42	46248.99
563.59	45846.41
563.75	46003.23
563.92	45904.93
564.08	45722.37
564.24	46571.98
564.41	46045.36
564.57	46094.51
564.74	45773.86
564.90	45584.27
565.07	45944.72
565.23	46005.57
565.39	45680.24
565.56	46110.89
565.72	45890.88
565.88	46124.94
566.05	45940.04
566.21	46138.98
566.38	46382.40
566.54	46150.68
566.70	46387.08
566.87	46586.02
567.03	46260.69
567.19	46494.74
567.36	46370.69
567.52	45949.40
567.68	46897.31
567.85	46167.07
568.01	46579.00
568.17	46553.26
568.34	46382.40
568.50	46684.33
568.66	46206.86
568.83	46040.68
568.99	46127.28
569.15	46363.67
569.32	46548.57
569.48	46195.15
569.64	46899.65
569.81	46429.21
569.97	46770.93
570.13	46508.79
570.30	46459.63
570.46	46391.76
570.62	46773.27
570.78	46780.29
570.95	46410.48
571.11	47019.02
571.27	46220.90
571.43	46593.04
571.60	46782.63
571.76	46525.17
571.92	46930.08
572.09	46539.21
572.25	46925.40
572.41	46747.52
572.57	46548.57
572.74	46806.03
572.90	47014.34
573.06	46845.82
573.22	46974.55
573.38	46993.28
573.55	47089.24
573.71	47353.72
573.87	46923.06
574.03	46333.24
574.20	47267.12
574.36	47049.45
574.52	47213.29
574.68	46700.71
574.84	47220.31
575.01	47124.35
575.17	46897.31
575.33	47285.84
575.49	46667.94
575.65	46651.56
575.82	47072.85
575.98	46831.78
576.14	47201.58
576.30	47114.98
576.46	46600.07
576.62	47114.98
576.79	47051.79
576.95	46452.61
577.11	46459.63
577.27	46756.88
577.43	47035.41
577.59	47068.17
577.75	46834.12
577.92	47065.83
578.08	46766.24
578.24	46665.60
578.40	47316.27
578.56	47110.30
578.72	47072.85
578.88	46927.74
579.04	46761.56
579.21	47234.35
579.37	47119.66
579.53	47250.74
579.69	46918.38
579.85	46843.48
580.01	47342.02
580.17	46497.08
580.33	47309.25
580.49	47316.27
580.65	46799.01
580.82	47014.34
580.98	46983.91
581.14	46742.84
581.30	46955.83
581.46	46962.85
581.62	46939.44
581.78	46897.31
581.94	46995.62
582.10	47058.81
582.26	46873.91
582.42	47262.44
582.58	47627.56
582.74	47227.33
582.90	47379.46
583.06	47562.03
583.22	46852.84
583.38	47370.10
583.54	47526.92
583.70	47484.79
583.86	47585.43
584.02	47063.49
584.18	47461.38
584.34	47475.43
584.50	47646.29
584.66	47386.49
584.82	47423.93
584.98	47924.81
585.14	47358.40
585.30	47086.90
585.46	47182.86
585.62	47365.42
585.78	47501.17
585.94	47421.59
586.10	47016.68
586.26	46780.29
586.42	47264.78
586.58	47704.80
586.74	47517.56
586.90	47033.07
587.06	47239.03
587.22	47468.40
587.38	46885.61
587.54	47704.80
587.70	47870.98
587.86	47531.60
588.02	46969.87
588.18	47583.09
588.34	47384.15
588.49	47547.98
588.65	47552.66
588.81	47536.28
588.97	47728.20
589.13	47243.71
589.29	47531.60
589.45	47529.26
589.61	47810.12
589.77	47459.04
589.93	47796.08
