SpectraSuite Data File
++++++++++++++++++++++++++++++++++++
Date: Fri Oct 25 11:23:04 EDT 2013
User: price-jones
Dark Spectrum Present: No
Reference Spectrum Present: No
Number of Sampled Component Spectra: 1
Spectrometers: USB2+H05261
Integration Time (usec): 100000 (USB2+H05261)
Spectra Averaged: 1 (USB2+H05261)
Boxcar Smoothing: 0 (USB2+H05261)
Correct for Electrical Dark: No (USB2+H05261)
Strobe/Lamp Enabled: No (USB2+H05261)
Correct for Detector Non-linearity: No (USB2+H05261)
Correct for Stray Light: No (USB2+H05261)
Number of Pixels in Processed Spectrum: 2048
>>>>>Begin Processed Spectral Data<<<<<
365.73	215.33
365.92	215.33
366.12	215.33
366.32	88.94
366.52	124.05
366.72	175.54
366.91	128.73
367.11	56.17
367.31	100.64
367.51	93.62
367.70	58.51
367.90	124.05
368.10	175.54
368.30	70.22
368.49	114.69
368.69	145.11
368.89	105.32
369.09	128.73
369.28	138.09
369.48	168.52
369.68	175.54
369.87	196.60
370.07	187.24
370.27	283.20
370.47	358.10
370.66	596.84
370.86	634.29
371.06	681.10
371.25	711.52
371.45	709.18
371.65	786.42
371.84	664.71
372.04	655.35
372.24	737.27
372.44	732.59
372.63	685.78
372.83	765.36
373.03	697.48
373.22	716.20
373.42	636.63
373.62	741.95
373.81	716.20
374.01	807.48
374.21	779.40
374.40	744.29
374.60	772.38
374.79	784.08
374.99	889.40
375.19	777.06
375.38	816.85
375.58	875.36
375.78	877.70
375.97	814.51
376.17	861.32
376.37	840.25
376.56	877.70
376.76	922.17
376.95	926.85
377.15	896.43
377.35	844.93
377.54	912.81
377.74	910.47
377.93	858.98
378.13	898.77
378.33	840.25
378.52	947.92
378.72	910.47
378.91	954.94
379.11	978.34
379.31	987.71
379.50	912.81
379.70	997.07
379.89	1048.56
380.09	954.94
380.28	985.37
380.48	994.73
380.68	985.37
380.87	943.24
381.07	1039.20
381.26	1053.24
381.46	898.77
381.65	983.02
381.85	1074.31
382.04	1015.79
382.24	1043.88
382.43	1004.09
382.63	1034.52
382.83	1137.50
383.02	1053.24
383.22	1170.27
383.41	1107.07
383.61	1109.41
383.80	1158.57
384.00	1231.12
384.19	1125.80
384.39	1158.57
384.58	1212.40
384.78	1207.72
384.97	1188.99
385.17	1081.33
385.36	1060.26
385.56	1219.42
385.75	1153.88
385.95	1069.62
386.14	1158.57
386.34	1118.78
386.53	1247.51
386.72	1100.05
386.92	1240.48
387.11	1268.57
387.31	1240.48
387.50	1249.85
387.70	1235.80
387.89	1219.42
388.09	1261.55
388.28	1263.89
388.48	1329.42
388.67	1289.64
388.86	1280.27
389.06	1291.98
389.25	1296.66
389.45	1380.92
389.64	1399.64
389.84	1394.96
390.03	1327.08
390.22	1329.42
390.42	1282.61
390.61	1366.87
390.81	1413.68
391.00	1446.45
391.19	1409.00
391.39	1444.11
391.58	1416.02
391.78	1444.11
391.97	1504.96
392.16	1490.92
392.36	1467.52
392.55	1561.14
392.75	1600.93
392.94	1540.07
393.13	1516.67
393.33	1479.22
393.52	1493.26
393.71	1640.72
393.91	1643.06
394.10	1502.62
394.29	1617.31
394.49	1598.59
394.68	1579.86
394.88	1577.52
395.07	1638.38
395.26	1682.85
395.46	1572.84
395.65	1636.03
395.84	1710.93
396.04	1771.79
396.23	1750.72
396.42	1884.13
396.62	1692.21
396.81	1907.54
397.00	1781.15
397.19	1797.53
397.39	1720.29
397.58	1806.89
397.77	1874.77
397.97	1827.96
398.16	1820.94
398.35	1984.77
398.55	1867.75
398.74	1834.98
398.93	1998.82
399.12	1968.39
399.32	1966.05
399.51	1954.35
399.70	2017.54
399.90	2024.56
400.09	2022.22
400.28	2040.95
400.47	1949.67
400.67	2036.27
400.86	2064.35
401.05	2047.97
401.24	2047.97
401.44	2076.06
401.63	2186.06
401.82	2172.02
402.01	2195.42
402.21	2052.65
402.40	2150.95
402.59	2181.38
402.78	2190.74
402.97	2207.13
403.17	2279.68
403.36	2167.34
403.55	2326.49
403.74	2359.26
403.93	2267.98
404.13	2296.07
404.32	2443.52
404.51	2359.26
404.70	2359.26
404.89	2392.03
405.09	2511.39
405.28	2525.44
405.47	2455.22
405.66	2520.76
405.85	2530.12
406.05	2541.82
406.24	2546.50
406.43	2628.42
406.62	2698.64
406.81	2626.08
407.00	2487.99
407.20	2605.02
407.39	2658.85
407.58	2679.91
407.77	2750.13
407.96	2670.55
408.15	2839.07
408.34	2862.48
408.54	2768.85
408.73	2829.71
408.92	2754.81
409.11	2789.92
409.30	3002.91
409.49	2862.48
409.68	2904.60
409.87	2860.13
410.07	2916.31
410.26	2956.10
410.45	2993.55
410.64	3098.87
410.83	3131.64
411.02	3159.72
411.21	3211.22
411.40	3187.81
411.59	3166.74
411.78	3180.79
411.98	3241.64
412.17	3293.13
412.36	3314.20
412.55	3417.18
412.74	3520.17
412.93	3468.67
413.12	3356.33
413.31	3609.11
413.50	3478.04
413.69	3545.91
413.88	3653.58
414.07	3578.68
414.26	3658.26
414.45	3801.03
414.64	3730.81
414.83	3772.94
415.02	3850.18
415.22	3803.37
415.41	3861.88
415.60	3906.35
415.79	4072.53
415.98	3894.65
416.17	4112.32
416.36	3962.53
416.55	4074.87
416.74	4159.13
416.93	4053.81
417.12	4112.32
417.31	4133.39
417.50	4159.13
417.69	4337.01
417.88	4348.72
418.07	4315.95
418.26	4355.74
418.45	4524.26
418.64	4641.28
418.83	4500.85
419.02	4491.49
419.21	4568.73
419.39	4545.32
419.58	4470.42
419.77	4498.51
419.96	4662.35
420.15	4594.47
420.34	4554.68
420.53	4578.09
420.72	4734.90
420.91	4739.58
421.10	4887.04
421.29	4835.55
421.48	4636.60
421.67	4786.40
421.86	4751.29
422.05	4858.95
422.24	4823.84
422.43	4915.12
422.61	5015.77
422.80	4952.57
422.99	5055.56
423.18	4961.94
423.37	4994.70
423.56	5022.79
423.75	5048.54
423.94	4858.95
424.13	4596.81
424.32	4851.93
424.50	5076.62
424.69	5107.05
424.88	5203.01
425.07	4936.19
425.26	4917.47
425.45	5022.79
425.64	4957.25
425.83	5069.60
426.01	5142.16
426.20	5025.13
426.39	5177.26
426.58	5107.05
426.77	5160.88
426.96	5247.48
427.15	5071.94
427.33	5240.46
427.52	5198.33
427.71	5329.40
427.90	5296.63
428.09	5472.17
428.28	5376.21
428.46	5252.16
428.65	5483.88
428.84	5542.39
429.03	5621.97
429.22	5254.50
429.40	5511.96
429.59	5575.16
429.78	5369.19
429.97	5214.71
430.16	5521.32
430.34	5563.45
430.53	5802.19
430.72	5767.08
430.91	5607.92
431.10	5708.57
431.28	5680.48
431.47	5844.32
431.66	6008.16
431.85	5837.30
432.03	5905.17
432.22	6029.22
432.41	6038.58
432.60	5881.77
432.79	5926.24
432.97	5954.32
433.16	5961.34
433.35	5797.51
433.54	5991.77
433.72	6225.82
433.91	6076.03
434.10	6253.91
434.28	6047.94
434.47	6162.63
434.66	6356.90
434.85	6363.92
435.03	6331.15
435.22	6471.58
435.41	6707.98
435.59	6291.36
435.78	6567.54
435.97	6581.59
436.16	6574.56
436.34	6459.88
436.53	6394.34
436.72	6602.65
436.90	6635.42
437.09	6757.13
437.28	6555.84
437.46	6710.32
437.65	6764.15
437.84	6913.94
438.02	6810.96
438.21	6757.13
438.40	6841.39
438.58	7007.56
438.77	6939.69
438.96	6967.77
439.14	7243.96
439.33	7208.85
439.52	7400.77
439.70	7220.55
439.89	7318.86
440.08	7515.46
440.26	7449.93
440.45	7152.68
440.63	7597.38
440.82	7899.31
441.01	7538.87
441.19	7719.09
441.38	7786.96
441.57	7826.75
441.75	7847.82
441.94	8023.36
442.12	8063.15
442.31	7978.89
442.50	8133.36
442.68	8215.28
442.87	7985.91
443.05	8196.56
443.24	8264.43
443.43	8248.05
443.61	8198.90
443.80	8421.25
443.98	8287.84
444.17	7999.95
444.35	8346.35
444.54	8482.10
444.73	8376.78
444.91	8449.33
445.10	8456.36
445.28	8313.58
445.47	8334.65
445.65	8397.84
445.84	8507.85
446.02	8629.56
446.21	8493.80
446.39	8454.02
446.58	8554.66
446.77	8528.91
446.95	8411.89
447.14	8442.31
447.32	8704.45
447.51	8484.44
447.69	8535.93
447.88	8706.79
448.06	8667.00
448.25	8606.15
448.43	8898.72
448.62	8643.60
448.80	8652.96
448.99	8725.52
449.17	8940.85
449.36	8753.60
449.54	8985.32
449.73	9167.88
449.91	9104.68
450.10	8887.01
450.28	9149.15
450.46	9123.41
450.65	9296.61
450.83	9191.28
451.02	9259.16
451.20	9462.79
451.39	9376.19
451.57	9128.09
451.76	9217.03
451.94	9200.65
452.13	9287.25
452.31	9369.16
452.49	9179.58
452.68	9593.86
452.86	9441.72
453.05	9465.13
453.23	9729.61
453.42	9462.79
453.60	9408.95
453.78	9647.69
453.97	9441.72
454.15	9701.52
454.34	9533.00
454.52	10019.83
454.70	9767.06
454.89	9884.08
455.07	9776.42
455.26	9921.53
455.44	10001.11
455.62	9998.77
455.81	9966.00
455.99	10043.24
456.17	10305.38
456.36	10157.92
456.54	10396.66
456.73	10361.55
456.91	10670.50
457.09	10291.34
457.28	10558.16
457.46	10457.51
457.64	10518.37
457.83	10527.73
458.01	10509.01
458.19	10775.83
458.38	10761.78
458.56	10890.51
458.74	10733.70
458.93	10871.79
459.11	10942.00
459.29	10855.40
459.48	10789.87
459.66	10902.22
459.84	10796.89
460.03	11335.21
460.21	11339.90
460.39	11131.59
460.57	11183.08
460.76	11262.66
460.94	11147.97
461.12	11318.83
461.31	11349.26
461.49	11431.18
461.67	11276.70
461.85	11564.59
462.04	11386.71
462.22	11496.71
462.40	11765.87
462.59	11733.11
462.77	11552.88
462.95	11789.28
463.13	11843.11
463.32	11826.73
463.50	11847.79
463.68	11927.37
463.86	11999.93
464.05	11826.73
464.23	11845.45
464.41	12025.67
464.59	11791.62
464.78	12301.86
464.96	12077.16
465.14	11698.00
465.32	12355.69
465.50	12451.65
465.69	12376.75
465.87	12283.13
466.05	12053.76
466.23	12353.35
466.41	12294.83
466.60	12339.30
466.78	12369.73
466.96	12465.69
467.14	12250.36
467.32	12411.86
467.51	12538.25
467.69	12231.64
467.87	12905.71
468.05	12784.01
468.23	12561.66
468.41	12617.83
468.60	12748.90
468.78	13006.36
468.96	12765.28
469.14	13036.78
469.32	13167.85
469.50	12901.03
469.69	13088.28
469.87	13191.26
470.05	13249.77
470.23	13472.12
470.41	13228.71
470.59	13540.00
470.77	13500.21
470.95	13458.08
471.14	13708.52
471.32	13418.29
471.50	13614.90
471.68	13647.66
471.86	13757.67
472.04	13767.03
472.22	13982.36
472.40	14026.83
472.58	13767.03
472.77	14157.90
472.95	14230.46
473.13	14972.41
473.31	14012.79
473.49	14398.98
473.67	14176.62
473.85	14427.06
474.03	14836.66
474.21	14728.99
474.39	14689.20
474.57	14771.12
474.75	14906.87
474.93	15194.76
475.12	15136.24
475.30	15412.43
475.48	15239.23
475.66	15269.66
475.84	15534.14
476.02	15508.39
476.20	15630.10
476.38	16093.52
476.56	16269.06
476.74	16224.59
476.92	16114.59
477.10	16180.12
477.28	16161.40
477.46	16109.91
477.64	16477.37
477.82	16844.84
478.00	17277.83
478.18	16802.71
478.36	17289.54
478.54	17542.32
478.72	17280.18
478.90	17586.79
479.08	18003.40
479.26	17987.02
479.44	17720.20
479.62	17895.74
479.80	18204.69
479.98	18270.22
480.16	18953.66
480.34	18621.30
480.52	19023.87
480.70	18838.97
480.88	18682.16
481.06	18977.06
481.24	18998.13
481.41	18951.32
481.59	19325.80
481.77	19688.59
481.95	19719.01
482.13	20187.12
482.31	19609.01
482.49	20444.58
482.67	20432.88
482.85	20622.46
483.03	20924.39
483.21	20826.09
483.39	21156.10
483.57	21200.57
483.74	21282.49
483.92	21500.16
484.10	21200.57
484.28	21830.18
484.46	22363.82
484.64	22553.40
484.82	22335.73
485.00	22602.55
485.18	23117.47
485.35	22920.87
485.53	23098.75
485.71	23374.93
485.89	23550.47
486.07	23522.38
486.25	23658.14
486.43	23899.21
486.61	23810.27
486.78	24339.23
486.96	24489.03
487.14	25017.99
487.32	25048.41
487.50	24989.90
487.68	25294.17
487.85	25404.17
488.03	25783.34
488.21	25912.07
488.39	26064.21
488.57	26359.11
488.75	26424.65
488.92	26614.23
489.10	27332.78
489.28	26838.92
489.46	27850.03
489.64	26946.59
489.81	27665.13
489.99	28187.07
490.17	27985.79
490.35	28430.49
490.53	28678.58
490.70	28950.09
490.88	28259.63
491.06	29364.36
491.24	29282.44
491.41	29301.17
491.59	29621.82
491.77	29642.88
491.95	30078.22
492.13	29940.13
492.30	30024.39
492.48	30546.33
492.66	31084.65
492.84	30443.35
493.01	31145.51
493.19	31136.15
493.37	31541.06
493.54	31292.96
493.72	31789.16
493.90	31981.08
494.08	32252.58
494.25	32409.40
494.43	32343.86
494.61	32673.88
494.79	33001.55
494.96	32596.64
495.14	33116.24
495.32	33514.13
495.49	33369.02
495.67	33544.56
495.85	33965.85
496.02	33855.85
496.20	34342.68
496.38	34256.08
496.55	34677.38
496.73	35215.70
496.91	34621.20
497.09	35428.69
497.26	35428.69
497.44	34993.35
497.62	35749.34
497.79	36549.81
497.97	35814.88
498.14	36425.76
498.32	36580.23
498.50	36715.98
498.67	36751.09
498.85	36961.74
499.03	37095.15
499.20	37303.46
499.38	37404.10
499.56	37354.95
499.73	37549.21
499.91	38099.24
500.08	38040.73
500.26	38127.33
500.44	38197.54
500.61	38581.39
500.79	38429.26
500.97	38426.92
501.14	39051.84
501.32	38796.72
501.49	38691.40
501.67	39082.27
501.84	39693.15
502.02	39363.13
502.20	39665.06
502.37	39875.71
502.55	39550.37
502.72	39842.94
502.90	40161.25
503.07	39978.69
503.25	40126.14
503.43	39892.09
503.60	40605.95
503.78	40570.85
503.95	40774.47
504.13	40526.38
504.30	41209.81
504.48	40931.29
504.65	41207.47
504.83	41764.52
505.01	41474.29
505.18	41258.96
505.36	41958.78
505.53	41741.11
505.71	42094.53
505.88	41984.53
506.06	41986.87
506.23	42218.58
506.41	42560.30
506.58	42616.47
506.76	42419.87
506.93	42838.83
507.11	43042.45
507.28	43271.82
507.46	42899.68
507.63	43758.66
507.81	43824.19
507.98	43435.66
508.16	43395.87
508.33	43861.64
508.50	43695.46
508.68	44112.08
508.85	44217.40
509.03	44055.90
509.20	44580.18
509.38	44465.50
509.55	44737.00
509.73	44818.92
509.90	45162.98
510.08	45249.58
510.25	45111.49
510.42	45413.41
510.60	45317.45
510.77	45954.08
510.95	45996.21
511.12	45350.22
511.30	45624.06
511.47	46211.54
511.64	45996.21
511.82	46466.66
511.99	46522.83
512.17	46309.84
512.34	46206.86
512.51	47040.09
512.69	46890.29
512.86	47138.39
513.04	46925.40
513.21	46937.10
513.38	47346.70
513.56	47665.01
513.73	47456.70
513.90	47360.74
514.08	47166.48
514.25	47725.86
514.43	47791.40
514.60	47833.53
514.77	47978.64
514.95	48294.61
515.12	47915.45
515.29	48243.12
515.47	48425.68
515.64	48437.39
515.81	48287.59
515.99	48807.19
516.16	48758.04
516.33	48643.35
516.51	49158.27
516.68	48676.12
516.85	48868.05
517.03	49453.18
517.20	49544.46
517.37	49471.90
517.54	49237.85
517.72	49308.07
517.89	49305.73
518.06	49834.69
518.24	49759.79
518.41	49893.20
518.58	49902.56
518.75	49645.10
518.93	49680.21
519.10	50047.68
519.27	50120.23
519.45	49930.65
519.62	50167.04
519.79	50192.79
519.96	50529.83
520.14	50508.76
520.31	50696.00
520.48	51054.11
520.65	50841.12
520.83	50850.48
521.00	50836.44
521.17	51040.06
521.34	51206.24
521.52	51145.39
521.69	51634.56
521.86	51393.48
522.03	51121.98
522.20	51648.60
522.38	51868.61
522.55	51789.03
522.72	51856.91
522.89	51503.49
523.07	52140.11
523.24	51791.37
523.41	51889.68
523.58	51749.24
523.75	52149.48
523.92	52481.83
524.10	52278.21
524.27	52296.93
524.44	52439.70
524.61	52505.24
524.78	52540.35
524.96	52402.25
525.13	52584.82
525.30	53006.11
525.47	53029.52
525.64	53052.92
525.81	52872.70
525.98	53167.61
526.16	53069.31
526.33	53097.39
526.50	53773.81
526.67	53022.50
526.84	53104.41
527.01	53223.78
527.18	53132.50
527.36	53116.12
527.53	53322.08
527.70	53666.14
527.87	53897.86
528.04	53378.26
528.21	53464.86
528.38	53572.52
528.55	53867.43
528.72	53591.25
528.89	53766.79
529.07	53818.28
529.24	53780.83
529.41	54103.82
529.58	54129.57
529.75	54094.46
529.92	54059.35
530.09	54415.11
530.26	54286.39
530.43	54375.33
530.60	54127.23
530.77	53876.79
530.94	54188.08
531.11	54169.36
531.28	54335.54
531.46	54569.59
531.63	54705.34
531.80	54532.14
531.97	54691.30
532.14	54543.84
532.31	54822.37
532.48	54801.30
532.65	54733.43
532.82	54731.09
532.99	55124.30
533.16	54850.45
533.33	55274.09
533.50	55454.31
533.67	55107.91
533.84	55056.42
534.01	54976.84
534.18	55009.61
534.35	55494.10
534.52	55283.45
534.69	55735.18
534.86	55561.98
535.03	55470.70
535.20	55662.62
535.37	55826.46
535.54	55760.92
535.71	55433.25
535.88	55531.55
536.05	55880.29
536.22	55707.09
536.38	55784.33
536.55	56058.17
536.72	56020.72
536.89	55767.94
537.06	55987.95
537.23	56189.24
537.40	55786.67
537.57	56088.60
537.74	55976.25
537.91	56374.14
538.08	56226.69
538.25	56123.71
538.42	56303.93
538.59	56526.28
538.75	56271.16
538.92	56360.10
539.09	56563.73
539.26	56442.02
539.43	56224.35
539.60	56596.49
539.77	56332.01
539.94	56947.57
540.11	56715.86
540.28	56704.16
540.44	56736.93
540.61	56699.48
540.78	56631.60
540.95	56409.25
541.12	56736.93
541.29	56577.77
541.46	56779.06
541.62	57008.43
541.79	57055.24
541.96	56687.78
542.13	57020.13
542.30	56842.25
542.47	57172.27
542.63	57268.23
542.80	57165.24
542.97	57223.76
543.14	57567.82
543.31	57258.87
543.48	57612.29
543.64	57415.68
543.81	57532.71
543.98	57762.08
544.15	57628.67
544.32	57736.34
544.48	57954.00
544.65	57680.16
544.82	57827.62
544.99	57855.70
545.16	57834.64
545.32	57757.40
545.49	58003.16
545.66	58045.29
545.83	57881.45
546.00	58019.54
546.16	57881.45
546.33	57954.00
546.50	57776.12
546.67	58005.50
546.83	57872.09
547.00	58157.63
547.17	57911.88
547.34	58092.10
547.50	58356.58
547.67	58216.14
547.84	58255.93
548.00	58625.74
548.17	58328.49
548.34	58424.45
548.51	58592.97
548.67	58522.76
548.84	58220.83
549.01	58340.19
549.18	58356.58
549.34	58607.01
549.51	58698.30
549.68	58532.12
549.84	58735.74
550.01	58749.79
550.18	58548.50
550.34	58618.72
550.51	58738.08
550.68	58445.52
550.84	58614.04
551.01	58712.34
551.18	58677.23
551.34	58810.64
551.51	58660.85
551.68	58871.49
551.84	58740.42
552.01	58646.80
552.18	59007.25
552.34	58845.75
552.51	59047.04
552.68	58756.81
552.84	59100.87
553.01	59250.66
553.18	59061.08
553.34	59128.95
553.51	59047.04
553.67	59054.06
553.84	59110.23
554.01	59140.66
554.17	59164.06
554.34	59334.92
554.51	59367.69
554.67	59330.24
554.84	59154.70
555.00	59278.75
555.17	59224.92
555.33	59285.77
555.50	59206.19
555.67	59171.08
555.83	59262.36
556.00	59487.06
556.16	59690.68
556.33	59597.06
556.50	59604.08
556.66	59594.72
556.83	59318.54
556.99	59751.54
557.16	59788.98
557.32	59847.50
557.49	59943.46
557.65	59554.93
557.82	59571.32
557.98	59536.21
558.15	59854.52
558.32	59891.97
558.48	59611.10
558.65	59875.58
558.81	59536.21
558.98	59779.62
559.14	59992.61
559.31	60030.06
559.47	59714.09
559.64	59959.84
559.80	60053.47
559.97	59901.33
560.13	59898.99
560.30	60072.19
560.46	60081.55
560.63	59994.95
560.79	60168.15
560.96	60170.49
561.12	60343.69
561.29	60081.55
561.45	60079.21
561.61	60076.87
561.78	60093.25
561.94	59910.69
562.11	60018.36
562.27	59962.18
562.44	60214.96
562.60	60406.89
562.77	60273.48
562.93	59896.65
563.10	60364.76
563.26	60172.83
563.42	60509.87
563.59	60367.10
563.75	60278.16
563.92	60350.71
564.08	60266.45
564.24	60226.66
564.41	60392.84
564.57	60285.18
564.74	60142.41
564.90	60514.55
565.07	60350.71
565.23	60559.02
565.39	60498.17
565.56	60449.02
565.72	60357.74
565.88	60299.22
566.05	60341.35
566.21	60526.25
566.38	60371.78
566.54	60161.13
566.70	60673.71
566.87	60591.79
567.03	60540.30
567.19	60851.59
567.36	60629.24
567.52	60418.59
567.68	60853.93
567.85	60427.95
568.01	60633.92
568.17	60573.06
568.34	60830.52
568.50	60470.08
568.66	60540.30
568.83	60743.92
568.99	60685.41
569.15	60610.51
569.32	60893.72
569.48	60605.83
569.64	60821.16
569.81	60891.38
569.97	60690.09
570.13	60821.16
570.30	60781.37
570.46	60732.22
570.62	60891.38
570.78	60764.99
570.95	60788.39
571.11	60764.99
571.27	60753.29
571.43	60849.25
571.60	60987.34
571.76	60739.24
571.92	60603.49
572.09	61076.28
572.25	60905.42
572.41	60779.03
572.57	60769.67
572.74	61022.45
572.90	60893.72
573.06	60790.73
573.22	61073.94
573.38	60886.70
573.55	60832.86
573.71	61102.03
573.87	60940.53
574.03	60846.91
574.20	61022.45
574.36	60999.04
574.52	60961.59
574.68	60959.25
574.84	61024.79
575.01	60921.80
575.17	61071.60
575.33	60931.17
575.49	61006.06
575.65	60961.59
575.82	61010.74
575.98	61113.73
576.14	61373.53
576.30	61130.11
576.46	60844.57
576.62	60788.39
576.79	61024.79
576.95	60921.80
577.11	61095.00
577.27	61038.83
577.43	61219.05
577.59	61006.06
577.75	60992.02
577.92	60961.59
578.08	61141.81
578.24	60867.97
578.40	61258.84
578.56	61195.65
578.72	61062.24
578.88	61062.24
579.04	61057.56
579.21	61179.26
579.37	61249.48
579.53	61497.58
579.69	61064.58
579.85	60938.19
580.01	61193.31
580.17	60933.51
580.33	61277.57
580.49	61230.75
580.65	61190.97
580.82	61062.24
580.98	61029.47
581.14	61062.24
581.30	61076.28
581.46	61043.51
581.62	61127.77
581.78	61029.47
581.94	61265.86
582.10	61190.97
582.26	61097.34
582.42	61148.84
582.58	61048.19
582.74	61130.11
582.90	61181.60
583.06	61195.65
583.22	61078.62
583.38	61263.52
583.54	61247.14
583.70	61322.04
583.86	61073.94
584.02	61158.20
584.18	61549.07
584.34	61326.72
584.50	61200.33
584.66	61200.33
584.82	60996.70
584.98	61382.89
585.14	61439.06
585.30	61090.32
585.46	61200.33
585.62	61221.39
585.78	61535.02
585.94	61230.75
586.10	61261.18
586.26	61307.99
586.42	61315.01
586.58	61413.32
586.74	61209.69
586.90	61282.25
587.06	61134.79
587.22	61282.25
587.38	61284.59
587.54	61312.67
587.70	61525.66
587.86	61453.11
588.02	61396.93
588.18	61495.24
588.34	61275.22
588.49	61092.66
