SpectraSuite Data File
++++++++++++++++++++++++++++++++++++
Date: Fri Oct 25 11:25:24 EDT 2013
User: price-jones
Dark Spectrum Present: No
Reference Spectrum Present: No
Number of Sampled Component Spectra: 1
Spectrometers: USB2+H05261
Integration Time (usec): 100000 (USB2+H05261)
Spectra Averaged: 1 (USB2+H05261)
Boxcar Smoothing: 0 (USB2+H05261)
Correct for Electrical Dark: No (USB2+H05261)
Strobe/Lamp Enabled: No (USB2+H05261)
Correct for Detector Non-linearity: No (USB2+H05261)
Correct for Stray Light: No (USB2+H05261)
Number of Pixels in Processed Spectrum: 2048
>>>>>Begin Processed Spectral Data<<<<<
365.73	215.33
365.92	215.33
366.12	215.33
366.32	149.79
366.52	102.98
366.72	145.11
366.91	121.71
367.11	117.03
367.31	128.73
367.51	168.52
367.70	84.26
367.90	126.39
368.10	184.90
368.30	224.69
368.49	145.11
368.69	159.16
368.89	248.10
369.09	182.56
369.28	177.88
369.48	191.92
369.68	126.39
369.87	248.10
370.07	248.10
370.27	175.54
370.47	369.80
370.66	589.82
370.86	657.69
371.06	662.37
371.25	627.26
371.45	603.86
371.65	709.18
371.84	662.37
372.04	702.16
372.24	685.78
372.44	748.97
372.63	723.23
372.83	739.61
373.03	741.95
373.22	788.76
373.42	751.31
373.62	798.12
373.81	821.53
374.01	779.40
374.21	828.55
374.40	767.70
374.60	793.44
374.79	847.27
374.99	833.23
375.19	833.23
375.38	842.59
375.58	826.21
375.78	816.85
375.97	915.15
376.17	922.17
376.37	807.48
376.56	835.57
376.76	741.95
376.95	858.98
377.15	847.27
377.35	887.06
377.54	863.66
377.74	933.87
377.93	894.08
378.13	936.21
378.33	957.28
378.52	901.11
378.72	994.73
378.91	922.17
379.11	919.83
379.31	971.32
379.50	971.32
379.70	1025.15
379.89	973.66
380.09	959.62
380.28	1029.84
380.48	1036.86
380.68	922.17
380.87	1008.77
381.07	1011.11
381.26	1071.97
381.46	957.28
381.65	947.92
381.85	1008.77
382.04	1086.01
382.24	1036.86
382.43	966.64
382.63	1062.60
382.83	1074.31
383.02	1109.41
383.22	1062.60
383.41	1088.35
383.61	1088.35
383.80	1177.29
384.00	1149.20
384.19	1100.05
384.39	1146.86
384.58	1125.80
384.78	1153.88
384.97	1151.54
385.17	1186.65
385.36	1086.01
385.56	1128.14
385.75	1097.71
385.95	1160.91
386.14	1231.12
386.34	1207.72
386.53	1193.67
386.72	1203.04
386.92	1259.21
387.11	1310.70
387.31	1132.82
387.50	1228.78
387.70	1268.57
387.89	1231.12
388.09	1329.42
388.28	1366.87
388.48	1284.95
388.67	1291.98
388.86	1299.00
389.06	1376.24
389.25	1371.55
389.45	1317.72
389.64	1301.34
389.84	1282.61
390.03	1352.83
390.22	1465.18
390.42	1352.83
390.61	1334.11
390.81	1404.32
391.00	1413.68
391.19	1310.70
391.39	1413.68
391.58	1409.00
391.78	1462.83
391.97	1437.09
392.16	1432.41
392.36	1533.05
392.55	1556.46
392.75	1434.75
392.94	1495.60
393.13	1582.20
393.33	1540.07
393.52	1521.35
393.71	1600.93
393.91	1607.95
394.10	1638.38
394.29	1563.48
394.49	1600.93
394.68	1727.32
394.88	1640.72
395.07	1600.93
395.26	1724.97
395.46	1619.65
395.65	1713.27
395.84	1722.63
396.04	1776.47
396.23	1722.63
396.42	1687.53
396.62	1799.87
396.81	1682.85
397.00	1755.40
397.19	1753.06
397.39	1802.21
397.58	1820.94
397.77	1804.55
397.97	1923.92
398.16	1795.19
398.35	1865.41
398.55	1884.13
398.74	1893.49
398.93	1968.39
399.12	1966.05
399.32	1877.11
399.51	1928.60
399.70	1947.33
399.90	1921.58
400.09	2078.40
400.28	2092.44
400.47	2052.65
400.67	2211.81
400.86	2083.08
401.05	2146.27
401.24	2141.59
401.44	2132.23
401.63	2092.44
401.82	2193.08
402.01	2120.53
402.21	2160.31
402.40	2132.23
402.59	2197.76
402.78	2214.15
402.97	2193.08
403.17	2289.04
403.36	2092.44
403.55	2328.83
403.74	2314.79
403.93	2258.62
404.13	2305.43
404.32	2394.37
404.51	2368.62
404.70	2310.11
404.89	2448.20
405.09	2548.84
405.28	2473.95
405.47	2417.77
405.66	2520.76
405.85	2492.67
406.05	2459.90
406.24	2504.37
406.43	2558.21
406.62	2551.18
406.81	2637.78
407.00	2565.23
407.20	2555.86
407.39	2654.17
407.58	2675.23
407.77	2745.45
407.96	2796.94
408.15	2712.68
408.34	2665.87
408.54	2850.77
408.73	2757.15
408.92	2911.63
409.11	2825.03
409.30	2913.97
409.49	2986.52
409.68	2935.03
409.87	2923.33
410.07	3033.33
410.26	3124.62
410.45	2920.99
410.64	2951.42
410.83	3002.91
411.02	3096.53
411.21	3220.58
411.40	3194.83
411.59	3173.77
411.78	3213.56
411.98	3166.74
412.17	3353.99
412.36	3382.07
412.55	3283.77
412.74	3499.10
412.93	3332.92
413.12	3379.73
413.31	3496.76
413.50	3489.74
413.69	3485.06
413.88	3555.27
414.07	3529.53
414.26	3517.83
414.45	3672.30
414.64	3524.85
414.83	3712.09
415.02	3672.30
415.22	3850.18
415.41	3852.52
415.60	3880.61
415.79	3934.44
415.98	4021.04
416.17	3985.93
416.36	3955.51
416.55	3948.48
416.74	4032.74
416.93	4154.45
417.12	4196.58
417.31	4056.15
417.50	4084.23
417.69	4166.15
417.88	4318.29
418.07	4189.56
418.26	4407.23
418.45	4311.27
418.64	4383.82
418.83	4341.69
419.02	4390.84
419.21	4458.72
419.39	4390.84
419.58	4479.79
419.77	4308.93
419.96	4517.23
420.15	4505.53
420.34	4472.76
420.53	4674.05
420.72	4592.13
420.91	4720.86
421.10	4671.71
421.29	4652.98
421.48	4547.66
421.67	4767.67
421.86	4795.76
422.05	4837.89
422.24	4760.65
422.43	4910.44
422.61	4901.08
422.80	4966.62
422.99	4992.36
423.18	4858.95
423.37	5013.43
423.56	4746.61
423.75	4905.76
423.94	4713.84
424.13	4559.36
424.32	4671.71
424.50	4957.25
424.69	5078.96
424.88	4924.49
425.07	4898.74
425.26	4856.61
425.45	5001.72
425.64	4842.57
425.83	4903.42
426.01	5062.58
426.20	4966.62
426.39	5074.28
426.58	4992.36
426.77	4978.32
426.96	5102.37
427.15	5020.45
427.33	5046.20
427.52	5121.09
427.71	5153.86
427.90	5057.90
428.09	5071.94
428.28	5195.99
428.46	5348.12
428.65	5315.36
428.84	5430.04
429.03	5439.40
429.22	5212.37
429.40	5533.03
429.59	5465.15
429.78	5266.21
429.97	5228.76
430.16	5378.55
430.34	5511.96
430.53	5530.69
430.72	5535.37
430.91	5535.37
431.10	5483.88
431.28	5652.39
431.47	5612.60
431.66	5738.99
431.85	5760.06
432.03	5816.23
432.22	5839.64
432.41	5874.74
432.60	6097.10
432.79	5860.70
432.97	5919.21
433.16	5989.43
433.35	5912.19
433.54	6029.22
433.72	6108.80
433.91	6150.93
434.10	6125.18
434.28	6132.20
434.47	6157.95
434.66	6314.77
434.85	6188.38
435.03	6174.33
435.22	6296.04
435.41	6462.22
435.59	6370.94
435.78	6338.17
435.97	6448.18
436.16	6305.40
436.34	6415.41
436.53	6494.99
436.72	6595.63
436.90	6373.28
437.09	6640.10
437.28	6403.71
437.46	6574.56
437.65	6576.91
437.84	6815.64
438.02	6803.94
438.21	6696.27
438.40	6691.59
438.58	7124.59
438.77	6946.71
438.96	6846.07
439.14	6899.90
439.33	7112.89
439.52	7082.46
439.70	7169.06
439.89	7456.95
440.08	7353.96
440.26	7360.98
440.45	7363.33
440.63	7426.52
440.82	7672.28
441.01	7426.52
441.19	7655.89
441.38	7552.91
441.57	7683.98
441.75	7705.04
441.94	7831.43
442.12	7943.78
442.31	7913.35
442.50	7953.14
442.68	7899.31
442.87	7978.89
443.05	8140.38
443.24	8299.54
443.43	8084.21
443.61	8102.93
443.80	8313.58
443.98	8133.36
444.17	7765.90
444.35	8100.59
444.54	8367.42
444.73	8428.27
444.91	8255.07
445.10	8250.39
445.28	8255.07
445.47	8210.60
445.65	8367.42
445.84	8332.31
446.02	8390.82
446.21	8271.45
446.39	8138.04
446.58	8351.03
446.77	8439.97
446.95	8425.93
447.14	8339.33
447.32	8280.82
447.51	8451.67
447.69	8313.58
447.88	8503.17
448.06	8542.96
448.25	8393.16
448.43	8477.42
448.62	8472.74
448.80	8472.74
448.99	8559.34
449.17	8704.45
449.36	8624.87
449.54	8774.67
449.73	8828.50
449.91	8933.82
450.10	8842.54
450.28	8971.27
450.46	9034.47
450.65	8992.34
450.83	9104.68
451.02	8875.31
451.20	9114.05
451.39	9100.00
451.57	9156.18
451.76	8973.61
451.94	9027.45
452.13	9118.73
452.31	9247.46
452.49	9057.87
452.68	9254.48
452.86	9327.03
453.05	9544.70
453.23	9305.97
453.42	9336.40
453.60	9317.67
453.78	9490.87
453.97	9467.47
454.15	9399.59
454.34	9408.95
454.52	9591.52
454.70	9523.64
454.89	9734.29
455.07	9638.33
455.26	9717.90
455.44	9729.61
455.62	9844.29
455.81	9792.80
455.99	9916.85
456.17	9830.25
456.36	9987.07
456.54	10174.31
456.73	10242.18
456.91	10312.40
457.09	10272.61
457.28	10307.72
457.46	10211.76
457.64	10424.75
457.83	10331.12
458.01	10296.02
458.19	10434.11
458.38	10230.48
458.56	10822.64
458.74	10759.44
458.93	10614.33
459.11	10743.06
459.29	10668.16
459.48	10885.83
459.66	10794.55
459.84	10846.04
460.03	10813.28
460.21	10927.96
460.39	10920.94
460.57	10839.02
460.76	10909.24
460.94	11042.65
461.12	11063.71
461.31	11131.59
461.49	11145.63
461.67	11016.90
461.85	11295.43
462.04	11131.59
462.22	11840.77
462.40	11389.05
462.59	11192.44
462.77	11367.98
462.95	11707.36
463.13	11384.37
463.32	11370.32
463.50	11637.14
463.68	11573.95
463.86	11920.35
464.05	11428.84
464.23	11616.08
464.41	11934.39
464.59	11541.18
464.78	12049.08
464.96	11730.76
465.14	11580.97
465.32	12013.97
465.50	11927.37
465.69	12304.20
465.87	12262.07
466.05	12025.67
466.23	12046.74
466.41	12011.63
466.60	12152.06
466.78	12020.99
466.96	11981.20
467.14	12346.33
467.32	12386.12
467.51	12238.66
467.69	11936.73
467.87	12287.81
468.05	12671.66
468.23	12407.18
468.41	12521.87
468.60	12465.69
468.78	12702.09
468.96	12571.02
469.14	12814.43
469.32	13095.30
469.50	12615.49
469.69	12847.20
469.87	12805.07
470.05	12908.05
470.23	13228.71
470.41	13132.75
470.59	13048.49
470.77	12999.34
470.95	13062.53
471.14	13240.41
471.32	13249.77
471.50	13359.78
471.68	13247.43
471.86	13474.46
472.04	13642.98
472.22	13942.57
472.40	13762.35
472.58	13722.56
472.77	13731.92
472.95	13982.36
473.13	14387.27
473.31	13949.59
473.49	14017.47
473.67	14033.85
473.85	14113.43
474.03	14361.53
474.21	14520.68
474.39	14595.58
474.57	14827.29
474.75	14874.10
474.93	14979.43
475.12	14897.51
475.30	15016.88
475.48	14839.00
475.66	15239.23
475.84	14984.11
476.02	15403.07
476.20	15129.22
476.38	15426.47
476.56	15852.45
476.74	15831.38
476.92	15747.12
477.10	15477.96
477.28	16182.46
477.46	16042.03
477.64	16334.60
477.82	16402.47
478.00	16601.42
478.18	16517.16
478.36	16863.56
478.54	17130.38
478.72	17371.46
478.90	17312.94
479.08	17446.35
479.26	17476.78
479.44	17554.02
479.62	17596.15
479.80	17926.16
479.98	18092.34
480.16	18382.57
480.34	18328.74
480.52	18745.35
480.70	18328.74
480.88	18066.60
481.06	18757.05
481.24	19108.13
481.41	18995.79
481.59	19360.91
481.77	19452.19
481.95	19517.73
482.13	19414.74
482.31	19330.48
482.49	20222.23
482.67	19873.49
482.85	20446.92
483.03	20596.71
483.21	20563.95
483.39	20627.14
483.57	20783.96
483.74	21116.31
483.92	21380.79
484.10	21123.33
484.28	21745.92
484.46	21827.84
484.64	22338.07
484.82	21802.09
485.00	22267.86
485.18	22228.07
485.35	22757.03
485.53	22427.01
485.71	22724.26
485.89	22970.02
486.07	23192.37
486.25	22977.04
486.43	23480.25
486.61	23690.90
486.78	23868.78
486.96	24011.56
487.14	24552.22
487.32	24439.87
487.50	24514.77
487.68	24910.32
487.85	25048.41
488.03	25076.50
488.21	25977.61
488.39	25722.49
488.57	25982.29
488.75	26024.42
488.92	26445.71
489.10	26555.72
489.28	26426.99
489.46	27218.09
489.64	27040.21
489.81	27419.38
489.99	27332.78
490.17	27461.51
490.35	27819.61
490.53	28180.05
490.70	28161.33
490.88	28058.34
491.06	28620.07
491.24	28524.11
491.41	29181.80
491.59	29453.30
491.77	28947.75
491.95	29322.23
492.13	29465.00
492.30	29493.09
492.48	29521.18
492.66	30075.88
492.84	30347.39
493.01	30253.76
493.19	30497.18
493.37	30761.66
493.54	30445.69
493.72	30998.06
493.90	31199.34
494.08	31618.30
494.25	31728.30
494.43	31768.09
494.61	32201.09
494.79	32545.15
494.96	32334.50
495.14	32601.32
495.32	33076.45
495.49	32861.12
495.67	33125.60
495.85	33413.49
496.02	33495.41
496.20	33741.16
496.38	33752.87
496.55	33593.71
496.73	34539.29
496.91	34199.91
497.09	34635.25
497.26	34576.73
497.44	34857.60
497.62	34635.25
497.79	35552.74
497.97	34937.18
498.14	35936.59
498.32	36025.53
498.50	35641.68
498.67	36065.31
498.85	35952.97
499.03	36514.70
499.20	36369.58
499.38	36507.68
499.56	36613.00
499.73	37462.61
499.91	37287.07
500.08	37132.60
500.26	37071.75
500.44	37130.26
500.61	37551.56
500.79	37132.60
500.97	37729.44
501.14	38373.08
501.32	38167.12
501.49	38087.54
501.67	38347.34
501.84	38565.01
502.02	38485.43
502.20	38780.34
502.37	38951.20
502.55	38904.38
502.72	39138.44
502.90	39040.14
503.07	39189.93
503.25	38888.00
503.43	39576.12
503.60	39831.24
503.78	39672.08
503.95	40203.38
504.13	40055.93
504.30	40456.16
504.48	40058.27
504.65	40414.03
504.83	40893.84
505.01	40872.78
505.18	40898.52
505.36	41427.48
505.53	41223.86
505.71	41113.85
505.88	41247.26
506.06	41153.64
506.23	41923.68
506.41	41516.42
506.58	41303.43
506.76	42113.26
506.93	42330.93
507.11	42164.75
507.28	42366.04
507.46	42391.78
507.63	42602.43
507.81	42749.88
507.98	42721.80
508.16	42799.04
508.33	43299.91
508.50	43262.46
508.68	43140.75
508.85	43704.82
509.03	43728.23
509.20	43548.01
509.38	43988.03
509.55	44264.21
509.73	44437.41
509.90	44479.54
510.08	44247.83
510.25	44348.47
510.42	44463.16
510.60	44767.43
510.77	45408.73
510.95	44697.21
511.12	44753.38
511.30	44875.09
511.47	45109.14
511.64	44999.14
511.82	45345.54
511.99	45354.90
512.17	45670.87
512.34	45743.43
512.51	45949.40
512.69	45935.35
512.86	46117.92
513.04	46230.26
513.21	46136.64
513.38	46656.24
513.56	46703.05
513.73	46431.55
513.90	46866.89
514.08	46742.84
514.25	46721.77
514.43	47248.39
514.60	47150.09
514.77	47519.90
514.95	47379.46
515.12	47416.91
515.29	47482.45
515.47	47615.86
515.64	47927.15
515.81	47889.70
515.99	47615.86
516.16	48032.47
516.33	48030.13
516.51	48650.38
516.68	48203.33
516.85	48062.90
517.03	48570.80
517.20	48844.64
517.37	48411.64
517.54	48507.60
517.72	48753.36
517.89	48816.55
518.06	48772.08
518.24	49385.30
518.41	49237.85
518.58	49411.05
518.75	48713.57
518.93	49439.14
519.10	49282.32
519.27	49806.60
519.45	49387.64
519.62	49759.79
519.79	49989.16
519.96	49532.76
520.14	50248.96
520.31	49766.81
520.48	49998.52
520.65	50230.24
520.83	50586.00
521.00	50564.93
521.17	50543.87
521.34	50459.61
521.52	50646.85
521.69	50586.00
521.86	50480.67
522.03	50621.11
522.20	51196.88
522.38	51426.25
522.55	50691.32
522.72	50969.85
522.89	51026.02
523.07	51709.46
523.24	51388.80
523.41	51594.77
523.58	51278.80
523.75	51426.25
523.92	51613.49
524.10	51728.18
524.27	51622.86
524.44	51896.70
524.61	51913.08
524.78	51983.30
524.96	51927.13
525.13	51744.56
525.30	52360.12
525.47	52325.02
525.64	52449.06
525.81	52374.17
525.98	52271.18
526.16	52149.48
526.33	52589.50
526.50	52694.82
526.67	52317.99
526.84	52514.60
527.01	52671.42
527.18	52872.70
527.36	52952.28
527.53	53083.35
527.70	53200.38
527.87	53078.67
528.04	52722.91
528.21	53174.63
528.38	52996.75
528.55	53200.38
528.72	52926.53
528.89	53333.79
529.07	53048.24
529.24	52917.17
529.41	53434.43
529.58	53235.48
529.75	53549.12
529.92	53415.71
530.09	53560.82
530.26	53790.19
530.43	53935.30
530.60	53401.66
530.77	53530.39
530.94	53984.46
531.11	53769.13
531.28	53932.96
531.46	54127.23
531.63	53869.77
531.80	53881.47
531.97	54049.99
532.14	54309.79
532.31	53949.35
532.48	54464.27
532.65	54475.97
532.82	54429.16
532.99	54492.35
533.16	54534.48
533.33	54377.67
533.50	54859.82
533.67	54595.34
533.84	54480.65
534.01	54492.35
534.18	54656.19
534.35	54908.97
534.52	54911.31
534.69	54906.63
534.86	54752.15
535.03	54859.82
535.20	55234.30
535.37	55093.87
535.54	55178.13
535.71	54904.29
535.88	55297.50
536.05	55224.94
536.22	55489.42
536.38	55426.23
536.55	55480.06
536.72	55442.61
536.89	55330.26
537.06	55194.51
537.23	55416.86
537.40	55318.56
537.57	55351.33
537.74	55356.01
537.91	55931.78
538.08	55784.33
538.25	55526.87
538.42	55627.51
538.59	55992.64
538.75	55798.37
538.92	55828.80
539.09	55920.08
539.26	55877.95
539.43	56006.68
539.60	56184.56
539.77	56119.02
539.94	56348.40
540.11	56463.08
540.28	56289.88
540.44	56332.01
540.61	55959.87
540.78	56280.52
540.95	56133.07
541.12	56002.00
541.29	56303.93
541.46	56577.77
541.62	56411.59
541.79	56655.01
541.96	56250.09
542.13	56451.38
542.30	56425.64
542.47	56659.69
542.63	56692.46
542.80	56676.07
542.97	56779.06
543.14	57127.80
543.31	56982.68
543.48	56858.63
543.64	57364.19
543.81	57181.63
543.98	57235.46
544.15	57139.50
544.32	57176.95
544.48	57336.10
544.65	57209.71
544.82	57256.53
544.99	57305.68
545.16	57329.08
545.32	57216.74
545.49	57532.71
545.66	57471.85
545.83	57645.05
546.00	57509.30
546.16	57478.88
546.33	57354.83
546.50	57254.18
546.67	57378.23
546.83	57350.15
547.00	57523.35
547.17	57635.69
547.34	57521.01
547.50	57986.77
547.67	58042.95
547.84	57752.72
548.00	57858.04
548.17	57886.13
548.34	57844.00
548.51	58073.37
548.67	57949.32
548.84	58143.59
549.01	57921.24
549.18	58085.07
549.34	58195.08
549.51	58239.55
549.68	58145.93
549.84	57993.79
550.01	58078.05
550.18	58033.58
550.34	58482.97
550.51	58157.63
550.68	58237.21
550.84	58120.18
551.01	58382.32
551.18	58281.68
551.34	58204.44
551.51	58291.04
551.68	58422.11
551.84	58506.37
552.01	58202.10
552.18	58468.92
552.34	58197.42
552.51	58745.11
552.68	58564.88
552.84	58471.26
553.01	58618.72
553.18	58436.16
553.34	58609.35
553.51	58614.04
553.67	58599.99
553.84	58843.41
554.01	58658.51
554.17	58883.20
554.34	59061.08
554.51	58738.08
554.67	58937.03
554.84	58784.90
555.00	58670.21
555.17	58845.75
555.33	58937.03
555.50	58728.72
555.67	58892.56
555.83	58815.32
556.00	58934.69
556.16	59121.93
556.33	59306.83
556.50	58820.00
556.66	59182.79
556.83	58824.68
556.99	59292.79
557.16	59377.05
557.32	59320.88
557.49	59463.65
557.65	59072.78
557.82	59487.06
557.98	59112.57
558.15	59416.84
558.32	59316.20
558.48	59065.76
558.65	59271.73
558.81	59423.86
558.98	59475.35
559.14	59341.94
559.31	59597.06
559.47	59559.61
559.64	59571.32
559.80	59503.44
559.97	59475.35
560.13	59585.36
560.30	59428.54
560.46	59419.18
560.63	59547.91
560.79	59700.04
560.96	59512.80
561.12	59643.87
561.29	59634.51
561.45	59604.08
561.61	59571.32
561.78	59716.43
561.94	59714.09
562.11	59716.43
562.27	59714.09
562.44	59737.49
562.60	59847.50
562.77	59992.61
562.93	59398.12
563.10	59784.30
563.26	59625.15
563.42	59948.14
563.59	59760.90
563.75	59896.65
563.92	59959.84
564.08	59758.56
564.24	60100.28
564.41	59870.90
564.57	60020.70
564.74	59994.95
564.90	59948.14
565.07	59910.69
565.23	60018.36
565.39	59980.91
565.56	60069.85
565.72	59852.18
565.88	60034.74
566.05	59859.20
566.21	59760.90
566.38	60067.51
566.54	60140.07
566.70	60250.07
566.87	60193.90
567.03	59695.36
567.19	60285.18
567.36	60149.43
567.52	60086.23
567.68	60554.34
567.85	60268.79
568.01	60285.18
568.17	60037.08
568.34	60250.07
568.50	60196.24
568.66	59978.57
568.83	60214.96
568.99	60233.69
569.15	60271.14
569.32	60121.34
569.48	60161.13
569.64	60156.45
569.81	60367.10
569.97	60240.71
570.13	60308.58
570.30	60324.97
570.46	60268.79
570.62	60165.81
570.78	60114.32
570.95	60205.60
571.11	60673.71
571.27	60175.17
571.43	60348.37
571.60	60694.77
571.76	60343.69
571.92	60622.22
572.09	60467.74
572.25	60420.93
572.41	60280.50
572.57	60495.83
572.74	60697.11
572.90	60413.91
573.06	60409.23
573.22	60486.46
573.38	60507.53
573.55	60336.67
573.71	60500.51
573.87	60598.81
574.03	60371.78
574.20	60402.21
574.36	60434.97
574.52	60573.06
574.68	60697.11
574.84	60821.16
575.01	60676.05
575.17	60556.68
575.33	60498.17
575.49	60601.15
575.65	60718.18
575.82	60535.62
575.98	60657.32
576.14	60821.16
576.30	60575.40
576.46	60535.62
576.62	60647.96
576.79	60608.17
576.95	60509.87
577.11	60657.32
577.27	60776.69
577.43	60729.88
577.59	60580.09
577.75	60575.40
577.92	60502.85
578.08	60640.94
578.24	60676.05
578.40	61034.15
578.56	60795.42
578.72	60807.12
578.88	60907.76
579.04	60851.59
579.21	60598.81
579.37	60849.25
579.53	60900.74
579.69	60554.34
579.85	60701.79
580.01	60694.77
580.17	60390.50
580.33	60612.85
580.49	61001.38
580.65	60825.84
580.82	60701.79
580.98	60612.85
581.14	60587.11
581.30	60774.35
581.46	60732.22
581.62	60912.44
581.78	60743.92
581.94	60645.62
582.10	60767.33
582.26	60753.29
582.42	60633.92
582.58	60839.89
582.74	60612.85
582.90	60900.74
583.06	60975.64
583.22	60860.95
583.38	60736.90
583.54	60886.70
583.70	60762.65
583.86	60982.66
584.02	60823.50
584.18	60828.18
584.34	60959.25
584.50	60753.29
584.66	60633.92
584.82	60725.20
584.98	60924.14
585.14	60825.84
585.30	60736.90
585.46	60977.98
585.62	60907.76
585.78	60818.82
585.94	60605.83
586.10	60961.59
586.26	60994.36
586.42	60921.80
586.58	60935.85
586.74	60839.89
586.90	60739.24
587.06	60800.10
587.22	60924.14
587.38	60886.70
587.54	60882.02
587.70	61073.94
587.86	61066.92
588.02	60970.96
588.18	61090.32
588.34	60891.38
588.49	60889.04
