SpectraSuite Data File
++++++++++++++++++++++++++++++++++++
Date: Fri Oct 25 11:22:34 EDT 2013
User: price-jones
Dark Spectrum Present: No
Reference Spectrum Present: No
Number of Sampled Component Spectra: 1
Spectrometers: USB2+H05261
Integration Time (usec): 100000 (USB2+H05261)
Spectra Averaged: 1 (USB2+H05261)
Boxcar Smoothing: 0 (USB2+H05261)
Correct for Electrical Dark: No (USB2+H05261)
Strobe/Lamp Enabled: No (USB2+H05261)
Correct for Detector Non-linearity: No (USB2+H05261)
Correct for Stray Light: No (USB2+H05261)
Number of Pixels in Processed Spectrum: 2048
>>>>>Begin Processed Spectral Data<<<<<
365.73	196.60
365.92	196.60
366.12	196.60
366.32	95.96
366.52	100.64
366.72	201.29
366.91	74.90
367.11	107.66
367.31	60.85
367.51	58.51
367.70	163.84
367.90	105.32
368.10	88.94
368.30	114.69
368.49	98.30
368.69	205.97
368.89	88.94
369.09	84.26
369.28	187.24
369.48	128.73
369.68	131.07
369.87	191.92
370.07	173.20
370.27	147.45
370.47	318.31
370.66	627.26
370.86	526.62
371.06	648.33
371.25	662.37
371.45	664.71
371.65	737.27
371.84	685.78
372.04	645.99
372.24	765.36
372.44	788.76
372.63	760.67
372.83	723.23
373.03	819.19
373.22	744.29
373.42	763.01
373.62	718.54
373.81	798.12
374.01	840.25
374.21	830.89
374.40	802.80
374.60	877.70
374.79	741.95
374.99	779.40
375.19	760.67
375.38	873.02
375.58	856.64
375.78	823.87
375.97	802.80
376.17	933.87
376.37	858.98
376.56	814.51
376.76	828.55
376.95	840.25
377.15	922.17
377.35	884.72
377.54	844.93
377.74	884.72
377.93	915.15
378.13	877.70
378.33	964.30
378.52	931.53
378.72	973.66
378.91	1071.97
379.11	866.00
379.31	990.05
379.50	866.00
379.70	968.98
379.89	978.34
380.09	992.39
380.28	929.19
380.48	959.62
380.68	983.02
380.87	976.00
381.07	1015.79
381.26	1057.92
381.46	983.02
381.65	1034.52
381.85	976.00
382.04	1086.01
382.24	997.07
382.43	1102.39
382.63	957.28
382.83	1088.35
383.02	1174.95
383.22	1149.20
383.41	1025.15
383.61	1053.24
383.80	1139.84
384.00	1118.78
384.19	1156.22
384.39	1153.88
384.58	1060.26
384.78	1165.59
384.97	1214.74
385.17	1207.72
385.36	1156.22
385.56	1212.40
385.75	1186.65
385.95	1128.14
386.14	1231.12
386.34	1233.46
386.53	1114.10
386.72	1212.40
386.92	1240.48
387.11	1203.04
387.31	1210.06
387.50	1198.35
387.70	1193.67
387.89	1210.06
388.09	1259.21
388.28	1327.08
388.48	1348.15
388.67	1334.11
388.86	1308.36
389.06	1369.21
389.25	1425.39
389.45	1343.47
389.64	1282.61
389.84	1437.09
390.03	1299.00
390.22	1483.90
390.42	1409.00
390.61	1439.43
390.81	1355.17
391.00	1387.94
391.19	1416.02
391.39	1479.22
391.58	1488.58
391.78	1493.26
391.97	1495.60
392.16	1511.99
392.36	1511.99
392.55	1519.01
392.75	1549.43
392.94	1523.69
393.13	1596.25
393.33	1540.07
393.52	1540.07
393.71	1689.87
393.91	1652.42
394.10	1621.99
394.29	1631.35
394.49	1572.84
394.68	1654.76
394.88	1652.42
395.07	1729.66
395.26	1671.14
395.46	1607.95
395.65	1610.29
395.84	1785.83
396.04	1816.26
396.23	1706.25
396.42	1816.26
396.62	1713.27
396.81	1774.13
397.00	1853.70
397.19	1736.68
397.39	1797.53
397.58	1820.94
397.77	1778.81
397.97	1870.09
398.16	1863.07
398.35	2038.61
398.55	1778.81
398.74	1895.83
398.93	2012.86
399.12	1977.75
399.32	1919.24
399.51	1959.03
399.70	2108.82
399.90	1900.52
400.09	2099.46
400.28	2057.33
400.47	1982.43
400.67	2127.55
400.86	2122.87
401.05	2050.31
401.24	2050.31
401.44	2050.31
401.63	2106.48
401.82	2162.66
402.01	2176.70
402.21	2214.15
402.40	2101.80
402.59	2237.55
402.78	2251.60
402.97	2230.53
403.17	2399.05
403.36	2265.64
403.55	2370.96
403.74	2298.41
403.93	2396.71
404.13	2401.39
404.32	2331.17
404.51	2345.22
404.70	2457.56
404.89	2389.69
405.09	2609.70
405.28	2420.11
405.47	2544.16
405.66	2415.43
405.85	2548.84
406.05	2541.82
406.24	2464.58
406.43	2612.04
406.62	2647.15
406.81	2778.22
407.00	2609.70
407.20	2675.23
407.39	2630.76
407.58	2712.68
407.77	2860.13
407.96	2764.17
408.15	2764.17
408.34	2794.60
408.54	2827.37
408.73	2853.11
408.92	2860.13
409.11	2836.73
409.30	2899.92
409.49	3026.31
409.68	3016.95
409.87	3007.59
410.07	2942.05
410.26	3122.27
410.45	3108.23
410.64	3136.32
410.83	2981.84
411.02	3164.40
411.21	3145.68
411.40	3152.70
411.59	3269.73
411.78	3361.01
411.98	3262.71
412.17	3253.34
412.36	3300.16
412.55	3391.44
412.74	3466.33
412.93	3487.40
413.12	3445.27
413.31	3604.42
413.50	3534.21
413.69	3412.50
413.88	3721.45
414.07	3620.81
414.26	3651.24
414.45	3648.90
414.64	3693.37
414.83	3730.81
415.02	3700.39
415.22	3976.57
415.41	3936.78
415.60	3955.51
415.79	3950.82
415.98	4030.40
416.17	4117.00
416.36	3936.78
416.55	4007.00
416.74	4161.47
416.93	4203.60
417.12	4142.75
417.31	4152.11
417.50	4203.60
417.69	4346.37
417.88	4402.55
418.07	4294.88
418.26	4353.40
418.45	4360.42
418.64	4547.66
418.83	4461.06
419.02	4423.61
419.21	4486.81
419.39	4638.94
419.58	4430.63
419.77	4613.20
419.96	4526.60
420.15	4610.86
420.34	4505.53
420.53	4615.54
420.72	4819.16
420.91	4737.24
421.10	4720.86
421.29	4814.48
421.48	4596.81
421.67	4816.82
421.86	4800.44
422.05	4884.70
422.24	4847.25
422.43	4896.40
422.61	4898.74
422.80	4894.06
422.99	4940.87
423.18	4938.53
423.37	4983.00
423.56	5071.94
423.75	5004.07
423.94	4947.89
424.13	4557.02
424.32	4826.18
424.50	5083.64
424.69	5078.96
424.88	5200.67
425.07	5069.60
425.26	4926.83
425.45	4929.17
425.64	4931.51
425.83	5036.83
426.01	5032.15
426.20	5064.92
426.39	5055.56
426.58	5013.43
426.77	5093.01
426.96	5254.50
427.15	5207.69
427.33	5137.48
427.52	5088.32
427.71	5252.16
427.90	5165.56
428.09	5289.61
428.28	5416.00
428.46	5284.93
428.65	5427.70
428.84	5530.69
429.03	5472.17
429.22	5432.38
429.40	5544.73
429.59	5584.52
429.78	5322.38
429.97	5446.43
430.16	5650.05
430.34	5556.43
430.53	5783.46
430.72	5607.92
430.91	5776.44
431.10	5584.52
431.28	5783.46
431.47	5888.79
431.66	5935.60
431.85	5792.83
432.03	5949.64
432.22	5881.77
432.41	6106.46
432.60	6010.50
432.79	6061.99
432.97	6073.69
433.16	6071.35
433.35	6101.78
433.54	6225.82
433.72	6251.57
433.91	6298.38
434.10	6115.82
434.28	5959.00
434.47	6324.13
434.66	6434.13
434.85	6478.60
435.03	6333.49
435.22	6319.45
435.41	6551.16
435.59	6534.78
435.78	6375.62
435.97	6516.05
436.16	6520.73
436.34	6616.69
436.53	6338.17
436.72	6700.95
436.90	6471.58
437.09	6855.43
437.28	6630.74
437.46	6630.74
437.65	6633.08
437.84	6817.98
438.02	6888.20
438.21	6829.68
438.40	6935.01
438.58	7162.04
438.77	7164.38
438.96	7009.90
439.14	7115.23
439.33	7342.26
439.52	7227.57
439.70	7246.30
439.89	7417.16
440.08	7463.97
440.26	7428.86
440.45	7492.05
440.63	7679.30
440.82	7637.17
441.01	7597.38
441.19	7857.18
441.38	7712.07
441.57	7859.52
441.75	7974.21
441.94	8016.33
442.12	8028.04
442.31	8147.40
442.50	8245.71
442.68	8079.53
442.87	8119.32
443.05	8248.05
443.24	8201.24
443.43	8322.94
443.61	8344.01
443.80	8517.21
443.98	8018.68
444.17	7793.98
444.35	8191.88
444.54	8344.01
444.73	8491.46
444.91	8341.67
445.10	8435.29
445.28	8367.42
445.47	8421.25
445.65	8451.67
445.84	8479.76
446.02	8615.51
446.21	8531.25
446.39	8458.70
446.58	8706.79
446.77	8613.17
446.95	8339.33
447.14	8318.26
447.32	8650.62
447.51	8442.31
447.69	8421.25
447.88	8585.08
448.06	8624.87
448.25	8573.38
448.43	8678.71
448.62	8732.54
448.80	8493.80
448.99	8741.90
449.17	8667.00
449.36	8784.03
449.54	8975.95
449.73	9125.75
449.91	9004.04
450.10	9156.18
450.28	9041.49
450.46	9142.13
450.65	9170.22
450.83	9334.06
451.02	9135.11
451.20	9362.14
451.39	9413.63
451.57	9102.34
451.76	9273.20
451.94	9233.41
452.13	9479.17
452.31	9465.13
452.49	9404.27
452.68	9394.91
452.86	9331.72
453.05	9591.52
453.23	9558.75
453.42	9446.40
453.60	9357.46
453.78	9465.13
453.97	9514.28
454.15	9680.46
454.34	9460.45
454.52	9790.46
454.70	9738.97
454.89	9958.98
455.07	10003.45
455.26	9991.75
455.44	10239.84
455.62	10097.07
455.81	9973.02
455.99	10274.95
456.17	10153.24
456.36	10059.62
456.54	10345.17
456.73	10284.31
456.91	10796.89
457.09	10516.03
457.28	10651.78
457.46	10324.10
457.64	10637.73
457.83	10600.29
458.01	10352.19
458.19	10553.48
458.38	10864.77
458.56	10846.04
458.74	10897.53
458.93	10768.80
459.11	10937.32
459.29	10822.64
459.48	10850.72
459.66	10846.04
459.84	11009.88
460.03	11243.93
460.21	10946.69
460.39	10974.77
460.57	11000.52
460.76	11131.59
460.94	11372.66
461.12	11445.22
461.31	11248.61
461.49	11103.50
461.67	11351.60
461.85	11709.70
462.04	11241.59
462.22	11847.79
462.40	11541.18
462.59	11534.16
462.77	11660.55
462.95	11892.26
463.13	11733.11
463.32	11782.26
463.50	11974.18
463.68	12025.67
463.86	12074.82
464.05	11815.02
464.23	11880.56
464.41	11826.73
464.59	11831.41
464.78	11920.35
464.96	12035.03
465.14	11756.51
465.32	11962.48
465.50	12362.71
465.69	12383.77
465.87	12409.52
466.05	12446.97
466.23	12306.54
466.41	12346.33
466.60	12566.34
466.78	12283.13
466.96	12411.86
467.14	12629.53
467.32	12711.45
467.51	12692.73
467.69	12444.63
467.87	12538.25
468.05	12898.69
468.23	12521.87
468.41	12697.41
468.60	12896.35
468.78	12999.34
468.96	12774.64
469.14	12699.75
469.32	13090.62
469.50	12929.12
469.69	13357.44
469.87	13530.64
470.05	13116.36
470.23	13245.09
470.41	13294.24
470.59	13287.22
470.77	13263.82
470.95	13355.10
471.14	13717.88
471.32	13273.18
471.50	13745.97
471.68	13720.22
471.86	13930.87
472.04	13998.74
472.22	14260.88
472.40	13891.08
472.58	13902.78
472.77	14075.98
472.95	14321.74
473.13	14574.52
473.31	14319.40
473.49	14071.30
473.67	14284.29
473.85	14263.22
474.03	14932.62
474.21	14906.87
474.39	14853.04
474.57	14792.19
474.75	14864.74
474.93	15344.55
475.12	14998.15
475.30	15234.55
475.48	15030.92
475.66	15218.16
475.84	15435.83
476.02	15672.23
476.20	15506.05
476.38	15815.00
476.56	16032.67
476.74	16187.14
476.92	16177.78
477.10	16217.57
477.28	16297.15
477.46	16568.65
477.64	16409.50
477.82	16912.71
478.00	17240.39
478.18	16915.05
478.36	17053.14
478.54	17511.89
478.72	17287.20
478.90	17642.96
479.08	17750.62
479.26	17806.80
479.44	17867.65
479.62	18031.49
479.80	18239.79
479.98	18251.50
480.16	18429.38
480.34	18347.46
480.52	18773.44
480.70	18831.95
480.88	18583.85
481.06	19080.05
481.24	19321.12
481.41	19260.27
481.59	19871.15
481.77	19948.39
481.95	19843.06
482.13	20044.35
482.31	19997.54
482.49	20652.89
482.67	20292.44
482.85	20657.57
483.03	21130.36
483.21	20952.48
483.39	21179.51
483.57	21071.84
483.74	21268.45
483.92	21968.27
484.10	21542.29
484.28	22087.64
484.46	22253.81
484.64	22258.49
484.82	22232.75
485.00	22452.76
485.18	22782.77
485.35	23527.06
485.53	23080.02
485.71	23374.93
485.89	23651.11
486.07	23772.82
486.25	23431.10
486.43	24072.41
486.61	24056.03
486.78	24519.45
486.96	24400.08
487.14	25149.06
487.32	25013.31
487.50	25544.61
487.68	25055.43
487.85	25535.24
488.03	25699.08
488.21	26111.02
488.39	26047.82
488.57	26560.40
488.75	26384.86
488.92	26998.08
489.10	26890.41
489.28	26859.99
489.46	27250.86
489.64	27447.46
489.81	27782.16
489.99	28039.62
490.17	28322.82
490.35	28858.81
490.53	28701.99
490.70	28369.63
490.88	28720.71
491.06	28966.47
491.24	29252.02
491.41	29181.80
491.59	29605.44
491.77	29638.20
491.95	30008.01
492.13	30288.87
492.30	30431.65
492.48	30326.32
492.66	30682.08
492.84	30581.44
493.01	30913.80
493.19	30850.60
493.37	31295.30
493.54	31290.62
493.72	31819.58
493.90	31934.27
494.08	32119.17
494.25	32268.97
494.43	32107.47
494.61	32613.02
494.79	32762.82
494.96	32664.52
495.14	33479.02
495.32	33443.91
495.49	33701.37
495.67	34038.41
495.85	34387.15
496.02	34265.44
496.20	34394.17
496.38	34691.42
496.55	34410.56
496.73	35264.85
496.91	34600.14
497.09	35164.21
497.26	35393.58
497.44	35248.47
497.62	35707.21
497.79	36348.52
497.97	36009.14
498.14	36322.77
498.32	36591.94
498.50	36495.97
498.67	36982.80
498.85	36706.62
499.03	37167.71
499.20	37109.19
499.38	37027.28
499.56	37378.36
499.73	37944.76
499.91	37787.95
500.08	38064.13
500.26	37797.31
500.44	37907.32
500.61	38227.97
500.79	38010.30
500.97	38431.60
501.14	38808.42
501.32	38801.40
501.49	39122.05
501.67	39456.75
501.84	39707.19
502.02	39351.43
502.20	39636.97
502.37	39625.27
502.55	39421.64
502.72	39894.43
502.90	39922.52
503.07	39903.79
503.25	40374.24
503.43	40261.90
503.60	40708.94
503.78	40896.18
503.95	41031.93
504.13	41134.92
504.30	41034.27
504.48	40942.99
504.65	40701.92
504.83	41448.55
505.01	41825.37
505.18	41680.26
505.36	42249.01
505.53	41890.91
505.71	41839.42
505.88	42075.81
506.06	42141.35
506.23	42265.39
506.41	42424.55
506.58	42483.06
506.76	42609.45
506.93	42787.33
507.11	42490.09
507.28	43194.59
507.46	43400.55
507.63	43793.76
507.81	43262.46
507.98	43585.46
508.16	43681.42
508.33	43929.51
508.50	43995.05
508.68	43903.77
508.85	44493.58
509.03	44348.47
509.20	44774.45
509.38	44949.99
509.55	45034.25
509.73	45010.84
509.90	45095.10
510.08	44669.12
510.25	44910.20
510.42	45593.64
510.60	45436.82
510.77	45223.83
510.95	45773.86
511.12	45790.24
511.30	45415.76
511.47	45787.90
511.64	45860.46
511.82	46305.16
511.99	46375.37
512.17	46410.48
512.34	46529.85
512.51	46532.19
512.69	47091.58
512.86	46944.12
513.04	46787.31
513.21	46511.13
513.38	47224.99
513.56	47407.55
513.73	47114.98
513.90	47332.65
514.08	47372.44
514.25	47672.03
514.43	47807.78
514.60	47641.60
514.77	47988.00
514.95	48011.41
515.12	48018.43
515.29	47882.68
515.47	48273.55
515.64	48706.55
515.81	48512.28
515.99	48846.98
516.16	48788.47
516.33	48762.72
516.51	48910.17
516.68	49242.53
516.85	48748.68
517.03	49296.36
517.20	49130.19
517.37	49361.90
517.54	48947.62
517.72	49666.17
517.89	49521.05
518.06	49808.94
518.24	49890.86
518.41	49619.36
518.58	49790.22
518.75	49668.51
518.93	50127.25
519.10	49762.13
519.27	50272.37
519.45	50302.79
519.62	50103.85
519.79	49958.73
519.96	50461.95
520.14	50827.07
520.31	50347.26
520.48	51077.51
520.65	50574.30
520.83	51208.58
521.00	51011.98
521.17	50899.63
521.34	51098.58
521.52	51171.13
521.69	51325.61
521.86	51264.75
522.03	51409.87
522.20	51444.98
522.38	51742.22
522.55	51672.01
522.72	51943.51
522.89	51681.37
523.07	51887.34
523.24	51882.66
523.41	52002.02
523.58	51973.94
523.75	52329.70
523.92	51938.83
524.10	52296.93
524.27	52376.51
524.44	52299.27
524.61	52177.56
524.78	52493.54
524.96	52430.34
525.13	52720.57
525.30	52598.86
525.47	52945.26
525.64	52814.19
525.81	53038.88
525.98	53010.79
526.16	52971.00
526.33	52947.60
526.50	53635.72
526.67	53073.99
526.84	53303.36
527.01	53202.72
527.18	53251.87
527.36	53406.34
527.53	53324.43
527.70	53602.95
527.87	53717.64
528.04	53624.01
528.21	53846.36
528.38	53471.88
528.55	54028.93
528.72	53844.02
528.89	53848.71
529.07	53961.05
529.24	53853.39
529.41	54199.79
529.58	53937.65
529.75	54251.28
529.92	54401.07
530.09	54035.95
530.26	54370.64
530.43	54457.24
530.60	54211.49
530.77	54267.66
530.94	54625.76
531.11	54457.24
531.28	54295.75
531.46	54426.82
531.63	54686.62
531.80	54677.25
531.97	54763.85
532.14	54944.08
532.31	54859.82
532.48	55173.45
532.65	55395.80
532.82	54546.18
532.99	54892.58
533.16	54864.50
533.33	55238.98
533.50	55269.41
533.67	55042.38
533.84	55011.95
534.01	55229.62
534.18	55505.80
534.35	55473.04
534.52	55405.16
534.69	55634.53
534.86	55302.18
535.03	55363.03
535.20	55473.04
535.37	55557.30
535.54	55709.43
535.71	55601.77
535.88	55959.87
536.05	55800.71
536.22	55531.55
536.38	55927.10
536.55	55751.56
536.72	55941.14
536.89	56009.02
537.06	55994.98
537.23	56292.22
537.40	56058.17
537.57	56034.77
537.74	56203.28
537.91	56229.03
538.08	56037.11
538.25	55870.93
538.42	56144.77
538.59	56580.11
538.75	56254.78
538.92	56247.75
539.09	56647.99
539.26	56086.26
539.43	56329.67
539.60	56690.12
539.77	56542.66
539.94	56757.99
540.11	56498.19
540.28	56708.84
540.44	56615.22
540.61	56797.78
540.78	56655.01
540.95	56776.72
541.12	56748.63
541.29	56736.93
541.46	57017.79
541.62	56978.00
541.79	57008.43
541.96	56809.48
542.13	57010.77
542.30	57078.64
542.47	57062.26
542.63	56917.15
542.80	57144.18
542.97	57469.51
543.14	57574.84
543.31	57460.15
543.48	57420.36
543.64	57598.24
543.81	57425.04
543.98	57623.99
544.15	57647.39
544.32	57719.95
544.48	57701.23
544.65	57584.20
544.82	57771.44
544.99	57649.74
545.16	57731.65
545.32	57490.58
545.49	57893.15
545.66	57961.03
545.83	58145.93
546.00	57937.62
546.16	58066.35
546.33	57733.99
546.50	57680.16
546.67	57900.17
546.83	57946.98
547.00	58178.70
547.17	58115.50
547.34	58059.33
547.50	58319.13
547.67	58379.98
547.84	58066.35
548.00	58349.56
548.17	58468.92
548.34	58377.64
548.51	58433.81
548.67	58382.32
548.84	58489.99
549.01	58424.45
549.18	58375.30
549.34	58415.09
549.51	58529.78
549.68	58464.24
549.84	58447.86
550.01	58504.03
550.18	58443.18
550.34	58745.11
550.51	58478.28
550.68	58796.60
550.84	58223.17
551.01	58937.03
551.18	58766.17
551.34	58564.88
551.51	58805.96
551.68	58885.54
551.84	58733.40
552.01	58735.74
552.18	58887.88
552.34	58798.94
552.51	58918.31
552.68	58848.09
552.84	59054.06
553.01	59222.58
553.18	59124.27
553.34	58960.44
553.51	59028.31
553.67	59063.42
553.84	59327.90
554.01	59014.27
554.17	59269.39
554.34	59358.33
554.51	59234.28
554.67	59309.18
554.84	59227.26
555.00	59386.41
555.17	59346.62
555.33	59128.95
555.50	59231.94
555.67	59440.24
555.83	59475.35
556.00	59302.15
556.16	59650.89
556.33	59653.23
556.50	59461.31
556.66	59412.16
556.83	59241.30
556.99	59664.94
557.16	59646.21
557.32	59655.57
557.49	59781.96
557.65	59573.66
557.82	59550.25
557.98	59646.21
558.15	59728.13
558.32	59496.42
558.48	59711.75
558.65	59760.90
558.81	59833.46
558.98	59849.84
559.14	59870.90
559.31	59873.24
559.47	59964.52
559.64	59976.23
559.80	60006.65
559.97	59978.57
560.13	59725.79
560.30	59976.23
560.46	59973.89
560.63	60296.88
560.79	60076.87
560.96	60245.39
561.12	60142.41
561.29	60170.49
561.45	60147.09
561.61	60030.06
561.78	60154.11
561.94	60172.83
562.11	59994.95
562.27	60268.79
562.44	60252.41
562.60	60210.28
562.77	60383.48
562.93	60114.32
563.10	60264.11
563.26	60205.60
563.42	60559.02
563.59	60287.52
563.75	60205.60
563.92	60402.21
564.08	60287.52
564.24	60474.76
564.41	60465.40
564.57	60280.50
564.74	60484.12
564.90	60535.62
565.07	60446.68
565.23	60324.97
565.39	60339.01
565.56	60329.65
565.72	60418.59
565.88	60411.57
566.05	60275.82
566.21	60364.76
566.38	60559.02
566.54	60516.89
566.70	60598.81
566.87	60626.90
567.03	60411.57
567.19	60743.92
567.36	60624.56
567.52	60552.00
567.68	60781.37
567.85	60669.03
568.01	60708.82
568.17	60540.30
568.34	60666.69
568.50	60664.35
568.66	60561.36
568.83	60654.98
568.99	60626.90
569.15	60622.22
569.32	60542.64
569.48	60463.06
569.64	60772.01
569.81	60865.63
569.97	60818.82
570.13	60722.86
570.30	60697.11
570.46	60795.42
570.62	60816.48
570.78	60807.12
570.95	60685.41
571.11	60858.61
571.27	60825.84
571.43	60800.10
571.60	60987.34
571.76	60821.16
571.92	60711.16
572.09	60914.78
572.25	60825.84
572.41	60659.66
572.57	60917.12
572.74	61167.56
572.90	60910.10
573.06	60949.89
573.22	60877.33
573.38	60919.46
573.55	60952.23
573.71	61003.72
573.87	60982.66
574.03	60893.72
574.20	60938.19
574.36	60893.72
574.52	61052.87
574.68	60849.25
574.84	61247.14
575.01	61020.11
575.17	60863.29
575.33	61041.17
575.49	60949.89
575.65	61104.37
575.82	61029.47
575.98	60926.49
576.14	61279.91
576.30	60956.91
576.46	60907.76
576.62	60919.46
576.79	61151.18
576.95	61071.60
577.11	61132.45
577.27	60956.91
577.43	60931.17
577.59	60938.19
577.75	60837.54
577.92	61045.85
578.08	60926.49
578.24	61010.74
578.40	61181.60
578.56	61343.10
578.72	61183.94
578.88	61219.05
579.04	61528.00
579.21	61073.94
579.37	61197.99
579.53	61357.14
579.69	60959.25
579.85	61127.77
580.01	61254.16
580.17	61102.03
580.33	61254.16
580.49	61354.80
580.65	61078.62
580.82	60970.96
580.98	61057.56
581.14	61109.05
581.30	61235.44
581.46	61165.22
581.62	61172.24
581.78	61055.21
581.94	61261.18
582.10	61066.92
582.26	61244.80
582.42	61331.40
582.58	61123.09
582.74	61137.13
582.90	61263.52
583.06	61134.79
583.22	61130.11
583.38	61125.43
583.54	61277.57
583.70	61326.72
583.86	61279.91
584.02	61078.62
584.18	61315.01
584.34	61268.20
584.50	61212.03
584.66	61097.34
584.82	61116.07
584.98	61406.30
585.14	61272.88
585.30	61158.20
585.46	61212.03
585.62	61333.74
585.78	61317.35
585.94	61158.20
586.10	61300.97
586.26	61305.65
586.42	61303.31
586.58	61422.68
586.74	61190.97
586.90	61485.87
587.06	61240.12
587.22	61307.99
587.38	61289.27
587.54	61506.94
587.70	61570.13
587.86	61382.89
588.02	61371.19
588.18	61418.00
588.34	61188.63
588.49	61209.69
