SpectraSuite Data File
++++++++++++++++++++++++++++++++++++
Date: Fri Oct 25 11:25:17 EDT 2013
User: price-jones
Dark Spectrum Present: No
Reference Spectrum Present: No
Number of Sampled Component Spectra: 1
Spectrometers: USB2+H05261
Integration Time (usec): 100000 (USB2+H05261)
Spectra Averaged: 1 (USB2+H05261)
Boxcar Smoothing: 0 (USB2+H05261)
Correct for Electrical Dark: No (USB2+H05261)
Strobe/Lamp Enabled: No (USB2+H05261)
Correct for Detector Non-linearity: No (USB2+H05261)
Correct for Stray Light: No (USB2+H05261)
Number of Pixels in Processed Spectrum: 2048
>>>>>Begin Processed Spectral Data<<<<<
365.73	236.39
365.92	236.39
366.12	236.39
366.32	114.69
366.52	84.26
366.72	128.73
366.91	175.54
367.11	177.88
367.31	79.58
367.51	170.86
367.70	145.11
367.90	142.77
368.10	95.96
368.30	177.88
368.49	93.62
368.69	131.07
368.89	156.82
369.09	84.26
369.28	166.18
369.48	184.90
369.68	156.82
369.87	182.56
370.07	208.31
370.27	252.78
370.47	344.06
370.66	543.00
370.86	603.86
371.06	688.12
371.25	641.31
371.45	641.31
371.65	636.63
371.84	566.41
372.04	720.88
372.24	814.51
372.44	734.93
372.63	709.18
372.83	734.93
373.03	699.82
373.22	739.61
373.42	791.10
373.62	798.12
373.81	685.78
374.01	793.44
374.21	779.40
374.40	840.25
374.60	870.68
374.79	816.85
374.99	788.76
375.19	894.08
375.38	851.96
375.58	812.17
375.78	938.55
375.97	870.68
376.17	880.04
376.37	858.98
376.56	849.61
376.76	809.83
376.95	873.02
377.15	833.23
377.35	924.51
377.54	931.53
377.74	903.45
377.93	910.47
378.13	908.13
378.33	945.58
378.52	940.90
378.72	954.94
378.91	931.53
379.11	936.21
379.31	917.49
379.50	940.90
379.70	959.62
379.89	980.68
380.09	999.41
380.28	1029.84
380.48	1123.46
380.68	922.17
380.87	976.00
381.07	980.68
381.26	966.64
381.46	1041.54
381.65	1015.79
381.85	1067.28
382.04	1050.90
382.24	1060.26
382.43	1086.01
382.63	1076.65
382.83	1048.56
383.02	1193.67
383.22	1128.14
383.41	1046.22
383.61	1111.75
383.80	1146.86
384.00	1118.78
384.19	1100.05
384.39	1165.59
384.58	1102.39
384.78	1205.38
384.97	1109.41
385.17	1107.07
385.36	1060.26
385.56	1207.72
385.75	1231.12
385.95	1179.63
386.14	1170.27
386.34	1240.48
386.53	1212.40
386.72	1214.74
386.92	1249.85
387.11	1294.32
387.31	1263.89
387.50	1198.35
387.70	1207.72
387.89	1170.27
388.09	1303.68
388.28	1366.87
388.48	1252.19
388.67	1275.59
388.86	1313.04
389.06	1270.91
389.25	1301.34
389.45	1306.02
389.64	1392.62
389.84	1387.94
390.03	1413.68
390.22	1385.60
390.42	1362.19
390.61	1315.38
390.81	1320.06
391.00	1394.96
391.19	1387.94
391.39	1409.00
391.58	1497.94
391.78	1383.26
391.97	1441.77
392.16	1544.75
392.36	1540.07
392.55	1514.33
392.75	1542.41
392.94	1458.15
393.13	1533.05
393.33	1563.48
393.52	1561.14
393.71	1610.29
393.91	1614.97
394.10	1640.72
394.29	1605.61
394.49	1640.72
394.68	1596.25
394.88	1624.33
395.07	1657.10
395.26	1666.46
395.46	1701.57
395.65	1727.32
395.84	1551.78
396.04	1708.59
396.23	1750.72
396.42	1748.38
396.62	1872.43
396.81	1788.17
397.00	1774.13
397.19	1837.32
397.39	1762.42
397.58	1797.53
397.77	1832.64
397.97	1858.39
398.16	1769.44
398.35	1870.09
398.55	1935.62
398.74	1947.33
398.93	2040.95
399.12	1825.62
399.32	1870.09
399.51	1851.36
399.70	1991.80
399.90	1895.83
400.09	1949.67
400.28	2038.61
400.47	2080.74
400.67	2148.61
400.86	1994.14
401.05	2026.90
401.24	2136.91
401.44	2113.50
401.63	2129.89
401.82	2188.40
402.01	2193.08
402.21	2122.87
402.40	2209.47
402.59	2207.13
402.78	2132.23
402.97	2188.40
403.17	2242.23
403.36	2157.97
403.55	2221.17
403.74	2239.89
403.93	2340.54
404.13	2324.15
404.32	2349.90
404.51	2368.62
404.70	2382.67
404.89	2399.05
405.09	2469.27
405.28	2438.84
405.47	2438.84
405.66	2368.62
405.85	2588.63
406.05	2516.08
406.24	2544.16
406.43	2546.50
406.62	2637.78
406.81	2619.06
407.00	2544.16
407.20	2513.74
407.39	2614.38
407.58	2628.42
407.77	2693.96
407.96	2731.41
408.15	2722.04
408.34	2825.03
408.54	2698.64
408.73	2759.49
408.92	2810.98
409.11	2860.13
409.30	2972.48
409.49	2906.95
409.68	2944.39
409.87	2869.50
410.07	2937.37
410.26	3014.61
410.45	2986.52
410.64	3038.02
410.83	3089.51
411.02	3028.65
411.21	3091.85
411.40	3052.06
411.59	3286.11
411.78	3180.79
411.98	3187.81
412.17	3307.18
412.36	3267.39
412.55	3447.61
412.74	3382.07
412.93	3426.54
413.12	3304.84
413.31	3513.14
413.50	3578.68
413.69	3478.04
413.88	3588.04
414.07	3545.91
414.26	3672.30
414.45	3557.61
414.64	3538.89
414.83	3672.30
415.02	3768.26
415.22	3735.50
415.41	3756.56
415.60	3941.46
415.79	3871.25
415.98	3908.69
416.17	3892.31
416.36	3812.73
416.55	4037.42
416.74	4173.18
416.93	4032.74
417.12	4156.79
417.31	4175.52
417.50	4154.45
417.69	4217.65
417.88	4337.01
418.07	4273.82
418.26	4250.41
418.45	4315.95
418.64	4477.44
418.83	4479.79
419.02	4374.46
419.21	4454.04
419.39	4606.17
419.58	4442.34
419.77	4432.97
419.96	4582.77
420.15	4664.69
420.34	4533.62
420.53	4475.10
420.72	4678.73
420.91	4652.98
421.10	4751.29
421.29	4697.46
421.48	4723.20
421.67	4674.05
421.86	4737.24
422.05	4755.97
422.24	4896.40
422.43	4835.55
422.61	4844.91
422.80	4861.29
422.99	4873.00
423.18	4830.87
423.37	4945.55
423.56	5011.09
423.75	4931.51
423.94	4627.24
424.13	4650.64
424.32	4695.11
424.50	5022.79
424.69	5046.20
424.88	4985.34
425.07	4971.30
425.26	4870.65
425.45	4877.68
425.64	4910.44
425.83	4826.18
426.01	4964.28
426.20	5032.15
426.39	5013.43
426.58	4987.68
426.77	4891.72
426.96	5088.32
427.15	5111.73
427.33	5203.01
427.52	5163.22
427.71	5123.43
427.90	5029.81
428.09	5341.10
428.28	5303.65
428.46	5228.76
428.65	5289.61
428.84	5535.37
429.03	5460.47
429.22	5406.64
429.40	5430.04
429.59	5481.53
429.78	5376.21
429.97	5334.08
430.16	5617.29
430.34	5504.94
430.53	5586.86
430.72	5689.84
430.91	5654.73
431.10	5628.99
431.28	5605.58
431.47	5713.25
431.66	5764.74
431.85	5729.63
432.03	5947.30
432.22	5806.87
432.41	5907.51
432.60	5947.30
432.79	5963.68
432.97	5935.60
433.16	5881.77
433.35	5844.32
433.54	6061.99
433.72	6181.35
433.91	6078.37
434.10	6057.31
434.28	5916.87
434.47	6057.31
434.66	6284.34
434.85	6216.46
435.03	6228.17
435.22	6228.17
435.41	6349.87
435.59	6366.26
435.78	6347.53
435.97	6532.44
436.16	6314.77
436.34	6455.20
436.53	6483.28
436.72	6635.42
436.90	6321.79
437.09	6619.04
437.28	6289.02
437.46	6621.38
437.65	6712.66
437.84	6834.36
438.02	7026.29
438.21	6843.73
438.40	6661.16
438.58	6918.62
438.77	7026.29
438.96	7087.14
439.14	7112.89
439.33	6972.46
439.52	7091.82
439.70	7419.50
439.89	7356.30
440.08	7386.73
440.26	7108.21
440.45	7229.91
440.63	7421.84
440.82	7550.57
441.01	7550.57
441.19	7496.74
441.38	7695.68
441.57	7625.47
441.75	7812.71
441.94	8002.29
442.12	7880.58
442.31	8114.64
442.50	8016.33
442.68	7918.03
442.87	7936.76
443.05	8126.34
443.24	8051.44
443.43	8100.59
443.61	8065.49
443.80	8320.60
443.98	8009.31
444.17	7812.71
444.35	7988.25
444.54	8491.46
444.73	8484.44
444.91	8175.49
445.10	8208.26
445.28	8262.09
445.47	8189.53
445.65	8327.63
445.84	8175.49
446.02	8372.10
446.21	8428.27
446.39	8325.29
446.58	8463.38
446.77	8566.36
446.95	8149.75
447.14	8463.38
447.32	8622.53
447.51	8519.55
447.69	8379.12
447.88	8500.83
448.06	8554.66
448.25	8348.69
448.43	8631.90
448.62	8542.96
448.80	8320.60
448.99	8519.55
449.17	8762.97
449.36	8585.08
449.54	8777.01
449.73	8821.48
449.91	8828.50
450.10	8697.43
450.28	8919.78
450.46	9060.21
450.65	8828.50
450.83	8990.00
451.02	9067.24
451.20	9172.56
451.39	9062.55
451.57	9067.24
451.76	9137.45
451.94	9100.00
452.13	9357.46
452.31	8910.42
452.49	9191.28
452.68	9252.14
452.86	9350.44
453.05	9317.67
453.23	9268.52
453.42	9259.16
453.60	9451.08
453.78	9357.46
453.97	9469.81
454.15	9537.68
454.34	9434.70
454.52	9806.84
454.70	9909.83
454.89	9687.48
455.07	9565.77
455.26	9708.54
455.44	9830.25
455.62	9856.00
455.81	9942.60
455.99	10050.26
456.17	9996.43
456.36	9853.66
456.54	9968.34
456.73	10188.35
456.91	10553.48
457.09	10244.52
457.28	10221.12
457.46	10228.14
457.64	10272.61
457.83	10349.85
458.01	10471.56
458.19	10789.87
458.38	10349.85
458.56	10752.42
458.74	10619.01
458.93	10410.70
459.11	10703.27
459.29	10607.31
459.48	10663.48
459.66	10724.33
459.84	10930.30
460.03	10803.91
460.21	10813.28
460.39	10949.03
460.57	10810.93
460.76	10949.03
460.94	11110.52
461.12	11112.86
461.31	11108.18
461.49	11103.50
461.67	11047.33
461.85	11248.61
462.04	11534.16
462.22	11559.91
462.40	11529.48
462.59	11569.27
462.77	11543.52
462.95	11576.29
463.13	11499.05
463.32	11566.93
463.50	11690.98
463.68	11611.40
463.86	11765.87
464.05	11440.54
464.23	11688.64
464.41	11845.45
464.59	11524.80
464.78	12077.16
464.96	11847.79
465.14	11847.79
465.32	12147.38
465.50	12184.83
465.69	12217.60
465.87	12154.40
466.05	12123.98
466.23	11936.73
466.41	12161.42
466.60	12189.51
466.78	12212.92
466.96	12306.54
467.14	12184.83
467.32	12217.60
467.51	12482.08
467.69	12060.78
467.87	12493.78
468.05	12432.93
468.23	12372.07
468.41	12315.90
468.60	12589.74
468.78	12772.30
468.96	12477.40
469.14	12704.43
469.32	13006.36
469.50	12549.95
469.69	12720.81
469.87	12762.94
470.05	12959.55
470.23	12894.01
470.41	12901.03
470.59	13188.92
470.77	13074.23
470.95	13205.30
471.14	13319.99
471.32	13275.52
471.50	13579.79
471.68	13532.98
471.86	13600.85
472.04	13518.93
472.22	13949.59
472.40	13387.86
472.58	13844.27
472.77	13984.70
472.95	13870.01
473.13	14530.05
473.31	13902.78
473.49	14036.19
473.67	14216.41
473.85	14277.27
474.03	14497.28
474.21	14394.29
474.39	14714.95
474.57	14375.57
474.75	14813.25
474.93	14925.60
475.12	14796.87
475.30	14911.55
475.48	14979.43
475.66	14934.96
475.84	15035.60
476.02	15335.19
476.20	15353.91
476.38	15424.13
476.56	15878.19
476.74	16114.59
476.92	16011.60
477.10	15751.81
477.28	16142.67
477.46	16280.77
477.64	16374.39
477.82	16482.05
478.00	16737.17
478.18	16704.40
478.36	16732.49
478.54	17022.72
478.72	16837.81
478.90	17102.29
479.08	17338.69
479.26	17685.09
479.44	17385.50
479.62	17610.19
479.80	17715.51
479.98	18092.34
480.16	18368.52
480.34	18146.17
480.52	18326.39
480.70	18724.29
480.88	18345.12
481.06	18640.03
481.24	18939.62
481.41	18904.51
481.59	19168.99
481.77	19384.32
481.95	19775.19
482.13	19271.97
482.31	19393.68
482.49	20196.48
482.67	20002.22
482.85	20208.19
483.03	20514.80
483.21	20596.71
483.39	20809.70
483.57	20882.26
483.74	21025.03
483.92	21305.90
484.10	21081.21
484.28	21341.00
484.46	21809.11
484.64	22136.79
484.82	21963.59
485.00	21783.37
485.18	22932.57
485.35	22738.30
485.53	22560.42
485.71	22759.37
485.89	23435.78
486.07	23248.54
486.25	23026.19
486.43	23374.93
486.61	23803.25
486.78	23777.50
486.96	23953.04
487.14	24355.61
487.32	24606.05
487.50	25034.37
487.68	24690.31
487.85	25142.03
488.03	25450.99
488.21	25727.17
488.39	25619.50
488.57	25832.49
488.75	26354.43
488.92	26518.27
489.10	26396.56
489.28	26515.93
489.46	26888.07
489.64	26902.12
489.81	27765.78
489.99	27674.49
490.17	27517.68
490.35	27885.14
490.53	28030.26
490.70	28205.80
490.88	28252.61
491.06	28774.55
491.24	28875.19
491.41	28884.55
491.59	28699.65
491.77	29071.79
491.95	29352.66
492.13	29436.92
492.30	29867.58
492.48	29935.45
492.66	30279.51
492.84	30136.74
493.01	30897.41
493.19	30452.71
493.37	31002.74
493.54	30850.60
493.72	31218.07
493.90	30962.95
494.08	31175.94
494.25	31637.02
494.43	31552.76
494.61	32203.43
494.79	32191.73
494.96	32456.21
495.14	32643.45
495.32	33132.62
495.49	32870.48
495.67	32718.35
495.85	33745.84
496.02	33743.50
496.20	33865.21
496.38	33869.89
496.55	33963.51
496.73	34785.04
496.91	34576.73
497.09	34223.31
497.26	34738.23
497.44	34675.04
497.62	35124.42
497.79	35477.84
497.97	35309.32
498.14	36006.80
498.32	35585.50
498.50	36189.36
498.67	36416.40
498.85	36388.31
499.03	36318.09
499.20	36580.23
499.38	36753.43
499.56	37029.62
499.73	36591.94
499.91	36856.42
500.08	37453.25
500.26	37329.20
500.44	37460.27
500.61	37778.59
500.79	37787.95
500.97	38143.71
501.14	38256.06
501.32	38382.45
501.49	38658.63
501.67	38089.88
501.84	39044.82
502.02	38352.02
502.20	39257.81
502.37	38995.67
502.55	38967.58
502.72	39110.35
502.90	39601.86
503.07	39466.11
503.25	39695.49
503.43	39412.28
503.60	39920.18
503.78	40121.46
503.95	40163.59
504.13	40177.64
504.30	40390.62
504.48	40203.38
504.65	40552.12
504.83	41024.91
505.01	41244.92
505.18	41263.64
505.36	41205.13
505.53	41209.81
505.71	41453.23
505.88	41507.06
506.06	41020.23
506.23	41544.51
506.41	41804.31
506.58	41940.06
506.76	41776.22
506.93	41947.08
507.11	42162.41
507.28	42731.16
507.46	42209.22
507.63	42557.96
507.81	42937.13
507.98	42401.14
508.16	43255.44
508.33	42948.83
508.50	43430.98
508.68	43264.80
508.85	43988.03
509.03	43548.01
509.20	43447.36
509.38	44091.01
509.55	44102.71
509.73	44664.44
509.90	44538.05
510.08	44589.55
510.25	44217.40
510.42	44634.02
510.60	44442.09
510.77	45111.49
510.95	45118.51
511.12	45085.74
511.30	44914.88
511.47	45261.28
511.64	45209.79
511.82	45846.41
511.99	45139.57
512.17	45340.86
512.34	45691.94
512.51	45708.32
512.69	46354.31
512.86	45633.42
513.04	46366.01
513.21	46337.93
513.38	46768.58
513.56	46422.19
513.73	46461.97
513.90	46871.57
514.08	47056.47
514.25	46958.17
514.43	46691.35
514.60	47255.42
514.77	47129.03
514.95	47723.52
515.12	47433.30
515.29	47531.60
515.47	47704.80
515.64	47856.93
515.81	48320.36
515.99	48198.65
516.16	48156.52
516.33	47782.04
516.51	48318.02
516.68	48418.66
516.85	48404.62
517.03	48402.28
517.20	48589.52
517.37	48643.35
517.54	48662.08
517.72	48547.39
517.89	48692.50
518.06	48877.41
518.24	48736.98
518.41	49078.69
518.58	48736.98
518.75	49120.82
518.93	49387.64
519.10	48776.76
519.27	49567.87
519.45	49521.05
519.62	49886.18
519.79	49762.13
519.96	49832.35
520.14	49947.03
520.31	50188.11
520.48	50122.57
520.65	50684.30
520.83	50492.38
521.00	50326.20
521.17	50042.99
521.34	50688.98
521.52	50679.62
521.69	50609.40
521.86	50834.10
522.03	50742.81
522.20	50894.95
522.38	51304.54
522.55	51365.40
522.72	51377.10
522.89	51004.95
523.07	51250.71
523.24	51454.34
523.41	51449.66
523.58	51220.28
523.75	51812.44
523.92	51470.72
524.10	51852.23
524.27	51962.23
524.44	51573.70
524.61	51978.62
524.78	51845.21
524.96	52126.07
525.13	52222.03
525.30	52364.81
525.47	52479.49
525.64	52069.90
525.81	52381.19
525.98	52612.90
526.16	52570.77
526.33	52580.13
526.50	52949.94
526.67	52662.05
526.84	52720.57
527.01	52610.56
527.18	52631.63
527.36	52917.17
527.53	52720.57
527.70	53270.59
527.87	53310.38
528.04	52989.73
528.21	53183.99
528.38	53020.16
528.55	53282.30
528.72	53141.86
528.89	53389.96
529.07	53113.78
529.24	53179.31
529.41	53783.17
529.58	53256.55
529.75	53359.53
529.92	53652.10
530.09	53785.51
530.26	53930.62
530.43	54047.65
530.60	53638.06
530.77	53593.59
530.94	53764.45
531.11	53731.68
531.28	53907.22
531.46	53961.05
531.63	54178.72
531.80	53806.58
531.97	54087.44
532.14	54457.24
532.31	54211.49
532.48	54375.33
532.65	54213.83
532.82	54454.90
532.99	54590.66
533.16	54440.86
533.33	54948.76
533.50	54986.21
533.67	54688.96
533.84	54693.64
534.01	54789.60
534.18	54710.02
534.35	55227.28
534.52	54822.37
534.69	55306.86
534.86	55274.09
535.03	54958.12
535.20	54967.48
535.37	55295.16
535.54	55281.11
535.71	55131.32
535.88	55323.24
536.05	55281.11
536.22	55524.53
536.38	55627.51
536.55	55501.12
536.72	55264.73
536.89	55271.75
537.06	55545.59
537.23	55435.59
537.40	55475.38
537.57	55519.85
537.74	55732.84
537.91	55796.03
538.08	55870.93
538.25	55800.71
538.42	55585.38
538.59	55999.66
538.75	55929.44
538.92	55849.86
539.09	55655.60
539.26	55896.67
539.43	56112.00
539.60	56193.92
539.77	55964.55
539.94	56189.24
540.11	56074.55
540.28	56236.05
540.44	56491.17
540.61	56416.27
540.78	56104.98
540.95	56294.56
541.12	56280.52
541.29	56404.57
541.46	56273.50
541.62	56427.98
541.79	56467.76
541.96	56383.51
542.13	56519.26
542.30	56655.01
542.47	56713.52
542.63	56669.05
542.80	56790.76
542.97	56755.65
543.14	57095.03
543.31	56863.32
543.48	56987.36
543.64	57368.87
543.81	57212.06
543.98	57169.93
544.15	57162.90
544.32	57439.09
544.48	57450.79
544.65	57326.74
544.82	57237.80
544.99	57242.48
545.16	57333.76
545.32	57347.81
545.49	57600.58
545.66	57546.75
545.83	57378.23
546.00	57645.05
546.16	57455.47
546.33	57312.70
546.50	57373.55
546.67	57748.04
546.83	57251.84
547.00	57745.70
547.17	57521.01
547.34	57628.67
547.50	57738.68
547.67	57937.62
547.84	57736.34
548.00	58056.99
548.17	58237.21
548.34	57979.75
548.51	57855.70
548.67	58157.63
548.84	57977.41
549.01	57813.57
549.18	57867.40
549.34	58096.78
549.51	58141.25
549.68	58108.48
549.84	58394.03
550.01	58312.11
550.18	58145.93
550.34	58174.02
550.51	58190.40
550.68	58059.33
550.84	57925.92
551.01	58482.97
551.18	58078.05
551.34	58199.76
551.51	58501.69
551.68	58459.56
551.84	58464.24
552.01	58567.23
552.18	58305.09
552.34	58576.59
552.51	58497.01
552.68	58557.86
552.84	58564.88
553.01	58635.10
553.18	58567.23
553.34	58824.68
553.51	58525.10
553.67	58742.77
553.84	58988.52
554.01	58670.21
554.17	59168.74
554.34	58803.62
554.51	58974.48
554.67	59021.29
554.84	58824.68
555.00	58951.07
555.17	58766.17
555.33	58920.65
555.50	58873.84
555.67	58873.84
555.83	58817.66
556.00	59133.63
556.16	59203.85
556.33	59016.61
556.50	59107.89
556.66	59166.40
556.83	59103.21
556.99	59185.13
557.16	59358.33
557.32	59433.22
557.49	59407.48
557.65	59147.68
557.82	59267.05
557.98	59098.53
558.15	59341.94
558.32	59271.73
558.48	59182.79
558.65	59449.61
558.81	59456.63
558.98	59625.15
559.14	59304.49
559.31	59608.76
559.47	59416.84
559.64	59458.97
559.80	59725.79
559.97	59580.68
560.13	59430.88
560.30	59559.61
560.46	59564.29
560.63	59578.34
560.79	59690.68
560.96	59559.61
561.12	59721.11
561.29	59686.00
561.45	59765.58
561.61	59833.46
561.78	59702.38
561.94	59686.00
562.11	59819.41
562.27	59784.30
562.44	59845.16
562.60	60233.69
562.77	59760.90
562.93	59594.72
563.10	59784.30
563.26	59849.84
563.42	60009.00
563.59	59943.46
563.75	59934.10
563.92	59985.59
564.08	59915.37
564.24	59971.55
564.41	59971.55
564.57	60093.25
564.74	60013.68
564.90	59875.58
565.07	59868.56
565.23	60060.49
565.39	60053.47
565.56	60149.43
565.72	59978.57
565.88	59994.95
566.05	60095.60
566.21	59854.52
566.38	59964.52
566.54	60191.56
566.70	60212.62
566.87	60214.96
567.03	60151.77
567.19	60537.96
567.36	60137.72
567.52	60292.20
567.68	60420.93
567.85	60046.44
568.01	60310.92
568.17	60100.28
568.34	60392.84
568.50	60214.96
568.66	60062.83
568.83	60343.69
568.99	60388.16
569.15	60395.18
569.32	60207.94
569.48	60357.74
569.64	60559.02
569.81	60521.57
569.97	60331.99
570.13	60308.58
570.30	60409.23
570.46	60238.37
570.62	60378.80
570.78	60488.80
570.95	60329.65
571.11	60378.80
571.27	60432.63
571.43	60376.46
571.60	60654.98
571.76	60542.64
571.92	60423.27
572.09	60484.12
572.25	60493.49
572.41	60172.83
572.57	60331.99
572.74	60582.43
572.90	60392.84
573.06	60437.31
573.22	60453.70
573.38	60388.16
573.55	60479.44
573.71	60713.50
573.87	60633.92
574.03	60346.03
574.20	60704.13
574.36	60570.72
574.52	60633.92
574.68	60542.64
574.84	60544.98
575.01	60680.73
575.17	60566.04
575.33	60530.93
575.49	60374.12
575.65	60594.13
575.82	60802.44
575.98	60713.50
576.14	60825.84
576.30	60713.50
576.46	60654.98
576.62	60598.81
576.79	60631.58
576.95	60706.47
577.11	60755.63
577.27	60891.38
577.43	60795.42
577.59	60645.62
577.75	60552.00
577.92	60303.90
578.08	60863.29
578.24	60718.18
578.40	60938.19
578.56	60743.92
578.72	60650.30
578.88	60947.55
579.04	60835.20
579.21	60828.18
579.37	60835.20
579.53	60832.86
579.69	60706.47
579.85	60647.96
580.01	60643.28
580.17	60732.22
580.33	60825.84
580.49	60786.05
580.65	60938.19
580.82	60645.62
580.98	60879.67
581.14	60640.94
581.30	60959.25
581.46	60867.97
581.62	60680.73
581.78	60762.65
581.94	61071.60
582.10	60853.93
582.26	60914.78
582.42	60853.93
582.58	60774.35
582.74	60823.50
582.90	60907.76
583.06	60921.80
583.22	60706.47
583.38	60734.56
583.54	60809.46
583.70	60795.42
583.86	60889.04
584.02	60720.52
584.18	61017.77
584.34	60753.29
584.50	60753.29
584.66	60896.06
584.82	60584.77
584.98	60882.02
585.14	60893.72
585.30	60851.59
585.46	60874.99
585.62	60835.20
585.78	60959.25
585.94	60650.30
586.10	61024.79
586.26	60942.87
586.42	61148.84
586.58	60889.04
586.74	61034.15
586.90	60851.59
587.06	60762.65
587.22	61080.96
587.38	60748.60
587.54	60931.17
587.70	61310.33
587.86	61029.47
588.02	60928.83
588.18	61078.62
588.34	60884.36
588.49	60889.04
