SpectraSuite Data File
++++++++++++++++++++++++++++++++++++
Date: Fri Oct 25 10:48:21 EDT 2013
User: price-jones
Dark Spectrum Present: No
Reference Spectrum Present: No
Number of Sampled Component Spectra: 1
Spectrometers: USB2+H05261
Integration Time (usec): 100000 (USB2+H05261)
Spectra Averaged: 1 (USB2+H05261)
Boxcar Smoothing: 0 (USB2+H05261)
Correct for Electrical Dark: No (USB2+H05261)
Strobe/Lamp Enabled: No (USB2+H05261)
Correct for Detector Non-linearity: No (USB2+H05261)
Correct for Stray Light: No (USB2+H05261)
Number of Pixels in Processed Spectrum: 2048
>>>>>Begin Processed Spectral Data<<<<<
365.73	140.43
365.92	140.43
366.12	140.43
366.32	65.54
366.52	16.38
366.72	128.73
366.91	0.00
367.11	32.77
367.31	30.43
367.51	30.43
367.70	25.75
367.90	32.77
368.10	49.15
368.30	44.47
368.49	16.38
368.69	110.01
368.89	42.13
369.09	133.41
369.28	93.62
369.48	44.47
369.68	126.39
369.87	72.56
370.07	133.41
370.27	180.22
370.47	266.82
370.66	404.91
370.86	411.93
371.06	437.68
371.25	503.22
371.45	505.56
371.65	503.22
371.84	454.06
372.04	475.13
372.24	521.94
372.44	526.62
372.63	552.37
372.83	617.90
373.03	491.51
373.22	524.28
373.42	538.32
373.62	496.19
373.81	580.45
374.01	620.24
374.21	664.71
374.40	552.37
374.60	540.66
374.79	573.43
374.99	568.75
375.19	648.33
375.38	650.67
375.58	615.56
375.78	528.96
375.97	699.82
376.17	657.69
376.37	601.52
376.56	613.22
376.76	641.31
376.95	650.67
377.15	688.12
377.35	688.12
377.54	725.57
377.74	671.73
377.93	734.93
378.13	678.76
378.33	786.42
378.52	587.47
378.72	720.88
378.91	718.54
379.11	746.63
379.31	653.01
379.50	760.67
379.70	704.50
379.89	699.82
380.09	753.65
380.28	732.59
380.48	695.14
380.68	688.12
380.87	748.97
381.07	763.01
381.26	798.12
381.46	732.59
381.65	711.52
381.85	699.82
382.04	720.88
382.24	702.16
382.43	702.16
382.63	690.46
382.83	788.76
383.02	784.08
383.22	809.83
383.41	730.25
383.61	732.59
383.80	809.83
384.00	812.17
384.19	882.38
384.39	877.70
384.58	849.61
384.78	819.19
384.97	875.36
385.17	889.40
385.36	894.08
385.56	938.55
385.75	931.53
385.95	795.78
386.14	959.62
386.34	819.19
386.53	926.85
386.72	947.92
386.92	910.47
387.11	938.55
387.31	947.92
387.50	959.62
387.70	851.96
387.89	837.91
388.09	898.77
388.28	945.58
388.48	971.32
388.67	1004.09
388.86	992.39
389.06	994.73
389.25	1048.56
389.45	1039.20
389.64	1027.50
389.84	1083.67
390.03	1074.31
390.22	1048.56
390.42	1032.18
390.61	1071.97
390.81	961.96
391.00	1081.33
391.19	1062.60
391.39	1107.07
391.58	1163.25
391.78	1160.91
391.97	1114.10
392.16	1064.94
392.36	1142.18
392.55	1050.90
392.75	1008.77
392.94	1011.11
393.13	1008.77
393.33	1064.94
393.52	1046.22
393.71	1177.29
393.91	1137.50
394.10	1233.46
394.29	1191.33
394.49	1210.06
394.68	1151.54
394.88	1242.82
395.07	1273.25
395.26	1303.68
395.46	1196.01
395.65	1287.29
395.84	1224.10
396.04	1277.93
396.23	1221.76
396.42	1170.27
396.62	1254.53
396.81	1306.02
397.00	1315.38
397.19	1315.38
397.39	1334.11
397.58	1406.66
397.77	1423.05
397.97	1451.13
398.16	1434.75
398.35	1493.26
398.55	1490.92
398.74	1605.61
398.93	1703.91
399.12	1561.14
399.32	1495.60
399.51	1561.14
399.70	1680.50
399.90	1636.03
400.09	1666.46
400.28	1591.56
400.47	1713.27
400.67	1699.23
400.86	1652.42
401.05	1699.23
401.24	1746.04
401.44	1769.44
401.63	1736.68
401.82	1743.70
402.01	1776.47
402.21	1839.66
402.40	1806.89
402.59	1760.08
402.78	1834.98
402.97	1790.51
403.17	1783.49
403.36	1881.79
403.55	1902.86
403.74	1959.03
403.93	1916.90
404.13	1959.03
404.32	1858.39
404.51	1879.45
404.70	1874.77
404.89	1987.11
405.09	1916.90
405.28	2090.10
405.47	2036.27
405.66	2026.90
405.85	2136.91
406.05	2043.29
406.24	1994.14
406.43	2097.12
406.62	2132.23
406.81	2230.53
407.00	2073.71
407.20	2118.18
407.39	2122.87
407.58	2216.49
407.77	2300.75
407.96	2282.02
408.15	2277.34
408.34	2347.56
408.54	2410.75
408.73	2399.05
408.92	2300.75
409.11	2469.27
409.30	2431.82
409.49	2333.51
409.68	2387.35
409.87	2366.28
410.07	2495.01
410.26	2459.90
410.45	2478.63
410.64	2502.03
410.83	2527.78
411.02	2593.31
411.21	2700.98
411.40	2658.85
411.59	2705.66
411.78	2740.77
411.98	2677.57
412.17	2792.26
412.36	2780.56
412.55	2726.72
412.74	2754.81
412.93	2806.30
413.12	2789.92
413.31	3028.65
413.50	2888.22
413.69	2998.23
413.88	3105.89
414.07	3054.40
414.26	3089.51
414.45	2981.84
414.64	3150.36
414.83	3138.66
415.02	3262.71
415.22	3091.85
415.41	3213.56
415.60	3166.74
415.79	3386.76
415.98	3241.64
416.17	3342.28
416.36	3419.52
416.55	3412.50
416.74	3353.99
416.93	3330.58
417.12	3480.38
417.31	3332.92
417.50	3527.19
417.69	3552.93
417.88	3496.76
418.07	3487.40
418.26	3588.04
418.45	3602.08
418.64	3744.86
418.83	3721.45
419.02	3674.64
419.21	3679.32
419.39	3669.96
419.58	3693.37
419.77	3641.87
419.96	3852.52
420.15	3751.88
420.34	3810.39
420.53	3925.08
420.72	3819.75
420.91	3911.04
421.10	3997.64
421.29	4093.60
421.48	3859.54
421.67	3957.85
421.86	3894.65
422.05	3864.22
422.24	3829.12
422.43	3805.71
422.61	3920.40
422.80	4119.34
422.99	4077.21
423.18	4124.02
423.37	4084.23
423.56	4098.28
423.75	4093.60
423.94	4002.32
424.13	3733.15
424.32	3892.31
424.50	4102.96
424.69	4067.85
424.88	4262.12
425.07	4142.75
425.26	4025.72
425.45	3969.55
425.64	3976.57
425.83	4030.40
426.01	4182.54
426.20	4109.98
426.39	4065.51
426.58	4126.36
426.77	3969.55
426.96	4119.34
427.15	4093.60
427.33	4381.48
427.52	4184.88
427.71	4304.25
427.90	4322.97
428.09	4313.61
428.28	4280.84
428.46	4334.67
428.65	4219.99
428.84	4437.66
429.03	4540.64
429.22	4201.26
429.40	4376.80
429.59	4259.78
429.78	4280.84
429.97	4028.06
430.16	4145.09
430.34	4313.61
430.53	4283.18
430.72	4290.20
430.91	4337.01
431.10	4552.34
431.28	4624.90
431.47	4727.88
431.66	4781.71
431.85	4660.01
432.03	4800.44
432.22	4800.44
432.41	4894.06
432.60	4760.65
432.79	4887.04
432.97	4947.89
433.16	4910.44
433.35	4821.50
433.54	4844.91
433.72	4802.78
433.91	4814.48
434.10	4861.29
434.28	4912.78
434.47	4957.25
434.66	5022.79
434.85	5153.86
435.03	5025.13
435.22	5153.86
435.41	5298.97
435.59	5416.00
435.78	5268.55
435.97	5336.42
436.16	5203.01
436.34	5156.20
436.53	5455.79
436.72	5357.49
436.90	5259.18
437.09	5378.55
437.28	5132.79
437.46	5392.59
437.65	5240.46
437.84	5231.10
438.02	5439.40
438.21	5277.91
438.40	5380.89
438.58	5551.75
438.77	5612.60
438.96	5603.24
439.14	5769.42
439.33	5678.14
439.52	5832.62
439.70	5797.51
439.89	5736.65
440.08	5933.26
440.26	5905.17
440.45	5804.53
440.63	6008.16
440.82	6073.69
441.01	6113.48
441.19	6148.59
441.38	6317.11
441.57	6338.17
441.75	6256.25
441.94	6380.30
442.12	6485.62
442.31	6616.69
442.50	6534.78
442.68	6478.60
442.87	6389.66
443.05	6628.40
443.24	6668.19
443.43	6551.16
443.61	6761.81
443.80	6885.86
443.98	6658.82
444.17	6413.07
444.35	6619.04
444.54	6696.27
444.73	6722.02
444.91	6595.63
445.10	6623.72
445.28	6661.16
445.47	6679.89
445.65	6490.31
445.84	6743.08
446.02	6911.60
446.21	6604.99
446.39	6796.92
446.58	6822.66
446.77	6682.23
446.95	6792.23
447.14	6970.12
447.32	6850.75
447.51	6932.67
447.69	6754.79
447.88	6918.62
448.06	6817.98
448.25	6885.86
448.43	6888.20
448.62	6944.37
448.80	6822.66
448.99	7140.97
449.17	6918.62
449.36	6991.18
449.54	7112.89
449.73	7269.70
449.91	7353.96
450.10	7382.05
450.28	7510.78
450.46	7431.20
450.65	7478.01
450.83	7602.06
451.02	7190.13
451.20	7595.04
451.39	7351.62
451.57	7438.22
451.76	7447.58
451.94	7391.41
452.13	7566.95
452.31	7473.33
452.49	7307.15
452.68	7468.65
452.86	7480.35
453.05	7534.18
453.23	7522.48
453.42	7452.27
453.60	7564.61
453.78	7583.34
453.97	7829.09
454.15	7592.70
454.34	7559.93
454.52	7634.83
454.70	7702.70
454.89	7688.66
455.07	7698.02
455.26	7735.47
455.44	7871.22
455.62	8042.08
455.81	7927.39
455.99	8102.93
456.17	8044.42
456.36	8053.78
456.54	8320.60
456.73	8297.20
456.91	8446.99
457.09	8294.86
457.28	8355.71
457.46	8067.83
457.64	8215.28
457.83	8306.56
458.01	8217.62
458.19	8369.76
458.38	8510.19
458.56	8669.34
458.74	8271.45
458.93	8386.14
459.11	8472.74
459.29	8767.65
459.48	8545.30
459.66	8582.74
459.84	8617.85
460.03	8744.24
460.21	8849.57
460.39	8802.75
460.57	8795.73
460.76	8891.70
460.94	9085.96
461.12	8985.32
461.31	9008.72
461.49	8769.99
461.67	8788.71
461.85	9069.58
462.04	8971.27
462.22	9399.59
462.40	9170.22
462.59	9118.73
462.77	9268.52
462.95	9249.80
463.13	9266.18
463.32	8915.10
463.50	9376.19
463.68	9210.01
463.86	9411.29
464.05	9018.08
464.23	9064.89
464.41	9345.76
464.59	9085.96
464.78	9413.63
464.96	9301.29
465.14	9303.63
465.32	9554.07
465.50	9514.28
465.69	9575.13
465.87	9525.98
466.05	9530.66
466.23	9329.38
466.41	9612.58
466.60	9621.94
466.78	9530.66
466.96	9626.62
467.14	9703.86
467.32	9523.64
467.51	9774.08
467.69	9741.31
467.87	9776.42
468.05	9809.19
468.23	9706.20
468.41	9612.58
468.60	9872.38
468.78	10178.99
468.96	9944.94
469.14	9926.21
469.32	9966.00
469.50	9921.53
469.69	10071.33
469.87	9881.74
470.05	10146.22
470.23	10080.69
470.41	10209.42
470.59	10298.36
470.77	9991.75
470.95	10345.17
471.14	10333.47
471.32	10399.00
471.50	10494.96
471.68	10541.77
471.86	10789.87
472.04	10689.23
472.22	10993.50
472.40	10394.32
472.58	10565.18
472.77	10602.63
472.95	10651.78
473.13	11037.97
473.31	10832.00
473.49	10890.51
473.67	10916.26
473.85	11157.33
474.03	11239.25
474.21	11351.60
474.39	11260.32
474.57	11351.60
474.75	11185.42
474.93	11578.63
475.12	11496.71
475.30	11672.25
475.48	11714.38
475.66	11822.05
475.84	11375.00
476.02	11829.07
476.20	11875.88
476.38	11770.55
476.56	12053.76
476.74	12311.22
476.92	11885.24
477.10	12180.15
477.28	12606.13
477.46	12437.61
477.64	12362.71
477.82	12980.61
478.00	13200.62
478.18	12659.96
478.36	12849.54
478.54	12987.63
478.72	12954.87
478.90	13322.33
479.08	13357.44
479.26	13537.66
479.44	13408.93
479.62	13603.19
479.80	13907.46
479.98	13752.99
480.16	14003.43
480.34	13921.51
480.52	14293.65
480.70	13994.06
480.88	14071.30
481.06	14214.07
481.24	14569.83
481.41	14747.72
481.59	14724.31
481.77	14930.28
481.95	15023.90
482.13	14740.69
482.31	14988.79
482.49	15239.23
482.67	15220.50
482.85	15379.66
483.03	15398.38
483.21	15761.17
483.39	16037.35
483.57	15655.84
483.74	15950.75
483.92	16084.16
484.10	16458.65
484.28	16285.45
484.46	16432.90
484.64	16989.95
484.82	16800.37
485.00	16643.55
485.18	17013.35
485.35	16898.67
485.53	16517.16
485.71	16833.13
485.89	17172.51
486.07	16940.80
486.25	17167.83
486.43	17156.13
486.61	17539.97
486.78	17486.14
486.96	17916.80
487.14	18321.71
487.32	18012.76
487.50	18443.42
487.68	18813.23
487.85	18934.93
488.03	18792.16
488.21	19077.71
488.39	18745.35
488.57	19023.87
488.75	19262.61
488.92	19618.37
489.10	19749.44
489.28	19950.73
489.46	20098.18
489.64	20154.35
489.81	20734.81
489.99	20475.01
490.17	20842.47
490.35	20985.24
490.53	20973.54
490.70	20975.88
490.88	21078.86
491.06	21378.45
491.24	21223.98
491.41	21231.00
491.59	21479.10
491.77	21546.97
491.95	21589.10
492.13	21713.15
492.30	22040.82
492.48	22185.94
492.66	22246.79
492.84	22396.59
493.01	22635.32
493.19	22764.05
493.37	22742.99
493.54	22658.73
493.72	23447.49
493.90	23183.01
494.08	23241.52
494.25	23901.55
494.43	23718.99
494.61	24299.44
494.79	24215.18
494.96	23878.15
495.14	24126.24
495.32	24173.05
495.49	24306.46
495.67	24510.09
495.85	24905.64
496.02	24645.84
496.20	24959.47
496.38	25102.25
496.55	25127.99
496.73	25696.74
496.91	25338.64
497.09	25797.38
497.26	25738.87
497.44	25603.12
497.62	25621.84
497.79	26005.69
497.97	25764.62
498.14	26101.65
498.32	26169.53
498.50	26452.73
498.67	26892.76
498.85	26691.47
499.03	26958.29
499.20	27117.45
499.38	26862.33
499.56	27290.65
499.73	26944.25
499.91	26953.61
500.08	26993.40
500.26	27248.52
500.44	27047.23
500.61	26995.74
500.79	27459.16
500.97	27213.41
501.14	27688.54
501.32	27948.34
501.49	27725.99
501.67	27777.48
501.84	28364.95
502.02	28065.36
502.20	28046.64
502.37	28369.63
502.55	28430.49
502.72	28547.51
502.90	28636.45
503.07	28650.50
503.25	29069.45
503.43	28797.95
503.60	28872.85
503.78	29090.52
503.95	29230.95
504.13	29481.39
504.30	29677.99
504.48	29411.17
504.65	29846.51
504.83	30087.59
505.01	30096.95
505.18	29324.57
505.36	30331.00
505.53	30108.65
505.71	30859.96
505.88	30642.29
506.06	30178.87
506.23	30417.60
506.41	30178.87
506.58	30132.06
506.76	30918.48
506.93	30696.13
507.11	30405.90
507.28	30981.67
507.46	30834.22
507.63	30787.41
507.81	30965.29
507.98	30773.36
508.16	31695.53
508.33	31192.32
508.50	31990.44
508.68	31496.59
508.85	32079.38
509.03	31971.72
509.20	31964.70
509.38	32072.36
509.55	32290.03
509.73	32025.55
509.90	32048.96
510.08	32194.07
510.25	32346.20
510.42	32275.99
510.60	32697.28
510.77	32559.19
510.95	32802.61
511.12	32730.05
511.30	32936.02
511.47	33497.75
511.64	33432.21
511.82	33479.02
511.99	33230.93
512.17	33146.67
512.34	33392.42
512.51	33137.30
512.69	33415.83
512.86	33752.87
513.04	33991.60
513.21	33607.75
513.38	33998.62
513.56	33230.93
513.73	33787.97
513.90	33935.43
514.08	33886.28
514.25	33919.04
514.43	33830.10
514.60	34078.20
514.77	34190.55
514.95	34429.28
515.12	34349.70
515.29	34588.44
515.47	34913.77
515.64	34625.89
515.81	34677.38
515.99	34780.36
516.16	34349.70
516.33	34476.09
516.51	34342.68
516.68	34141.39
516.85	34419.92
517.03	34717.17
517.20	34974.63
517.37	35175.91
517.54	35168.89
517.72	35058.88
517.89	34827.17
518.06	34780.36
518.24	34965.26
518.41	34665.67
518.58	35629.98
518.75	35475.50
518.93	36088.72
519.10	35920.20
519.27	35716.58
519.45	36196.38
519.62	36004.46
519.79	36217.45
519.96	36165.96
520.14	36620.02
520.31	36495.97
520.48	36266.60
520.65	36692.58
520.83	36671.51
521.00	36753.43
521.17	36957.06
521.34	36825.99
521.52	36685.56
521.69	37350.27
521.86	37219.20
522.03	37212.18
522.20	36921.95
522.38	37179.41
522.55	37102.17
522.72	37593.68
522.89	37254.31
523.07	37551.56
523.24	37392.40
523.41	38010.30
523.58	37921.36
523.75	38143.71
523.92	38080.52
524.10	38099.24
524.27	38220.95
524.44	38183.50
524.61	38319.25
524.78	38550.96
524.96	38588.41
525.13	38754.59
525.30	38717.14
525.47	39138.44
525.64	38396.49
525.81	39173.55
525.98	38597.77
526.16	38476.07
526.33	38141.37
526.50	38459.68
526.67	38487.77
526.84	38508.83
527.01	38389.47
527.18	38960.56
527.36	39255.46
527.53	39061.20
527.70	39587.82
527.87	39683.78
528.04	39419.30
528.21	39594.84
528.38	39545.69
528.55	39721.23
528.72	40074.65
528.89	39976.35
529.07	39468.45
529.24	39508.24
529.41	39793.79
529.58	39585.48
529.75	39920.18
529.92	39749.32
530.09	39723.57
530.26	40587.23
530.43	40240.83
530.60	39665.06
530.77	40268.92
530.94	40488.93
531.11	40315.73
531.28	40549.78
531.46	40327.43
531.63	40378.92
531.80	40643.40
531.97	39997.41
532.14	40542.76
532.31	40144.87
532.48	40486.59
532.65	40940.65
532.82	40261.90
532.99	40982.78
533.16	40556.80
533.33	41188.75
533.50	41270.67
533.67	41092.79
533.84	41167.68
534.01	41212.15
534.18	41067.04
534.35	41710.69
534.52	41139.60
534.69	41076.40
534.86	41443.87
535.03	41287.05
535.20	41588.98
535.37	41944.74
535.54	42120.28
535.71	41544.51
535.88	41787.92
536.05	41649.83
536.22	41818.35
536.38	41830.05
536.55	41607.70
536.72	41584.30
536.89	41808.99
537.06	42300.50
537.23	41996.23
537.40	42146.03
537.57	42073.47
537.74	41860.48
537.91	42129.64
538.08	42241.99
538.25	41886.23
538.42	42052.41
538.59	43012.02
538.75	41989.21
538.92	42447.96
539.09	42462.00
539.26	42492.43
539.43	42473.70
539.60	42616.47
539.77	42380.08
539.94	42410.51
540.11	42447.96
540.28	42195.18
540.44	42707.76
540.61	42176.45
540.78	42351.99
540.95	42480.72
541.12	42911.38
541.29	42607.11
541.46	42473.70
541.62	42927.77
541.79	42845.85
541.96	42553.28
542.13	42745.20
542.30	43217.99
542.47	43316.29
542.63	43445.02
542.80	43119.69
542.97	43381.83
543.14	44114.42
543.31	43346.72
543.48	43716.53
543.64	44048.88
543.81	43866.32
543.98	43922.49
544.15	43524.60
544.32	43856.96
544.48	44100.37
544.65	44011.43
544.82	43941.22
544.99	43681.42
545.16	44158.89
545.32	43550.35
545.49	44114.42
545.66	44816.58
545.83	44074.63
546.00	44385.92
546.16	43995.05
546.33	43847.60
546.50	43807.81
546.67	44215.06
546.83	43805.47
547.00	44098.03
547.17	44135.48
547.34	44172.93
547.50	44168.25
547.67	44729.98
547.84	44395.28
548.00	44643.38
548.17	44671.46
548.34	44664.44
548.51	44919.56
548.67	44533.37
548.84	44629.34
549.01	45006.16
549.18	44605.93
549.34	45272.98
549.51	45008.50
549.68	45249.58
549.84	44648.06
550.01	45141.91
550.18	45071.70
550.34	45270.64
550.51	45375.97
550.68	44772.11
550.84	44933.60
551.01	45144.25
551.18	45099.78
551.34	45272.98
551.51	45062.33
551.68	44891.48
551.84	44919.56
552.01	45287.03
552.18	45137.23
552.34	45078.72
552.51	45392.35
552.68	45441.50
552.84	45584.27
553.01	45251.92
553.18	45537.46
553.34	45532.78
553.51	45427.46
553.67	45691.94
553.84	45471.93
554.01	45584.27
554.17	45172.34
554.34	45879.18
554.51	45862.80
554.67	46003.23
554.84	46033.66
555.00	45553.85
555.17	45759.81
555.33	46045.36
555.50	45741.09
555.67	46066.42
555.83	45837.05
556.00	45799.60
556.16	46256.01
556.33	46274.73
556.50	45851.09
556.66	45797.26
556.83	45717.68
556.99	46174.09
557.16	46115.58
557.32	46162.39
557.49	46141.32
557.65	46204.52
557.82	46211.54
557.98	45661.51
558.15	45752.79
558.32	46181.11
558.48	46326.22
558.65	46038.34
558.81	46223.24
558.98	46506.44
559.14	46478.36
559.31	46089.83
559.47	46429.21
559.64	46588.36
559.80	46529.85
559.97	46700.71
560.13	45890.88
560.30	46138.98
560.46	46436.23
560.63	46518.15
560.79	46693.69
560.96	46749.86
561.12	46471.34
561.29	46485.38
561.45	46494.74
561.61	46698.37
561.78	46382.40
561.94	46038.34
562.11	46124.94
562.27	46225.58
562.44	46731.14
562.60	46529.85
562.77	46822.42
562.93	46674.96
563.10	46911.36
563.26	46300.48
563.42	46808.37
563.59	46387.08
563.75	46801.35
563.92	47030.72
564.08	46586.02
564.24	46953.49
564.41	46916.04
564.57	46663.26
564.74	46583.68
564.90	47124.35
565.07	46412.82
565.23	46763.90
565.39	46876.25
565.56	46787.31
565.72	46784.97
565.88	46841.14
566.05	46827.10
566.21	46560.28
566.38	46529.85
566.54	46667.94
566.70	46813.05
566.87	47344.36
567.03	47206.26
567.19	47082.22
567.36	47278.82
567.52	46595.38
567.68	47482.45
567.85	46707.73
568.01	46677.30
568.17	46937.10
568.34	46883.27
568.50	46787.31
568.66	46508.79
568.83	47105.62
568.99	46649.22
569.15	47040.09
569.32	46925.40
569.48	46864.55
569.64	46941.78
569.81	47194.56
569.97	46857.52
570.13	46958.17
570.30	46403.46
570.46	47241.37
570.62	46705.39
570.78	46600.07
570.95	46546.23
571.11	46997.96
571.27	46869.23
571.43	46593.04
571.60	46948.81
571.76	46770.93
571.92	47096.26
572.09	46904.34
572.25	46646.88
572.41	46866.89
572.57	47269.46
572.74	48079.28
572.90	47405.21
573.06	47110.30
573.22	47072.85
573.38	46698.37
573.55	46696.03
573.71	47501.17
573.87	46710.07
574.03	46773.27
574.20	47199.24
574.36	46782.63
574.52	47306.91
574.68	47475.43
574.84	47210.95
575.01	46988.60
575.17	46831.78
575.33	46932.42
575.49	47012.00
575.65	47075.19
575.82	47281.16
575.98	46948.81
576.14	46960.51
576.30	47346.70
576.46	46993.28
576.62	47096.26
576.79	47136.05
576.95	46873.91
577.11	47136.05
577.27	47091.58
577.43	47070.51
577.59	47187.54
577.75	47473.09
577.92	46887.95
578.08	46607.09
578.24	46850.50
578.40	46794.33
578.56	46913.70
578.72	47239.03
578.88	47126.69
579.04	46995.62
579.21	47271.80
579.37	47224.99
579.53	47201.58
579.69	46497.08
579.85	47386.49
580.01	47143.07
580.17	47292.86
580.33	47065.83
580.49	47131.37
580.65	47129.03
580.82	47454.36
580.98	47290.52
581.14	47086.90
581.30	47475.43
581.46	47114.98
581.62	47180.52
581.78	47477.77
581.94	47325.63
582.10	47592.45
582.26	47618.20
582.42	47096.26
582.58	47257.76
582.74	47679.05
582.90	47093.92
583.06	47433.30
583.22	47210.95
583.38	47657.99
583.54	47454.36
583.70	47126.69
583.86	47103.28
584.02	46745.18
584.18	47012.00
584.34	47505.85
584.50	47194.56
584.66	47320.95
584.82	47049.45
584.98	47349.04
585.14	47550.32
585.30	47269.46
585.46	47447.34
585.62	46817.74
585.78	47110.30
585.94	46646.88
586.10	46813.05
586.26	47089.24
586.42	47452.02
586.58	47524.58
586.74	47077.54
586.90	47489.47
587.06	46887.95
587.22	47278.82
587.38	46864.55
587.54	47751.61
587.70	47508.19
587.86	47152.43
588.02	47093.92
588.18	47351.38
588.34	46937.10
588.49	46993.28
588.65	46579.00
588.81	46951.15
588.97	46918.38
589.13	46567.30
589.29	47014.34
589.45	47033.07
589.61	47037.75
589.77	47306.91
