SpectraSuite Data File
++++++++++++++++++++++++++++++++++++
Date: Fri Oct 25 11:25:21 EDT 2013
User: price-jones
Dark Spectrum Present: No
Reference Spectrum Present: No
Number of Sampled Component Spectra: 1
Spectrometers: USB2+H05261
Integration Time (usec): 100000 (USB2+H05261)
Spectra Averaged: 1 (USB2+H05261)
Boxcar Smoothing: 0 (USB2+H05261)
Correct for Electrical Dark: No (USB2+H05261)
Strobe/Lamp Enabled: No (USB2+H05261)
Correct for Detector Non-linearity: No (USB2+H05261)
Correct for Stray Light: No (USB2+H05261)
Number of Pixels in Processed Spectrum: 2048
>>>>>Begin Processed Spectral Data<<<<<
365.73	269.16
365.92	269.16
366.12	269.16
366.32	159.16
366.52	201.29
366.72	149.79
366.91	86.60
367.11	135.75
367.31	112.35
367.51	145.11
367.70	117.03
367.90	124.05
368.10	114.69
368.30	65.54
368.49	67.88
368.69	187.24
368.89	140.43
369.09	201.29
369.28	159.16
369.48	166.18
369.68	161.50
369.87	212.99
370.07	168.52
370.27	227.03
370.47	327.68
370.66	582.79
370.86	650.67
371.06	603.86
371.25	685.78
371.45	645.99
371.65	695.14
371.84	627.26
372.04	650.67
372.24	765.36
372.44	669.39
372.63	713.86
372.83	718.54
373.03	690.46
373.22	784.08
373.42	692.80
373.62	739.61
373.81	784.08
374.01	849.61
374.21	833.23
374.40	814.51
374.60	844.93
374.79	760.67
374.99	770.04
375.19	809.83
375.38	924.51
375.58	840.25
375.78	915.15
375.97	863.66
376.17	929.19
376.37	861.32
376.56	840.25
376.76	877.70
376.95	866.00
377.15	950.26
377.35	873.02
377.54	868.34
377.74	912.81
377.93	880.04
378.13	919.83
378.33	992.39
378.52	973.66
378.72	952.60
378.91	1008.77
379.11	917.49
379.31	954.94
379.50	924.51
379.70	947.92
379.89	943.24
380.09	968.98
380.28	1018.13
380.48	987.71
380.68	1027.50
380.87	1006.43
381.07	980.68
381.26	961.96
381.46	1008.77
381.65	971.32
381.85	994.73
382.04	952.60
382.24	1050.90
382.43	1146.86
382.63	1025.15
382.83	1090.69
383.02	1069.62
383.22	1118.78
383.41	1053.24
383.61	1111.75
383.80	1074.31
384.00	1095.37
384.19	1130.48
384.39	1111.75
384.58	1057.92
384.78	1158.57
384.97	1212.40
385.17	1139.84
385.36	1144.52
385.56	1123.46
385.75	1146.86
385.95	1142.18
386.14	1151.54
386.34	1177.29
386.53	1221.76
386.72	1093.03
386.92	1160.91
387.11	1240.48
387.31	1306.02
387.50	1240.48
387.70	1266.23
387.89	1256.87
388.09	1268.57
388.28	1224.10
388.48	1352.83
388.67	1273.25
388.86	1320.06
389.06	1291.98
389.25	1287.29
389.45	1294.32
389.64	1345.81
389.84	1380.92
390.03	1387.94
390.22	1380.92
390.42	1362.19
390.61	1345.81
390.81	1392.62
391.00	1455.81
391.19	1446.45
391.39	1397.30
391.58	1383.26
391.78	1462.83
391.97	1476.88
392.16	1441.77
392.36	1530.71
392.55	1542.41
392.75	1547.09
392.94	1455.81
393.13	1610.29
393.33	1455.81
393.52	1540.07
393.71	1563.48
393.91	1589.22
394.10	1563.48
394.29	1572.84
394.49	1565.82
394.68	1554.12
394.88	1617.31
395.07	1652.42
395.26	1734.34
395.46	1568.16
395.65	1664.12
395.84	1638.38
396.04	1729.66
396.23	1832.64
396.42	1722.63
396.62	1727.32
396.81	1755.40
397.00	1746.04
397.19	1823.28
397.39	1785.83
397.58	1853.70
397.77	1813.92
397.97	1928.60
398.16	1797.53
398.35	1893.49
398.55	1874.77
398.74	1977.75
398.93	2045.63
399.12	1891.15
399.32	1905.20
399.51	1844.34
399.70	1877.11
399.90	1895.83
400.09	2010.52
400.28	2003.50
400.47	1914.56
400.67	2026.90
400.86	2101.80
401.05	2085.42
401.24	2090.10
401.44	2106.48
401.63	2057.33
401.82	2153.29
402.01	2139.25
402.21	2153.29
402.40	2167.34
402.59	2155.63
402.78	2275.00
402.97	2204.78
403.17	2326.49
403.36	2286.70
403.55	2282.02
403.74	2347.56
403.93	2333.51
404.13	2328.83
404.32	2431.82
404.51	2345.22
404.70	2476.29
404.89	2331.17
405.09	2537.14
405.28	2485.65
405.47	2436.50
405.66	2534.80
405.85	2551.18
406.05	2509.05
406.24	2504.37
406.43	2487.99
406.62	2553.52
406.81	2562.89
407.00	2593.31
407.20	2530.12
407.39	2523.10
407.58	2696.30
407.77	2733.75
407.96	2635.44
408.15	2740.77
408.34	2686.94
408.54	2801.62
408.73	2745.45
408.92	2906.95
409.11	2801.62
409.30	2815.66
409.49	2986.52
409.68	2977.16
409.87	2995.89
410.07	3009.93
410.26	3084.83
410.45	3059.08
410.64	3063.76
410.83	3056.74
411.02	3070.78
411.21	3159.72
411.40	3002.91
411.59	3159.72
411.78	3091.85
411.98	3066.10
412.17	3314.20
412.36	3485.06
412.55	3375.05
412.74	3346.97
412.93	3407.82
413.12	3323.56
413.31	3597.40
413.50	3496.76
413.69	3335.26
413.88	3499.10
414.07	3569.32
414.26	3522.51
414.45	3571.66
414.64	3658.26
414.83	3660.60
415.02	3721.45
415.22	3684.00
415.41	3831.46
415.60	3906.35
415.79	3906.35
415.98	3995.29
416.17	3932.10
416.36	3896.99
416.55	3885.29
416.74	4102.96
416.93	4161.47
417.12	4095.94
417.31	4126.36
417.50	4145.09
417.69	4332.33
417.88	4245.73
418.07	4121.68
418.26	4227.01
418.45	4294.88
418.64	4320.63
418.83	4325.31
419.02	4376.80
419.21	4376.80
419.39	4447.02
419.58	4346.37
419.77	4173.18
419.96	4547.66
420.15	4582.77
420.34	4437.66
420.53	4550.00
420.72	4741.93
420.91	4741.93
421.10	4620.22
421.29	4887.04
421.48	4627.24
421.67	4645.96
421.86	4751.29
422.05	4723.20
422.24	4844.91
422.43	4664.69
422.61	4968.96
422.80	4997.04
422.99	4681.07
423.18	5008.75
423.37	4992.36
423.56	4837.89
423.75	4968.96
423.94	4887.04
424.13	4526.60
424.32	4791.08
424.50	4896.40
424.69	5146.84
424.88	5121.09
425.07	4833.21
425.26	4896.40
425.45	5011.09
425.64	4929.17
425.83	4945.55
426.01	5032.15
426.20	4994.70
426.39	5053.22
426.58	5018.11
426.77	4983.00
426.96	5130.45
427.15	5186.63
427.33	5210.03
427.52	5116.41
427.71	5287.27
427.90	5233.44
428.09	5301.31
428.28	5334.08
428.46	5413.66
428.65	5320.04
428.84	5451.11
429.03	5425.36
429.22	5451.11
429.40	5425.36
429.59	5411.32
429.78	5233.44
429.97	5289.61
430.16	5327.06
430.34	5455.79
430.53	5605.58
430.72	5741.33
430.91	5556.43
431.10	5643.03
431.28	5633.67
431.47	5902.83
431.66	5720.27
431.85	5795.17
432.03	5823.25
432.22	5898.15
432.41	5886.45
432.60	5951.98
432.79	6024.54
432.97	6003.47
433.16	5863.04
433.35	5942.62
433.54	5907.51
433.72	6036.24
433.91	5996.45
434.10	6015.18
434.28	6090.07
434.47	6200.08
434.66	6134.54
434.85	6167.31
435.03	6340.51
435.22	6132.20
435.41	6420.09
435.59	6286.68
435.78	6235.19
435.97	6413.07
436.16	6342.85
436.34	6317.11
436.53	6511.37
436.72	6452.86
436.90	6396.68
437.09	6572.22
437.28	6310.08
437.46	6778.19
437.65	6675.21
437.84	6707.98
438.02	6565.20
438.21	6796.92
438.40	6647.12
438.58	6883.52
438.77	7033.31
438.96	6960.75
439.14	7155.02
439.33	7075.44
439.52	7222.89
439.70	7197.15
439.89	7098.84
440.08	7227.57
440.26	7370.35
440.45	7183.10
440.63	7276.73
440.82	7524.82
441.01	7318.86
441.19	7494.40
441.38	7583.34
441.57	7414.82
441.75	7815.05
441.94	7943.78
442.12	7943.78
442.31	7925.05
442.50	7985.91
442.68	7894.63
442.87	7960.16
443.05	8058.46
443.24	8023.36
443.43	7990.59
443.61	8189.53
443.80	8451.67
443.98	7868.88
444.17	7719.09
444.35	8081.87
444.54	8336.99
444.73	8290.18
444.91	8273.79
445.10	8306.56
445.28	8402.52
445.47	8224.64
445.65	8299.54
445.84	8332.31
446.02	8547.64
446.21	8489.12
446.39	8379.12
446.58	8329.97
446.77	8243.37
446.95	8217.62
447.14	8318.26
447.32	8388.48
447.51	8383.80
447.69	8446.99
447.88	8304.22
448.06	8383.80
448.25	8454.02
448.43	8566.36
448.62	8449.33
448.80	8372.10
448.99	8631.90
449.17	8645.94
449.36	8519.55
449.54	8751.26
449.73	8870.63
449.91	8990.00
450.10	8877.65
450.28	9123.41
450.46	8847.22
450.65	9015.74
450.83	8901.06
451.02	9097.66
451.20	9027.45
451.39	9121.07
451.57	9071.92
451.76	9074.26
451.94	9167.88
452.13	9277.88
452.31	9411.29
452.49	8835.52
452.68	9308.31
452.86	9317.67
453.05	9359.80
453.23	9643.01
453.42	9336.40
453.60	9301.29
453.78	9312.99
453.97	9446.40
454.15	9357.46
454.34	9373.85
454.52	9774.08
454.70	9614.92
454.89	9661.73
455.07	9671.09
455.26	9621.94
455.44	9879.40
455.62	9886.42
455.81	9921.53
455.99	9998.77
456.17	9827.91
456.36	9879.40
456.54	10214.10
456.73	10143.88
456.91	10307.72
457.09	10328.78
457.28	10291.34
457.46	10169.63
457.64	10235.16
457.83	10424.75
458.01	10349.85
458.19	10689.23
458.38	10562.84
458.56	10555.82
458.74	10630.71
458.93	10546.45
459.11	10452.83
459.29	10759.44
459.48	10696.25
459.66	10778.17
459.84	10871.79
460.03	10841.36
460.21	10888.17
460.39	10979.45
460.57	10967.75
460.76	11131.59
460.94	11119.89
461.12	11157.33
461.31	11084.78
461.49	11002.86
461.67	11059.03
461.85	11344.58
462.04	11489.69
462.22	11815.02
462.40	11513.10
462.59	11501.39
462.77	11421.81
462.95	11496.71
463.13	11309.47
463.32	11644.17
463.50	11503.73
463.68	11716.72
463.86	11922.69
464.05	11789.28
464.23	11520.12
464.41	11925.03
464.59	11517.78
464.78	11854.81
464.96	11765.87
465.14	11871.20
465.32	12067.80
465.50	11899.28
465.69	12166.10
465.87	12091.21
466.05	12222.28
466.23	11939.07
466.41	12079.50
466.60	12449.31
466.78	12112.27
466.96	12119.29
467.14	12046.74
467.32	12589.74
467.51	12437.61
467.69	12313.56
467.87	12245.68
468.05	12461.01
468.23	12390.80
468.41	12341.64
468.60	12547.61
468.78	12865.92
468.96	12491.44
469.14	12601.44
469.32	12903.37
469.50	12451.65
469.69	12926.78
469.87	12973.59
470.05	13057.85
470.23	13029.76
470.41	12903.37
470.59	13231.05
470.77	12999.34
470.95	13125.72
471.14	13544.68
471.32	13090.62
471.50	13682.77
471.68	13312.97
471.86	13532.98
472.04	13575.11
472.22	13961.30
472.40	13497.87
472.58	13940.23
472.77	14057.26
472.95	14169.60
473.13	14380.25
473.31	13949.59
473.49	14078.32
473.67	14054.92
473.85	14111.09
474.03	14771.12
474.21	14420.04
474.39	14675.16
474.57	14508.98
474.75	14712.61
474.93	14883.47
475.12	14993.47
475.30	15201.78
475.48	15133.90
475.66	15040.28
475.84	14806.23
476.02	15398.38
476.20	15117.52
476.38	15531.80
476.56	15793.94
476.74	15847.77
476.92	15882.88
477.10	15644.14
477.28	15871.17
477.46	16145.02
477.64	16191.83
477.82	16376.73
478.00	16636.53
478.18	16718.45
478.36	16875.26
478.54	17092.93
478.72	17081.23
478.90	17532.95
479.08	17687.43
479.26	17558.70
479.44	17951.91
479.62	17898.08
479.80	17867.65
479.98	17724.88
480.16	18443.42
480.34	18288.95
480.52	18391.93
480.70	18558.11
480.88	18200.01
481.06	18728.97
481.24	18642.37
481.41	18771.10
481.59	19318.78
481.77	19136.22
481.95	19601.99
482.13	19688.59
482.31	19824.34
482.49	20009.24
482.67	19974.13
482.85	20276.06
483.03	20418.83
483.21	20641.18
483.39	20666.93
483.57	20664.59
483.74	20882.26
483.92	21465.05
484.10	21219.30
484.28	21511.86
484.46	21951.88
484.64	22059.55
484.82	22038.48
485.00	21923.80
485.18	22539.36
485.35	22984.06
485.53	22792.14
485.71	22794.48
485.89	23508.34
486.07	22913.84
486.25	23269.61
486.43	23475.57
486.61	23491.96
486.78	23669.84
486.96	24238.59
487.14	24395.40
487.32	24774.57
487.50	24493.71
487.68	24835.42
487.85	25301.19
488.03	25549.29
488.21	25680.36
488.39	25689.72
488.57	25951.86
488.75	25848.88
488.92	26185.91
489.10	26324.01
489.28	26494.86
489.46	26752.32
489.64	26911.48
489.81	27398.31
489.99	27227.45
490.17	27543.42
490.35	28126.22
490.53	28147.28
490.70	28063.02
490.88	28107.49
491.06	28772.21
491.24	28584.96
491.41	28879.87
491.59	28882.21
491.77	28922.00
491.95	29450.96
492.13	29589.05
492.30	29619.48
492.48	29923.75
492.66	30356.75
492.84	29766.93
493.01	30588.46
493.19	30429.30
493.37	30595.48
493.54	30778.04
493.72	31328.07
493.90	30925.50
494.08	31222.75
494.25	31569.15
494.43	31894.48
494.61	31936.61
494.79	32240.88
494.96	32194.07
495.14	32315.78
495.32	33109.22
495.49	33205.18
495.67	32945.38
495.85	33216.88
496.02	33530.51
496.20	33797.34
496.38	33975.22
496.55	33766.91
496.73	34389.49
496.91	34227.99
497.09	34567.37
497.26	34763.98
497.44	34827.17
497.62	34677.38
497.79	35491.88
497.97	35065.91
498.14	35512.95
498.32	35857.01
498.50	36070.00
498.67	36259.58
498.85	36339.16
499.03	36804.92
499.20	36304.05
499.38	36673.85
499.56	37008.55
499.73	36982.80
499.91	37193.45
500.08	37170.05
500.26	37223.88
500.44	37179.41
500.61	37656.88
500.79	37689.65
500.97	37593.68
501.14	38293.50
501.32	38230.31
501.49	38139.03
501.67	38373.08
501.84	38541.60
502.02	38663.31
502.20	39232.06
502.37	39002.69
502.55	38880.98
502.72	39171.21
502.90	39194.61
503.07	39503.56
503.25	39512.92
503.43	39798.47
503.60	39761.02
503.78	39995.07
503.95	40343.81
504.13	39945.92
504.30	40542.76
504.48	40374.24
504.65	40517.01
504.83	40622.34
505.01	41134.92
505.18	40828.30
505.36	40992.14
505.53	41076.40
505.71	41282.37
505.88	41518.76
506.06	41170.02
506.23	41614.72
506.41	41579.62
506.58	41858.14
506.76	41808.99
506.93	42244.33
507.11	41986.87
507.28	42113.26
507.46	42447.96
507.63	42604.77
507.81	42948.83
507.98	42457.32
508.16	42777.97
508.33	43271.82
508.50	43421.62
508.68	43147.78
508.85	43777.38
509.03	43562.05
509.20	43587.80
509.38	43981.01
509.55	44390.60
509.73	43838.23
509.90	44545.08
510.08	44100.37
510.25	44308.68
510.42	44465.50
510.60	44423.37
510.77	45088.08
510.95	45057.65
511.12	45097.44
511.30	44753.38
511.47	44959.35
511.64	45305.75
511.82	45523.42
511.99	45408.73
512.17	45399.37
512.34	45425.12
512.51	46323.88
512.69	46305.16
512.86	46202.18
513.04	46286.43
513.21	46298.14
513.38	46539.21
513.56	46899.65
513.73	46752.20
513.90	46684.33
514.08	46681.98
514.25	46698.37
514.43	47100.94
514.60	47007.32
514.77	46960.51
514.95	47545.64
515.12	47309.25
515.29	47086.90
515.47	47910.77
515.64	47791.40
515.81	47669.69
515.99	47721.18
516.16	48002.05
516.33	48266.53
516.51	48573.14
516.68	47805.44
516.85	48531.01
517.03	48533.35
517.20	48502.92
517.37	48472.49
517.54	48472.49
517.72	48605.91
517.89	48751.02
518.06	48940.60
518.24	48839.96
518.41	48914.86
518.58	48905.49
518.75	49132.53
518.93	49284.66
519.10	49038.90
519.27	49446.16
519.45	49528.08
519.62	49673.19
519.79	49467.22
519.96	49808.94
520.14	50028.95
520.31	49977.46
520.48	50150.66
520.65	49897.88
520.83	50522.80
521.00	50368.33
521.17	50110.87
521.34	50148.32
521.52	50560.25
521.69	50286.41
521.86	50487.70
522.03	50967.51
522.20	51234.33
522.38	51037.72
522.55	51264.75
522.72	51168.79
522.89	50969.85
523.07	51360.72
523.24	51194.54
523.41	51784.35
523.58	51283.48
523.75	51597.11
523.92	51447.32
524.10	51650.94
524.27	51845.21
524.44	51805.42
524.61	52137.77
524.78	52135.43
524.96	51931.81
525.13	51969.26
525.30	52383.53
525.47	52055.85
525.64	52135.43
525.81	52390.55
525.98	52664.39
526.16	52404.59
526.33	52516.94
526.50	52830.57
526.67	52287.57
526.84	52626.95
527.01	52800.15
527.18	52603.54
527.36	52633.97
527.53	52856.32
527.70	53050.58
527.87	53244.85
528.04	52875.04
528.21	52928.87
528.38	53373.58
528.55	53427.41
528.72	53605.29
528.89	53460.18
529.07	53207.40
529.24	53083.35
529.41	53518.69
529.58	53401.66
529.75	53221.44
529.92	53263.57
530.09	53724.66
530.26	53799.55
530.43	53722.32
530.60	53668.48
530.77	53783.17
530.94	53734.02
531.11	53895.52
531.28	53895.52
531.46	54012.54
531.63	53904.88
531.80	53771.47
531.97	54026.59
532.14	54314.47
532.31	54302.77
532.48	54183.40
532.65	54529.80
532.82	54220.85
532.99	54555.55
533.16	54181.06
533.33	54585.97
533.50	54810.67
533.67	54604.70
533.84	54471.29
534.01	54677.25
534.18	54695.98
534.35	55126.64
534.52	54894.92
534.69	55011.95
534.86	54843.43
535.03	54815.35
535.20	55114.94
535.37	55011.95
535.54	55285.79
535.71	54981.52
535.88	55065.78
536.05	55351.33
536.22	55337.29
536.38	55386.44
536.55	55365.37
536.72	55622.83
536.89	55278.77
537.06	55437.93
537.23	55639.22
537.40	55573.68
537.57	55498.78
537.74	55622.83
537.91	55779.65
538.08	55620.49
538.25	55561.98
538.42	55693.05
538.59	55915.40
538.75	55653.26
538.92	55625.17
539.09	55880.29
539.26	55819.44
539.43	55957.53
539.60	55962.21
539.77	56374.14
539.94	56383.51
540.11	56287.54
540.28	56179.88
540.44	56273.50
540.61	56268.82
540.78	56137.75
540.95	56451.38
541.12	56243.07
541.29	56395.21
541.46	56303.93
541.62	56140.09
541.79	56545.00
541.96	56212.65
542.13	56472.45
542.30	56151.79
542.47	56830.55
542.63	56610.54
542.80	56580.11
542.97	56739.27
543.14	57104.39
543.31	56942.89
543.48	57221.42
543.64	57329.08
543.81	57403.98
543.98	57193.33
544.15	57127.80
544.32	57183.97
544.48	57340.78
544.65	57539.73
544.82	57240.14
544.99	57183.97
545.16	57392.28
545.32	57219.08
545.49	57471.85
545.66	57546.75
545.83	57406.32
546.00	57549.09
546.16	57427.38
546.33	57418.02
546.50	57453.13
546.67	57733.99
546.83	57352.49
547.00	57396.96
547.17	57551.43
547.34	57638.03
547.50	57724.63
547.67	58038.26
547.84	57848.68
548.00	57897.83
548.17	57874.43
548.34	57724.63
548.51	57963.37
548.67	57801.87
548.84	57963.37
549.01	57771.44
549.18	58115.50
549.34	58014.86
549.51	57949.32
549.68	58124.86
549.84	58197.42
550.01	58394.03
550.18	58124.86
550.34	58326.15
550.51	58302.74
550.68	58089.76
550.84	57958.69
551.01	58295.72
551.18	58267.64
551.34	58351.90
551.51	58431.47
551.68	58358.92
551.84	58384.66
552.01	58267.64
552.18	58447.86
552.34	58258.27
552.51	58616.38
552.68	58361.26
552.84	58312.11
553.01	58602.33
553.18	58644.46
553.34	58628.08
553.51	58560.20
553.67	58614.04
553.84	58845.75
554.01	58752.13
554.17	58527.44
554.34	58649.14
554.51	58780.21
554.67	58969.80
554.84	58789.58
555.00	58925.33
555.17	58693.61
555.33	58986.18
555.50	58637.44
555.67	58958.09
555.83	58759.15
556.00	59178.10
556.16	59138.32
556.33	59056.40
556.50	58965.12
556.66	59288.11
556.83	58951.07
556.99	59253.00
557.16	59229.60
557.32	59384.07
557.49	59393.43
557.65	59248.32
557.82	59051.72
557.98	59217.89
558.15	59248.32
558.32	59283.43
558.48	59203.85
558.65	59213.21
558.81	59522.16
558.98	59374.71
559.14	59494.08
559.31	59330.24
559.47	59505.78
559.64	59526.84
559.80	59456.63
559.97	59512.80
560.13	59419.18
560.30	59489.40
560.46	59510.46
560.63	59578.34
560.79	59765.58
560.96	59580.68
561.12	59695.36
561.29	59669.62
561.45	59604.08
561.61	59812.39
561.78	59487.06
561.94	59648.55
562.11	59587.70
562.27	59714.09
562.44	59831.11
562.60	59714.09
562.77	59976.23
562.93	59580.68
563.10	59767.92
563.26	59662.60
563.42	59992.61
563.59	59952.82
563.75	59987.93
563.92	59737.49
564.08	59898.99
564.24	59824.09
564.41	60060.49
564.57	60046.44
564.74	59934.10
564.90	59887.29
565.07	59966.87
565.23	59819.41
565.39	59891.97
565.56	60261.77
565.72	59948.14
565.88	60030.06
566.05	59772.60
566.21	59948.14
566.38	60219.64
566.54	60285.18
566.70	60212.62
566.87	60193.90
567.03	60076.87
567.19	60243.05
567.36	60182.19
567.52	60023.04
567.68	60472.42
567.85	60409.23
568.01	60264.11
568.17	60116.66
568.34	60331.99
568.50	60058.15
568.66	60301.56
568.83	60219.64
568.99	60205.60
569.15	60341.35
569.32	60390.50
569.48	59973.89
569.64	60175.17
569.81	60453.70
569.97	60062.83
570.13	60196.24
570.30	60137.72
570.46	60238.37
570.62	60444.33
570.78	60439.65
570.95	60221.98
571.11	60507.53
571.27	60334.33
571.43	60388.16
571.60	60409.23
571.76	60493.49
571.92	60502.85
572.09	60329.65
572.25	60292.20
572.41	60334.33
572.57	60385.82
572.74	60767.33
572.90	60493.49
573.06	60247.73
573.22	60505.19
573.38	60573.06
573.55	60512.21
573.71	60755.63
573.87	60479.44
574.03	60573.06
574.20	60561.36
574.36	60615.19
574.52	60603.49
574.68	60418.59
574.84	60725.20
575.01	60673.71
575.17	60528.59
575.33	60566.04
575.49	60402.21
575.65	60664.35
575.82	60748.60
575.98	60610.51
576.14	60788.39
576.30	60458.38
576.46	60493.49
576.62	60535.62
576.79	60453.70
576.95	60640.94
577.11	60537.96
577.27	60786.05
577.43	60694.77
577.59	60659.66
577.75	60708.82
577.92	60662.00
578.08	60706.47
578.24	60523.91
578.40	60631.58
578.56	60605.83
578.72	60860.95
578.88	60762.65
579.04	60823.50
579.21	60666.69
579.37	60839.89
579.53	60872.65
579.69	60563.70
579.85	60530.93
580.01	60603.49
580.17	60687.75
580.33	60760.31
580.49	60708.82
580.65	60769.67
580.82	60596.47
580.98	60678.39
581.14	60736.90
581.30	60844.57
581.46	60570.72
581.62	60715.84
581.78	60818.82
581.94	60767.33
582.10	60690.09
582.26	60774.35
582.42	60701.79
582.58	60779.03
582.74	60701.79
582.90	60755.63
583.06	60795.42
583.22	60636.26
583.38	60715.84
583.54	60867.97
583.70	61057.56
583.86	60893.72
584.02	60825.84
584.18	60818.82
584.34	61099.68
584.50	60907.76
584.66	60725.20
584.82	60629.24
584.98	61022.45
585.14	60739.24
585.30	60757.97
585.46	60912.44
585.62	60786.05
585.78	60867.97
585.94	60603.49
586.10	60870.31
586.26	60886.70
586.42	60882.02
586.58	61022.45
586.74	60879.67
586.90	61029.47
587.06	60811.80
587.22	61006.06
587.38	61064.58
587.54	61080.96
587.70	60975.64
587.86	60921.80
588.02	60809.46
588.18	61048.19
588.34	60701.79
588.49	60987.34
