SpectraSuite Data File
++++++++++++++++++++++++++++++++++++
Date: Fri Oct 25 11:33:58 EDT 2013
User: price-jones
Dark Spectrum Present: No
Reference Spectrum Present: No
Number of Sampled Component Spectra: 1
Spectrometers: USB2+H05261
Integration Time (usec): 100000 (USB2+H05261)
Spectra Averaged: 1 (USB2+H05261)
Boxcar Smoothing: 0 (USB2+H05261)
Correct for Electrical Dark: No (USB2+H05261)
Strobe/Lamp Enabled: No (USB2+H05261)
Correct for Detector Non-linearity: No (USB2+H05261)
Correct for Stray Light: No (USB2+H05261)
Number of Pixels in Processed Spectrum: 2048
>>>>>Begin Processed Spectral Data<<<<<
365.73	266.82
365.92	266.82
366.12	266.82
366.32	241.08
366.52	142.77
366.72	238.73
366.91	163.84
367.11	163.84
367.31	159.16
367.51	163.84
367.70	119.37
367.90	184.90
368.10	191.92
368.30	191.92
368.49	135.75
368.69	241.08
368.89	191.92
369.09	194.26
369.28	248.10
369.48	215.33
369.68	215.33
369.87	212.99
370.07	241.08
370.27	255.12
370.47	351.08
370.66	383.85
370.86	449.38
371.06	503.22
371.25	608.54
371.45	524.28
371.65	587.47
371.84	540.66
372.04	475.13
372.24	599.18
372.44	601.52
372.63	629.60
372.83	531.30
373.03	608.54
373.22	596.84
373.42	676.41
373.62	629.60
373.81	655.35
374.01	596.84
374.21	676.41
374.40	667.05
374.60	648.33
374.79	674.07
374.99	667.05
375.19	674.07
375.38	685.78
375.58	667.05
375.78	706.84
375.97	685.78
376.17	727.91
376.37	723.23
376.56	683.44
376.76	676.41
376.95	737.27
377.15	702.16
377.35	662.37
377.54	692.80
377.74	695.14
377.93	739.61
378.13	706.84
378.33	706.84
378.52	690.46
378.72	791.10
378.91	781.74
379.11	695.14
379.31	734.93
379.50	732.59
379.70	760.67
379.89	784.08
380.09	777.06
380.28	713.86
380.48	662.37
380.68	723.23
380.87	676.41
381.07	690.46
381.26	725.57
381.46	727.91
381.65	716.20
381.85	699.82
382.04	870.68
382.24	755.99
382.43	840.25
382.63	826.21
382.83	746.63
383.02	847.27
383.22	854.30
383.41	765.36
383.61	763.01
383.80	784.08
384.00	830.89
384.19	816.85
384.39	908.13
384.58	788.76
384.78	844.93
384.97	786.42
385.17	854.30
385.36	842.59
385.56	816.85
385.75	823.87
385.95	814.51
386.14	889.40
386.34	856.64
386.53	802.80
386.72	917.49
386.92	873.02
387.11	844.93
387.31	1015.79
387.50	870.68
387.70	971.32
387.89	915.15
388.09	854.30
388.28	884.72
388.48	826.21
388.67	880.04
388.86	940.90
389.06	924.51
389.25	1018.13
389.45	809.83
389.64	866.00
389.84	973.66
390.03	980.68
390.22	954.94
390.42	1004.09
390.61	896.43
390.81	1050.90
391.00	1022.81
391.19	936.21
391.39	931.53
391.58	997.07
391.78	966.64
391.97	952.60
392.16	990.05
392.36	1057.92
392.55	1083.67
392.75	1057.92
392.94	1046.22
393.13	952.60
393.33	1067.28
393.52	1109.41
393.71	1074.31
393.91	1128.14
394.10	1060.26
394.29	1039.20
394.49	1109.41
394.68	1111.75
394.88	1055.58
395.07	1128.14
395.26	1174.95
395.46	1165.59
395.65	1174.95
395.84	1125.80
396.04	1146.86
396.23	1191.33
396.42	1135.16
396.62	1287.29
396.81	1247.51
397.00	1097.71
397.19	1233.46
397.39	1266.23
397.58	1273.25
397.77	1256.87
397.97	1299.00
398.16	1242.82
398.35	1261.55
398.55	1284.95
398.74	1284.95
398.93	1273.25
399.12	1252.19
399.32	1289.64
399.51	1329.42
399.70	1437.09
399.90	1259.21
400.09	1345.81
400.28	1390.28
400.47	1364.53
400.67	1315.38
400.86	1390.28
401.05	1439.43
401.24	1385.60
401.44	1366.87
401.63	1394.96
401.82	1437.09
402.01	1460.49
402.21	1465.18
402.40	1504.96
402.59	1514.33
402.78	1514.33
402.97	1401.98
403.17	1390.28
403.36	1579.86
403.55	1472.20
403.74	1511.99
403.93	1544.75
404.13	1643.06
404.32	1533.05
404.51	1612.63
404.70	1596.25
404.89	1617.31
405.09	1722.63
405.28	1549.43
405.47	1792.85
405.66	1643.06
405.85	1734.34
406.05	1699.23
406.24	1713.27
406.43	1799.87
406.62	1851.36
406.81	1837.32
407.00	1781.15
407.20	1778.81
407.39	1774.13
407.58	1846.68
407.77	1886.47
407.96	1900.52
408.15	1865.41
408.34	1870.09
408.54	1944.99
408.73	1820.94
408.92	1825.62
409.11	1902.86
409.30	1930.94
409.49	1961.37
409.68	1970.73
409.87	1989.46
410.07	2101.80
410.26	2015.20
410.45	2052.65
410.64	2085.42
410.83	2045.63
411.02	2019.88
411.21	2115.84
411.40	2066.69
411.59	2132.23
411.78	2120.53
411.98	2225.85
412.17	2216.49
412.36	2284.36
412.55	2181.38
412.74	2265.64
412.93	2335.85
413.12	2377.98
413.31	2356.92
413.50	2443.52
413.69	2359.26
413.88	2466.92
414.07	2490.33
414.26	2492.67
414.45	2452.88
414.64	2511.39
414.83	2530.12
415.02	2593.31
415.22	2574.59
415.41	2619.06
415.60	2579.27
415.79	2609.70
415.98	2700.98
416.17	2715.02
416.36	2619.06
416.55	2740.77
416.74	2764.17
416.93	2803.96
417.12	2803.96
417.31	2883.54
417.50	2813.32
417.69	2939.71
417.88	2913.97
418.07	2806.30
418.26	2923.33
418.45	2911.63
418.64	3045.04
418.83	2993.55
419.02	3002.91
419.21	2988.86
419.39	3019.29
419.58	3019.29
419.77	2923.33
419.96	2998.23
420.15	3262.71
420.34	3194.83
420.53	3014.61
420.72	3199.51
420.91	3269.73
421.10	3204.19
421.29	3358.67
421.48	3246.32
421.67	3335.26
421.86	3267.39
422.05	3403.14
422.24	3445.27
422.43	3323.56
422.61	3405.48
422.80	3243.98
422.99	3316.54
423.18	3410.16
423.37	3513.14
423.56	3368.03
423.75	3337.60
423.94	3290.79
424.13	3117.59
424.32	3293.13
424.50	3447.61
424.69	3480.38
424.88	3531.87
425.07	3370.37
425.26	3321.22
425.45	3396.12
425.64	3358.67
425.83	3419.52
426.01	3499.10
426.20	3527.19
426.39	3461.65
426.58	3391.44
426.77	3445.27
426.96	3550.59
427.15	3522.51
427.33	3552.93
427.52	3487.40
427.71	3536.55
427.90	3590.38
428.09	3559.95
428.28	3754.22
428.46	3627.83
428.65	3583.36
428.84	3707.41
429.03	3777.62
429.22	3634.85
429.40	3646.55
429.59	3772.94
429.78	3559.95
429.97	3515.48
430.16	3721.45
430.34	3721.45
430.53	3822.09
430.72	3859.54
430.91	3904.01
431.10	3707.41
431.28	4021.04
431.47	3995.29
431.66	3936.78
431.85	3854.86
432.03	4030.40
432.22	4060.83
432.41	3927.42
432.60	4067.85
432.79	4180.20
432.97	4119.34
433.16	3969.55
433.35	4095.94
433.54	4154.45
433.72	4170.83
433.91	4219.99
434.10	4170.83
434.28	4236.37
434.47	4236.37
434.66	4266.80
434.85	4320.63
435.03	4351.06
435.22	4287.86
435.41	4294.88
435.59	4259.78
435.78	4381.48
435.97	4283.18
436.16	4360.42
436.34	4437.66
436.53	4383.82
436.72	4662.35
436.90	4407.23
437.09	4559.36
437.28	4325.31
437.46	4421.27
437.65	4463.40
437.84	4545.32
438.02	4582.77
438.21	4594.47
438.40	4369.78
438.58	4681.07
438.77	4760.65
438.96	4685.75
439.14	4798.10
439.33	4678.73
439.52	4861.29
439.70	4739.58
439.89	5167.90
440.08	5018.11
440.26	5078.96
440.45	5060.24
440.63	5071.94
440.82	5174.92
441.01	5057.90
441.19	5128.11
441.38	5221.74
441.57	5268.55
441.75	5088.32
441.94	5401.96
442.12	5317.70
442.31	5219.39
442.50	5446.43
442.68	5336.42
442.87	5198.33
443.05	5408.98
443.24	5514.30
443.43	5408.98
443.61	5526.00
443.80	5703.89
443.98	5401.96
444.17	5280.25
444.35	5685.16
444.54	5633.67
444.73	5535.37
444.91	5488.56
445.10	5563.45
445.28	5490.90
445.47	5748.36
445.65	5572.82
445.84	5753.04
446.02	5687.50
446.21	5727.29
446.39	5659.42
446.58	5638.35
446.77	5755.38
446.95	5607.92
447.14	5811.55
447.32	5636.01
447.51	5774.10
447.69	5603.24
447.88	5673.46
448.06	5813.89
448.25	5844.32
448.43	5834.96
448.62	5792.83
448.80	5682.82
448.99	5891.13
449.17	5912.19
449.36	5769.42
449.54	5905.17
449.73	6064.33
449.91	5937.94
450.10	5881.77
450.28	6033.90
450.46	6125.18
450.65	6193.06
450.83	6118.16
451.02	6115.82
451.20	6076.03
451.39	6148.59
451.57	6169.65
451.76	6279.66
451.94	6029.22
452.13	6235.19
452.31	6160.29
452.49	6120.50
452.68	6305.40
452.86	6059.65
453.05	6595.63
453.23	6490.31
453.42	6232.85
453.60	6190.72
453.78	6530.09
453.97	6324.13
454.15	6396.68
454.34	6370.94
454.52	6476.26
454.70	6415.41
454.89	6525.41
455.07	6469.24
455.26	6387.32
455.44	6719.68
455.62	6614.35
455.81	6731.38
455.99	6825.00
456.17	6560.52
456.36	6719.68
456.54	6644.78
456.73	6808.62
456.91	6881.18
457.09	7009.90
457.28	7080.12
457.46	6862.45
457.64	7087.14
457.83	7105.87
458.01	6974.80
458.19	7192.47
458.38	7091.82
458.56	7229.91
458.74	7201.83
458.93	7073.10
459.11	7087.14
459.29	7199.49
459.48	7026.29
459.66	7171.40
459.84	7461.63
460.03	7524.82
460.21	7302.47
460.39	7194.81
460.57	7295.45
460.76	7393.75
460.94	7517.80
461.12	7449.93
461.31	7543.55
461.49	7473.33
461.67	7412.48
461.85	7524.82
462.04	7613.76
462.22	7826.75
462.40	7723.77
462.59	7714.41
462.77	7585.68
462.95	7658.23
463.13	7829.09
463.32	7873.56
463.50	7730.79
463.68	7864.20
463.86	7810.37
464.05	7880.58
464.23	7864.20
464.41	7950.80
464.59	7686.32
464.78	7960.16
464.96	7929.74
465.14	8013.99
465.32	7953.14
465.50	8121.66
465.69	7967.18
465.87	8142.72
466.05	8074.85
466.23	8021.02
466.41	8002.29
466.60	8224.64
466.78	8072.51
466.96	8109.96
467.14	8149.75
467.32	8304.22
467.51	8301.88
467.69	8053.78
467.87	8175.49
468.05	8313.58
468.23	8217.62
468.41	8278.47
468.60	8423.59
468.78	8477.42
468.96	8498.49
469.14	8435.29
469.32	8498.49
469.50	8521.89
469.69	8615.51
469.87	8596.79
470.05	8617.85
470.23	8725.52
470.41	8769.99
470.59	8819.14
470.77	8765.31
470.95	8648.28
471.14	9020.42
471.32	8814.46
471.50	8863.61
471.68	9001.70
471.86	9177.24
472.04	9071.92
472.22	9226.39
472.40	8908.08
472.58	9085.96
472.77	9345.76
472.95	9233.41
473.13	9565.77
473.31	9090.64
473.49	9448.74
473.67	9504.92
473.85	9502.58
474.03	9727.27
474.21	9738.97
474.39	9734.29
474.57	9554.07
474.75	9685.14
474.93	9844.29
475.12	9687.48
475.30	9870.04
475.48	9818.55
475.66	10085.37
475.84	9994.09
476.02	10186.01
476.20	9928.55
476.38	10434.11
476.56	10382.62
476.74	10555.82
476.92	10574.54
477.10	10375.59
477.28	10516.03
477.46	10621.35
477.64	10686.89
477.82	11061.37
478.00	11173.72
478.18	10820.30
478.36	11052.01
478.54	11274.36
478.72	11098.82
478.90	11440.54
479.08	11487.35
479.26	11658.21
479.44	11438.20
479.62	11714.38
479.80	11819.71
479.98	11932.05
480.16	12095.89
480.34	12231.64
480.52	12442.29
480.70	12264.41
480.88	11925.03
481.06	12184.83
481.24	12233.98
481.41	12390.80
481.59	12629.53
481.77	12849.54
481.95	12578.04
482.13	13013.38
482.31	12833.16
482.49	13294.24
482.67	13221.69
482.85	13355.10
483.03	13319.99
483.21	13689.79
483.39	13748.31
483.57	13771.71
483.74	13809.16
483.92	14033.85
484.10	14029.17
484.28	14317.06
484.46	14373.23
484.64	14541.75
484.82	14480.89
485.00	14628.35
485.18	14712.61
485.35	15194.76
485.53	14738.35
485.71	14736.01
485.89	15279.02
486.07	15138.58
486.25	15461.58
486.43	15611.37
486.61	15693.29
486.78	15681.59
486.96	15838.41
487.14	16067.78
487.32	16027.99
487.50	16135.65
487.68	16329.92
487.85	16416.52
488.03	16486.73
488.21	16821.43
488.39	16840.15
488.57	17064.85
488.75	16999.31
488.92	17383.16
489.10	17418.27
489.28	17589.13
489.46	17752.96
489.64	17518.91
489.81	17935.53
489.99	17804.46
490.17	18101.70
490.35	18253.84
490.53	18129.79
490.70	18396.61
490.88	18359.16
491.06	18572.15
491.24	18806.20
491.41	18857.70
491.59	18782.80
491.77	19084.73
491.95	19178.35
492.13	19562.20
492.30	19601.99
492.48	19807.95
492.66	19407.72
492.84	19707.31
493.01	19868.81
493.19	19763.48
493.37	20184.78
493.54	20280.74
493.72	20290.10
493.90	20390.75
494.08	20400.11
494.25	20533.52
494.43	20720.76
494.61	20608.42
494.79	20987.58
494.96	20985.24
495.14	21254.40
495.32	21785.71
495.49	21315.26
495.67	21486.12
495.85	21645.27
496.02	22019.76
496.20	22211.68
496.38	22284.24
496.55	22162.53
496.73	22895.12
496.91	22464.46
497.09	22576.81
497.26	22824.90
497.44	22796.82
497.62	22897.46
497.79	23274.29
497.97	22993.42
498.14	23433.44
498.32	23494.30
498.50	23295.35
498.67	23934.32
498.85	23833.68
499.03	23852.40
499.20	23754.10
499.38	24159.01
499.56	24114.54
499.73	24343.91
499.91	24308.80
500.08	24669.25
500.26	24507.75
500.44	24673.93
500.61	24526.47
500.79	24697.33
500.97	25462.69
501.14	25039.05
501.32	25069.48
501.49	25254.38
501.67	25329.28
501.84	25193.53
502.02	25422.90
502.20	25413.54
502.37	25874.62
502.55	25654.61
502.72	25362.04
502.90	25465.03
503.07	25560.99
503.25	25507.16
503.43	25881.64
503.60	26223.36
503.78	26305.28
503.95	26209.32
504.13	26560.40
504.30	26146.12
504.48	26497.20
504.65	26749.98
504.83	26735.94
505.01	26677.43
505.18	26906.80
505.36	27225.11
505.53	26904.46
505.71	27175.96
505.88	27300.01
506.06	27065.96
506.23	27555.13
506.41	27187.66
506.58	27704.92
506.76	27573.85
506.93	28102.81
507.11	27564.49
507.28	27681.52
507.46	27585.55
507.63	28056.00
507.81	28451.55
507.98	28032.60
508.16	28425.81
508.33	28496.02
508.50	28458.57
508.68	28685.61
508.85	28833.06
509.03	28521.77
509.20	28709.01
509.38	29118.60
509.55	29476.71
509.73	29137.33
509.90	29127.97
510.08	29034.35
510.25	29247.33
510.42	29809.06
510.60	29275.42
510.77	29582.03
510.95	29977.58
511.12	29893.32
511.30	29797.36
511.47	29954.18
511.64	29340.96
511.82	30169.51
511.99	29699.06
512.17	29692.04
512.34	30682.08
512.51	30590.80
512.69	30543.99
512.86	30412.92
513.04	30939.54
513.21	30349.73
513.38	30656.34
513.56	30642.29
513.73	30848.26
513.90	31037.84
514.08	30850.60
514.25	31147.85
514.43	30965.29
514.60	31412.33
514.77	31346.79
514.95	31367.86
515.12	31171.25
515.29	31297.64
515.47	31796.18
515.64	31536.38
515.81	31807.88
515.99	32039.59
516.16	31796.18
516.33	32027.89
516.51	32149.60
516.68	31948.31
516.85	32320.46
517.03	32327.48
517.20	32758.14
517.37	32383.65
517.54	32528.77
517.72	32627.07
517.89	32404.72
518.06	32357.91
518.24	32861.12
518.41	32706.65
518.58	32966.45
518.75	33008.58
518.93	33041.34
519.10	33156.03
519.27	33453.28
519.45	33216.88
519.62	33167.73
519.79	33574.98
519.96	33544.56
520.14	33495.41
520.31	33338.59
520.48	33893.30
520.65	34167.14
520.83	34064.16
521.00	34036.07
521.17	33795.00
521.34	33848.83
521.52	34073.52
521.69	33897.98
521.86	34323.96
522.03	34274.80
522.20	34710.14
522.38	34787.38
522.55	34885.68
522.72	34745.25
522.89	34787.38
523.07	35033.14
523.24	35044.84
523.41	35187.61
523.58	34710.14
523.75	35093.99
523.92	34728.87
524.10	35229.74
524.27	35255.49
524.44	35482.52
524.61	35498.91
524.78	35618.27
524.96	35672.10
525.13	36011.48
525.30	35543.38
525.47	36261.92
525.64	35838.28
525.81	35615.93
525.98	36339.16
526.16	36472.57
526.33	36135.53
526.50	36648.11
526.67	35957.65
526.84	36175.32
527.01	35931.90
527.18	36332.14
527.36	36362.56
527.53	36329.80
527.70	37172.39
527.87	36542.78
528.04	36507.68
528.21	36758.11
528.38	36540.44
528.55	36800.24
528.72	37029.62
528.89	36950.04
529.07	36900.89
529.24	36634.06
529.41	36868.12
529.58	37088.13
529.75	37179.41
529.92	37289.42
530.09	37230.90
530.26	37446.23
530.43	37343.25
530.60	37181.75
530.77	37378.36
530.94	37687.31
531.11	37528.15
531.28	37900.29
531.46	37612.41
531.63	37970.51
531.80	37947.11
531.97	38061.79
532.14	38054.77
532.31	37853.48
532.48	38478.41
532.65	38384.79
532.82	37914.34
532.99	38445.64
533.16	38022.00
533.33	38433.94
533.50	38480.75
533.67	38368.40
533.84	38700.76
534.01	38794.38
534.18	38396.49
534.35	38866.94
534.52	38569.69
534.69	38808.42
534.86	39243.76
535.03	38925.45
535.20	39082.27
535.37	39009.71
535.54	39391.22
535.71	39070.56
535.88	39267.17
536.05	39332.70
536.22	39643.99
536.38	39423.98
536.55	39489.52
536.72	39285.89
536.89	39253.12
537.06	39292.91
537.23	39704.85
537.40	39456.75
537.57	39711.87
537.74	39154.82
537.91	40238.49
538.08	39866.34
538.25	39676.76
538.42	39313.98
538.59	39880.39
538.75	39894.43
538.92	40231.47
539.09	40582.55
539.26	39875.71
539.43	40313.39
539.60	40170.61
539.77	40395.31
539.94	40332.11
540.11	40687.87
540.28	40278.28
540.44	40783.83
540.61	40149.55
540.78	40009.12
540.95	40411.69
541.12	40762.77
541.29	40648.08
541.46	40601.27
541.62	40825.96
541.79	41043.63
541.96	40318.07
542.13	40641.06
542.30	40746.39
542.47	41235.56
542.63	41200.45
542.80	41486.00
542.97	41277.69
543.14	41621.75
543.31	41535.15
543.48	41233.22
543.64	41895.59
543.81	41448.55
543.98	41659.20
544.15	41247.26
544.32	41722.39
544.48	41865.16
544.65	41832.39
544.82	41993.89
544.99	41425.14
545.16	41638.13
545.32	42183.48
545.49	42131.98
545.66	42043.04
545.83	42082.83
546.00	42237.31
546.16	42260.71
546.33	41951.76
546.50	42216.24
546.67	42501.79
546.83	42239.65
547.00	42359.02
547.17	42611.79
547.34	41935.38
547.50	42457.32
547.67	42635.20
547.84	42153.05
548.00	42831.80
548.17	43012.02
548.34	42749.88
548.51	43061.18
548.67	42712.44
548.84	42595.41
549.01	42866.91
549.18	42784.99
549.34	43028.41
549.51	43145.44
549.68	43433.32
549.84	43182.88
550.01	43299.91
550.18	42742.86
550.34	43461.41
550.51	43100.97
550.68	43276.51
550.84	43002.66
551.01	43229.69
551.18	42983.94
551.34	43360.76
551.51	43536.30
551.68	43400.55
551.84	43545.67
552.01	43187.56
552.18	43564.39
552.34	43438.00
552.51	44107.40
552.68	43452.05
552.84	43643.97
553.01	43950.58
553.18	43854.62
553.34	43943.56
553.51	43566.73
553.67	43803.13
553.84	44074.63
554.01	44086.33
554.17	43779.72
554.34	44100.37
554.51	44254.85
554.67	44549.76
554.84	44219.74
555.00	44252.51
555.17	44334.43
555.33	44573.16
555.50	44079.31
555.67	43983.35
555.83	44172.93
556.00	44655.08
556.16	44947.65
556.33	44392.94
556.50	44275.91
556.66	44294.64
556.83	44772.11
556.99	44673.81
557.16	44804.88
557.32	44945.31
557.49	44989.78
557.65	44343.79
557.82	44671.46
557.98	44540.39
558.15	44423.37
558.32	44746.36
558.48	44531.03
558.65	45071.70
558.81	44584.86
558.98	44774.45
559.14	44458.48
559.31	44844.66
559.47	45074.04
559.64	44978.07
559.80	44863.39
559.97	45062.33
560.13	44720.62
560.30	44783.81
560.46	45392.35
560.63	45350.22
560.79	45478.95
560.96	45745.77
561.12	45317.45
561.29	45350.22
561.45	45195.74
561.61	45385.33
561.78	45556.19
561.94	45223.83
562.11	45216.81
562.27	45263.62
562.44	45020.20
562.60	45390.01
562.77	45329.16
562.93	45511.72
563.10	45713.00
563.26	45448.52
563.42	45577.25
563.59	45228.51
563.75	45610.02
563.92	45689.60
564.08	45237.87
564.24	45947.06
564.41	45677.90
564.57	45815.99
564.74	45837.05
564.90	45694.28
565.07	45610.02
565.23	45450.86
565.39	45397.03
565.56	45972.80
565.72	45577.25
565.88	45876.84
566.05	45804.28
566.21	46162.39
566.38	45815.99
566.54	45787.90
566.70	46103.87
566.87	46209.20
567.03	45635.77
567.19	45979.82
567.36	45497.67
567.52	45713.00
567.68	46234.94
567.85	46237.28
568.01	45963.44
568.17	45666.19
568.34	46113.23
568.50	46330.90
568.66	45549.17
568.83	46157.70
568.99	46286.43
569.15	45963.44
569.32	45619.38
569.48	46064.08
569.64	46569.64
569.81	46356.65
569.97	45745.77
570.13	46368.35
570.30	46019.61
570.46	46120.26
570.62	46621.13
570.78	46115.58
570.95	46094.51
571.11	46459.63
571.27	46305.16
571.43	46127.28
571.60	45904.93
571.76	46005.57
571.92	46267.71
572.09	46335.59
572.25	46202.18
572.41	46185.79
572.57	46492.40
572.74	46522.83
572.90	46265.37
573.06	46553.26
573.22	46106.21
573.38	46691.35
573.55	46747.52
573.71	46810.71
573.87	46579.00
574.03	46555.60
574.20	46314.52
574.36	46799.01
574.52	46684.33
574.68	46724.11
574.84	46752.20
575.01	46728.80
575.17	46672.62
575.33	46803.69
575.49	46232.60
575.65	46667.94
575.82	46639.86
575.98	46153.02
576.14	46705.39
576.30	46763.90
576.46	47021.36
576.62	46869.23
576.79	46663.26
576.95	46363.67
577.11	46501.76
577.27	46387.08
577.43	46806.03
577.59	46394.10
577.75	46454.95
577.92	46190.47
578.08	46625.81
578.24	46997.96
578.40	46899.65
578.56	47084.56
578.72	46689.01
578.88	46775.61
579.04	46426.87
579.21	46309.84
579.37	46944.12
579.53	46548.57
579.69	46745.18
579.85	46614.11
580.01	46485.38
580.17	46305.16
580.33	46670.28
580.49	46794.33
580.65	46909.02
580.82	46625.81
580.98	46600.07
581.14	46672.62
581.30	46803.69
581.46	46270.05
581.62	46838.80
581.78	46361.33
581.94	46988.60
582.10	46593.04
582.26	47107.96
582.42	46955.83
582.58	46841.14
582.74	46972.21
582.90	46759.22
583.06	46876.25
583.22	46855.18
583.38	46560.28
583.54	46831.78
583.70	46766.24
583.86	46911.36
584.02	46782.63
584.18	47220.31
584.34	46887.95
584.50	47016.68
584.66	47138.39
584.82	46817.74
584.98	47735.23
585.14	46916.04
585.30	46906.68
585.46	46756.88
585.62	46967.53
585.78	47292.86
585.94	46714.75
586.10	46373.03
586.26	47056.47
586.42	47004.98
586.58	46777.95
586.74	47019.02
586.90	46927.74
587.06	47145.41
587.22	47117.32
587.38	47124.35
587.54	47096.26
587.70	47512.88
587.86	47339.68
588.02	47056.47
588.18	46864.55
588.34	47107.96
588.49	47028.38
588.65	46829.44
588.81	46696.03
588.97	47449.68
589.13	46747.52
589.29	47007.32
589.45	47236.69
589.61	47196.90
589.77	47236.69
589.93	47400.53
590.08	47414.57
