SpectraSuite Data File
++++++++++++++++++++++++++++++++++++
Date: Fri Oct 25 11:25:30 EDT 2013
User: price-jones
Dark Spectrum Present: No
Reference Spectrum Present: No
Number of Sampled Component Spectra: 1
Spectrometers: USB2+H05261
Integration Time (usec): 100000 (USB2+H05261)
Spectra Averaged: 1 (USB2+H05261)
Boxcar Smoothing: 0 (USB2+H05261)
Correct for Electrical Dark: No (USB2+H05261)
Strobe/Lamp Enabled: No (USB2+H05261)
Correct for Detector Non-linearity: No (USB2+H05261)
Correct for Stray Light: No (USB2+H05261)
Number of Pixels in Processed Spectrum: 2048
>>>>>Begin Processed Spectral Data<<<<<
365.73	154.48
365.92	154.48
366.12	154.48
366.32	215.33
366.52	93.62
366.72	163.84
366.91	147.45
367.11	156.82
367.31	208.31
367.51	112.35
367.70	138.09
367.90	208.31
368.10	84.26
368.30	114.69
368.49	140.43
368.69	138.09
368.89	163.84
369.09	105.32
369.28	198.95
369.48	168.52
369.68	196.60
369.87	208.31
370.07	245.76
370.27	189.58
370.47	315.97
370.66	613.22
370.86	650.67
371.06	690.46
371.25	725.57
371.45	702.16
371.65	676.41
371.84	685.78
372.04	669.39
372.24	711.52
372.44	704.50
372.63	685.78
372.83	741.95
373.03	732.59
373.22	802.80
373.42	751.31
373.62	791.10
373.81	812.17
374.01	786.42
374.21	828.55
374.40	854.30
374.60	744.29
374.79	858.98
374.99	821.53
375.19	793.44
375.38	823.87
375.58	755.99
375.78	891.74
375.97	861.32
376.17	849.61
376.37	844.93
376.56	894.08
376.76	915.15
376.95	835.57
377.15	856.64
377.35	945.58
377.54	933.87
377.74	926.85
377.93	786.42
378.13	880.04
378.33	943.24
378.52	938.55
378.72	950.26
378.91	992.39
379.11	954.94
379.31	924.51
379.50	844.93
379.70	915.15
379.89	1036.86
380.09	950.26
380.28	978.34
380.48	947.92
380.68	1020.47
380.87	1036.86
381.07	1057.92
381.26	1093.03
381.46	997.07
381.65	1041.54
381.85	994.73
382.04	1032.18
382.24	1086.01
382.43	1013.45
382.63	1011.11
382.83	1039.20
383.02	1081.33
383.22	1116.44
383.41	1132.82
383.61	1132.82
383.80	1184.31
384.00	1083.67
384.19	1004.09
384.39	1163.25
384.58	1132.82
384.78	1046.22
384.97	1128.14
385.17	1130.48
385.36	1167.93
385.56	1071.97
385.75	1167.93
385.95	1100.05
386.14	1196.01
386.34	1186.65
386.53	1226.44
386.72	1188.99
386.92	1296.66
387.11	1196.01
387.31	1296.66
387.50	1242.82
387.70	1188.99
387.89	1235.80
388.09	1308.36
388.28	1277.93
388.48	1266.23
388.67	1266.23
388.86	1350.49
389.06	1303.68
389.25	1299.00
389.45	1313.04
389.64	1390.28
389.84	1364.53
390.03	1420.71
390.22	1413.68
390.42	1409.00
390.61	1303.68
390.81	1430.07
391.00	1366.87
391.19	1448.79
391.39	1462.83
391.58	1425.39
391.78	1486.24
391.97	1446.45
392.16	1479.22
392.36	1516.67
392.55	1434.75
392.75	1437.09
392.94	1511.99
393.13	1521.35
393.33	1561.14
393.52	1509.65
393.71	1537.73
393.91	1610.29
394.10	1572.84
394.29	1624.33
394.49	1565.82
394.68	1647.74
394.88	1668.80
395.07	1565.82
395.26	1668.80
395.46	1638.38
395.65	1687.53
395.84	1760.08
396.04	1781.15
396.23	1795.19
396.42	1797.53
396.62	1741.36
396.81	1816.26
397.00	1626.67
397.19	1834.98
397.39	1729.66
397.58	1760.08
397.77	1806.89
397.97	1830.30
398.16	1872.43
398.35	1996.48
398.55	1905.20
398.74	1947.33
398.93	2064.35
399.12	1966.05
399.32	1970.73
399.51	1895.83
399.70	1956.69
399.90	2008.18
400.09	2031.58
400.28	1982.43
400.47	2052.65
400.67	2001.16
400.86	2024.56
401.05	2083.08
401.24	2017.54
401.44	2078.40
401.63	2162.66
401.82	2174.36
402.01	2104.14
402.21	2190.74
402.40	2120.53
402.59	2209.47
402.78	2251.60
402.97	2228.19
403.17	2244.57
403.36	2265.64
403.55	2225.85
403.74	2265.64
403.93	2385.01
404.13	2324.15
404.32	2497.35
404.51	2303.09
404.70	2251.60
404.89	2422.45
405.09	2569.91
405.28	2483.31
405.47	2406.07
405.66	2417.77
405.85	2429.48
406.05	2415.43
406.24	2609.70
406.43	2497.35
406.62	2640.12
406.81	2605.02
407.00	2614.38
407.20	2555.86
407.39	2635.44
407.58	2766.51
407.77	2637.78
407.96	2736.09
408.15	2785.24
408.34	2736.09
408.54	2782.90
408.73	2759.49
408.92	2808.64
409.11	2818.00
409.30	2878.86
409.49	2857.79
409.68	2848.43
409.87	2991.20
410.07	2951.42
410.26	3005.25
410.45	2991.20
410.64	2967.80
410.83	2904.60
411.02	2949.08
411.21	3117.59
411.40	3187.81
411.59	3129.30
411.78	3197.17
411.98	3197.17
412.17	3314.20
412.36	3248.66
412.55	3185.47
412.74	3375.05
412.93	3337.60
413.12	3447.61
413.31	3562.30
413.50	3473.36
413.69	3501.44
413.88	3679.32
414.07	3538.89
414.26	3618.47
414.45	3585.70
414.64	3611.45
414.83	3749.54
415.02	3768.26
415.22	3684.00
415.41	3847.84
415.60	3815.07
415.79	3873.59
415.98	3899.33
416.17	3871.25
416.36	3981.25
416.55	3985.93
416.74	4030.40
416.93	4002.32
417.12	4046.79
417.31	4161.47
417.50	4180.20
417.69	4273.82
417.88	4299.56
418.07	4255.09
418.26	4325.31
418.45	4266.80
418.64	4428.29
418.83	4339.35
419.02	4344.03
419.21	4517.23
419.39	4505.53
419.58	4456.38
419.77	4397.87
419.96	4404.89
420.15	4624.90
420.34	4386.16
420.53	4524.26
420.72	4718.52
420.91	4716.18
421.10	4634.26
421.29	4657.67
421.48	4573.41
421.67	4727.88
421.86	4758.31
422.05	4844.91
422.24	4840.23
422.43	4713.84
422.61	4929.17
422.80	4908.10
422.99	4905.76
423.18	4959.60
423.37	4968.96
423.56	4884.70
423.75	4844.91
423.94	4772.35
424.13	4622.56
424.32	4667.03
424.50	4971.30
424.69	5172.58
424.88	4961.94
425.07	5160.88
425.26	4798.10
425.45	4943.21
425.64	4961.94
425.83	4861.29
426.01	5041.51
426.20	5032.15
426.39	5095.35
426.58	5015.77
426.77	5015.77
426.96	5144.50
427.15	5093.01
427.33	5254.50
427.52	5104.71
427.71	5369.19
427.90	5217.05
428.09	5252.16
428.28	5254.50
428.46	5268.55
428.65	5210.03
428.84	5577.50
429.03	5488.56
429.22	5313.02
429.40	5437.06
429.59	5533.03
429.78	5301.31
429.97	5327.06
430.16	5486.22
430.34	5563.45
430.53	5750.70
430.72	5696.86
430.91	5605.58
431.10	5455.79
431.28	5652.39
431.47	5820.91
431.66	5944.96
431.85	5729.63
432.03	6033.90
432.22	5944.96
432.41	5989.43
432.60	5839.64
432.79	5926.24
432.97	5963.68
433.16	5977.73
433.35	5893.47
433.54	5961.34
433.72	6190.72
433.91	6015.18
434.10	6101.78
434.28	5951.98
434.47	6115.82
434.66	6160.29
434.85	6181.35
435.03	6246.89
435.22	6314.77
435.41	6546.48
435.59	6415.41
435.78	6300.72
435.97	6377.96
436.16	6480.94
436.34	6291.36
436.53	6420.09
436.72	6520.73
436.90	6509.03
437.09	6705.63
437.28	6476.26
437.46	6555.84
437.65	6473.92
437.84	6712.66
438.02	6686.91
438.21	6586.27
438.40	6448.18
438.58	7028.63
438.77	6998.20
438.96	6696.27
439.14	6920.96
439.33	7091.82
439.52	7126.93
439.70	7026.29
439.89	7255.66
440.08	7496.74
440.26	7180.76
440.45	7248.64
440.63	7307.15
440.82	7571.63
441.01	7501.42
441.19	7604.40
441.38	7637.17
441.57	7653.55
441.75	7564.61
441.94	7742.49
442.12	8025.70
442.31	7873.56
442.50	7995.27
442.68	7964.84
442.87	7777.60
443.05	8355.71
443.24	8156.77
443.43	8142.72
443.61	8322.94
443.80	8187.19
443.98	8135.70
444.17	7880.58
444.35	8056.12
444.54	8390.82
444.73	8287.84
444.91	8320.60
445.10	8208.26
445.28	8226.98
445.47	8236.35
445.65	8308.90
445.84	8325.29
446.02	8547.64
446.21	8421.25
446.39	8407.20
446.58	8322.94
446.77	8290.18
446.95	8280.82
447.14	8400.18
447.32	8559.34
447.51	8348.69
447.69	8388.48
447.88	8521.89
448.06	8390.82
448.25	8437.63
448.43	8498.49
448.62	8610.83
448.80	8439.97
448.99	8615.51
449.17	8634.24
449.36	8575.72
449.54	8793.39
449.73	8662.32
449.91	8957.23
450.10	8910.42
450.28	8919.78
450.46	8898.72
450.65	9013.40
450.83	9029.79
451.02	8957.23
451.20	9055.53
451.39	9130.43
451.57	9004.04
451.76	9121.07
451.94	9053.19
452.13	9226.39
452.31	9298.95
452.49	9092.98
452.68	9270.86
452.86	9137.45
453.05	9273.20
453.23	9486.19
453.42	9205.33
453.60	9231.07
453.78	9561.09
453.97	9397.25
454.15	9533.00
454.34	9308.31
454.52	9652.37
454.70	9493.21
454.89	9832.59
455.07	9785.78
455.26	9668.75
455.44	9811.53
455.62	9687.48
455.81	9848.97
455.99	9839.61
456.17	10068.98
456.36	9884.08
456.54	10073.67
456.73	10038.56
456.91	10541.77
457.09	10389.64
457.28	10452.83
457.46	10293.68
457.64	10654.12
457.83	10312.40
458.01	10331.12
458.19	10703.27
458.38	10455.17
458.56	10712.63
458.74	10663.48
458.93	10614.33
459.11	10499.64
459.29	10710.29
459.48	10623.69
459.66	10614.33
459.84	10745.40
460.03	10927.96
460.21	10920.94
460.39	10729.02
460.57	10981.79
460.76	10850.72
460.94	11199.46
461.12	10934.98
461.31	11311.81
461.49	11105.84
461.67	11199.46
461.85	11187.76
462.04	11321.17
462.22	11775.24
462.40	11419.47
462.59	11473.31
462.77	11419.47
462.95	11304.79
463.13	11618.42
463.32	11337.56
463.50	11573.95
463.68	11639.48
463.86	11709.70
464.05	11723.74
464.23	11548.20
464.41	11798.64
464.59	11470.97
464.78	12023.33
464.96	11786.94
465.14	11918.01
465.32	11964.82
465.50	12063.12
465.69	11915.67
465.87	12032.69
466.05	11955.46
466.23	11833.75
466.41	12091.21
466.60	12233.98
466.78	12116.95
466.96	12086.53
467.14	12294.83
467.32	12205.89
467.51	12456.33
467.69	12042.06
467.87	12332.28
468.05	12327.60
468.23	12250.36
468.41	12400.16
468.60	12542.93
468.78	12833.16
468.96	12351.01
469.14	12758.26
469.32	12943.16
469.50	12627.19
469.69	12774.64
469.87	12903.37
470.05	13069.55
470.23	13099.98
470.41	13074.23
470.59	13364.46
470.77	13097.64
470.95	12978.27
471.14	13289.56
471.32	13123.38
471.50	13483.83
471.68	13579.79
471.86	13415.95
472.04	13673.41
472.22	13926.19
472.40	13516.59
472.58	13575.11
472.77	13654.69
472.95	14078.32
473.13	14200.03
473.31	14005.77
473.49	14148.54
473.67	14097.05
473.85	14260.88
474.03	14436.42
474.21	14602.60
474.39	14600.26
474.57	14721.97
474.75	14623.67
474.93	14937.30
475.12	14696.22
475.30	14846.02
475.48	14934.96
475.66	15066.03
475.84	14918.57
476.02	15246.25
476.20	15489.67
476.38	15534.14
476.56	15791.59
476.74	15730.74
476.92	15623.08
477.10	15276.68
477.28	15925.00
477.46	15974.16
477.64	16215.23
477.82	16587.38
478.00	16629.51
478.18	16397.79
478.36	16769.94
478.54	17188.89
478.72	17158.47
478.90	17334.01
479.08	17444.01
479.26	17561.04
479.44	17460.40
479.62	17921.48
479.80	17933.18
479.98	18040.85
480.16	18347.46
480.34	18293.63
480.52	18401.29
480.70	18263.20
480.88	18342.78
481.06	18672.79
481.24	18934.93
481.41	18745.35
481.59	19255.59
481.77	19213.46
481.95	19618.37
482.13	19487.30
482.31	19438.15
482.49	19843.06
482.67	19978.81
482.85	19962.43
483.03	20627.14
483.21	20730.12
483.39	20666.93
483.57	20776.94
483.74	21205.25
483.92	21537.61
484.10	20893.96
484.28	21401.86
484.46	21862.94
484.64	22073.59
484.82	21565.70
485.00	22064.23
485.18	22700.86
485.35	22750.01
485.53	22668.09
485.71	23065.98
485.89	23410.04
486.07	23005.13
486.25	23311.74
486.43	23105.77
486.61	23782.18
486.78	24102.84
486.96	24091.13
487.14	24149.65
487.32	24189.44
487.50	24879.89
487.68	24805.00
487.85	25195.87
488.03	25228.63
488.21	25493.12
488.39	25593.76
488.57	25907.39
488.75	26078.25
488.92	26150.81
489.10	26511.25
489.28	26326.35
489.46	27140.85
489.64	26651.68
489.81	27307.03
489.99	27852.38
490.17	27531.72
490.35	27992.81
490.53	27807.90
490.70	27999.83
490.88	27978.76
491.06	28603.69
491.24	28671.56
491.41	28645.82
491.59	29060.09
491.77	28788.59
491.95	29024.98
492.13	29200.52
492.30	29820.77
492.48	29898.00
492.66	30127.38
492.84	30099.29
493.01	30513.56
493.19	30326.32
493.37	30927.84
493.54	30930.18
493.72	31393.61
493.90	31175.94
494.08	31484.89
494.25	32051.30
494.43	31782.13
494.61	31903.84
494.79	32446.85
494.96	32086.40
495.14	32437.48
495.32	32631.75
495.49	32833.04
495.67	32987.51
495.85	32921.98
496.02	33394.76
496.20	33902.66
496.38	33935.43
496.55	34000.96
496.73	34511.20
496.91	34562.69
497.09	34820.15
497.26	34668.02
497.44	34775.68
497.62	35129.10
497.79	35606.57
497.97	35323.36
498.14	35749.34
498.32	36107.44
498.50	36079.36
498.67	36203.41
498.85	36163.62
499.03	36790.88
499.20	36226.81
499.38	36725.35
499.56	36772.16
499.73	36975.78
499.91	36811.95
500.08	37530.49
500.26	36664.49
500.44	37518.79
500.61	37308.14
500.79	37256.65
500.97	37766.88
501.14	38206.90
501.32	38415.21
501.49	38181.16
501.67	38141.37
501.84	38726.50
502.02	38389.47
502.20	38478.41
502.37	39213.34
502.55	39136.10
502.72	39236.74
502.90	39353.77
503.07	39007.37
503.25	39491.86
503.43	39913.16
503.60	39763.36
503.78	40348.50
503.95	40182.32
504.13	40350.84
504.30	40437.44
504.48	40505.31
504.65	40748.73
504.83	40931.29
505.01	40982.78
505.18	40563.82
505.36	40980.44
505.53	40931.29
505.71	41212.15
505.88	41553.87
506.06	40957.03
506.23	41635.79
506.41	41727.07
506.58	41869.84
506.76	41261.30
506.93	42167.09
507.11	42344.97
507.28	42263.05
507.46	42377.74
507.63	42550.94
507.81	42749.88
507.98	42127.30
508.16	42787.33
508.33	43103.31
508.50	43611.20
508.68	43302.25
508.85	43391.19
509.03	43871.00
509.20	43826.53
509.38	44198.68
509.55	43950.58
509.73	43952.92
509.90	44177.61
510.08	44383.58
510.25	44039.52
510.42	44524.01
510.60	44500.61
510.77	44898.50
510.95	45399.37
511.12	44931.26
511.30	44580.18
511.47	44744.02
511.64	45415.76
511.82	44992.12
511.99	45181.70
512.17	45626.40
512.34	45413.41
512.51	46344.95
512.69	46190.47
512.86	45879.18
513.04	46342.61
513.21	46464.32
513.38	46366.01
513.56	46721.77
513.73	46689.01
513.90	46611.77
514.08	46944.12
514.25	47208.61
514.43	47419.25
514.60	47187.54
514.77	47515.22
514.95	47735.23
515.12	47496.49
515.29	47217.97
515.47	47690.76
515.64	47868.64
515.81	47543.30
515.99	48133.12
516.16	48175.25
516.33	47896.72
516.51	48257.17
516.68	48135.46
516.85	48334.40
517.03	48641.01
517.20	48643.35
517.37	48545.05
517.54	48500.58
517.72	48584.84
517.89	49174.66
518.06	48760.38
518.24	49184.02
518.41	48854.00
518.58	49001.46
518.75	48793.15
518.93	49336.15
519.10	49137.21
519.27	49408.71
519.45	49696.59
519.62	49600.63
519.79	49628.72
519.96	49832.35
520.14	50248.96
520.31	49675.53
520.48	50454.93
520.65	49895.54
520.83	50616.43
521.00	50562.59
521.17	50258.32
521.34	50426.84
521.52	50632.81
521.69	50705.37
521.86	50454.93
522.03	51269.43
522.20	51475.40
522.38	51262.41
522.55	50899.63
522.72	51026.02
522.89	51058.79
523.07	51374.76
523.24	51271.78
523.41	51313.90
523.58	51049.42
523.75	51580.73
523.92	51735.20
524.10	51690.73
524.27	51873.29
524.44	51650.94
524.61	51634.56
524.78	51936.49
524.96	51945.85
525.13	52072.24
525.30	52048.83
525.47	52254.80
525.64	52039.47
525.81	52385.87
525.98	52289.91
526.16	52240.76
526.33	52374.17
526.50	52865.68
526.67	52306.29
526.84	52685.46
527.01	52317.99
527.18	52601.20
527.36	52516.94
527.53	52865.68
527.70	53020.16
527.87	53088.03
528.04	52797.80
528.21	53198.04
528.38	53244.85
528.55	53389.96
528.72	53097.39
528.89	53235.48
529.07	53099.73
529.24	53263.57
529.41	53338.47
529.58	53476.56
529.75	53289.32
529.92	53340.81
530.09	53556.14
530.26	53567.84
530.43	53785.51
530.60	53813.60
530.77	53535.07
530.94	53666.14
531.11	53794.87
531.28	53813.60
531.46	54017.22
531.63	54155.32
531.80	54195.10
531.97	53942.33
532.14	54183.40
532.31	54234.89
532.48	54424.48
532.65	54487.67
532.82	54534.48
532.99	54372.99
533.16	54284.04
533.33	54553.21
533.50	54794.28
533.67	54464.27
533.84	54656.19
534.01	54653.85
534.18	54405.75
534.35	55260.05
534.52	54894.92
534.69	54901.95
534.86	55000.25
535.03	55079.83
535.20	55042.38
535.37	55082.17
535.54	55304.52
535.71	55000.25
535.88	55234.30
536.05	55281.11
536.22	55346.65
536.38	55580.70
536.55	55374.73
536.72	55442.61
536.89	55374.73
537.06	55416.86
537.23	55496.44
537.40	55395.80
537.57	55702.41
537.74	55496.44
537.91	55693.05
538.08	55723.47
538.25	55363.03
538.42	55793.69
538.59	55842.84
538.75	55756.24
538.92	55992.64
539.09	55941.14
539.26	55854.54
539.43	55739.86
539.60	55938.80
539.77	55856.88
539.94	56317.97
540.11	56137.75
540.28	56350.74
540.44	56179.88
540.61	56322.65
540.78	56289.88
540.95	56292.22
541.12	56025.40
541.29	56158.81
541.46	56149.45
541.62	56498.19
541.79	56453.72
541.96	56076.90
542.13	56273.50
542.30	56470.11
542.47	56570.75
542.63	56605.86
542.80	56631.60
542.97	57050.56
543.14	57059.92
543.31	56889.06
543.48	57041.20
543.64	57406.32
543.81	57125.46
543.98	57125.46
544.15	56982.68
544.32	57174.61
544.48	57256.53
544.65	57102.05
544.82	57088.01
544.99	57031.83
545.16	57333.76
545.32	57151.20
545.49	57537.39
545.66	57427.38
545.83	57387.60
546.00	57481.22
546.16	57546.75
546.33	57333.76
546.50	57422.70
546.67	57726.97
546.83	57443.77
547.00	57499.94
547.17	57464.83
547.34	57642.71
547.50	57982.09
547.67	57827.62
547.84	57757.40
548.00	57694.21
548.17	58035.92
548.34	57942.30
548.51	58005.50
548.67	58239.55
548.84	57939.96
549.01	58277.00
549.18	57846.34
549.34	58035.92
549.51	58087.42
549.68	58300.40
549.84	58258.27
550.01	58171.67
550.18	58197.42
550.34	58136.57
550.51	58258.27
550.68	58188.06
550.84	57808.89
551.01	58429.13
551.18	58354.24
551.34	58403.39
551.51	58295.72
551.68	58454.88
551.84	58429.13
552.01	58096.78
552.18	58482.97
552.34	58375.30
552.51	58417.43
552.68	58506.37
552.84	58506.37
553.01	58815.32
553.18	58588.29
553.34	58822.34
553.51	58702.98
553.67	58721.70
553.84	58717.02
554.01	58724.04
554.17	58693.61
554.34	59077.46
554.51	58726.38
554.67	59032.99
554.84	59018.95
555.00	58663.19
555.17	58911.28
555.33	58789.58
555.50	58937.03
555.67	58747.45
555.83	58862.13
556.00	58939.37
556.16	59274.07
556.33	58983.84
556.50	58955.75
556.66	59157.04
556.83	59023.63
556.99	59372.37
557.16	59449.61
557.32	59465.99
557.49	59482.37
557.65	58962.78
557.82	59112.57
557.98	58976.82
558.15	59367.69
558.32	59388.75
558.48	59234.28
558.65	59110.23
558.81	59384.07
558.98	59267.05
559.14	59433.22
559.31	59599.40
559.47	59463.65
559.64	59484.72
559.80	59393.43
559.97	59505.78
560.13	59557.27
560.30	59426.20
560.46	59543.23
560.63	59594.72
560.79	59498.76
560.96	59643.87
561.12	59650.89
561.29	59758.56
561.45	59704.73
561.61	59606.42
561.78	59716.43
561.94	59482.37
562.11	59697.70
562.27	59732.81
562.44	59732.81
562.60	59929.42
562.77	60046.44
562.93	59533.87
563.10	59936.44
563.26	59798.35
563.42	59976.23
563.59	60006.65
563.75	59763.24
563.92	59884.95
564.08	59835.80
564.24	60023.04
564.41	59983.25
564.57	60069.85
564.74	59927.08
564.90	60051.12
565.07	60018.36
565.23	59861.54
565.39	59765.58
565.56	60055.81
565.72	60037.08
565.88	60072.19
566.05	60058.15
566.21	59999.63
566.38	60346.03
566.54	59966.87
566.70	60182.19
566.87	60236.03
567.03	60039.42
567.19	60310.92
567.36	60371.78
567.52	60161.13
567.68	60317.95
567.85	60236.03
568.01	60273.48
568.17	60097.94
568.34	60149.43
568.50	59983.25
568.66	60247.73
568.83	60189.22
568.99	60231.35
569.15	60353.05
569.32	60315.61
569.48	60058.15
569.64	60137.72
569.81	60221.98
569.97	60179.85
570.13	60210.28
570.30	60287.52
570.46	60327.31
570.62	60399.86
570.78	60261.77
570.95	60376.46
571.11	60390.50
571.27	60331.99
571.43	60423.27
571.60	60486.46
571.76	60488.80
571.92	60449.02
572.09	60278.16
572.25	60399.86
572.41	60334.33
572.57	60577.75
572.74	60694.77
572.90	60308.58
573.06	60434.97
573.22	60357.74
573.38	60500.51
573.55	60350.71
573.71	60636.26
573.87	60582.43
574.03	60397.52
574.20	60355.39
574.36	60430.29
574.52	60589.45
574.68	60441.99
574.84	60711.16
575.01	60512.21
575.17	60566.04
575.33	60493.49
575.49	60666.69
575.65	60654.98
575.82	60587.11
575.98	60537.96
576.14	60905.42
576.30	60699.45
576.46	60521.57
576.62	60582.43
576.79	60544.98
576.95	60383.48
577.11	60636.26
577.27	60727.54
577.43	60559.02
577.59	60533.28
577.75	60570.72
577.92	60432.63
578.08	60678.39
578.24	60540.30
578.40	60825.84
578.56	60743.92
578.72	60654.98
578.88	60713.50
579.04	60769.67
579.21	60729.88
579.37	60860.95
579.53	60896.06
579.69	60388.16
579.85	60650.30
580.01	60818.82
580.17	60619.88
580.33	60788.39
580.49	60804.78
580.65	60699.45
580.82	60582.43
580.98	60755.63
581.14	60650.30
581.30	60900.74
581.46	60739.24
581.62	60690.09
581.78	60624.56
581.94	60786.05
582.10	60477.10
582.26	60706.47
582.42	60678.39
582.58	60676.05
582.74	60676.05
582.90	60800.10
583.06	60741.58
583.22	60807.12
583.38	60781.37
583.54	60811.80
583.70	60729.88
583.86	60966.27
584.02	60626.90
584.18	60961.59
584.34	60865.63
584.50	60783.71
584.66	60851.59
584.82	60633.92
584.98	60956.91
585.14	61013.08
585.30	60669.03
585.46	60811.80
585.62	60617.53
585.78	60956.91
585.94	60720.52
586.10	60788.39
586.26	60645.62
586.42	60935.85
586.58	61071.60
586.74	60903.08
586.90	60807.12
587.06	60919.46
587.22	61006.06
587.38	60959.25
587.54	60851.59
587.70	61031.81
587.86	60900.74
588.02	60856.27
588.18	61087.98
588.34	60825.84
588.49	60975.64
