SpectraSuite Data File
++++++++++++++++++++++++++++++++++++
Date: Fri Oct 25 11:26:41 EDT 2013
User: price-jones
Dark Spectrum Present: No
Reference Spectrum Present: No
Number of Sampled Component Spectra: 1
Spectrometers: USB2+H05261
Integration Time (usec): 100000 (USB2+H05261)
Spectra Averaged: 1 (USB2+H05261)
Boxcar Smoothing: 0 (USB2+H05261)
Correct for Electrical Dark: No (USB2+H05261)
Strobe/Lamp Enabled: No (USB2+H05261)
Correct for Detector Non-linearity: No (USB2+H05261)
Correct for Stray Light: No (USB2+H05261)
Number of Pixels in Processed Spectrum: 2048
>>>>>Begin Processed Spectral Data<<<<<
365.73	208.31
365.92	208.31
366.12	208.31
366.32	145.11
366.52	107.66
366.72	140.43
366.91	131.07
367.11	86.60
367.31	112.35
367.51	121.71
367.70	135.75
367.90	107.66
368.10	220.01
368.30	140.43
368.49	119.37
368.69	220.01
368.89	161.50
369.09	152.13
369.28	184.90
369.48	180.22
369.68	168.52
369.87	278.52
370.07	145.11
370.27	212.99
370.47	290.23
370.66	645.99
370.86	695.14
371.06	688.12
371.25	681.10
371.45	660.03
371.65	627.26
371.84	622.58
372.04	723.23
372.24	706.84
372.44	681.10
372.63	727.91
372.83	748.97
373.03	702.16
373.22	802.80
373.42	723.23
373.62	842.59
373.81	866.00
374.01	819.19
374.21	800.46
374.40	793.44
374.60	856.64
374.79	767.70
374.99	814.51
375.19	826.21
375.38	837.91
375.58	821.53
375.78	882.38
375.97	978.34
376.17	966.64
376.37	903.45
376.56	954.94
376.76	851.96
376.95	966.64
377.15	910.47
377.35	973.66
377.54	891.74
377.74	945.58
377.93	833.23
378.13	894.08
378.33	1006.43
378.52	950.26
378.72	901.11
378.91	1011.11
379.11	976.00
379.31	1006.43
379.50	912.81
379.70	882.38
379.89	1027.50
380.09	1057.92
380.28	950.26
380.48	950.26
380.68	1011.11
380.87	983.02
381.07	1055.58
381.26	1100.05
381.46	1109.41
381.65	992.39
381.85	968.98
382.04	1036.86
382.24	1069.62
382.43	1114.10
382.63	1128.14
382.83	1160.91
383.02	1095.37
383.22	1172.61
383.41	1151.54
383.61	1107.07
383.80	1186.65
384.00	1064.94
384.19	1064.94
384.39	1156.22
384.58	1064.94
384.78	1102.39
384.97	1221.76
385.17	1207.72
385.36	1188.99
385.56	1235.80
385.75	1200.69
385.95	1245.16
386.14	1320.06
386.34	1261.55
386.53	1165.59
386.72	1322.40
386.92	1320.06
387.11	1324.74
387.31	1217.08
387.50	1273.25
387.70	1287.29
387.89	1266.23
388.09	1331.76
388.28	1320.06
388.48	1306.02
388.67	1331.76
388.86	1322.40
389.06	1434.75
389.25	1399.64
389.45	1301.34
389.64	1430.07
389.84	1315.38
390.03	1387.94
390.22	1399.64
390.42	1390.28
390.61	1432.41
390.81	1411.34
391.00	1392.62
391.19	1427.73
391.39	1495.60
391.58	1495.60
391.78	1479.22
391.97	1511.99
392.16	1418.36
392.36	1472.20
392.55	1519.01
392.75	1514.33
392.94	1493.26
393.13	1556.46
393.33	1523.69
393.52	1577.52
393.71	1572.84
393.91	1624.33
394.10	1544.75
394.29	1589.22
394.49	1706.25
394.68	1554.12
394.88	1568.16
395.07	1645.40
395.26	1692.21
395.46	1598.59
395.65	1699.23
395.84	1680.50
396.04	1757.74
396.23	1734.34
396.42	1689.87
396.62	1816.26
396.81	1788.17
397.00	1743.70
397.19	1757.74
397.39	1867.75
397.58	1804.55
397.77	1863.07
397.97	1870.09
398.16	1891.15
398.35	1888.81
398.55	1832.64
398.74	1949.67
398.93	2022.22
399.12	1952.01
399.32	1893.49
399.51	1956.69
399.70	2076.06
399.90	1984.77
400.09	2001.16
400.28	2097.12
400.47	2024.56
400.67	2071.37
400.86	2106.48
401.05	2181.38
401.24	2104.14
401.44	2118.18
401.63	2228.19
401.82	2242.23
402.01	2150.95
402.21	2134.57
402.40	2228.19
402.59	2263.30
402.78	2317.13
402.97	2242.23
403.17	2200.10
403.36	2216.49
403.55	2310.11
403.74	2347.56
403.93	2431.82
404.13	2307.77
404.32	2410.75
404.51	2457.56
404.70	2392.03
404.89	2401.39
405.09	2487.99
405.28	2551.18
405.47	2455.22
405.66	2495.01
405.85	2548.84
406.05	2417.77
406.24	2532.46
406.43	2605.02
406.62	2574.59
406.81	2803.96
407.00	2640.12
407.20	2551.18
407.39	2614.38
407.58	2668.21
407.77	2740.77
407.96	2937.37
408.15	2747.79
408.34	2686.94
408.54	2810.98
408.73	2794.60
408.92	2808.64
409.11	2860.13
409.30	2930.35
409.49	2909.29
409.68	2923.33
409.87	2822.69
410.07	3108.23
410.26	3059.08
410.45	3026.31
410.64	3028.65
410.83	3112.91
411.02	3213.56
411.21	3159.72
411.40	3141.00
411.59	3211.22
411.78	3190.15
411.98	3286.11
412.17	3239.30
412.36	3368.03
412.55	3414.84
412.74	3449.95
412.93	3342.28
413.12	3492.08
413.31	3515.48
413.50	3349.31
413.69	3578.68
413.88	3672.30
414.07	3585.70
414.26	3698.05
414.45	3756.56
414.64	3693.37
414.83	3733.15
415.02	3786.99
415.22	3758.90
415.41	3929.76
415.60	3803.37
415.79	3901.67
415.98	4070.19
416.17	4156.79
416.36	3948.48
416.55	4072.53
416.74	4088.92
416.93	4084.23
417.12	4109.98
417.31	4175.52
417.50	4212.96
417.69	4308.93
417.88	4252.75
418.07	4325.31
418.26	4294.88
418.45	4369.78
418.64	4524.26
418.83	4470.42
419.02	4512.55
419.21	4615.54
419.39	4449.36
419.58	4594.47
419.77	4606.17
419.96	4624.90
420.15	4678.73
420.34	4631.92
420.53	4734.90
420.72	4711.50
420.91	4662.35
421.10	4816.82
421.29	4816.82
421.48	4732.56
421.67	4795.76
421.86	4816.82
422.05	4826.18
422.24	4842.57
422.43	4896.40
422.61	4765.33
422.80	4957.25
422.99	4961.94
423.18	4791.08
423.37	5062.58
423.56	5181.95
423.75	5036.83
423.94	4891.72
424.13	4592.13
424.32	4873.00
424.50	4912.78
424.69	5245.14
424.88	5074.28
425.07	5093.01
425.26	4973.64
425.45	4952.57
425.64	5008.75
425.83	5006.41
426.01	5165.56
426.20	4999.38
426.39	5149.18
426.58	5020.45
426.77	5055.56
426.96	5247.48
427.15	5252.16
427.33	5247.48
427.52	5217.05
427.71	5338.76
427.90	5273.23
428.09	5385.57
428.28	5516.64
428.46	5352.81
428.65	5441.75
428.84	5516.64
429.03	5565.79
429.22	5441.75
429.40	5502.60
429.59	5547.07
429.78	5362.17
429.97	5408.98
430.16	5448.77
430.34	5647.71
430.53	5643.03
430.72	5643.03
430.91	5783.46
431.10	5858.36
431.28	5802.19
431.47	5928.58
431.66	5935.60
431.85	5895.81
432.03	6033.90
432.22	6017.52
432.41	5956.66
432.60	6022.20
432.79	5977.73
432.97	5893.47
433.16	6001.13
433.35	5933.26
433.54	6223.48
433.72	6415.41
433.91	6340.51
434.10	6267.95
434.28	6129.86
434.47	6286.68
434.66	6169.65
434.85	6401.37
435.03	6384.98
435.22	6150.93
435.41	6478.60
435.59	6363.92
435.78	6525.41
435.97	6532.44
436.16	6565.20
436.34	6502.01
436.53	6654.14
436.72	6628.40
436.90	6424.77
437.09	6560.52
437.28	6590.95
437.46	6658.82
437.65	6715.00
437.84	6876.49
438.02	6633.08
438.21	6764.15
438.40	6932.67
438.58	6920.96
438.77	6991.18
438.96	7035.65
439.14	7236.94
439.33	7279.07
439.52	7119.91
439.70	7255.66
439.89	7307.15
440.08	7379.71
440.26	7438.22
440.45	7337.58
440.63	7632.49
440.82	7672.28
441.01	7623.12
441.19	7698.02
441.38	7744.83
441.57	7836.11
441.75	7892.29
441.94	7934.42
442.12	7812.71
442.31	8163.79
442.50	8084.21
442.68	8112.30
442.87	8262.09
443.05	8152.09
443.24	8262.09
443.43	8060.80
443.61	8238.69
443.80	8458.70
443.98	8105.28
444.17	8056.12
444.35	8322.94
444.54	8336.99
444.73	8510.19
444.91	8226.98
445.10	8486.78
445.28	8395.50
445.47	8248.05
445.65	8400.18
445.84	8484.44
446.02	8540.61
446.21	8430.61
446.39	8599.13
446.58	8582.74
446.77	8573.38
446.95	8545.30
447.14	8648.28
447.32	8585.08
447.51	8624.87
447.69	8285.50
447.88	8592.11
448.06	8475.08
448.25	8596.79
448.43	8634.24
448.62	8624.87
448.80	8765.31
448.99	8727.86
449.17	8692.75
449.36	8688.07
449.54	8784.03
449.73	8987.66
449.91	9160.86
450.10	8966.59
450.28	9088.30
450.46	9235.75
450.65	9050.85
450.83	9172.56
451.02	9078.94
451.20	9397.25
451.39	9114.05
451.57	9226.39
451.76	8959.57
451.94	9324.69
452.13	9366.82
452.31	9357.46
452.49	9235.75
452.68	9521.30
452.86	9366.82
453.05	9488.53
453.23	9479.17
453.42	9469.81
453.60	9441.72
453.78	9479.17
453.97	9441.72
454.15	9507.26
454.34	9490.87
454.52	9638.33
454.70	9682.80
454.89	9863.02
455.07	9802.16
455.26	10106.43
455.44	10076.01
455.62	9778.76
455.81	9977.70
455.99	10061.96
456.17	9884.08
456.36	10258.57
456.54	10321.76
456.73	10406.02
456.91	10558.16
457.09	10396.66
457.28	10555.82
457.46	10340.49
457.64	10656.46
457.83	10457.51
458.01	10436.45
458.19	10799.23
458.38	10658.80
458.56	10799.23
458.74	10668.16
458.93	10789.87
459.11	10839.02
459.29	10892.85
459.48	11082.44
459.66	10897.53
459.84	10923.28
460.03	11075.42
460.21	11044.99
460.39	11129.25
460.57	10991.16
460.76	11339.90
460.94	11302.45
461.12	11173.72
461.31	11459.26
461.49	11300.11
461.67	10953.71
461.85	11620.76
462.04	11293.08
462.22	11587.99
462.40	11531.82
462.59	11653.53
462.77	11587.99
462.95	11761.19
463.13	11587.99
463.32	11737.79
463.50	11822.05
463.68	11946.09
463.86	11793.96
464.05	11754.17
464.23	11782.26
464.41	12004.61
464.59	11824.39
464.78	12037.38
464.96	12121.63
465.14	11955.46
465.32	11985.88
465.50	11946.09
465.69	12236.32
465.87	12077.16
466.05	12152.06
466.23	12194.19
466.41	12147.38
466.60	12287.81
466.78	12358.03
466.96	12362.71
467.14	12393.14
467.32	12498.46
467.51	12767.62
467.69	12442.29
467.87	12734.85
468.05	12758.26
468.23	12540.59
468.41	12535.91
468.60	12615.49
468.78	12769.96
468.96	12383.77
469.14	12947.84
469.32	13123.38
469.50	12905.71
469.69	13060.19
469.87	13095.30
470.05	13104.66
470.23	13142.11
470.41	13352.76
470.59	13397.23
470.77	13462.76
470.95	13434.68
471.14	13469.78
471.32	13156.15
471.50	13502.55
471.68	13561.06
471.86	13572.77
472.04	13834.91
472.22	14171.94
472.40	13727.24
472.58	13764.69
472.77	14052.58
472.95	14155.56
473.13	14801.55
473.31	14232.80
473.49	14239.82
473.67	14274.93
473.85	14408.34
474.03	14808.57
474.21	14736.01
474.39	14773.46
474.57	14593.24
474.75	15054.33
474.93	14892.83
475.12	15239.23
475.30	15297.74
475.48	15220.50
475.66	15267.31
475.84	15597.33
476.02	15431.15
476.20	15183.06
476.38	15618.39
476.56	16273.74
476.74	16044.37
476.92	16231.62
477.10	15810.32
477.28	16018.63
477.46	16294.81
477.64	16664.61
477.82	16166.08
478.00	17137.40
478.18	16964.20
478.36	17067.19
478.54	17125.70
478.72	17207.62
478.90	17825.52
479.08	17439.33
479.26	17682.75
479.44	17968.29
479.62	18017.44
479.80	18087.66
479.98	18015.10
480.16	18743.01
480.34	18363.84
480.52	18738.33
480.70	18958.34
480.88	18597.90
481.06	18899.83
481.24	19124.52
481.41	19138.56
481.59	19360.91
481.77	19784.55
481.95	19817.32
482.13	19765.82
482.31	20018.60
482.49	20329.89
482.67	20219.89
482.85	20549.90
483.03	20917.37
483.21	21170.15
483.39	21247.38
483.57	20905.66
483.74	21282.49
483.92	21362.07
484.10	21336.32
484.28	22033.80
484.46	22298.28
484.64	22429.35
484.82	21809.11
485.00	22501.91
485.18	22860.01
485.35	23276.63
485.53	22838.95
485.71	22977.04
485.89	23613.66
486.07	23494.30
486.25	23206.41
486.43	23868.78
486.61	24067.73
486.78	24269.01
486.96	24360.30
487.14	24175.39
487.32	24678.61
487.50	24971.18
487.68	24945.43
487.85	25144.38
488.03	25530.56
488.21	25830.15
488.39	26057.18
488.57	25912.07
488.75	26230.38
488.92	26607.21
489.10	26855.31
489.28	27166.60
489.46	27552.79
489.64	27175.96
489.81	27707.26
489.99	27754.07
490.17	28030.26
490.35	28357.93
490.53	28479.64
490.70	28907.96
490.88	28336.87
491.06	29064.77
491.24	28987.53
491.41	29039.03
491.59	29310.53
491.77	29249.67
491.95	29827.79
492.13	29619.48
492.30	30078.22
492.48	30087.59
492.66	30419.94
492.84	30300.58
493.01	30855.28
493.19	30991.03
493.37	31386.58
493.54	31505.95
493.72	31168.91
493.90	31732.98
494.08	31854.69
494.25	32182.37
494.43	32027.89
494.61	32542.81
494.79	32226.84
494.96	32713.67
495.14	32687.92
495.32	32980.49
495.49	33230.93
495.67	33450.94
495.85	33895.64
496.02	33617.11
496.20	34204.59
496.38	34349.70
496.55	34731.21
496.73	35129.10
496.91	34504.18
497.09	34679.72
497.26	35016.75
497.44	35323.36
497.62	35328.05
497.79	36023.19
497.97	35435.71
498.14	36184.68
498.32	36512.36
498.50	36233.83
498.67	36428.10
498.85	36903.23
499.03	36627.04
499.20	36905.57
499.38	37291.76
499.56	36985.15
499.73	37483.68
499.91	37680.28
500.08	37329.20
500.26	37469.64
500.44	37471.98
500.61	37867.53
500.79	37584.32
500.97	38295.85
501.14	38794.38
501.32	38873.96
501.49	38658.63
501.67	39313.98
501.84	39040.14
502.02	39143.12
502.20	39091.63
502.37	38979.28
502.55	39377.17
502.72	39402.92
502.90	39533.99
503.07	39864.00
503.25	39838.26
503.43	40018.48
503.60	40285.30
503.78	40093.38
503.95	40034.86
504.13	40643.40
504.30	40664.47
504.48	40409.35
504.65	41071.72
504.83	41095.13
505.01	41469.61
505.18	41343.22
505.36	41493.02
505.53	41879.21
505.71	41982.19
505.88	42021.98
506.06	41682.60
506.23	41883.89
506.41	42220.92
506.58	42263.05
506.76	42651.58
506.93	42817.76
507.11	42429.23
507.28	42667.97
507.46	43051.81
507.63	42948.83
507.81	43159.48
507.98	42916.06
508.16	43517.58
508.33	43842.92
508.50	43559.71
508.68	43929.51
508.85	44041.86
509.03	43852.28
509.20	43887.39
509.38	44381.24
509.55	44701.89
509.73	44598.91
509.90	44774.45
510.08	44858.71
510.25	45064.67
510.42	44898.50
510.60	45343.20
510.77	45162.98
510.95	46054.72
511.12	45464.91
511.30	45635.77
511.47	45617.04
511.64	45741.09
511.82	45872.16
511.99	45801.94
512.17	46138.98
512.34	45858.12
512.51	46220.90
512.69	46808.37
512.86	46459.63
513.04	47126.69
513.21	46887.95
513.38	46890.29
513.56	47297.55
513.73	46761.56
513.90	47098.60
514.08	47257.76
514.25	47627.56
514.43	47494.15
514.60	47789.06
514.77	47587.77
514.95	47838.21
515.12	48109.71
515.29	47833.53
515.47	47660.33
515.64	48137.80
515.81	47749.27
515.99	48594.20
516.16	48680.80
516.33	48648.03
516.51	49010.82
516.68	48587.18
516.85	48460.79
517.03	49088.06
517.20	49071.67
517.37	48692.50
517.54	48947.62
517.72	48814.21
517.89	49029.54
518.06	49514.03
518.24	49675.53
518.41	49373.60
518.58	49890.86
518.75	49682.55
518.93	49729.36
519.10	49553.82
519.27	49940.01
519.45	49993.84
519.62	49914.26
519.79	49944.69
519.96	50092.15
520.14	50230.24
520.31	50134.28
520.48	50394.07
520.65	50595.36
520.83	50642.17
521.00	50553.23
521.17	50953.46
521.34	50717.07
521.52	51077.51
521.69	51332.63
521.86	51187.52
522.03	50983.89
522.20	51466.04
522.38	51892.02
522.55	51501.15
522.72	51803.08
522.89	51463.70
523.07	51931.81
523.24	51704.77
523.41	51639.24
523.58	51686.05
523.75	52107.35
523.92	52065.22
524.10	52175.22
524.27	52175.22
524.44	52114.37
524.61	52032.45
524.78	52229.05
524.96	52645.67
525.13	52317.99
525.30	52690.14
525.47	52746.31
525.64	52589.50
525.81	52538.01
525.98	52715.89
526.16	52477.15
526.33	52832.91
526.50	53118.46
526.67	53020.16
526.84	53331.45
527.01	53174.63
527.18	53106.76
527.36	53015.47
527.53	53310.38
527.70	53815.94
527.87	53499.97
528.04	53254.21
528.21	53481.24
528.38	53551.46
528.55	53801.89
528.72	53605.29
528.89	53785.51
529.07	53551.46
529.24	53544.44
529.41	53867.43
529.58	53750.40
529.75	53759.76
529.92	54017.22
530.09	53986.80
530.26	53897.86
530.43	54323.83
530.60	53944.67
530.77	54218.51
530.94	54284.04
531.11	54054.67
531.28	54419.80
531.46	54265.32
531.63	54527.46
531.80	54326.17
531.97	54745.13
532.14	54644.49
532.31	54703.00
532.48	54700.66
532.65	54843.43
532.82	54616.40
532.99	54672.57
533.16	54475.97
533.33	54878.54
533.50	55178.13
533.67	54948.76
533.84	54843.43
534.01	55037.70
534.18	55110.25
534.35	55594.74
534.52	55112.59
534.69	55262.39
534.86	55505.80
535.03	55180.47
535.20	55213.24
535.37	55744.54
535.54	55412.18
535.71	55594.74
535.88	55458.99
536.05	55442.61
536.22	55908.38
536.38	55842.84
536.55	55664.96
536.72	55880.29
536.89	55569.00
537.06	55767.94
537.23	56058.17
537.40	55863.91
537.57	56011.36
537.74	55786.67
537.91	56212.65
538.08	55817.10
538.25	55700.07
538.42	55868.59
538.59	56135.41
538.75	56067.53
538.92	56296.91
539.09	56182.22
539.26	56364.78
539.43	56329.67
539.60	56210.31
539.77	56360.10
539.94	56388.19
540.11	56488.83
540.28	56341.38
540.44	56460.74
540.61	56694.80
540.78	56767.35
540.95	56427.98
541.12	56463.08
541.29	56678.41
541.46	56629.26
541.62	56701.82
541.79	56793.10
541.96	56329.67
542.13	56853.95
542.30	56783.74
542.47	57036.51
542.63	57097.37
542.80	57102.05
542.97	57172.27
543.14	57312.70
543.31	57317.38
543.48	57324.40
543.64	57645.05
543.81	57432.07
543.98	57361.85
544.15	57478.88
544.32	57439.09
544.48	57829.96
544.65	57506.96
544.82	57565.48
544.99	57588.88
545.16	57703.57
545.32	57565.48
545.49	57799.53
545.66	57691.86
545.83	57673.14
546.00	57939.96
546.16	57656.76
546.33	57818.25
546.50	57729.31
546.67	57806.55
546.83	57502.28
547.00	57946.98
547.17	57677.82
547.34	57848.68
547.50	58209.12
547.67	58286.36
547.84	58108.48
548.00	58188.06
548.17	58269.98
548.34	58171.67
548.51	58333.17
548.67	58284.02
548.84	58342.53
549.01	58159.97
549.18	58344.87
549.34	58272.32
549.51	58504.03
549.68	58560.20
549.84	58459.56
550.01	58595.31
550.18	58422.11
550.34	58651.48
550.51	58473.60
550.68	58564.88
550.84	58394.03
551.01	58714.68
551.18	58616.38
551.34	58672.55
551.51	58735.74
551.68	58581.27
551.84	58775.53
552.01	58604.67
552.18	58773.19
552.34	58560.20
552.51	58693.61
552.68	58838.73
552.84	58794.26
553.01	58981.50
553.18	58803.62
553.34	58986.18
553.51	58784.90
553.67	59140.66
553.84	59117.25
554.01	59079.80
554.17	59093.85
554.34	59128.95
554.51	59161.72
554.67	59229.60
554.84	59192.15
555.00	59124.27
555.17	59143.00
555.33	59199.17
555.50	59105.55
555.67	59098.53
555.83	59269.39
556.00	59180.45
556.16	59646.21
556.33	59458.97
556.50	59370.03
556.66	59468.33
556.83	59269.39
556.99	59494.08
557.16	59728.13
557.32	59629.83
557.49	59611.10
557.65	59318.54
557.82	59367.69
557.98	59473.01
558.15	59437.90
558.32	59643.87
558.48	59377.05
558.65	59667.28
558.81	59594.72
558.98	59599.40
559.14	59657.91
559.31	59711.75
559.47	59620.47
559.64	59849.84
559.80	59650.89
559.97	59788.98
560.13	59540.89
560.30	59788.98
560.46	59896.65
560.63	60051.12
560.79	59859.20
560.96	60128.36
561.12	59817.07
561.29	59978.57
561.45	59807.71
561.61	60023.04
561.78	59992.61
561.94	59824.09
562.11	59866.22
562.27	60011.34
562.44	59962.18
562.60	60224.32
562.77	60088.57
562.93	59978.57
563.10	60336.67
563.26	60093.25
563.42	60247.73
563.59	60163.47
563.75	60172.83
563.92	60093.25
564.08	60137.72
564.24	60224.32
564.41	60296.88
564.57	60184.54
564.74	60081.55
564.90	60374.12
565.07	60191.56
565.23	60240.71
565.39	60170.49
565.56	60425.61
565.72	60507.53
565.88	60121.34
566.05	60104.96
566.21	60282.84
566.38	60278.16
566.54	60175.17
566.70	60331.99
566.87	60573.06
567.03	60210.28
567.19	60533.28
567.36	60357.74
567.52	60493.49
567.68	60750.94
567.85	60547.32
568.01	60257.09
568.17	60530.93
568.34	60427.95
568.50	60479.44
568.66	60383.48
568.83	60559.02
568.99	60427.95
569.15	60533.28
569.32	60474.76
569.48	60638.60
569.64	60500.51
569.81	60523.91
569.97	60629.24
570.13	60346.03
570.30	60790.73
570.46	60582.43
570.62	60624.56
570.78	60725.20
570.95	60509.87
571.11	60814.14
571.27	60568.38
571.43	60402.21
571.60	60526.25
571.76	60687.75
571.92	60764.99
572.09	60669.03
572.25	60685.41
572.41	60647.96
572.57	60523.91
572.74	60961.59
572.90	60666.69
573.06	60772.01
573.22	60687.75
573.38	60659.66
573.55	60741.58
573.71	60970.96
573.87	60912.44
574.03	60853.93
574.20	60858.61
574.36	60739.24
574.52	60877.33
574.68	60914.78
574.84	61050.53
575.01	60942.87
575.17	60704.13
575.33	60694.77
575.49	60741.58
575.65	60882.02
575.82	61024.79
575.98	61080.96
576.14	61038.83
576.30	60807.12
576.46	60748.60
576.62	60690.09
576.79	60769.67
576.95	60898.40
577.11	60910.10
577.27	60870.31
577.43	60956.91
577.59	60757.97
577.75	60851.59
577.92	60802.44
578.08	60863.29
578.24	60811.80
578.40	61080.96
578.56	61197.99
578.72	60994.36
578.88	61139.47
579.04	61038.83
579.21	60891.38
579.37	61095.00
579.53	61130.11
579.69	60816.48
579.85	60783.71
580.01	60896.06
580.17	60818.82
580.33	60926.49
580.49	61127.77
580.65	61190.97
580.82	60947.55
580.98	60889.04
581.14	61022.45
581.30	61188.63
581.46	60860.95
581.62	61013.08
581.78	60654.98
581.94	61116.07
582.10	61013.08
582.26	61111.39
582.42	61050.53
582.58	60853.93
582.74	61080.96
582.90	60952.23
583.06	61038.83
583.22	60903.08
583.38	61015.43
583.54	61008.40
583.70	60924.14
583.86	61064.58
584.02	61008.40
584.18	61160.54
584.34	61076.28
584.50	61165.22
584.66	60772.01
584.82	60966.27
584.98	61233.10
585.14	61249.48
585.30	60980.32
585.46	61183.94
585.62	61214.37
585.78	61261.18
585.94	60977.98
586.10	60977.98
586.26	61106.71
586.42	61251.82
586.58	61235.44
586.74	61127.77
586.90	60994.36
587.06	61111.39
587.22	61212.03
587.38	61113.73
587.54	61207.35
587.70	61240.12
587.86	60996.70
588.02	61179.26
588.18	61223.73
588.34	60968.61
