SpectraSuite Data File
++++++++++++++++++++++++++++++++++++
Date: Fri Oct 25 11:25:16 EDT 2013
User: price-jones
Dark Spectrum Present: No
Reference Spectrum Present: No
Number of Sampled Component Spectra: 1
Spectrometers: USB2+H05261
Integration Time (usec): 100000 (USB2+H05261)
Spectra Averaged: 1 (USB2+H05261)
Boxcar Smoothing: 0 (USB2+H05261)
Correct for Electrical Dark: No (USB2+H05261)
Strobe/Lamp Enabled: No (USB2+H05261)
Correct for Detector Non-linearity: No (USB2+H05261)
Correct for Stray Light: No (USB2+H05261)
Number of Pixels in Processed Spectrum: 2048
>>>>>Begin Processed Spectral Data<<<<<
365.73	187.24
365.92	187.24
366.12	187.24
366.32	147.45
366.52	159.16
366.72	114.69
366.91	149.79
367.11	163.84
367.31	154.48
367.51	187.24
367.70	196.60
367.90	114.69
368.10	163.84
368.30	95.96
368.49	88.94
368.69	145.11
368.89	182.56
369.09	159.16
369.28	173.20
369.48	175.54
369.68	145.11
369.87	173.20
370.07	196.60
370.27	203.63
370.47	351.08
370.66	575.77
370.86	622.58
371.06	662.37
371.25	709.18
371.45	674.07
371.65	636.63
371.84	603.86
372.04	601.52
372.24	688.12
372.44	655.35
372.63	667.05
372.83	767.70
373.03	683.44
373.22	692.80
373.42	833.23
373.62	798.12
373.81	816.85
374.01	858.98
374.21	741.95
374.40	816.85
374.60	849.61
374.79	866.00
374.99	833.23
375.19	912.81
375.38	795.78
375.58	919.83
375.78	929.19
375.97	952.60
376.17	903.45
376.37	856.64
376.56	863.66
376.76	861.32
376.95	866.00
377.15	875.36
377.35	887.06
377.54	938.55
377.74	861.32
377.93	870.68
378.13	882.38
378.33	891.74
378.52	894.08
378.72	968.98
378.91	945.58
379.11	936.21
379.31	1004.09
379.50	994.73
379.70	1071.97
379.89	1011.11
380.09	1001.75
380.28	978.34
380.48	976.00
380.68	1039.20
380.87	978.34
381.07	957.28
381.26	1081.33
381.46	1067.28
381.65	1048.56
381.85	1025.15
382.04	1109.41
382.24	1034.52
382.43	997.07
382.63	1069.62
382.83	1041.54
383.02	1027.50
383.22	1188.99
383.41	1093.03
383.61	1071.97
383.80	1158.57
384.00	1121.12
384.19	1088.35
384.39	1179.63
384.58	1060.26
384.78	1142.18
384.97	1231.12
385.17	1280.27
385.36	1093.03
385.56	1174.95
385.75	1174.95
385.95	1191.33
386.14	1284.95
386.34	1233.46
386.53	1095.37
386.72	1167.93
386.92	1275.59
387.11	1247.51
387.31	1284.95
387.50	1181.97
387.70	1247.51
387.89	1263.89
388.09	1191.33
388.28	1313.04
388.48	1256.87
388.67	1294.32
388.86	1350.49
389.06	1289.64
389.25	1383.26
389.45	1308.36
389.64	1320.06
389.84	1373.89
390.03	1338.79
390.22	1406.66
390.42	1420.71
390.61	1322.40
390.81	1284.95
391.00	1467.52
391.19	1390.28
391.39	1535.39
391.58	1448.79
391.78	1380.92
391.97	1451.13
392.16	1460.49
392.36	1603.27
392.55	1476.88
392.75	1460.49
392.94	1472.20
393.13	1467.52
393.33	1530.71
393.52	1626.67
393.71	1556.46
393.91	1586.88
394.10	1565.82
394.29	1551.78
394.49	1626.67
394.68	1699.23
394.88	1638.38
395.07	1666.46
395.26	1682.85
395.46	1572.84
395.65	1657.10
395.84	1713.27
396.04	1750.72
396.23	1764.76
396.42	1762.42
396.62	1842.00
396.81	1785.83
397.00	1771.79
397.19	1788.17
397.39	1853.70
397.58	1776.47
397.77	1734.34
397.97	1846.68
398.16	1781.15
398.35	1956.69
398.55	1834.98
398.74	1867.75
398.93	1991.80
399.12	1888.81
399.32	1926.26
399.51	1877.11
399.70	2080.74
399.90	1959.03
400.09	2001.16
400.28	2101.80
400.47	2062.01
400.67	2057.33
400.86	2097.12
401.05	2122.87
401.24	2092.44
401.44	2242.23
401.63	2183.72
401.82	2019.88
402.01	2118.18
402.21	2169.68
402.40	2157.97
402.59	2038.61
402.78	2277.34
402.97	2207.13
403.17	2230.53
403.36	2232.87
403.55	2293.72
403.74	2275.00
403.93	2312.45
404.13	2377.98
404.32	2450.54
404.51	2328.83
404.70	2464.58
404.89	2373.30
405.09	2476.29
405.28	2422.45
405.47	2382.67
405.66	2487.99
405.85	2420.11
406.05	2373.30
406.24	2527.78
406.43	2609.70
406.62	2651.83
406.81	2761.83
407.00	2562.89
407.20	2473.95
407.39	2684.59
407.58	2757.15
407.77	2792.26
407.96	2658.85
408.15	2745.45
408.34	2705.66
408.54	2813.32
408.73	2724.38
408.92	2815.66
409.11	2850.77
409.30	2897.58
409.49	2902.26
409.68	2906.95
409.87	2970.14
410.07	2963.12
410.26	2935.03
410.45	2923.33
410.64	3045.04
410.83	3012.27
411.02	3096.53
411.21	3218.24
411.40	3009.93
411.59	3192.49
411.78	3098.87
411.98	3222.92
412.17	3286.11
412.36	3206.53
412.55	3382.07
412.74	3297.81
412.93	3321.22
413.12	3344.63
413.31	3524.85
413.50	3412.50
413.69	3438.25
413.88	3564.64
414.07	3471.01
414.26	3552.93
414.45	3503.78
414.64	3655.92
414.83	3653.58
415.02	3714.43
415.22	3936.78
415.41	3904.01
415.60	3822.09
415.79	3721.45
415.98	4018.70
416.17	3925.08
416.36	3925.08
416.55	4051.47
416.74	4004.66
416.93	3920.40
417.12	4070.19
417.31	4138.07
417.50	4044.45
417.69	4264.46
417.88	4234.03
418.07	4236.37
418.26	4245.73
418.45	4353.40
418.64	4528.94
418.83	4348.72
419.02	4252.75
419.21	4374.46
419.39	4603.83
419.58	4437.66
419.77	4489.15
419.96	4561.70
420.15	4578.09
420.34	4599.15
420.53	4507.87
420.72	4641.28
420.91	4650.64
421.10	4692.77
421.29	4627.24
421.48	4601.49
421.67	4800.44
421.86	4697.46
422.05	4760.65
422.24	4585.11
422.43	4889.38
422.61	4931.51
422.80	5004.07
422.99	4919.81
423.18	4922.15
423.37	5114.07
423.56	4882.36
423.75	4917.47
423.94	4830.87
424.13	4617.88
424.32	4587.45
424.50	5032.15
424.69	5100.03
424.88	4959.60
425.07	5001.72
425.26	4924.49
425.45	4924.49
425.64	4908.10
425.83	4922.15
426.01	5064.92
426.20	5172.58
426.39	5132.79
426.58	5060.24
426.77	5090.67
426.96	5088.32
427.15	5076.62
427.33	5102.37
427.52	5060.24
427.71	5231.10
427.90	5160.88
428.09	5107.05
428.28	5259.18
428.46	5245.14
428.65	5249.82
428.84	5490.90
429.03	5439.40
429.22	5212.37
429.40	5406.64
429.59	5469.83
429.78	5181.95
429.97	5088.32
430.16	5488.56
430.34	5619.63
430.53	5617.29
430.72	5654.73
430.91	5465.15
431.10	5533.03
431.28	5776.44
431.47	5680.48
431.66	5949.64
431.85	5720.27
432.03	5954.32
432.22	5930.92
432.41	5783.46
432.60	5879.43
432.79	5933.26
432.97	6001.13
433.16	6043.26
433.35	5980.07
433.54	6003.47
433.72	6216.46
433.91	6120.50
434.10	6010.50
434.28	6040.92
434.47	6171.99
434.66	6071.35
434.85	6352.21
435.03	6251.57
435.22	6300.72
435.41	6525.41
435.59	6221.14
435.78	6363.92
435.97	6452.86
436.16	6452.86
436.34	6492.65
436.53	6520.73
436.72	6520.73
436.90	6340.51
437.09	6684.57
437.28	6406.05
437.46	6537.12
437.65	6649.46
437.84	6857.77
438.02	6691.59
438.21	6691.59
438.40	6604.99
438.58	6897.56
438.77	6958.41
438.96	6883.52
439.14	7206.51
439.33	7208.85
439.52	7037.99
439.70	7000.54
439.89	7222.89
440.08	7258.00
440.26	7297.79
440.45	7225.23
440.63	7456.95
440.82	7705.04
441.01	7351.62
441.19	7426.52
441.38	7524.82
441.57	7847.82
441.75	7716.75
441.94	7983.57
442.12	7943.78
442.31	7920.37
442.50	7955.48
442.68	7978.89
442.87	7946.12
443.05	7903.99
443.24	8336.99
443.43	8182.51
443.61	8119.32
443.80	8292.52
443.98	8044.42
444.17	7707.38
444.35	8065.49
444.54	8388.48
444.73	8329.97
444.91	8231.66
445.10	8077.19
445.28	8135.70
445.47	8252.73
445.65	8208.26
445.84	8259.75
446.02	8341.67
446.21	8379.12
446.39	8271.45
446.58	8587.43
446.77	8432.95
446.95	8355.71
447.14	8451.67
447.32	8430.61
447.51	8470.40
447.69	8287.84
447.88	8376.78
448.06	8491.46
448.25	8432.95
448.43	8524.23
448.62	8498.49
448.80	8526.57
448.99	8592.11
449.17	8760.63
449.36	8732.54
449.54	8840.20
449.73	8720.84
449.91	8842.54
450.10	9018.08
450.28	8875.31
450.46	9053.19
450.65	9149.15
450.83	9041.49
451.02	8884.67
451.20	9156.18
451.39	9036.81
451.57	8973.61
451.76	9025.11
451.94	9198.31
452.13	9406.61
452.31	9076.60
452.49	9043.83
452.68	9228.73
452.86	9254.48
453.05	9348.10
453.23	9221.71
453.42	9289.59
453.60	9329.38
453.78	9600.88
453.97	9359.80
454.15	9425.34
454.34	9287.25
454.52	9727.27
454.70	9525.98
454.89	9535.34
455.07	9614.92
455.26	9797.48
455.44	9692.16
455.62	9958.98
455.81	9734.29
455.99	10015.15
456.17	9825.57
456.36	9975.36
456.54	10083.03
456.73	10204.74
456.91	10441.13
457.09	10410.70
457.28	10331.12
457.46	10139.20
457.64	10307.72
457.83	10260.91
458.01	10253.89
458.19	10647.10
458.38	10382.62
458.56	10516.03
458.74	10633.05
458.93	10633.05
459.11	10399.00
459.29	10953.71
459.48	10843.70
459.66	10670.50
459.84	10881.15
460.03	11049.67
460.21	11014.56
460.39	10930.30
460.57	10729.02
460.76	11302.45
460.94	11007.54
461.12	11225.21
461.31	11016.90
461.49	10937.32
461.67	11042.65
461.85	11569.27
462.04	11140.95
462.22	11798.64
462.40	11461.60
462.59	11492.03
462.77	11461.60
462.95	11592.67
463.13	11611.40
463.32	11770.55
463.50	11637.14
463.68	11587.99
463.86	11705.02
464.05	11590.33
464.23	11920.35
464.41	11775.24
464.59	11559.91
464.78	11967.16
464.96	11721.40
465.14	11721.40
465.32	11875.88
465.50	12201.21
465.69	12283.13
465.87	12128.66
466.05	12105.25
466.23	11880.56
466.41	12067.80
466.60	12233.98
466.78	11948.43
466.96	12058.44
467.14	12229.30
467.32	12283.13
467.51	12655.28
467.69	11899.28
467.87	12290.15
468.05	12510.16
468.23	12156.74
468.41	12472.71
468.60	12645.91
468.78	12449.31
468.96	12505.48
469.14	12585.06
469.32	12683.36
469.50	12643.57
469.69	12891.67
469.87	12875.29
470.05	12877.63
470.23	12833.16
470.41	12959.55
470.59	13064.87
470.77	12833.16
470.95	12938.48
471.14	13233.39
471.32	13132.75
471.50	13343.39
471.68	13523.62
471.86	13556.38
472.04	13771.71
472.22	14132.15
472.40	13699.16
472.58	13921.51
472.77	13980.02
472.95	14146.20
473.13	14588.56
473.31	13970.66
473.49	14118.11
473.67	13994.06
473.85	14150.88
474.03	14373.23
474.21	14553.45
474.39	14525.36
474.57	14340.46
474.75	14644.73
474.93	14750.06
475.12	14817.93
475.30	15035.60
475.48	14689.20
475.66	14984.11
475.84	15094.11
476.02	15520.09
476.20	15587.97
476.38	15489.67
476.56	15831.38
476.74	15812.66
476.92	15686.27
477.10	15695.63
477.28	15964.79
477.46	15981.18
477.64	16142.67
477.82	16599.08
478.00	16861.22
478.18	16472.69
478.36	16570.99
478.54	16709.08
478.72	16964.20
478.90	17273.15
479.08	17441.67
479.26	17530.61
479.44	17710.83
479.62	17799.77
479.80	17905.10
479.98	17935.53
480.16	18438.74
480.34	18157.88
480.52	18204.69
480.70	18197.67
480.88	18310.01
481.06	18452.78
481.24	18600.24
481.41	19019.19
481.59	19562.20
481.77	19096.43
481.95	19365.59
482.13	19367.93
482.31	19325.80
482.49	20290.10
482.67	20006.90
482.85	20666.93
483.03	20135.63
483.21	20531.18
483.39	20989.92
483.57	20889.28
483.74	20840.13
483.92	21231.00
484.10	20798.00
484.28	21603.14
484.46	22157.85
484.64	22080.61
484.82	21804.43
485.00	22132.11
485.18	22590.85
485.35	22771.07
485.53	22403.61
485.71	22537.02
485.89	23318.76
486.07	23426.42
486.25	23096.41
486.43	23356.21
486.61	23754.10
486.78	24053.69
486.96	23950.70
487.14	24367.32
487.32	24486.68
487.50	24631.80
487.68	24683.29
487.85	24982.88
488.03	25165.44
488.21	25598.44
488.39	25453.33
488.57	25846.54
488.75	25853.56
488.92	26157.83
489.10	26148.46
489.28	26733.60
489.46	26630.62
489.64	26845.94
489.81	27246.18
489.99	27510.66
490.17	27676.83
490.35	27915.57
490.53	27901.53
490.70	28072.39
490.88	27924.93
491.06	28540.49
491.24	28390.70
491.41	28989.88
491.59	28772.21
491.77	29230.95
491.95	29355.00
492.13	29488.41
492.30	29450.96
492.48	29956.52
492.66	29766.93
492.84	30085.25
493.01	30469.09
493.19	30433.99
493.37	30696.13
493.54	30923.16
493.72	31452.12
493.90	31009.76
494.08	31608.93
494.25	31779.79
494.43	32041.93
494.61	31988.10
494.79	32313.44
494.96	31978.74
495.14	32093.43
495.32	32755.80
495.49	33104.54
495.67	32465.57
495.85	33418.17
496.02	33366.68
496.20	33881.60
496.38	33582.01
496.55	33827.76
496.73	34658.65
496.91	34483.11
497.09	34302.89
497.26	34717.17
497.44	34955.90
497.62	34937.18
497.79	35391.24
497.97	35213.36
498.14	35653.38
498.32	35929.56
498.50	35618.27
498.67	36177.66
498.85	36044.25
499.03	36809.61
499.20	36678.54
499.38	36673.85
499.56	36821.31
499.73	36877.48
499.91	37230.90
500.08	37282.39
500.26	36816.63
500.44	37020.25
500.61	37214.52
500.79	37406.44
500.97	38391.81
501.14	38132.01
501.32	38555.64
501.49	38136.69
501.67	38466.70
501.84	38738.21
502.02	38583.73
502.20	39030.77
502.37	38918.43
502.55	38794.38
502.72	39192.27
502.90	38948.85
503.07	39077.58
503.25	39711.87
503.43	39533.99
503.60	39688.46
503.78	39999.76
503.95	40184.66
504.13	39798.47
504.30	40285.30
504.48	39878.05
504.65	40168.27
504.83	40722.98
505.01	41104.49
505.18	41188.75
505.36	41015.55
505.53	41064.70
505.71	41366.63
505.88	41504.72
506.06	41170.02
506.23	41469.61
506.41	41411.10
506.58	41825.37
506.76	41790.27
506.93	42284.12
507.11	41624.09
507.28	42167.09
507.46	42572.00
507.63	42628.18
507.81	42677.33
507.98	42930.11
508.16	42749.88
508.33	43023.73
508.50	43157.14
508.68	43302.25
508.85	43636.95
509.03	43217.99
509.20	43707.16
509.38	43973.98
509.55	43765.68
509.73	43826.53
509.90	44500.61
510.08	44526.35
510.25	44147.18
510.42	44425.71
510.60	44671.46
510.77	45172.34
510.95	44968.71
511.12	44964.03
511.30	44800.19
511.47	44687.85
511.64	45359.58
511.82	45106.80
511.99	45443.84
512.17	45794.92
512.34	45607.68
512.51	46153.02
512.69	45848.75
512.86	45935.35
513.04	46333.24
513.21	46534.53
513.38	46564.96
513.56	47030.72
513.73	46789.65
513.90	46724.11
514.08	46595.38
514.25	46756.88
514.43	47463.72
514.60	47159.45
514.77	47145.41
514.95	47711.82
515.12	47227.33
515.29	47550.32
515.47	47498.83
515.64	47887.36
515.81	47700.12
515.99	47562.03
516.16	47833.53
516.33	47800.76
516.51	48685.48
516.68	48467.81
516.85	48086.31
517.03	48898.47
517.20	48486.54
517.37	48648.03
517.54	48669.10
517.72	48821.23
517.89	48952.30
518.06	48889.11
518.24	48659.74
518.41	48980.39
518.58	49244.87
518.75	48774.42
518.93	49165.29
519.10	49024.86
519.27	49261.26
519.45	49361.90
519.62	49808.94
519.79	49481.27
519.96	49666.17
520.14	49771.49
520.31	49602.97
520.48	49949.37
520.65	49904.90
520.83	50237.26
521.00	50719.41
521.17	49956.39
521.34	50614.08
521.52	50398.76
521.69	50583.66
521.86	50637.49
522.03	51051.76
522.20	50864.52
522.38	50925.38
522.55	51217.94
522.72	50663.24
522.89	51264.75
523.07	51077.51
523.24	51248.37
523.41	51327.95
523.58	51309.22
523.75	51667.33
523.92	51693.07
524.10	51660.30
524.27	51955.21
524.44	51789.03
524.61	51758.61
524.78	51950.53
524.96	52140.11
525.13	51906.06
525.30	52233.74
525.47	52236.08
525.64	52278.21
525.81	52240.76
525.98	52552.05
526.16	52294.59
526.33	52229.05
526.50	52793.12
526.67	52439.70
526.84	52746.31
527.01	52699.50
527.18	52788.44
527.36	52858.66
527.53	53066.97
527.70	53034.20
527.87	53169.95
528.04	52758.02
528.21	53198.04
528.38	53141.86
528.55	53312.72
528.72	53109.10
528.89	53249.53
529.07	53277.61
529.24	53111.44
529.41	53303.36
529.58	53514.01
529.75	53766.79
529.92	53392.30
530.09	53485.92
530.26	53645.08
530.43	53525.71
530.60	53514.01
530.77	53766.79
530.94	53738.70
531.11	53722.32
531.28	54185.74
531.46	53911.90
531.63	54145.95
531.80	54024.25
531.97	54342.56
532.14	54541.50
532.31	54274.68
532.48	54295.75
532.65	54487.67
532.82	54087.44
532.99	54389.37
533.16	54590.66
533.33	54522.78
533.50	54450.22
533.67	54555.55
533.84	54466.61
534.01	54749.81
534.18	54899.61
534.35	55033.02
534.52	55044.72
534.69	54705.34
534.86	55220.26
535.03	54747.47
535.20	55061.10
535.37	55098.55
535.54	55000.25
535.71	55016.63
535.88	55140.68
536.05	55515.17
536.22	55608.79
536.38	55463.67
536.55	55477.72
536.72	55498.78
536.89	55430.91
537.06	55178.13
537.23	55533.89
537.40	55267.07
537.57	55693.05
537.74	55285.79
537.91	55552.62
538.08	55669.64
538.25	55433.25
538.42	55679.00
538.59	55899.01
538.75	55686.03
538.92	55891.99
539.09	55826.46
539.26	55868.59
539.43	56055.83
539.60	55971.57
539.77	56109.66
539.94	56060.51
540.11	56121.37
540.28	56257.12
540.44	56065.19
540.61	56243.07
540.78	56371.80
540.95	56191.58
541.12	56252.44
541.29	56294.56
541.46	56463.08
541.62	56357.76
541.79	56456.06
541.96	56142.43
542.13	56306.27
542.30	56371.80
542.47	56535.64
542.63	56704.16
542.80	56655.01
542.97	56828.21
543.14	57162.90
543.31	56987.36
543.48	57160.56
543.64	57319.72
543.81	57265.89
543.98	57099.71
544.15	56921.83
544.32	57595.90
544.48	57385.25
544.65	57022.47
544.82	57202.69
544.99	56816.50
545.16	57375.89
545.32	57160.56
545.49	57462.49
545.66	57411.00
545.83	57286.95
546.00	57558.45
546.16	57406.32
546.33	57478.88
546.50	57221.42
546.67	57687.18
546.83	57331.42
547.00	57429.72
547.17	57638.03
547.34	57577.18
547.50	57881.45
547.67	57923.58
547.84	57750.38
548.00	57998.48
548.17	58066.35
548.34	57907.19
548.51	58021.88
548.67	58129.54
548.84	58003.16
549.01	57923.58
549.18	58071.03
549.34	58108.48
549.51	58101.46
549.68	58169.33
549.84	58230.19
550.01	58312.11
550.18	58059.33
550.34	58110.82
550.51	58234.87
550.68	58365.94
550.84	58127.20
551.01	58433.81
551.18	58136.57
551.34	58220.83
551.51	58384.66
551.68	58375.30
551.84	58431.47
552.01	58485.31
552.18	58379.98
552.34	58520.41
552.51	58604.67
552.68	58354.24
552.84	58403.39
553.01	58880.86
553.18	58492.33
553.34	58609.35
553.51	58628.08
553.67	58630.42
553.84	58724.04
554.01	58677.23
554.17	59028.31
554.34	59037.67
554.51	58773.19
554.67	58700.64
554.84	58660.85
555.00	58960.44
555.17	58836.39
555.33	58908.94
555.50	58745.11
555.67	58841.07
555.83	58628.08
556.00	58953.41
556.16	59152.36
556.33	59241.30
556.50	59105.55
556.66	59107.89
556.83	58777.87
556.99	59262.36
557.16	59384.07
557.32	59241.30
557.49	59498.76
557.65	58906.60
557.82	58930.01
557.98	59180.45
558.15	59339.60
558.32	59311.52
558.48	59103.21
558.65	59423.86
558.81	59175.76
558.98	59505.78
559.14	59419.18
559.31	59220.23
559.47	59550.25
559.64	59728.13
559.80	59451.95
559.97	59496.42
560.13	59344.28
560.30	59454.29
560.46	59732.81
560.63	59704.73
560.79	59592.38
560.96	59898.99
561.12	59671.96
561.29	59784.30
561.45	59599.40
561.61	59643.87
561.78	59613.44
561.94	59639.19
562.11	59629.83
562.27	59611.10
562.44	59709.41
562.60	60013.68
562.77	59873.24
562.93	59611.10
563.10	59671.96
563.26	59749.20
563.42	59683.66
563.59	59798.35
563.75	59803.03
563.92	60013.68
564.08	59889.63
564.24	59845.16
564.41	59763.24
564.57	60037.08
564.74	59952.82
564.90	60203.26
565.07	59908.35
565.23	59929.42
565.39	60121.34
565.56	60009.00
565.72	60058.15
565.88	60196.24
566.05	59866.22
566.21	60060.49
566.38	60041.76
566.54	60140.07
566.70	60142.41
566.87	60151.77
567.03	60016.02
567.19	60423.27
567.36	60252.41
567.52	59938.78
567.68	60364.76
567.85	60102.62
568.01	60156.45
568.17	60191.56
568.34	60217.30
568.50	60055.81
568.66	60210.28
568.83	60198.58
568.99	60247.73
569.15	60376.46
569.32	60280.50
569.48	60313.26
569.64	60177.51
569.81	60458.38
569.97	60102.62
570.13	60231.35
570.30	60165.81
570.46	60322.63
570.62	60411.57
570.78	60121.34
570.95	60243.05
571.11	60360.08
571.27	60236.03
571.43	60392.84
571.60	60573.06
571.76	60313.26
571.92	60502.85
572.09	60402.21
572.25	60376.46
572.41	60266.45
572.57	60416.25
572.74	60750.94
572.90	60467.74
573.06	60294.54
573.22	60418.59
573.38	60629.24
573.55	60556.68
573.71	60652.64
573.87	60500.51
574.03	60402.21
574.20	60481.78
574.36	60533.28
574.52	60624.56
574.68	60481.78
574.84	60509.87
575.01	60837.54
575.17	60671.37
575.33	60563.70
575.49	60542.64
575.65	60612.85
575.82	60694.77
575.98	60444.33
576.14	60743.92
576.30	60552.00
576.46	60633.92
576.62	60423.27
576.79	60570.72
576.95	60430.29
577.11	60594.13
577.27	60650.30
577.43	60654.98
577.59	60591.79
577.75	60523.91
577.92	60479.44
578.08	60629.24
578.24	60617.53
578.40	60844.57
578.56	60938.19
578.72	60725.20
578.88	60718.18
579.04	61029.47
579.21	60615.19
579.37	61003.72
579.53	60802.44
579.69	60327.31
579.85	60516.89
580.01	60629.24
580.17	60608.17
580.33	60853.93
580.49	60708.82
580.65	60769.67
580.82	60753.29
580.98	60718.18
581.14	60631.58
581.30	61095.00
581.46	60774.35
581.62	60919.46
581.78	60699.45
581.94	60711.16
582.10	60680.73
582.26	60917.12
582.42	60561.36
582.58	60680.73
582.74	60781.37
582.90	60624.56
583.06	60952.23
583.22	60739.24
583.38	60973.30
583.54	60678.39
583.70	60877.33
583.86	60961.59
584.02	60757.97
584.18	60846.91
584.34	60860.95
584.50	60935.85
584.66	60769.67
584.82	60580.09
584.98	60938.19
585.14	61052.87
585.30	60715.84
585.46	60898.40
585.62	60617.53
585.78	60966.27
585.94	60687.75
586.10	60835.20
586.26	60853.93
586.42	60793.07
586.58	60828.18
586.74	60860.95
586.90	60795.42
587.06	60903.08
587.22	60963.93
587.38	60889.04
587.54	60891.38
587.70	60982.66
587.86	61057.56
588.02	60846.91
588.18	61078.62
588.34	60928.83
588.49	60858.61
