SpectraSuite Data File
++++++++++++++++++++++++++++++++++++
Date: Fri Oct 25 11:33:13 EDT 2013
User: price-jones
Dark Spectrum Present: No
Reference Spectrum Present: No
Number of Sampled Component Spectra: 1
Spectrometers: USB2+H05261
Integration Time (usec): 100000 (USB2+H05261)
Spectra Averaged: 1 (USB2+H05261)
Boxcar Smoothing: 0 (USB2+H05261)
Correct for Electrical Dark: No (USB2+H05261)
Strobe/Lamp Enabled: No (USB2+H05261)
Correct for Detector Non-linearity: No (USB2+H05261)
Correct for Stray Light: No (USB2+H05261)
Number of Pixels in Processed Spectrum: 2048
>>>>>Begin Processed Spectral Data<<<<<
365.73	243.42
365.92	243.42
366.12	243.42
366.32	196.60
366.52	163.84
366.72	187.24
366.91	149.79
367.11	222.35
367.31	208.31
367.51	191.92
367.70	105.32
367.90	215.33
368.10	168.52
368.30	180.22
368.49	147.45
368.69	180.22
368.89	229.37
369.09	297.25
369.28	140.43
369.48	224.69
369.68	266.82
369.87	283.20
370.07	231.71
370.27	320.65
370.47	388.53
370.66	456.40
370.86	507.90
371.06	493.85
371.25	557.05
371.45	550.03
371.65	608.54
371.84	521.94
372.04	582.79
372.24	552.37
372.44	512.58
372.63	587.47
372.83	559.39
373.03	601.52
373.22	599.18
373.42	643.65
373.62	557.05
373.81	638.97
374.01	657.69
374.21	622.58
374.40	610.88
374.60	648.33
374.79	676.41
374.99	636.63
375.19	648.33
375.38	608.54
375.58	688.12
375.78	648.33
375.97	720.88
376.17	692.80
376.37	662.37
376.56	645.99
376.76	645.99
376.95	655.35
377.15	645.99
377.35	631.94
377.54	678.76
377.74	753.65
377.93	688.12
378.13	727.91
378.33	706.84
378.52	739.61
378.72	751.31
378.91	765.36
379.11	821.53
379.31	704.50
379.50	753.65
379.70	800.46
379.89	795.78
380.09	709.18
380.28	763.01
380.48	758.33
380.68	669.39
380.87	720.88
381.07	709.18
381.26	718.54
381.46	779.40
381.65	751.31
381.85	809.83
382.04	720.88
382.24	779.40
382.43	828.55
382.63	774.72
382.83	753.65
383.02	805.14
383.22	823.87
383.41	847.27
383.61	805.14
383.80	805.14
384.00	753.65
384.19	849.61
384.39	805.14
384.58	842.59
384.78	805.14
384.97	774.72
385.17	823.87
385.36	936.21
385.56	767.70
385.75	812.17
385.95	854.30
386.14	847.27
386.34	842.59
386.53	891.74
386.72	763.01
386.92	926.85
387.11	938.55
387.31	917.49
387.50	842.59
387.70	835.57
387.89	919.83
388.09	968.98
388.28	912.81
388.48	884.72
388.67	931.53
388.86	983.02
389.06	915.15
389.25	957.28
389.45	947.92
389.64	889.40
389.84	959.62
390.03	1001.75
390.22	1046.22
390.42	976.00
390.61	999.41
390.81	1008.77
391.00	1015.79
391.19	1013.45
391.39	1015.79
391.58	1086.01
391.78	1090.69
391.97	994.73
392.16	1076.65
392.36	1076.65
392.55	1121.12
392.75	1100.05
392.94	1062.60
393.13	1076.65
393.33	1081.33
393.52	1121.12
393.71	1067.28
393.91	1139.84
394.10	1020.47
394.29	1111.75
394.49	1025.15
394.68	1174.95
394.88	1090.69
395.07	1156.22
395.26	1132.82
395.46	1160.91
395.65	1121.12
395.84	1137.50
396.04	1165.59
396.23	1153.88
396.42	1104.73
396.62	1273.25
396.81	1158.57
397.00	1130.48
397.19	1167.93
397.39	1242.82
397.58	1275.59
397.77	1277.93
397.97	1270.91
398.16	1315.38
398.35	1212.40
398.55	1256.87
398.74	1306.02
398.93	1432.41
399.12	1252.19
399.32	1343.47
399.51	1284.95
399.70	1371.55
399.90	1394.96
400.09	1385.60
400.28	1451.13
400.47	1486.24
400.67	1427.73
400.86	1446.45
401.05	1331.76
401.24	1411.34
401.44	1509.65
401.63	1439.43
401.82	1472.20
402.01	1383.26
402.21	1465.18
402.40	1523.69
402.59	1540.07
402.78	1500.28
402.97	1572.84
403.17	1425.39
403.36	1516.67
403.55	1493.26
403.74	1603.27
403.93	1607.95
404.13	1561.14
404.32	1638.38
404.51	1565.82
404.70	1596.25
404.89	1645.40
405.09	1643.06
405.28	1654.76
405.47	1720.29
405.66	1739.02
405.85	1692.21
406.05	1664.12
406.24	1650.08
406.43	1771.79
406.62	1750.72
406.81	1886.47
407.00	1797.53
407.20	1849.02
407.39	1764.76
407.58	1867.75
407.77	1844.34
407.96	1888.81
408.15	1818.60
408.34	1884.13
408.54	1956.69
408.73	2012.86
408.92	1966.05
409.11	1970.73
409.30	1888.81
409.49	2024.56
409.68	1975.41
409.87	2097.12
410.07	2134.57
410.26	2097.12
410.45	2113.50
410.64	2148.61
410.83	2115.84
411.02	2017.54
411.21	2216.49
411.40	2235.21
411.59	2200.10
411.78	2267.98
411.98	2188.40
412.17	2244.57
412.36	2293.72
412.55	2382.67
412.74	2413.09
412.93	2506.71
413.12	2377.98
413.31	2485.65
413.50	2520.76
413.69	2272.66
413.88	2509.05
414.07	2473.95
414.26	2424.80
414.45	2504.37
414.64	2420.11
414.83	2541.82
415.02	2527.78
415.22	2523.10
415.41	2661.19
415.60	2689.28
415.79	2733.75
415.98	2825.03
416.17	2738.43
416.36	2672.89
416.55	2785.24
416.74	2808.64
416.93	2892.90
417.12	2892.90
417.31	2911.63
417.50	2965.46
417.69	2935.03
417.88	2920.99
418.07	2857.79
418.26	2946.73
418.45	3038.02
418.64	3105.89
418.83	3110.57
419.02	2995.89
419.21	3122.27
419.39	3124.62
419.58	3124.62
419.77	3194.83
419.96	3138.66
420.15	3101.21
420.34	3213.56
420.53	3136.32
420.72	3262.71
420.91	3351.65
421.10	3283.77
421.29	3272.07
421.48	3199.51
421.67	3265.05
421.86	3265.05
422.05	3215.90
422.24	3311.86
422.43	3344.63
422.61	3456.97
422.80	3592.72
422.99	3396.12
423.18	3396.12
423.37	3440.59
423.56	3407.82
423.75	3332.92
423.94	3403.14
424.13	3201.85
424.32	3274.41
424.50	3449.95
424.69	3473.36
424.88	3449.95
425.07	3393.78
425.26	3496.76
425.45	3492.08
425.64	3482.72
425.83	3377.39
426.01	3447.61
426.20	3431.23
426.39	3485.06
426.58	3417.18
426.77	3496.76
426.96	3578.68
427.15	3583.36
427.33	3588.04
427.52	3574.00
427.71	3655.92
427.90	3595.06
428.09	3609.11
428.28	3627.83
428.46	3749.54
428.65	3693.37
428.84	3871.25
429.03	3758.90
429.22	3581.02
429.40	3716.77
429.59	3880.61
429.78	3709.75
429.97	3658.26
430.16	3901.67
430.34	3880.61
430.53	3969.55
430.72	3906.35
430.91	3786.99
431.10	3925.08
431.28	3995.29
431.47	3957.85
431.66	3908.69
431.85	3873.59
432.03	3997.64
432.22	4152.11
432.41	4112.32
432.60	4145.09
432.79	4166.15
432.97	4093.60
433.16	4227.01
433.35	4201.26
433.54	4126.36
433.72	4203.60
433.91	4168.49
434.10	4250.41
434.28	4299.56
434.47	4217.65
434.66	4337.01
434.85	4327.65
435.03	4351.06
435.22	4292.54
435.41	4524.26
435.59	4421.27
435.78	4472.76
435.97	4468.08
436.16	4477.44
436.34	4283.18
436.53	4458.72
436.72	4596.81
436.90	4421.27
437.09	4521.92
437.28	4561.70
437.46	4505.53
437.65	4571.07
437.84	4690.43
438.02	4641.28
438.21	4599.15
438.40	4512.55
438.58	4823.84
438.77	4793.42
438.96	4688.09
439.14	4884.70
439.33	4954.91
439.52	4898.74
439.70	4938.53
439.89	5125.77
440.08	5032.15
440.26	5046.20
440.45	4990.02
440.63	5186.63
440.82	5214.71
441.01	5245.14
441.19	5240.46
441.38	5327.06
441.57	5371.53
441.75	5357.49
441.94	5413.66
442.12	5275.57
442.31	5563.45
442.50	5439.40
442.68	5387.91
442.87	5528.35
443.05	5533.03
443.24	5645.37
443.43	5540.05
443.61	5481.53
443.80	5610.26
443.98	5434.72
444.17	5266.21
444.35	5577.50
444.54	5607.92
444.73	5834.96
444.91	5680.48
445.10	5757.72
445.28	5694.52
445.47	5430.04
445.65	5565.79
445.84	5591.54
446.02	5659.42
446.21	5673.46
446.39	5753.04
446.58	5729.63
446.77	5713.25
446.95	5689.84
447.14	5907.51
447.32	5951.98
447.51	5781.12
447.69	5755.38
447.88	5942.62
448.06	5877.09
448.25	5907.51
448.43	5839.64
448.62	5891.13
448.80	5898.15
448.99	5865.38
449.17	5914.53
449.36	5874.74
449.54	6001.13
449.73	6115.82
449.91	6029.22
450.10	5968.37
450.28	6230.51
450.46	6232.85
450.65	6293.70
450.83	6197.74
451.02	6087.73
451.20	6296.04
451.39	6335.83
451.57	6237.53
451.76	6209.44
451.94	6174.33
452.13	6532.44
452.31	6429.45
452.49	6244.55
452.68	6448.18
452.86	6445.84
453.05	6434.13
453.23	6546.48
453.42	6349.87
453.60	6260.93
453.78	6457.54
453.97	6553.50
454.15	6494.99
454.34	6366.26
454.52	6511.37
454.70	6487.96
454.89	6691.59
455.07	6738.40
455.26	6796.92
455.44	6602.65
455.62	6773.51
455.81	6541.80
455.99	6813.30
456.17	6722.02
456.36	6832.02
456.54	6890.54
456.73	7098.84
456.91	7091.82
457.09	7059.06
457.28	7138.63
457.46	6925.65
457.64	7119.91
457.83	7016.93
458.01	6977.14
458.19	7211.19
458.38	7199.49
458.56	7122.25
458.74	7269.70
458.93	7169.06
459.11	7260.34
459.29	7288.43
459.48	7316.51
459.66	7267.36
459.84	7290.77
460.03	7478.01
460.21	7379.71
460.39	7314.17
460.57	7342.26
460.76	7627.81
460.94	7520.14
461.12	7712.07
461.31	7531.84
461.49	7590.36
461.67	7672.28
461.85	7765.90
462.04	7440.56
462.22	8074.85
462.40	7751.85
462.59	7740.15
462.77	7695.68
462.95	7873.56
463.13	7775.26
463.32	7808.03
463.50	7906.33
463.68	7976.55
463.86	8070.17
464.05	7894.63
464.23	7836.11
464.41	8166.13
464.59	7754.19
464.78	8198.90
464.96	7978.89
465.14	8035.06
465.32	8191.88
465.50	8119.32
465.69	8376.78
465.87	8280.82
466.05	8367.42
466.23	8339.33
466.41	8367.42
466.60	8421.25
466.78	8098.25
466.96	8243.37
467.14	8290.18
467.32	8306.56
467.51	8355.71
467.69	8105.28
467.87	8142.72
468.05	8500.83
468.23	8301.88
468.41	8325.29
468.60	8411.89
468.78	8404.86
468.96	8566.36
469.14	8617.85
469.32	8734.88
469.50	8468.06
469.69	8585.08
469.87	8882.33
470.05	8692.75
470.23	8786.37
470.41	8894.04
470.59	8915.10
470.77	8819.14
470.95	8823.82
471.14	9067.24
471.32	8982.98
471.50	9284.91
471.68	9139.79
471.86	9085.96
472.04	9055.53
472.22	9537.68
472.40	9399.59
472.58	9451.08
472.77	9327.03
472.95	9312.99
473.13	9767.06
473.31	9331.72
473.49	9415.98
473.67	9430.02
473.85	9544.70
474.03	9771.74
474.21	9713.22
474.39	9675.77
474.57	9895.78
474.75	9987.07
474.93	10239.84
475.12	9961.32
475.30	10127.50
475.48	10024.51
475.66	10101.75
475.84	10239.84
476.02	10101.75
476.20	10314.74
476.38	10466.88
476.56	10773.49
476.74	10665.82
476.92	10597.95
477.10	10537.09
477.28	10796.89
477.46	10609.65
477.64	10771.15
477.82	11075.42
478.00	11185.42
478.18	11021.58
478.36	11314.15
478.54	11375.00
478.72	11419.47
478.90	11576.29
479.08	11587.99
479.26	11756.51
479.44	11878.22
479.62	11927.37
479.80	11939.07
479.98	12030.35
480.16	12250.36
480.34	12114.61
480.52	12266.75
480.70	12343.99
480.88	12166.10
481.06	12545.27
481.24	12762.94
481.41	12823.80
481.59	12861.24
481.77	12936.14
481.95	13128.06
482.13	13315.31
482.31	13090.62
482.49	13392.55
482.67	13554.04
482.85	13710.86
483.03	13743.63
483.21	13680.43
483.39	13727.24
483.57	13888.74
483.74	14132.15
483.92	14293.65
484.10	14003.43
484.28	14382.59
484.46	14726.65
484.64	14820.27
484.82	14644.73
485.00	14869.42
485.18	15068.37
485.35	15321.15
485.53	15145.61
485.71	15325.83
485.89	15536.48
486.07	15222.84
486.25	15613.71
486.43	15740.10
486.61	15943.73
486.78	15742.44
486.96	15955.43
487.14	16278.43
487.32	16329.92
487.50	16456.31
487.68	16170.76
487.85	16807.39
488.03	16802.71
488.21	17188.89
488.39	17132.72
488.57	17181.87
488.75	17256.77
488.92	17504.87
489.10	17539.97
489.28	17664.02
489.46	17734.24
489.64	18036.17
489.81	18305.33
489.99	18508.96
490.17	18405.97
490.35	18719.60
490.53	18633.00
490.70	18700.88
490.88	18611.94
491.06	19098.77
491.24	19084.73
491.41	19459.21
491.59	19433.47
491.77	19372.61
491.95	19665.18
492.13	19786.89
492.30	19641.78
492.48	19716.67
492.66	20418.83
492.84	20210.53
493.01	20395.43
493.19	20503.09
493.37	20563.95
493.54	20793.32
493.72	20549.90
493.90	20582.67
494.08	21198.23
494.25	21357.39
494.43	21067.16
494.61	21404.20
494.79	21427.60
494.96	21476.76
495.14	21561.02
495.32	21984.65
495.49	21689.74
495.67	22253.81
495.85	22281.90
496.02	22391.91
496.20	22457.44
496.38	22588.51
496.55	22576.81
496.73	22974.70
496.91	22920.87
497.09	22876.40
497.26	23227.48
497.44	22890.44
497.62	23353.87
497.79	23789.20
497.97	23737.71
498.14	23899.21
498.32	23620.69
498.50	23899.21
498.67	24273.70
498.85	24142.63
499.03	24030.28
499.20	24269.01
499.38	24451.58
499.56	24423.49
499.73	24893.94
499.91	24664.57
500.08	25027.35
500.26	24807.34
500.44	24996.92
500.61	25195.87
500.79	25144.38
500.97	25415.88
501.14	25528.22
501.32	25350.34
501.49	25408.86
501.67	25598.44
501.84	26169.53
502.02	25811.43
502.20	25614.82
502.37	25879.30
502.55	25633.55
502.72	26338.05
502.90	26103.99
503.07	26478.48
503.25	26235.06
503.43	26408.26
503.60	26787.43
503.78	26665.72
503.95	26703.17
504.13	26576.78
504.30	26764.03
504.48	27302.35
504.65	26986.38
504.83	27103.40
505.01	27583.21
505.18	27414.69
505.36	27569.17
505.53	27524.70
505.71	27597.26
505.88	27812.59
506.06	27562.15
506.23	27789.18
506.41	27985.79
506.58	27885.14
506.76	28112.17
506.93	28339.21
507.11	28416.44
507.28	28315.80
507.46	28212.82
507.63	28779.23
507.81	28945.41
507.98	28662.20
508.16	28840.08
508.33	28683.27
508.50	29305.85
508.68	29219.25
508.85	29092.86
509.03	29043.71
509.20	29134.99
509.38	29677.99
509.55	29514.16
509.73	29472.03
509.90	29954.18
510.08	29399.47
510.25	29769.27
510.42	30171.85
510.60	30162.48
510.77	30078.22
510.95	30284.19
511.12	30176.53
511.30	30342.70
511.47	30639.95
511.64	30583.78
511.82	30848.26
511.99	30899.75
512.17	30625.91
512.34	30644.63
512.51	31344.45
512.69	30700.81
512.86	31377.22
513.04	31426.37
513.21	31194.66
513.38	31608.93
513.56	31632.34
513.73	31292.96
513.90	31435.74
514.08	31620.64
514.25	32041.93
514.43	31985.76
514.60	32116.83
514.77	31899.16
514.95	32184.71
515.12	32119.17
515.29	32123.85
515.47	32650.47
515.64	32400.04
515.81	32271.31
515.99	32226.84
516.16	32723.03
516.33	32687.92
516.51	32725.37
516.68	32959.42
516.85	32835.38
517.03	33282.42
517.20	33006.23
517.37	32446.85
517.54	33013.26
517.72	33270.72
517.89	33214.54
518.06	33053.05
518.24	33380.72
518.41	33235.61
518.58	33600.73
518.75	33546.90
518.93	33837.12
519.10	33715.42
519.27	33415.83
519.45	33832.44
519.62	34007.98
519.79	34178.84
519.96	34249.06
520.14	34637.59
520.31	33956.49
520.48	34164.80
520.65	34663.33
520.83	34719.51
521.00	35143.14
521.17	34267.78
521.34	34733.55
521.52	35007.39
521.69	34492.47
521.86	35101.01
522.03	35281.24
522.20	35211.02
522.38	35604.23
522.55	35377.20
522.72	35000.37
522.89	35557.42
523.07	35646.36
523.24	35772.75
523.41	35913.18
523.58	35541.03
523.75	35871.05
523.92	35866.37
524.10	35573.80
524.27	35981.06
524.44	36364.90
524.61	36233.83
524.78	36526.40
524.96	36278.30
525.13	36320.43
525.30	36297.03
525.47	36421.08
525.64	36423.42
525.81	36208.09
525.98	36559.17
526.16	36357.88
526.33	36463.21
526.50	37170.05
526.67	37083.45
526.84	37113.87
527.01	36903.23
527.18	37060.04
527.36	37249.63
527.53	37090.47
527.70	37160.69
527.87	37502.40
528.04	37287.07
528.21	37432.19
528.38	37376.01
528.55	37804.33
528.72	37319.84
528.89	37383.04
529.07	37617.09
529.24	37626.45
529.41	38115.62
529.58	38274.78
529.75	37865.19
529.92	37876.89
530.09	37720.07
530.26	38148.39
530.43	38211.59
530.60	37682.62
530.77	38335.63
530.94	38176.48
531.11	38249.03
531.28	38466.70
531.46	38464.36
531.63	38349.68
531.80	38719.48
531.97	39058.86
532.14	38522.88
532.31	38719.48
532.48	39042.48
532.65	39232.06
532.82	38579.05
532.99	39068.22
533.16	38712.46
533.33	39194.61
533.50	39185.25
533.67	39143.12
533.84	39208.65
534.01	39292.91
534.18	39754.00
534.35	39704.85
534.52	39861.66
534.69	39728.25
534.86	39861.66
535.03	39440.37
535.20	39578.46
535.37	39920.18
535.54	40182.32
535.71	39835.92
535.88	39880.39
536.05	39817.19
536.22	40311.05
536.38	39819.53
536.55	40041.88
536.72	40051.25
536.89	40079.33
537.06	40655.11
537.23	40444.46
537.40	40334.45
537.57	40088.70
537.74	40467.86
537.91	40657.45
538.08	40226.79
538.25	39920.18
538.42	40507.65
538.59	40891.50
538.75	40163.59
538.92	40678.51
539.09	40891.50
539.26	41223.86
539.43	40868.09
539.60	40877.46
539.77	41340.88
539.94	41043.63
540.11	41280.03
540.28	41179.39
540.44	41205.13
540.61	41181.73
540.78	41137.26
540.95	41308.11
541.12	41420.46
541.29	41017.89
541.46	41542.17
541.62	41741.11
541.79	41397.06
541.96	41626.43
542.13	40910.22
542.30	41553.87
542.47	41663.88
542.63	41804.31
542.80	41989.21
542.97	42483.06
543.14	42506.47
543.31	42012.62
543.48	42096.88
543.64	43199.27
543.81	42459.66
543.98	42426.89
544.15	42607.11
544.32	42513.49
544.48	42761.59
544.65	42572.00
544.82	42700.73
544.99	42815.42
545.16	42747.54
545.32	42925.42
545.49	42895.00
545.66	43049.47
545.83	43016.71
546.00	43070.54
546.16	43016.71
546.33	42895.00
546.50	42944.15
546.67	43192.25
546.83	42459.66
547.00	42143.69
547.17	43126.71
547.34	42497.11
547.50	43526.94
547.67	43789.08
547.84	43697.80
548.00	43384.17
548.17	43615.88
548.34	43475.45
548.51	43976.33
548.67	43669.72
548.84	43501.20
549.01	43796.10
549.18	43702.48
549.34	43875.68
549.51	43667.37
549.68	43868.66
549.84	43796.10
550.01	44088.67
550.18	44023.14
550.34	44165.91
550.51	43878.02
550.68	43990.37
550.84	43351.40
551.01	44484.22
551.18	43988.03
551.34	44395.28
551.51	44343.79
551.68	44154.21
551.84	44161.23
552.01	43917.81
552.18	44238.47
552.34	44208.04
552.51	44208.04
552.68	44381.24
552.84	44423.37
553.01	45045.95
553.18	44416.35
553.34	44856.37
553.51	44289.96
553.67	44666.78
553.84	45120.85
554.01	44896.16
554.17	44905.52
554.34	44886.79
554.51	45127.87
554.67	45366.60
554.84	45125.53
555.00	45193.40
555.17	44697.21
555.33	45254.26
555.50	45170.00
555.67	45249.58
555.83	44985.10
556.00	45443.84
556.16	45544.48
556.33	44748.70
556.50	45113.83
556.66	45006.16
556.83	45064.67
556.99	45177.02
557.16	45579.59
557.32	45560.87
557.49	45532.78
557.65	45209.79
557.82	45184.04
557.98	45581.93
558.15	45439.16
558.32	45759.81
558.48	45467.25
558.65	45551.51
558.81	45558.53
558.98	45525.76
559.14	45710.66
559.31	45532.78
559.47	45970.46
559.64	45570.23
559.80	45584.27
559.97	46157.70
560.13	45256.60
560.30	45591.30
560.46	46038.34
560.63	46061.74
560.79	46082.81
560.96	45895.56
561.12	45944.72
561.29	46021.95
561.45	45937.69
561.61	46078.13
561.78	46206.86
561.94	45965.78
562.11	46110.89
562.27	46237.28
562.44	46040.68
562.60	46740.50
562.77	46195.15
562.93	46256.01
563.10	46358.99
563.26	46230.26
563.42	46810.71
563.59	46141.32
563.75	46567.30
563.92	46590.70
564.08	46197.49
564.24	46653.90
564.41	46251.33
564.57	46480.70
564.74	46291.12
564.90	46429.21
565.07	46553.26
565.23	46248.99
565.39	46681.98
565.56	46948.81
565.72	46527.51
565.88	46539.21
566.05	46614.11
566.21	46756.88
566.38	46529.85
566.54	47056.47
566.70	46890.29
566.87	46485.38
567.03	46600.07
567.19	46782.63
567.36	46904.34
567.52	46237.28
567.68	46897.31
567.85	46681.98
568.01	47014.34
568.17	47000.30
568.34	46937.10
568.50	47201.58
568.66	46932.42
568.83	46714.75
568.99	46700.71
569.15	47004.98
569.32	47068.17
569.48	46763.90
569.64	47360.74
569.81	47023.70
569.97	47133.71
570.13	47222.65
570.30	46773.27
570.46	46799.01
570.62	47332.65
570.78	47054.13
570.95	47143.07
571.11	47068.17
571.27	46714.75
571.43	46724.11
571.60	47264.78
571.76	46550.91
571.92	47243.71
572.09	47054.13
572.25	47023.70
572.41	47166.48
572.57	47320.95
572.74	47751.61
572.90	47040.09
573.06	47487.13
573.22	47297.55
573.38	47426.28
573.55	47086.90
573.71	47751.61
573.87	47428.62
574.03	47374.78
574.20	47480.11
574.36	47096.26
574.52	47421.59
574.68	47213.29
574.84	47255.42
575.01	47487.13
575.17	47611.18
575.33	47468.40
575.49	47299.89
575.65	47646.29
575.82	47496.49
575.98	46871.57
576.14	47782.04
576.30	47597.13
576.46	47449.68
576.62	47566.71
576.79	47440.32
576.95	46965.19
577.11	47367.76
577.27	47459.04
577.43	47445.00
577.59	47304.57
577.75	47140.73
577.92	47138.39
578.08	47068.17
578.24	47416.91
578.40	47749.27
578.56	47484.79
578.72	47126.69
578.88	47934.17
579.04	47356.06
579.21	47753.95
579.37	47618.20
579.53	47920.13
579.69	47772.67
579.85	47725.86
580.01	47622.88
580.17	47377.12
580.33	47608.84
580.49	47475.43
580.65	47950.56
580.82	47571.39
580.98	47281.16
581.14	47309.25
581.30	47419.25
581.46	47618.20
581.62	47426.28
581.78	47119.66
581.94	47758.63
582.10	47342.02
582.26	47828.85
582.42	47723.52
582.58	47629.90
582.74	47782.04
582.90	48208.01
583.06	47927.15
583.22	47374.78
583.38	47484.79
583.54	47690.76
583.70	48154.18
583.86	47702.46
584.02	47831.19
584.18	48105.03
584.34	48196.31
584.50	48114.39
584.66	47758.63
584.82	47711.82
584.98	48200.99
585.14	47845.23
585.30	47791.40
585.46	48208.01
585.62	47384.15
585.78	48083.97
585.94	47255.42
586.10	47632.24
586.26	47557.35
586.42	47835.87
586.58	48179.93
586.74	47688.42
586.90	47840.55
587.06	47840.55
587.22	47852.25
587.38	47913.11
587.54	48060.56
587.70	48142.48
587.86	47938.85
588.02	47868.64
588.18	47866.30
588.34	47856.93
588.49	47608.84
588.65	47782.04
588.81	47636.92
588.97	47824.17
589.13	48062.90
589.29	47988.00
589.45	48112.05
589.61	47931.83
589.77	48067.58
589.93	48090.99
