SpectraSuite Data File
++++++++++++++++++++++++++++++++++++
Date: Fri Oct 25 11:22:44 EDT 2013
User: price-jones
Dark Spectrum Present: No
Reference Spectrum Present: No
Number of Sampled Component Spectra: 1
Spectrometers: USB2+H05261
Integration Time (usec): 100000 (USB2+H05261)
Spectra Averaged: 1 (USB2+H05261)
Boxcar Smoothing: 0 (USB2+H05261)
Correct for Electrical Dark: No (USB2+H05261)
Strobe/Lamp Enabled: No (USB2+H05261)
Correct for Detector Non-linearity: No (USB2+H05261)
Correct for Stray Light: No (USB2+H05261)
Number of Pixels in Processed Spectrum: 2048
>>>>>Begin Processed Spectral Data<<<<<
365.73	161.50
365.92	161.50
366.12	161.50
366.32	187.24
366.52	112.35
366.72	156.82
366.91	67.88
367.11	147.45
367.31	91.28
367.51	163.84
367.70	84.26
367.90	88.94
368.10	152.13
368.30	88.94
368.49	156.82
368.69	138.09
368.89	79.58
369.09	128.73
369.28	215.33
369.48	198.95
369.68	215.33
369.87	135.75
370.07	227.03
370.27	184.90
370.47	294.91
370.66	594.50
370.86	650.67
371.06	741.95
371.25	702.16
371.45	615.56
371.65	725.57
371.84	697.48
372.04	697.48
372.24	718.54
372.44	664.71
372.63	819.19
372.83	767.70
373.03	748.97
373.22	737.27
373.42	720.88
373.62	802.80
373.81	805.14
374.01	866.00
374.21	784.08
374.40	828.55
374.60	793.44
374.79	730.25
374.99	730.25
375.19	826.21
375.38	837.91
375.58	889.40
375.78	819.19
375.97	826.21
376.17	976.00
376.37	816.85
376.56	889.40
376.76	828.55
376.95	849.61
377.15	875.36
377.35	880.04
377.54	870.68
377.74	922.17
377.93	821.53
378.13	849.61
378.33	971.32
378.52	926.85
378.72	905.79
378.91	933.87
379.11	931.53
379.31	945.58
379.50	945.58
379.70	896.43
379.89	952.60
380.09	1015.79
380.28	997.07
380.48	1029.84
380.68	980.68
380.87	959.62
381.07	1039.20
381.26	1053.24
381.46	966.64
381.65	1004.09
381.85	954.94
382.04	1029.84
382.24	1107.07
382.43	1041.54
382.63	1060.26
382.83	1039.20
383.02	1029.84
383.22	1146.86
383.41	1025.15
383.61	1165.59
383.80	1163.25
384.00	1121.12
384.19	1116.44
384.39	1186.65
384.58	1109.41
384.78	1153.88
384.97	1116.44
385.17	1144.52
385.36	1165.59
385.56	1233.46
385.75	1203.04
385.95	1156.22
386.14	1207.72
386.34	1238.14
386.53	1186.65
386.72	1107.07
386.92	1240.48
387.11	1263.89
387.31	1275.59
387.50	1233.46
387.70	1245.16
387.89	1270.91
388.09	1238.14
388.28	1280.27
388.48	1252.19
388.67	1277.93
388.86	1280.27
389.06	1329.42
389.25	1261.55
389.45	1263.89
389.64	1324.74
389.84	1434.75
390.03	1371.55
390.22	1401.98
390.42	1425.39
390.61	1275.59
390.81	1324.74
391.00	1427.73
391.19	1411.34
391.39	1441.77
391.58	1551.78
391.78	1472.20
391.97	1493.26
392.16	1469.86
392.36	1572.84
392.55	1476.88
392.75	1540.07
392.94	1504.96
393.13	1434.75
393.33	1528.37
393.52	1638.38
393.71	1535.39
393.91	1577.52
394.10	1544.75
394.29	1612.63
394.49	1511.99
394.68	1633.69
394.88	1699.23
395.07	1617.31
395.26	1603.27
395.46	1701.57
395.65	1703.91
395.84	1687.53
396.04	1806.89
396.23	1771.79
396.42	1781.15
396.62	1823.28
396.81	1806.89
397.00	1760.08
397.19	1935.62
397.39	1746.04
397.58	1872.43
397.77	1797.53
397.97	1886.47
398.16	1842.00
398.35	1893.49
398.55	1874.77
398.74	1900.52
398.93	1937.96
399.12	1937.96
399.32	1914.56
399.51	1846.68
399.70	2012.86
399.90	1849.02
400.09	2022.22
400.28	2132.23
400.47	2115.84
400.67	2073.71
400.86	2031.58
401.05	1949.67
401.24	2174.36
401.44	2064.35
401.63	2193.08
401.82	2094.78
402.01	2172.02
402.21	2172.02
402.40	2256.28
402.59	2186.06
402.78	2155.63
402.97	2324.15
403.17	2237.55
403.36	2258.62
403.55	2338.20
403.74	2289.04
403.93	2375.64
404.13	2410.75
404.32	2368.62
404.51	2406.07
404.70	2438.84
404.89	2366.28
405.09	2534.80
405.28	2483.31
405.47	2443.52
405.66	2506.71
405.85	2516.08
406.05	2509.05
406.24	2616.72
406.43	2588.63
406.62	2693.96
406.81	2647.15
407.00	2626.08
407.20	2471.61
407.39	2651.83
407.58	2736.09
407.77	2820.35
407.96	2747.79
408.15	2743.11
408.34	2768.85
408.54	2836.73
408.73	2799.28
408.92	2846.09
409.11	2860.13
409.30	2888.22
409.49	2888.22
409.68	2892.90
409.87	2764.17
410.07	2956.10
410.26	3084.83
410.45	2960.78
410.64	3056.74
410.83	3122.27
411.02	3066.10
411.21	3199.51
411.40	3007.59
411.59	3187.81
411.78	3293.13
411.98	3173.77
412.17	3176.11
412.36	3248.66
412.55	3405.48
412.74	3316.54
412.93	3417.18
413.12	3304.84
413.31	3602.08
413.50	3407.82
413.69	3487.40
413.88	3639.53
414.07	3583.36
414.26	3559.95
414.45	3545.91
414.64	3627.83
414.83	3620.81
415.02	3784.65
415.22	3880.61
415.41	3768.26
415.60	3808.05
415.79	4025.72
415.98	4098.28
416.17	4067.85
416.36	3981.25
416.55	4114.66
416.74	4140.41
416.93	4184.88
417.12	4180.20
417.31	4152.11
417.50	4264.46
417.69	4374.46
417.88	4222.33
418.07	4227.01
418.26	4299.56
418.45	4437.66
418.64	4337.01
418.83	4418.93
419.02	4475.10
419.21	4500.85
419.39	4517.23
419.58	4306.59
419.77	4561.70
419.96	4575.75
420.15	4741.93
420.34	4669.37
420.53	4652.98
420.72	4760.65
420.91	4704.48
421.10	4760.65
421.29	4882.36
421.48	4762.99
421.67	4798.10
421.86	4624.90
422.05	4919.81
422.24	4851.93
422.43	4959.60
422.61	4952.57
422.80	5144.50
422.99	5081.30
423.18	5015.77
423.37	5104.71
423.56	5015.77
423.75	4975.98
423.94	4894.06
424.13	4617.88
424.32	4802.78
424.50	5179.61
424.69	5142.16
424.88	5060.24
425.07	4891.72
425.26	5050.88
425.45	4975.98
425.64	5067.26
425.83	5088.32
426.01	5001.72
426.20	4901.08
426.39	5064.92
426.58	5076.62
426.77	5036.83
426.96	5191.31
427.15	5111.73
427.33	5460.47
427.52	5050.88
427.71	5210.03
427.90	5322.38
428.09	5495.58
428.28	5399.62
428.46	5535.37
428.65	5387.91
428.84	5455.79
429.03	5380.89
429.22	5488.56
429.40	5376.21
429.59	5392.59
429.78	5305.99
429.97	5390.25
430.16	5652.39
430.34	5640.69
430.53	5785.80
430.72	5884.11
430.91	5734.31
431.10	5673.46
431.28	5757.72
431.47	5989.43
431.66	5921.56
431.85	5898.15
432.03	5970.71
432.22	5926.24
432.41	5830.27
432.60	6012.84
432.79	5912.19
432.97	6071.35
433.16	6176.67
433.35	6076.03
433.54	5935.60
433.72	6113.48
433.91	6162.63
434.10	6232.85
434.28	6125.18
434.47	6188.38
434.66	6380.30
434.85	6296.04
435.03	6368.60
435.22	6361.58
435.41	6506.69
435.59	6553.50
435.78	6305.40
435.97	6558.18
436.16	6604.99
436.34	6274.98
436.53	6436.47
436.72	6525.41
436.90	6483.28
437.09	6668.19
437.28	6478.60
437.46	6558.18
437.65	6747.76
437.84	6888.20
438.02	6764.15
438.21	6715.00
438.40	6698.61
438.58	7026.29
438.77	7005.22
438.96	6920.96
439.14	7094.16
439.33	7117.57
439.52	7183.10
439.70	7360.98
439.89	7396.09
440.08	7428.86
440.26	7398.43
440.45	7349.28
440.63	7571.63
440.82	7529.50
441.01	7475.67
441.19	7573.97
441.38	7871.22
441.57	7815.05
441.75	7747.17
441.94	7906.33
442.12	8025.70
442.31	7941.44
442.50	8011.65
442.68	8013.99
442.87	8231.66
443.05	8271.45
443.24	8365.07
443.43	8077.19
443.61	8299.54
443.80	8526.57
443.98	8191.88
444.17	7892.29
444.35	8241.03
444.54	8393.16
444.73	8313.58
444.91	8472.74
445.10	8407.20
445.28	8320.60
445.47	8290.18
445.65	8409.54
445.84	8608.49
446.02	8524.23
446.21	8624.87
446.39	8322.94
446.58	8524.23
446.77	8439.97
446.95	8308.90
447.14	8615.51
447.32	8685.73
447.51	8549.98
447.69	8566.36
447.88	8322.94
448.06	8713.81
448.25	8549.98
448.43	8816.80
448.62	8690.41
448.80	8613.17
448.99	8631.90
449.17	8613.17
449.36	8699.77
449.54	8835.52
449.73	9025.11
449.91	9043.83
450.10	8879.99
450.28	9123.41
450.46	9233.41
450.65	9050.85
450.83	8947.87
451.02	9121.07
451.20	9160.86
451.39	9273.20
451.57	9097.66
451.76	9149.15
451.94	9170.22
452.13	9509.60
452.31	9392.57
452.49	9156.18
452.68	9418.32
452.86	9444.06
453.05	9514.28
453.23	9437.04
453.42	9401.93
453.60	9458.10
453.78	9729.61
453.97	9317.67
454.15	9437.04
454.34	9607.90
454.52	9603.22
454.70	9617.26
454.89	9872.38
455.07	9783.44
455.26	9858.34
455.44	10197.71
455.62	9895.78
455.81	10080.69
455.99	9860.68
456.17	10197.71
456.36	10204.74
456.54	10094.73
456.73	10253.89
456.91	10377.94
457.09	10469.22
457.28	10450.49
457.46	10408.36
457.64	10347.51
457.83	10544.11
458.01	10611.99
458.19	10714.97
458.38	10633.05
458.56	10707.95
458.74	10834.34
458.93	10794.55
459.11	10848.38
459.29	10832.00
459.48	10925.62
459.66	11007.54
459.84	10993.50
460.03	11033.29
460.21	11026.26
460.39	11122.23
460.57	10885.83
460.76	11117.54
460.94	11375.00
461.12	11311.81
461.31	10951.37
461.49	11236.91
461.67	11171.38
461.85	11627.78
462.04	11375.00
462.22	12116.95
462.40	11595.01
462.59	11510.75
462.77	11590.33
462.95	11681.61
463.13	11587.99
463.32	11290.74
463.50	11903.96
463.68	11847.79
463.86	12030.35
464.05	11927.37
464.23	11880.56
464.41	11826.73
464.59	11765.87
464.78	12175.47
464.96	12233.98
465.14	11896.94
465.32	12100.57
465.50	12280.79
465.69	12161.42
465.87	11882.90
466.05	12121.63
466.23	12381.43
466.41	12325.26
466.60	12599.10
466.78	12255.04
466.96	12416.54
467.14	12484.42
467.32	12556.97
467.51	12456.33
467.69	12266.75
467.87	12493.78
468.05	12737.20
468.23	12421.22
468.41	12599.10
468.60	12592.08
468.78	12898.69
468.96	12650.60
469.14	12814.43
469.32	12931.46
469.50	12856.56
469.69	13001.68
469.87	13135.09
470.05	13078.91
470.23	13226.37
470.41	13256.79
470.59	13390.20
470.77	13334.03
470.95	13422.97
471.14	13624.26
471.32	13336.37
471.50	13532.98
471.68	13720.22
471.86	13664.05
472.04	13692.13
472.22	14008.11
472.40	13942.57
472.58	13900.44
472.77	14031.51
472.95	14019.81
473.13	14567.49
473.31	14092.37
473.49	14396.64
473.67	14099.39
473.85	14382.59
474.03	14717.29
474.21	14523.02
474.39	14782.82
474.57	14679.84
474.75	15314.13
474.93	14949.00
475.12	14967.73
475.30	15094.11
475.48	15382.00
475.66	15246.25
475.84	15110.50
476.02	15740.10
476.20	15646.48
476.38	15807.98
476.56	16072.46
476.74	16123.95
476.92	16145.02
477.10	16147.36
477.28	16315.87
477.46	16219.91
477.64	16301.83
477.82	16678.66
478.00	16744.19
478.18	16730.15
478.36	17088.25
478.54	16844.84
478.72	17235.70
478.90	17481.46
479.08	17497.84
479.26	17888.71
479.44	18012.76
479.62	17795.09
479.80	18061.91
479.98	18181.28
480.16	18787.48
480.34	18162.56
480.52	18810.89
480.70	18633.00
480.88	18604.92
481.06	18616.62
481.24	18925.57
481.41	19269.63
481.59	19372.61
481.77	19826.68
481.95	19620.71
482.13	19920.30
482.31	19658.16
482.49	20416.49
482.67	20149.67
482.85	20627.14
483.03	20751.19
483.21	20847.15
483.39	20875.24
483.57	20971.20
483.74	21165.46
483.92	21472.07
484.10	21202.91
484.28	21862.94
484.46	22134.45
484.64	22412.97
484.82	22366.16
485.00	22298.28
485.18	22841.29
485.35	22988.74
485.53	22642.34
485.71	22951.29
485.89	23690.90
486.07	23644.09
486.25	23335.14
486.43	23751.76
486.61	23971.77
486.78	24430.51
486.96	24393.06
487.14	24638.82
487.32	24950.11
487.50	25116.29
487.68	25064.80
487.85	25549.29
488.03	25589.08
488.21	26073.57
488.39	25631.21
488.57	26565.08
488.75	26405.92
488.92	26579.12
489.10	26988.72
489.28	26845.94
489.46	27318.73
489.64	27047.23
489.81	27484.91
489.99	27878.12
490.17	28203.46
490.35	28208.14
490.53	28210.48
490.70	28648.16
490.88	28512.41
491.06	29308.19
491.24	28788.59
491.41	29106.90
491.59	29546.92
491.77	29418.19
491.95	30197.59
492.13	29811.40
492.30	30183.55
492.48	30349.73
492.66	30412.92
492.84	30820.17
493.01	30845.92
493.19	30314.62
493.37	30981.67
493.54	31204.02
493.72	31489.57
493.90	32009.17
494.08	32236.20
494.25	32034.91
494.43	32222.16
494.61	32556.85
494.79	32463.23
494.96	32828.35
495.14	32858.78
495.32	33064.75
495.49	33326.89
495.67	33493.07
495.85	33825.42
496.02	33844.15
496.20	34143.74
496.38	34534.60
496.55	34382.47
496.73	34824.83
496.91	35098.67
497.09	35068.25
497.26	35288.26
497.44	35295.28
497.62	35501.25
497.79	36381.29
497.97	35798.49
498.14	36098.08
498.32	36329.80
498.50	36367.24
498.67	36582.57
498.85	36708.96
499.03	36706.62
499.20	37090.47
499.38	36868.12
499.56	37268.35
499.73	37106.85
499.91	37621.77
500.08	37986.89
500.26	37523.47
500.44	38162.43
500.61	37982.21
500.79	38113.28
500.97	38494.79
501.14	38731.18
501.32	38763.95
501.49	38644.59
501.67	39143.12
501.84	38852.89
502.02	39325.68
502.20	39466.11
502.37	39180.57
502.55	39557.39
502.72	39800.81
502.90	39901.45
503.07	40388.28
503.25	40526.38
503.43	40046.57
503.60	40130.83
503.78	40732.34
503.95	40622.34
504.13	40692.55
504.30	40687.87
504.48	40643.40
504.65	41228.54
504.83	41415.78
505.01	41242.58
505.18	41050.66
505.36	41689.62
505.53	41586.64
505.71	41949.42
505.88	42096.88
506.06	41909.63
506.23	42752.23
506.41	42225.60
506.58	42492.43
506.76	42263.05
506.93	42946.49
507.11	42504.13
507.28	42897.34
507.46	42876.27
507.63	43112.67
507.81	43440.34
507.98	42983.94
508.16	43433.32
508.33	43526.94
508.50	43948.24
508.68	44018.46
508.85	44140.16
509.03	43887.39
509.20	44378.90
509.38	44701.89
509.55	45045.95
509.73	44739.34
509.90	44713.59
510.08	44767.43
510.25	44559.12
510.42	45148.93
510.60	45205.11
510.77	45375.97
510.95	45666.19
511.12	45090.42
511.30	45429.80
511.47	45900.25
511.64	45631.08
511.82	46272.39
511.99	45823.01
512.17	46394.10
512.34	45958.76
512.51	46611.77
512.69	46082.81
512.86	46518.15
513.04	46651.56
513.21	46689.01
513.38	47143.07
513.56	46946.47
513.73	46834.12
513.90	47714.16
514.08	47250.74
514.25	47665.01
514.43	47585.43
514.60	47662.67
514.77	47632.24
514.95	48135.46
515.12	48013.75
515.29	47791.40
515.47	48105.03
515.64	48399.94
515.81	48444.41
515.99	48463.13
516.16	48655.06
516.33	48512.28
516.51	48746.34
516.68	48982.73
516.85	48751.02
517.03	49364.24
517.20	49258.91
517.37	49146.57
517.54	48896.13
517.72	49066.99
517.89	49413.39
518.06	49467.22
518.24	49148.91
518.41	49436.80
518.58	49624.04
518.75	49343.17
518.93	49914.26
519.10	49848.73
519.27	50087.46
519.45	49951.71
519.62	50113.21
519.79	50115.55
519.96	50117.89
520.14	50373.01
520.31	50604.72
520.48	50422.16
520.65	50665.58
520.83	50782.60
521.00	50911.33
521.17	50967.51
521.34	50571.96
521.52	50667.92
521.69	51051.76
521.86	51629.88
522.03	51449.66
522.20	51515.19
522.38	51484.76
522.55	51508.17
522.72	51573.70
522.89	51817.12
523.07	51985.64
523.24	51634.56
523.41	51934.15
523.58	51765.63
523.75	52320.34
523.92	51929.47
524.10	52327.36
524.27	52039.47
524.44	52502.90
524.61	52280.55
524.78	52369.49
524.96	52343.74
525.13	52392.89
525.30	52701.84
525.47	52865.68
525.64	52783.76
525.81	52666.73
525.98	52844.62
526.16	52685.46
526.33	52917.17
526.50	53104.41
526.67	52804.83
526.84	52942.92
527.01	52811.85
527.18	53024.84
527.36	53212.08
527.53	53095.05
527.70	53734.02
527.87	53624.01
528.04	53176.97
528.21	53258.89
528.38	53647.42
528.55	53401.66
528.72	53581.88
528.89	53731.68
529.07	53624.01
529.24	53741.04
529.41	53783.17
529.58	54026.59
529.75	53886.15
529.92	53738.70
530.09	53972.75
530.26	54134.25
530.43	54251.28
530.60	53942.33
530.77	53947.01
530.94	54298.09
531.11	54262.98
531.28	54323.83
531.46	54557.89
531.63	54805.98
531.80	54251.28
531.97	54728.75
532.14	54541.50
532.31	54614.06
532.48	54759.17
532.65	54815.35
532.82	54714.70
532.99	55105.57
533.16	54644.49
533.33	54845.77
533.50	55201.53
533.67	55126.64
533.84	54831.73
534.01	54993.23
534.18	54990.89
534.35	55580.70
534.52	55269.41
534.69	55629.85
534.86	55599.43
535.03	55288.13
535.20	55458.99
535.37	55454.31
535.54	55751.56
535.71	55295.16
535.88	55758.58
536.05	55461.33
536.22	55695.39
536.38	55873.27
536.55	55676.66
536.72	55636.87
536.89	55812.41
537.06	55807.73
537.23	55880.29
537.40	55634.53
537.57	55711.77
537.74	56016.04
537.91	55969.23
538.08	56364.78
538.25	55835.82
538.42	55945.83
538.59	56254.78
538.75	56048.81
538.92	56229.03
539.09	56261.80
539.26	56212.65
539.43	56245.41
539.60	56023.06
539.77	56399.89
539.94	56629.26
540.11	56453.72
540.28	56662.03
540.44	56612.88
540.61	56657.35
540.78	56493.51
540.95	56765.01
541.12	56584.79
541.29	56748.63
541.46	56837.57
541.62	56638.62
541.79	56914.81
541.96	56404.57
542.13	56664.37
542.30	56842.25
542.47	56910.13
542.63	56802.46
542.80	57027.15
542.97	57109.07
543.14	57265.89
543.31	57172.27
543.48	57432.07
543.64	57565.48
543.81	57408.66
543.98	57247.16
544.15	57378.23
544.32	57621.65
544.48	57764.42
544.65	57532.71
544.82	57616.97
544.99	57373.55
545.16	57659.10
545.32	57577.18
545.49	57839.32
545.66	57998.48
545.83	57841.66
546.00	57818.25
546.16	57827.62
546.33	57755.06
546.50	57689.52
546.67	57935.28
546.83	57642.71
547.00	57815.91
547.17	57932.94
547.34	57942.30
547.50	58024.22
547.67	58092.10
547.84	58183.38
548.00	58377.64
548.17	58454.88
548.34	58209.12
548.51	58578.93
548.67	58213.80
548.84	58422.11
549.01	58230.19
549.18	58356.58
549.34	58440.84
549.51	58419.77
549.68	58494.67
549.84	58342.53
550.01	58625.74
550.18	58599.99
550.34	58581.27
550.51	58808.30
550.68	58766.17
550.84	58358.92
551.01	58628.08
551.18	58717.02
551.34	58688.93
551.51	58576.59
551.68	58731.06
551.84	58822.34
552.01	58541.48
552.18	58932.35
552.34	58546.16
552.51	58986.18
552.68	58611.70
552.84	58749.79
553.01	59035.33
553.18	58759.15
553.34	59224.92
553.51	59047.04
553.67	59086.82
553.84	59175.76
554.01	59316.20
554.17	59107.89
554.34	59009.59
554.51	59194.49
554.67	59208.53
554.84	59110.23
555.00	58913.62
555.17	59391.09
555.33	59152.36
555.50	59112.57
555.67	59004.91
555.83	59082.14
556.00	59208.53
556.16	59728.13
556.33	59449.61
556.50	59601.74
556.66	59508.12
556.83	59398.12
556.99	59498.76
557.16	59707.07
557.32	59531.53
557.49	59835.80
557.65	59447.27
557.82	59561.95
557.98	59522.16
558.15	59714.09
558.32	59681.32
558.48	59653.23
558.65	59681.32
558.81	59573.66
558.98	59671.96
559.14	59657.91
559.31	59791.33
559.47	59901.33
559.64	60009.00
559.80	59618.13
559.97	59870.90
560.13	59891.97
560.30	59781.96
560.46	59924.74
560.63	59868.56
560.79	60004.31
560.96	59959.84
561.12	60065.17
561.29	59973.89
561.45	59826.43
561.61	60001.97
561.78	60123.68
561.94	59922.40
562.11	60088.57
562.27	60020.70
562.44	60158.79
562.60	60018.36
562.77	60226.66
562.93	59969.21
563.10	60177.51
563.26	60137.72
563.42	60453.70
563.59	60198.58
563.75	60144.75
563.92	60210.28
564.08	60179.85
564.24	60252.41
564.41	60252.41
564.57	60219.64
564.74	60257.09
564.90	60271.14
565.07	60467.74
565.23	60107.30
565.39	60236.03
565.56	60463.06
565.72	60240.71
565.88	60299.22
566.05	60266.45
566.21	60434.97
566.38	60423.27
566.54	60439.65
566.70	60451.36
566.87	60638.60
567.03	60357.74
567.19	60559.02
567.36	60477.10
567.52	60266.45
567.68	60760.31
567.85	60582.43
568.01	60610.51
568.17	60470.08
568.34	60568.38
568.50	60495.83
568.66	60186.88
568.83	60608.17
568.99	60334.33
569.15	60659.66
569.32	60591.79
569.48	60493.49
569.64	60652.64
569.81	60608.17
569.97	60540.30
570.13	60470.08
570.30	60544.98
570.46	60662.00
570.62	60650.30
570.78	60800.10
570.95	60580.09
571.11	60685.41
571.27	60687.75
571.43	60910.10
571.60	60795.42
571.76	60795.42
571.92	60772.01
572.09	60676.05
572.25	60823.50
572.41	60809.46
572.57	60743.92
572.74	60926.49
572.90	60830.52
573.06	60910.10
573.22	60739.24
573.38	60886.70
573.55	60828.18
573.71	61078.62
573.87	60701.79
574.03	60434.97
574.20	60743.92
574.36	60891.38
574.52	60746.26
574.68	60687.75
574.84	61066.92
575.01	60907.76
575.17	60877.33
575.33	60994.36
575.49	60884.36
575.65	60949.89
575.82	61174.58
575.98	61151.18
576.14	61031.81
576.30	61008.40
576.46	60828.18
576.62	60832.86
576.79	60846.91
576.95	60921.80
577.11	60802.44
577.27	61059.90
577.43	60989.68
577.59	60980.32
577.75	60992.02
577.92	60811.80
578.08	60987.34
578.24	61029.47
578.40	61307.99
578.56	61169.90
578.72	60931.17
578.88	61176.92
579.04	61247.14
579.21	61113.73
579.37	61139.47
579.53	61279.91
579.69	60786.05
579.85	61027.13
580.01	61055.21
580.17	60999.04
580.33	61090.32
580.49	61205.01
580.65	60907.76
580.82	60788.39
580.98	60814.14
581.14	60942.87
581.30	61130.11
581.46	60963.93
581.62	61193.31
581.78	61174.58
581.94	61174.58
582.10	61120.75
582.26	61162.88
582.42	60985.00
582.58	61139.47
582.74	60996.70
582.90	61090.32
583.06	61268.20
583.22	60903.08
583.38	61141.81
583.54	61146.50
583.70	61118.41
583.86	61202.67
584.02	61125.43
584.18	61272.88
584.34	61043.51
584.50	61134.79
584.66	61024.79
584.82	61020.11
584.98	61385.23
585.14	60985.00
585.30	60994.36
585.46	61305.65
585.62	61324.38
585.78	61357.14
585.94	60977.98
586.10	61169.90
586.26	61134.79
586.42	61247.14
586.58	61207.35
586.74	61165.22
586.90	61125.43
587.06	61202.67
587.22	61329.06
587.38	61366.51
587.54	61413.32
587.70	61385.23
587.86	61216.71
588.02	61268.20
588.18	61441.40
588.34	61165.22
588.49	61256.50
