SpectraSuite Data File
++++++++++++++++++++++++++++++++++++
Date: Fri Oct 25 11:33:36 EDT 2013
User: price-jones
Dark Spectrum Present: No
Reference Spectrum Present: No
Number of Sampled Component Spectra: 1
Spectrometers: USB2+H05261
Integration Time (usec): 100000 (USB2+H05261)
Spectra Averaged: 1 (USB2+H05261)
Boxcar Smoothing: 0 (USB2+H05261)
Correct for Electrical Dark: No (USB2+H05261)
Strobe/Lamp Enabled: No (USB2+H05261)
Correct for Detector Non-linearity: No (USB2+H05261)
Correct for Stray Light: No (USB2+H05261)
Number of Pixels in Processed Spectrum: 2048
>>>>>Begin Processed Spectral Data<<<<<
365.73	210.65
365.92	210.65
366.12	210.65
366.32	229.37
366.52	126.39
366.72	234.05
366.91	131.07
367.11	241.08
367.31	175.54
367.51	187.24
367.70	159.16
367.90	168.52
368.10	229.37
368.30	168.52
368.49	224.69
368.69	187.24
368.89	215.33
369.09	215.33
369.28	191.92
369.48	220.01
369.68	229.37
369.87	166.18
370.07	262.14
370.27	269.16
370.47	362.78
370.66	535.98
370.86	414.27
371.06	505.56
371.25	550.03
371.45	514.92
371.65	547.69
371.84	547.69
372.04	540.66
372.24	664.71
372.44	538.32
372.63	601.52
372.83	589.82
373.03	566.41
373.22	561.73
373.42	601.52
373.62	622.58
373.81	645.99
374.01	573.43
374.21	638.97
374.40	610.88
374.60	669.39
374.79	631.94
374.99	615.56
375.19	622.58
375.38	681.10
375.58	716.20
375.78	718.54
375.97	615.56
376.17	681.10
376.37	692.80
376.56	685.78
376.76	683.44
376.95	695.14
377.15	704.50
377.35	727.91
377.54	683.44
377.74	699.82
377.93	697.48
378.13	720.88
378.33	784.08
378.52	737.27
378.72	753.65
378.91	725.57
379.11	631.94
379.31	671.73
379.50	706.84
379.70	732.59
379.89	746.63
380.09	709.18
380.28	755.99
380.48	681.10
380.68	770.04
380.87	720.88
381.07	812.17
381.26	777.06
381.46	744.29
381.65	812.17
381.85	744.29
382.04	763.01
382.24	744.29
382.43	767.70
382.63	767.70
382.83	732.59
383.02	809.83
383.22	704.50
383.41	716.20
383.61	826.21
383.80	858.98
384.00	847.27
384.19	816.85
384.39	821.53
384.58	784.08
384.78	772.38
384.97	936.21
385.17	727.91
385.36	795.78
385.56	849.61
385.75	793.44
385.95	840.25
386.14	877.70
386.34	779.40
386.53	849.61
386.72	866.00
386.92	947.92
387.11	919.83
387.31	830.89
387.50	866.00
387.70	919.83
387.89	898.77
388.09	947.92
388.28	950.26
388.48	882.38
388.67	987.71
388.86	961.96
389.06	950.26
389.25	908.13
389.45	896.43
389.64	903.45
389.84	1001.75
390.03	990.05
390.22	959.62
390.42	945.58
390.61	954.94
390.81	912.81
391.00	980.68
391.19	1050.90
391.39	1004.09
391.58	959.62
391.78	1011.11
391.97	1062.60
392.16	954.94
392.36	973.66
392.55	1043.88
392.75	1018.13
392.94	1036.86
393.13	1020.47
393.33	1078.99
393.52	1074.31
393.71	1074.31
393.91	987.71
394.10	1107.07
394.29	1048.56
394.49	1142.18
394.68	1128.14
394.88	1172.61
395.07	1153.88
395.26	1156.22
395.46	1111.75
395.65	1179.63
395.84	1100.05
396.04	1228.78
396.23	1191.33
396.42	1184.31
396.62	1193.67
396.81	1153.88
397.00	1193.67
397.19	1242.82
397.39	1188.99
397.58	1210.06
397.77	1273.25
397.97	1289.64
398.16	1174.95
398.35	1273.25
398.55	1259.21
398.74	1273.25
398.93	1277.93
399.12	1273.25
399.32	1203.04
399.51	1376.24
399.70	1362.19
399.90	1406.66
400.09	1404.32
400.28	1432.41
400.47	1371.55
400.67	1315.38
400.86	1439.43
401.05	1383.26
401.24	1387.94
401.44	1411.34
401.63	1441.77
401.82	1554.12
402.01	1364.53
402.21	1483.90
402.40	1511.99
402.59	1488.58
402.78	1565.82
402.97	1460.49
403.17	1500.28
403.36	1493.26
403.55	1535.39
403.74	1511.99
403.93	1565.82
404.13	1589.22
404.32	1600.93
404.51	1647.74
404.70	1668.80
404.89	1619.65
405.09	1717.95
405.28	1692.21
405.47	1750.72
405.66	1694.55
405.85	1710.93
406.05	1739.02
406.24	1762.42
406.43	1746.04
406.62	1804.55
406.81	1809.23
407.00	1764.76
407.20	1694.55
407.39	1713.27
407.58	1827.96
407.77	1853.70
407.96	1956.69
408.15	1809.23
408.34	1842.00
408.54	1921.58
408.73	1905.20
408.92	1954.35
409.11	1881.79
409.30	1984.77
409.49	1949.67
409.68	2008.18
409.87	1987.11
410.07	2050.31
410.26	2022.22
410.45	2083.08
410.64	2090.10
410.83	2153.29
411.02	1987.11
411.21	2031.58
411.40	2113.50
411.59	2155.63
411.78	2282.02
411.98	2160.31
412.17	2263.30
412.36	2218.83
412.55	2260.96
412.74	2375.64
412.93	2408.41
413.12	2267.98
413.31	2466.92
413.50	2335.85
413.69	2443.52
413.88	2401.39
414.07	2553.52
414.26	2464.58
414.45	2548.84
414.64	2527.78
414.83	2410.75
415.02	2551.18
415.22	2614.38
415.41	2733.75
415.60	2651.83
415.79	2780.56
415.98	2761.83
416.17	2698.64
416.36	2785.24
416.55	2719.70
416.74	2729.06
416.93	2869.50
417.12	2829.71
417.31	2920.99
417.50	2658.85
417.69	2857.79
417.88	2909.29
418.07	3007.59
418.26	2979.50
418.45	2920.99
418.64	3012.27
418.83	3075.46
419.02	3068.44
419.21	3049.72
419.39	3150.36
419.58	3070.78
419.77	3019.29
419.96	3141.00
420.15	3229.94
420.34	3023.97
420.53	3136.32
420.72	3309.52
420.91	3300.16
421.10	3286.11
421.29	3229.94
421.48	3248.66
421.67	3375.05
421.86	3330.58
422.05	3288.45
422.24	3407.82
422.43	3311.86
422.61	3215.90
422.80	3379.73
422.99	3337.60
423.18	3283.77
423.37	3531.87
423.56	3492.08
423.75	3332.92
423.94	3426.54
424.13	3124.62
424.32	3274.41
424.50	3463.99
424.69	3501.44
424.88	3370.37
425.07	3386.76
425.26	3454.63
425.45	3393.78
425.64	3501.44
425.83	3428.88
426.01	3431.23
426.20	3492.08
426.39	3489.74
426.58	3459.31
426.77	3454.63
426.96	3524.85
427.15	3468.67
427.33	3576.34
427.52	3604.42
427.71	3648.90
427.90	3571.66
428.09	3772.94
428.28	3721.45
428.46	3613.79
428.65	3723.79
428.84	3716.77
429.03	3761.24
429.22	3716.77
429.40	3791.67
429.59	3819.75
429.78	3583.36
429.97	3693.37
430.16	3810.39
430.34	3822.09
430.53	3983.59
430.72	3850.18
430.91	3894.65
431.10	3852.52
431.28	3899.33
431.47	4042.11
431.66	3864.22
431.85	3894.65
432.03	3960.19
432.22	4077.21
432.41	4060.83
432.60	3868.91
432.79	4060.83
432.97	4039.76
433.16	4016.36
433.35	3978.91
433.54	4142.75
433.72	4114.66
433.91	4222.33
434.10	4222.33
434.28	4117.00
434.47	4198.92
434.66	4201.26
434.85	4348.72
435.03	4203.60
435.22	4278.50
435.41	4447.02
435.59	4278.50
435.78	4383.82
435.97	4430.63
436.16	4477.44
436.34	4306.59
436.53	4505.53
436.72	4535.96
436.90	4421.27
437.09	4472.76
437.28	4395.53
437.46	4566.39
437.65	4552.34
437.84	4723.20
438.02	4533.62
438.21	4512.55
438.40	4674.05
438.58	4798.10
438.77	4784.06
438.96	4702.14
439.14	4865.97
439.33	4968.96
439.52	4945.55
439.70	4978.32
439.89	5121.09
440.08	4968.96
440.26	5102.37
440.45	5029.81
440.63	5203.01
440.82	5212.37
441.01	5097.69
441.19	5151.52
441.38	5191.31
441.57	5308.34
441.75	5291.95
441.94	5320.04
442.12	5266.21
442.31	5371.53
442.50	5369.19
442.68	5305.99
442.87	5418.34
443.05	5493.24
443.24	5584.52
443.43	5521.32
443.61	5516.64
443.80	5724.95
443.98	5537.71
444.17	5313.02
444.35	5614.95
444.54	5612.60
444.73	5551.75
444.91	5544.73
445.10	5544.73
445.28	5696.86
445.47	5516.64
445.65	5563.45
445.84	5628.99
446.02	5734.31
446.21	5898.15
446.39	5708.57
446.58	5851.34
446.77	5860.70
446.95	5603.24
447.14	5746.02
447.32	5879.43
447.51	5816.23
447.69	5650.05
447.88	5771.76
448.06	5827.93
448.25	5724.95
448.43	5797.51
448.62	5914.53
448.80	5832.62
448.99	5841.98
449.17	5879.43
449.36	5851.34
449.54	6085.39
449.73	6045.60
449.91	5912.19
450.10	6134.54
450.28	5987.09
450.46	6111.14
450.65	6179.01
450.83	6099.44
451.02	6061.99
451.20	6211.78
451.39	6083.05
451.57	6143.91
451.76	6094.76
451.94	6183.70
452.13	6314.77
452.31	6272.64
452.49	6331.15
452.68	6415.41
452.86	6392.00
453.05	6382.64
453.23	6326.47
453.42	6338.17
453.60	6523.07
453.78	6466.90
453.97	6338.17
454.15	6448.18
454.34	6546.48
454.52	6539.46
454.70	6560.52
454.89	6424.77
455.07	6541.80
455.26	6558.18
455.44	6698.61
455.62	6640.10
455.81	6808.62
455.99	6862.45
456.17	6810.96
456.36	6691.59
456.54	6750.10
456.73	6988.84
456.91	6857.77
457.09	7143.32
457.28	6979.48
457.46	6937.35
457.64	7075.44
457.83	6972.46
458.01	7026.29
458.19	7124.59
458.38	7042.67
458.56	7314.17
458.74	7124.59
458.93	7194.81
459.11	7220.55
459.29	7080.12
459.48	7211.19
459.66	7372.69
459.84	7421.84
460.03	7309.49
460.21	7449.93
460.39	7346.94
460.57	7293.11
460.76	7489.71
460.94	7573.97
461.12	7473.33
461.31	7569.29
461.49	7302.47
461.67	7508.44
461.85	7709.72
462.04	7702.70
462.22	7978.89
462.40	7648.87
462.59	7653.55
462.77	7679.30
462.95	7864.20
463.13	7714.41
463.32	7779.94
463.50	7786.96
463.68	7955.48
463.86	7967.18
464.05	7852.50
464.23	7911.01
464.41	7946.12
464.59	7868.88
464.78	8109.96
464.96	7826.75
465.14	7871.22
465.32	8049.10
465.50	7978.89
465.69	8203.58
465.87	8107.62
466.05	8255.07
466.23	8243.37
466.41	8182.51
466.60	8299.54
466.78	8105.28
466.96	8196.56
467.14	8121.66
467.32	8248.05
467.51	8336.99
467.69	8332.31
467.87	8365.07
468.05	8320.60
468.23	8222.30
468.41	8435.29
468.60	8484.44
468.78	8622.53
468.96	8400.18
469.14	8493.80
469.32	8585.08
469.50	8559.34
469.69	8791.05
469.87	8786.37
470.05	8926.80
470.23	8964.25
470.41	8896.38
470.59	8659.98
470.77	8741.90
470.95	8952.55
471.14	9109.36
471.32	8725.52
471.50	9048.51
471.68	9121.07
471.86	9158.52
472.04	9100.00
472.22	9320.01
472.40	9100.00
472.58	9327.03
472.77	9181.92
472.95	9338.74
473.13	9673.43
473.31	9137.45
473.49	9425.34
473.67	9460.45
473.85	9664.07
474.03	9783.44
474.21	9834.93
474.39	9827.91
474.57	9930.89
474.75	9792.80
474.93	9886.42
475.12	9895.78
475.30	10190.69
475.48	10251.55
475.66	10054.94
475.84	10097.07
476.02	10284.31
476.20	10317.08
476.38	10342.83
476.56	10499.64
476.74	10289.00
476.92	10413.04
477.10	10539.43
477.28	10775.83
477.46	10614.33
477.64	10799.23
477.82	11026.26
478.00	11307.13
478.18	10977.11
478.36	11206.48
478.54	11487.35
478.72	11318.83
478.90	11630.12
479.08	11756.51
479.26	11599.70
479.44	11838.43
479.62	11702.68
479.80	12138.02
479.98	11957.80
480.16	12088.87
480.34	12063.12
480.52	12304.20
480.70	12231.64
480.88	12116.95
481.06	12435.27
481.24	12442.29
481.41	12629.53
481.59	12449.31
481.77	12765.28
481.95	13022.74
482.13	13165.51
482.31	12781.67
482.49	13364.46
482.67	13343.39
482.85	13434.68
483.03	13493.19
483.21	13727.24
483.39	13781.07
483.57	13657.03
483.74	14129.81
483.92	14164.92
484.10	14181.31
484.28	14328.76
484.46	14312.38
484.64	14700.90
484.82	14291.31
485.00	14469.19
485.18	14843.68
485.35	15183.06
485.53	15110.50
485.71	15386.68
485.89	15384.34
486.07	15510.73
486.25	15117.52
486.43	15410.09
486.61	15922.66
486.78	15700.31
486.96	15875.85
487.14	16222.25
487.32	16140.33
487.50	16306.51
487.68	16383.75
487.85	16472.69
488.03	16730.15
488.21	16826.11
488.39	16975.91
488.57	17312.94
488.75	17008.67
488.92	17486.14
489.10	17474.44
489.28	17385.50
489.46	17769.35
489.64	17858.29
489.81	18359.16
489.99	18375.55
490.17	18436.40
490.35	18574.49
490.53	18530.02
490.70	18595.56
490.88	18707.90
491.06	18946.64
491.24	18677.48
491.41	19133.88
491.59	19012.17
491.77	18972.38
491.95	19295.38
492.13	19400.70
492.30	19655.82
492.48	19822.00
492.66	19941.36
492.84	19704.97
493.01	20306.49
493.19	20123.93
493.37	20531.18
493.54	20311.17
493.72	20676.29
493.90	20746.51
494.08	20814.38
494.25	20931.41
494.43	20732.47
494.61	20823.75
494.79	21397.18
494.96	21359.73
495.14	21579.74
495.32	21839.54
495.49	21884.01
495.67	21743.58
495.85	21874.65
496.02	21958.91
496.20	22073.59
496.38	22293.60
496.55	22242.11
496.73	22930.23
496.91	22387.22
497.09	22815.54
497.26	22766.39
497.44	23096.41
497.62	23248.54
497.79	23637.07
497.97	23311.74
498.14	23405.36
498.32	23742.39
498.50	23690.90
498.67	24196.46
498.85	23639.41
499.03	24070.07
499.20	23983.47
499.38	24287.74
499.56	24240.93
499.73	24620.10
499.91	24421.15
500.08	24741.80
500.26	24486.68
500.44	24545.20
500.61	25029.69
500.79	24692.65
500.97	25088.20
501.14	25575.03
501.32	25039.05
501.49	25373.75
501.67	25364.39
501.84	25495.46
502.02	25647.59
502.20	25790.36
502.37	25804.41
502.55	25757.60
502.72	25722.49
502.90	25923.77
503.07	25991.65
503.25	26115.70
503.43	25724.83
503.60	26396.56
503.78	26677.43
503.95	26438.69
504.13	26529.97
504.30	26497.20
504.48	26714.87
504.65	26724.24
504.83	26806.16
505.01	26773.39
505.18	27072.98
505.36	27393.63
505.53	27147.87
505.71	27234.47
505.88	27487.25
506.06	27019.14
506.23	27709.60
506.41	27683.86
506.58	27419.38
506.76	28126.22
506.93	28016.21
507.11	27702.58
507.28	27983.44
507.46	28048.98
507.63	28287.71
507.81	28217.50
507.98	28243.24
508.16	28563.90
508.33	28559.22
508.50	28664.54
508.68	28828.38
508.85	28912.64
509.03	28547.51
509.20	28978.17
509.38	29308.19
509.55	29460.32
509.73	29113.92
509.90	29289.46
510.08	29156.05
510.25	29654.59
510.42	29436.92
510.60	29820.77
510.77	29717.78
510.95	29933.11
511.12	29539.90
511.30	29958.86
511.47	30174.19
511.64	30150.78
511.82	30211.64
511.99	29921.41
512.17	30515.90
512.34	30185.89
512.51	30738.26
512.69	30859.96
512.86	30630.59
513.04	31065.93
513.21	30944.22
513.38	31030.82
513.56	30719.53
513.73	30848.26
513.90	30831.88
514.08	31222.75
514.25	31400.63
514.43	31660.43
514.60	31566.81
514.77	31552.76
514.95	31992.78
515.12	31585.53
515.29	31807.88
515.47	31845.33
515.64	32280.67
515.81	31718.94
515.99	32135.56
516.16	31999.80
516.33	32318.12
516.51	32231.52
516.68	32477.27
516.85	32465.57
517.03	32603.66
517.20	32828.35
517.37	32994.53
517.54	32783.88
517.72	32840.06
517.89	33156.03
518.06	32606.00
518.24	32966.45
518.41	32720.69
518.58	32762.82
518.75	33184.12
518.93	33724.78
519.10	33703.71
519.27	33813.72
519.45	33397.10
519.62	33621.80
519.79	33907.34
519.96	33357.32
520.14	33715.42
520.31	33724.78
520.48	34108.63
520.65	34190.55
520.83	34553.33
521.00	34506.52
521.17	34192.89
521.34	34211.61
521.52	34038.41
521.69	34394.17
521.86	34665.67
522.03	34766.32
522.20	34960.58
522.38	34941.86
522.55	35487.20
522.72	34700.78
522.89	34946.54
523.07	35732.96
523.24	35047.18
523.41	35477.84
523.58	35725.94
523.75	35763.39
523.92	36048.93
524.10	35529.33
524.27	35285.92
524.44	35536.35
524.61	35833.60
524.78	35819.56
524.96	35924.88
525.13	36421.08
525.30	35995.10
525.47	35915.52
525.64	35885.09
525.81	36287.67
525.98	36271.28
526.16	36287.67
526.33	35999.78
526.50	36554.49
526.67	36048.93
526.84	36446.82
527.01	36774.50
527.18	36818.97
527.36	37078.77
527.53	37521.13
527.70	37310.48
527.87	37127.92
528.04	37418.14
528.21	36982.80
528.38	36842.37
528.55	37305.80
528.72	36992.17
528.89	37062.38
529.07	37144.30
529.24	37109.19
529.41	37528.15
529.58	37762.20
529.75	37202.82
529.92	37560.92
530.09	37226.22
530.26	37862.85
530.43	37598.37
530.60	37340.91
530.77	37504.74
530.94	37820.72
531.11	37923.70
531.28	38136.69
531.46	37965.83
531.63	38094.56
531.80	37881.57
531.97	38232.65
532.14	38253.72
532.31	37785.61
532.48	38394.15
532.65	38724.16
532.82	38377.76
532.99	38382.45
533.16	38754.59
533.33	38822.47
533.50	38632.88
533.67	38623.52
533.84	38838.85
534.01	38972.26
534.18	38813.10
534.35	39075.24
534.52	38925.45
534.69	39590.16
534.86	39091.63
535.03	38972.26
535.20	39421.64
535.37	39292.91
535.54	39555.05
535.71	39236.74
535.88	39978.69
536.05	39571.44
536.22	40011.46
536.38	39812.51
536.55	39503.56
536.72	39213.34
536.89	39683.78
537.06	39959.97
537.23	40079.33
537.40	39526.97
537.57	39803.15
537.74	39955.29
537.91	40121.46
538.08	40109.76
538.25	39629.95
538.42	40367.22
538.59	40158.91
538.75	40350.84
538.92	40404.67
539.09	40676.17
539.26	40509.99
539.43	40662.13
539.60	40699.58
539.77	40142.53
539.94	40891.50
540.11	41043.63
540.28	40566.16
540.44	40629.36
540.61	40556.80
540.78	40774.47
540.95	40891.50
541.12	40910.22
541.29	40636.38
541.46	41113.85
541.62	40931.29
541.79	41383.01
541.96	40526.38
542.13	41102.15
542.30	41354.93
542.47	41493.02
542.63	41493.02
542.80	41902.61
542.97	41687.28
543.14	41759.84
543.31	41881.55
543.48	41521.10
543.64	42131.98
543.81	41996.23
543.98	41706.01
544.15	42038.36
544.32	42188.16
544.48	42368.38
544.65	41839.42
544.82	42684.35
544.99	42162.41
545.16	42157.73
545.32	42190.50
545.49	42574.34
545.66	42483.06
545.83	42216.24
546.00	42747.54
546.16	42625.84
546.33	42436.25
546.50	42733.50
546.67	42773.29
546.83	42548.60
547.00	42462.00
547.17	42897.34
547.34	43051.81
547.50	42988.62
547.67	43440.34
547.84	42897.34
548.00	42932.45
548.17	43426.30
548.34	43611.20
548.51	43311.61
548.67	42813.08
548.84	43285.87
549.01	43320.98
549.18	42990.96
549.34	43192.25
549.51	43578.43
549.68	43445.02
549.84	43395.87
550.01	43660.35
550.18	43360.76
550.34	43505.88
550.51	44002.07
550.68	43590.14
550.84	43278.85
551.01	43985.69
551.18	43590.14
551.34	43950.58
551.51	43838.23
551.68	44086.33
551.84	43976.33
552.01	43496.52
552.18	43995.05
552.34	43615.88
552.51	44161.23
552.68	43407.58
552.84	44240.81
553.01	44282.94
553.18	44308.68
553.34	44446.77
553.51	44280.60
553.67	43856.96
553.84	44638.70
554.01	44531.03
554.17	44442.09
554.34	44439.75
554.51	44210.38
554.67	44451.45
554.84	44903.18
555.00	44439.75
555.17	44776.79
555.33	44847.00
555.50	44364.85
555.67	44692.53
555.83	44491.24
556.00	44800.19
556.16	45528.10
556.33	44722.96
556.50	44910.20
556.66	44839.98
556.83	44931.26
556.99	45305.75
557.16	44996.80
557.32	45216.81
557.49	45230.85
557.65	45132.55
557.82	45275.32
557.98	45074.04
558.15	44938.29
558.32	45464.91
558.48	44825.94
558.65	45043.61
558.81	45141.91
558.98	45106.80
559.14	45020.20
559.31	45158.30
559.47	45521.08
559.64	45556.19
559.80	45546.82
559.97	45696.62
560.13	45303.41
560.30	45397.03
560.46	45848.75
560.63	45556.19
560.79	45504.70
560.96	45345.54
561.12	45242.56
561.29	45603.00
561.45	45928.33
561.61	45649.81
561.78	45425.12
561.94	45734.07
562.11	45492.99
562.27	45720.02
562.44	45757.47
562.60	45677.90
562.77	45654.49
562.93	45673.21
563.10	45963.44
563.26	45689.60
563.42	46164.73
563.59	46057.06
563.75	45668.53
563.92	45996.21
564.08	46078.13
564.24	45937.69
564.41	45869.82
564.57	46424.53
564.74	45851.09
564.90	46078.13
565.07	45998.55
565.23	46314.52
565.39	46204.52
565.56	46153.02
565.72	46003.23
565.88	46419.84
566.05	46129.62
566.21	46096.85
566.38	46485.38
566.54	46513.47
566.70	46293.46
566.87	45954.08
567.03	46380.06
567.19	46754.54
567.36	46387.08
567.52	46122.60
567.68	46696.03
567.85	46328.56
568.01	46815.40
568.17	46192.81
568.34	46799.01
568.50	46721.77
568.66	46366.01
568.83	46417.50
568.99	46286.43
569.15	46536.87
569.32	46256.01
569.48	46597.73
569.64	46857.52
569.81	46209.20
569.97	46768.58
570.13	46731.14
570.30	46295.80
570.46	46932.42
570.62	46244.30
570.78	46841.14
570.95	46660.92
571.11	47232.01
571.27	46653.90
571.43	46660.92
571.60	46958.17
571.76	46604.75
571.92	46546.23
572.09	46663.26
572.25	46995.62
572.41	46602.41
572.57	46663.26
572.74	47374.78
572.90	46742.84
573.06	46752.20
573.22	46843.48
573.38	46972.21
573.55	47042.43
573.71	47498.83
573.87	47100.94
574.03	46775.61
574.20	47407.55
574.36	47068.17
574.52	46810.71
574.68	47070.51
574.84	46997.96
575.01	47154.77
575.17	47068.17
575.33	47065.83
575.49	47058.81
575.65	47283.50
575.82	47239.03
575.98	46817.74
576.14	47318.61
576.30	47388.83
576.46	47346.70
576.62	47072.85
576.79	46969.87
576.95	46822.42
577.11	46478.36
577.27	47168.82
577.43	46822.42
577.59	46878.59
577.75	47182.86
577.92	46684.33
578.08	46667.94
578.24	46799.01
578.40	47412.23
578.56	47150.09
578.72	47042.43
578.88	47103.28
579.04	47065.83
579.21	47304.57
579.37	47143.07
579.53	47061.15
579.69	47271.80
579.85	47260.10
580.01	47056.47
580.17	46745.18
580.33	47213.29
580.49	47119.66
580.65	47370.10
580.82	46976.89
580.98	47089.24
581.14	47171.16
581.30	47070.51
581.46	47154.77
581.62	46902.00
581.78	47058.81
581.94	47173.50
582.10	47208.61
582.26	47262.44
582.42	47295.21
582.58	47374.78
582.74	46890.29
582.90	47334.99
583.06	46967.53
583.22	47236.69
583.38	47112.64
583.54	47407.55
583.70	47597.13
583.86	47255.42
584.02	47372.44
584.18	47433.30
584.34	47494.15
584.50	47775.02
584.66	47363.08
584.82	47508.19
584.98	47552.66
585.14	47430.96
585.30	47224.99
585.46	47503.51
585.62	47309.25
585.78	47136.05
585.94	47278.82
586.10	47217.97
586.26	47201.58
586.42	47421.59
586.58	47437.98
586.74	47150.09
586.90	47430.96
587.06	47178.18
587.22	47540.96
587.38	47604.16
587.54	47393.51
587.70	47800.76
587.86	47292.86
588.02	46813.05
588.18	47484.79
588.34	47508.19
588.49	47466.06
588.65	47150.09
588.81	47325.63
588.97	47529.26
589.13	47650.97
589.29	47346.70
589.45	47833.53
589.61	47779.70
589.77	47833.53
589.93	47269.46
590.08	48329.72
