SpectraSuite Data File
++++++++++++++++++++++++++++++++++++
Date: Fri Oct 25 10:43:24 EDT 2013
User: price-jones
Dark Spectrum Present: No
Reference Spectrum Present: No
Number of Sampled Component Spectra: 1
Spectrometers: USB2+H05261
Integration Time (usec): 100000 (USB2+H05261)
Spectra Averaged: 1 (USB2+H05261)
Boxcar Smoothing: 0 (USB2+H05261)
Correct for Electrical Dark: No (USB2+H05261)
Strobe/Lamp Enabled: No (USB2+H05261)
Correct for Detector Non-linearity: No (USB2+H05261)
Correct for Stray Light: No (USB2+H05261)
Number of Pixels in Processed Spectrum: 2048
>>>>>Begin Processed Spectral Data<<<<<
365.73	65.54
365.92	65.54
366.12	65.54
366.32	72.56
366.52	14.04
366.72	30.43
366.91	32.77
367.11	0.00
367.31	131.07
367.51	0.00
367.70	7.02
367.90	0.00
368.10	2.34
368.30	37.45
368.49	14.04
368.69	18.72
368.89	32.77
369.09	0.00
369.28	70.22
369.48	28.09
369.68	86.60
369.87	81.92
370.07	93.62
370.27	98.30
370.47	184.90
370.66	332.36
370.86	440.02
371.06	479.81
371.25	435.34
371.45	458.74
371.65	437.68
371.84	404.91
372.04	393.21
372.24	533.64
372.44	479.81
372.63	524.28
372.83	498.53
373.03	528.96
373.22	458.74
373.42	486.83
373.62	521.94
373.81	582.79
374.01	580.45
374.21	528.96
374.40	585.13
374.60	533.64
374.79	608.54
374.99	512.58
375.19	571.09
375.38	596.84
375.58	594.50
375.78	629.60
375.97	585.13
376.17	645.99
376.37	599.18
376.56	573.43
376.76	552.37
376.95	596.84
377.15	610.88
377.35	575.77
377.54	643.65
377.74	582.79
377.93	631.94
378.13	664.71
378.33	678.76
378.52	606.20
378.72	620.24
378.91	608.54
379.11	653.01
379.31	629.60
379.50	631.94
379.70	645.99
379.89	716.20
380.09	667.05
380.28	650.67
380.48	645.99
380.68	727.91
380.87	699.82
381.07	772.38
381.26	730.25
381.46	753.65
381.65	695.14
381.85	674.07
382.04	746.63
382.24	685.78
382.43	741.95
382.63	737.27
382.83	723.23
383.02	699.82
383.22	739.61
383.41	788.76
383.61	709.18
383.80	730.25
384.00	774.72
384.19	758.33
384.39	770.04
384.58	718.54
384.78	709.18
384.97	767.70
385.17	898.77
385.36	812.17
385.56	711.52
385.75	805.14
385.95	814.51
386.14	823.87
386.34	732.59
386.53	837.91
386.72	807.48
386.92	833.23
387.11	826.21
387.31	830.89
387.50	819.19
387.70	924.51
387.89	875.36
388.09	863.66
388.28	950.26
388.48	866.00
388.67	875.36
388.86	896.43
389.06	835.57
389.25	999.41
389.45	964.30
389.64	973.66
389.84	1004.09
390.03	933.87
390.22	938.55
390.42	1006.43
390.61	896.43
390.81	929.19
391.00	1018.13
391.19	999.41
391.39	1022.81
391.58	943.24
391.78	933.87
391.97	1102.39
392.16	1025.15
392.36	1097.71
392.55	987.71
392.75	983.02
392.94	954.94
393.13	1001.75
393.33	945.58
393.52	1064.94
393.71	1036.86
393.91	1121.12
394.10	1053.24
394.29	1123.46
394.49	1228.78
394.68	1139.84
394.88	1233.46
395.07	1179.63
395.26	1266.23
395.46	1184.31
395.65	1306.02
395.84	1228.78
396.04	1163.25
396.23	1177.29
396.42	1128.14
396.62	1074.31
396.81	1196.01
397.00	1179.63
397.19	1291.98
397.39	1329.42
397.58	1329.42
397.77	1303.68
397.97	1383.26
398.16	1390.28
398.35	1397.30
398.55	1453.47
398.74	1409.00
398.93	1455.81
399.12	1514.33
399.32	1418.36
399.51	1441.77
399.70	1453.47
399.90	1483.90
400.09	1493.26
400.28	1577.52
400.47	1446.45
400.67	1614.97
400.86	1540.07
401.05	1563.48
401.24	1577.52
401.44	1584.54
401.63	1603.27
401.82	1694.55
402.01	1717.95
402.21	1654.76
402.40	1736.68
402.59	1781.15
402.78	1696.89
402.97	1760.08
403.17	1750.72
403.36	1804.55
403.55	1769.44
403.74	1846.68
403.93	1888.81
404.13	1891.15
404.32	1792.85
404.51	1696.89
404.70	1792.85
404.89	1795.19
405.09	1961.37
405.28	2064.35
405.47	1839.66
405.66	1921.58
405.85	1902.86
406.05	1863.07
406.24	1975.41
406.43	2073.71
406.62	2080.74
406.81	2104.14
407.00	2132.23
407.20	2062.01
407.39	2036.27
407.58	2076.06
407.77	2129.89
407.96	2165.00
408.15	2162.66
408.34	2242.23
408.54	2193.08
408.73	2267.98
408.92	2200.10
409.11	2204.78
409.30	2331.17
409.49	2193.08
409.68	2256.28
409.87	2129.89
410.07	2277.34
410.26	2307.77
410.45	2340.54
410.64	2490.33
410.83	2382.67
411.02	2401.39
411.21	2450.54
411.40	2513.74
411.59	2555.86
411.78	2553.52
411.98	2558.21
412.17	2619.06
412.36	2656.51
412.55	2691.62
412.74	2663.53
412.93	2703.32
413.12	2691.62
413.31	2920.99
413.50	2747.79
413.69	2752.47
413.88	2848.43
414.07	2792.26
414.26	2815.66
414.45	2977.16
414.64	2930.35
414.83	2960.78
415.02	2909.29
415.22	2986.52
415.41	2981.84
415.60	3030.99
415.79	3112.91
415.98	3227.60
416.17	3145.68
416.36	3094.19
416.55	3110.57
416.74	3246.32
416.93	3204.19
417.12	3236.96
417.31	3274.41
417.50	3286.11
417.69	3445.27
417.88	3309.52
418.07	3351.65
418.26	3328.24
418.45	3478.04
418.64	3468.67
418.83	3574.00
419.02	3461.65
419.21	3531.87
419.39	3485.06
419.58	3531.87
419.77	3625.49
419.96	3581.02
420.15	3611.45
420.34	3637.19
420.53	3641.87
420.72	3882.95
420.91	3740.18
421.10	3840.82
421.29	3833.80
421.48	3786.99
421.67	3904.01
421.86	3700.39
422.05	3854.86
422.24	3679.32
422.43	3775.28
422.61	3784.65
422.80	3733.15
422.99	3730.81
423.18	3789.33
423.37	3953.16
423.56	3822.09
423.75	3957.85
423.94	3810.39
424.13	3482.72
424.32	3564.64
424.50	3829.12
424.69	4070.19
424.88	4098.28
425.07	3782.31
425.26	3920.40
425.45	3808.05
425.64	3805.71
425.83	3946.14
426.01	3887.63
426.20	3969.55
426.39	4021.04
426.58	3932.10
426.77	3899.33
426.96	3962.53
427.15	4011.68
427.33	4070.19
427.52	3829.12
427.71	4021.04
427.90	3997.64
428.09	4037.42
428.28	4053.81
428.46	4063.17
428.65	4166.15
428.84	4142.75
429.03	4355.74
429.22	3939.12
429.40	4142.75
429.59	4051.47
429.78	3843.16
429.97	3847.84
430.16	3847.84
430.34	4065.51
430.53	4128.70
430.72	4138.07
430.91	4081.89
431.10	4266.80
431.28	4465.74
431.47	4528.94
431.66	4542.98
431.85	4491.49
432.03	4531.28
432.22	4596.81
432.41	4484.47
432.60	4660.01
432.79	4615.54
432.97	4800.44
433.16	4737.24
433.35	4521.92
433.54	4411.91
433.72	4650.64
433.91	4617.88
434.10	4674.05
434.28	4566.39
434.47	4774.69
434.66	4650.64
434.85	4830.87
435.03	4777.03
435.22	4922.15
435.41	5027.47
435.59	4727.88
435.78	4908.10
435.97	5032.15
436.16	5006.41
436.34	5078.96
436.53	5064.92
436.72	5102.37
436.90	5041.51
437.09	5071.94
437.28	5020.45
437.46	5004.07
437.65	5004.07
437.84	5046.20
438.02	4961.94
438.21	5116.41
438.40	4856.61
438.58	5289.61
438.77	5217.05
438.96	5329.40
439.14	5495.58
439.33	5530.69
439.52	5664.10
439.70	5664.10
439.89	5572.82
440.08	5589.20
440.26	5680.48
440.45	5551.75
440.63	5628.99
440.82	5820.91
441.01	5757.72
441.19	5937.94
441.38	6003.47
441.57	6132.20
441.75	6167.31
441.94	6249.23
442.12	6059.65
442.31	6270.30
442.50	6162.63
442.68	6298.38
442.87	6270.30
443.05	6342.85
443.24	6228.17
443.43	6349.87
443.61	6300.72
443.80	6380.30
443.98	6298.38
444.17	6157.95
444.35	6408.39
444.54	6466.90
444.73	6422.43
444.91	6445.84
445.10	6450.52
445.28	6176.67
445.47	6310.08
445.65	6370.94
445.84	6455.20
446.02	6539.46
446.21	6221.14
446.39	6291.36
446.58	6595.63
446.77	6497.33
446.95	6401.37
447.14	6516.05
447.32	6757.13
447.51	6630.74
447.69	6588.61
447.88	6572.22
448.06	6691.59
448.25	6567.54
448.43	6487.96
448.62	6567.54
448.80	6499.67
448.99	6637.76
449.17	6855.43
449.36	6686.91
449.54	6813.30
449.73	6942.03
449.91	7140.97
450.10	7042.67
450.28	7019.27
450.46	7035.65
450.65	7157.36
450.83	7185.44
451.02	6923.30
451.20	7066.08
451.39	7112.89
451.57	7019.27
451.76	7028.63
451.94	7138.63
452.13	7183.10
452.31	7173.74
452.49	6970.12
452.68	7178.42
452.86	7199.49
453.05	7346.94
453.23	7232.26
453.42	7288.43
453.60	7293.11
453.78	7325.88
453.97	7258.00
454.15	7255.66
454.34	7368.01
454.52	7349.28
454.70	7358.64
454.89	7328.22
455.07	7349.28
455.26	7293.11
455.44	7625.47
455.62	7620.78
455.81	7768.24
455.99	7630.15
456.17	7723.77
456.36	7747.17
456.54	7808.03
456.73	8018.68
456.91	8128.68
457.09	7967.18
457.28	8046.76
457.46	7878.24
457.64	8067.83
457.83	8013.99
458.01	7798.66
458.19	8044.42
458.38	7960.16
458.56	8250.39
458.74	8056.12
458.93	8042.08
459.11	8138.04
459.29	8226.98
459.48	8149.75
459.66	8140.38
459.84	8152.09
460.03	8390.82
460.21	8374.44
460.39	8367.42
460.57	8622.53
460.76	8444.65
460.94	8344.01
461.12	8521.89
461.31	8489.12
461.49	8327.63
461.67	8589.77
461.85	8594.45
462.04	8678.71
462.22	8854.25
462.40	8697.43
462.59	8540.61
462.77	8587.43
462.95	8821.48
463.13	8807.44
463.32	8887.01
463.50	8856.59
463.68	8879.99
463.86	8997.02
464.05	8786.37
464.23	8856.59
464.41	8863.61
464.59	8802.75
464.78	9053.19
464.96	8959.57
465.14	9104.68
465.32	9083.62
465.50	9130.43
465.69	9095.32
465.87	9090.64
466.05	9029.79
466.23	8952.55
466.41	8994.68
466.60	9322.35
466.78	9167.88
466.96	9174.90
467.14	9228.73
467.32	9273.20
467.51	9291.93
467.69	8786.37
467.87	9289.59
468.05	9385.55
468.23	9249.80
468.41	9406.61
468.60	9408.95
468.78	9420.66
468.96	9432.36
469.14	9502.58
469.32	9598.54
469.50	9315.33
469.69	9657.05
469.87	9579.81
470.05	9568.11
470.23	9771.74
470.41	9703.86
470.59	9736.63
470.77	9668.75
470.95	9713.22
471.14	9848.97
471.32	9827.91
471.50	10225.80
471.68	10157.92
471.86	10150.90
472.04	10279.63
472.22	10420.06
472.40	10120.48
472.58	10139.20
472.77	10249.21
472.95	10707.95
473.13	10588.58
473.31	10391.98
473.49	10305.38
473.67	10583.90
473.85	10677.52
474.03	10958.39
474.21	10848.38
474.39	10890.51
474.57	10855.40
474.75	11122.23
474.93	11105.84
475.12	10881.15
475.30	11101.16
475.48	10853.06
475.66	11042.65
475.84	11026.26
476.02	11276.70
476.20	11300.11
476.38	11611.40
476.56	11520.12
476.74	11700.34
476.92	11447.56
477.10	11700.34
477.28	11805.66
477.46	11866.52
477.64	11901.62
477.82	12072.48
478.00	12453.99
478.18	12566.34
478.36	12273.77
478.54	12564.00
478.72	12601.44
478.90	12650.60
479.08	12961.89
479.26	12950.18
479.44	12816.77
479.62	13062.53
479.80	13137.43
479.98	12940.82
480.16	13397.23
480.34	13383.18
480.52	13535.32
480.70	13369.14
480.88	13696.82
481.06	13451.06
481.24	13708.52
481.41	14204.71
481.59	14057.26
481.77	14260.88
481.95	14284.29
482.13	14583.88
482.31	14195.35
482.49	14707.93
482.67	14602.60
482.85	14801.55
483.03	14871.76
483.21	14986.45
483.39	15178.37
483.57	15103.48
483.74	15414.77
483.92	15279.02
484.10	15288.38
484.28	15845.43
484.46	15969.48
484.64	16119.27
484.82	15831.38
485.00	16004.58
485.18	16070.12
485.35	16245.66
485.53	16088.84
485.71	16182.46
485.89	16079.48
486.07	16362.69
486.25	16372.05
486.43	16620.14
486.61	16781.64
486.78	16996.97
486.96	17142.08
487.14	17516.57
487.32	17284.86
487.50	18012.76
487.68	17841.90
487.85	18085.32
488.03	18038.51
488.21	18417.68
488.39	18389.59
488.57	18321.71
488.75	18410.65
488.92	18658.75
489.10	19126.86
489.28	18963.02
489.46	19545.81
489.64	19398.36
489.81	19609.01
489.99	19953.07
490.17	20210.53
490.35	20240.95
490.53	19838.38
490.70	20166.06
490.88	20379.04
491.06	20507.77
491.24	20624.80
491.41	20538.20
491.59	20470.33
491.77	20512.46
491.95	20755.87
492.13	21170.15
492.30	21336.32
492.48	21312.92
492.66	21296.53
492.84	21390.16
493.01	21607.83
493.19	21521.23
493.37	21898.05
493.54	21982.31
493.72	22066.57
493.90	21898.05
494.08	22712.56
494.25	22906.82
494.43	22946.61
494.61	22972.36
494.79	22885.76
494.96	23159.60
495.14	23082.36
495.32	23704.95
495.49	23173.64
495.67	23447.49
495.85	23431.10
496.02	23800.91
496.20	23751.76
496.38	23777.50
496.55	24322.85
496.73	24734.78
496.91	24896.28
497.09	24393.06
497.26	24613.07
497.44	24797.98
497.62	24563.92
497.79	24907.98
497.97	24952.45
498.14	24919.68
498.32	25359.70
498.50	25200.55
498.67	25696.74
498.85	26099.31
499.03	25783.34
499.20	25935.48
499.38	26031.44
499.56	26031.44
499.73	26125.06
499.91	26106.34
500.08	26469.12
500.26	26029.10
500.44	26246.77
500.61	26511.25
500.79	26389.54
500.97	26569.76
501.14	26792.11
501.32	26700.83
501.49	26590.83
501.67	26714.87
501.84	27208.73
502.02	27152.55
502.20	27152.55
502.37	27381.93
502.55	27585.55
502.72	27332.78
502.90	27831.31
503.07	27300.01
503.25	28180.05
503.43	27552.79
503.60	27733.01
503.78	27494.27
503.95	27608.96
504.13	28041.96
504.30	28126.22
504.48	28348.57
504.65	28170.69
504.83	28217.50
505.01	28641.14
505.18	28533.47
505.36	28727.74
505.53	28980.51
505.71	29450.96
505.88	29156.05
506.06	28882.21
506.23	29230.95
506.41	29127.97
506.58	29151.37
506.76	29610.12
506.93	29869.92
507.11	29755.23
507.28	29392.45
507.46	29839.49
507.63	29795.02
507.81	29626.50
507.98	29764.59
508.16	29708.42
508.33	29699.06
508.50	30239.72
508.68	29982.26
508.85	30576.76
509.03	30602.50
509.20	30611.87
509.38	31023.80
509.55	31026.14
509.73	31082.31
509.90	31119.76
510.08	31030.82
510.25	31405.31
510.42	31061.25
510.60	31576.17
510.77	31391.26
510.95	31793.84
511.12	31349.14
511.30	31524.68
511.47	32203.43
511.64	31742.35
511.82	31828.95
511.99	31763.41
512.17	32194.07
512.34	31920.23
512.51	32067.68
512.69	32219.81
512.86	32048.96
513.04	32072.36
513.21	32540.47
513.38	32561.53
513.56	32299.39
513.73	32357.91
513.90	32627.07
514.08	32545.15
514.25	32488.98
514.43	32919.63
514.60	32617.71
514.77	32957.08
514.95	33020.28
515.12	33118.58
515.29	33371.36
515.47	33228.59
515.64	33516.47
515.81	33652.22
515.99	33570.30
516.16	33692.01
516.33	33188.80
516.51	33420.51
516.68	32903.25
516.85	32856.44
517.03	33394.76
517.20	33369.02
517.37	33778.61
517.54	33914.36
517.72	33968.19
517.89	33626.48
518.06	33383.06
518.24	33776.27
518.41	33809.04
518.58	33883.94
518.75	34602.48
518.93	34415.24
519.10	34249.06
519.27	34754.61
519.45	34532.26
519.62	34724.19
519.79	35150.17
519.96	34958.24
520.14	35016.75
520.31	34778.02
520.48	35302.30
520.65	34803.77
520.83	35201.66
521.00	35606.57
521.17	35129.10
521.34	35903.82
521.52	35871.05
521.69	35531.67
521.86	35992.76
522.03	35915.52
522.20	36006.80
522.38	35849.99
522.55	36187.02
522.72	35964.67
522.89	36074.68
523.07	36844.71
523.24	36187.02
523.41	36699.60
523.58	36488.95
523.75	36818.97
523.92	36542.78
524.10	37137.28
524.27	36961.74
524.44	36905.57
524.61	36886.84
524.78	36903.23
524.96	36896.20
525.13	37090.47
525.30	37263.67
525.47	37675.60
525.64	37191.11
525.81	37127.92
525.98	37163.03
526.16	36940.68
526.33	36692.58
526.50	36840.03
526.67	36690.24
526.84	37088.13
527.01	37233.24
527.18	37467.30
527.36	37731.78
527.53	37797.31
527.70	38202.22
527.87	37900.29
528.04	37811.35
528.21	38071.15
528.38	37619.43
528.55	38572.03
528.72	38382.45
528.89	38721.82
529.07	38490.11
529.24	38185.84
529.41	38780.34
529.58	38227.97
529.75	38742.89
529.92	38305.21
530.09	38621.18
530.26	38888.00
530.43	38630.54
530.60	38522.88
530.77	38548.62
530.94	39072.90
531.11	38782.68
531.28	39063.54
531.46	38850.55
531.63	38932.47
531.80	38707.78
531.97	38906.73
532.14	38948.85
532.31	38527.56
532.48	39215.68
532.65	39215.68
532.82	39030.77
532.99	39892.09
533.16	39110.35
533.33	39021.41
533.50	39571.44
533.67	39421.64
533.84	39667.40
534.01	39580.80
534.18	39618.25
534.35	40032.52
534.52	39580.80
534.69	39817.19
534.86	39976.35
535.03	39498.88
535.20	40170.61
535.37	40456.16
535.54	40364.88
535.71	40552.12
535.88	40282.96
536.05	40217.43
536.22	40402.33
536.38	40381.26
536.55	40107.42
536.72	40399.99
536.89	40053.59
537.06	39927.20
537.23	40662.13
537.40	40577.87
537.57	40552.12
537.74	40772.13
537.91	41216.83
538.08	40584.89
538.25	40495.95
538.42	40687.87
538.59	40781.49
538.75	40488.93
538.92	40783.83
539.09	41090.44
539.26	40715.96
539.43	40858.73
539.60	40807.24
539.77	40348.50
539.94	41155.98
540.11	40840.01
540.28	41301.09
540.44	41172.36
540.61	41064.70
540.78	40711.28
540.95	41113.85
541.12	41095.13
541.29	41333.86
541.46	41329.18
541.62	41343.22
541.79	41940.06
541.96	41067.04
542.13	41336.20
542.30	41375.99
542.47	41612.38
542.63	41542.17
542.80	41783.24
542.97	42054.75
543.14	42164.75
543.31	41914.31
543.48	42277.10
543.64	42333.27
543.81	42560.30
543.98	42368.38
544.15	41907.29
544.32	42256.03
544.48	42787.33
544.65	42305.18
544.82	42520.51
544.99	42658.60
545.16	42279.44
545.32	42241.99
545.49	42679.67
545.66	42969.90
545.83	42632.86
546.00	43065.86
546.16	42831.80
546.33	42433.91
546.50	42199.86
546.67	42752.23
546.83	42569.66
547.00	42677.33
547.17	42815.42
547.34	42424.55
547.50	42880.95
547.67	43133.73
547.84	42735.84
548.00	42548.60
548.17	43646.31
548.34	43618.22
548.51	43831.21
548.67	43302.25
548.84	43051.81
549.01	43194.59
549.18	42859.89
549.34	43157.14
549.51	43613.54
549.68	43648.65
549.84	43421.62
550.01	43152.46
550.18	43384.17
550.34	43374.81
550.51	43447.36
550.68	43346.72
550.84	43028.41
551.01	43906.11
551.18	43215.65
551.34	43463.75
551.51	43643.97
551.68	43611.20
551.84	43538.65
552.01	43648.65
552.18	43981.01
552.34	43292.89
552.51	43775.04
552.68	43449.70
552.84	43753.97
553.01	44161.23
553.18	43966.96
553.34	43580.78
553.51	43948.24
553.67	44194.00
553.84	44315.70
554.01	44037.18
554.17	44175.27
554.34	44247.83
554.51	44364.85
554.67	44488.90
554.84	44411.67
555.00	44088.67
555.17	44336.77
555.33	43817.17
555.50	44505.29
555.67	44425.71
555.83	44095.69
556.00	44371.88
556.16	44495.92
556.33	44240.81
556.50	44458.48
556.66	44694.87
556.83	44308.68
556.99	44669.12
557.16	44638.70
557.32	44346.13
557.49	44737.00
557.65	44414.01
557.82	44559.12
557.98	44580.18
558.15	45013.18
558.32	44554.44
558.48	44444.43
558.65	44575.50
558.81	44584.86
558.98	44364.85
559.14	44399.96
559.31	44685.51
559.47	44706.57
559.64	44566.14
559.80	44790.83
559.97	44694.87
560.13	44652.74
560.30	44451.45
560.46	44807.22
560.63	45268.30
560.79	45340.86
560.96	44898.50
561.12	44903.18
561.29	44718.28
561.45	45146.59
561.61	44919.56
561.78	45043.61
561.94	44694.87
562.11	44526.35
562.27	44737.00
562.44	45193.40
562.60	45284.68
562.77	45024.89
562.93	45301.07
563.10	45301.07
563.26	44711.25
563.42	44994.46
563.59	44758.06
563.75	44935.95
563.92	45170.00
564.08	45071.70
564.24	45319.79
564.41	45067.02
564.57	44926.58
564.74	45090.42
564.90	45031.91
565.07	45535.12
565.23	45174.68
565.39	45071.70
565.56	45202.77
565.72	44561.46
565.88	45514.06
566.05	45088.08
566.21	45003.82
566.38	44954.67
566.54	44912.54
566.70	45200.43
566.87	45661.51
567.03	45497.67
567.19	45958.76
567.36	45652.15
567.52	45249.58
567.68	45610.02
567.85	45202.77
568.01	45619.38
568.17	45223.83
568.34	45312.77
568.50	45418.10
568.66	45282.34
568.83	45111.49
568.99	44893.82
569.15	45331.50
569.32	45312.77
569.48	45492.99
569.64	45265.96
569.81	45757.47
569.97	45303.41
570.13	44989.78
570.30	45338.52
570.46	44811.90
570.62	44809.56
570.78	44842.32
570.95	44631.68
571.11	45736.41
571.27	45329.16
571.43	45427.46
571.60	46012.59
571.76	45350.22
571.92	45982.16
572.09	45366.60
572.25	45687.26
572.41	45907.27
572.57	45467.25
572.74	46337.93
572.90	45249.58
573.06	45778.54
573.22	45324.47
573.38	45474.27
573.55	45109.14
573.71	45806.62
573.87	45729.39
574.03	45663.85
574.20	45677.90
574.36	45343.20
574.52	45329.16
574.68	45399.37
574.84	45380.65
575.01	45495.33
575.17	45539.80
575.33	45481.29
575.49	45610.02
575.65	45736.41
575.82	45097.44
575.98	45294.05
576.14	45916.63
576.30	45675.55
576.46	45045.95
576.62	45652.15
576.79	45970.46
576.95	45577.25
577.11	45722.37
577.27	45579.59
577.43	45717.68
577.59	45516.40
577.75	45584.27
577.92	45326.81
578.08	45483.63
578.24	45244.90
578.40	45448.52
578.56	45715.34
578.72	45628.74
578.88	45862.80
579.04	45762.15
579.21	45296.39
579.37	45052.97
579.53	45972.80
579.69	45563.21
579.85	45654.49
580.01	45787.90
580.17	45413.41
580.33	46078.13
580.49	45675.55
580.65	45799.60
580.82	45724.71
580.98	45565.55
581.14	45144.25
581.30	45366.60
581.46	45963.44
581.62	45713.00
581.78	45886.20
581.94	45673.21
582.10	45881.52
582.26	45996.21
582.42	45989.19
582.58	45724.71
582.74	45647.47
582.90	45794.92
583.06	45642.79
583.22	46127.28
583.38	45792.58
583.54	46199.83
583.70	45649.81
583.86	45635.77
584.02	45336.18
584.18	45890.88
584.34	45755.13
584.50	45607.68
584.66	45890.88
584.82	45750.45
584.98	46272.39
585.14	45696.62
585.30	45825.35
585.46	45886.20
585.62	45399.37
585.78	45673.21
585.94	45455.54
586.10	45347.88
586.26	45738.75
586.42	45778.54
586.58	46185.79
586.74	45610.02
586.90	45949.40
587.06	45595.98
587.22	46202.18
587.38	45532.78
587.54	45612.36
587.70	46103.87
587.86	45727.05
588.02	45745.77
588.18	46040.68
588.34	45844.07
588.49	45368.94
588.65	45193.40
588.81	45551.51
588.97	45036.59
589.13	45172.34
589.29	45427.46
589.45	45773.86
589.61	45500.01
589.77	45895.56
589.93	45841.73
590.08	45951.74
