SpectraSuite Data File
++++++++++++++++++++++++++++++++++++
Date: Fri Oct 25 10:43:33 EDT 2013
User: price-jones
Dark Spectrum Present: No
Reference Spectrum Present: No
Number of Sampled Component Spectra: 1
Spectrometers: USB2+H05261
Integration Time (usec): 100000 (USB2+H05261)
Spectra Averaged: 1 (USB2+H05261)
Boxcar Smoothing: 0 (USB2+H05261)
Correct for Electrical Dark: No (USB2+H05261)
Strobe/Lamp Enabled: No (USB2+H05261)
Correct for Detector Non-linearity: No (USB2+H05261)
Correct for Stray Light: No (USB2+H05261)
Number of Pixels in Processed Spectrum: 2048
>>>>>Begin Processed Spectral Data<<<<<
365.73	102.98
365.92	102.98
366.12	102.98
366.32	88.94
366.52	0.00
366.72	65.54
366.91	0.00
367.11	58.51
367.31	0.00
367.51	11.70
367.70	9.36
367.90	14.04
368.10	9.36
368.30	86.60
368.49	7.02
368.69	56.17
368.89	44.47
369.09	0.00
369.28	44.47
369.48	77.24
369.68	56.17
369.87	147.45
370.07	107.66
370.27	86.60
370.47	198.95
370.66	400.23
370.86	423.64
371.06	407.25
371.25	489.17
371.45	463.43
371.65	475.13
371.84	383.85
372.04	484.49
372.24	496.19
372.44	528.96
372.63	479.81
372.83	468.11
373.03	512.58
373.22	493.85
373.42	503.22
373.62	538.32
373.81	519.60
374.01	568.75
374.21	552.37
374.40	559.39
374.60	547.69
374.79	568.75
374.99	610.88
375.19	566.41
375.38	627.26
375.58	571.09
375.78	585.13
375.97	653.01
376.17	695.14
376.37	662.37
376.56	702.16
376.76	615.56
376.95	650.67
377.15	638.97
377.35	564.07
377.54	617.90
377.74	617.90
377.93	681.10
378.13	678.76
378.33	650.67
378.52	671.73
378.72	641.31
378.91	676.41
379.11	662.37
379.31	631.94
379.50	650.67
379.70	655.35
379.89	690.46
380.09	706.84
380.28	774.72
380.48	683.44
380.68	678.76
380.87	648.33
381.07	592.16
381.26	699.82
381.46	713.86
381.65	800.46
381.85	720.88
382.04	692.80
382.24	739.61
382.43	699.82
382.63	716.20
382.83	711.52
383.02	770.04
383.22	690.46
383.41	718.54
383.61	753.65
383.80	702.16
384.00	770.04
384.19	774.72
384.39	784.08
384.58	727.91
384.78	814.51
384.97	870.68
385.17	671.73
385.36	814.51
385.56	723.23
385.75	812.17
385.95	854.30
386.14	875.36
386.34	837.91
386.53	844.93
386.72	851.96
386.92	912.81
387.11	823.87
387.31	863.66
387.50	898.77
387.70	961.96
387.89	891.74
388.09	889.40
388.28	910.47
388.48	901.11
388.67	880.04
388.86	938.55
389.06	976.00
389.25	917.49
389.45	980.68
389.64	987.71
389.84	1036.86
390.03	990.05
390.22	978.34
390.42	1062.60
390.61	1018.13
390.81	1111.75
391.00	1053.24
391.19	1048.56
391.39	1018.13
391.58	1071.97
391.78	957.28
391.97	980.68
392.16	959.62
392.36	1121.12
392.55	1102.39
392.75	987.71
392.94	938.55
393.13	936.21
393.33	1036.86
393.52	1043.88
393.71	1104.73
393.91	1177.29
394.10	1184.31
394.29	1041.54
394.49	1235.80
394.68	1196.01
394.88	1188.99
395.07	1226.44
395.26	1247.51
395.46	1149.20
395.65	1331.76
395.84	1261.55
396.04	1221.76
396.23	1212.40
396.42	1104.73
396.62	1210.06
396.81	1240.48
397.00	1240.48
397.19	1345.81
397.39	1310.70
397.58	1242.82
397.77	1315.38
397.97	1455.81
398.16	1364.53
398.35	1549.43
398.55	1455.81
398.74	1490.92
398.93	1589.22
399.12	1416.02
399.32	1455.81
399.51	1483.90
399.70	1537.73
399.90	1624.33
400.09	1418.36
400.28	1596.25
400.47	1589.22
400.67	1682.85
400.86	1650.08
401.05	1727.32
401.24	1666.46
401.44	1771.79
401.63	1757.74
401.82	1710.93
402.01	1729.66
402.21	1734.34
402.40	1778.81
402.59	1734.34
402.78	1746.04
402.97	1710.93
403.17	1802.21
403.36	1682.85
403.55	1739.02
403.74	1860.73
403.93	1818.60
404.13	1944.99
404.32	1909.88
404.51	1907.54
404.70	1916.90
404.89	1877.11
405.09	1996.48
405.28	1963.71
405.47	1954.35
405.66	2010.52
405.85	2085.42
406.05	2003.50
406.24	1987.11
406.43	1944.99
406.62	2080.74
406.81	2111.16
407.00	2106.48
407.20	2001.16
407.39	2148.61
407.58	2174.36
407.77	2314.79
407.96	2256.28
408.15	2246.91
408.34	2279.68
408.54	2165.00
408.73	2223.51
408.92	2335.85
409.11	2345.22
409.30	2314.79
409.49	2333.51
409.68	2160.31
409.87	2279.68
410.07	2363.94
410.26	2375.64
410.45	2347.56
410.64	2576.93
410.83	2392.03
411.02	2511.39
411.21	2703.32
411.40	2537.14
411.59	2576.93
411.78	2642.46
411.98	2588.63
412.17	2724.38
412.36	2686.94
412.55	2605.02
412.74	2780.56
412.93	2686.94
413.12	2677.57
413.31	2839.07
413.50	2761.83
413.69	2902.26
413.88	2888.22
414.07	2942.05
414.26	3019.29
414.45	2911.63
414.64	2972.48
414.83	3166.74
415.02	3033.33
415.22	3105.89
415.41	3171.43
415.60	3218.24
415.79	3290.79
415.98	3290.79
416.17	3222.92
416.36	3197.17
416.55	3318.88
416.74	3361.01
416.93	3258.03
417.12	3398.46
417.31	3204.19
417.50	3302.50
417.69	3356.33
417.88	3489.74
418.07	3421.86
418.26	3487.40
418.45	3508.46
418.64	3592.72
418.83	3665.28
419.02	3606.77
419.21	3574.00
419.39	3588.04
419.58	3592.72
419.77	3592.72
419.96	3716.77
420.15	3740.18
420.34	3562.30
420.53	3819.75
420.72	3768.26
420.91	3777.62
421.10	3861.88
421.29	3782.31
421.48	3749.54
421.67	3946.14
421.86	3782.31
422.05	3885.29
422.24	3784.65
422.43	3798.69
422.61	3838.48
422.80	3861.88
422.99	3819.75
423.18	4002.32
423.37	3990.61
423.56	4032.74
423.75	3950.82
423.94	3889.97
424.13	3705.07
424.32	3688.68
424.50	4032.74
424.69	3995.29
424.88	4124.02
425.07	3957.85
425.26	3976.57
425.45	3836.14
425.64	3950.82
425.83	4095.94
426.01	4126.36
426.20	4025.72
426.39	3962.53
426.58	3932.10
426.77	3992.95
426.96	3978.91
427.15	3981.25
427.33	4210.62
427.52	4084.23
427.71	4161.47
427.90	4049.13
428.09	4131.05
428.28	4294.88
428.46	4119.34
428.65	4053.81
428.84	4182.54
429.03	4229.35
429.22	4030.40
429.40	4121.68
429.59	4126.36
429.78	3901.67
429.97	3911.04
430.16	4166.15
430.34	4051.47
430.53	4219.99
430.72	4329.99
430.91	4210.62
431.10	4386.16
431.28	4545.32
431.47	4685.75
431.66	4732.56
431.85	4505.53
432.03	4603.83
432.22	4692.77
432.41	4657.67
432.60	4727.88
432.79	4629.58
432.97	4784.06
433.16	4833.21
433.35	4727.88
433.54	4578.09
433.72	4849.59
433.91	4643.62
434.10	4779.37
434.28	4840.23
434.47	4847.25
434.66	4777.03
434.85	4793.42
435.03	4947.89
435.22	4983.00
435.41	5203.01
435.59	5050.88
435.78	5137.48
435.97	5076.62
436.16	5114.07
436.34	5186.63
436.53	5167.90
436.72	5345.78
436.90	5048.54
437.09	5233.44
437.28	5071.94
437.46	5181.95
437.65	5151.52
437.84	5165.56
438.02	5149.18
438.21	5109.39
438.40	5135.14
438.58	5537.71
438.77	5280.25
438.96	5467.49
439.14	5509.62
439.33	5666.44
439.52	5636.01
439.70	5727.29
439.89	5727.29
440.08	5640.69
440.26	5652.39
440.45	5809.21
440.63	5846.66
440.82	6129.86
441.01	5961.34
441.19	5951.98
441.38	6216.46
441.57	6090.07
441.75	6260.93
441.94	6293.70
442.12	6459.88
442.31	6319.45
442.50	6258.59
442.68	6370.94
442.87	6394.34
443.05	6282.00
443.24	6511.37
443.43	6539.46
443.61	6387.32
443.80	6626.06
443.98	6310.08
444.17	6167.31
444.35	6487.96
444.54	6607.33
444.73	6637.76
444.91	6396.68
445.10	6422.43
445.28	6459.88
445.47	6539.46
445.65	6464.56
445.84	6614.35
446.02	6684.57
446.21	6523.07
446.39	6637.76
446.58	6675.21
446.77	6658.82
446.95	6511.37
447.14	6663.51
447.32	6628.40
447.51	6619.04
447.69	6623.72
447.88	6640.10
448.06	6698.61
448.25	6684.57
448.43	6651.80
448.62	6649.46
448.80	6813.30
448.99	6759.47
449.17	6766.49
449.36	6902.24
449.54	7009.90
449.73	7239.28
449.91	7150.34
450.10	7157.36
450.28	7337.58
450.46	7255.66
450.65	7365.67
450.83	7112.89
451.02	7236.94
451.20	7220.55
451.39	7288.43
451.57	7197.15
451.76	7077.78
451.94	7342.26
452.13	7419.50
452.31	7283.75
452.49	7028.63
452.68	7213.53
452.86	7049.69
453.05	7218.21
453.23	7375.03
453.42	7346.94
453.60	7461.63
453.78	7527.16
453.97	7597.38
454.15	7372.69
454.34	7267.36
454.52	7529.50
454.70	7627.81
454.89	7489.71
455.07	7478.01
455.26	7805.69
455.44	7646.53
455.62	7573.97
455.81	7838.45
455.99	7810.37
456.17	7911.01
456.36	7782.28
456.54	7861.86
456.73	7948.46
456.91	8025.70
457.09	8079.53
457.28	8348.69
457.46	8093.57
457.64	8215.28
457.83	8039.74
458.01	7758.88
458.19	8332.31
458.38	7836.11
458.56	8362.73
458.74	8322.94
458.93	8145.06
459.11	8393.16
459.29	8409.54
459.48	8386.14
459.66	8404.86
459.84	8381.46
460.03	8561.68
460.21	8564.02
460.39	8524.23
460.57	8606.15
460.76	8568.70
460.94	8861.27
461.12	8652.96
461.31	8807.44
461.49	8875.31
461.67	8510.19
461.85	8872.97
462.04	8741.90
462.22	9476.83
462.40	9032.13
462.59	8791.05
462.77	8821.48
462.95	8821.48
463.13	8741.90
463.32	9041.49
463.50	8926.80
463.68	9013.40
463.86	9137.45
464.05	8777.01
464.23	8821.48
464.41	9055.53
464.59	8992.34
464.78	9135.11
464.96	9205.33
465.14	9123.41
465.32	9090.64
465.50	9310.65
465.69	9240.44
465.87	9343.42
466.05	9137.45
466.23	9179.58
466.41	9144.47
466.60	9390.23
466.78	9167.88
466.96	9383.21
467.14	9338.74
467.32	9439.38
467.51	9415.98
467.69	9174.90
467.87	9343.42
468.05	9439.38
468.23	9535.34
468.41	9423.00
468.60	9528.32
468.78	9628.96
468.96	9736.63
469.14	9715.56
469.32	9905.15
469.50	9715.56
469.69	9731.95
469.87	9771.74
470.05	9898.13
470.23	9937.91
470.41	9863.02
470.59	10146.22
470.77	9851.31
470.95	9984.73
471.14	10176.65
471.32	9914.51
471.50	10314.74
471.68	10216.44
471.86	10349.85
472.04	10310.06
472.22	10743.06
472.40	10246.87
472.58	10443.47
472.77	10483.26
472.95	10572.20
473.13	10712.63
473.31	10487.94
473.49	10511.35
473.67	10537.09
473.85	10602.63
474.03	11094.14
474.21	11042.65
474.39	10949.03
474.57	11052.01
474.75	11075.42
474.93	11201.80
475.12	11108.18
475.30	11091.80
475.48	11241.59
475.66	11215.85
475.84	11445.22
476.02	11407.77
476.20	11344.58
476.38	11449.90
476.56	11861.84
476.74	11932.05
476.92	11903.96
477.10	11571.61
477.28	12156.74
477.46	12025.67
477.64	12215.26
477.82	12461.01
478.00	12573.36
478.18	12559.31
478.36	12540.59
478.54	12641.23
478.72	12725.49
478.90	12683.36
479.08	13032.10
479.26	13355.10
479.44	13303.60
479.62	13322.33
479.80	13500.21
479.98	13476.80
480.16	13502.55
480.34	13446.38
480.52	13596.17
480.70	14003.43
480.88	13820.86
481.06	13921.51
481.24	13888.74
481.41	14143.86
481.59	14586.22
481.77	14462.17
481.95	14408.34
482.13	14560.47
482.31	14728.99
482.49	14878.79
482.67	14799.21
482.85	15061.35
483.03	15314.13
483.21	15250.93
483.39	15169.01
483.57	15475.62
483.74	15421.79
483.92	15775.21
484.10	15644.14
484.28	15775.21
484.46	16130.97
484.64	16659.93
484.82	16156.72
485.00	16273.74
485.18	16430.56
485.35	16559.29
485.53	16170.76
485.71	16285.45
485.89	16425.88
486.07	16311.19
486.25	16493.76
486.43	16905.69
486.61	16968.88
486.78	17151.45
486.96	17708.49
487.14	17628.92
487.32	17846.58
487.50	18204.69
487.68	18097.02
487.85	18504.28
488.03	18480.87
488.21	18457.46
488.39	18497.25
488.57	18600.24
488.75	19021.53
488.92	19033.24
489.10	19321.12
489.28	19604.33
489.46	19838.38
489.64	19798.59
489.81	20222.23
489.99	20116.90
490.17	20269.04
490.35	20582.67
490.53	20198.82
490.70	20599.05
490.88	20545.22
491.06	20929.07
491.24	20695.02
491.41	20477.35
491.59	20816.72
491.77	20847.15
491.95	20973.54
492.13	21317.60
492.30	21497.82
492.48	21766.98
492.66	21825.50
492.84	21834.86
493.01	21968.27
493.19	22195.30
493.37	22057.21
493.54	22724.26
493.72	22623.62
493.90	22445.74
494.08	22810.86
494.25	23136.20
494.43	22963.00
494.61	23407.70
494.79	23754.10
494.96	23463.87
495.14	23520.04
495.32	23377.27
495.49	23580.90
495.67	23857.08
495.85	24271.36
496.02	24074.75
496.20	24119.22
496.38	24418.81
496.55	24711.38
496.73	24884.58
496.91	24968.84
497.09	25041.39
497.26	25069.48
497.44	24936.07
497.62	25450.99
497.79	25685.04
497.97	25221.61
498.14	25549.29
498.32	25493.12
498.50	25872.28
498.67	26443.37
498.85	25855.90
499.03	26288.90
499.20	25989.31
499.38	26412.95
499.56	26600.19
499.73	26562.74
499.91	26574.44
500.08	26588.49
500.26	26298.26
500.44	26604.87
500.61	26909.14
500.79	26778.07
500.97	26499.55
501.14	27253.20
501.32	26972.33
501.49	27285.97
501.67	27346.82
501.84	27740.03
502.02	27122.13
502.20	27751.73
502.37	27498.95
502.55	27707.26
502.72	28023.23
502.90	28063.02
503.07	27922.59
503.25	28318.14
503.43	28030.26
503.60	27971.74
503.78	27936.63
503.95	27934.29
504.13	28643.48
504.30	28943.06
504.48	28788.59
504.65	29060.09
504.83	29067.11
505.01	29755.23
505.18	29050.73
505.36	29593.73
505.53	29813.74
505.71	29841.83
505.88	29668.63
506.06	29298.83
506.23	30169.51
506.41	29628.84
506.58	29947.15
506.76	29387.77
506.93	29649.91
507.11	30305.26
507.28	29919.07
507.46	29474.37
507.63	29862.90
507.81	30408.24
507.98	30162.48
508.16	30576.76
508.33	30272.49
508.50	30597.82
508.68	30635.27
508.85	30913.80
509.03	31089.34
509.20	31260.20
509.38	31779.79
509.55	31370.20
509.73	31381.90
509.90	31512.97
510.08	31400.63
510.25	31498.93
510.42	31749.37
510.60	31957.67
510.77	31363.18
510.95	31852.35
511.12	31812.56
511.30	32095.77
511.47	32301.73
511.64	32346.20
511.82	32531.11
511.99	32304.07
512.17	32369.61
512.34	32027.89
512.51	32809.63
512.69	32968.79
512.86	32755.80
513.04	33212.20
513.21	32760.48
513.38	32510.04
513.56	32964.10
513.73	32554.51
513.90	32917.29
514.08	32959.42
514.25	33273.06
514.43	33319.87
514.60	33064.75
514.77	33244.97
514.95	33193.48
515.12	33673.29
515.29	33418.17
515.47	34033.73
515.64	33883.94
515.81	33708.40
515.99	33867.55
516.16	33570.30
516.33	33333.91
516.51	33589.03
516.68	33404.13
516.85	33050.70
517.03	33495.41
517.20	33865.21
517.37	34146.08
517.54	34490.13
517.72	34438.64
517.89	34260.76
518.06	34066.50
518.24	34101.61
518.41	34546.31
518.58	34607.16
518.75	34766.32
518.93	34838.87
519.10	34696.10
519.27	34906.75
519.45	34873.98
519.62	35239.11
519.79	35431.03
519.96	35304.64
520.14	35849.99
520.31	35281.24
520.48	35599.55
520.65	35587.85
520.83	35990.42
521.00	35637.00
521.17	35594.87
521.34	35473.16
521.52	36072.34
521.69	36233.83
521.86	36430.44
522.03	36409.37
522.20	36259.58
522.38	36505.34
522.55	36397.67
522.72	36547.47
522.89	36098.08
523.07	36835.35
523.24	36573.21
523.41	36816.63
523.58	36706.62
523.75	37401.76
523.92	37219.20
524.10	36964.08
524.27	37076.43
524.44	36868.12
524.61	37787.95
524.78	36935.99
524.96	37345.59
525.13	37549.21
525.30	37574.96
525.47	38059.45
525.64	37621.77
525.81	37301.12
525.98	37488.36
526.16	37376.01
526.33	37352.61
526.50	37226.22
526.67	37380.70
526.84	37453.25
527.01	37617.09
527.18	37816.04
527.36	37956.47
527.53	38239.67
527.70	38508.83
527.87	38354.36
528.04	37729.44
528.21	38314.57
528.38	38286.48
528.55	39040.14
528.72	38696.08
528.89	39089.29
529.07	39016.73
529.24	38319.25
529.41	39124.40
529.58	38574.37
529.75	38852.89
529.92	39161.84
530.09	39222.70
530.26	39159.50
530.43	39257.81
530.60	39335.04
530.77	39218.02
530.94	39384.19
531.11	39210.99
531.28	39213.34
531.46	39711.87
531.63	39517.60
531.80	39405.26
531.97	39405.26
532.14	39379.51
532.31	39098.65
532.48	39512.92
532.65	39826.56
532.82	39512.92
532.99	39660.38
533.16	39793.79
533.33	39978.69
533.50	40219.77
533.67	40119.12
533.84	39831.24
534.01	40165.93
534.18	39981.03
534.35	40502.97
534.52	40432.75
534.69	40746.39
534.86	40505.31
535.03	40252.53
535.20	40460.84
535.37	41123.21
535.54	40561.48
535.71	40247.85
535.88	40453.82
536.05	40781.49
536.22	40877.46
536.38	40336.79
536.55	40886.82
536.72	40376.58
536.89	40645.74
537.06	40435.10
537.23	40842.35
537.40	41017.89
537.57	41188.75
537.74	41085.76
537.91	41256.62
538.08	41476.63
538.25	41212.15
538.42	41041.29
538.59	41633.45
538.75	41078.74
538.92	41244.92
539.09	41483.66
539.26	40914.90
539.43	41137.26
539.60	41443.87
539.77	41301.09
539.94	41420.46
540.11	41368.97
540.28	41474.29
540.44	41287.05
540.61	41509.40
540.78	41270.67
540.95	41631.11
541.12	41535.15
541.29	41666.22
541.46	41874.52
541.62	42068.79
541.79	42256.03
541.96	41862.82
542.13	41687.28
542.30	41846.44
542.47	41825.37
542.63	41715.37
542.80	42099.22
542.97	42398.80
543.14	42536.90
543.31	42452.64
543.48	42419.87
543.64	42962.87
543.81	42780.31
543.98	42923.08
544.15	42497.11
544.32	42831.80
544.48	43124.37
544.65	42651.58
544.82	43009.68
544.99	42600.09
545.16	42983.94
545.32	42436.25
545.49	43606.52
545.66	43250.76
545.83	43119.69
546.00	43019.05
546.16	43260.12
546.33	42873.93
546.50	43306.93
546.67	43405.23
546.83	42600.09
547.00	43056.50
547.17	43075.22
547.34	43079.90
547.50	43140.75
547.67	43543.33
547.84	43459.07
548.00	43929.51
548.17	43672.06
548.34	43325.66
548.51	44081.65
548.67	43622.90
548.84	43777.38
549.01	43636.95
549.18	44264.21
549.34	43679.08
549.51	43695.46
549.68	43943.56
549.84	43576.09
550.01	43611.20
550.18	43611.20
550.34	43964.62
550.51	43770.36
550.68	43746.95
550.84	43477.79
551.01	44086.33
551.18	43969.30
551.34	43959.94
551.51	44619.97
551.68	43892.07
551.84	44481.88
552.01	44294.64
552.18	44194.00
552.34	43929.51
552.51	44624.65
552.68	44521.67
552.84	44362.51
553.01	44657.42
553.18	44233.78
553.34	44612.95
553.51	44671.46
553.67	44694.87
553.84	44734.66
554.01	45137.23
554.17	44580.18
554.34	44795.51
554.51	45141.91
554.67	45076.38
554.84	44439.75
555.00	44615.29
555.17	44645.72
555.33	44891.48
555.50	44463.16
555.67	44790.83
555.83	44982.76
556.00	45006.16
556.16	45130.21
556.33	44495.92
556.50	44966.37
556.66	45249.58
556.83	44547.42
556.99	45457.88
557.16	44828.28
557.32	45102.12
557.49	45078.72
557.65	44802.53
557.82	44907.86
557.98	44957.01
558.15	44926.58
558.32	44842.32
558.48	44711.25
558.65	44989.78
558.81	44903.18
558.98	44734.66
559.14	44329.75
559.31	44811.90
559.47	44835.30
559.64	45546.82
559.80	45478.95
559.97	45504.70
560.13	45151.27
560.30	45251.92
560.46	45113.83
560.63	45495.33
560.79	45780.88
560.96	45324.47
561.12	45013.18
561.29	44968.71
561.45	45050.63
561.61	45507.04
561.78	45291.71
561.94	45116.17
562.11	45144.25
562.27	44917.22
562.44	45207.45
562.60	45446.18
562.77	45661.51
562.93	45553.85
563.10	45516.40
563.26	45296.39
563.42	45689.60
563.59	45624.06
563.75	45441.50
563.92	45722.37
564.08	45701.30
564.24	45485.97
564.41	45450.86
564.57	45811.31
564.74	45347.88
564.90	45172.34
565.07	45815.99
565.23	45808.96
565.39	45333.84
565.56	45268.30
565.72	45390.01
565.88	45984.51
566.05	45336.18
566.21	45598.32
566.38	45507.04
566.54	45902.59
566.70	45713.00
566.87	45944.72
567.03	45780.88
567.19	46319.20
567.36	45954.08
567.52	45497.67
567.68	46138.98
567.85	45670.87
568.01	46134.30
568.17	45574.91
568.34	45909.61
568.50	46003.23
568.66	45570.23
568.83	45715.34
568.99	45593.64
569.15	45244.90
569.32	45691.94
569.48	45404.05
569.64	45937.69
569.81	45865.14
569.97	45792.58
570.13	45825.35
570.30	45682.58
570.46	45453.20
570.62	45617.04
570.78	45172.34
570.95	45469.59
571.11	45848.75
571.27	45577.25
571.43	45394.69
571.60	45633.42
571.76	46047.70
571.92	45811.31
572.09	45722.37
572.25	45797.26
572.41	45989.19
572.57	45603.00
572.74	46387.08
572.90	45897.91
573.06	45624.06
573.22	46354.31
573.38	46089.83
573.55	46026.63
573.71	46241.96
573.87	46333.24
574.03	45516.40
574.20	46232.60
574.36	46017.27
574.52	46178.77
574.68	46267.71
574.84	45823.01
575.01	45649.81
575.17	46033.66
575.33	46000.89
575.49	45612.36
575.65	45982.16
575.82	45979.82
575.98	45666.19
576.14	46085.15
576.30	46099.19
576.46	45933.01
576.62	45815.99
576.79	45422.78
576.95	45815.99
577.11	45961.10
577.27	46246.65
577.43	45937.69
577.59	45691.94
577.75	46014.93
577.92	45869.82
578.08	45848.75
578.24	45918.97
578.40	46012.59
578.56	45975.14
578.72	46330.90
578.88	46279.41
579.04	45738.75
579.21	45911.95
579.37	45755.13
579.53	45954.08
579.69	45584.27
579.85	45881.52
580.01	46356.65
580.17	45930.67
580.33	45666.19
580.49	46014.93
580.65	46071.10
580.82	45958.76
580.98	45911.95
581.14	45469.59
581.30	46298.14
581.46	45794.92
581.62	45745.77
581.78	46045.36
581.94	46225.58
582.10	46340.27
582.26	45935.35
582.42	45909.61
582.58	45860.46
582.74	46354.31
582.90	46368.35
583.06	46094.51
583.22	46384.74
583.38	46239.62
583.54	46670.28
583.70	46131.96
583.86	45979.82
584.02	45998.55
584.18	46281.75
584.34	46483.04
584.50	46433.89
584.66	46155.36
584.82	45949.40
584.98	46078.13
585.14	46012.59
585.30	45879.18
585.46	45837.05
585.62	45815.99
585.78	45911.95
585.94	45277.66
586.10	46110.89
586.26	45970.46
586.42	46234.94
586.58	46541.55
586.74	46000.89
586.90	46110.89
587.06	46330.90
587.22	45825.35
587.38	45904.93
587.54	46361.33
587.70	46653.90
587.86	46176.43
588.02	45944.72
588.18	46602.41
588.34	45626.40
588.49	46003.23
588.65	45324.47
588.81	45432.14
588.97	45935.35
589.13	45528.10
589.29	45797.26
589.45	46209.20
589.61	46211.54
589.77	46108.55
589.93	46183.45
590.08	45996.21
