SpectraSuite Data File
++++++++++++++++++++++++++++++++++++
Date: Fri Oct 25 11:23:47 EDT 2013
User: price-jones
Dark Spectrum Present: No
Reference Spectrum Present: No
Number of Sampled Component Spectra: 1
Spectrometers: USB2+H05261
Integration Time (usec): 100000 (USB2+H05261)
Spectra Averaged: 1 (USB2+H05261)
Boxcar Smoothing: 0 (USB2+H05261)
Correct for Electrical Dark: No (USB2+H05261)
Strobe/Lamp Enabled: No (USB2+H05261)
Correct for Detector Non-linearity: No (USB2+H05261)
Correct for Stray Light: No (USB2+H05261)
Number of Pixels in Processed Spectrum: 2048
>>>>>Begin Processed Spectral Data<<<<<
365.73	259.80
365.92	259.80
366.12	259.80
366.32	133.41
366.52	70.22
366.72	107.66
366.91	131.07
367.11	63.19
367.31	142.77
367.51	173.20
367.70	168.52
367.90	140.43
368.10	100.64
368.30	72.56
368.49	138.09
368.69	140.43
368.89	159.16
369.09	189.58
369.28	145.11
369.48	201.29
369.68	114.69
369.87	191.92
370.07	215.33
370.27	243.42
370.47	257.46
370.66	596.84
370.86	615.56
371.06	648.33
371.25	678.76
371.45	578.11
371.65	641.31
371.84	645.99
372.04	767.70
372.24	669.39
372.44	746.63
372.63	816.85
372.83	669.39
373.03	748.97
373.22	725.57
373.42	781.74
373.62	833.23
373.81	779.40
374.01	739.61
374.21	784.08
374.40	851.96
374.60	835.57
374.79	837.91
374.99	751.31
375.19	858.98
375.38	903.45
375.58	887.06
375.78	847.27
375.97	866.00
376.17	875.36
376.37	800.46
376.56	844.93
376.76	912.81
376.95	837.91
377.15	894.08
377.35	837.91
377.54	901.11
377.74	795.78
377.93	898.77
378.13	877.70
378.33	976.00
378.52	943.24
378.72	912.81
378.91	950.26
379.11	873.02
379.31	957.28
379.50	1048.56
379.70	912.81
379.89	908.13
380.09	1050.90
380.28	1011.11
380.48	1062.60
380.68	973.66
380.87	931.53
381.07	976.00
381.26	1053.24
381.46	940.90
381.65	1011.11
381.85	1046.22
382.04	1062.60
382.24	1078.99
382.43	987.71
382.63	1057.92
382.83	971.32
383.02	1081.33
383.22	1097.71
383.41	1156.22
383.61	1114.10
383.80	1095.37
384.00	1078.99
384.19	1064.94
384.39	1130.48
384.58	1100.05
384.78	1191.33
384.97	1203.04
385.17	1172.61
385.36	1100.05
385.56	1149.20
385.75	1135.16
385.95	1137.50
386.14	1235.80
386.34	1200.69
386.53	1174.95
386.72	1261.55
386.92	1177.29
387.11	1263.89
387.31	1273.25
387.50	1310.70
387.70	1203.04
387.89	1306.02
388.09	1301.34
388.28	1320.06
388.48	1315.38
388.67	1289.64
388.86	1287.29
389.06	1270.91
389.25	1308.36
389.45	1364.53
389.64	1338.79
389.84	1383.26
390.03	1376.24
390.22	1366.87
390.42	1327.08
390.61	1390.28
390.81	1401.98
391.00	1352.83
391.19	1523.69
391.39	1483.90
391.58	1427.73
391.78	1521.35
391.97	1488.58
392.16	1509.65
392.36	1504.96
392.55	1516.67
392.75	1568.16
392.94	1526.03
393.13	1547.09
393.33	1511.99
393.52	1556.46
393.71	1586.88
393.91	1526.03
394.10	1547.09
394.29	1537.73
394.49	1593.90
394.68	1724.97
394.88	1687.53
395.07	1685.19
395.26	1732.00
395.46	1703.91
395.65	1692.21
395.84	1689.87
396.04	1727.32
396.23	1673.48
396.42	1872.43
396.62	1811.57
396.81	1748.38
397.00	1799.87
397.19	1856.04
397.39	1799.87
397.58	1825.62
397.77	1858.39
397.97	1823.28
398.16	1884.13
398.35	1891.15
398.55	1886.47
398.74	1886.47
398.93	1912.22
399.12	1956.69
399.32	1987.11
399.51	1994.14
399.70	1987.11
399.90	1870.09
400.09	2050.31
400.28	2038.61
400.47	2104.14
400.67	2073.71
400.86	2022.22
401.05	2099.46
401.24	2052.65
401.44	2059.67
401.63	2064.35
401.82	2211.81
402.01	2136.91
402.21	2118.18
402.40	2251.60
402.59	2174.36
402.78	2172.02
402.97	2246.91
403.17	2181.38
403.36	2345.22
403.55	2298.41
403.74	2410.75
403.93	2464.58
404.13	2490.33
404.32	2389.69
404.51	2352.24
404.70	2457.56
404.89	2347.56
405.09	2420.11
405.28	2495.01
405.47	2406.07
405.66	2513.74
405.85	2471.61
406.05	2396.71
406.24	2621.40
406.43	2562.89
406.62	2541.82
406.81	2665.87
407.00	2518.42
407.20	2661.19
407.39	2719.70
407.58	2733.75
407.77	2775.88
407.96	2803.96
408.15	2869.50
408.34	2855.45
408.54	2806.30
408.73	2825.03
408.92	2885.88
409.11	3012.27
409.30	2871.84
409.49	2864.82
409.68	2923.33
409.87	2970.14
410.07	3023.97
410.26	3061.42
410.45	2960.78
410.64	3068.44
410.83	3105.89
411.02	3112.91
411.21	3126.96
411.40	3012.27
411.59	3302.50
411.78	3208.87
411.98	3192.49
412.17	3211.22
412.36	3286.11
412.55	3344.63
412.74	3410.16
412.93	3407.82
413.12	3398.46
413.31	3475.70
413.50	3534.21
413.69	3581.02
413.88	3609.11
414.07	3604.42
414.26	3693.37
414.45	3669.96
414.64	3702.73
414.83	3843.16
415.02	3861.88
415.22	3840.82
415.41	3728.47
415.60	3969.55
415.79	3988.27
415.98	4065.51
416.17	3995.29
416.36	4044.45
416.55	4018.70
416.74	4217.65
416.93	3983.59
417.12	4124.02
417.31	4198.92
417.50	4187.22
417.69	4210.62
417.88	4264.46
418.07	4212.96
418.26	4320.63
418.45	4362.76
418.64	4615.54
418.83	4484.47
419.02	4400.21
419.21	4552.34
419.39	4507.87
419.58	4528.94
419.77	4510.21
419.96	4608.51
420.15	4685.75
420.34	4613.20
420.53	4739.58
420.72	4709.16
420.91	4617.88
421.10	4840.23
421.29	4814.48
421.48	4727.88
421.67	4753.63
421.86	4933.85
422.05	4861.29
422.24	4884.70
422.43	4873.00
422.61	4894.06
422.80	4929.17
422.99	4833.21
423.18	4997.04
423.37	4980.66
423.56	4992.36
423.75	4898.74
423.94	4814.48
424.13	4732.56
424.32	4816.82
424.50	4973.64
424.69	5142.16
424.88	5203.01
425.07	5048.54
425.26	4865.97
425.45	4990.02
425.64	5050.88
425.83	5067.26
426.01	5111.73
426.20	5027.47
426.39	5144.50
426.58	5102.37
426.77	5078.96
426.96	5078.96
427.15	5109.39
427.33	5210.03
427.52	5139.82
427.71	5313.02
427.90	5303.65
428.09	5378.55
428.28	5266.21
428.46	5416.00
428.65	5362.17
428.84	5547.07
429.03	5593.88
429.22	5420.68
429.40	5481.53
429.59	5486.22
429.78	5397.28
429.97	5481.53
430.16	5458.13
430.34	5610.26
430.53	5589.20
430.72	5657.07
430.91	5657.07
431.10	5551.75
431.28	5785.80
431.47	5919.21
431.66	6054.97
431.85	5764.74
432.03	5849.00
432.22	6010.50
432.41	5771.76
432.60	6003.47
432.79	5865.38
432.97	6122.84
433.16	6031.56
433.35	5966.03
433.54	6026.88
433.72	6183.70
433.91	6010.50
434.10	6225.82
434.28	6216.46
434.47	6300.72
434.66	6167.31
434.85	6242.21
435.03	6328.81
435.22	6321.79
435.41	6544.14
435.59	6370.94
435.78	6579.25
435.97	6368.60
436.16	6382.64
436.34	6406.05
436.53	6679.89
436.72	6710.32
436.90	6661.16
437.09	6686.91
437.28	6420.09
437.46	6455.20
437.65	6794.58
437.84	6787.55
438.02	6736.06
438.21	6820.32
438.40	6672.87
438.58	7080.12
438.77	7077.78
438.96	6864.79
439.14	7098.84
439.33	7297.79
439.52	7166.72
439.70	7414.82
439.89	7391.41
440.08	7382.05
440.26	7442.90
440.45	7377.37
440.63	7368.01
440.82	7707.38
441.01	7576.31
441.19	7705.04
441.38	7709.72
441.57	7784.62
441.75	7948.46
441.94	8121.66
442.12	8035.06
442.31	8028.04
442.50	8116.98
442.68	8098.25
442.87	8147.40
443.05	8255.07
443.24	8217.62
443.43	8187.19
443.61	8299.54
443.80	8395.50
443.98	8180.17
444.17	7871.22
444.35	8161.45
444.54	8397.84
444.73	8526.57
444.91	8416.57
445.10	8205.92
445.28	8409.54
445.47	8229.32
445.65	8241.03
445.84	8423.59
446.02	8465.72
446.21	8344.01
446.39	8266.77
446.58	8428.27
446.77	8416.57
446.95	8362.73
447.14	8423.59
447.32	8652.96
447.51	8610.83
447.69	8341.67
447.88	8603.81
448.06	8627.21
448.25	8557.00
448.43	8519.55
448.62	8575.72
448.80	8533.59
448.99	8678.71
449.17	8685.73
449.36	8564.02
449.54	9083.62
449.73	8994.68
449.91	9156.18
450.10	8999.36
450.28	9121.07
450.46	9210.01
450.65	9142.13
450.83	9167.88
451.02	8992.34
451.20	9179.58
451.39	9139.79
451.57	9074.26
451.76	9060.21
451.94	9224.05
452.13	9350.44
452.31	9373.85
452.49	9184.26
452.68	9469.81
452.86	9336.40
453.05	9516.62
453.23	9481.51
453.42	9296.61
453.60	9533.00
453.78	9525.98
453.97	9612.58
454.15	9376.19
454.34	9549.39
454.52	9647.69
454.70	9860.68
454.89	9977.70
455.07	9652.37
455.26	9731.95
455.44	9902.81
455.62	10045.58
455.81	9874.72
455.99	10104.09
456.17	10064.30
456.36	10008.13
456.54	10167.29
456.73	10415.38
456.91	10445.81
457.09	10541.77
457.28	10677.52
457.46	10279.63
457.64	10682.20
457.83	10665.82
458.01	10441.13
458.19	10789.87
458.38	10516.03
458.56	10867.11
458.74	10843.70
458.93	10902.22
459.11	10553.48
459.29	10820.30
459.48	10899.87
459.66	10920.94
459.84	10906.90
460.03	11147.97
460.21	10998.18
460.39	10878.81
460.57	11131.59
460.76	11162.01
460.94	11293.08
461.12	11178.40
461.31	11087.12
461.49	11054.35
461.67	11283.72
461.85	11639.48
462.04	11346.92
462.22	11543.52
462.40	11709.70
462.59	11573.95
462.77	11623.10
462.95	11606.72
463.13	11667.57
463.32	11702.68
463.50	12004.61
463.68	11733.11
463.86	11971.84
464.05	11735.45
464.23	11768.21
464.41	12035.03
464.59	11829.07
464.78	12156.74
464.96	12201.21
465.14	11922.69
465.32	12266.75
465.50	12004.61
465.69	12383.77
465.87	12159.08
466.05	12060.78
466.23	12079.50
466.41	12458.67
466.60	12524.21
466.78	12217.60
466.96	12423.56
467.14	12224.62
467.32	12348.67
467.51	12386.12
467.69	12133.34
467.87	12535.91
468.05	12765.28
468.23	12397.82
468.41	12503.14
468.60	12910.40
468.78	12882.31
468.96	12624.85
469.14	12884.65
469.32	13231.05
469.50	12706.77
469.69	13111.68
469.87	13252.11
470.05	13097.64
470.23	13345.73
470.41	13291.90
470.59	13390.20
470.77	13277.86
470.95	13476.80
471.14	13650.00
471.32	13191.26
471.50	13640.64
471.68	13572.77
471.86	13935.55
472.04	13626.60
472.22	14286.63
472.40	13844.27
472.58	13919.17
472.77	14001.08
472.95	14174.28
473.13	14635.37
473.31	13930.87
473.49	14164.92
473.67	14422.38
473.85	14342.80
474.03	14724.31
474.21	14581.54
474.39	14703.25
474.57	14712.61
474.75	14991.13
474.93	14944.32
475.12	15246.25
475.30	15562.22
475.48	15234.55
475.66	15138.58
475.84	15365.62
476.02	15545.84
476.20	15454.56
476.38	15815.00
476.56	15723.72
476.74	16046.71
476.92	15967.13
477.10	15859.47
477.28	16245.66
477.46	16219.91
477.64	16545.25
477.82	16601.42
478.00	17149.11
478.18	16915.05
478.36	17090.59
478.54	17289.54
478.72	17130.38
478.90	17448.69
479.08	17675.73
479.26	17685.09
479.44	17788.07
479.62	18017.44
479.80	18352.14
479.98	18478.53
480.16	18604.92
480.34	18508.96
480.52	18654.07
480.70	18609.60
480.88	18225.75
481.06	18874.08
481.24	19056.64
481.41	19611.35
481.59	19697.95
481.77	19681.56
481.95	19501.34
482.13	19924.98
482.31	19751.78
482.49	20393.09
482.67	20425.86
482.85	20535.86
483.03	20549.90
483.21	20535.86
483.39	21151.42
483.57	20856.51
483.74	21303.56
483.92	21582.08
484.10	21350.37
484.28	21984.65
484.46	22008.06
484.64	22054.87
484.82	22455.10
485.00	22478.50
485.18	23014.49
485.35	23009.81
485.53	22616.60
485.71	23009.81
485.89	23793.89
486.07	22972.36
486.25	23381.95
486.43	23498.98
486.61	24105.18
486.78	24023.26
486.96	24486.68
487.14	24570.94
487.32	24573.28
487.50	25006.28
487.68	25458.01
487.85	24912.66
488.03	25291.83
488.21	26045.48
488.39	26134.42
488.57	26611.89
488.75	26700.83
488.92	26581.46
489.10	27033.19
489.28	26934.88
489.46	26951.27
489.64	26984.04
489.81	27611.30
489.99	27747.05
490.17	27854.72
490.35	28048.98
490.53	28435.17
490.70	28524.11
490.88	28304.10
491.06	29261.38
491.24	29184.14
491.41	29125.63
491.59	29434.58
491.77	29256.70
491.95	29713.10
492.13	29841.83
492.30	29792.68
492.48	30216.32
492.66	30405.90
492.84	30838.90
493.01	30965.29
493.19	30972.31
493.37	31143.17
493.54	31344.45
493.72	31740.00
493.90	31702.56
494.08	32261.94
494.25	32046.62
494.43	32173.00
494.61	31894.48
494.79	32655.15
494.96	32692.60
495.14	32865.80
495.32	33195.82
495.49	33418.17
495.67	33415.83
495.85	33752.87
496.02	34239.70
496.20	34108.63
496.38	34462.05
496.55	34031.39
496.73	35201.66
496.91	34642.27
497.09	35234.42
497.26	35470.82
497.44	34857.60
497.62	35510.61
497.79	35990.42
497.97	35871.05
498.14	36144.89
498.32	36416.40
498.50	36463.21
498.67	36629.38
498.85	36683.22
499.03	37038.98
499.20	37411.12
499.38	37022.59
499.56	36851.73
499.73	37759.86
499.91	37535.17
500.08	37979.87
500.26	38026.68
500.44	37867.53
500.61	38223.29
500.79	38047.75
500.97	38225.63
501.14	38394.15
501.32	38693.74
501.49	39044.82
501.67	38911.41
501.84	39414.62
502.02	39363.13
502.20	39391.22
502.37	39510.58
502.55	39264.83
502.72	39995.07
502.90	39964.65
503.07	39541.01
503.25	40271.26
503.43	39882.73
503.60	40692.55
503.78	40105.08
503.95	40182.32
504.13	40858.73
504.30	40840.01
504.48	40652.76
504.65	40968.74
504.83	41598.34
505.01	41558.55
505.18	41284.71
505.36	41823.03
505.53	41766.86
505.71	41823.03
505.88	42047.72
506.06	42073.47
506.23	42185.82
506.41	42029.00
506.58	42213.90
506.76	42298.16
506.93	42670.31
507.11	42665.63
507.28	42960.53
507.46	43049.47
507.63	43047.13
507.81	43180.54
507.98	43058.84
508.16	43105.65
508.33	43749.29
508.50	43512.90
508.68	43948.24
508.85	44098.03
509.03	44032.50
509.20	44074.63
509.38	44554.44
509.55	44938.29
509.73	44961.69
509.90	45008.50
510.08	44561.46
510.25	44769.77
510.42	45067.02
510.60	45476.61
510.77	45495.33
510.95	45649.81
511.12	45507.04
511.30	45275.32
511.47	45579.59
511.64	45989.19
511.82	46150.68
511.99	45855.78
512.17	46162.39
512.34	45748.11
512.51	46581.34
512.69	46469.00
512.86	46630.49
513.04	46630.49
513.21	46747.52
513.38	47114.98
513.56	47295.21
513.73	46958.17
513.90	47051.79
514.08	47119.66
514.25	47639.26
514.43	47695.44
514.60	48044.18
514.77	47753.95
514.95	47969.28
515.12	47959.92
515.29	47606.50
515.47	48280.57
515.64	48215.04
515.81	48392.92
515.99	48692.50
516.16	48573.14
516.33	48481.86
516.51	49153.59
516.68	48971.03
516.85	49022.52
517.03	49064.65
517.20	49418.07
517.37	48823.58
517.54	49102.10
517.72	48875.07
517.89	49200.40
518.06	49406.37
518.24	49200.40
518.41	49427.43
518.58	49928.31
518.75	49703.62
518.93	50099.17
519.10	49439.14
519.27	49621.70
519.45	50113.21
519.62	50138.96
519.79	50082.78
519.96	50436.20
520.14	50209.17
520.31	50255.98
520.48	50672.60
520.65	50447.91
520.83	50953.46
521.00	50714.73
521.17	50768.56
521.34	51077.51
521.52	51166.45
521.69	50944.10
521.86	51061.13
522.03	51746.90
522.20	51676.69
522.38	51697.75
522.55	51594.77
522.72	51386.46
522.89	51508.17
523.07	51959.89
523.24	51784.35
523.41	51627.54
523.58	51711.80
523.75	51948.19
523.92	51980.96
524.10	52156.50
524.27	52205.65
524.44	51952.87
524.61	52123.73
524.78	52243.10
524.96	52268.84
525.13	52629.29
525.30	52640.99
525.47	52636.31
525.64	52694.82
525.81	52973.34
525.98	53048.24
526.16	52673.76
526.33	52856.32
526.50	53359.53
526.67	53085.69
526.84	52846.96
527.01	52736.95
527.18	53375.92
527.36	53130.16
527.53	53066.97
527.70	53600.61
527.87	53609.97
528.04	53462.52
528.21	53581.88
528.38	53483.58
528.55	53528.05
528.72	53439.11
528.89	53551.46
529.07	53525.71
529.24	53460.18
529.41	53785.51
529.58	53602.95
529.75	53696.57
529.92	53949.35
530.09	54277.02
530.26	54099.14
530.43	54040.63
530.60	53790.19
530.77	53928.28
530.94	54330.86
531.11	54141.27
531.28	54307.45
531.46	54316.81
531.63	54618.74
531.80	54440.86
531.97	54454.90
532.14	54988.55
532.31	54684.28
532.48	54745.13
532.65	54805.98
532.82	54794.28
532.99	55016.63
533.16	54878.54
533.33	55040.04
533.50	55208.56
533.67	55056.42
533.84	54810.67
534.01	54906.63
534.18	54993.23
534.35	55370.05
534.52	55334.95
534.69	55344.31
534.86	55313.88
535.03	55234.30
535.20	55248.35
535.37	55402.82
535.54	55660.28
535.71	55398.14
535.88	55503.46
536.05	55657.94
536.22	55629.85
536.38	55847.52
536.55	55964.55
536.72	55519.85
536.89	55880.29
537.06	55863.91
537.23	56126.05
537.40	55707.09
537.57	55856.88
537.74	55767.94
537.91	56172.86
538.08	55987.95
538.25	55913.06
538.42	56076.90
538.59	56477.13
538.75	56060.51
538.92	56214.99
539.09	56254.78
539.26	56257.12
539.43	56388.19
539.60	56442.02
539.77	56500.53
539.94	56575.43
540.11	56636.28
540.28	56722.88
540.44	56643.30
540.61	56528.62
540.78	56671.39
540.95	56545.00
541.12	56594.15
541.29	56505.21
541.46	56516.92
541.62	56760.33
541.79	56853.95
541.96	56589.47
542.13	56720.54
542.30	56928.85
542.47	56837.57
542.63	57125.46
542.80	57085.67
542.97	57127.80
543.14	57315.04
543.31	57303.34
543.48	57247.16
543.64	57399.30
543.81	57324.40
543.98	57616.97
544.15	57448.45
544.32	57752.72
544.48	57717.61
544.65	57286.95
544.82	57666.12
544.99	57392.28
545.16	57542.07
545.32	57598.24
545.49	57855.70
545.66	57771.44
545.83	57645.05
546.00	57862.72
546.16	57794.85
546.33	57888.47
546.50	57549.09
546.67	57851.02
546.83	57623.99
547.00	57895.49
547.17	57726.97
547.34	58106.14
547.50	58241.89
547.67	58251.25
547.84	58108.48
548.00	58262.96
548.17	58412.75
548.34	58157.63
548.51	58464.24
548.67	58464.24
548.84	58492.33
549.01	58302.74
549.18	58195.08
549.34	58358.92
549.51	58342.53
549.68	58595.31
549.84	58377.64
550.01	58609.35
550.18	58546.16
550.34	58543.82
550.51	58702.98
550.68	58560.20
550.84	58368.28
551.01	58838.73
551.18	58492.33
551.34	58714.68
551.51	58674.89
551.68	58705.32
551.84	58595.31
552.01	58602.33
552.18	58759.15
552.34	58702.98
552.51	58710.00
552.68	58817.66
552.84	58803.62
553.01	58951.07
553.18	59040.01
553.34	58843.41
553.51	58897.24
553.67	59042.35
553.84	58969.80
554.01	59187.47
554.17	59077.46
554.34	59117.25
554.51	59105.55
554.67	59143.00
554.84	59082.14
555.00	59114.91
555.17	59138.32
555.33	59168.74
555.50	59138.32
555.67	59164.06
555.83	59288.11
556.00	59121.93
556.16	59391.09
556.33	59442.59
556.50	59388.75
556.66	59456.63
556.83	59325.56
556.99	59559.61
557.16	59620.47
557.32	59533.87
557.49	59728.13
557.65	59536.21
557.82	59487.06
557.98	59358.33
558.15	59526.84
558.32	59711.75
558.48	59477.69
558.65	59592.38
558.81	59398.12
558.98	59707.07
559.14	59749.20
559.31	59543.23
559.47	60069.85
559.64	59973.89
559.80	59973.89
559.97	59973.89
560.13	59709.41
560.30	59833.46
560.46	59641.53
560.63	59842.82
560.79	59859.20
560.96	59994.95
561.12	60119.00
561.29	59896.65
561.45	59978.57
561.61	59856.86
561.78	60062.83
561.94	59840.48
562.11	60292.20
562.27	60163.47
562.44	60123.68
562.60	60023.04
562.77	60090.91
562.93	59999.63
563.10	60163.47
563.26	59934.10
563.42	60449.02
563.59	60252.41
563.75	60100.28
563.92	60020.70
564.08	60158.79
564.24	60247.73
564.41	60252.41
564.57	60430.29
564.74	60357.74
564.90	60104.96
565.07	60184.54
565.23	60175.17
565.39	60275.82
565.56	60381.14
565.72	60158.79
565.88	60395.18
566.05	60430.29
566.21	60238.37
566.38	60498.17
566.54	60636.26
566.70	60519.23
566.87	60516.89
567.03	60236.03
567.19	60481.78
567.36	60331.99
567.52	60437.31
567.68	60505.19
567.85	60603.49
568.01	60528.59
568.17	60544.98
568.34	60498.17
568.50	60521.57
568.66	60582.43
568.83	60552.00
568.99	60378.80
569.15	60374.12
569.32	60643.28
569.48	60570.72
569.64	60657.32
569.81	60666.69
569.97	60533.28
570.13	60561.36
570.30	60528.59
570.46	60722.86
570.62	60678.39
570.78	60624.56
570.95	60762.65
571.11	60743.92
571.27	60533.28
571.43	60669.03
571.60	60729.88
571.76	60893.72
571.92	60708.82
572.09	60732.22
572.25	60622.22
572.41	60610.51
572.57	60903.08
572.74	60877.33
572.90	60631.58
573.06	60772.01
573.22	60554.34
573.38	60748.60
573.55	60713.50
573.71	60879.67
573.87	60853.93
574.03	60577.75
574.20	60877.33
574.36	60802.44
574.52	60795.42
574.68	60928.83
574.84	61020.11
575.01	61015.43
575.17	60842.23
575.33	60718.18
575.49	60935.85
575.65	60837.54
575.82	61071.60
575.98	61017.77
576.14	61048.19
576.30	60961.59
576.46	60931.17
576.62	61076.28
576.79	60914.78
576.95	60776.69
577.11	61017.77
577.27	60793.07
577.43	60963.93
577.59	60783.71
577.75	61015.43
577.92	60690.09
578.08	60956.91
578.24	61027.13
578.40	61127.77
578.56	61092.66
578.72	60807.12
578.88	61240.12
579.04	61087.98
579.21	60996.70
579.37	61029.47
579.53	61141.81
579.69	60996.70
579.85	60828.18
580.01	61172.24
580.17	60919.46
580.33	61169.90
580.49	60912.44
580.65	60954.57
580.82	60912.44
580.98	60818.82
581.14	60989.68
581.30	60992.02
581.46	60924.14
581.62	61085.64
581.78	60917.12
581.94	60863.29
582.10	60825.84
582.26	61165.22
582.42	61076.28
582.58	61209.69
582.74	61036.49
582.90	60835.20
583.06	61036.49
583.22	60940.53
583.38	61003.72
583.54	61165.22
583.70	61174.58
583.86	61209.69
584.02	60992.02
584.18	61137.13
584.34	61230.75
584.50	61050.53
584.66	60830.52
584.82	60926.49
584.98	61378.21
585.14	61333.74
585.30	60985.00
585.46	61174.58
585.62	61205.01
585.78	61338.42
585.94	60982.66
586.10	61090.32
586.26	61111.39
586.42	61221.39
586.58	61209.69
586.74	61043.51
586.90	61050.53
587.06	61015.43
587.22	61319.70
587.38	61214.37
587.54	61219.05
587.70	61277.57
587.86	61401.61
588.02	61286.93
588.18	61460.13
588.34	61092.66
588.49	61066.92
