SpectraSuite Data File
++++++++++++++++++++++++++++++++++++
Date: Fri Oct 25 11:22:56 EDT 2013
User: price-jones
Dark Spectrum Present: No
Reference Spectrum Present: No
Number of Sampled Component Spectra: 1
Spectrometers: USB2+H05261
Integration Time (usec): 100000 (USB2+H05261)
Spectra Averaged: 1 (USB2+H05261)
Boxcar Smoothing: 0 (USB2+H05261)
Correct for Electrical Dark: No (USB2+H05261)
Strobe/Lamp Enabled: No (USB2+H05261)
Correct for Detector Non-linearity: No (USB2+H05261)
Correct for Stray Light: No (USB2+H05261)
Number of Pixels in Processed Spectrum: 2048
>>>>>Begin Processed Spectral Data<<<<<
365.73	203.63
365.92	203.63
366.12	203.63
366.32	107.66
366.52	133.41
366.72	107.66
366.91	110.01
367.11	135.75
367.31	112.35
367.51	154.48
367.70	77.24
367.90	84.26
368.10	98.30
368.30	67.88
368.49	84.26
368.69	117.03
368.89	177.88
369.09	126.39
369.28	170.86
369.48	177.88
369.68	138.09
369.87	175.54
370.07	212.99
370.27	166.18
370.47	285.55
370.66	550.03
370.86	580.45
371.06	648.33
371.25	739.61
371.45	662.37
371.65	690.46
371.84	636.63
372.04	697.48
372.24	695.14
372.44	770.04
372.63	720.88
372.83	704.50
373.03	748.97
373.22	772.38
373.42	732.59
373.62	816.85
373.81	758.33
374.01	748.97
374.21	781.74
374.40	844.93
374.60	802.80
374.79	828.55
374.99	807.48
375.19	856.64
375.38	856.64
375.58	807.48
375.78	837.91
375.97	851.96
376.17	947.92
376.37	908.13
376.56	819.19
376.76	866.00
376.95	849.61
377.15	880.04
377.35	863.66
377.54	826.21
377.74	894.08
377.93	880.04
378.13	882.38
378.33	938.55
378.52	940.90
378.72	917.49
378.91	926.85
379.11	870.68
379.31	966.64
379.50	929.19
379.70	961.96
379.89	1015.79
380.09	908.13
380.28	961.96
380.48	945.58
380.68	938.55
380.87	851.96
381.07	1022.81
381.26	1008.77
381.46	959.62
381.65	978.34
381.85	1011.11
382.04	1006.43
382.24	1100.05
382.43	1029.84
382.63	1043.88
382.83	1069.62
383.02	1130.48
383.22	1100.05
383.41	1034.52
383.61	1142.18
383.80	1095.37
384.00	1118.78
384.19	1071.97
384.39	1048.56
384.58	1153.88
384.78	1186.65
384.97	1196.01
385.17	1109.41
385.36	1165.59
385.56	1254.53
385.75	1210.06
385.95	1203.04
386.14	1151.54
386.34	1247.51
386.53	1228.78
386.72	1217.08
386.92	1247.51
387.11	1273.25
387.31	1331.76
387.50	1280.27
387.70	1151.54
387.89	1247.51
388.09	1306.02
388.28	1277.93
388.48	1240.48
388.67	1390.28
388.86	1338.79
389.06	1235.80
389.25	1313.04
389.45	1284.95
389.64	1296.66
389.84	1341.13
390.03	1303.68
390.22	1348.15
390.42	1341.13
390.61	1420.71
390.81	1439.43
391.00	1446.45
391.19	1430.07
391.39	1451.13
391.58	1458.15
391.78	1509.65
391.97	1521.35
392.16	1516.67
392.36	1516.67
392.55	1516.67
392.75	1437.09
392.94	1511.99
393.13	1563.48
393.33	1511.99
393.52	1507.30
393.71	1610.29
393.91	1493.26
394.10	1589.22
394.29	1638.38
394.49	1624.33
394.68	1572.84
394.88	1561.14
395.07	1610.29
395.26	1680.50
395.46	1673.48
395.65	1703.91
395.84	1748.38
396.04	1764.76
396.23	1729.66
396.42	1734.34
396.62	1781.15
396.81	1783.49
397.00	1811.57
397.19	1811.57
397.39	1755.40
397.58	1809.23
397.77	1849.02
397.97	1757.74
398.16	1842.00
398.35	1785.83
398.55	1914.56
398.74	1914.56
398.93	1975.41
399.12	1872.43
399.32	2005.84
399.51	1959.03
399.70	2038.61
399.90	2038.61
400.09	2073.71
400.28	2038.61
400.47	2080.74
400.67	1989.46
400.86	2080.74
401.05	1998.82
401.24	2197.76
401.44	2090.10
401.63	2225.85
401.82	2143.93
402.01	2207.13
402.21	2146.27
402.40	2188.40
402.59	2258.62
402.78	2246.91
402.97	2162.66
403.17	2366.28
403.36	2239.89
403.55	2310.11
403.74	2260.96
403.93	2326.49
404.13	2394.37
404.32	2392.03
404.51	2335.85
404.70	2387.35
404.89	2511.39
405.09	2485.65
405.28	2495.01
405.47	2415.43
405.66	2576.93
405.85	2487.99
406.05	2633.10
406.24	2558.21
406.43	2581.61
406.62	2684.59
406.81	2691.62
407.00	2619.06
407.20	2612.04
407.39	2672.89
407.58	2548.84
407.77	2724.38
407.96	2771.19
408.15	2799.28
408.34	2759.49
408.54	3007.59
408.73	2761.83
408.92	2799.28
409.11	2871.84
409.30	2834.39
409.49	2888.22
409.68	2939.71
409.87	2890.56
410.07	3178.45
410.26	3176.11
410.45	3122.27
410.64	3075.46
410.83	3045.04
411.02	3094.19
411.21	3262.71
411.40	3304.84
411.59	3152.70
411.78	3056.74
411.98	3197.17
412.17	3325.90
412.36	3302.50
412.55	3365.69
412.74	3377.39
412.93	3398.46
413.12	3346.97
413.31	3660.60
413.50	3522.51
413.69	3566.98
413.88	3506.12
414.07	3599.74
414.26	3620.81
414.45	3627.83
414.64	3751.88
414.83	3801.03
415.02	3695.71
415.22	3882.95
415.41	3889.97
415.60	3808.05
415.79	4058.49
415.98	3997.64
416.17	4035.08
416.36	3894.65
416.55	3988.27
416.74	4205.94
416.93	3971.89
417.12	4128.70
417.31	4273.82
417.50	4147.43
417.69	4346.37
417.88	4416.59
418.07	4318.29
418.26	4400.21
418.45	4416.59
418.64	4636.60
418.83	4470.42
419.02	4463.40
419.21	4472.76
419.39	4507.87
419.58	4512.55
419.77	4468.08
419.96	4561.70
420.15	4692.77
420.34	4620.22
420.53	4552.34
420.72	4704.48
420.91	4765.33
421.10	4823.84
421.29	4833.21
421.48	4758.31
421.67	4894.06
421.86	4786.40
422.05	4875.34
422.24	4851.93
422.43	4936.19
422.61	4814.48
422.80	5034.49
422.99	5008.75
423.18	5018.11
423.37	5165.56
423.56	4938.53
423.75	4980.66
423.94	4844.91
424.13	4573.41
424.32	4793.42
424.50	5015.77
424.69	5303.65
424.88	5186.63
425.07	4964.28
425.26	5020.45
425.45	4978.32
425.64	4966.62
425.83	5146.84
426.01	5139.82
426.20	5116.41
426.39	5174.92
426.58	5118.75
426.77	5132.79
426.96	5102.37
427.15	5186.63
427.33	5287.27
427.52	5233.44
427.71	5188.97
427.90	5261.52
428.09	5317.70
428.28	5394.93
428.46	5453.45
428.65	5425.36
428.84	5521.32
429.03	5416.00
429.22	5329.40
429.40	5427.70
429.59	5425.36
429.78	5416.00
429.97	5383.23
430.16	5614.95
430.34	5497.92
430.53	5715.59
430.72	5617.29
430.91	5619.63
431.10	5626.65
431.28	5912.19
431.47	5834.96
431.66	5827.93
431.85	5827.93
432.03	5877.09
432.22	6057.31
432.41	5806.87
432.60	6033.90
432.79	5977.73
432.97	6019.86
433.16	6010.50
433.35	6005.81
433.54	5973.05
433.72	6232.85
433.91	6162.63
434.10	6209.44
434.28	6113.48
434.47	6242.21
434.66	6345.19
434.85	6228.17
435.03	6471.58
435.22	6328.81
435.41	6574.56
435.59	6471.58
435.78	6438.81
435.97	6480.94
436.16	6630.74
436.34	6422.43
436.53	6513.71
436.72	6691.59
436.90	6523.07
437.09	6619.04
437.28	6672.87
437.46	6710.32
437.65	6686.91
437.84	6867.13
438.02	6754.79
438.21	6759.47
438.40	6548.82
438.58	7016.93
438.77	7056.72
438.96	7108.21
439.14	7129.27
439.33	7375.03
439.52	7391.41
439.70	7295.45
439.89	7599.72
440.08	7545.89
440.26	7496.74
440.45	7456.95
440.63	7499.08
440.82	7779.94
441.01	7529.50
441.19	7822.07
441.38	7751.85
441.57	7847.82
441.75	7948.46
441.94	8030.38
442.12	8095.91
442.31	8283.16
442.50	8044.42
442.68	8140.38
442.87	8133.36
443.05	8308.90
443.24	8308.90
443.43	8226.98
443.61	8461.04
443.80	8465.72
443.98	8173.15
444.17	7878.24
444.35	8243.37
444.54	8404.86
444.73	8498.49
444.91	8332.31
445.10	8276.13
445.28	8381.46
445.47	8264.43
445.65	8318.26
445.84	8386.14
446.02	8470.40
446.21	8222.30
446.39	8521.89
446.58	8669.34
446.77	8531.25
446.95	8325.29
447.14	8446.99
447.32	8643.60
447.51	8842.54
447.69	8720.84
447.88	8613.17
448.06	8697.43
448.25	8571.04
448.43	8676.37
448.62	8725.52
448.80	8645.94
448.99	8922.12
449.17	8887.01
449.36	8849.57
449.54	8828.50
449.73	8971.27
449.91	9074.26
450.10	9186.60
450.28	9280.22
450.46	9212.35
450.65	9184.26
450.83	9188.94
451.02	9198.31
451.20	9228.73
451.39	9022.77
451.57	9179.58
451.76	9114.05
451.94	9434.70
452.13	9212.35
452.31	9385.55
452.49	9315.33
452.68	9355.12
452.86	9593.86
453.05	9458.10
453.23	9643.01
453.42	9397.25
453.60	9535.34
453.78	9549.39
453.97	9638.33
454.15	9554.07
454.34	9692.16
454.52	9729.61
454.70	9771.74
454.89	9874.72
455.07	9820.89
455.26	9905.15
455.44	9961.32
455.62	9975.36
455.81	10068.98
455.99	10216.44
456.17	10111.11
456.36	10068.98
456.54	10328.78
456.73	10422.41
456.91	10628.37
457.09	10532.41
457.28	10574.54
457.46	10277.29
457.64	10375.59
457.83	10497.30
458.01	10361.55
458.19	10848.38
458.38	10628.37
458.56	10871.79
458.74	10679.86
458.93	10853.06
459.11	10780.51
459.29	10902.22
459.48	10752.42
459.66	10670.50
459.84	10967.75
460.03	11375.00
460.21	10895.19
460.39	11152.65
460.57	11082.44
460.76	11288.40
460.94	11098.82
461.12	11197.12
461.31	11176.06
461.49	11506.07
461.67	11531.82
461.85	11311.81
462.04	11363.30
462.22	11918.01
462.40	11693.32
462.59	11517.78
462.77	11632.46
462.95	11791.62
463.13	11915.67
463.32	11709.70
463.50	11831.41
463.68	11674.59
463.86	12002.27
464.05	11803.32
464.23	12011.63
464.41	12006.95
464.59	11843.11
464.78	12308.88
464.96	12042.06
465.14	11871.20
465.32	12287.81
465.50	12421.22
465.69	12297.17
465.87	12248.02
466.05	12259.73
466.23	12297.17
466.41	12383.77
466.60	12725.49
466.78	12168.45
466.96	12233.98
467.14	12491.44
467.32	12606.13
467.51	12814.43
467.69	12264.41
467.87	12535.91
468.05	12809.75
468.23	12493.78
468.41	12449.31
468.60	12676.34
468.78	12924.44
468.96	12943.16
469.14	13146.79
469.32	12912.74
469.50	12968.91
469.69	13404.25
469.87	13315.31
470.05	13242.75
470.23	13092.96
470.41	13327.01
470.59	13483.83
470.77	13331.69
470.95	13373.82
471.14	13743.63
471.32	13378.50
471.50	13755.33
471.68	13781.07
471.86	13776.39
472.04	13610.22
472.22	14033.85
472.40	13956.61
472.58	13757.67
472.77	14178.97
472.95	14211.73
473.13	14661.12
473.31	14214.07
473.49	14333.44
473.67	14284.29
473.85	14518.34
474.03	14747.72
474.21	14930.28
474.39	14888.15
474.57	14998.15
474.75	14829.63
474.93	15094.11
475.12	15389.02
475.30	15040.28
475.48	15183.06
475.66	15716.70
475.84	15410.09
476.02	15410.09
476.20	15470.94
476.38	15852.45
476.56	16070.12
476.74	16233.96
476.92	16166.08
477.10	15803.30
477.28	16355.66
477.46	16472.69
477.64	16411.84
477.82	16872.92
478.00	17142.08
478.18	17338.69
478.36	17228.68
478.54	17308.26
478.72	17156.13
478.90	17554.02
479.08	17518.91
479.26	17972.97
479.44	17823.18
479.62	17984.68
479.80	18059.57
479.98	18286.61
480.16	18820.25
480.34	18682.16
480.52	18810.89
480.70	18654.07
480.88	18719.60
481.06	18864.72
481.24	19047.28
481.41	19531.77
481.59	19634.75
481.77	19885.19
481.95	19719.01
482.13	19875.83
482.31	19913.28
482.49	20360.32
482.67	20655.23
482.85	20975.88
483.03	20905.66
483.21	20627.14
483.39	21174.83
483.57	21064.82
483.74	21249.72
483.92	21673.36
484.10	21355.05
484.28	22033.80
484.46	22387.22
484.64	22522.98
484.82	21942.52
485.00	22546.38
485.18	23178.33
485.35	23267.27
485.53	22895.12
485.71	23194.71
485.89	23800.91
486.07	23644.09
486.25	23278.97
486.43	23772.82
486.61	24072.41
486.78	24407.11
486.96	24273.70
487.14	24849.47
487.32	24655.20
487.50	25076.50
487.68	25326.94
487.85	25671.00
488.03	25813.77
488.21	25876.96
488.39	25947.18
488.57	26342.73
488.75	26560.40
488.92	26373.16
489.10	27016.80
489.28	27019.14
489.46	27023.83
489.64	27583.21
489.81	28116.86
489.99	27721.30
490.17	27875.78
490.35	28587.30
490.53	28657.52
490.70	28568.58
490.88	28559.22
491.06	29160.73
491.24	29326.91
491.41	29022.64
491.59	29457.98
491.77	29481.39
491.95	29958.86
492.13	30061.84
492.30	30424.62
492.48	30284.19
492.66	30593.14
492.84	30773.36
493.01	30878.69
493.19	30747.62
493.37	31428.71
493.54	31564.46
493.72	31805.54
493.90	31758.73
494.08	32180.03
494.25	32477.27
494.43	32161.30
494.61	32507.70
494.79	32835.38
494.96	32664.52
495.14	32931.34
495.32	33483.70
495.49	33266.03
495.67	33706.05
495.85	33638.18
496.02	34150.76
496.20	34455.03
496.38	34408.22
496.55	34188.21
496.73	35370.18
496.91	34829.51
497.09	35152.51
497.26	35358.47
497.44	35138.46
497.62	35438.05
497.79	36444.48
497.97	36346.18
498.14	36280.64
498.32	36407.03
498.50	36863.44
498.67	36835.35
498.85	36847.05
499.03	37048.34
499.20	36999.19
499.38	37251.97
499.56	37656.88
499.73	37511.77
499.91	37495.38
500.08	37862.85
500.26	37670.92
500.44	37776.25
500.61	38227.97
500.79	38293.50
500.97	38541.60
501.14	38969.92
501.32	38859.91
501.49	38888.00
501.67	39047.16
501.84	39416.96
502.02	39203.97
502.20	39431.01
502.37	39800.81
502.55	39660.38
502.72	39995.07
502.90	40149.55
503.07	40034.86
503.25	40039.54
503.43	39864.00
503.60	40294.66
503.78	40524.04
503.95	40505.31
504.13	40774.47
504.30	41095.13
504.48	40713.62
504.65	40959.38
504.83	41029.59
505.01	41553.87
505.18	41783.24
505.36	41773.88
505.53	41612.38
505.71	41841.76
505.88	42082.83
506.06	41787.92
506.23	42398.80
506.41	42000.91
506.58	42742.86
506.76	42731.16
506.93	42518.17
507.11	43175.86
507.28	42995.64
507.46	43075.22
507.63	43629.93
507.81	43812.49
507.98	43264.80
508.16	43700.14
508.33	43803.13
508.50	44144.84
508.68	44208.04
508.85	44903.18
509.03	44198.68
509.20	44376.56
509.38	45134.89
509.55	44914.88
509.73	45177.02
509.90	44975.73
510.08	44781.47
510.25	45134.89
510.42	45329.16
510.60	45502.35
510.77	45558.53
510.95	45762.15
511.12	45769.18
511.30	45722.37
511.47	45958.76
511.64	45923.65
511.82	46408.14
511.99	45951.74
512.17	46403.46
512.34	46218.56
512.51	47007.32
512.69	46873.91
512.86	46302.82
513.04	47498.83
513.21	47194.56
513.38	47107.96
513.56	47164.14
513.73	47072.85
513.90	47611.18
514.08	47255.42
514.25	47702.46
514.43	47611.18
514.60	47845.23
514.77	47885.02
514.95	47882.68
515.12	48102.69
515.29	48182.27
515.47	48727.61
515.64	48231.42
515.81	48142.48
515.99	48554.41
516.16	48935.92
516.33	48889.11
516.51	49207.42
516.68	49127.84
516.85	48940.60
517.03	49064.65
517.20	49476.58
517.37	49116.14
517.54	49289.34
517.72	49415.73
517.89	49340.83
518.06	49441.48
518.24	49422.75
518.41	49382.96
518.58	49916.61
518.75	49567.87
518.93	50108.53
519.10	49904.90
519.27	50265.34
519.45	50258.32
519.62	50286.41
519.79	50174.06
519.96	50305.13
520.14	50092.15
520.31	50279.39
520.48	50696.00
520.65	50724.09
520.83	51243.69
521.00	50770.90
521.17	50995.59
521.34	50951.12
521.52	51442.63
521.69	51297.52
521.86	51016.66
522.03	51126.66
522.20	51845.21
522.38	51798.40
522.55	51524.55
522.72	51732.86
522.89	51789.03
523.07	52088.62
523.24	51882.66
523.41	51887.34
523.58	51641.58
523.75	52105.01
523.92	52165.86
524.10	52280.55
524.27	52704.18
524.44	52296.93
524.61	52126.07
524.78	52439.70
524.96	52640.99
525.13	52486.51
525.30	52617.58
525.47	52832.91
525.64	52846.96
525.81	53331.45
525.98	52949.94
526.16	52832.91
526.33	52774.40
526.50	53319.74
526.67	53322.08
526.84	53256.55
527.01	52952.28
527.18	53202.72
527.36	53319.74
527.53	53378.26
527.70	53586.57
527.87	53673.16
528.04	53310.38
528.21	53483.58
528.38	53731.68
528.55	53822.96
528.72	53773.81
528.89	53869.77
529.07	53748.06
529.24	53778.49
529.41	53853.39
529.58	53787.85
529.75	53766.79
529.92	54141.27
530.09	54202.13
530.26	54340.22
530.43	54394.05
530.60	53937.65
530.77	54316.81
530.94	54506.40
531.11	54045.31
531.28	54461.93
531.46	54543.84
531.63	54590.66
531.80	54695.98
531.97	54497.03
532.14	54796.62
532.31	54602.36
532.48	54937.05
532.65	54967.48
532.82	54822.37
532.99	54836.41
533.16	55042.38
533.33	54967.48
533.50	55253.03
533.67	55079.83
533.84	55075.15
534.01	55224.94
534.18	55105.57
534.35	55583.04
534.52	55253.03
534.69	55398.14
534.86	55592.40
535.03	55320.90
535.20	55585.38
535.37	55735.18
535.54	55583.04
535.71	55583.04
535.88	55847.52
536.05	55718.79
536.22	55924.76
536.38	55718.79
536.55	56093.28
536.72	55903.70
536.89	55807.73
537.06	55714.11
537.23	56023.06
537.40	55913.06
537.57	55861.57
537.74	56252.44
537.91	56467.76
538.08	56044.13
538.25	56030.08
538.42	56109.66
538.59	56453.72
538.75	56402.23
538.92	56121.37
539.09	56442.02
539.26	56399.89
539.43	56423.29
539.60	56233.71
539.77	56449.04
539.94	56575.43
540.11	56315.63
540.28	56690.12
540.44	56596.49
540.61	56629.26
540.78	56687.78
540.95	56811.82
541.12	56427.98
541.29	56678.41
541.46	56767.35
541.62	56947.57
541.79	56973.32
541.96	56549.68
542.13	56797.78
542.30	56987.36
542.47	57109.07
542.63	57308.02
542.80	57399.30
542.97	57317.38
543.14	57481.22
543.31	57317.38
543.48	57544.41
543.64	57757.40
543.81	57645.05
543.98	57556.11
544.15	57457.81
544.32	57729.31
544.48	57853.36
544.65	57621.65
544.82	57631.01
544.99	57464.83
545.16	57804.21
545.32	57792.51
545.49	57895.49
545.66	57986.77
545.83	57937.62
546.00	57832.30
546.16	57963.37
546.33	57675.48
546.50	57916.56
546.67	57972.73
546.83	57621.65
547.00	58096.78
547.17	58141.25
547.34	58052.31
547.50	58382.32
547.67	58309.77
547.84	58230.19
548.00	58288.70
548.17	58574.25
548.34	58396.37
548.51	58660.85
548.67	58553.18
548.84	58375.30
549.01	58225.51
549.18	58543.82
549.34	58534.46
549.51	58478.28
549.68	58714.68
549.84	58403.39
550.01	58501.69
550.18	58599.99
550.34	58691.27
550.51	58798.94
550.68	58749.79
550.84	58340.19
551.01	58857.45
551.18	58766.17
551.34	58824.68
551.51	58862.13
551.68	58918.31
551.84	58543.82
552.01	58642.12
552.18	58864.47
552.34	58698.30
552.51	58981.50
552.68	58820.00
552.84	59014.27
553.01	59161.72
553.18	59016.61
553.34	59065.76
553.51	58979.16
553.67	59086.82
553.84	59337.26
554.01	59100.87
554.17	59264.70
554.34	59173.42
554.51	59154.70
554.67	59295.13
554.84	59386.41
555.00	59451.95
555.17	59231.94
555.33	59175.76
555.50	59143.00
555.67	59119.59
555.83	59208.53
556.00	59253.00
556.16	59608.76
556.33	59606.42
556.50	59409.82
556.66	59508.12
556.83	59278.75
556.99	59622.81
557.16	59774.94
557.32	59831.11
557.49	59922.40
557.65	59449.61
557.82	59737.49
557.98	59646.21
558.15	59800.69
558.32	59608.76
558.48	59742.17
558.65	59615.79
558.81	59625.15
558.98	59793.67
559.14	59898.99
559.31	59697.70
559.47	59929.42
559.64	59894.31
559.80	60140.07
559.97	60154.11
560.13	59842.82
560.30	59948.14
560.46	59929.42
560.63	60004.31
560.79	60025.38
560.96	60142.41
561.12	60140.07
561.29	59770.26
561.45	60062.83
561.61	60004.31
561.78	59952.82
561.94	60027.72
562.11	60142.41
562.27	60083.89
562.44	60264.11
562.60	60287.52
562.77	60245.39
562.93	59817.07
563.10	60158.79
563.26	60179.85
563.42	60566.04
563.59	60360.08
563.75	60280.50
563.92	60236.03
564.08	60456.04
564.24	60418.59
564.41	60509.87
564.57	60381.14
564.74	60348.37
564.90	60645.62
565.07	60299.22
565.23	60423.27
565.39	60601.15
565.56	60449.02
565.72	60388.16
565.88	60519.23
566.05	60385.82
566.21	60381.14
566.38	60481.78
566.54	60346.03
566.70	60659.66
566.87	60610.51
567.03	60479.44
567.19	60533.28
567.36	60559.02
567.52	60495.83
567.68	60666.69
567.85	60484.12
568.01	60704.13
568.17	60622.22
568.34	60568.38
568.50	60601.15
568.66	60484.12
568.83	60552.00
568.99	60523.91
569.15	60795.42
569.32	60711.16
569.48	60659.66
569.64	60662.00
569.81	60818.82
569.97	60706.47
570.13	60772.01
570.30	60718.18
570.46	60736.90
570.62	60882.02
570.78	60809.46
570.95	60701.79
571.11	60786.05
571.27	60687.75
571.43	60959.25
571.60	60938.19
571.76	60734.56
571.92	60767.33
572.09	60872.65
572.25	60905.42
572.41	60654.98
572.57	60963.93
572.74	61069.26
572.90	60743.92
573.06	60828.18
573.22	60872.65
573.38	60898.40
573.55	60853.93
573.71	61041.17
573.87	60900.74
574.03	60654.98
574.20	60917.12
574.36	60970.96
574.52	61013.08
574.68	61013.08
574.84	61003.72
575.01	60940.53
575.17	61010.74
575.33	61020.11
575.49	60662.00
575.65	60947.55
575.82	61022.45
575.98	61008.40
576.14	61109.05
576.30	61013.08
576.46	60924.14
576.62	60832.86
576.79	60867.97
576.95	60814.14
577.11	60954.57
577.27	61052.87
577.43	61097.34
577.59	60889.04
577.75	61071.60
577.92	61006.06
578.08	60896.06
578.24	60994.36
578.40	61188.63
578.56	61291.61
578.72	61153.52
578.88	61099.68
579.04	61319.70
579.21	61029.47
579.37	61197.99
579.53	61209.69
579.69	60917.12
579.85	61095.00
580.01	61099.68
580.17	61027.13
580.33	61333.74
580.49	61216.71
580.65	61148.84
580.82	61102.03
580.98	61155.86
581.14	61001.38
581.30	61378.21
581.46	61207.35
581.62	61315.01
581.78	61050.53
581.94	61197.99
582.10	61113.73
582.26	61186.28
582.42	61293.95
582.58	61420.34
582.74	60956.91
582.90	61247.14
583.06	61045.85
583.22	60945.21
583.38	61275.22
583.54	61244.80
583.70	61151.18
583.86	61162.88
584.02	61106.71
584.18	61354.80
584.34	61069.26
584.50	61226.07
584.66	61048.19
584.82	60982.66
584.98	61418.00
585.14	61240.12
585.30	61055.21
585.46	61275.22
585.62	61272.88
585.78	61422.68
585.94	61165.22
586.10	61307.99
586.26	61190.97
586.42	61375.87
586.58	61350.12
586.74	61329.06
586.90	61197.99
587.06	61132.45
587.22	61460.13
587.38	61286.93
587.54	61600.56
587.70	61425.02
587.86	61165.22
588.02	61256.50
588.18	61380.55
588.34	61270.54
588.49	61256.50
