SpectraSuite Data File
++++++++++++++++++++++++++++++++++++
Date: Fri Oct 25 11:25:54 EDT 2013
User: price-jones
Dark Spectrum Present: No
Reference Spectrum Present: No
Number of Sampled Component Spectra: 1
Spectrometers: USB2+H05261
Integration Time (usec): 100000 (USB2+H05261)
Spectra Averaged: 1 (USB2+H05261)
Boxcar Smoothing: 0 (USB2+H05261)
Correct for Electrical Dark: No (USB2+H05261)
Strobe/Lamp Enabled: No (USB2+H05261)
Correct for Detector Non-linearity: No (USB2+H05261)
Correct for Stray Light: No (USB2+H05261)
Number of Pixels in Processed Spectrum: 2048
>>>>>Begin Processed Spectral Data<<<<<
365.73	257.46
365.92	257.46
366.12	257.46
366.32	142.77
366.52	173.20
366.72	173.20
366.91	124.05
367.11	107.66
367.31	133.41
367.51	135.75
367.70	145.11
367.90	147.45
368.10	121.71
368.30	105.32
368.49	149.79
368.69	215.33
368.89	166.18
369.09	152.13
369.28	147.45
369.48	145.11
369.68	229.37
369.87	173.20
370.07	180.22
370.27	241.08
370.47	299.59
370.66	568.75
370.86	660.03
371.06	765.36
371.25	681.10
371.45	727.91
371.65	671.73
371.84	704.50
372.04	737.27
372.24	720.88
372.44	690.46
372.63	770.04
372.83	713.86
373.03	706.84
373.22	781.74
373.42	784.08
373.62	802.80
373.81	734.93
374.01	784.08
374.21	800.46
374.40	903.45
374.60	868.34
374.79	901.11
374.99	807.48
375.19	866.00
375.38	908.13
375.58	809.83
375.78	760.67
375.97	887.06
376.17	884.72
376.37	945.58
376.56	863.66
376.76	901.11
376.95	858.98
377.15	915.15
377.35	858.98
377.54	877.70
377.74	891.74
377.93	947.92
378.13	849.61
378.33	922.17
378.52	947.92
378.72	943.24
378.91	990.05
379.11	947.92
379.31	821.53
379.50	931.53
379.70	990.05
379.89	1006.43
380.09	1008.77
380.28	983.02
380.48	1006.43
380.68	926.85
380.87	926.85
381.07	1034.52
381.26	1013.45
381.46	1081.33
381.65	957.28
381.85	1083.67
382.04	1027.50
382.24	1069.62
382.43	1062.60
382.63	1043.88
382.83	1062.60
383.02	1188.99
383.22	1100.05
383.41	1125.80
383.61	1076.65
383.80	1125.80
384.00	1135.16
384.19	1128.14
384.39	1165.59
384.58	994.73
384.78	1153.88
384.97	1125.80
385.17	1034.52
385.36	1172.61
385.56	1174.95
385.75	1142.18
385.95	1245.16
386.14	1277.93
386.34	1235.80
386.53	1205.38
386.72	1233.46
386.92	1228.78
387.11	1221.76
387.31	1193.67
387.50	1331.76
387.70	1196.01
387.89	1221.76
388.09	1256.87
388.28	1362.19
388.48	1308.36
388.67	1439.43
388.86	1355.17
389.06	1275.59
389.25	1345.81
389.45	1401.98
389.64	1275.59
389.84	1345.81
390.03	1406.66
390.22	1383.26
390.42	1364.53
390.61	1411.34
390.81	1378.58
391.00	1378.58
391.19	1530.71
391.39	1493.26
391.58	1453.47
391.78	1448.79
391.97	1348.15
392.16	1521.35
392.36	1509.65
392.55	1469.86
392.75	1577.52
392.94	1474.54
393.13	1551.78
393.33	1537.73
393.52	1638.38
393.71	1647.74
393.91	1533.05
394.10	1565.82
394.29	1647.74
394.49	1619.65
394.68	1724.97
394.88	1621.99
395.07	1652.42
395.26	1696.89
395.46	1783.49
395.65	1661.78
395.84	1708.59
396.04	1816.26
396.23	1785.83
396.42	1802.21
396.62	1729.66
396.81	1839.66
397.00	1750.72
397.19	1757.74
397.39	1671.14
397.58	1846.68
397.77	1851.36
397.97	1865.41
398.16	1823.28
398.35	2012.86
398.55	1902.86
398.74	1860.73
398.93	1891.15
399.12	1888.81
399.32	1926.26
399.51	1898.17
399.70	2005.84
399.90	1977.75
400.09	1977.75
400.28	1968.39
400.47	1966.05
400.67	2052.65
400.86	2087.76
401.05	2108.82
401.24	2125.21
401.44	2120.53
401.63	2047.97
401.82	2083.08
402.01	2153.29
402.21	2242.23
402.40	2190.74
402.59	2211.81
402.78	2179.04
402.97	2148.61
403.17	2228.19
403.36	2216.49
403.55	2452.88
403.74	2253.94
403.93	2321.81
404.13	2333.51
404.32	2480.97
404.51	2317.13
404.70	2403.73
404.89	2478.63
405.09	2392.03
405.28	2466.92
405.47	2392.03
405.66	2509.05
405.85	2441.18
406.05	2485.65
406.24	2551.18
406.43	2565.23
406.62	2670.55
406.81	2677.57
407.00	2534.80
407.20	2548.84
407.39	2663.53
407.58	2623.74
407.77	2757.15
407.96	2771.19
408.15	2766.51
408.34	2626.08
408.54	2806.30
408.73	2836.73
408.92	2759.49
409.11	2895.24
409.30	2881.20
409.49	2867.16
409.68	2993.55
409.87	2913.97
410.07	3026.31
410.26	3056.74
410.45	2960.78
410.64	3133.98
410.83	3098.87
411.02	3110.57
411.21	3157.38
411.40	3145.68
411.59	3328.24
411.78	3136.32
411.98	3173.77
412.17	3265.05
412.36	3400.80
412.55	3487.40
412.74	3412.50
412.93	3524.85
413.12	3433.57
413.31	3566.98
413.50	3433.57
413.69	3578.68
413.88	3545.91
414.07	3653.58
414.26	3726.13
414.45	3602.08
414.64	3620.81
414.83	3632.51
415.02	3719.11
415.22	3838.48
415.41	3875.93
415.60	3801.03
415.79	3875.93
415.98	3920.40
416.17	3913.38
416.36	3906.35
416.55	3918.06
416.74	4121.68
416.93	4007.00
417.12	4016.36
417.31	4063.17
417.50	3866.56
417.69	4334.67
417.88	4266.80
418.07	4250.41
418.26	4315.95
418.45	4301.90
418.64	4358.08
418.83	4496.17
419.02	4276.16
419.21	4559.36
419.39	4449.36
419.58	4465.74
419.77	4456.38
419.96	4533.62
420.15	4566.39
420.34	4624.90
420.53	4709.16
420.72	4762.99
420.91	4540.64
421.10	4737.24
421.29	4849.59
421.48	4725.54
421.67	4660.01
421.86	4765.33
422.05	4823.84
422.24	4880.02
422.43	4800.44
422.61	4917.47
422.80	4954.91
422.99	4880.02
423.18	4968.96
423.37	4830.87
423.56	4952.57
423.75	4901.08
423.94	4758.31
424.13	4762.99
424.32	4650.64
424.50	4933.85
424.69	4975.98
424.88	5067.26
425.07	4922.15
425.26	4873.00
425.45	4929.17
425.64	4985.34
425.83	4891.72
426.01	5029.81
426.20	5018.11
426.39	5020.45
426.58	5121.09
426.77	5097.69
426.96	5046.20
427.15	5228.76
427.33	5352.81
427.52	5203.01
427.71	5315.36
427.90	5280.25
428.09	5439.40
428.28	5331.74
428.46	5603.24
428.65	5455.79
428.84	5455.79
429.03	5397.28
429.22	5296.63
429.40	5502.60
429.59	5575.16
429.78	5350.46
429.97	5366.85
430.16	5462.81
430.34	5612.60
430.53	5647.71
430.72	5584.52
430.91	5668.78
431.10	5692.18
431.28	5783.46
431.47	5746.02
431.66	5919.21
431.85	5905.17
432.03	5905.17
432.22	5975.39
432.41	5984.75
432.60	5905.17
432.79	5856.02
432.97	6080.71
433.16	6033.90
433.35	5914.53
433.54	6005.81
433.72	6157.95
433.91	6104.12
434.10	6223.48
434.28	6232.85
434.47	6260.93
434.66	6150.93
434.85	6186.04
435.03	6211.78
435.22	6286.68
435.41	6553.50
435.59	6394.34
435.78	6502.01
435.97	6504.35
436.16	6516.05
436.34	6361.58
436.53	6375.62
436.72	6612.01
436.90	6420.09
437.09	6548.82
437.28	6459.88
437.46	6609.67
437.65	6593.29
437.84	6743.08
438.02	6935.01
438.21	6782.87
438.40	6869.47
438.58	7021.61
438.77	7108.21
438.96	6925.65
439.14	7014.59
439.33	7164.38
439.52	7222.89
439.70	7148.00
439.89	7272.04
440.08	7386.73
440.26	7386.73
440.45	7356.30
440.63	7478.01
440.82	7524.82
441.01	7527.16
441.19	7613.76
441.38	7758.88
441.57	7920.37
441.75	7875.90
441.94	7906.33
442.12	7925.05
442.31	8074.85
442.50	8070.17
442.68	8039.74
442.87	8116.98
443.05	8191.88
443.24	8245.71
443.43	8250.39
443.61	8145.06
443.80	8528.91
443.98	7925.05
444.17	7985.91
444.35	8269.11
444.54	8287.84
444.73	8241.03
444.91	8439.97
445.10	8166.13
445.28	8390.82
445.47	8116.98
445.65	8386.14
445.84	8659.98
446.02	8379.12
446.21	8568.70
446.39	8278.47
446.58	8472.74
446.77	8528.91
446.95	8369.76
447.14	8369.76
447.32	8613.17
447.51	8339.33
447.69	8461.04
447.88	8496.14
448.06	8575.72
448.25	8557.00
448.43	8650.62
448.62	8578.06
448.80	8557.00
448.99	8667.00
449.17	8652.96
449.36	8887.01
449.54	8961.91
449.73	8929.14
449.91	9022.77
450.10	8961.91
450.28	8954.89
450.46	9022.77
450.65	9004.04
450.83	8870.63
451.02	9081.28
451.20	9165.54
451.39	9097.66
451.57	9013.40
451.76	9071.92
451.94	9245.12
452.13	9563.43
452.31	9226.39
452.49	9172.56
452.68	9383.21
452.86	9378.53
453.05	9322.35
453.23	9413.63
453.42	9352.78
453.60	9404.27
453.78	9617.26
453.97	9451.08
454.15	9399.59
454.34	9516.62
454.52	9748.33
454.70	9516.62
454.89	9778.76
455.07	9998.77
455.26	9898.13
455.44	9888.76
455.62	9839.61
455.81	9856.00
455.99	10066.64
456.17	10118.14
456.36	10307.72
456.54	10097.07
456.73	10132.18
456.91	10434.11
457.09	10494.96
457.28	10448.15
457.46	10272.61
457.64	10466.88
457.83	10377.94
458.01	10272.61
458.19	10607.31
458.38	10572.20
458.56	10595.61
458.74	10363.89
458.93	10717.31
459.11	10665.82
459.29	10710.29
459.48	10892.85
459.66	10789.87
459.84	10883.49
460.03	11105.84
460.21	10972.43
460.39	11044.99
460.57	10883.49
460.76	11150.31
460.94	11094.14
461.12	11194.78
461.31	11103.50
461.49	11152.65
461.67	11063.71
461.85	11325.85
462.04	11393.73
462.22	11459.26
462.40	11531.82
462.59	11485.01
462.77	11442.88
462.95	11728.42
463.13	11969.50
463.32	11777.58
463.50	11726.08
463.68	11868.86
463.86	11859.49
464.05	11639.48
464.23	11653.53
464.41	11669.91
464.59	11695.66
464.78	12313.56
464.96	11925.03
465.14	11939.07
465.32	12044.40
465.50	12332.28
465.69	12020.99
465.87	11964.82
466.05	12292.49
466.23	12276.11
466.41	12446.97
466.60	12592.08
466.78	12102.91
466.96	12278.45
467.14	12397.82
467.32	12201.21
467.51	12568.68
467.69	12030.35
467.87	12271.43
468.05	12486.76
468.23	12283.13
468.41	12549.95
468.60	12449.31
468.78	12837.84
468.96	12533.57
469.14	12964.23
469.32	12896.35
469.50	12573.36
469.69	12917.42
469.87	13202.96
470.05	13125.72
470.23	13036.78
470.41	12989.97
470.59	13532.98
470.77	13366.80
470.95	13404.25
471.14	13661.71
471.32	12989.97
471.50	13280.20
471.68	13462.76
471.86	13556.38
472.04	13650.00
472.22	13888.74
472.40	13568.09
472.58	13865.33
472.77	14047.90
472.95	14244.50
473.13	14700.90
473.31	14244.50
473.49	14251.52
473.67	14153.22
473.85	14122.79
474.03	14403.66
474.21	14644.73
474.39	14916.23
474.57	14803.89
474.75	14899.85
474.93	14841.34
475.12	14970.07
475.30	15077.73
475.48	15009.86
475.66	15295.40
475.84	15330.51
476.02	15445.20
476.20	15386.68
476.38	15866.49
476.56	15868.83
476.74	16208.21
476.92	16016.29
477.10	15719.04
477.28	16210.55
477.46	16240.98
477.64	16437.58
477.82	16402.47
478.00	17132.72
478.18	16634.19
478.36	16816.75
478.54	17067.19
478.72	17097.61
478.90	17247.41
479.08	17444.01
479.26	17633.60
479.44	17680.41
479.62	17907.44
479.80	18085.32
479.98	18312.35
480.16	18576.83
480.34	18090.00
480.52	18356.82
480.70	18459.81
480.88	18221.07
481.06	18574.49
481.24	18864.72
481.41	19066.00
481.59	19154.94
481.77	19604.33
481.95	19601.99
482.13	19662.84
482.31	19564.54
482.49	20255.00
482.67	20301.81
482.85	20566.29
483.03	20606.08
483.21	20472.67
483.39	20833.11
483.57	20915.03
483.74	21235.68
483.92	21420.58
484.10	21296.53
484.28	21628.89
484.46	22066.57
484.64	22249.13
484.82	21888.69
485.00	22427.01
485.18	22459.78
485.35	22845.97
485.53	22899.80
485.71	23005.13
485.89	23548.13
486.07	23154.92
486.25	22909.16
486.43	23264.92
486.61	24027.94
486.78	24182.42
486.96	24393.06
487.14	24493.71
487.32	24526.47
487.50	24924.36
487.68	24999.26
487.85	25458.01
488.03	25394.81
488.21	25914.41
488.39	25687.38
488.57	25848.88
488.75	26111.02
488.92	26302.94
489.10	26820.20
489.28	26810.84
489.46	26984.04
489.64	26960.63
489.81	27880.46
489.99	27957.70
490.17	27697.90
490.35	28472.62
490.53	28341.55
490.70	28364.95
490.88	28397.72
491.06	28439.85
491.24	28900.94
491.41	28802.63
491.59	29165.42
491.77	29446.28
491.95	29240.31
492.13	29542.24
492.30	29780.98
492.48	30031.41
492.66	30293.55
492.84	30326.32
493.01	30965.29
493.19	30796.77
493.37	30820.17
493.54	31297.64
493.72	31309.35
493.90	31491.91
494.08	31639.36
494.25	32034.91
494.43	32245.56
494.61	31922.57
494.79	32322.80
494.96	32369.61
495.14	32964.10
495.32	33015.60
495.49	32671.54
495.67	33277.74
495.85	33516.47
496.02	33701.37
496.20	33766.91
496.38	33930.75
496.55	33986.92
496.73	34476.09
496.91	34590.78
497.09	34267.78
497.26	34813.13
497.44	34532.26
497.62	35297.62
497.79	36107.44
497.97	35409.96
498.14	35840.62
498.32	36245.54
498.50	35819.56
498.67	36374.27
498.85	36147.23
499.03	36718.32
499.20	36879.82
499.38	37113.87
499.56	36971.10
499.73	36898.55
499.91	37123.24
500.08	37357.29
500.26	37401.76
500.44	37752.84
500.61	38019.66
500.79	37928.38
500.97	38071.15
501.14	38417.55
501.32	38873.96
501.49	38424.57
501.67	38693.74
501.84	38642.24
502.02	38857.57
502.20	39299.94
502.37	39096.31
502.55	39243.76
502.72	39225.04
502.90	39503.56
503.07	39388.88
503.25	39751.66
503.43	39700.17
503.60	40435.10
503.78	40084.01
503.95	40175.30
504.13	40212.74
504.30	40554.46
504.48	40577.87
504.65	40854.05
504.83	41092.79
505.01	41289.39
505.18	41207.47
505.36	41668.56
505.53	41221.52
505.71	41624.09
505.88	41621.75
506.06	41600.68
506.23	41811.33
506.41	41759.84
506.58	41724.73
506.76	42131.98
506.93	42415.19
507.11	42167.09
507.28	42604.77
507.46	42670.31
507.63	43147.78
507.81	42885.64
507.98	42897.34
508.16	42965.21
508.33	43084.58
508.50	43154.80
508.68	43353.74
508.85	43842.92
509.03	43667.37
509.20	43903.77
509.38	44357.83
509.55	44673.81
509.73	44130.80
509.90	44650.40
510.08	44786.15
510.25	44615.29
510.42	44612.95
510.60	45097.44
510.77	45139.57
510.95	45392.35
511.12	44949.99
511.30	45415.76
511.47	45382.99
511.64	45390.01
511.82	45860.46
511.99	45462.57
512.17	45614.70
512.34	45998.55
512.51	46134.30
512.69	46134.30
512.86	46333.24
513.04	47147.75
513.21	46461.97
513.38	46775.61
513.56	47037.75
513.73	46981.57
513.90	46649.22
514.08	46937.10
514.25	47138.39
514.43	46902.00
514.60	47550.32
514.77	47281.16
514.95	47360.74
515.12	47271.80
515.29	46972.21
515.47	48074.60
515.64	48027.79
515.81	47833.53
515.99	48388.24
516.16	48399.94
516.33	48526.33
516.51	48779.10
516.68	48676.12
516.85	48402.28
517.03	48645.69
517.20	48657.40
517.37	48708.89
517.54	48355.47
517.72	48727.61
517.89	48924.22
518.06	48982.73
518.24	49134.87
518.41	49237.85
518.58	49382.96
518.75	49305.73
518.93	49771.49
519.10	49284.66
519.27	49530.42
519.45	49778.51
519.62	49904.90
519.79	49949.37
519.96	50288.75
520.14	50363.65
520.31	50047.68
520.48	50412.80
520.65	50136.62
520.83	50644.51
521.00	50571.96
521.17	50513.44
521.34	50534.51
521.52	50721.75
521.69	50855.16
521.86	51086.87
522.03	51026.02
522.20	51241.35
522.38	51744.56
522.55	51196.88
522.72	51503.49
522.89	51145.39
523.07	51580.73
523.24	51753.93
523.41	51526.89
523.58	51224.96
523.75	51945.85
523.92	52097.98
524.10	51599.45
524.27	52090.96
524.44	52100.32
524.61	51859.25
524.78	52353.10
524.96	52240.76
525.13	52645.67
525.30	51983.30
525.47	52676.10
525.64	52282.89
525.81	52552.05
525.98	52750.99
526.16	52526.30
526.33	52589.50
526.50	53095.05
526.67	52729.93
526.84	52978.03
527.01	52687.80
527.18	52942.92
527.36	53088.03
527.53	53155.91
527.70	53137.18
527.87	53221.44
528.04	53413.37
528.21	53523.37
528.38	53371.24
528.55	53427.41
528.72	53661.46
528.89	53485.92
529.07	53528.05
529.24	53502.31
529.41	53738.70
529.58	53638.06
529.75	53563.16
529.92	53883.81
530.09	53717.64
530.26	54150.63
530.43	53991.48
530.60	53396.98
530.77	54005.52
530.94	54220.85
531.11	54183.40
531.28	54199.79
531.46	54337.88
531.63	54529.80
531.80	54307.45
531.97	54550.87
532.14	54284.04
532.31	54293.41
532.48	54436.18
532.65	54574.27
532.82	54323.83
532.99	54728.75
533.16	54553.21
533.33	54834.07
533.50	54923.01
533.67	54782.58
533.84	54777.90
534.01	55014.29
534.18	54923.01
534.35	55231.96
534.52	55159.41
534.69	55187.49
534.86	55348.99
535.03	54918.33
535.20	55065.78
535.37	55346.65
535.54	55381.76
535.71	55330.26
535.88	55416.86
536.05	55398.14
536.22	55414.52
536.38	55391.12
536.55	55529.21
536.72	55477.72
536.89	55173.45
537.06	55554.96
537.23	55625.17
537.40	55641.56
537.57	55655.60
537.74	55573.68
537.91	56055.83
538.08	55753.90
538.25	55653.26
538.42	55779.65
538.59	56081.58
538.75	55739.86
538.92	55739.86
539.09	56156.47
539.26	55962.21
539.43	56079.24
539.60	56327.33
539.77	56126.05
539.94	56296.91
540.11	56210.31
540.28	56395.21
540.44	56559.05
540.61	56406.91
540.78	56493.51
540.95	56463.08
541.12	56413.93
541.29	56313.29
541.46	56451.38
541.62	56521.60
541.79	56802.46
541.96	56404.57
542.13	56484.15
542.30	56692.46
542.47	56970.98
542.63	56893.74
542.80	56858.63
542.97	57001.41
543.14	57544.41
543.31	57155.88
543.48	57020.13
543.64	57551.43
543.81	57340.78
543.98	57425.04
544.15	57366.53
544.32	57492.92
544.48	57558.45
544.65	57542.07
544.82	57469.51
544.99	57265.89
545.16	57549.09
545.32	57275.25
545.49	58007.84
545.66	57670.80
545.83	57434.41
546.00	57614.63
546.16	57464.83
546.33	57261.21
546.50	57439.09
546.67	57715.27
546.83	57518.67
547.00	57647.39
547.17	57703.57
547.34	57790.17
547.50	57757.40
547.67	57904.85
547.84	58014.86
548.00	58134.23
548.17	58094.44
548.34	58141.25
548.51	58312.11
548.67	58045.29
548.84	58227.85
549.01	58157.63
549.18	58162.31
549.34	58061.67
549.51	58202.10
549.68	58344.87
549.84	58206.78
550.01	58387.00
550.18	58157.63
550.34	58401.05
550.51	58440.84
550.68	58354.24
550.84	58251.25
551.01	58597.65
551.18	58562.54
551.34	58576.59
551.51	58618.72
551.68	58536.80
551.84	58616.38
552.01	58281.68
552.18	58742.77
552.34	58628.08
552.51	58834.05
552.68	58658.51
552.84	58707.66
553.01	58749.79
553.18	58674.89
553.34	58944.05
553.51	58628.08
553.67	58829.37
553.84	59007.25
554.01	58616.38
554.17	58883.20
554.34	58852.77
554.51	58988.52
554.67	59058.74
554.84	59011.93
555.00	59150.02
555.17	59091.51
555.33	59185.13
555.50	58922.99
555.67	58775.53
555.83	59030.65
556.00	59157.04
556.16	59449.61
556.33	59304.49
556.50	59248.32
556.66	59299.81
556.83	59224.92
556.99	59391.09
557.16	59496.42
557.32	59461.31
557.49	59641.53
557.65	59168.74
557.82	59484.72
557.98	59267.05
558.15	59566.63
558.32	59367.69
558.48	59276.41
558.65	59597.06
558.81	59468.33
558.98	59561.95
559.14	59599.40
559.31	59681.32
559.47	59728.13
559.64	59552.59
559.80	59690.68
559.97	59484.72
560.13	59615.79
560.30	59643.87
560.46	59737.49
560.63	59817.07
560.79	59891.97
560.96	59903.67
561.12	59950.48
561.29	59728.13
561.45	59707.07
561.61	59948.14
561.78	59929.42
561.94	59798.35
562.11	59856.86
562.27	59863.88
562.44	59847.50
562.60	60250.07
562.77	59922.40
562.93	59718.77
563.10	60168.15
563.26	59831.11
563.42	60303.90
563.59	59952.82
563.75	60039.42
563.92	60004.31
564.08	59674.30
564.24	60083.89
564.41	59997.29
564.57	60205.60
564.74	59966.87
564.90	60147.09
565.07	60210.28
565.23	60268.79
565.39	60034.74
565.56	60250.07
565.72	60154.11
565.88	60231.35
566.05	60034.74
566.21	60229.01
566.38	60198.58
566.54	60130.70
566.70	60296.88
566.87	60418.59
567.03	60109.64
567.19	60418.59
567.36	60341.35
567.52	60341.35
567.68	60654.98
567.85	60552.00
568.01	60385.82
568.17	60280.50
568.34	60310.92
568.50	60458.38
568.66	60402.21
568.83	60502.85
568.99	60364.76
569.15	60343.69
569.32	60493.49
569.48	60404.55
569.64	60594.13
569.81	60477.10
569.97	60439.65
570.13	60463.06
570.30	60163.47
570.46	60523.91
570.62	60383.48
570.78	60329.65
570.95	60453.70
571.11	60577.75
571.27	60257.09
571.43	60367.10
571.60	60570.72
571.76	60505.19
571.92	60547.32
572.09	60556.68
572.25	60516.89
572.41	60493.49
572.57	60509.87
572.74	60814.14
572.90	60720.52
573.06	60544.98
573.22	60608.17
573.38	60479.44
573.55	60776.69
573.71	60788.39
573.87	60704.13
574.03	60509.87
574.20	60615.19
574.36	60692.43
574.52	60867.97
574.68	60725.20
574.84	60687.75
575.01	60683.07
575.17	60729.88
575.33	60687.75
575.49	60617.53
575.65	60788.39
575.82	60732.22
575.98	60942.87
576.14	60940.53
576.30	60835.20
576.46	60654.98
576.62	60795.42
576.79	60743.92
576.95	60645.62
577.11	60779.03
577.27	60699.45
577.43	60942.87
577.59	60584.77
577.75	60905.42
577.92	60542.64
578.08	60781.37
578.24	60917.12
578.40	60945.21
578.56	60910.10
578.72	60795.42
578.88	60938.19
579.04	60919.46
579.21	60762.65
579.37	61015.43
579.53	60842.23
579.69	60706.47
579.85	60697.11
580.01	60903.08
580.17	60612.85
580.33	61069.26
580.49	60914.78
580.65	60856.27
580.82	60973.30
580.98	60870.31
581.14	60603.49
581.30	61183.94
581.46	60816.48
581.62	60956.91
581.78	61034.15
581.94	61212.03
582.10	60835.20
582.26	60837.54
582.42	60846.91
582.58	60977.98
582.74	60776.69
582.90	60870.31
583.06	60837.54
583.22	60839.89
583.38	60853.93
583.54	61055.21
583.70	61057.56
583.86	61022.45
584.02	60945.21
584.18	61006.06
584.34	61010.74
584.50	60774.35
584.66	60931.17
584.82	60659.66
584.98	60975.64
585.14	60987.34
585.30	60872.65
585.46	60736.90
585.62	60947.55
585.78	61188.63
585.94	60804.78
586.10	61076.28
586.26	61031.81
586.42	61095.00
586.58	61113.73
586.74	60879.67
586.90	60917.12
587.06	60980.32
587.22	61380.55
587.38	61162.88
587.54	61038.83
587.70	61326.72
587.86	61010.74
588.02	61038.83
588.18	61090.32
588.34	60961.59
588.49	61059.90
