SpectraSuite Data File
++++++++++++++++++++++++++++++++++++
Date: Fri Oct 25 11:23:14 EDT 2013
User: price-jones
Dark Spectrum Present: No
Reference Spectrum Present: No
Number of Sampled Component Spectra: 1
Spectrometers: USB2+H05261
Integration Time (usec): 100000 (USB2+H05261)
Spectra Averaged: 1 (USB2+H05261)
Boxcar Smoothing: 0 (USB2+H05261)
Correct for Electrical Dark: No (USB2+H05261)
Strobe/Lamp Enabled: No (USB2+H05261)
Correct for Detector Non-linearity: No (USB2+H05261)
Correct for Stray Light: No (USB2+H05261)
Number of Pixels in Processed Spectrum: 2048
>>>>>Begin Processed Spectral Data<<<<<
365.73	198.95
365.92	198.95
366.12	198.95
366.32	138.09
366.52	170.86
366.72	110.01
366.91	53.83
367.11	70.22
367.31	42.13
367.51	107.66
367.70	121.71
367.90	128.73
368.10	93.62
368.30	173.20
368.49	60.85
368.69	198.95
368.89	72.56
369.09	124.05
369.28	212.99
369.48	168.52
369.68	170.86
369.87	238.73
370.07	180.22
370.27	238.73
370.47	318.31
370.66	606.20
370.86	706.84
371.06	709.18
371.25	702.16
371.45	594.50
371.65	681.10
371.84	671.73
372.04	653.01
372.24	758.33
372.44	685.78
372.63	793.44
372.83	784.08
373.03	791.10
373.22	713.86
373.42	765.36
373.62	786.42
373.81	805.14
374.01	767.70
374.21	823.87
374.40	828.55
374.60	851.96
374.79	819.19
374.99	763.01
375.19	791.10
375.38	849.61
375.58	805.14
375.78	795.78
375.97	828.55
376.17	875.36
376.37	891.74
376.56	866.00
376.76	821.53
376.95	837.91
377.15	875.36
377.35	809.83
377.54	950.26
377.74	870.68
377.93	894.08
378.13	940.90
378.33	940.90
378.52	936.21
378.72	952.60
378.91	884.72
379.11	976.00
379.31	992.39
379.50	880.04
379.70	1029.84
379.89	976.00
380.09	931.53
380.28	959.62
380.48	1034.52
380.68	947.92
380.87	1025.15
381.07	1046.22
381.26	1020.47
381.46	973.66
381.65	987.71
381.85	954.94
382.04	1071.97
382.24	1067.28
382.43	1036.86
382.63	978.34
382.83	1043.88
383.02	1071.97
383.22	1142.18
383.41	1104.73
383.61	1181.97
383.80	1163.25
384.00	1071.97
384.19	1184.31
384.39	1062.60
384.58	1076.65
384.78	1163.25
384.97	1142.18
385.17	1212.40
385.36	1130.48
385.56	1186.65
385.75	1123.46
385.95	1205.38
386.14	1221.76
386.34	1240.48
386.53	1219.42
386.72	1233.46
386.92	1214.74
387.11	1165.59
387.31	1254.53
387.50	1186.65
387.70	1324.74
387.89	1383.26
388.09	1329.42
388.28	1317.72
388.48	1369.21
388.67	1427.73
388.86	1303.68
389.06	1261.55
389.25	1355.17
389.45	1303.68
389.64	1355.17
389.84	1439.43
390.03	1432.41
390.22	1455.81
390.42	1280.27
390.61	1380.92
390.81	1380.92
391.00	1439.43
391.19	1544.75
391.39	1460.49
391.58	1511.99
391.78	1411.34
391.97	1453.47
392.16	1453.47
392.36	1591.56
392.55	1455.81
392.75	1462.83
392.94	1427.73
393.13	1542.41
393.33	1584.54
393.52	1551.78
393.71	1596.25
393.91	1507.30
394.10	1504.96
394.29	1629.01
394.49	1544.75
394.68	1666.46
394.88	1561.14
395.07	1650.08
395.26	1689.87
395.46	1659.44
395.65	1781.15
395.84	1732.00
396.04	1701.57
396.23	1736.68
396.42	1811.57
396.62	1767.10
396.81	1755.40
397.00	1767.10
397.19	1743.70
397.39	1823.28
397.58	1912.22
397.77	1870.09
397.97	1827.96
398.16	1837.32
398.35	1916.90
398.55	1893.49
398.74	1849.02
398.93	1947.33
399.12	1954.35
399.32	1975.41
399.51	1961.37
399.70	2036.27
399.90	1930.94
400.09	2059.67
400.28	2040.95
400.47	2038.61
400.67	2101.80
400.86	1919.24
401.05	2127.55
401.24	2012.86
401.44	2167.34
401.63	2127.55
401.82	2183.72
402.01	2200.10
402.21	2221.17
402.40	2258.62
402.59	2120.53
402.78	2244.57
402.97	2141.59
403.17	2104.14
403.36	2359.26
403.55	2366.28
403.74	2335.85
403.93	2403.73
404.13	2370.96
404.32	2436.50
404.51	2537.14
404.70	2394.37
404.89	2387.35
405.09	2532.46
405.28	2502.03
405.47	2562.89
405.66	2492.67
405.85	2502.03
406.05	2485.65
406.24	2516.08
406.43	2523.10
406.62	2614.38
406.81	2630.76
407.00	2490.33
407.20	2567.57
407.39	2619.06
407.58	2663.53
407.77	2710.34
407.96	2644.81
408.15	2789.92
408.34	2822.69
408.54	2773.53
408.73	2867.16
408.92	2813.32
409.11	2857.79
409.30	2967.80
409.49	2818.00
409.68	2916.31
409.87	2995.89
410.07	2972.48
410.26	3063.76
410.45	3045.04
410.64	2979.50
410.83	3075.46
411.02	3166.74
411.21	3049.72
411.40	3143.34
411.59	3227.60
411.78	3159.72
411.98	3234.62
412.17	3307.18
412.36	3398.46
412.55	3485.06
412.74	3442.93
412.93	3508.46
413.12	3321.22
413.31	3555.27
413.50	3463.99
413.69	3412.50
413.88	3646.55
414.07	3438.25
414.26	3599.74
414.45	3669.96
414.64	3637.19
414.83	3815.07
415.02	3796.35
415.22	3911.04
415.41	3932.10
415.60	3831.46
415.79	3936.78
415.98	3988.27
416.17	3936.78
416.36	3861.88
416.55	3908.69
416.74	4102.96
416.93	4065.51
417.12	4290.20
417.31	4248.07
417.50	4271.48
417.69	4227.01
417.88	4280.84
418.07	4320.63
418.26	4318.29
418.45	4322.97
418.64	4447.02
418.83	4493.83
419.02	4381.48
419.21	4512.55
419.39	4606.17
419.58	4381.48
419.77	4521.92
419.96	4662.35
420.15	4615.54
420.34	4608.51
420.53	4725.54
420.72	4793.42
420.91	4683.41
421.10	4762.99
421.29	4943.21
421.48	4844.91
421.67	4903.42
421.86	4873.00
422.05	4798.10
422.24	4772.35
422.43	4917.47
422.61	4971.30
422.80	4938.53
422.99	4978.32
423.18	4985.34
423.37	5018.11
423.56	4983.00
423.75	5015.77
423.94	4865.97
424.13	4552.34
424.32	4760.65
424.50	4950.23
424.69	5095.35
424.88	4985.34
425.07	5013.43
425.26	4678.73
425.45	5193.65
425.64	5004.07
425.83	5022.79
426.01	5102.37
426.20	5055.56
426.39	5121.09
426.58	5151.52
426.77	5146.84
426.96	5116.41
427.15	5139.82
427.33	5275.57
427.52	5137.48
427.71	5357.49
427.90	5203.01
428.09	5514.30
428.28	5329.40
428.46	5423.02
428.65	5504.94
428.84	5502.60
429.03	5600.90
429.22	5561.11
429.40	5437.06
429.59	5556.43
429.78	5469.83
429.97	5308.34
430.16	5563.45
430.34	5575.16
430.53	5778.78
430.72	5834.96
430.91	5738.99
431.10	5755.38
431.28	5886.45
431.47	5731.97
431.66	5905.17
431.85	5844.32
432.03	5940.28
432.22	6097.10
432.41	5837.30
432.60	5856.02
432.79	6040.92
432.97	6052.63
433.16	6047.94
433.35	6040.92
433.54	6026.88
433.72	6179.01
433.91	6085.39
434.10	6284.34
434.28	6115.82
434.47	6235.19
434.66	6429.45
434.85	6200.08
435.03	6464.56
435.22	6317.11
435.41	6438.81
435.59	6581.59
435.78	6422.43
435.97	6541.80
436.16	6497.33
436.34	6530.09
436.53	6520.73
436.72	6670.53
436.90	6546.48
437.09	6633.08
437.28	6654.14
437.46	6651.80
437.65	6729.04
437.84	6707.98
438.02	6750.10
438.21	6738.40
438.40	6869.47
438.58	7087.14
438.77	6958.41
438.96	7087.14
439.14	7080.12
439.33	7372.69
439.52	7162.04
439.70	7117.57
439.89	7426.52
440.08	7384.39
440.26	7307.15
440.45	7283.75
440.63	7332.90
440.82	7508.44
441.01	7517.80
441.19	7660.57
441.38	7798.66
441.57	7742.49
441.75	7770.58
441.94	7927.39
442.12	8067.83
442.31	8086.55
442.50	8006.97
442.68	8152.09
442.87	7971.86
443.05	8135.70
443.24	8159.11
443.43	8236.35
443.61	8142.72
443.80	8510.19
443.98	8135.70
444.17	8028.04
444.35	8271.45
444.54	8446.99
444.73	8400.18
444.91	8243.37
445.10	8198.90
445.28	8400.18
445.47	8278.47
445.65	8545.30
445.84	8589.77
446.02	8547.64
446.21	8477.42
446.39	8538.27
446.58	8517.21
446.77	8486.78
446.95	8430.61
447.14	8294.86
447.32	8620.19
447.51	8531.25
447.69	8463.38
447.88	8627.21
448.06	8713.81
448.25	8587.43
448.43	8702.11
448.62	8629.56
448.80	8678.71
448.99	8748.92
449.17	8713.81
449.36	8769.99
449.54	8973.61
449.73	8978.30
449.91	9128.09
450.10	9039.15
450.28	9221.71
450.46	9074.26
450.65	9011.06
450.83	9111.71
451.02	9186.60
451.20	9338.74
451.39	9149.15
451.57	9144.47
451.76	9116.39
451.94	9448.74
452.13	9200.65
452.31	9287.25
452.49	9348.10
452.68	9390.23
452.86	9425.34
453.05	9441.72
453.23	9774.08
453.42	9357.46
453.60	9472.15
453.78	9537.68
453.97	9439.38
454.15	9579.81
454.34	9408.95
454.52	9774.08
454.70	9713.22
454.89	9804.50
455.07	9743.65
455.26	9750.67
455.44	10001.11
455.62	9788.12
455.81	10031.54
455.99	10019.83
456.17	10249.21
456.36	10237.50
456.54	10083.03
456.73	10466.88
456.91	10537.09
457.09	10448.15
457.28	10345.17
457.46	10415.38
457.64	10586.24
457.83	10607.31
458.01	10361.55
458.19	10623.69
458.38	10736.04
458.56	10801.57
458.74	10808.59
458.93	10871.79
459.11	10801.57
459.29	10569.86
459.48	10874.13
459.66	10920.94
459.84	10843.70
460.03	11253.30
460.21	11349.26
460.39	11117.54
460.57	11194.78
460.76	11232.23
460.94	11183.08
461.12	11119.89
461.31	11346.92
461.49	11396.07
461.67	11531.82
461.85	11669.91
462.04	11426.50
462.22	11775.24
462.40	11604.38
462.59	11536.50
462.77	11555.22
462.95	11728.42
463.13	11901.62
463.32	11470.97
463.50	11674.59
463.68	11910.99
463.86	12084.19
464.05	11616.08
464.23	11885.24
464.41	11955.46
464.59	11735.45
464.78	12231.64
464.96	12315.90
465.14	12016.31
465.32	12039.72
465.50	12152.06
465.69	12421.22
465.87	12187.17
466.05	12123.98
466.23	12496.12
466.41	12409.52
466.60	12585.06
466.78	12226.96
466.96	12320.58
467.14	12545.27
467.32	12409.52
467.51	12439.95
467.69	12322.92
467.87	12479.74
468.05	12629.53
468.23	12627.19
468.41	12482.08
468.60	12704.43
468.78	12802.73
468.96	12610.81
469.14	12940.82
469.32	12985.29
469.50	12898.69
469.69	12985.29
469.87	13219.35
470.05	13200.62
470.23	13275.52
470.41	13364.46
470.59	13352.76
470.77	13137.43
470.95	13500.21
471.14	13240.41
471.32	13167.85
471.50	13467.44
471.68	13750.65
471.86	13872.36
472.04	14045.55
472.22	14047.90
472.40	13933.21
472.58	14059.60
472.77	14150.88
472.95	14239.82
473.13	14623.67
473.31	14310.04
473.49	14218.75
473.67	14209.39
473.85	14555.79
474.03	14647.07
474.21	14663.46
474.39	15023.90
474.57	14850.70
474.75	15082.41
474.93	15019.22
475.12	15061.35
475.30	15293.06
475.48	15143.27
475.66	15136.24
475.84	15122.20
476.02	15796.28
476.20	15454.56
476.38	15693.29
476.56	16126.29
476.74	15796.28
476.92	15819.68
477.10	15695.63
477.28	16212.89
477.46	16147.36
477.64	16243.32
477.82	16699.72
478.00	16905.69
478.18	16695.04
478.36	17083.57
478.54	17224.00
478.72	17549.34
478.90	17647.64
479.08	17399.54
479.26	17879.35
479.44	17914.46
479.62	17783.39
479.80	18228.09
479.98	18569.81
480.16	18717.26
480.34	18452.78
480.52	18689.18
480.70	18897.49
480.88	18375.55
481.06	19094.09
481.24	18998.13
481.41	19318.78
481.59	19482.62
481.77	19800.93
481.95	19482.62
482.13	19852.42
482.31	19735.40
482.49	20140.31
482.67	20575.65
482.85	20755.87
483.03	20744.17
483.21	20634.16
483.39	21090.57
483.57	20996.95
483.74	21490.80
483.92	21333.98
484.10	21263.77
484.28	21816.13
484.46	21909.75
484.64	22443.40
484.82	21832.52
485.00	22078.27
485.18	22754.69
485.35	22918.53
485.53	22747.67
485.71	22937.25
485.89	23681.54
486.07	23503.66
486.25	23384.29
486.43	23688.56
486.61	24395.40
486.78	24102.84
486.96	24460.94
487.14	24863.51
487.32	24535.84
487.50	25324.60
487.68	25130.33
487.85	25209.91
488.03	25720.15
488.21	26309.96
488.39	25748.23
488.57	26265.49
488.75	26684.45
488.92	26759.34
489.10	27225.11
489.28	26742.96
489.46	27267.24
489.64	27096.38
489.81	27367.88
489.99	27716.62
490.17	27768.12
490.35	28367.29
490.53	27976.42
490.70	28421.13
490.88	28463.25
491.06	28945.41
491.24	29174.78
491.41	28954.77
491.59	29563.31
491.77	29443.94
491.95	29830.13
492.13	30185.89
492.30	30270.15
492.48	30328.66
492.66	30539.31
492.84	30588.46
493.01	30646.97
493.19	31117.42
493.37	31124.44
493.54	31384.24
493.72	31494.25
493.90	31552.76
494.08	32261.94
494.25	31943.63
494.43	31833.63
494.61	32898.57
494.79	32606.00
494.96	32774.52
495.14	32783.88
495.32	33383.06
495.49	33418.17
495.67	32889.21
495.85	33539.88
496.02	34113.31
496.20	33888.62
496.38	34258.42
496.55	34368.43
496.73	35000.37
496.91	34754.61
497.09	35131.44
497.26	35274.21
497.44	35218.04
497.62	35512.95
497.79	36259.58
497.97	35882.75
498.14	36196.38
498.32	36435.12
498.50	36205.75
498.67	36727.69
498.85	36779.18
499.03	37244.94
499.20	36744.07
499.38	37326.86
499.56	37242.60
499.73	37275.37
499.91	37390.06
500.08	37886.25
500.26	37706.03
500.44	37956.47
500.61	37801.99
500.79	38223.29
500.97	38354.36
501.14	38506.49
501.32	38705.44
501.49	38579.05
501.67	39105.67
501.84	39119.71
502.02	39271.85
502.20	39927.20
502.37	39864.00
502.55	39618.25
502.72	39456.75
502.90	39601.86
503.07	40041.88
503.25	40273.60
503.43	40039.54
503.60	40423.39
503.78	40430.41
503.95	40591.91
504.13	40795.54
504.30	40825.96
504.48	40893.84
504.65	41146.62
504.83	41677.92
505.01	41642.81
505.18	41490.68
505.36	41729.41
505.53	41380.67
505.71	41738.77
505.88	42148.37
506.06	41846.44
506.23	42396.46
506.41	42302.84
506.58	41970.49
506.76	43005.00
506.93	43091.60
507.11	42586.05
507.28	42871.59
507.46	42937.13
507.63	43393.53
507.81	43246.08
507.98	43086.92
508.16	43283.53
508.33	43735.25
508.50	43498.86
508.68	43714.19
508.85	43948.24
509.03	44062.93
509.20	44175.27
509.38	44535.71
509.55	44367.20
509.73	44591.89
509.90	44905.52
510.08	44542.74
510.25	44912.54
510.42	44910.20
510.60	45287.03
510.77	45537.46
510.95	45628.74
511.12	45893.22
511.30	45820.67
511.47	45696.62
511.64	45359.58
511.82	46232.60
511.99	45858.12
512.17	45827.69
512.34	46181.11
512.51	46457.29
512.69	47194.56
512.86	46494.74
513.04	46962.85
513.21	46616.45
513.38	47016.68
513.56	47100.94
513.73	46944.12
513.90	47126.69
514.08	46986.25
514.25	47508.19
514.43	47728.20
514.60	48053.54
514.77	47777.36
514.95	47927.15
515.12	47704.80
515.29	48229.08
515.47	48257.17
515.64	47913.11
515.81	48224.40
515.99	48435.05
516.16	48825.92
516.33	48453.77
516.51	48854.00
516.68	48793.15
516.85	48989.75
517.03	49029.54
517.20	49167.63
517.37	48823.58
517.54	49193.38
517.72	48835.28
517.89	49415.73
518.06	49535.10
518.24	49490.63
518.41	49689.57
518.58	50035.97
518.75	49591.27
518.93	49549.14
519.10	49815.96
519.27	49834.69
519.45	50003.20
519.62	49993.84
519.79	50429.18
519.96	50380.03
520.14	50567.27
520.31	50363.65
520.48	50475.99
520.65	50653.87
520.83	50625.79
521.00	50962.82
521.17	50885.59
521.34	50707.71
521.52	51180.49
521.69	51182.84
521.86	51536.26
522.03	51473.06
522.20	51604.13
522.38	51679.03
522.55	51653.28
522.72	51777.33
522.89	51414.55
523.07	52065.22
523.24	51702.43
523.41	51856.91
523.58	51777.33
523.75	52175.22
523.92	52133.09
524.10	52163.52
524.27	52032.45
524.44	52409.28
524.61	52453.75
524.78	52369.49
524.96	52442.04
525.13	52589.50
525.30	52570.77
525.47	52968.66
525.64	52823.55
525.81	52882.06
525.98	52849.30
526.16	52807.17
526.33	52800.15
526.50	53066.97
526.67	53176.97
526.84	53329.11
527.01	53102.07
527.18	53027.18
527.36	53294.00
527.53	53097.39
527.70	53680.19
527.87	53736.36
528.04	53385.28
528.21	53373.58
528.38	53251.87
528.55	53904.88
528.72	53483.58
528.89	53654.44
529.07	53539.75
529.24	53301.02
529.41	53872.11
529.58	53853.39
529.75	53956.37
529.92	54040.63
530.09	53860.41
530.26	54178.72
530.43	54024.25
530.60	53750.40
530.77	54064.03
530.94	54255.96
531.11	54174.04
531.28	54288.73
531.46	54417.46
531.63	54595.34
531.80	54333.20
531.97	54703.00
532.14	54794.28
532.31	54705.34
532.48	54674.91
532.65	54817.69
532.82	54719.38
532.99	55000.25
533.16	54539.16
533.33	55009.61
533.50	55030.68
533.67	55002.59
533.84	54775.56
534.01	55164.09
534.18	55276.43
534.35	55505.80
534.52	55285.79
534.69	55384.10
534.86	55468.36
535.03	55463.67
535.20	55473.04
535.37	55674.32
535.54	55571.34
535.71	55402.82
535.88	55503.46
536.05	55693.05
536.22	55863.91
536.38	55627.51
536.55	55774.97
536.72	55707.09
536.89	55639.22
537.06	55721.13
537.23	56107.32
537.40	55669.64
537.57	55908.38
537.74	56140.09
537.91	56123.71
538.08	56062.85
538.25	55648.58
538.42	56002.00
538.59	56640.96
538.75	56002.00
538.92	56224.35
539.09	56383.51
539.26	56315.63
539.43	56362.44
539.60	56516.92
539.77	56514.58
539.94	56444.36
540.11	56552.02
540.28	56432.66
540.44	56722.88
540.61	56669.05
540.78	56502.87
540.95	56683.09
541.12	56755.65
541.29	56427.98
541.46	56910.13
541.62	57013.11
541.79	56910.13
541.96	56416.27
542.13	56938.21
542.30	56786.08
542.47	56896.08
542.63	57052.90
542.80	57223.76
542.97	57069.28
543.14	57392.28
543.31	57322.06
543.48	57209.71
543.64	57518.67
543.81	57567.82
543.98	57490.58
544.15	57647.39
544.32	57682.50
544.48	57649.74
544.65	57418.02
544.82	57539.73
544.99	57588.88
545.16	57696.55
545.32	57593.56
545.49	58021.88
545.66	57982.09
545.83	57846.34
546.00	57977.41
546.16	57944.64
546.33	57687.18
546.50	57755.06
546.67	57818.25
546.83	57846.34
547.00	57996.13
547.17	57911.88
547.34	57979.75
547.50	58042.95
547.67	58300.40
547.84	58260.62
548.00	58372.96
548.17	58412.75
548.34	58576.59
548.51	58454.88
548.67	58539.14
548.84	58398.71
549.01	58267.64
549.18	58204.44
549.34	58440.84
549.51	58525.10
549.68	58714.68
549.84	58454.88
550.01	58660.85
550.18	58560.20
550.34	58672.55
550.51	58775.53
550.68	58628.08
550.84	58520.41
551.01	58625.74
551.18	58520.41
551.34	58649.14
551.51	58766.17
551.68	58831.71
551.84	58827.02
552.01	58688.93
552.18	58845.75
552.34	58817.66
552.51	58962.78
552.68	58885.54
552.84	58820.00
553.01	59180.45
553.18	59126.61
553.34	59009.59
553.51	59016.61
553.67	59028.31
553.84	59166.40
554.01	59199.17
554.17	59152.36
554.34	59241.30
554.51	59260.02
554.67	59089.16
554.84	59316.20
555.00	59229.60
555.17	58993.20
555.33	59145.34
555.50	59117.25
555.67	59161.72
555.83	59313.86
556.00	59164.06
556.16	59533.87
556.33	59451.95
556.50	59353.65
556.66	59547.91
556.83	59269.39
556.99	59484.72
557.16	59505.78
557.32	59920.05
557.49	59863.88
557.65	59393.43
557.82	59711.75
557.98	59732.81
558.15	59566.63
558.32	59604.08
558.48	59805.37
558.65	59725.79
558.81	59634.51
558.98	59788.98
559.14	59625.15
559.31	59716.43
559.47	59812.39
559.64	59877.93
559.80	59863.88
559.97	59894.31
560.13	59599.40
560.30	59765.58
560.46	59994.95
560.63	59966.87
560.79	60074.53
560.96	59999.63
561.12	60102.62
561.29	59980.91
561.45	60046.44
561.61	60030.06
561.78	59936.44
561.94	59934.10
562.11	59973.89
562.27	59955.16
562.44	60076.87
562.60	60126.02
562.77	60158.79
562.93	60104.96
563.10	60287.52
563.26	60140.07
563.42	60287.52
563.59	60109.64
563.75	60151.77
563.92	60198.58
564.08	60177.51
564.24	60037.08
564.41	60287.52
564.57	60343.69
564.74	60423.27
564.90	60212.62
565.07	60229.01
565.23	60282.84
565.39	60168.15
565.56	60219.64
565.72	60439.65
565.88	60530.93
566.05	60186.88
566.21	60285.18
566.38	60395.18
566.54	60392.84
566.70	60561.36
566.87	60577.75
567.03	60378.80
567.19	60523.91
567.36	60619.88
567.52	60250.07
567.68	60669.03
567.85	60444.33
568.01	60559.02
568.17	60526.25
568.34	60612.85
568.50	60554.34
568.66	60427.95
568.83	60615.19
568.99	60612.85
569.15	60500.51
569.32	60598.81
569.48	60537.96
569.64	60629.24
569.81	60713.50
569.97	60584.77
570.13	60465.40
570.30	60561.36
570.46	60727.54
570.62	60547.32
570.78	60931.17
570.95	60863.29
571.11	60891.38
571.27	60947.55
571.43	60741.58
571.60	60989.68
571.76	60823.50
571.92	60898.40
572.09	60811.80
572.25	60537.96
572.41	60877.33
572.57	60846.91
572.74	60992.02
572.90	60914.78
573.06	60832.86
573.22	60793.07
573.38	60865.63
573.55	60802.44
573.71	61048.19
573.87	60851.59
574.03	60687.75
574.20	60940.53
574.36	60767.33
574.52	61031.81
574.68	60844.57
574.84	61031.81
575.01	60851.59
575.17	60945.21
575.33	60865.63
575.49	60900.74
575.65	60884.36
575.82	61031.81
575.98	61050.53
576.14	61015.43
576.30	61057.56
576.46	60970.96
576.62	60828.18
576.79	60846.91
576.95	60734.56
577.11	60952.23
577.27	61027.13
577.43	61043.51
577.59	60825.84
577.75	60867.97
577.92	60956.91
578.08	60987.34
578.24	60996.70
578.40	61240.12
578.56	61066.92
578.72	60977.98
578.88	61272.88
579.04	61172.24
579.21	61116.07
579.37	61212.03
579.53	61160.54
579.69	60982.66
579.85	61027.13
580.01	61045.85
580.17	61013.08
580.33	60945.21
580.49	61282.25
580.65	61174.58
580.82	60889.04
580.98	61102.03
581.14	60811.80
581.30	61132.45
581.46	61104.37
581.62	61190.97
581.78	60821.16
581.94	61146.50
582.10	61373.53
582.26	61230.75
582.42	61109.05
582.58	61099.68
582.74	60956.91
582.90	61036.49
583.06	60989.68
583.22	61080.96
583.38	61197.99
583.54	61045.85
583.70	61099.68
583.86	61275.22
584.02	61024.79
584.18	61195.65
584.34	61221.39
584.50	61066.92
584.66	61095.00
584.82	60809.46
584.98	61134.79
585.14	61155.86
585.30	61010.74
585.46	61137.13
585.62	61183.94
585.78	61333.74
585.94	60973.30
586.10	61261.18
586.26	61116.07
586.42	61165.22
586.58	61148.84
586.74	61244.80
586.90	61071.60
587.06	61181.60
587.22	61214.37
587.38	60982.66
587.54	61254.16
587.70	61410.98
587.86	61183.94
588.02	61162.88
588.18	61408.64
588.34	61418.00
588.49	61087.98
