SpectraSuite Data File
++++++++++++++++++++++++++++++++++++
Date: Fri Oct 25 11:22:48 EDT 2013
User: price-jones
Dark Spectrum Present: No
Reference Spectrum Present: No
Number of Sampled Component Spectra: 1
Spectrometers: USB2+H05261
Integration Time (usec): 100000 (USB2+H05261)
Spectra Averaged: 1 (USB2+H05261)
Boxcar Smoothing: 0 (USB2+H05261)
Correct for Electrical Dark: No (USB2+H05261)
Strobe/Lamp Enabled: No (USB2+H05261)
Correct for Detector Non-linearity: No (USB2+H05261)
Correct for Stray Light: No (USB2+H05261)
Number of Pixels in Processed Spectrum: 2048
>>>>>Begin Processed Spectral Data<<<<<
365.73	264.48
365.92	264.48
366.12	264.48
366.32	175.54
366.52	16.38
366.72	161.50
366.91	39.79
367.11	95.96
367.31	147.45
367.51	128.73
367.70	105.32
367.90	88.94
368.10	170.86
368.30	100.64
368.49	121.71
368.69	135.75
368.89	135.75
369.09	105.32
369.28	220.01
369.48	149.79
369.68	191.92
369.87	184.90
370.07	124.05
370.27	189.58
370.47	369.80
370.66	573.43
370.86	624.92
371.06	674.07
371.25	814.51
371.45	711.52
371.65	681.10
371.84	678.76
372.04	671.73
372.24	713.86
372.44	795.78
372.63	779.40
372.83	697.48
373.03	699.82
373.22	748.97
373.42	746.63
373.62	807.48
373.81	746.63
374.01	849.61
374.21	891.74
374.40	819.19
374.60	812.17
374.79	748.97
374.99	781.74
375.19	739.61
375.38	842.59
375.58	889.40
375.78	786.42
375.97	837.91
376.17	924.51
376.37	819.19
376.56	896.43
376.76	884.72
376.95	931.53
377.15	826.21
377.35	983.02
377.54	870.68
377.74	919.83
377.93	961.96
378.13	861.32
378.33	997.07
378.52	851.96
378.72	866.00
378.91	978.34
379.11	966.64
379.31	940.90
379.50	912.81
379.70	908.13
379.89	905.79
380.09	976.00
380.28	929.19
380.48	940.90
380.68	1041.54
380.87	976.00
381.07	1011.11
381.26	1001.75
381.46	1018.13
381.65	1048.56
381.85	1090.69
382.04	1018.13
382.24	1107.07
382.43	990.05
382.63	1039.20
382.83	1088.35
383.02	1118.78
383.22	1093.03
383.41	1123.46
383.61	1139.84
383.80	1116.44
384.00	1156.22
384.19	1144.52
384.39	1135.16
384.58	1128.14
384.78	1116.44
384.97	1156.22
385.17	1203.04
385.36	1188.99
385.56	1107.07
385.75	1137.50
385.95	1214.74
386.14	1111.75
386.34	1130.48
386.53	1167.93
386.72	1181.97
386.92	1207.72
387.11	1287.29
387.31	1174.95
387.50	1266.23
387.70	1252.19
387.89	1207.72
388.09	1259.21
388.28	1291.98
388.48	1291.98
388.67	1299.00
388.86	1334.11
389.06	1376.24
389.25	1263.89
389.45	1277.93
389.64	1383.26
389.84	1366.87
390.03	1378.58
390.22	1479.22
390.42	1348.15
390.61	1359.85
390.81	1430.07
391.00	1472.20
391.19	1411.34
391.39	1334.11
391.58	1416.02
391.78	1380.92
391.97	1502.62
392.16	1387.94
392.36	1500.28
392.55	1511.99
392.75	1589.22
392.94	1479.22
393.13	1500.28
393.33	1460.49
393.52	1645.40
393.71	1603.27
393.91	1685.19
394.10	1647.74
394.29	1565.82
394.49	1554.12
394.68	1607.95
394.88	1689.87
395.07	1598.59
395.26	1507.30
395.46	1673.48
395.65	1657.10
395.84	1776.47
396.04	1724.97
396.23	1760.08
396.42	1619.65
396.62	1678.16
396.81	1795.19
397.00	1827.96
397.19	1792.85
397.39	1816.26
397.58	1914.56
397.77	1853.70
397.97	1839.66
398.16	1813.92
398.35	2017.54
398.55	1834.98
398.74	1912.22
398.93	2024.56
399.12	1884.13
399.32	1832.64
399.51	1909.88
399.70	2083.08
399.90	1947.33
400.09	2015.20
400.28	2033.93
400.47	1949.67
400.67	2204.78
400.86	2008.18
401.05	2045.63
401.24	2043.29
401.44	2150.95
401.63	2179.04
401.82	2139.25
402.01	2174.36
402.21	2277.34
402.40	2148.61
402.59	2139.25
402.78	2324.15
402.97	2317.13
403.17	2190.74
403.36	2174.36
403.55	2242.23
403.74	2258.62
403.93	2279.68
404.13	2354.58
404.32	2373.30
404.51	2401.39
404.70	2480.97
404.89	2462.24
405.09	2452.88
405.28	2443.52
405.47	2420.11
405.66	2389.69
405.85	2513.74
406.05	2527.78
406.24	2445.86
406.43	2525.44
406.62	2530.12
406.81	2708.00
407.00	2520.76
407.20	2551.18
407.39	2663.53
407.58	2743.11
407.77	2654.17
407.96	2820.35
408.15	2689.28
408.34	2731.41
408.54	2787.58
408.73	2883.54
408.92	2846.09
409.11	2876.52
409.30	3045.04
409.49	2860.13
409.68	2881.20
409.87	2939.71
410.07	3066.10
410.26	3030.99
410.45	3014.61
410.64	3009.93
410.83	3241.64
411.02	3038.02
411.21	3089.51
411.40	3129.30
411.59	3227.60
411.78	3141.00
411.98	3232.28
412.17	3309.52
412.36	3346.97
412.55	3211.22
412.74	3361.01
412.93	3459.31
413.12	3344.63
413.31	3562.30
413.50	3489.74
413.69	3454.63
413.88	3581.02
414.07	3534.21
414.26	3609.11
414.45	3623.15
414.64	3616.13
414.83	3791.67
415.02	3798.69
415.22	3847.84
415.41	3929.76
415.60	3840.82
415.79	3882.95
415.98	3955.51
416.17	3953.16
416.36	3927.42
416.55	4128.70
416.74	4004.66
416.93	3927.42
417.12	4032.74
417.31	4241.05
417.50	4098.28
417.69	4362.76
417.88	4133.39
418.07	4304.25
418.26	4348.72
418.45	4266.80
418.64	4414.25
418.83	4489.15
419.02	4496.17
419.21	4454.04
419.39	4519.57
419.58	4400.21
419.77	4519.57
419.96	4622.56
420.15	4545.32
420.34	4603.83
420.53	4634.26
420.72	4718.52
420.91	4589.79
421.10	4727.88
421.29	4720.86
421.48	4688.09
421.67	4842.57
421.86	4688.09
422.05	4851.93
422.24	4847.25
422.43	4884.70
422.61	4968.96
422.80	5151.52
422.99	4945.55
423.18	4746.61
423.37	5121.09
423.56	5013.43
423.75	4905.76
423.94	4861.29
424.13	4634.26
424.32	4676.39
424.50	5053.22
424.69	5104.71
424.88	5156.20
425.07	5100.03
425.26	4961.94
425.45	4938.53
425.64	5020.45
425.83	4868.31
426.01	4933.85
426.20	5179.61
426.39	5142.16
426.58	4957.25
426.77	4968.96
426.96	5291.95
427.15	5128.11
427.33	5153.86
427.52	5160.88
427.71	5294.29
427.90	5231.10
428.09	5308.34
428.28	5523.66
428.46	5308.34
428.65	5305.99
428.84	5383.23
429.03	5514.30
429.22	5451.11
429.40	5563.45
429.59	5575.16
429.78	5247.48
429.97	5280.25
430.16	5469.83
430.34	5528.35
430.53	5715.59
430.72	5741.33
430.91	5650.05
431.10	5558.77
431.28	5799.85
431.47	5792.83
431.66	5818.57
431.85	5785.80
432.03	5909.85
432.22	5905.17
432.41	5937.94
432.60	5895.81
432.79	6017.52
432.97	5996.45
433.16	6090.07
433.35	6057.31
433.54	5987.09
433.72	6319.45
433.91	6291.36
434.10	6249.23
434.28	6157.95
434.47	6113.48
434.66	6289.02
434.85	6164.97
435.03	6403.71
435.22	6244.55
435.41	6492.65
435.59	6499.67
435.78	6429.45
435.97	6462.22
436.16	6429.45
436.34	6466.90
436.53	6640.10
436.72	6698.61
436.90	6572.22
437.09	6628.40
437.28	6401.37
437.46	6675.21
437.65	6677.55
437.84	6899.90
438.02	6757.13
438.21	6895.22
438.40	6686.91
438.58	6958.41
438.77	7164.38
438.96	6815.64
439.14	7098.84
439.33	7089.48
439.52	7208.85
439.70	7295.45
439.89	7342.26
440.08	7508.44
440.26	7379.71
440.45	7353.96
440.63	7508.44
440.82	7492.05
441.01	7578.65
441.19	7611.42
441.38	7686.32
441.57	7702.70
441.75	7784.62
441.94	7964.84
442.12	7974.21
442.31	8367.42
442.50	8046.76
442.68	7826.75
442.87	7896.97
443.05	8203.58
443.24	8283.16
443.43	8084.21
443.61	8138.04
443.80	8437.63
443.98	8042.08
444.17	8065.49
444.35	8116.98
444.54	8643.60
444.73	8430.61
444.91	8334.65
445.10	8423.59
445.28	8379.12
445.47	8187.19
445.65	8505.51
445.84	8454.02
446.02	8674.03
446.21	8320.60
446.39	8503.17
446.58	8365.07
446.77	8493.80
446.95	8262.09
447.14	8423.59
447.32	8617.85
447.51	8521.89
447.69	8554.66
447.88	8554.66
448.06	8575.72
448.25	8561.68
448.43	8674.03
448.62	8524.23
448.80	8554.66
448.99	8547.64
449.17	8664.66
449.36	8643.60
449.54	8840.20
449.73	8861.27
449.91	9018.08
450.10	9020.42
450.28	9252.14
450.46	9088.30
450.65	9006.38
450.83	9036.81
451.02	9224.05
451.20	9238.09
451.39	9207.67
451.57	9219.37
451.76	9247.46
451.94	9214.69
452.13	9504.92
452.31	9282.56
452.49	9315.33
452.68	9434.70
452.86	9355.12
453.05	9327.03
453.23	9441.72
453.42	9338.74
453.60	9432.36
453.78	9490.87
453.97	9469.81
454.15	9465.13
454.34	9525.98
454.52	9844.29
454.70	9708.54
454.89	9827.91
455.07	9895.78
455.26	9879.40
455.44	9867.70
455.62	9893.44
455.81	9940.26
455.99	10054.94
456.17	10162.61
456.36	10162.61
456.54	10345.17
456.73	10059.62
456.91	10373.25
457.09	10436.45
457.28	10583.90
457.46	10265.59
457.64	10628.37
457.83	10466.88
458.01	10504.32
458.19	10911.58
458.38	10644.76
458.56	10902.22
458.74	10621.35
458.93	10888.17
459.11	10668.16
459.29	10731.36
459.48	10813.28
459.66	10714.97
459.84	10930.30
460.03	10897.53
460.21	11103.50
460.39	11201.80
460.57	10892.85
460.76	11131.59
460.94	11171.38
461.12	11229.89
461.31	11124.57
461.49	11171.38
461.67	11391.39
461.85	11609.06
462.04	11538.84
462.22	11721.40
462.40	11632.46
462.59	11377.34
462.77	11470.97
462.95	11740.13
463.13	11630.12
463.32	11892.26
463.50	11929.71
463.68	11871.20
463.86	11915.67
464.05	11756.51
464.23	11836.09
464.41	11894.60
464.59	11793.96
464.78	12201.21
464.96	12126.32
465.14	11866.52
465.32	12046.74
465.50	12138.02
465.69	12224.62
465.87	12074.82
466.05	12175.47
466.23	12074.82
466.41	12273.77
466.60	12325.26
466.78	12313.56
466.96	12283.13
467.14	12198.87
467.32	12423.56
467.51	12683.36
467.69	12020.99
467.87	12564.00
468.05	12596.76
468.23	12601.44
468.41	12599.10
468.60	12973.59
468.78	12793.37
468.96	12432.93
469.14	12830.82
469.32	13088.28
469.50	12699.75
469.69	13186.58
469.87	13451.06
470.05	13231.05
470.23	13092.96
470.41	13547.02
470.59	13483.83
470.77	13247.43
470.95	13446.38
471.14	13399.57
471.32	13109.34
471.50	13628.94
471.68	13790.44
471.86	13851.29
472.04	14010.45
472.22	14312.38
472.40	13797.46
472.58	13778.73
472.77	14167.26
472.95	14277.27
473.13	14609.62
473.31	14284.29
473.49	14193.01
473.67	14277.27
473.85	14537.07
474.03	14745.38
474.21	14764.10
474.39	14686.86
474.57	14663.46
474.75	14853.04
474.93	15091.77
475.12	15063.69
475.30	15232.21
475.48	15255.61
475.66	15234.55
475.84	15304.76
476.02	15445.20
476.20	15477.96
476.38	15744.78
476.56	16112.25
476.74	16016.29
476.92	16039.69
477.10	15969.48
477.28	16170.76
477.46	16189.49
477.64	16369.71
477.82	16695.04
478.00	17099.95
478.18	16802.71
478.36	17043.78
478.54	17341.03
478.72	17486.14
478.90	17081.23
479.08	17790.41
479.26	17727.22
479.44	17984.68
479.62	17752.96
479.80	18059.57
479.98	18246.82
480.16	18640.03
480.34	18459.81
480.52	18684.50
480.70	18572.15
480.88	18270.22
481.06	19119.84
481.24	19080.05
481.41	19138.56
481.59	19438.15
481.77	19843.06
481.95	19648.80
482.13	19704.97
482.31	19733.06
482.49	20350.96
482.67	20114.56
482.85	20730.12
483.03	21006.31
483.21	21022.69
483.39	21158.44
483.57	20987.58
483.74	21497.82
483.92	21617.19
484.10	21357.39
484.28	21612.51
484.46	22136.79
484.64	22457.44
484.82	22043.17
485.00	22483.19
485.18	22771.07
485.35	23227.48
485.53	22927.89
485.71	22815.54
485.89	23487.28
486.07	23470.89
486.25	23550.47
486.43	24063.05
486.61	23995.17
486.78	24095.82
486.96	24144.97
487.14	24872.87
487.32	24800.32
487.50	24800.32
487.68	25209.91
487.85	25472.05
488.03	25546.95
488.21	26066.55
488.39	25865.26
488.57	26412.95
488.75	26246.77
488.92	26656.36
489.10	27117.45
489.28	27131.49
489.46	27484.91
489.64	27178.30
489.81	27704.92
489.99	27737.69
490.17	27632.36
490.35	28151.96
490.53	28570.92
490.70	28276.01
490.88	28409.42
491.06	28811.99
491.24	28882.21
491.41	28980.51
491.59	29511.81
491.77	29586.71
491.95	30150.78
492.13	29996.31
492.30	30185.89
492.48	30230.36
492.66	30115.67
492.84	30651.66
493.01	30916.14
493.19	30607.19
493.37	31241.47
493.54	31379.56
493.72	31807.88
493.90	31679.15
494.08	32077.04
494.25	32140.24
494.43	32350.88
494.61	32491.32
494.79	32718.35
494.96	32758.14
495.14	33015.60
495.32	33584.35
495.49	33256.67
495.67	33324.55
495.85	33598.39
496.02	33874.57
496.20	34134.37
496.38	34232.68
496.55	34101.61
496.73	35161.87
496.91	34490.13
497.09	34838.87
497.26	35297.62
497.44	35047.18
497.62	35620.61
497.79	36121.49
497.97	35742.32
498.14	36238.51
498.32	36673.85
498.50	36250.22
498.67	36788.54
498.85	36823.65
499.03	36809.61
499.20	37198.13
499.38	37212.18
499.56	37827.74
499.73	37024.93
499.91	37266.01
500.08	37848.80
500.26	37701.35
500.44	38047.75
500.61	38141.37
500.79	37886.25
500.97	38209.25
501.14	38693.74
501.32	39075.24
501.49	38546.28
501.67	38892.68
501.84	38756.93
502.02	39442.71
502.20	38806.08
502.37	40030.18
502.55	39199.29
502.72	39384.19
502.90	39800.81
503.07	39463.77
503.25	39688.46
503.43	39758.68
503.60	40217.43
503.78	40479.57
503.95	40722.98
504.13	40495.95
504.30	40765.11
504.48	40451.48
504.65	40758.09
504.83	41404.08
505.01	41163.00
505.18	41226.20
505.36	41516.42
505.53	41488.34
505.71	41790.27
505.88	42155.39
506.06	41525.78
506.23	41940.06
506.41	41698.98
506.58	42162.41
506.76	42644.56
506.93	42227.95
507.11	42225.60
507.28	42817.76
507.46	42983.94
507.63	42511.15
507.81	43243.74
507.98	42974.58
508.16	43416.94
508.33	43620.56
508.50	43704.82
508.68	43817.17
508.85	44004.41
509.03	44081.65
509.20	43941.22
509.38	44624.65
509.55	44968.71
509.73	44748.70
509.90	44917.22
510.08	44666.78
510.25	45022.54
510.42	45059.99
510.60	45244.90
510.77	45436.82
510.95	45759.81
511.12	45083.40
511.30	45404.05
511.47	45626.40
511.64	45378.31
511.82	45996.21
511.99	45729.39
512.17	45839.39
512.34	45780.88
512.51	46323.88
512.69	46576.66
512.86	46522.83
513.04	46981.57
513.21	46902.00
513.38	46972.21
513.56	47250.74
513.73	47035.41
513.90	47236.69
514.08	47164.14
514.25	47276.48
514.43	47442.66
514.60	47732.89
514.77	47688.42
514.95	48065.24
515.12	47627.56
515.29	47489.47
515.47	48231.42
515.64	48186.95
515.81	48247.80
515.99	48563.78
516.16	48685.48
516.33	48411.64
516.51	48935.92
516.68	48987.41
516.85	48655.06
517.03	49013.16
517.20	49057.63
517.37	49020.18
517.54	49134.87
517.72	49256.57
517.89	49099.76
518.06	49902.56
518.24	49497.65
518.41	49095.08
518.58	49296.36
518.75	49893.20
518.93	49932.99
519.10	49731.70
519.27	49858.09
519.45	50047.68
519.62	50349.60
519.79	49954.05
519.96	50064.06
520.14	49881.50
520.31	50288.75
520.48	50993.25
520.65	50820.05
520.83	50918.35
521.00	50885.59
521.17	50731.11
521.34	51178.15
521.52	50948.78
521.69	50901.97
521.86	51306.88
522.03	51051.76
522.20	51250.71
522.38	51395.82
522.55	51578.39
522.72	51608.81
522.89	51934.15
523.07	51763.29
523.24	51648.60
523.41	51943.51
523.58	51704.77
523.75	52313.31
523.92	51791.37
524.10	52018.41
524.27	52247.78
524.44	52025.43
524.61	52327.36
524.78	52247.78
524.96	52458.43
525.13	52484.17
525.30	52418.64
525.47	52381.19
525.64	52317.99
525.81	52734.61
525.98	52786.10
526.16	52743.97
526.33	52870.36
526.50	53059.94
526.67	53261.23
526.84	53186.33
527.01	52926.53
527.18	53237.83
527.36	53066.97
527.53	53544.44
527.70	53523.37
527.87	53319.74
528.04	53272.93
528.21	53469.54
528.38	53514.01
528.55	53717.64
528.72	53502.31
528.89	53855.73
529.07	53387.62
529.24	53270.59
529.41	53778.49
529.58	54033.61
529.75	53663.80
529.92	53684.87
530.09	54033.61
530.26	54192.76
530.43	54288.73
530.60	54209.15
530.77	54401.07
530.94	54148.29
531.11	54049.99
531.28	54375.33
531.46	54274.68
531.63	54504.06
531.80	54721.72
531.97	54721.72
532.14	54564.91
532.31	54588.31
532.48	54759.17
532.65	54770.88
532.82	54698.32
532.99	54864.50
533.16	54691.30
533.33	54712.36
533.50	55121.96
533.67	54843.43
533.84	54880.88
534.01	55100.89
534.18	55227.28
534.35	55466.02
534.52	55224.94
534.69	55227.28
534.86	55381.76
535.03	55222.60
535.20	55124.30
535.37	55281.11
535.54	55477.72
535.71	55515.17
535.88	55681.34
536.05	55449.63
536.22	55730.50
536.38	55714.11
536.55	55746.88
536.72	55683.69
536.89	55519.85
537.06	55924.76
537.23	56060.51
537.40	55737.52
537.57	55875.61
537.74	55945.83
537.91	56133.07
538.08	56025.40
538.25	56009.02
538.42	56002.00
538.59	56301.59
538.75	56044.13
538.92	56048.81
539.09	56537.98
539.26	56041.79
539.43	56320.31
539.60	56701.82
539.77	56273.50
539.94	56343.72
540.11	56423.29
540.28	56486.49
540.44	56608.20
540.61	56582.45
540.78	56463.08
540.95	56711.18
541.12	56498.19
541.29	56636.28
541.46	56643.30
541.62	56643.30
541.79	56676.07
541.96	56458.40
542.13	56802.46
542.30	56926.51
542.47	57031.83
542.63	56924.17
542.80	57099.71
542.97	57319.72
543.14	57235.46
543.31	57174.61
543.48	57389.94
543.64	57422.70
543.81	57324.40
543.98	57408.66
544.15	57366.53
544.32	57485.90
544.48	57829.96
544.65	57432.07
544.82	57572.50
544.99	57137.16
545.16	57640.37
545.32	57506.96
545.49	57909.53
545.66	57979.75
545.83	57745.70
546.00	58007.84
546.16	57867.40
546.33	57642.71
546.50	57621.65
546.67	57715.27
546.83	57654.42
547.00	57909.53
547.17	58040.60
547.34	58131.89
547.50	58136.57
547.67	58096.78
547.84	58031.24
548.00	58195.08
548.17	58485.31
548.34	58445.52
548.51	58417.43
548.67	58234.87
548.84	58389.34
549.01	58443.18
549.18	58291.04
549.34	58347.21
549.51	58382.32
549.68	58550.84
549.84	58595.31
550.01	58553.18
550.18	58408.07
550.34	58511.05
550.51	58677.23
550.68	58733.40
550.84	58464.24
551.01	58607.01
551.18	58838.73
551.34	58623.40
551.51	58667.87
551.68	58934.69
551.84	58693.61
552.01	58663.19
552.18	58927.67
552.34	58614.04
552.51	58805.96
552.68	58780.21
552.84	58660.85
553.01	59159.38
553.18	58922.99
553.34	58958.09
553.51	58859.79
553.67	58810.64
553.84	59072.78
554.01	59121.93
554.17	59135.98
554.34	59145.34
554.51	59320.88
554.67	59203.85
554.84	59112.57
555.00	59110.23
555.17	58918.31
555.33	59229.60
555.50	58944.05
555.67	59086.82
555.83	59264.70
556.00	59250.66
556.16	59409.82
556.33	59470.67
556.50	59311.52
556.66	59547.91
556.83	59344.28
556.99	59508.12
557.16	59526.84
557.32	59573.66
557.49	59753.88
557.65	59590.04
557.82	59547.91
557.98	59480.03
558.15	59601.74
558.32	59482.37
558.48	59461.31
558.65	59573.66
558.81	59583.02
558.98	59660.26
559.14	59824.09
559.31	59838.14
559.47	59781.96
559.64	59840.48
559.80	59943.46
559.97	59868.56
560.13	59639.19
560.30	59725.79
560.46	59945.80
560.63	59812.39
560.79	59983.25
560.96	59889.63
561.12	60086.23
561.29	60067.51
561.45	59833.46
561.61	60062.83
561.78	59861.54
561.94	59962.18
562.11	60074.53
562.27	60264.11
562.44	60203.26
562.60	60044.10
562.77	60179.85
562.93	59854.52
563.10	60102.62
563.26	59966.87
563.42	60404.55
563.59	60196.24
563.75	60179.85
563.92	60121.34
564.08	60079.21
564.24	60470.08
564.41	60186.88
564.57	60268.79
564.74	60207.94
564.90	60336.67
565.07	60238.37
565.23	60250.07
565.39	60161.13
565.56	60322.63
565.72	60182.19
565.88	60484.12
566.05	60376.46
566.21	60388.16
566.38	60320.29
566.54	60507.53
566.70	60439.65
566.87	60472.42
567.03	60404.55
567.19	60580.09
567.36	60327.31
567.52	60376.46
567.68	60786.05
567.85	60341.35
568.01	60685.41
568.17	60357.74
568.34	60425.61
568.50	60610.51
568.66	60388.16
568.83	60460.72
568.99	60341.35
569.15	60376.46
569.32	60505.19
569.48	60505.19
569.64	60610.51
569.81	60505.19
569.97	60633.92
570.13	60657.32
570.30	60512.21
570.46	60594.13
570.62	60664.35
570.78	60430.29
570.95	60612.85
571.11	60849.25
571.27	60638.60
571.43	60732.22
571.60	60905.42
571.76	60830.52
571.92	60830.52
572.09	60893.72
572.25	60769.67
572.41	60603.49
572.57	60823.50
572.74	60989.68
572.90	60793.07
573.06	60776.69
573.22	60804.78
573.38	60860.95
573.55	60814.14
573.71	60966.27
573.87	60685.41
574.03	60816.48
574.20	60704.13
574.36	60762.65
574.52	60926.49
574.68	60907.76
574.84	61092.66
575.01	60809.46
575.17	60891.38
575.33	60811.80
575.49	60725.20
575.65	61130.11
575.82	60687.75
575.98	60907.76
576.14	61158.20
576.30	60816.48
576.46	60727.54
576.62	60989.68
576.79	60666.69
576.95	60786.05
577.11	61003.72
577.27	60996.70
577.43	60860.95
577.59	60882.02
577.75	60924.14
577.92	60800.10
578.08	60968.61
578.24	61106.71
578.40	61186.28
578.56	61090.32
578.72	60947.55
578.88	61162.88
579.04	61221.39
579.21	61092.66
579.37	60992.02
579.53	61116.07
579.69	60818.82
579.85	61041.17
580.01	61127.77
580.17	60935.85
580.33	61148.84
580.49	61111.39
580.65	61010.74
580.82	60882.02
580.98	60809.46
581.14	61041.17
581.30	61111.39
581.46	60867.97
581.62	60968.61
581.78	60966.27
581.94	61109.05
582.10	61087.98
582.26	61127.77
582.42	61057.56
582.58	60814.14
582.74	61097.34
582.90	61003.72
583.06	61176.92
583.22	60884.36
583.38	61172.24
583.54	61132.45
583.70	61303.31
583.86	61141.81
584.02	60945.21
584.18	61214.37
584.34	61226.07
584.50	61106.71
584.66	60879.67
584.82	60919.46
584.98	61071.60
585.14	61064.58
585.30	60889.04
585.46	61069.26
585.62	61043.51
585.78	61249.48
585.94	61003.72
586.10	61106.71
586.26	61130.11
586.42	61066.92
586.58	61085.64
586.74	61212.03
586.90	60989.68
587.06	60860.95
587.22	61235.44
587.38	61410.98
587.54	61457.79
587.70	61549.07
587.86	61270.54
588.02	61165.22
588.18	61385.23
588.34	61268.20
588.49	61212.03
