SpectraSuite Data File
++++++++++++++++++++++++++++++++++++
Date: Fri Oct 25 11:25:46 EDT 2013
User: price-jones
Dark Spectrum Present: No
Reference Spectrum Present: No
Number of Sampled Component Spectra: 1
Spectrometers: USB2+H05261
Integration Time (usec): 100000 (USB2+H05261)
Spectra Averaged: 1 (USB2+H05261)
Boxcar Smoothing: 0 (USB2+H05261)
Correct for Electrical Dark: No (USB2+H05261)
Strobe/Lamp Enabled: No (USB2+H05261)
Correct for Detector Non-linearity: No (USB2+H05261)
Correct for Stray Light: No (USB2+H05261)
Number of Pixels in Processed Spectrum: 2048
>>>>>Begin Processed Spectral Data<<<<<
365.73	210.65
365.92	210.65
366.12	210.65
366.32	198.95
366.52	110.01
366.72	180.22
366.91	170.86
367.11	159.16
367.31	49.15
367.51	142.77
367.70	135.75
367.90	161.50
368.10	159.16
368.30	124.05
368.49	133.41
368.69	205.97
368.89	154.48
369.09	173.20
369.28	187.24
369.48	149.79
369.68	224.69
369.87	154.48
370.07	145.11
370.27	187.24
370.47	301.93
370.66	573.43
370.86	580.45
371.06	674.07
371.25	650.67
371.45	631.94
371.65	671.73
371.84	615.56
372.04	622.58
372.24	716.20
372.44	706.84
372.63	695.14
372.83	748.97
373.03	718.54
373.22	805.14
373.42	744.29
373.62	688.12
373.81	753.65
374.01	807.48
374.21	809.83
374.40	786.42
374.60	856.64
374.79	784.08
374.99	837.91
375.19	894.08
375.38	917.49
375.58	858.98
375.78	880.04
375.97	889.40
376.17	870.68
376.37	835.57
376.56	873.02
376.76	812.17
376.95	819.19
377.15	880.04
377.35	856.64
377.54	919.83
377.74	835.57
377.93	903.45
378.13	919.83
378.33	915.15
378.52	912.81
378.72	940.90
378.91	964.30
379.11	966.64
379.31	905.79
379.50	894.08
379.70	976.00
379.89	940.90
380.09	987.71
380.28	901.11
380.48	1029.84
380.68	938.55
380.87	976.00
381.07	1069.62
381.26	1043.88
381.46	1001.75
381.65	1055.58
381.85	1039.20
382.04	1025.15
382.24	1114.10
382.43	1053.24
382.63	1074.31
382.83	1050.90
383.02	1097.71
383.22	1100.05
383.41	1086.01
383.61	1102.39
383.80	1109.41
384.00	1118.78
384.19	1151.54
384.39	1102.39
384.58	1109.41
384.78	1193.67
384.97	1132.82
385.17	1118.78
385.36	1177.29
385.56	1053.24
385.75	1172.61
385.95	1170.27
386.14	1200.69
386.34	1249.85
386.53	1114.10
386.72	1207.72
386.92	1214.74
387.11	1219.42
387.31	1207.72
387.50	1123.46
387.70	1228.78
387.89	1228.78
388.09	1158.57
388.28	1186.65
388.48	1294.32
388.67	1334.11
388.86	1306.02
389.06	1345.81
389.25	1287.29
389.45	1434.75
389.64	1371.55
389.84	1376.24
390.03	1359.85
390.22	1416.02
390.42	1369.21
390.61	1294.32
390.81	1397.30
391.00	1416.02
391.19	1507.30
391.39	1493.26
391.58	1437.09
391.78	1441.77
391.97	1561.14
392.16	1448.79
392.36	1495.60
392.55	1455.81
392.75	1621.99
392.94	1427.73
393.13	1488.58
393.33	1537.73
393.52	1497.94
393.71	1575.18
393.91	1645.40
394.10	1547.09
394.29	1570.50
394.49	1621.99
394.68	1652.42
394.88	1626.67
395.07	1636.03
395.26	1572.84
395.46	1682.85
395.65	1673.48
395.84	1717.95
396.04	1717.95
396.23	1795.19
396.42	1666.46
396.62	1701.57
396.81	1732.00
397.00	1830.30
397.19	1764.76
397.39	1743.70
397.58	1734.34
397.77	1781.15
397.97	1935.62
398.16	1849.02
398.35	1844.34
398.55	1832.64
398.74	1949.67
398.93	1998.82
399.12	1860.73
399.32	1863.07
399.51	1898.17
399.70	2015.20
399.90	1900.52
400.09	1968.39
400.28	2054.99
400.47	2017.54
400.67	1980.09
400.86	2057.33
401.05	1940.30
401.24	2005.84
401.44	2073.71
401.63	2155.63
401.82	2162.66
402.01	2038.61
402.21	2181.38
402.40	2242.23
402.59	2230.53
402.78	2232.87
402.97	2200.10
403.17	2307.77
403.36	2253.94
403.55	2298.41
403.74	2403.73
403.93	2457.56
404.13	2300.75
404.32	2396.71
404.51	2347.56
404.70	2387.35
404.89	2333.51
405.09	2349.90
405.28	2415.43
405.47	2462.24
405.66	2436.50
405.85	2502.03
406.05	2471.61
406.24	2590.97
406.43	2541.82
406.62	2483.31
406.81	2682.25
407.00	2637.78
407.20	2560.55
407.39	2562.89
407.58	2689.28
407.77	2658.85
407.96	2710.34
408.15	2731.41
408.34	2731.41
408.54	2766.51
408.73	2740.77
408.92	2782.90
409.11	2841.41
409.30	2906.95
409.49	2834.39
409.68	2832.05
409.87	2827.37
410.07	3045.04
410.26	2853.11
410.45	2827.37
410.64	2958.44
410.83	3000.57
411.02	2988.86
411.21	3119.93
411.40	3033.33
411.59	3164.40
411.78	3136.32
411.98	3173.77
412.17	3260.37
412.36	3304.84
412.55	3335.26
412.74	3375.05
412.93	3365.69
413.12	3309.52
413.31	3639.53
413.50	3499.10
413.69	3508.46
413.88	3592.72
414.07	3499.10
414.26	3653.58
414.45	3599.74
414.64	3719.11
414.83	3700.39
415.02	3623.15
415.22	3772.94
415.41	3723.79
415.60	3777.62
415.79	3822.09
415.98	3920.40
416.17	3971.89
416.36	3983.59
416.55	4021.04
416.74	3969.55
416.93	3967.21
417.12	4007.00
417.31	4088.92
417.50	4037.42
417.69	4184.88
417.88	4320.63
418.07	4191.90
418.26	4198.92
418.45	4397.87
418.64	4435.32
418.83	4306.59
419.02	4454.04
419.21	4442.34
419.39	4564.04
419.58	4442.34
419.77	4344.03
419.96	4456.38
420.15	4636.60
420.34	4624.90
420.53	4629.58
420.72	4620.22
420.91	4545.32
421.10	4802.78
421.29	4697.46
421.48	4559.36
421.67	4751.29
421.86	4791.08
422.05	4786.40
422.24	4660.01
422.43	4851.93
422.61	4793.42
422.80	4919.81
422.99	4837.89
423.18	4842.57
423.37	5048.54
423.56	4971.30
423.75	4882.36
423.94	4676.39
424.13	4608.51
424.32	4791.08
424.50	5060.24
424.69	5085.98
424.88	5022.79
425.07	4898.74
425.26	4781.71
425.45	4917.47
425.64	4968.96
425.83	4978.32
426.01	4954.91
426.20	4983.00
426.39	4912.78
426.58	5102.37
426.77	4950.23
426.96	4973.64
427.15	5221.74
427.33	5205.35
427.52	5207.69
427.71	5200.67
427.90	5334.08
428.09	5195.99
428.28	5303.65
428.46	5362.17
428.65	5350.46
428.84	5495.58
429.03	5355.15
429.22	5291.95
429.40	5416.00
429.59	5441.75
429.78	5277.91
429.97	5170.24
430.16	5462.81
430.34	5628.99
430.53	5612.60
430.72	5537.71
430.91	5724.95
431.10	5638.35
431.28	5633.67
431.47	5844.32
431.66	5792.83
431.85	5746.02
432.03	5949.64
432.22	5996.45
432.41	5884.11
432.60	5888.79
432.79	5928.58
432.97	5846.66
433.16	6099.44
433.35	5989.43
433.54	6087.73
433.72	6155.61
433.91	6059.65
434.10	6253.91
434.28	6024.54
434.47	6038.58
434.66	6012.84
434.85	6298.38
435.03	6176.67
435.22	6197.74
435.41	6375.62
435.59	6150.93
435.78	6476.26
435.97	6401.37
436.16	6366.26
436.34	6204.76
436.53	6347.53
436.72	6672.87
436.90	6415.41
437.09	6710.32
437.28	6382.64
437.46	6511.37
437.65	6527.75
437.84	6604.99
438.02	6609.67
438.21	6799.26
438.40	6607.33
438.58	6911.60
438.77	7068.42
438.96	7042.67
439.14	6949.05
439.33	7138.63
439.52	7042.67
439.70	6988.84
439.89	7307.15
440.08	7297.79
440.26	7185.44
440.45	7286.09
440.63	7358.64
440.82	7644.19
441.01	7508.44
441.19	7424.18
441.38	7660.57
441.57	7786.96
441.75	7691.00
441.94	7911.01
442.12	7896.97
442.31	7934.42
442.50	7793.98
442.68	7798.66
442.87	7948.46
443.05	8046.76
443.24	8131.02
443.43	7974.21
443.61	8072.51
443.80	8276.13
443.98	7868.88
444.17	7850.16
444.35	8191.88
444.54	8222.30
444.73	8315.92
444.91	8170.81
445.10	8313.58
445.28	8109.96
445.47	8063.15
445.65	8292.52
445.84	8374.44
446.02	8458.70
446.21	8196.56
446.39	8348.69
446.58	8372.10
446.77	8081.87
446.95	8269.11
447.14	8149.75
447.32	8624.87
447.51	8432.95
447.69	8287.84
447.88	8283.16
448.06	8491.46
448.25	8292.52
448.43	8472.74
448.62	8346.35
448.80	8538.27
448.99	8461.04
449.17	8557.00
449.36	8533.59
449.54	8774.67
449.73	8704.45
449.91	8933.82
450.10	9104.68
450.28	8973.61
450.46	9083.62
450.65	9013.40
450.83	8924.46
451.02	9146.81
451.20	8887.01
451.39	9083.62
451.57	9083.62
451.76	8997.02
451.94	9067.24
452.13	9280.22
452.31	9170.22
452.49	9153.84
452.68	9202.99
452.86	9280.22
453.05	9427.68
453.23	9518.96
453.42	9277.88
453.60	9635.99
453.78	9525.98
453.97	9411.29
454.15	9359.80
454.34	9465.13
454.52	9760.03
454.70	9476.83
454.89	9813.87
455.07	9643.01
455.26	9713.22
455.44	9659.39
455.62	9701.52
455.81	9727.27
455.99	9877.06
456.17	9912.17
456.36	9802.16
456.54	10176.65
456.73	10221.12
456.91	10317.08
457.09	10310.06
457.28	10504.32
457.46	10113.45
457.64	10457.51
457.83	10326.44
458.01	10406.02
458.19	10614.33
458.38	10476.24
458.56	10537.09
458.74	10588.58
458.93	10541.77
459.11	10607.31
459.29	10609.65
459.48	10544.11
459.66	10726.68
459.84	10846.04
460.03	10684.55
460.21	10857.75
460.39	10918.60
460.57	10923.28
460.76	10977.11
460.94	11059.03
461.12	11014.56
461.31	10979.45
461.49	10991.16
461.67	11084.78
461.85	11398.41
462.04	10867.11
462.22	11627.78
462.40	11403.09
462.59	11583.31
462.77	11363.30
462.95	11536.50
463.13	11573.95
463.32	11428.84
463.50	11690.98
463.68	11613.74
463.86	11829.07
464.05	11517.78
464.23	11627.78
464.41	11702.68
464.59	11370.32
464.78	11824.39
464.96	11747.15
465.14	11838.43
465.32	11915.67
465.50	12011.63
465.69	12081.85
465.87	12067.80
466.05	12318.24
466.23	12074.82
466.41	12290.15
466.60	12535.91
466.78	12163.76
466.96	12201.21
467.14	11978.86
467.32	12280.79
467.51	12430.59
467.69	12060.78
467.87	12262.07
468.05	12414.20
468.23	12210.57
468.41	12161.42
468.60	12549.95
468.78	12519.53
468.96	12341.64
469.14	12589.74
469.32	12723.15
469.50	12482.08
469.69	13041.46
469.87	12891.67
470.05	12901.03
470.23	13078.91
470.41	12940.82
470.59	13228.71
470.77	12938.48
470.95	13500.21
471.14	13605.53
471.32	13020.40
471.50	13554.04
471.68	13476.80
471.86	13638.30
472.04	13561.06
472.22	13928.53
472.40	13551.70
472.58	13706.18
472.77	13795.12
472.95	13874.70
473.13	14483.24
473.31	13806.82
473.49	13818.52
473.67	13921.51
473.85	14122.79
474.03	14429.40
474.21	14553.45
474.39	14349.82
474.57	14490.26
474.75	14740.69
474.93	14656.43
475.12	15136.24
475.30	14965.39
475.48	15005.17
475.66	15119.86
475.84	14890.49
476.02	15255.61
476.20	15117.52
476.38	15618.39
476.56	15997.56
476.74	15910.96
476.92	15845.43
477.10	15690.95
477.28	15770.53
477.46	15901.60
477.64	16222.25
477.82	16386.09
478.00	16491.41
478.18	16840.15
478.36	16638.87
478.54	17071.87
478.72	16872.92
478.90	17462.74
479.08	17462.74
479.26	17483.80
479.44	17640.62
479.62	17373.80
479.80	18050.21
479.98	17898.08
480.16	18429.38
480.34	17956.59
480.52	18443.42
480.70	18382.57
480.88	18239.79
481.06	18511.30
481.24	18597.90
481.41	19089.41
481.59	19082.39
481.77	19023.87
481.95	19271.97
482.13	19503.68
482.31	19461.55
482.49	20159.03
482.67	20063.07
482.85	20357.98
483.03	20645.87
483.21	20655.23
483.39	20758.21
483.57	20526.50
483.74	20624.80
483.92	21245.04
484.10	21104.61
484.28	21345.69
484.46	21947.20
484.64	22202.32
484.82	21458.03
485.00	22438.72
485.18	22223.39
485.35	22583.83
485.53	22860.01
485.71	23016.83
485.89	23683.88
486.07	23110.45
486.25	23056.62
486.43	23264.92
486.61	23445.15
486.78	23639.41
486.96	24119.22
487.14	24603.71
487.32	24308.80
487.50	24580.31
487.68	24556.90
487.85	25172.46
488.03	25202.89
488.21	25769.30
488.39	25642.91
488.57	25710.78
488.75	26204.64
488.92	26518.27
489.10	26125.06
489.28	26403.58
489.46	26998.08
489.64	26946.59
489.81	27395.97
489.99	27096.38
490.17	27346.82
490.35	27927.27
490.53	27789.18
490.70	28041.96
490.88	27697.90
491.06	28725.39
491.24	28556.88
491.41	28830.72
491.59	29064.77
491.77	28814.34
491.95	29048.39
492.13	29715.44
492.30	29663.95
492.48	30015.03
492.66	30171.85
492.84	30192.91
493.01	30375.47
493.19	30085.25
493.37	30562.72
493.54	31023.80
493.72	31119.76
493.90	31274.24
494.08	31529.36
494.25	31639.36
494.43	31826.60
494.61	32205.77
494.79	32306.41
494.96	32388.33
495.14	32484.30
495.32	32706.65
495.49	32912.61
495.67	33078.79
495.85	33439.23
496.02	33544.56
496.20	33696.69
496.38	33902.66
496.55	33933.09
496.73	34181.18
496.91	34242.04
497.09	34536.94
497.26	34745.25
497.44	34656.31
497.62	35173.57
497.79	35683.81
497.97	35274.21
498.14	35299.96
498.32	35742.32
498.50	36025.53
498.67	36304.05
498.85	36346.18
499.03	36463.21
499.20	36453.84
499.38	36809.61
499.56	37076.43
499.73	36723.01
499.91	36996.85
500.08	37111.53
500.26	36835.35
500.44	37532.83
500.61	37535.17
500.79	37305.80
500.97	37553.90
501.14	38366.06
501.32	38356.70
501.49	38328.61
501.67	38305.21
501.84	38897.36
502.02	38550.96
502.20	38747.57
502.37	38930.13
502.55	39091.63
502.72	39084.61
502.90	39168.87
503.07	39065.88
503.25	39679.10
503.43	39395.90
503.60	39803.15
503.78	39910.82
503.95	40432.75
504.13	40084.01
504.30	40458.50
504.48	40245.51
504.65	40355.52
504.83	40463.18
505.01	41104.49
505.18	40369.56
505.36	41069.38
505.53	41045.97
505.71	41553.87
505.88	41486.00
506.06	41177.04
506.23	41881.55
506.41	41418.12
506.58	41794.95
506.76	41897.93
506.93	42270.08
507.11	42227.95
507.28	42169.43
507.46	42635.20
507.63	42309.86
507.81	42810.74
507.98	42639.88
508.16	42696.05
508.33	42752.23
508.50	43236.72
508.68	43470.77
508.85	43676.74
509.03	43594.82
509.20	43622.90
509.38	44381.24
509.55	44198.68
509.73	44013.77
509.90	43952.92
510.08	44212.72
510.25	44439.75
510.42	44238.47
510.60	44531.03
510.77	44907.86
510.95	45109.14
511.12	44786.15
511.30	44652.74
511.47	44903.18
511.64	45483.63
511.82	45553.85
511.99	45205.11
512.17	45738.75
512.34	45483.63
512.51	45844.07
512.69	46366.01
512.86	46026.63
513.04	46508.79
513.21	46134.30
513.38	46080.47
513.56	46483.04
513.73	46342.61
513.90	46925.40
514.08	46143.66
514.25	46983.91
514.43	47084.56
514.60	46761.56
514.77	47201.58
514.95	47512.88
515.12	47503.51
515.29	47164.14
515.47	47625.22
515.64	47866.30
515.81	47859.27
515.99	47517.56
516.16	47810.12
516.33	48329.72
516.51	48690.16
516.68	48275.89
516.85	48315.68
517.03	48479.52
517.20	48509.94
517.37	48177.59
517.54	48135.46
517.72	48807.19
517.89	48804.85
518.06	48755.70
518.24	49074.01
518.41	48882.09
518.58	49167.63
518.75	48884.43
518.93	49322.11
519.10	49198.06
519.27	49378.28
519.45	49118.48
519.62	49586.59
519.79	49865.11
519.96	49982.14
520.14	49806.60
520.31	50337.90
520.48	50197.47
520.65	50145.98
520.83	50461.95
521.00	50096.83
521.17	50232.58
521.34	50370.67
521.52	50583.66
521.69	50368.33
521.86	50473.65
522.03	51168.79
522.20	50962.82
522.38	50894.95
522.55	51171.13
522.72	51063.47
522.89	50747.50
523.07	51288.16
523.24	51098.58
523.41	51489.45
523.58	51056.45
523.75	51449.66
523.92	51405.19
524.10	51440.29
524.27	51604.13
524.44	51831.16
524.61	51657.96
524.78	52109.69
524.96	51669.67
525.13	51983.30
525.30	52016.07
525.47	52360.12
525.64	52282.89
525.81	52378.85
525.98	52322.68
526.16	52189.27
526.33	52332.04
526.50	52942.92
526.67	52189.27
526.84	52594.18
527.01	52900.79
527.18	52383.53
527.36	52851.64
527.53	52711.20
527.70	53083.35
527.87	52952.28
528.04	53118.46
528.21	53076.33
528.38	53069.31
528.55	53467.20
528.72	53315.06
528.89	53008.45
529.07	52769.72
529.24	53240.17
529.41	53169.95
529.58	53769.13
529.75	53329.11
529.92	53642.74
530.09	53497.62
530.26	53408.68
530.43	53666.14
530.60	53530.39
530.77	53443.79
530.94	53626.35
531.11	53783.17
531.28	53652.10
531.46	53846.36
531.63	54089.78
531.80	53916.58
531.97	53977.43
532.14	54213.83
532.31	53991.48
532.48	54157.66
532.65	54382.35
532.82	54473.63
532.99	54417.46
533.16	54134.25
533.33	54873.86
533.50	54578.95
533.67	54532.14
533.84	54319.15
534.01	54674.91
534.18	54791.94
534.35	55079.83
534.52	54862.16
534.69	54782.58
534.86	55030.68
535.03	54972.16
535.20	55049.40
535.37	55224.94
535.54	55213.24
535.71	54850.45
535.88	55178.13
536.05	55330.26
536.22	55248.35
536.38	55306.86
536.55	55384.10
536.72	55302.18
536.89	55246.00
537.06	55552.62
537.23	55208.56
537.40	55421.55
537.57	55393.46
537.74	55664.96
537.91	55519.85
538.08	55833.48
538.25	55477.72
538.42	55690.71
538.59	55922.42
538.75	55320.90
538.92	55966.89
539.09	56006.68
539.26	55798.37
539.43	55999.66
539.60	56196.26
539.77	56287.54
539.94	56222.01
540.11	56163.50
540.28	56196.26
540.44	56161.15
540.61	56151.79
540.78	56151.79
540.95	56399.89
541.12	56250.09
541.29	56156.47
541.46	56390.53
541.62	56292.22
541.79	56596.49
541.96	56016.04
542.13	56154.13
542.30	56364.78
542.47	56587.13
542.63	56739.27
542.80	56596.49
542.97	56961.62
543.14	56973.32
543.31	57123.11
543.48	56926.51
543.64	57069.28
543.81	57181.63
543.98	57116.09
544.15	57017.79
544.32	57050.56
544.48	57415.68
544.65	57190.99
544.82	57183.97
544.99	57071.62
545.16	57298.65
545.32	57001.41
545.49	57272.91
545.66	57560.79
545.83	57429.72
546.00	57523.35
546.16	57190.99
546.33	57448.45
546.50	57401.64
546.67	57394.62
546.83	57169.93
547.00	57502.28
547.17	57558.45
547.34	57591.22
547.50	57897.83
547.67	57853.36
547.84	57773.78
548.00	57921.24
548.17	57867.40
548.34	57694.21
548.51	57961.03
548.67	58138.91
548.84	57921.24
549.01	57790.17
549.18	57916.56
549.34	58045.29
549.51	57956.35
549.68	58225.51
549.84	58010.18
550.01	58277.00
550.18	58047.63
550.34	58204.44
550.51	58284.02
550.68	58134.23
550.84	58110.82
551.01	58195.08
551.18	58267.64
551.34	58291.04
551.51	58279.34
551.68	58431.47
551.84	58195.08
552.01	58281.68
552.18	58309.77
552.34	58426.79
552.51	58389.34
552.68	58443.18
552.84	58447.86
553.01	58794.26
553.18	58555.52
553.34	58787.24
553.51	58557.86
553.67	58583.61
553.84	58796.60
554.01	58918.31
554.17	58836.39
554.34	58805.96
554.51	58663.19
554.67	58773.19
554.84	58876.18
555.00	58719.36
555.17	58864.47
555.33	58927.67
555.50	58892.56
555.67	58681.91
555.83	58988.52
556.00	58953.41
556.16	58976.82
556.33	59150.02
556.50	58944.05
556.66	59135.98
556.83	59018.95
556.99	59255.34
557.16	59175.76
557.32	59147.68
557.49	59213.21
557.65	59047.04
557.82	59168.74
557.98	59107.89
558.15	59112.57
558.32	59344.28
558.48	59018.95
558.65	59166.40
558.81	59430.88
558.98	59339.60
559.14	59381.73
559.31	59564.29
559.47	59512.80
559.64	59496.42
559.80	59531.53
559.97	59550.25
560.13	59360.67
560.30	59571.32
560.46	59634.51
560.63	59461.31
560.79	59475.35
560.96	59718.77
561.12	59491.74
561.29	59564.29
561.45	59599.40
561.61	59753.88
561.78	59646.21
561.94	59678.98
562.11	59786.64
562.27	59784.30
562.44	59669.62
562.60	60034.74
562.77	59913.03
562.93	59491.74
563.10	59835.80
563.26	59711.75
563.42	60016.02
563.59	59891.97
563.75	59819.41
563.92	59620.47
564.08	59894.31
564.24	59971.55
564.41	59891.97
564.57	59901.33
564.74	59770.26
564.90	60001.97
565.07	59767.92
565.23	60018.36
565.39	59796.01
565.56	60034.74
565.72	59962.18
565.88	60058.15
566.05	59978.57
566.21	59957.50
566.38	60053.47
566.54	59929.42
566.70	60055.81
566.87	60060.49
567.03	60004.31
567.19	60207.94
567.36	60055.81
567.52	59922.40
567.68	60395.18
567.85	60374.12
568.01	60210.28
568.17	60004.31
568.34	60303.90
568.50	60037.08
568.66	60266.45
568.83	60095.60
568.99	60119.00
569.15	60259.43
569.32	60175.17
569.48	60109.64
569.64	60254.75
569.81	60236.03
569.97	60233.69
570.13	60158.79
570.30	60268.79
570.46	60315.61
570.62	60308.58
570.78	60411.57
570.95	60348.37
571.11	60430.29
571.27	60111.98
571.43	60367.10
571.60	60481.78
571.76	60451.36
571.92	60502.85
572.09	60575.40
572.25	60449.02
572.41	60301.56
572.57	60367.10
572.74	60701.79
572.90	60528.59
573.06	60367.10
573.22	60594.13
573.38	60416.25
573.55	60350.71
573.71	60732.22
573.87	60690.09
574.03	60217.30
574.20	60458.38
574.36	60423.27
574.52	60594.13
574.68	60662.00
574.84	60619.88
575.01	60512.21
575.17	60694.77
575.33	60502.85
575.49	60463.06
575.65	60441.99
575.82	60699.45
575.98	60537.96
576.14	60818.82
576.30	60692.43
576.46	60594.13
576.62	60603.49
576.79	60446.68
576.95	60552.00
577.11	60654.98
577.27	60804.78
577.43	60570.72
577.59	60612.85
577.75	60559.02
577.92	60341.35
578.08	60612.85
578.24	60502.85
578.40	60580.09
578.56	60821.16
578.72	60699.45
578.88	60725.20
579.04	60797.76
579.21	60566.04
579.37	60769.67
579.53	60877.33
579.69	60498.17
579.85	60624.56
580.01	60594.13
580.17	60470.08
580.33	60814.14
580.49	60816.48
580.65	60701.79
580.82	60722.86
580.98	60589.45
581.14	60580.09
581.30	60884.36
581.46	60830.52
581.62	60654.98
581.78	60736.90
581.94	60584.77
582.10	60711.16
582.26	60739.24
582.42	60767.33
582.58	60802.44
582.74	60502.85
582.90	60568.38
583.06	60872.65
583.22	60547.32
583.38	60685.41
583.54	60832.86
583.70	60743.92
583.86	60804.78
584.02	60570.72
584.18	60860.95
584.34	60753.29
584.50	60884.36
584.66	60786.05
584.82	60594.13
584.98	60865.63
585.14	61038.83
585.30	60921.80
585.46	60959.25
585.62	60741.58
585.78	60762.65
585.94	60554.34
586.10	60860.95
586.26	60867.97
586.42	60800.10
586.58	60914.78
586.74	60994.36
586.90	60643.28
587.06	60729.88
587.22	60879.67
587.38	60912.44
587.54	60952.23
587.70	61123.09
587.86	60762.65
588.02	60814.14
588.18	61066.92
588.34	61052.87
588.49	60956.91
