SpectraSuite Data File
++++++++++++++++++++++++++++++++++++
Date: Fri Oct 25 11:34:29 EDT 2013
User: price-jones
Dark Spectrum Present: No
Reference Spectrum Present: No
Number of Sampled Component Spectra: 1
Spectrometers: USB2+H05261
Integration Time (usec): 100000 (USB2+H05261)
Spectra Averaged: 1 (USB2+H05261)
Boxcar Smoothing: 0 (USB2+H05261)
Correct for Electrical Dark: No (USB2+H05261)
Strobe/Lamp Enabled: No (USB2+H05261)
Correct for Detector Non-linearity: No (USB2+H05261)
Correct for Stray Light: No (USB2+H05261)
Number of Pixels in Processed Spectrum: 2048
>>>>>Begin Processed Spectral Data<<<<<
365.73	292.57
365.92	292.57
366.12	292.57
366.32	271.50
366.52	187.24
366.72	205.97
366.91	152.13
367.11	128.73
367.31	215.33
367.51	229.37
367.70	203.63
367.90	210.65
368.10	224.69
368.30	156.82
368.49	248.10
368.69	217.67
368.89	189.58
369.09	229.37
369.28	187.24
369.48	234.05
369.68	217.67
369.87	161.50
370.07	271.50
370.27	311.29
370.47	271.50
370.66	477.47
370.86	547.69
371.06	528.96
371.25	510.24
371.45	489.17
371.65	547.69
371.84	603.86
372.04	552.37
372.24	526.62
372.44	578.11
372.63	648.33
372.83	645.99
373.03	676.41
373.22	540.66
373.42	500.87
373.62	645.99
373.81	615.56
374.01	629.60
374.21	631.94
374.40	608.54
374.60	627.26
374.79	617.90
374.99	662.37
375.19	669.39
375.38	596.84
375.58	671.73
375.78	655.35
375.97	660.03
376.17	615.56
376.37	704.50
376.56	685.78
376.76	683.44
376.95	655.35
377.15	692.80
377.35	718.54
377.54	751.31
377.74	685.78
377.93	713.86
378.13	699.82
378.33	662.37
378.52	723.23
378.72	725.57
378.91	660.03
379.11	685.78
379.31	725.57
379.50	669.39
379.70	695.14
379.89	648.33
380.09	702.16
380.28	732.59
380.48	678.76
380.68	711.52
380.87	695.14
381.07	697.48
381.26	819.19
381.46	807.48
381.65	674.07
381.85	758.33
382.04	748.97
382.24	772.38
382.43	807.48
382.63	755.99
382.83	709.18
383.02	699.82
383.22	800.46
383.41	755.99
383.61	791.10
383.80	849.61
384.00	828.55
384.19	795.78
384.39	877.70
384.58	870.68
384.78	837.91
384.97	823.87
385.17	835.57
385.36	772.38
385.56	772.38
385.75	870.68
385.95	798.12
386.14	882.38
386.34	854.30
386.53	854.30
386.72	837.91
386.92	826.21
387.11	873.02
387.31	851.96
387.50	856.64
387.70	875.36
387.89	898.77
388.09	964.30
388.28	847.27
388.48	835.57
388.67	964.30
388.86	861.32
389.06	835.57
389.25	891.74
389.45	903.45
389.64	978.34
389.84	926.85
390.03	917.49
390.22	924.51
390.42	938.55
390.61	924.51
390.81	905.79
391.00	917.49
391.19	1064.94
391.39	936.21
391.58	947.92
391.78	931.53
391.97	957.28
392.16	1015.79
392.36	1008.77
392.55	999.41
392.75	1149.20
392.94	1011.11
393.13	1039.20
393.33	1078.99
393.52	1004.09
393.71	1097.71
393.91	1067.28
394.10	1064.94
394.29	1053.24
394.49	1027.50
394.68	1121.12
394.88	1167.93
395.07	1114.10
395.26	1123.46
395.46	1135.16
395.65	1123.46
395.84	1114.10
396.04	1200.69
396.23	1226.44
396.42	1151.54
396.62	1228.78
396.81	1284.95
397.00	1219.42
397.19	1118.78
397.39	1214.74
397.58	1203.04
397.77	1196.01
397.97	1270.91
398.16	1205.38
398.35	1282.61
398.55	1350.49
398.74	1212.40
398.93	1313.04
399.12	1289.64
399.32	1240.48
399.51	1261.55
399.70	1376.24
399.90	1224.10
400.09	1334.11
400.28	1413.68
400.47	1451.13
400.67	1376.24
400.86	1306.02
401.05	1308.36
401.24	1296.66
401.44	1460.49
401.63	1362.19
401.82	1338.79
402.01	1380.92
402.21	1416.02
402.40	1399.64
402.59	1490.92
402.78	1432.41
402.97	1404.32
403.17	1507.30
403.36	1469.86
403.55	1528.37
403.74	1521.35
403.93	1556.46
404.13	1507.30
404.32	1502.62
404.51	1598.59
404.70	1528.37
404.89	1626.67
405.09	1556.46
405.28	1598.59
405.47	1582.20
405.66	1727.32
405.85	1659.44
406.05	1680.50
406.24	1647.74
406.43	1638.38
406.62	1629.01
406.81	1806.89
407.00	1710.93
407.20	1741.36
407.39	1717.95
407.58	1734.34
407.77	1816.26
407.96	1856.04
408.15	1886.47
408.34	1806.89
408.54	1858.39
408.73	1834.98
408.92	1956.69
409.11	1884.13
409.30	1975.41
409.49	2010.52
409.68	1874.77
409.87	1912.22
410.07	1921.58
410.26	1921.58
410.45	1944.99
410.64	2010.52
410.83	1994.14
411.02	2033.93
411.21	2122.87
411.40	2076.06
411.59	2122.87
411.78	2197.76
411.98	2064.35
412.17	2146.27
412.36	2094.78
412.55	2209.47
412.74	2312.45
412.93	2333.51
413.12	2160.31
413.31	2387.35
413.50	2305.43
413.69	2427.14
413.88	2480.97
414.07	2420.11
414.26	2370.96
414.45	2331.17
414.64	2413.09
414.83	2363.94
415.02	2462.24
415.22	2413.09
415.41	2478.63
415.60	2485.65
415.79	2654.17
415.98	2670.55
416.17	2668.21
416.36	2431.82
416.55	2555.86
416.74	2607.36
416.93	2691.62
417.12	2693.96
417.31	2712.68
417.50	2836.73
417.69	2876.52
417.88	2782.90
418.07	2764.17
418.26	2855.45
418.45	2810.98
418.64	2928.01
418.83	2906.95
419.02	2850.77
419.21	2869.50
419.39	2942.05
419.58	3030.99
419.77	2832.05
419.96	2991.20
420.15	3059.08
420.34	3038.02
420.53	3105.89
420.72	3239.30
420.91	2984.18
421.10	3117.59
421.29	3281.43
421.48	3148.02
421.67	3290.79
421.86	3148.02
422.05	3215.90
422.24	3049.72
422.43	3073.12
422.61	3241.64
422.80	3337.60
422.99	3316.54
423.18	3227.60
423.37	3155.04
423.56	3253.34
423.75	3290.79
423.94	3281.43
424.13	3131.64
424.32	3129.30
424.50	3300.16
424.69	3300.16
424.88	3431.23
425.07	3197.17
425.26	3234.62
425.45	3442.93
425.64	3206.53
425.83	3386.76
426.01	3234.62
426.20	3368.03
426.39	3225.26
426.58	3267.39
426.77	3440.59
426.96	3323.56
427.15	3419.52
427.33	3400.80
427.52	3375.05
427.71	3487.40
427.90	3478.04
428.09	3520.17
428.28	3555.27
428.46	3499.10
428.65	3461.65
428.84	3705.07
429.03	3569.32
429.22	3536.55
429.40	3538.89
429.59	3728.47
429.78	3522.51
429.97	3478.04
430.16	3742.52
430.34	3590.38
430.53	3775.28
430.72	3590.38
430.91	3693.37
431.10	3735.50
431.28	3709.75
431.47	3747.20
431.66	3864.22
431.85	3852.52
432.03	3894.65
432.22	3896.99
432.41	3789.33
432.60	3880.61
432.79	3985.93
432.97	3875.93
433.16	3892.31
433.35	3845.50
433.54	3861.88
433.72	4109.98
433.91	4049.13
434.10	4161.47
434.28	4004.66
434.47	4046.79
434.66	4259.78
434.85	4124.02
435.03	4205.94
435.22	4152.11
435.41	4234.03
435.59	4252.75
435.78	4259.78
435.97	4203.60
436.16	4180.20
436.34	4292.54
436.53	4269.14
436.72	4379.14
436.90	4318.29
437.09	4360.42
437.28	4227.01
437.46	4292.54
437.65	4430.63
437.84	4451.70
438.02	4386.16
438.21	4479.79
438.40	4327.65
438.58	4620.22
438.77	4704.48
438.96	4608.51
439.14	4510.21
439.33	4751.29
439.52	4723.20
439.70	4622.56
439.89	4688.09
440.08	4884.70
440.26	4812.14
440.45	4713.84
440.63	4758.31
440.82	4947.89
441.01	4954.91
441.19	4964.28
441.38	5050.88
441.57	5018.11
441.75	5167.90
441.94	5193.65
442.12	5111.73
442.31	5341.10
442.50	5121.09
442.68	5111.73
442.87	5200.67
443.05	5235.78
443.24	5228.76
443.43	5308.34
443.61	5341.10
443.80	5455.79
443.98	5160.88
444.17	5097.69
444.35	5352.81
444.54	5394.93
444.73	5387.91
444.91	5516.64
445.10	5376.21
445.28	5504.94
445.47	5399.62
445.65	5507.28
445.84	5497.92
446.02	5495.58
446.21	5458.13
446.39	5355.15
446.58	5654.73
446.77	5458.13
446.95	5404.30
447.14	5317.70
447.32	5628.99
447.51	5462.81
447.69	5633.67
447.88	5568.13
448.06	5378.55
448.25	5537.71
448.43	5472.17
448.62	5441.75
448.80	5610.26
448.99	5579.84
449.17	5589.20
449.36	5614.95
449.54	5743.67
449.73	5769.42
449.91	5750.70
450.10	5809.21
450.28	5724.95
450.46	5900.49
450.65	5743.67
450.83	5853.68
451.02	5795.17
451.20	5940.28
451.39	6029.22
451.57	6003.47
451.76	5987.09
451.94	5921.56
452.13	6113.48
452.31	5987.09
452.49	5809.21
452.68	6054.97
452.86	6001.13
453.05	6164.97
453.23	6052.63
453.42	6115.82
453.60	6040.92
453.78	6293.70
453.97	6038.58
454.15	5980.07
454.34	6193.06
454.52	6160.29
454.70	6324.13
454.89	6363.92
455.07	6188.38
455.26	6370.94
455.44	6452.86
455.62	6284.34
455.81	6340.51
455.99	6424.77
456.17	6427.11
456.36	6612.01
456.54	6525.41
456.73	6436.47
456.91	6789.89
457.09	6700.95
457.28	6843.73
457.46	6733.72
457.64	6745.42
457.83	6754.79
458.01	6565.20
458.19	6906.92
458.38	6724.36
458.56	6789.89
458.74	6895.22
458.93	6862.45
459.11	6979.48
459.29	6951.39
459.48	6890.54
459.66	7007.56
459.84	7005.22
460.03	6899.90
460.21	7082.46
460.39	7173.74
460.57	7105.87
460.76	7211.19
460.94	7178.42
461.12	7222.89
461.31	7136.29
461.49	7033.31
461.67	7098.84
461.85	7279.07
462.04	7375.03
462.22	7536.52
462.40	7330.56
462.59	7410.14
462.77	7339.92
462.95	7438.22
463.13	7461.63
463.32	7482.69
463.50	7606.74
463.68	7538.87
463.86	7466.31
464.05	7480.35
464.23	7503.76
464.41	7775.26
464.59	7433.54
464.78	7871.22
464.96	7691.00
465.14	7499.08
465.32	7714.41
465.50	7824.41
465.69	7667.60
465.87	7665.25
466.05	7700.36
466.23	7775.26
466.41	7716.75
466.60	7955.48
466.78	7751.85
466.96	7831.43
467.14	7765.90
467.32	7953.14
467.51	7943.78
467.69	7864.20
467.87	8030.38
468.05	8175.49
468.23	7934.42
468.41	7927.39
468.60	7978.89
468.78	8177.83
468.96	8088.89
469.14	8156.77
469.32	8191.88
469.50	8145.06
469.69	8236.35
469.87	8320.60
470.05	8386.14
470.23	8379.12
470.41	8491.46
470.59	8308.90
470.77	8365.07
470.95	8425.93
471.14	8526.57
471.32	8294.86
471.50	8613.17
471.68	8748.92
471.86	8538.27
472.04	8709.13
472.22	8982.98
472.40	8753.60
472.58	8861.27
472.77	8917.44
472.95	8938.51
473.13	9184.26
473.31	9022.77
473.49	8985.32
473.67	8936.17
473.85	8985.32
474.03	9121.07
474.21	9392.57
474.39	9341.08
474.57	9100.00
474.75	9563.43
474.93	9525.98
475.12	9518.96
475.30	9617.26
475.48	9696.84
475.66	9736.63
475.84	9551.73
476.02	9717.90
476.20	9863.02
476.38	9823.23
476.56	10078.35
476.74	10085.37
476.92	10076.01
477.10	10181.33
477.28	10235.16
477.46	10186.01
477.64	10289.00
477.82	10445.81
478.00	10836.68
478.18	10380.28
478.36	10647.10
478.54	10682.20
478.72	10689.23
478.90	10953.71
479.08	10874.13
479.26	11110.52
479.44	11407.77
479.62	11215.85
479.80	11154.99
479.98	11639.48
480.16	11812.68
480.34	11590.33
480.52	11473.31
480.70	11737.79
480.88	11747.15
481.06	11793.96
481.24	11925.03
481.41	12100.57
481.59	12025.67
481.77	12304.20
481.95	12280.79
482.13	12432.93
482.31	12442.29
482.49	12636.55
482.67	12587.40
482.85	12755.92
483.03	13046.15
483.21	13081.25
483.39	12999.34
483.57	12971.25
483.74	13373.82
483.92	13362.12
484.10	13413.61
484.28	13748.31
484.46	14064.28
484.64	14127.47
484.82	13930.87
485.00	13984.70
485.18	14253.86
485.35	14478.55
485.53	14183.65
485.71	14398.98
485.89	14597.92
486.07	14754.74
486.25	14754.74
486.43	14822.61
486.61	15002.83
486.78	14714.95
486.96	15070.71
487.14	15190.08
487.32	15660.52
487.50	15529.45
487.68	15604.35
487.85	15810.32
488.03	15737.76
488.21	16257.36
488.39	16528.86
488.57	16318.22
488.75	16475.03
488.92	16744.19
489.10	16744.19
489.28	16868.24
489.46	17029.74
489.64	16769.94
489.81	17097.61
489.99	16968.88
490.17	17619.55
490.35	17764.67
490.53	17530.61
490.70	17659.34
490.88	17832.54
491.06	17972.97
491.24	17944.89
491.41	18214.05
491.59	18253.84
491.77	18349.80
491.95	18546.40
492.13	18569.81
492.30	18827.27
492.48	18850.67
492.66	18827.27
492.84	18906.85
493.01	19110.47
493.19	19063.66
493.37	19374.95
493.54	19536.45
493.72	19674.54
493.90	19557.52
494.08	19807.95
494.25	19810.29
494.43	20074.77
494.61	20285.42
494.79	19913.28
494.96	20315.85
495.14	20449.26
495.32	20819.07
495.49	20596.71
495.67	20725.44
495.85	20896.30
496.02	21057.80
496.20	21301.22
496.38	21565.70
496.55	21352.71
496.73	21916.78
496.91	21376.11
497.09	21563.36
497.26	21916.78
497.44	22089.98
497.62	21970.61
497.79	22293.60
497.97	22104.02
498.14	22169.55
498.32	22434.03
498.50	22801.50
498.67	22867.03
498.85	22806.18
499.03	22885.76
499.20	23023.85
499.38	22923.21
499.56	22986.40
499.73	23225.14
499.91	23342.16
500.08	23590.26
500.26	23131.51
500.44	23475.57
500.61	23821.97
500.79	23339.82
500.97	23828.99
501.14	24088.79
501.32	24020.92
501.49	24278.38
501.67	24374.34
501.84	24533.50
502.02	24463.28
502.20	24807.34
502.37	24425.83
502.55	24748.82
502.72	24652.86
502.90	24444.56
503.07	24634.14
503.25	24741.80
503.43	24847.13
503.60	24879.89
503.78	24900.96
503.95	25315.23
504.13	24980.54
504.30	25696.74
504.48	25139.69
504.65	25385.45
504.83	25876.96
505.01	25862.92
505.18	25883.98
505.36	26089.95
505.53	26092.29
505.71	26363.79
505.88	25764.62
506.06	26316.98
506.23	26066.55
506.41	26188.25
506.58	26256.13
506.76	26216.34
506.93	26197.62
507.11	26356.77
507.28	26944.25
507.46	26906.80
507.63	27063.61
507.81	27199.37
507.98	27187.66
508.16	26939.57
508.33	27393.63
508.50	27199.37
508.68	27393.63
508.85	27573.85
509.03	27545.76
509.20	27531.72
509.38	27843.01
509.55	28037.28
509.73	28058.34
509.90	28339.21
510.08	27873.44
510.25	28070.04
510.42	28191.75
510.60	28470.28
510.77	28325.16
510.95	28587.30
511.12	28212.82
511.30	28318.14
511.47	28292.40
511.64	28797.95
511.82	29184.14
511.99	28524.11
512.17	28975.83
512.34	28802.63
512.51	29083.50
512.69	29338.62
512.86	29390.11
513.04	29577.35
513.21	29605.44
513.38	29586.71
513.56	29706.08
513.73	29919.07
513.90	30054.82
514.08	29827.79
514.25	29638.20
514.43	30038.44
514.60	29839.49
514.77	29982.26
514.95	30237.38
515.12	30075.88
515.29	30082.91
515.47	30607.19
515.64	30583.78
515.81	30054.82
515.99	30796.77
516.16	30899.75
516.33	30756.98
516.51	30813.15
516.68	30998.06
516.85	30838.90
517.03	30911.46
517.20	31082.31
517.37	31005.08
517.54	31166.57
517.72	31606.59
517.89	31370.20
518.06	31480.21
518.24	31098.70
518.41	30944.22
518.58	31335.09
518.75	31424.03
518.93	31917.89
519.10	31735.32
519.27	31646.38
519.45	32004.49
519.62	31955.33
519.79	32128.53
519.96	32112.15
520.14	32416.42
520.31	31721.28
520.48	32643.45
520.65	32407.06
520.83	32758.14
521.00	33001.55
521.17	32786.22
521.34	32411.74
521.52	33048.36
521.69	32826.01
521.86	32723.03
522.03	33212.20
522.20	33221.56
522.38	33523.49
522.55	33535.20
522.72	33118.58
522.89	33083.47
523.07	33755.21
523.24	33362.00
523.41	33895.64
523.58	33439.23
523.75	34026.71
523.92	33603.07
524.10	33834.78
524.27	33989.26
524.44	33806.70
524.61	33977.56
524.78	33907.34
524.96	34239.70
525.13	34129.69
525.30	34466.73
525.47	34618.86
525.64	34307.57
525.81	34263.10
525.98	34363.75
526.16	34345.02
526.33	34401.19
526.50	35117.40
526.67	34693.76
526.84	34948.88
527.01	34632.91
527.18	35157.19
527.36	35063.57
527.53	34986.33
527.70	35262.51
527.87	35143.14
528.04	35246.13
528.21	35494.22
528.38	35051.86
528.55	35498.91
528.72	35449.75
528.89	35526.99
529.07	35452.09
529.24	35304.64
529.41	35613.59
529.58	35639.34
529.75	35896.80
529.92	35508.27
530.09	35812.54
530.26	35981.06
530.43	36051.27
530.60	36018.50
530.77	35791.47
530.94	36168.30
531.11	36020.84
531.28	36297.03
531.46	36088.72
531.63	36547.47
531.80	36360.22
531.97	36217.45
532.14	36266.60
532.31	36538.10
532.48	36781.52
532.65	36816.63
532.82	36825.99
532.99	36629.38
533.16	36486.61
533.33	36580.23
533.50	36851.73
533.67	37067.06
533.84	36620.02
534.01	37233.24
534.18	36723.01
534.35	37244.94
534.52	37001.53
534.69	37586.66
534.86	37383.04
535.03	37148.98
535.20	37727.10
535.37	37251.97
535.54	37654.54
535.71	37488.36
535.88	37741.14
536.05	37787.95
536.22	37809.01
536.38	38040.73
536.55	38195.20
536.72	37837.10
536.89	38433.94
537.06	37975.19
537.23	38230.31
537.40	37682.62
537.57	37518.79
537.74	37916.68
537.91	38464.36
538.08	37954.13
538.25	37799.65
538.42	38321.59
538.59	38370.74
538.75	38239.67
538.92	38593.09
539.09	38490.11
539.26	38417.55
539.43	38866.94
539.60	38618.84
539.77	38258.40
539.94	38843.53
540.11	39005.03
540.28	38749.91
540.44	38941.83
540.61	38944.17
540.78	38459.68
540.95	39075.24
541.12	38873.96
541.29	38986.30
541.46	39133.76
541.62	39061.20
541.79	38981.62
541.96	38649.27
542.13	38953.54
542.30	39461.43
542.47	39236.74
542.63	39683.78
542.80	39456.75
542.97	39798.47
543.14	39627.61
543.31	40025.50
543.48	39962.31
543.64	40280.62
543.81	39941.24
543.98	40355.52
544.15	39882.73
544.32	40254.87
544.48	40580.21
544.65	40512.33
544.82	40371.90
544.99	40641.06
545.16	40437.44
545.32	39856.98
545.49	40730.00
545.66	40854.05
545.83	40638.72
546.00	40605.95
546.16	40505.31
546.33	40802.56
546.50	40802.56
546.67	40582.55
546.83	40449.14
547.00	40786.18
547.17	40374.24
547.34	40737.02
547.50	41291.73
547.67	41125.55
547.84	40985.12
548.00	40737.02
548.17	41500.04
548.34	40762.77
548.51	41081.08
548.67	41385.35
548.84	41104.49
549.01	41003.85
549.18	41254.28
549.34	41621.75
549.51	41380.67
549.68	41460.25
549.84	41478.97
550.01	41605.36
550.18	41588.98
550.34	41324.50
550.51	41469.61
550.68	41996.23
550.84	41635.79
551.01	41624.09
551.18	41654.51
551.34	41883.89
551.51	41940.06
551.68	41818.35
551.84	41895.59
552.01	42101.56
552.18	42040.70
552.34	42068.79
552.51	42148.37
552.68	42068.79
552.84	41694.30
553.01	42204.54
553.18	42195.18
553.34	42059.43
553.51	42021.98
553.67	42351.99
553.84	41963.46
554.01	42356.67
554.17	42286.46
554.34	42705.41
554.51	42459.66
554.67	43056.50
554.84	42487.74
555.00	42494.77
555.17	41787.92
555.33	42885.64
555.50	42684.35
555.67	42651.58
555.83	42747.54
556.00	42822.44
556.16	43014.37
556.33	43098.62
556.50	42859.89
556.66	42719.46
556.83	42642.22
556.99	43147.78
557.16	43138.41
557.32	42944.15
557.49	43342.04
557.65	43000.32
557.82	43253.10
557.98	43061.18
558.15	43129.05
558.32	43213.31
558.48	43138.41
558.65	42997.98
558.81	43196.93
558.98	43342.04
559.14	43164.16
559.31	42913.72
559.47	43538.65
559.64	43959.94
559.80	43316.29
559.97	43604.18
560.13	43126.71
560.30	43208.63
560.46	43374.81
560.63	43639.29
560.79	43498.86
560.96	43646.31
561.12	43405.23
561.29	43318.64
561.45	43693.12
561.61	43641.63
561.78	43543.33
561.94	43379.49
562.11	43770.36
562.27	43786.74
562.44	43625.25
562.60	43992.71
562.77	43655.67
562.93	43707.16
563.10	43903.77
563.26	43763.34
563.42	44304.00
563.59	43655.67
563.75	43309.27
563.92	43927.17
564.08	43896.75
564.24	43906.11
564.41	44147.18
564.57	43901.43
564.74	44140.16
564.90	44023.14
565.07	44205.70
565.23	43999.73
565.39	44203.36
565.56	44638.70
565.72	43999.73
565.88	44109.74
566.05	44203.36
566.21	44322.72
566.38	44137.82
566.54	44034.84
566.70	44016.11
566.87	44381.24
567.03	44154.21
567.19	44612.95
567.36	44083.99
567.52	44411.67
567.68	44509.97
567.85	44847.00
568.01	44179.95
568.17	44016.11
568.34	44648.06
568.50	44442.09
568.66	44575.50
568.83	44397.62
568.99	44409.32
569.15	44856.37
569.32	44217.40
569.48	44011.43
569.64	44538.05
569.81	44680.83
569.97	44383.58
570.13	44456.14
570.30	44051.22
570.46	44683.17
570.62	44507.63
570.78	44566.14
570.95	44037.18
571.11	44844.66
571.27	44732.32
571.43	44549.76
571.60	44451.45
571.76	44437.41
571.92	44098.03
572.09	44844.66
572.25	44463.16
572.41	44538.05
572.57	44524.01
572.74	45111.49
572.90	45048.29
573.06	45242.56
573.22	44605.93
573.38	45287.03
573.55	45151.27
573.71	45537.46
573.87	44404.64
574.03	44795.51
574.20	45195.74
574.36	44832.96
574.52	44802.53
574.68	44889.13
574.84	45148.93
575.01	45001.48
575.17	45092.76
575.33	45137.23
575.49	44905.52
575.65	45404.05
575.82	45076.38
575.98	45148.93
576.14	45319.79
576.30	45352.56
576.46	45481.29
576.62	44837.64
576.79	45083.40
576.95	44495.92
577.11	44814.24
577.27	45017.86
577.43	44889.13
577.59	44931.26
577.75	44767.43
577.92	44594.23
578.08	44938.29
578.24	45404.05
578.40	45258.94
578.56	45268.30
578.72	45123.19
578.88	45265.96
579.04	45170.00
579.21	44552.10
579.37	45067.02
579.53	45600.66
579.69	45109.14
579.85	45504.70
580.01	45518.74
580.17	45272.98
580.33	45532.78
580.49	45158.30
580.65	44968.71
580.82	44961.69
580.98	45251.92
581.14	44966.37
581.30	45146.59
581.46	44879.77
581.62	45221.49
581.78	45013.18
581.94	45453.20
582.10	45336.18
582.26	45530.44
582.42	44989.78
582.58	45483.63
582.74	45184.04
582.90	45251.92
583.06	45235.53
583.22	45144.25
583.38	45120.85
583.54	44952.33
583.70	45467.25
583.86	45834.71
584.02	45244.90
584.18	45504.70
584.34	45478.95
584.50	45436.82
584.66	45626.40
584.82	45158.30
584.98	45645.13
585.14	45549.17
585.30	45130.21
585.46	45249.58
585.62	45373.63
585.78	45111.49
585.94	45202.77
586.10	45200.43
586.26	45139.57
586.42	45518.74
586.58	45603.00
586.74	45343.20
586.90	44966.37
587.06	45425.12
587.22	45064.67
587.38	45731.73
587.54	45418.10
587.70	45420.44
587.86	45167.66
588.02	45261.28
588.18	45563.21
588.34	45485.97
588.49	45708.32
588.65	45319.79
588.81	45258.94
588.97	45729.39
589.13	45310.43
589.29	45858.12
589.45	45500.01
589.61	45446.18
589.77	45593.64
589.93	45549.17
590.08	45272.98
