SpectraSuite Data File
++++++++++++++++++++++++++++++++++++
Date: Fri Oct 25 11:26:23 EDT 2013
User: price-jones
Dark Spectrum Present: No
Reference Spectrum Present: No
Number of Sampled Component Spectra: 1
Spectrometers: USB2+H05261
Integration Time (usec): 100000 (USB2+H05261)
Spectra Averaged: 1 (USB2+H05261)
Boxcar Smoothing: 0 (USB2+H05261)
Correct for Electrical Dark: No (USB2+H05261)
Strobe/Lamp Enabled: No (USB2+H05261)
Correct for Detector Non-linearity: No (USB2+H05261)
Correct for Stray Light: No (USB2+H05261)
Number of Pixels in Processed Spectrum: 2048
>>>>>Begin Processed Spectral Data<<<<<
365.73	252.78
365.92	252.78
366.12	252.78
366.32	140.43
366.52	154.48
366.72	182.56
366.91	102.98
367.11	163.84
367.31	131.07
367.51	128.73
367.70	142.77
367.90	88.94
368.10	112.35
368.30	187.24
368.49	163.84
368.69	189.58
368.89	159.16
369.09	173.20
369.28	201.29
369.48	180.22
369.68	222.35
369.87	163.84
370.07	252.78
370.27	205.97
370.47	418.96
370.66	535.98
370.86	657.69
371.06	683.44
371.25	678.76
371.45	622.58
371.65	690.46
371.84	622.58
372.04	725.57
372.24	753.65
372.44	685.78
372.63	746.63
372.83	798.12
373.03	755.99
373.22	779.40
373.42	816.85
373.62	760.67
373.81	786.42
374.01	746.63
374.21	844.93
374.40	917.49
374.60	844.93
374.79	835.57
374.99	842.59
375.19	819.19
375.38	875.36
375.58	835.57
375.78	823.87
375.97	901.11
376.17	861.32
376.37	858.98
376.56	868.34
376.76	849.61
376.95	887.06
377.15	978.34
377.35	952.60
377.54	894.08
377.74	889.40
377.93	961.96
378.13	905.79
378.33	931.53
378.52	905.79
378.72	959.62
378.91	999.41
379.11	978.34
379.31	1015.79
379.50	957.28
379.70	1020.47
379.89	1055.58
380.09	926.85
380.28	997.07
380.48	987.71
380.68	903.45
380.87	940.90
381.07	1041.54
381.26	1097.71
381.46	950.26
381.65	1050.90
381.85	1071.97
382.04	1062.60
382.24	990.05
382.43	952.60
382.63	1076.65
382.83	1109.41
383.02	983.02
383.22	1088.35
383.41	1067.28
383.61	1071.97
383.80	1062.60
384.00	1125.80
384.19	1167.93
384.39	1146.86
384.58	1217.08
384.78	1151.54
384.97	1142.18
385.17	1200.69
385.36	1114.10
385.56	1156.22
385.75	1165.59
385.95	1221.76
386.14	1181.97
386.34	1102.39
386.53	1196.01
386.72	1228.78
386.92	1259.21
387.11	1217.08
387.31	1289.64
387.50	1203.04
387.70	1282.61
387.89	1228.78
388.09	1226.44
388.28	1238.14
388.48	1350.49
388.67	1268.57
388.86	1280.27
389.06	1235.80
389.25	1336.45
389.45	1334.11
389.64	1266.23
389.84	1334.11
390.03	1425.39
390.22	1401.98
390.42	1366.87
390.61	1401.98
390.81	1345.81
391.00	1343.47
391.19	1472.20
391.39	1495.60
391.58	1434.75
391.78	1453.47
391.97	1411.34
392.16	1458.15
392.36	1486.24
392.55	1502.62
392.75	1476.88
392.94	1481.56
393.13	1427.73
393.33	1493.26
393.52	1549.43
393.71	1584.54
393.91	1497.94
394.10	1568.16
394.29	1558.80
394.49	1582.20
394.68	1640.72
394.88	1521.35
395.07	1556.46
395.26	1706.25
395.46	1621.99
395.65	1666.46
395.84	1621.99
396.04	1680.50
396.23	1692.21
396.42	1715.61
396.62	1760.08
396.81	1715.61
397.00	1771.79
397.19	1729.66
397.39	1788.17
397.58	1867.75
397.77	1802.21
397.97	1914.56
398.16	1870.09
398.35	1898.17
398.55	1813.92
398.74	1839.66
398.93	1984.77
399.12	1956.69
399.32	1891.15
399.51	2008.18
399.70	1900.52
399.90	1879.45
400.09	2040.95
400.28	2024.56
400.47	1991.80
400.67	2104.14
400.86	2062.01
401.05	2115.84
401.24	2157.97
401.44	2101.80
401.63	2054.99
401.82	2047.97
402.01	2211.81
402.21	2228.19
402.40	2146.27
402.59	2148.61
402.78	2148.61
402.97	2209.47
403.17	2195.42
403.36	2275.00
403.55	2326.49
403.74	2387.35
403.93	2331.17
404.13	2291.38
404.32	2326.49
404.51	2225.85
404.70	2502.03
404.89	2284.36
405.09	2408.41
405.28	2462.24
405.47	2469.27
405.66	2509.05
405.85	2431.82
406.05	2546.50
406.24	2527.78
406.43	2630.76
406.62	2712.68
406.81	2647.15
407.00	2619.06
407.20	2509.05
407.39	2478.63
407.58	2579.27
407.77	2733.75
407.96	2733.75
408.15	2764.17
408.34	2759.49
408.54	2785.24
408.73	2722.04
408.92	2747.79
409.11	2918.65
409.30	2846.09
409.49	2956.10
409.68	2810.98
409.87	2904.60
410.07	3047.38
410.26	2970.14
410.45	2942.05
410.64	3026.31
410.83	2956.10
411.02	3042.70
411.21	3211.22
411.40	3054.40
411.59	3124.62
411.78	3117.59
411.98	3178.45
412.17	3276.75
412.36	3267.39
412.55	3283.77
412.74	3304.84
412.93	3361.01
413.12	3412.50
413.31	3478.04
413.50	3421.86
413.69	3405.48
413.88	3480.38
414.07	3599.74
414.26	3674.64
414.45	3702.73
414.64	3749.54
414.83	3735.50
415.02	3707.41
415.22	3920.40
415.41	3782.31
415.60	3747.20
415.79	4070.19
415.98	3971.89
416.17	3922.74
416.36	3889.97
416.55	3861.88
416.74	4098.28
416.93	4018.70
417.12	3995.29
417.31	4021.04
417.50	4140.41
417.69	4269.14
417.88	4231.69
418.07	4329.99
418.26	4241.05
418.45	4397.87
418.64	4287.86
418.83	4468.08
419.02	4428.29
419.21	4545.32
419.39	4486.81
419.58	4397.87
419.77	4447.02
419.96	4414.25
420.15	4608.51
420.34	4554.68
420.53	4465.74
420.72	4634.26
420.91	4636.60
421.10	4624.90
421.29	4734.90
421.48	4613.20
421.67	4760.65
421.86	4786.40
422.05	4781.71
422.24	4587.45
422.43	4882.36
422.61	4781.71
422.80	4807.46
422.99	4819.16
423.18	4723.20
423.37	5013.43
423.56	4821.50
423.75	4940.87
423.94	4798.10
424.13	4617.88
424.32	4788.74
424.50	4947.89
424.69	5151.52
424.88	4975.98
425.07	4952.57
425.26	4739.58
425.45	4905.76
425.64	4882.36
425.83	4849.59
426.01	5095.35
426.20	5041.51
426.39	4915.12
426.58	5032.15
426.77	5083.64
426.96	5060.24
427.15	5146.84
427.33	5160.88
427.52	5015.77
427.71	5149.18
427.90	5214.71
428.09	5298.97
428.28	5334.08
428.46	5291.95
428.65	5284.93
428.84	5371.53
429.03	5451.11
429.22	5188.97
429.40	5345.78
429.59	5465.15
429.78	5334.08
429.97	5352.81
430.16	5479.19
430.34	5591.54
430.53	5675.80
430.72	5755.38
430.91	5521.32
431.10	5486.22
431.28	5799.85
431.47	5769.42
431.66	5799.85
431.85	5628.99
432.03	5823.25
432.22	5888.79
432.41	5771.76
432.60	5898.15
432.79	5813.89
432.97	6010.50
433.16	6010.50
433.35	5858.36
433.54	5870.06
433.72	5963.68
433.91	6246.89
434.10	6031.56
434.28	6057.31
434.47	6090.07
434.66	6047.94
434.85	6228.17
435.03	6284.34
435.22	6176.67
435.41	6478.60
435.59	6307.74
435.78	6485.62
435.97	6279.66
436.16	6368.60
436.34	6509.03
436.53	6406.05
436.72	6518.39
436.90	6562.86
437.09	6642.44
437.28	6438.81
437.46	6593.29
437.65	6530.09
437.84	6761.81
438.02	6621.38
438.21	6712.66
438.40	6796.92
438.58	6991.18
438.77	6967.77
438.96	6750.10
439.14	6958.41
439.33	6993.52
439.52	7255.66
439.70	7117.57
439.89	7206.51
440.08	7236.94
440.26	7274.38
440.45	7372.69
440.63	7363.33
440.82	7557.59
441.01	7552.91
441.19	7442.90
441.38	7744.83
441.57	7714.41
441.75	7693.34
441.94	7815.05
442.12	7967.18
442.31	7983.57
442.50	8070.17
442.68	7974.21
442.87	7939.10
443.05	8084.21
443.24	8102.93
443.43	8126.34
443.61	7981.23
443.80	8367.42
443.98	7920.37
444.17	7943.78
444.35	8063.15
444.54	8243.37
444.73	8173.15
444.91	8170.81
445.10	8280.82
445.28	8322.94
445.47	8351.03
445.65	8610.83
445.84	8482.10
446.02	8346.35
446.21	8245.71
446.39	8290.18
446.58	8297.20
446.77	8395.50
446.95	8070.17
447.14	8336.99
447.32	8571.04
447.51	8477.42
447.69	8430.61
447.88	8336.99
448.06	8430.61
448.25	8383.80
448.43	8500.83
448.62	8353.37
448.80	8372.10
448.99	8606.15
449.17	8571.04
449.36	8561.68
449.54	8819.14
449.73	8863.61
449.91	9048.51
450.10	8954.89
450.28	8992.34
450.46	8947.87
450.65	9088.30
450.83	9125.75
451.02	8940.85
451.20	8924.46
451.39	9118.73
451.57	8987.66
451.76	8966.59
451.94	9226.39
452.13	9378.53
452.31	9205.33
452.49	9027.45
452.68	9163.20
452.86	9200.65
453.05	9451.08
453.23	9472.15
453.42	9317.67
453.60	9219.37
453.78	9504.92
453.97	9434.70
454.15	9420.66
454.34	9427.68
454.52	9685.14
454.70	9612.58
454.89	9717.90
455.07	9900.47
455.26	9806.84
455.44	9830.25
455.62	10085.37
455.81	9790.46
455.99	9881.74
456.17	9977.70
456.36	9980.04
456.54	10040.90
456.73	10162.61
456.91	10368.57
457.09	10324.10
457.28	10443.47
457.46	10242.18
457.64	10473.90
457.83	10408.36
458.01	10359.21
458.19	10403.68
458.38	10417.72
458.56	10312.40
458.74	10654.12
458.93	10373.25
459.11	10717.31
459.29	10436.45
459.48	10443.47
459.66	10721.99
459.84	10857.75
460.03	11056.69
460.21	10757.10
460.39	10918.60
460.57	10881.15
460.76	10939.66
460.94	11073.07
461.12	11066.05
461.31	11021.58
461.49	11091.80
461.67	11166.70
461.85	11318.83
462.04	11243.93
462.22	11618.42
462.40	11602.04
462.59	11194.78
462.77	11342.24
462.95	11442.88
463.13	11431.18
463.32	11683.95
463.50	11679.27
463.68	11683.95
463.86	11903.96
464.05	11414.79
464.23	11559.91
464.41	11943.75
464.59	11501.39
464.78	11946.09
464.96	11906.31
465.14	11906.31
465.32	12049.08
465.50	11871.20
465.69	12009.29
465.87	11997.59
466.05	12126.32
466.23	11903.96
466.41	12051.42
466.60	12166.10
466.78	12002.27
466.96	12280.79
467.14	12095.89
467.32	12430.59
467.51	12580.38
467.69	12161.42
467.87	12306.54
468.05	12170.79
468.23	12353.35
468.41	12360.37
468.60	12500.80
468.78	12868.27
468.96	12461.01
469.14	12865.92
469.32	13006.36
469.50	12362.71
469.69	12858.90
469.87	13034.44
470.05	13177.22
470.23	12943.16
470.41	13090.62
470.59	13153.81
470.77	12961.89
470.95	13179.56
471.14	13565.74
471.32	13090.62
471.50	13579.79
471.68	13455.74
471.86	13614.90
472.04	13439.36
472.22	14073.64
472.40	13790.44
472.58	13624.26
472.77	13795.12
472.95	13942.57
473.13	14471.53
473.31	13820.86
473.49	14108.75
473.67	14340.46
473.85	14150.88
474.03	14595.58
474.21	14480.89
474.39	14225.78
474.57	14721.97
474.75	14518.34
474.93	14806.23
475.12	14728.99
475.30	14927.94
475.48	14682.18
475.66	14918.57
475.84	14869.42
476.02	15115.18
476.20	15138.58
476.38	15674.57
476.56	15777.55
476.74	15882.88
476.92	15882.88
477.10	15630.10
477.28	15960.11
477.46	16273.74
477.64	16182.46
477.82	16482.05
478.00	16767.60
478.18	16690.36
478.36	16835.47
478.54	16666.95
478.72	17186.55
478.90	17034.42
479.08	17692.11
479.26	17692.11
479.44	17631.26
479.62	17572.74
479.80	17591.47
479.98	17649.98
480.16	18513.64
480.34	18167.24
480.52	18455.12
480.70	18780.46
480.88	18167.24
481.06	18534.70
481.24	18520.66
481.41	19197.07
481.59	19147.92
481.77	19367.93
481.95	19398.36
482.13	19424.11
482.31	19122.18
482.49	20058.39
482.67	19817.32
482.85	20311.17
483.03	20393.09
483.21	20353.30
483.39	20561.61
483.57	20397.77
483.74	20828.43
483.92	21252.06
484.10	21032.05
484.28	21612.51
484.46	21907.41
484.64	21848.90
484.82	21774.00
485.00	22146.15
485.18	22738.30
485.35	22658.73
485.53	22499.57
485.71	22813.20
485.89	23131.51
486.07	23073.00
486.25	23180.67
486.43	23613.66
486.61	23527.06
486.78	23807.93
486.96	24102.84
487.14	24313.48
487.32	24231.57
487.50	24552.22
487.68	24500.73
487.85	25069.48
488.03	24989.90
488.21	25720.15
488.39	25523.54
488.57	25656.95
488.75	26169.53
488.92	26146.12
489.10	26464.44
489.28	26103.99
489.46	26611.89
489.64	26843.60
489.81	27377.25
489.99	27421.72
490.17	27505.98
490.35	27571.51
490.53	27880.46
490.70	28432.83
490.88	27779.82
491.06	28493.68
491.24	28460.91
491.41	28402.40
491.59	29043.71
491.77	28961.79
491.95	29338.62
492.13	29610.12
492.30	29778.64
492.48	29682.67
492.66	29752.89
492.84	30284.19
493.01	30368.45
493.19	30455.05
493.37	30682.08
493.54	30654.00
493.72	31248.49
493.90	31372.54
494.08	31559.78
494.25	31349.14
494.43	31992.78
494.61	32095.77
494.79	32208.11
494.96	32219.81
495.14	32409.40
495.32	32690.26
495.49	32737.07
495.67	32945.38
495.85	33507.11
496.02	33413.49
496.20	33783.29
496.38	33713.08
496.55	33869.89
496.73	34553.33
496.91	34096.92
497.09	34323.96
497.26	34785.04
497.44	34469.07
497.62	34911.43
497.79	35559.76
497.97	35040.16
498.14	35248.47
498.32	35695.51
498.50	35711.89
498.67	35864.03
498.85	36060.63
499.03	36168.30
499.20	36423.42
499.38	36491.29
499.56	36999.19
499.73	36884.50
499.91	37008.55
500.08	37202.82
500.26	36779.18
500.44	37411.12
500.61	37123.24
500.79	37312.82
500.97	37687.31
501.14	38319.25
501.32	38433.94
501.49	37970.51
501.67	38637.56
501.84	38773.31
502.02	38550.96
502.20	38586.07
502.37	38857.57
502.55	38686.71
502.72	39328.02
502.90	38658.63
503.07	39173.55
503.25	39318.66
503.43	39164.18
503.60	39852.30
503.78	39906.13
503.95	39831.24
504.13	40275.94
504.30	40545.10
504.48	40095.72
504.65	39959.97
504.83	40556.80
505.01	40685.53
505.18	40858.73
505.36	41478.97
505.53	40872.78
505.71	41263.64
505.88	41303.43
506.06	40669.15
506.23	41680.26
506.41	41289.39
506.58	41413.44
506.76	41521.10
506.93	42302.84
507.11	41563.23
507.28	41759.84
507.46	42286.46
507.63	42059.43
507.81	42572.00
507.98	42548.60
508.16	42740.52
508.33	42572.00
508.50	43227.35
508.68	42796.70
508.85	43524.60
509.03	43445.02
509.20	43756.32
509.38	44123.78
509.55	44149.53
509.73	43894.41
509.90	44165.91
510.08	44156.55
510.25	44334.43
510.42	44872.75
510.60	44519.33
510.77	44999.14
510.95	45055.31
511.12	44903.18
511.30	45172.34
511.47	45008.50
511.64	44980.42
511.82	45134.89
511.99	45099.78
512.17	45385.33
512.34	45373.63
512.51	45902.59
512.69	45366.60
512.86	45949.40
513.04	46501.76
513.21	45930.67
513.38	46649.22
513.56	46471.34
513.73	46258.35
513.90	46667.94
514.08	46738.16
514.25	46593.04
514.43	47049.45
514.60	47002.64
514.77	47213.29
514.95	47030.72
515.12	47292.86
515.29	47494.15
515.47	47676.71
515.64	47636.92
515.81	47309.25
515.99	47608.84
516.16	48072.26
516.33	47730.54
516.51	48692.50
516.68	48217.38
516.85	48175.25
517.03	48914.86
517.20	48453.77
517.37	48292.27
517.54	48275.89
517.72	48701.87
517.89	48610.59
518.06	48868.05
518.24	48690.16
518.41	48842.30
518.58	48788.47
518.75	48903.15
518.93	49277.64
519.10	49017.84
519.27	49537.44
519.45	48949.96
519.62	49408.71
519.79	49684.89
519.96	49628.72
520.14	49815.96
520.31	49771.49
520.48	50117.89
520.65	49750.43
520.83	50258.32
521.00	50087.46
521.17	50202.15
521.34	50665.58
521.52	50609.40
521.69	50656.21
521.86	50972.19
522.03	50857.50
522.20	50607.06
522.38	51227.31
522.55	51051.76
522.72	51044.74
522.89	51093.89
523.07	51496.47
523.24	51196.88
523.41	51199.22
523.58	51075.17
523.75	51510.51
523.92	51510.51
524.10	51646.26
524.27	51562.00
524.44	51774.99
524.61	51793.71
524.78	51821.80
524.96	51894.36
525.13	52018.41
525.30	51845.21
525.47	51962.23
525.64	52095.64
525.81	52236.08
525.98	52435.02
526.16	52140.11
526.33	52233.74
526.50	52924.19
526.67	52224.37
526.84	52360.12
527.01	52425.66
527.18	52528.64
527.36	52439.70
527.53	53059.94
527.70	52980.37
527.87	53001.43
528.04	52938.24
528.21	53034.20
528.38	53165.27
528.55	53446.13
528.72	53336.13
528.89	53139.52
529.07	52914.83
529.24	53183.99
529.41	53600.61
529.58	53380.60
529.75	53265.91
529.92	53392.30
530.09	53546.78
530.26	53586.57
530.43	53626.35
530.60	53602.95
530.77	53420.39
530.94	53935.30
531.11	53876.79
531.28	53839.34
531.46	53846.36
531.63	54059.35
531.80	53872.11
531.97	54127.23
532.14	54312.13
532.31	54157.66
532.48	54162.34
532.65	54452.56
532.82	54344.90
532.99	54473.63
533.16	54375.33
533.33	54585.97
533.50	54672.57
533.67	54401.07
533.84	54471.29
534.01	54761.51
534.18	54635.13
534.35	54759.17
534.52	54911.31
534.69	55030.68
534.86	54897.27
535.03	54719.38
535.20	55075.15
535.37	55119.62
535.54	55105.57
535.71	54880.88
535.88	55086.85
536.05	55220.26
536.22	55470.70
536.38	55524.53
536.55	55393.46
536.72	55299.84
536.89	55124.30
537.06	55515.17
537.23	55587.72
537.40	55185.15
537.57	55461.33
537.74	55655.60
537.91	55653.26
538.08	55634.53
538.25	55564.32
538.42	55870.93
538.59	56006.68
538.75	55632.19
538.92	55690.71
539.09	55920.08
539.26	55746.88
539.43	55906.04
539.60	55938.80
539.77	56023.06
539.94	56107.32
540.11	56357.76
540.28	55987.95
540.44	56219.67
540.61	56065.19
540.78	56123.71
540.95	56074.55
541.12	56037.11
541.29	56259.46
541.46	56226.69
541.62	56463.08
541.79	56463.08
541.96	56032.42
542.13	56360.10
542.30	56362.44
542.47	56629.26
542.63	56687.78
542.80	56645.65
542.97	56903.10
543.14	56875.02
543.31	56814.16
543.48	57214.40
543.64	57195.67
543.81	57134.82
543.98	57155.88
544.15	56886.72
544.32	57130.14
544.48	57174.61
544.65	57050.56
544.82	57312.70
544.99	56931.19
545.16	57275.25
545.32	57198.01
545.49	57258.87
545.66	57528.03
545.83	57022.47
546.00	57703.57
546.16	57556.11
546.33	57247.16
546.50	56928.85
546.67	57506.96
546.83	57308.02
547.00	57380.57
547.17	57584.20
547.34	57563.14
547.50	57645.05
547.67	57930.60
547.84	57654.42
548.00	57834.64
548.17	57808.89
548.34	57984.43
548.51	58000.82
548.67	58117.84
548.84	57801.87
549.01	57989.11
549.18	57972.73
549.34	57977.41
549.51	57975.07
549.68	58024.22
549.84	58019.54
550.01	58075.71
550.18	58267.64
550.34	58251.25
550.51	58461.90
550.68	58239.55
550.84	57928.26
551.01	58265.30
551.18	58115.50
551.34	58202.10
551.51	58302.74
551.68	58471.26
551.84	58157.63
552.01	58073.37
552.18	58225.51
552.34	58274.66
552.51	58578.93
552.68	58129.54
552.84	58405.73
553.01	58908.94
553.18	58429.13
553.34	58794.26
553.51	58583.61
553.67	58621.06
553.84	58812.98
554.01	58660.85
554.17	58721.70
554.34	58852.77
554.51	58674.89
554.67	58808.30
554.84	58859.79
555.00	58611.70
555.17	58789.58
555.33	58810.64
555.50	58621.06
555.67	58733.40
555.83	58948.73
556.00	58979.16
556.16	59152.36
556.33	59056.40
556.50	58894.90
556.66	59002.56
556.83	58836.39
556.99	59379.39
557.16	59437.90
557.32	59234.28
557.49	59330.24
557.65	59213.21
557.82	59143.00
557.98	59189.81
558.15	59002.56
558.32	59103.21
558.48	59224.92
558.65	59227.26
558.81	59208.53
558.98	59358.33
559.14	59138.32
559.31	59355.99
559.47	59552.59
559.64	59512.80
559.80	59571.32
559.97	59423.86
560.13	59428.54
560.30	59339.60
560.46	59440.24
560.63	59473.01
560.79	59765.58
560.96	59552.59
561.12	59746.86
561.29	59737.49
561.45	59355.99
561.61	59388.75
561.78	59578.34
561.94	59606.42
562.11	59683.66
562.27	59606.42
562.44	59866.22
562.60	59817.07
562.77	59737.49
562.93	59618.13
563.10	59875.58
563.26	59704.73
563.42	59910.69
563.59	59840.48
563.75	59709.41
563.92	59739.83
564.08	59779.62
564.24	59959.84
564.41	59870.90
564.57	59936.44
564.74	59863.88
564.90	60030.06
565.07	59924.74
565.23	59854.52
565.39	59732.81
565.56	59891.97
565.72	59915.37
565.88	59929.42
566.05	59927.08
566.21	59945.80
566.38	59959.84
566.54	59973.89
566.70	60156.45
566.87	60294.54
567.03	60055.81
567.19	60320.29
567.36	60004.31
567.52	59948.14
567.68	60296.88
567.85	60126.02
568.01	60168.15
568.17	60041.76
568.34	60229.01
568.50	60161.13
568.66	60074.53
568.83	60238.37
568.99	60168.15
569.15	60147.09
569.32	60116.66
569.48	60334.33
569.64	60423.27
569.81	60102.62
569.97	60086.23
570.13	60090.91
570.30	60301.56
570.46	60055.81
570.62	60123.68
570.78	60083.89
570.95	60360.08
571.11	60371.78
571.27	60219.64
571.43	60170.49
571.60	60266.45
571.76	60418.59
571.92	60378.80
572.09	60371.78
572.25	60149.43
572.41	60163.47
572.57	60303.90
572.74	60395.18
572.90	60217.30
573.06	60439.65
573.22	60385.82
573.38	60488.80
573.55	60437.31
573.71	60685.41
573.87	60456.04
574.03	60493.49
574.20	60451.36
574.36	60289.86
574.52	60544.98
574.68	60477.10
574.84	60584.77
575.01	60519.23
575.17	60566.04
575.33	60362.42
575.49	60416.25
575.65	60624.56
575.82	60589.45
575.98	60467.74
576.14	60638.60
576.30	60694.77
576.46	60413.91
576.62	60430.29
576.79	60533.28
576.95	60322.63
577.11	60779.03
577.27	60603.49
577.43	60559.02
577.59	60544.98
577.75	60397.52
577.92	60327.31
578.08	60636.26
578.24	60561.36
578.40	60612.85
578.56	60537.96
578.72	60624.56
578.88	60949.89
579.04	60753.29
579.21	60722.86
579.37	60870.31
579.53	60858.61
579.69	60460.72
579.85	60554.34
580.01	60563.70
580.17	60608.17
580.33	60636.26
580.49	60818.82
580.65	60896.06
580.82	60718.18
580.98	60598.81
581.14	60420.93
581.30	60882.02
581.46	60575.40
581.62	60666.69
581.78	60493.49
581.94	60788.39
582.10	60603.49
582.26	60844.57
582.42	60598.81
582.58	60652.64
582.74	60617.53
582.90	60694.77
583.06	60786.05
583.22	60673.71
583.38	60795.42
583.54	60701.79
583.70	60720.52
583.86	60839.89
584.02	60734.56
584.18	60963.93
584.34	60818.82
584.50	60790.73
584.66	60591.79
584.82	60750.94
584.98	60963.93
585.14	60755.63
585.30	60891.38
585.46	60774.35
585.62	60743.92
585.78	61059.90
585.94	60495.83
586.10	60832.86
586.26	60835.20
586.42	61013.08
586.58	60865.63
586.74	60694.77
586.90	60954.57
587.06	60898.40
587.22	61022.45
587.38	60874.99
587.54	60903.08
587.70	60907.76
587.86	60734.56
588.02	60779.03
588.18	61034.15
588.34	60966.27
588.49	60863.29
