SpectraSuite Data File
++++++++++++++++++++++++++++++++++++
Date: Fri Oct 25 11:34:11 EDT 2013
User: price-jones
Dark Spectrum Present: No
Reference Spectrum Present: No
Number of Sampled Component Spectra: 1
Spectrometers: USB2+H05261
Integration Time (usec): 100000 (USB2+H05261)
Spectra Averaged: 1 (USB2+H05261)
Boxcar Smoothing: 0 (USB2+H05261)
Correct for Electrical Dark: No (USB2+H05261)
Strobe/Lamp Enabled: No (USB2+H05261)
Correct for Detector Non-linearity: No (USB2+H05261)
Correct for Stray Light: No (USB2+H05261)
Number of Pixels in Processed Spectrum: 2048
>>>>>Begin Processed Spectral Data<<<<<
365.73	236.39
365.92	236.39
366.12	236.39
366.32	236.39
366.52	229.37
366.72	173.20
366.91	215.33
367.11	229.37
367.31	161.50
367.51	191.92
367.70	128.73
367.90	217.67
368.10	243.42
368.30	248.10
368.49	147.45
368.69	198.95
368.89	154.48
369.09	138.09
369.28	175.54
369.48	133.41
369.68	220.01
369.87	297.25
370.07	234.05
370.27	313.63
370.47	360.44
370.66	454.06
370.86	458.74
371.06	505.56
371.25	587.47
371.45	510.24
371.65	519.60
371.84	550.03
372.04	566.41
372.24	566.41
372.44	608.54
372.63	631.94
372.83	664.71
373.03	566.41
373.22	615.56
373.42	638.97
373.62	650.67
373.81	638.97
374.01	638.97
374.21	645.99
374.40	545.34
374.60	667.05
374.79	592.16
374.99	638.97
375.19	627.26
375.38	624.92
375.58	645.99
375.78	653.01
375.97	582.79
376.17	615.56
376.37	732.59
376.56	657.69
376.76	610.88
376.95	683.44
377.15	739.61
377.35	720.88
377.54	685.78
377.74	678.76
377.93	669.39
378.13	667.05
378.33	692.80
378.52	599.18
378.72	765.36
378.91	697.48
379.11	638.97
379.31	730.25
379.50	683.44
379.70	725.57
379.89	748.97
380.09	751.31
380.28	739.61
380.48	748.97
380.68	622.58
380.87	758.33
381.07	638.97
381.26	826.21
381.46	727.91
381.65	725.57
381.85	755.99
382.04	788.76
382.24	779.40
382.43	777.06
382.63	805.14
382.83	741.95
383.02	851.96
383.22	795.78
383.41	758.33
383.61	814.51
383.80	851.96
384.00	760.67
384.19	753.65
384.39	774.72
384.58	849.61
384.78	791.10
384.97	802.80
385.17	765.36
385.36	858.98
385.56	779.40
385.75	816.85
385.95	816.85
386.14	901.11
386.34	870.68
386.53	821.53
386.72	875.36
386.92	880.04
387.11	924.51
387.31	877.70
387.50	973.66
387.70	884.72
387.89	929.19
388.09	873.02
388.28	875.36
388.48	947.92
388.67	903.45
388.86	889.40
389.06	929.19
389.25	919.83
389.45	912.81
389.64	905.79
389.84	950.26
390.03	966.64
390.22	978.34
390.42	1001.75
390.61	933.87
390.81	931.53
391.00	1006.43
391.19	976.00
391.39	971.32
391.58	1001.75
391.78	1008.77
391.97	936.21
392.16	994.73
392.36	1062.60
392.55	966.64
392.75	1081.33
392.94	1036.86
393.13	1055.58
393.33	1043.88
393.52	1086.01
393.71	1062.60
393.91	1022.81
394.10	1067.28
394.29	1069.62
394.49	1034.52
394.68	1090.69
394.88	1121.12
395.07	1083.67
395.26	1100.05
395.46	1163.25
395.65	1160.91
395.84	1139.84
396.04	1235.80
396.23	1151.54
396.42	1097.71
396.62	1247.51
396.81	1203.04
397.00	1165.59
397.19	1165.59
397.39	1181.97
397.58	1233.46
397.77	1221.76
397.97	1233.46
398.16	1214.74
398.35	1210.06
398.55	1212.40
398.74	1256.87
398.93	1256.87
399.12	1198.35
399.32	1299.00
399.51	1296.66
399.70	1233.46
399.90	1315.38
400.09	1371.55
400.28	1315.38
400.47	1439.43
400.67	1329.42
400.86	1313.04
401.05	1383.26
401.24	1409.00
401.44	1453.47
401.63	1451.13
401.82	1460.49
402.01	1481.56
402.21	1507.30
402.40	1387.94
402.59	1430.07
402.78	1441.77
402.97	1486.24
403.17	1467.52
403.36	1626.67
403.55	1596.25
403.74	1586.88
403.93	1451.13
404.13	1600.93
404.32	1533.05
404.51	1521.35
404.70	1593.90
404.89	1694.55
405.09	1727.32
405.28	1629.01
405.47	1638.38
405.66	1621.99
405.85	1680.50
406.05	1724.97
406.24	1671.14
406.43	1715.61
406.62	1748.38
406.81	1750.72
407.00	1804.55
407.20	1781.15
407.39	1912.22
407.58	1849.02
407.77	1769.44
407.96	1891.15
408.15	1849.02
408.34	1851.36
408.54	1865.41
408.73	1977.75
408.92	1877.11
409.11	2062.01
409.30	1970.73
409.49	1923.92
409.68	1886.47
409.87	2038.61
410.07	1928.60
410.26	2083.08
410.45	2038.61
410.64	2019.88
410.83	2052.65
411.02	2024.56
411.21	2064.35
411.40	2078.40
411.59	2204.78
411.78	2244.57
411.98	2235.21
412.17	2157.97
412.36	2188.40
412.55	2239.89
412.74	2333.51
412.93	2314.79
413.12	2326.49
413.31	2392.03
413.50	2312.45
413.69	2450.54
413.88	2401.39
414.07	2502.03
414.26	2506.71
414.45	2429.48
414.64	2497.35
414.83	2541.82
415.02	2476.29
415.22	2693.96
415.41	2548.84
415.60	2509.05
415.79	2670.55
415.98	2733.75
416.17	2602.68
416.36	2567.57
416.55	2726.72
416.74	2759.49
416.93	2712.68
417.12	2775.88
417.31	2787.58
417.50	2904.60
417.69	2911.63
417.88	2757.15
418.07	2759.49
418.26	2911.63
418.45	2890.56
418.64	3028.65
418.83	2942.05
419.02	3073.12
419.21	3075.46
419.39	3061.42
419.58	2913.97
419.77	2853.11
419.96	2998.23
420.15	3084.83
420.34	3119.93
420.53	3077.80
420.72	3028.65
420.91	3038.02
421.10	3162.06
421.29	3129.30
421.48	3117.59
421.67	3164.40
421.86	3229.94
422.05	3311.86
422.24	3222.92
422.43	3239.30
422.61	3421.86
422.80	3365.69
422.99	3274.41
423.18	3321.22
423.37	3318.88
423.56	3232.28
423.75	3272.07
423.94	3267.39
424.13	3136.32
424.32	3330.58
424.50	3353.99
424.69	3468.67
424.88	3454.63
425.07	3400.80
425.26	3297.81
425.45	3253.34
425.64	3452.29
425.83	3377.39
426.01	3456.97
426.20	3396.12
426.39	3454.63
426.58	3449.95
426.77	3393.78
426.96	3517.83
427.15	3515.48
427.33	3449.95
427.52	3506.12
427.71	3485.06
427.90	3520.17
428.09	3592.72
428.28	3632.51
428.46	3714.43
428.65	3552.93
428.84	3714.43
429.03	3574.00
429.22	3648.90
429.40	3684.00
429.59	3899.33
429.78	3435.91
429.97	3606.77
430.16	3613.79
430.34	3712.09
430.53	3754.22
430.72	3840.82
430.91	3815.07
431.10	3742.52
431.28	3831.46
431.47	3908.69
431.66	3894.65
431.85	3786.99
432.03	3925.08
432.22	4081.89
432.41	4072.53
432.60	3843.16
432.79	3988.27
432.97	3992.95
433.16	4011.68
433.35	3845.50
433.54	4053.81
433.72	4079.55
433.91	3985.93
434.10	4163.81
434.28	4044.45
434.47	4208.28
434.66	4175.52
434.85	4168.49
435.03	4184.88
435.22	4255.09
435.41	4273.82
435.59	4241.05
435.78	4416.59
435.97	4245.73
436.16	4166.15
436.34	4337.01
436.53	4290.20
436.72	4346.37
436.90	4374.46
437.09	4432.97
437.28	4507.87
437.46	4428.29
437.65	4374.46
437.84	4477.44
438.02	4430.63
438.21	4613.20
438.40	4533.62
438.58	4568.73
438.77	4795.76
438.96	4601.49
439.14	4844.91
439.33	4748.95
439.52	4699.80
439.70	4954.91
439.89	4835.55
440.08	5006.41
440.26	4947.89
440.45	4983.00
440.63	5018.11
440.82	5198.33
441.01	4863.63
441.19	5210.03
441.38	5235.78
441.57	5022.79
441.75	5142.16
441.94	5118.75
442.12	5331.74
442.31	5336.42
442.50	5238.12
442.68	5252.16
442.87	5490.90
443.05	5425.36
443.24	5359.83
443.43	5280.25
443.61	5500.26
443.80	5561.11
443.98	5355.15
444.17	5226.42
444.35	5418.34
444.54	5593.88
444.73	5568.13
444.91	5439.40
445.10	5563.45
445.28	5490.90
445.47	5453.45
445.65	5643.03
445.84	5579.84
446.02	5685.16
446.21	5427.70
446.39	5345.78
446.58	5617.29
446.77	5577.50
446.95	5514.30
447.14	5497.92
447.32	5628.99
447.51	5661.76
447.69	5647.71
447.88	5654.73
448.06	5654.73
448.25	5621.97
448.43	5673.46
448.62	5785.80
448.80	5731.97
448.99	5797.51
449.17	5837.30
449.36	5839.64
449.54	5809.21
449.73	5865.38
449.91	5799.85
450.10	5949.64
450.28	6087.73
450.46	5944.96
450.65	6115.82
450.83	5949.64
451.02	6076.03
451.20	6106.46
451.39	5987.09
451.57	5968.37
451.76	5961.34
451.94	6057.31
452.13	6094.76
452.31	5987.09
452.49	6207.10
452.68	6251.57
452.86	6176.67
453.05	6200.08
453.23	6263.27
453.42	6197.74
453.60	6153.27
453.78	6134.54
453.97	6108.80
454.15	6232.85
454.34	6221.14
454.52	6462.22
454.70	6363.92
454.89	6513.71
455.07	6490.31
455.26	6305.40
455.44	6462.22
455.62	6429.45
455.81	6569.88
455.99	6480.94
456.17	6633.08
456.36	6633.08
456.54	6623.72
456.73	6511.37
456.91	6836.70
457.09	6972.46
457.28	6970.12
457.46	6836.70
457.64	6942.03
457.83	6920.96
458.01	7007.56
458.19	7119.91
458.38	6935.01
458.56	6965.43
458.74	6956.07
458.93	6925.65
459.11	7096.50
459.29	6993.52
459.48	7042.67
459.66	7166.72
459.84	6986.50
460.03	7382.05
460.21	7243.96
460.39	7218.21
460.57	7393.75
460.76	7222.89
460.94	7288.43
461.12	7077.78
461.31	7318.86
461.49	7325.88
461.67	7262.68
461.85	7316.51
462.04	7414.82
462.22	7918.03
462.40	7793.98
462.59	7573.97
462.77	7531.84
462.95	7625.47
463.13	7592.70
463.32	7569.29
463.50	7786.96
463.68	7962.50
463.86	7793.98
464.05	7648.87
464.23	7616.10
464.41	7969.52
464.59	7639.51
464.78	7864.20
464.96	7648.87
465.14	7644.19
465.32	7829.09
465.50	7939.10
465.69	7934.42
465.87	7887.61
466.05	7840.79
466.23	8035.06
466.41	8065.49
466.60	8166.13
466.78	7962.50
466.96	7887.61
467.14	7999.95
467.32	8154.43
467.51	8257.41
467.69	7896.97
467.87	8063.15
468.05	8369.76
468.23	8067.83
468.41	7960.16
468.60	8025.70
468.78	8425.93
468.96	8241.03
469.14	8231.66
469.32	8498.49
469.50	8173.15
469.69	8327.63
469.87	8491.46
470.05	8629.56
470.23	8667.00
470.41	8657.64
470.59	8461.04
470.77	8493.80
470.95	8767.65
471.14	8777.01
471.32	8571.04
471.50	8954.89
471.68	8805.10
471.86	8762.97
472.04	8917.44
472.22	9137.45
472.40	8896.38
472.58	9004.04
472.77	8891.70
472.95	9172.56
473.13	9287.25
473.31	9233.41
473.49	9193.62
473.67	9053.19
473.85	9132.77
474.03	9420.66
474.21	9568.11
474.39	9621.94
474.57	9481.51
474.75	9832.59
474.93	9783.44
475.12	9617.26
475.30	9729.61
475.48	9764.72
475.66	9851.31
475.84	9874.72
476.02	10022.17
476.20	9919.19
476.38	10216.44
476.56	10501.98
476.74	10408.36
476.92	10438.79
477.10	10279.63
477.28	10214.10
477.46	10399.00
477.64	10649.44
477.82	10738.38
478.00	10927.96
478.18	10883.49
478.36	11075.42
478.54	10967.75
478.72	11047.33
478.90	11356.28
479.08	11393.73
479.26	11367.98
479.44	11419.47
479.62	11545.86
479.80	11580.97
479.98	11831.41
480.16	11948.43
480.34	11723.74
480.52	11941.41
480.70	11875.88
480.88	11852.47
481.06	12131.00
481.24	12320.58
481.41	12138.02
481.59	12430.59
481.77	12423.56
481.95	12676.34
482.13	12856.56
482.31	12662.30
482.49	12769.96
482.67	12872.95
482.85	13198.28
483.03	13146.79
483.21	13163.17
483.39	13563.40
483.57	13458.08
483.74	13827.88
483.92	13673.41
484.10	13846.61
484.28	14040.87
484.46	14295.99
484.64	14408.34
484.82	14057.26
485.00	14202.37
485.18	14478.55
485.35	14640.05
485.53	14637.71
485.71	14628.35
485.89	15063.69
486.07	15080.07
486.25	15183.06
486.43	15323.49
486.61	15335.19
486.78	15419.45
486.96	15690.95
487.14	15630.10
487.32	15880.53
487.50	15864.15
487.68	15910.96
487.85	16189.49
488.03	16388.43
488.21	16346.30
488.39	16528.86
488.57	16669.30
488.75	16791.00
488.92	17074.21
489.10	17277.83
489.28	17319.96
489.46	17614.87
489.64	17404.22
489.81	17703.81
489.99	17355.07
490.17	17823.18
490.35	17860.63
490.53	18251.50
490.70	18078.30
490.88	18120.43
491.06	18462.15
491.24	18562.79
491.41	18541.72
491.59	18827.27
491.77	18775.78
491.95	18813.23
492.13	19073.03
492.30	19147.92
492.48	19304.74
492.66	19356.23
492.84	19597.31
493.01	19620.71
493.19	19751.78
493.37	19885.19
493.54	19840.72
493.72	20004.56
493.90	19777.53
494.08	20350.96
494.25	20318.19
494.43	20526.50
494.61	21027.37
494.79	20673.95
494.96	20709.06
495.14	21092.91
495.32	21404.20
495.49	21039.08
495.67	21514.20
495.85	21743.58
496.02	21341.00
496.20	21362.07
496.38	21806.77
496.55	22008.06
496.73	22363.82
496.91	22146.15
497.09	22249.13
497.26	22284.24
497.44	22471.48
497.62	22324.03
497.79	22941.93
497.97	23030.87
498.14	22860.01
498.32	23009.81
498.50	23016.83
498.67	23386.63
498.85	23028.53
499.03	23618.35
499.20	23091.73
499.38	23447.49
499.56	23770.48
499.73	23681.54
499.91	23929.64
500.08	24079.43
500.26	23861.76
500.44	24177.73
500.61	24119.22
500.79	24425.83
500.97	24191.78
501.14	24648.18
501.32	24617.75
501.49	24755.85
501.67	24393.06
501.84	25046.07
502.02	24797.98
502.20	25017.99
502.37	24779.25
502.55	24889.26
502.72	25277.79
502.90	25263.74
503.07	25043.73
503.25	25345.66
503.43	25518.86
503.60	25811.43
503.78	25582.06
503.95	25804.41
504.13	25654.61
504.30	25853.56
504.48	25848.88
504.65	26085.27
504.83	26295.92
505.01	26366.13
505.18	26232.72
505.36	26764.03
505.53	26618.91
505.71	26410.60
505.88	26932.54
506.06	26651.68
506.23	26565.08
506.41	26625.93
506.58	27192.34
506.76	26850.63
506.93	27421.72
507.11	27428.74
507.28	27487.25
507.46	27356.18
507.63	27791.52
507.81	27648.75
507.98	27318.73
508.16	28135.58
508.33	27817.27
508.50	28156.64
508.68	28053.66
508.85	28259.63
509.03	27955.36
509.20	27882.80
509.38	28828.38
509.55	28325.16
509.73	28800.29
509.90	28437.51
510.08	28828.38
510.25	28760.50
510.42	29127.97
510.60	28877.53
510.77	28912.64
510.95	29235.63
511.12	29130.31
511.30	28987.53
511.47	29406.49
511.64	29404.15
511.82	29425.22
511.99	29483.73
512.17	29738.85
512.34	30015.03
512.51	30085.25
512.69	29886.30
512.86	30012.69
513.04	29905.02
513.21	30141.42
513.38	30359.09
513.56	30632.93
513.73	30410.58
513.90	30555.69
514.08	30118.01
514.25	30817.83
514.43	30813.15
514.60	31023.80
514.77	30960.61
514.95	30923.16
515.12	30738.26
515.29	30981.67
515.47	30866.98
515.64	31435.74
515.81	31033.16
515.99	31208.70
516.16	31630.00
516.33	31545.74
516.51	31634.68
516.68	31707.24
516.85	31454.46
517.03	31873.42
517.20	31667.45
517.37	32016.19
517.54	32016.19
517.72	31997.46
517.89	31885.12
518.06	32275.99
518.24	32041.93
518.41	32126.19
518.58	32278.33
518.75	31962.36
518.93	32910.27
519.10	32292.37
519.27	32603.66
519.45	32575.58
519.62	32711.33
519.79	32739.41
519.96	32734.73
520.14	33359.66
520.31	32643.45
520.48	33240.29
520.65	33230.93
520.83	33399.44
521.00	33422.85
521.17	33516.47
521.34	33074.11
521.52	33832.44
521.69	33570.30
521.86	33937.77
522.03	34125.01
522.20	34071.18
522.38	34321.62
522.55	33890.96
522.72	34139.05
522.89	34497.16
523.07	34878.66
523.24	34295.87
523.41	34335.66
523.58	34139.05
523.75	34651.63
523.92	34553.33
524.10	34632.91
524.27	34609.50
524.44	35108.04
524.61	34712.49
524.78	35105.70
524.96	35225.06
525.13	35234.42
525.30	35211.02
525.47	35021.44
525.64	35491.88
525.81	35496.56
525.98	35538.69
526.16	35335.07
526.33	35342.09
526.50	35896.80
526.67	34841.21
526.84	35557.42
527.01	35730.62
527.18	35814.88
527.36	35988.08
527.53	35838.28
527.70	36105.10
527.87	36362.56
528.04	35772.75
528.21	36137.87
528.38	36175.32
528.55	36500.65
528.72	36018.50
528.89	36378.95
529.07	36397.67
529.24	36325.11
529.41	36421.08
529.58	36250.22
529.75	36488.95
529.92	37022.59
530.09	36975.78
530.26	36481.93
530.43	36893.86
530.60	36622.36
530.77	36556.83
530.94	37041.32
531.11	37020.25
531.28	37050.68
531.46	36980.46
531.63	37139.62
531.80	36933.65
531.97	37769.22
532.14	37174.73
532.31	37191.11
532.48	37607.73
532.65	37666.24
532.82	37392.40
532.99	37731.78
533.16	37614.75
533.33	37766.88
533.50	37963.49
533.67	37954.13
533.84	37586.66
534.01	37928.38
534.18	37816.04
534.35	38103.92
534.52	37989.24
534.69	38429.26
534.86	38820.13
535.03	37909.66
535.20	38738.21
535.37	38267.76
535.54	38766.29
535.71	38436.28
535.88	38660.97
536.05	38431.60
536.22	38824.81
536.38	38653.95
536.55	38433.94
536.72	38625.86
536.89	38749.91
537.06	38873.96
537.23	38691.40
537.40	39063.54
537.57	38682.03
537.74	39126.74
537.91	39196.95
538.08	39152.48
538.25	38794.38
538.42	39349.09
538.59	39660.38
538.75	39332.70
538.92	39693.15
539.09	39646.33
539.26	39325.68
539.43	39342.06
539.60	39250.78
539.77	39463.77
539.94	39756.34
540.11	39856.98
540.28	39440.37
540.44	39915.50
540.61	39555.05
540.78	39543.35
540.95	40079.33
541.12	39915.50
541.29	39526.97
541.46	40095.72
541.62	40350.84
541.79	40259.55
541.96	40051.25
542.13	39915.50
542.30	39974.01
542.47	40116.78
542.63	40582.55
542.80	40568.51
542.97	40470.20
543.14	40793.20
543.31	40896.18
543.48	40818.94
543.64	41109.17
543.81	41289.39
543.98	41099.81
544.15	40753.41
544.32	41163.00
544.48	41443.87
544.65	41151.30
544.82	40917.25
544.99	41303.43
545.16	40837.67
545.32	41031.93
545.49	41670.90
545.66	41682.60
545.83	41528.13
546.00	41228.54
546.16	41394.71
546.33	41453.23
546.50	41291.73
546.67	41743.45
546.83	41504.72
547.00	41256.62
547.17	41488.34
547.34	41633.45
547.50	41682.60
547.67	42192.84
547.84	41883.89
548.00	42497.11
548.17	42588.39
548.34	42124.96
548.51	42150.71
548.67	41970.49
548.84	42127.30
549.01	42192.84
549.18	42410.51
549.34	42567.32
549.51	42651.58
549.68	42653.92
549.84	41928.36
550.01	42440.93
550.18	42101.56
550.34	42340.29
550.51	42103.90
550.68	42848.19
550.84	42602.43
551.01	42784.99
551.18	42543.92
551.34	42419.87
551.51	43161.82
551.68	42848.19
551.84	42848.19
552.01	42787.33
552.18	43026.07
552.34	42506.47
552.51	43147.78
552.68	42941.81
552.84	42983.94
553.01	43091.60
553.18	42719.46
553.34	43171.18
553.51	43077.56
553.67	43414.60
553.84	43903.77
554.01	43522.26
554.17	43168.84
554.34	43718.87
554.51	43210.97
554.67	43768.02
554.84	43732.91
555.00	43510.56
555.17	43491.83
555.33	43721.21
555.50	43515.24
555.67	43632.27
555.83	43786.74
556.00	44261.87
556.16	43896.75
556.33	43978.67
556.50	43435.66
556.66	43714.19
556.83	43866.32
556.99	43866.32
557.16	44121.44
557.32	44261.87
557.49	44147.18
557.65	44292.30
557.82	43824.19
557.98	43753.97
558.15	44055.90
558.32	44233.78
558.48	43739.93
558.65	43955.26
558.81	44392.94
558.98	44069.95
559.14	44399.96
559.31	44301.66
559.47	44301.66
559.64	44112.08
559.80	44219.74
559.97	44088.67
560.13	43995.05
560.30	44734.66
560.46	44409.32
560.63	44596.57
560.79	44423.37
560.96	44849.35
561.12	44388.26
561.29	44678.49
561.45	44804.88
561.61	44910.20
561.78	44196.34
561.94	44100.37
562.11	44451.45
562.27	44875.09
562.44	44687.85
562.60	44964.03
562.77	44790.83
562.93	44722.96
563.10	45052.97
563.26	44767.43
563.42	45579.59
563.59	44854.03
563.75	44924.24
563.92	44666.78
564.08	44949.99
564.24	44893.82
564.41	44811.90
564.57	44830.62
564.74	45020.20
564.90	44811.90
565.07	44903.18
565.23	44919.56
565.39	45294.05
565.56	44844.66
565.72	45137.23
565.88	44987.44
566.05	44975.73
566.21	44837.64
566.38	45022.54
566.54	45237.87
566.70	45301.07
566.87	45497.67
567.03	44683.17
567.19	45202.77
567.36	45535.12
567.52	44844.66
567.68	45666.19
567.85	45319.79
568.01	45404.05
568.17	45397.03
568.34	45326.81
568.50	45043.61
568.66	45265.96
568.83	45497.67
568.99	45528.10
569.15	45359.58
569.32	45490.65
569.48	45191.06
569.64	45441.50
569.81	45771.52
569.97	45656.83
570.13	45806.62
570.30	45155.96
570.46	45647.47
570.62	45815.99
570.78	45242.56
570.95	45074.04
571.11	45495.33
571.27	45727.05
571.43	45755.13
571.60	45715.34
571.76	45502.35
571.92	45727.05
572.09	45315.11
572.25	45345.54
572.41	45441.50
572.57	45408.73
572.74	45811.31
572.90	45724.71
573.06	45820.67
573.22	46248.99
573.38	45659.17
573.55	46031.32
573.71	46085.15
573.87	45918.97
574.03	45806.62
574.20	46356.65
574.36	45808.96
574.52	46150.68
574.68	46291.12
574.84	45954.08
575.01	46300.48
575.17	46036.00
575.33	45776.20
575.49	45921.31
575.65	45682.58
575.82	46155.36
575.98	45551.51
576.14	46302.82
576.30	46057.06
576.46	46068.76
576.62	45830.03
576.79	45860.46
576.95	45387.67
577.11	45764.49
577.27	45713.00
577.43	45914.29
577.59	45883.86
577.75	45965.78
577.92	45661.51
578.08	45731.73
578.24	46279.41
578.40	46174.09
578.56	46153.02
578.72	46019.61
578.88	46263.03
579.04	45867.48
579.21	46387.08
579.37	46232.60
579.53	46354.31
579.69	46171.75
579.85	45970.46
580.01	45717.68
580.17	46141.32
580.33	46085.15
580.49	46225.58
580.65	46007.91
580.82	45942.38
580.98	46096.85
581.14	45614.70
581.30	46000.89
581.46	46026.63
581.62	45918.97
581.78	46080.47
581.94	46284.09
582.10	46293.46
582.26	45982.16
582.42	45727.05
582.58	46429.21
582.74	46511.13
582.90	46321.54
583.06	45975.14
583.22	45958.76
583.38	46263.03
583.54	46401.12
583.70	46391.76
583.86	46270.05
584.02	46012.59
584.18	46153.02
584.34	46403.46
584.50	46197.49
584.66	46433.89
584.82	46714.75
584.98	46410.48
585.14	46270.05
585.30	45825.35
585.46	46373.03
585.62	46260.69
585.78	46197.49
585.94	45661.51
586.10	46185.79
586.26	46216.22
586.42	46349.63
586.58	46459.63
586.74	46129.62
586.90	45717.68
587.06	46010.25
587.22	46607.09
587.38	46396.44
587.54	46611.77
587.70	46256.01
587.86	46829.44
588.02	46045.36
588.18	46623.47
588.34	46461.97
588.49	46373.03
588.65	46204.52
588.81	46611.77
588.97	46586.02
589.13	46471.34
589.29	46717.09
589.45	46562.62
589.61	46506.44
589.77	46461.97
589.93	46501.76
590.08	46759.22
