SpectraSuite Data File
++++++++++++++++++++++++++++++++++++
Date: Fri Oct 25 11:22:59 EDT 2013
User: price-jones
Dark Spectrum Present: No
Reference Spectrum Present: No
Number of Sampled Component Spectra: 1
Spectrometers: USB2+H05261
Integration Time (usec): 100000 (USB2+H05261)
Spectra Averaged: 1 (USB2+H05261)
Boxcar Smoothing: 0 (USB2+H05261)
Correct for Electrical Dark: No (USB2+H05261)
Strobe/Lamp Enabled: No (USB2+H05261)
Correct for Detector Non-linearity: No (USB2+H05261)
Correct for Stray Light: No (USB2+H05261)
Number of Pixels in Processed Spectrum: 2048
>>>>>Begin Processed Spectral Data<<<<<
365.73	222.35
365.92	222.35
366.12	222.35
366.32	114.69
366.52	110.01
366.72	145.11
366.91	114.69
367.11	98.30
367.31	102.98
367.51	88.94
367.70	138.09
367.90	180.22
368.10	81.92
368.30	77.24
368.49	145.11
368.69	175.54
368.89	107.66
369.09	147.45
369.28	93.62
369.48	201.29
369.68	229.37
369.87	203.63
370.07	180.22
370.27	297.25
370.47	327.68
370.66	622.58
370.86	648.33
371.06	758.33
371.25	704.50
371.45	559.39
371.65	718.54
371.84	660.03
372.04	777.06
372.24	737.27
372.44	816.85
372.63	727.91
372.83	765.36
373.03	751.31
373.22	755.99
373.42	816.85
373.62	723.23
373.81	807.48
374.01	793.44
374.21	833.23
374.40	814.51
374.60	866.00
374.79	814.51
374.99	823.87
375.19	901.11
375.38	856.64
375.58	788.76
375.78	830.89
375.97	896.43
376.17	922.17
376.37	795.78
376.56	851.96
376.76	814.51
376.95	812.17
377.15	880.04
377.35	880.04
377.54	943.24
377.74	856.64
377.93	973.66
378.13	943.24
378.33	947.92
378.52	898.77
378.72	922.17
378.91	922.17
379.11	873.02
379.31	936.21
379.50	912.81
379.70	978.34
379.89	943.24
380.09	968.98
380.28	1006.43
380.48	1074.31
380.68	997.07
380.87	933.87
381.07	929.19
381.26	1100.05
381.46	1006.43
381.65	1029.84
381.85	1053.24
382.04	1027.50
382.24	1046.22
382.43	1032.18
382.63	1123.46
382.83	1153.88
383.02	1029.84
383.22	1088.35
383.41	1132.82
383.61	1102.39
383.80	1128.14
384.00	1008.77
384.19	1132.82
384.39	1100.05
384.58	1123.46
384.78	1196.01
384.97	1174.95
385.17	1123.46
385.36	1170.27
385.56	1144.52
385.75	1179.63
385.95	1198.35
386.14	1252.19
386.34	1165.59
386.53	1130.48
386.72	1135.16
386.92	1259.21
387.11	1144.52
387.31	1219.42
387.50	1217.08
387.70	1256.87
387.89	1329.42
388.09	1350.49
388.28	1256.87
388.48	1329.42
388.67	1287.29
388.86	1329.42
389.06	1301.34
389.25	1320.06
389.45	1341.13
389.64	1418.36
389.84	1357.51
390.03	1397.30
390.22	1423.05
390.42	1320.06
390.61	1355.17
390.81	1385.60
391.00	1423.05
391.19	1474.54
391.39	1490.92
391.58	1444.11
391.78	1523.69
391.97	1575.18
392.16	1486.24
392.36	1596.25
392.55	1509.65
392.75	1495.60
392.94	1530.71
393.13	1568.16
393.33	1483.90
393.52	1643.06
393.71	1614.97
393.91	1568.16
394.10	1617.31
394.29	1556.46
394.49	1547.09
394.68	1671.14
394.88	1647.74
395.07	1617.31
395.26	1631.35
395.46	1701.57
395.65	1650.08
395.84	1621.99
396.04	1856.04
396.23	1755.40
396.42	1753.06
396.62	1675.82
396.81	1675.82
397.00	1774.13
397.19	1895.83
397.39	1767.10
397.58	1795.19
397.77	1839.66
397.97	1844.34
398.16	1830.30
398.35	1940.30
398.55	1858.39
398.74	1884.13
398.93	1968.39
399.12	1944.99
399.32	1834.98
399.51	1956.69
399.70	2029.24
399.90	1926.26
400.09	2097.12
400.28	2001.16
400.47	1909.88
400.67	2062.01
400.86	2045.63
401.05	2087.76
401.24	2094.78
401.44	2099.46
401.63	2019.88
401.82	2190.74
402.01	2270.32
402.21	2246.91
402.40	2183.72
402.59	2143.93
402.78	2242.23
402.97	2225.85
403.17	2312.45
403.36	2321.81
403.55	2291.38
403.74	2300.75
403.93	2338.20
404.13	2424.80
404.32	2356.92
404.51	2445.86
404.70	2373.30
404.89	2338.20
405.09	2448.20
405.28	2590.97
405.47	2457.56
405.66	2473.95
405.85	2520.76
406.05	2593.31
406.24	2572.25
406.43	2658.85
406.62	2621.40
406.81	2745.45
407.00	2600.34
407.20	2612.04
407.39	2558.21
407.58	2719.70
407.77	2818.00
407.96	2719.70
408.15	2778.22
408.34	2719.70
408.54	2803.96
408.73	2874.18
408.92	2829.71
409.11	2918.65
409.30	2932.69
409.49	2862.48
409.68	2949.08
409.87	2981.84
410.07	3016.95
410.26	3038.02
410.45	2995.89
410.64	3122.27
410.83	3115.25
411.02	3080.14
411.21	3185.47
411.40	3075.46
411.59	3321.22
411.78	3206.53
411.98	3199.51
412.17	3368.03
412.36	3314.20
412.55	3555.27
412.74	3361.01
412.93	3454.63
413.12	3351.65
413.31	3510.80
413.50	3555.27
413.69	3419.52
413.88	3719.11
414.07	3435.91
414.26	3648.90
414.45	3574.00
414.64	3705.07
414.83	3838.48
415.02	3878.27
415.22	3742.52
415.41	3927.42
415.60	3880.61
415.79	3941.46
415.98	3887.63
416.17	4102.96
416.36	4018.70
416.55	4112.32
416.74	4098.28
416.93	4009.34
417.12	4131.05
417.31	4241.05
417.50	4266.80
417.69	4447.02
417.88	4362.76
418.07	4287.86
418.26	4393.19
418.45	4355.74
418.64	4421.27
418.83	4411.91
419.02	4601.49
419.21	4517.23
419.39	4514.89
419.58	4564.04
419.77	4465.74
419.96	4484.47
420.15	4695.11
420.34	4594.47
420.53	4713.84
420.72	4755.97
420.91	4760.65
421.10	4748.95
421.29	4968.96
421.48	4835.55
421.67	4821.50
421.86	4762.99
422.05	5011.09
422.24	4690.43
422.43	4826.18
422.61	4828.53
422.80	5100.03
422.99	4961.94
423.18	4868.31
423.37	4978.32
423.56	4959.60
423.75	5130.45
423.94	4751.29
424.13	4564.04
424.32	4770.01
424.50	4987.68
424.69	5221.74
424.88	5100.03
425.07	4837.89
425.26	4753.63
425.45	5116.41
425.64	4968.96
425.83	5018.11
426.01	5062.58
426.20	5210.03
426.39	4940.87
426.58	4961.94
426.77	5170.24
426.96	5336.42
427.15	5149.18
427.33	5301.31
427.52	5203.01
427.71	5355.15
427.90	5446.43
428.09	5301.31
428.28	5378.55
428.46	5408.98
428.65	5242.80
428.84	5584.52
429.03	5654.73
429.22	5399.62
429.40	5575.16
429.59	5591.54
429.78	5308.34
429.97	5406.64
430.16	5584.52
430.34	5643.03
430.53	5731.97
430.72	5699.20
430.91	5537.71
431.10	5465.15
431.28	5708.57
431.47	5930.92
431.66	5872.40
431.85	5891.13
432.03	6010.50
432.22	6057.31
432.41	6054.97
432.60	5933.26
432.79	6050.28
432.97	6146.25
433.16	6150.93
433.35	6052.63
433.54	6167.31
433.72	6019.86
433.91	6097.10
434.10	6230.51
434.28	6026.88
434.47	6181.35
434.66	6143.91
434.85	6352.21
435.03	6345.19
435.22	6338.17
435.41	6567.54
435.59	6518.39
435.78	6480.94
435.97	6569.88
436.16	6633.08
436.34	6593.29
436.53	6518.39
436.72	6604.99
436.90	6555.84
437.09	6670.53
437.28	6441.15
437.46	6609.67
437.65	6682.23
437.84	6771.17
438.02	6810.96
438.21	6787.55
438.40	6820.32
438.58	7063.74
438.77	7187.79
438.96	7136.29
439.14	7234.60
439.33	7145.66
439.52	7239.28
439.70	7375.03
439.89	7463.97
440.08	7316.51
440.26	7332.90
440.45	7346.94
440.63	7541.21
440.82	7576.31
441.01	7510.78
441.19	7637.17
441.38	7700.36
441.57	7672.28
441.75	7756.54
441.94	7971.86
442.12	8191.88
442.31	7978.89
442.50	8086.55
442.68	8154.43
442.87	8084.21
443.05	8140.38
443.24	8252.73
443.43	8168.47
443.61	8280.82
443.80	8762.97
443.98	8105.28
444.17	7765.90
444.35	8238.69
444.54	8231.66
444.73	8276.13
444.91	8332.31
445.10	8439.97
445.28	8512.53
445.47	8439.97
445.65	8243.37
445.84	8500.83
446.02	8674.03
446.21	8493.80
446.39	8451.67
446.58	8512.53
446.77	8559.34
446.95	8496.14
447.14	8596.79
447.32	8655.30
447.51	8641.26
447.69	8547.64
447.88	8603.81
448.06	8638.92
448.25	8603.81
448.43	8669.34
448.62	8503.17
448.80	8603.81
448.99	8702.11
449.17	8748.92
449.36	8627.21
449.54	8985.32
449.73	9212.35
449.91	9172.56
450.10	8777.01
450.28	9186.60
450.46	9067.24
450.65	9114.05
450.83	9263.84
451.02	9193.62
451.20	9287.25
451.39	9238.09
451.57	9423.00
451.76	9128.09
451.94	9231.07
452.13	9373.85
452.31	9317.67
452.49	9233.41
452.68	9418.32
452.86	9430.02
453.05	9745.99
453.23	9509.60
453.42	9217.03
453.60	9350.44
453.78	9628.96
453.97	9408.95
454.15	9682.80
454.34	9598.54
454.52	9893.44
454.70	9626.62
454.89	9839.61
455.07	9956.64
455.26	9856.00
455.44	10071.33
455.62	9942.60
455.81	9895.78
455.99	9968.34
456.17	10193.03
456.36	10052.60
456.54	10113.45
456.73	10211.76
456.91	10579.22
457.09	10501.98
457.28	10677.52
457.46	10520.71
457.64	10586.24
457.83	10626.03
458.01	10413.04
458.19	10773.49
458.38	10626.03
458.56	10803.91
458.74	10778.17
458.93	10862.43
459.11	10808.59
459.29	10703.27
459.48	10946.69
459.66	10766.46
459.84	11101.16
460.03	11262.66
460.21	11002.86
460.39	11239.25
460.57	11253.30
460.76	11276.70
460.94	11470.97
461.12	11152.65
461.31	11372.66
461.49	11335.21
461.67	11185.42
461.85	11609.06
462.04	11307.13
462.22	11824.39
462.40	11573.95
462.59	11573.95
462.77	11480.33
462.95	11789.28
463.13	11723.74
463.32	11936.73
463.50	11999.93
463.68	11784.60
463.86	12023.33
464.05	11866.52
464.23	11791.62
464.41	12095.89
464.59	11735.45
464.78	12248.02
464.96	12011.63
465.14	12131.00
465.32	12297.17
465.50	12280.79
465.69	12266.75
465.87	12400.16
466.05	12442.29
466.23	12383.77
466.41	12339.30
466.60	12582.72
466.78	12374.41
466.96	12327.60
467.14	12262.07
467.32	12360.37
467.51	12580.38
467.69	12369.73
467.87	12617.83
468.05	12798.05
468.23	12732.51
468.41	12507.82
468.60	12655.28
468.78	13008.70
468.96	12755.92
469.14	12901.03
469.32	13266.16
469.50	12730.17
469.69	13118.70
469.87	13167.85
470.05	13158.49
470.23	13334.03
470.41	13322.33
470.59	13408.93
470.77	13109.34
470.95	13502.55
471.14	13397.23
471.32	13366.80
471.50	13680.43
471.68	13902.78
471.86	13504.89
472.04	13895.76
472.22	14146.20
472.40	13675.75
472.58	13799.80
472.77	14108.75
472.95	14129.81
473.13	14389.61
473.31	13980.02
473.49	14328.76
473.67	14160.24
473.85	14204.71
474.03	14787.50
474.21	14476.21
474.39	15119.86
474.57	14525.36
474.75	15068.37
474.93	15274.34
475.12	15073.05
475.30	15400.72
475.48	15115.18
475.66	15367.96
475.84	15396.04
476.02	15442.85
476.20	15288.38
476.38	15990.54
476.56	16236.30
476.74	15981.18
476.92	16402.47
477.10	15950.75
477.28	16121.61
477.46	16098.20
477.64	16505.46
477.82	16664.61
478.00	17242.73
478.18	17003.99
478.36	17191.23
478.54	17338.69
478.72	17341.03
478.90	17626.57
479.08	17682.75
479.26	18092.34
479.44	17958.93
479.62	18008.08
479.80	18553.43
479.98	18380.23
480.16	18684.50
480.34	18375.55
480.52	18602.58
480.70	18827.27
480.88	18506.62
481.06	19145.58
481.24	19070.68
481.41	19304.74
481.59	19323.46
481.77	19761.14
481.95	19690.93
482.13	19873.49
482.31	19955.41
482.49	20449.26
482.67	20613.10
482.85	20755.87
483.03	20669.27
483.21	20938.43
483.39	21305.90
483.57	21067.16
483.74	21364.41
483.92	21649.96
484.10	21432.29
484.28	22115.72
484.46	22244.45
484.64	22462.12
484.82	21893.37
485.00	22574.47
485.18	23049.60
485.35	23145.56
485.53	22944.27
485.71	23391.31
485.89	23693.24
486.07	23522.38
486.25	23559.83
486.43	23667.50
486.61	24112.20
486.78	24222.20
486.96	24294.76
487.14	24793.29
487.32	24900.96
487.50	24886.92
487.68	25057.78
487.85	25610.14
488.03	25984.63
488.21	25944.84
488.39	26040.80
488.57	26005.69
488.75	26232.72
488.92	26691.47
489.10	27019.14
489.28	27171.28
489.46	27316.39
489.64	27688.54
489.81	28243.24
489.99	27744.71
490.17	27913.23
490.35	28577.94
490.53	28180.05
490.70	28507.72
490.88	28751.14
491.06	28924.34
491.24	29223.93
491.41	29921.41
491.59	29331.59
491.77	29696.72
491.95	29670.97
492.13	29961.20
492.30	30422.28
492.48	30419.94
492.66	30354.41
492.84	30424.62
493.01	30536.97
493.19	31084.65
493.37	31232.11
493.54	31454.46
493.72	31859.37
493.90	31737.66
494.08	32453.87
494.25	32051.30
494.43	32306.41
494.61	32713.67
494.79	32996.87
494.96	33111.56
495.14	33233.27
495.32	33457.96
495.49	33558.60
495.67	33582.01
495.85	33666.27
496.02	33909.68
496.20	34117.99
496.38	34494.82
496.55	34705.46
496.73	34888.03
496.91	34761.64
497.09	35178.25
497.26	35129.10
497.44	35356.13
497.62	35407.62
497.79	36376.61
497.97	35742.32
498.14	36128.51
498.32	36563.85
498.50	36402.35
498.67	37034.30
498.85	36730.03
499.03	36781.52
499.20	36987.49
499.38	37235.58
499.56	37184.09
499.73	37198.13
499.91	37832.42
500.08	38014.98
500.26	37542.19
500.44	38099.24
500.61	37977.53
500.79	38045.41
500.97	38190.52
501.14	38588.41
501.32	38677.35
501.49	38536.92
501.67	39433.35
501.84	39330.36
502.02	39260.15
502.20	39285.89
502.37	39686.12
502.55	39611.23
502.72	39978.69
502.90	40037.20
503.07	39901.45
503.25	40156.57
503.43	40275.94
503.60	40247.85
503.78	40844.69
503.95	40343.81
504.13	40769.79
504.30	41071.72
504.48	40605.95
504.65	40917.25
504.83	41177.04
505.01	41918.99
505.18	41668.56
505.36	42050.06
505.53	41565.57
505.71	42167.09
505.88	42010.28
506.06	41977.51
506.23	42256.03
506.41	42579.03
506.58	43040.11
506.76	42852.87
506.93	42597.75
507.11	42895.00
507.28	43002.66
507.46	42953.51
507.63	43082.24
507.81	43690.78
507.98	43585.46
508.16	43328.00
508.33	43604.18
508.50	43533.96
508.68	44289.96
508.85	44149.53
509.03	44341.45
509.20	44430.39
509.38	44889.13
509.55	44854.03
509.73	45120.85
509.90	44935.95
510.08	45085.74
510.25	45191.06
510.42	44769.77
510.60	45200.43
510.77	45310.43
510.95	45673.21
511.12	45406.39
511.30	45673.21
511.47	45579.59
511.64	46017.27
511.82	46148.34
511.99	45916.63
512.17	46422.19
512.34	46391.76
512.51	46431.55
512.69	46728.80
512.86	46550.91
513.04	46925.40
513.21	47093.92
513.38	46930.08
513.56	46934.76
513.73	47416.91
513.90	47428.62
514.08	47482.45
514.25	47632.24
514.43	47676.71
514.60	47756.29
514.77	47744.59
514.95	47980.98
515.12	47679.05
515.29	48212.70
515.47	48643.35
515.64	48535.69
515.81	48294.61
515.99	48729.95
516.16	48952.30
516.33	48596.54
516.51	49015.50
516.68	48641.01
516.85	49029.54
517.03	49385.30
517.20	49378.28
517.37	48736.98
517.54	49177.00
517.72	49530.42
517.89	49055.29
518.06	49434.45
518.24	49427.43
518.41	49478.92
518.58	49839.37
518.75	49464.88
518.93	49972.78
519.10	49696.59
519.27	50010.23
519.45	49961.08
519.62	50621.11
519.79	50153.00
519.96	50234.92
520.14	50286.41
520.31	50508.76
520.48	50569.61
520.65	50621.11
520.83	50932.40
521.00	51065.81
521.17	51112.62
521.34	51255.39
521.52	51028.36
521.69	51395.82
521.86	51365.40
522.03	51597.11
522.20	51470.72
522.38	51744.56
522.55	51622.86
522.72	51459.02
522.89	51744.56
523.07	51700.09
523.24	51683.71
523.41	51805.42
523.58	52034.79
523.75	52456.09
523.92	52219.69
524.10	52306.29
524.27	52430.34
524.44	52582.48
524.61	52273.52
524.78	52442.04
524.96	52575.45
525.13	52603.54
525.30	52858.66
525.47	52758.02
525.64	52615.24
525.81	52655.03
525.98	53350.17
526.16	52889.09
526.33	52971.00
526.50	53202.72
526.67	53303.36
526.84	52996.75
527.01	53151.23
527.18	53088.03
527.36	53338.47
527.53	53275.27
527.70	53652.10
527.87	53588.91
528.04	53712.95
528.21	53656.78
528.38	53771.47
528.55	53588.91
528.72	53600.61
528.89	53556.14
529.07	53769.13
529.24	53869.77
529.41	54028.93
529.58	53937.65
529.75	53867.43
529.92	53776.15
530.09	54218.51
530.26	54447.88
530.43	54337.88
530.60	54115.53
530.77	54157.66
530.94	54335.54
531.11	54110.85
531.28	54443.20
531.46	54607.04
531.63	54969.82
531.80	54614.06
531.97	54768.54
532.14	54707.68
532.31	54841.09
532.48	54932.37
532.65	55040.04
532.82	54864.50
532.99	54925.35
533.16	54904.29
533.33	55309.20
533.50	55089.19
533.67	55159.41
533.84	55140.68
534.01	55011.95
534.18	55119.62
534.35	55774.97
534.52	55374.73
534.69	55463.67
534.86	55611.13
535.03	55477.72
535.20	55461.33
535.37	55641.56
535.54	55639.22
535.71	55323.24
535.88	55749.22
536.05	55973.91
536.22	55894.33
536.38	55831.14
536.55	55875.61
536.72	55990.30
536.89	55814.76
537.06	55941.14
537.23	55983.27
537.40	55952.85
537.57	56067.53
537.74	56151.79
537.91	56310.95
538.08	56142.43
538.25	55845.18
538.42	56315.63
538.59	56315.63
538.75	56339.04
538.92	56179.88
539.09	56615.22
539.26	56369.46
539.43	56432.66
539.60	56446.70
539.77	56545.00
539.94	56683.09
540.11	56523.94
540.28	56750.97
540.44	56676.07
540.61	56430.32
540.78	56533.30
540.95	56666.71
541.12	56692.46
541.29	56713.52
541.46	56725.22
541.62	56797.78
541.79	56828.21
541.96	56736.93
542.13	56982.68
542.30	57008.43
542.47	57214.40
542.63	57031.83
542.80	57209.71
542.97	57279.93
543.14	57403.98
543.31	57308.02
543.48	57352.49
543.64	57598.24
543.81	57542.07
543.98	57469.51
544.15	57612.29
544.32	57813.57
544.48	57925.92
544.65	57549.09
544.82	57827.62
544.99	57663.78
545.16	57708.25
545.32	57776.12
545.49	57975.07
545.66	57949.32
545.83	57996.13
546.00	57925.92
546.16	58152.95
546.33	57825.28
546.50	57719.95
546.67	57993.79
546.83	57722.29
547.00	57893.15
547.17	57946.98
547.34	57942.30
547.50	58080.39
547.67	58316.79
547.84	58213.80
548.00	58312.11
548.17	58433.81
548.34	58459.56
548.51	58251.25
548.67	58389.34
548.84	58511.05
549.01	58396.37
549.18	58468.92
549.34	58742.77
549.51	58506.37
549.68	58728.72
549.84	58459.56
550.01	58583.61
550.18	58457.22
550.34	58581.27
550.51	58581.27
550.68	58717.02
550.84	58492.33
551.01	58787.24
551.18	58901.92
551.34	58855.11
551.51	58700.64
551.68	58850.43
551.84	58803.62
552.01	58745.11
552.18	58791.92
552.34	58665.53
552.51	58979.16
552.68	58756.81
552.84	58796.60
553.01	59196.83
553.18	59114.91
553.34	58990.86
553.51	58955.75
553.67	58937.03
553.84	59224.92
554.01	59299.81
554.17	59353.65
554.34	59201.51
554.51	59348.96
554.67	59365.35
554.84	59110.23
555.00	59161.72
555.17	58944.05
555.33	59138.32
555.50	59100.87
555.67	59330.24
555.83	59224.92
556.00	59278.75
556.16	59664.94
556.33	59615.79
556.50	59524.50
556.66	59653.23
556.83	59288.11
556.99	59707.07
557.16	59686.00
557.32	59643.87
557.49	59915.37
557.65	59812.39
557.82	59402.80
557.98	59714.09
558.15	59590.04
558.32	59711.75
558.48	59393.43
558.65	59641.53
558.81	59545.57
558.98	59674.30
559.14	59819.41
559.31	59962.18
559.47	59882.61
559.64	59997.29
559.80	60037.08
559.97	59866.22
560.13	59906.01
560.30	60027.72
560.46	59934.10
560.63	59882.61
560.79	59966.87
560.96	60100.28
561.12	60034.74
561.29	60053.47
561.45	59915.37
561.61	60123.68
561.78	59798.35
561.94	60076.87
562.11	60039.42
562.27	60097.94
562.44	60233.69
562.60	60252.41
562.77	60369.44
562.93	60001.97
563.10	60219.64
563.26	60079.21
563.42	60395.18
563.59	60119.00
563.75	60168.15
563.92	60252.41
564.08	60205.60
564.24	60233.69
564.41	60357.74
564.57	60292.20
564.74	60306.24
564.90	60388.16
565.07	60257.09
565.23	60460.72
565.39	60301.56
565.56	60533.28
565.72	60280.50
565.88	60453.70
566.05	60315.61
566.21	60327.31
566.38	60491.15
566.54	60432.63
566.70	60467.74
566.87	60713.50
567.03	60355.39
567.19	60678.39
567.36	60580.09
567.52	60444.33
567.68	60736.90
567.85	60589.45
568.01	60479.44
568.17	60430.29
568.34	60722.86
568.50	60589.45
568.66	60500.51
568.83	60374.12
568.99	60570.72
569.15	60603.49
569.32	60584.77
569.48	60636.26
569.64	60842.23
569.81	60692.43
569.97	60573.06
570.13	60659.66
570.30	60673.71
570.46	60706.47
570.62	60896.06
570.78	60779.03
570.95	60678.39
571.11	60882.02
571.27	60743.92
571.43	60743.92
571.60	60764.99
571.76	60882.02
571.92	60856.27
572.09	60832.86
572.25	60905.42
572.41	60772.01
572.57	60837.54
572.74	60994.36
572.90	60870.31
573.06	60800.10
573.22	60893.72
573.38	60743.92
573.55	60884.36
573.71	61031.81
573.87	60970.96
574.03	60795.42
574.20	60650.30
574.36	60786.05
574.52	60973.30
574.68	61043.51
574.84	61038.83
575.01	60832.86
575.17	60865.63
575.33	60924.14
575.49	60999.04
575.65	60903.08
575.82	60743.92
575.98	61008.40
576.14	60973.30
576.30	61029.47
576.46	60924.14
576.62	60963.93
576.79	60975.64
576.95	61013.08
577.11	60931.17
577.27	60975.64
577.43	60947.55
577.59	60994.36
577.75	60851.59
577.92	60755.63
578.08	60816.48
578.24	60851.59
578.40	61237.78
578.56	61240.12
578.72	61036.49
578.88	61141.81
579.04	61219.05
579.21	61071.60
579.37	61141.81
579.53	61270.54
579.69	61006.06
579.85	60947.55
580.01	61165.22
580.17	61092.66
580.33	61073.94
580.49	61298.63
580.65	60970.96
580.82	60945.21
580.98	60966.27
581.14	61050.53
581.30	61111.39
581.46	61036.49
581.62	61134.79
581.78	61200.33
581.94	61153.52
582.10	61104.37
582.26	61090.32
582.42	61214.37
582.58	60926.49
582.74	61144.16
582.90	61123.09
583.06	61167.56
583.22	60910.10
583.38	61354.80
583.54	61249.48
583.70	61474.17
583.86	61226.07
584.02	61181.60
584.18	61254.16
584.34	61076.28
584.50	61165.22
584.66	61106.71
584.82	61195.65
584.98	61275.22
585.14	61200.33
585.30	61195.65
585.46	61127.77
585.62	61315.01
585.78	61254.16
585.94	61076.28
586.10	61205.01
586.26	61132.45
586.42	61223.73
586.58	61350.12
586.74	61190.97
586.90	61244.80
587.06	61263.52
587.22	61357.14
587.38	61195.65
587.54	61427.36
587.70	61352.46
587.86	61247.14
588.02	61350.12
588.18	61539.71
588.34	61319.70
588.49	61448.42
