SpectraSuite Data File
++++++++++++++++++++++++++++++++++++
Date: Fri Oct 25 11:22:52 EDT 2013
User: price-jones
Dark Spectrum Present: No
Reference Spectrum Present: No
Number of Sampled Component Spectra: 1
Spectrometers: USB2+H05261
Integration Time (usec): 100000 (USB2+H05261)
Spectra Averaged: 1 (USB2+H05261)
Boxcar Smoothing: 0 (USB2+H05261)
Correct for Electrical Dark: No (USB2+H05261)
Strobe/Lamp Enabled: No (USB2+H05261)
Correct for Detector Non-linearity: No (USB2+H05261)
Correct for Stray Light: No (USB2+H05261)
Number of Pixels in Processed Spectrum: 2048
>>>>>Begin Processed Spectral Data<<<<<
365.73	257.46
365.92	257.46
366.12	257.46
366.32	77.24
366.52	170.86
366.72	147.45
366.91	107.66
367.11	124.05
367.31	138.09
367.51	105.32
367.70	121.71
367.90	159.16
368.10	187.24
368.30	135.75
368.49	147.45
368.69	156.82
368.89	140.43
369.09	124.05
369.28	149.79
369.48	182.56
369.68	159.16
369.87	294.91
370.07	271.50
370.27	210.65
370.47	325.33
370.66	638.97
370.86	594.50
371.06	662.37
371.25	631.94
371.45	589.82
371.65	667.05
371.84	702.16
372.04	660.03
372.24	653.01
372.44	676.41
372.63	760.67
372.83	770.04
373.03	755.99
373.22	727.91
373.42	755.99
373.62	751.31
373.81	777.06
374.01	849.61
374.21	753.65
374.40	746.63
374.60	821.53
374.79	802.80
374.99	889.40
375.19	833.23
375.38	812.17
375.58	788.76
375.78	819.19
375.97	861.32
376.17	910.47
376.37	891.74
376.56	866.00
376.76	774.72
376.95	854.30
377.15	926.85
377.35	894.08
377.54	868.34
377.74	922.17
377.93	851.96
378.13	1004.09
378.33	898.77
378.52	952.60
378.72	919.83
378.91	933.87
379.11	957.28
379.31	931.53
379.50	947.92
379.70	999.41
379.89	994.73
380.09	924.51
380.28	926.85
380.48	936.21
380.68	945.58
380.87	968.98
381.07	990.05
381.26	973.66
381.46	1001.75
381.65	1062.60
381.85	1086.01
382.04	1027.50
382.24	994.73
382.43	1034.52
382.63	1083.67
382.83	1086.01
383.02	997.07
383.22	1067.28
383.41	1048.56
383.61	1088.35
383.80	1116.44
384.00	1029.84
384.19	1240.48
384.39	1144.52
384.58	1097.71
384.78	1174.95
384.97	1240.48
385.17	1193.67
385.36	1142.18
385.56	1226.44
385.75	1196.01
385.95	1128.14
386.14	1207.72
386.34	1254.53
386.53	1144.52
386.72	1261.55
386.92	1245.16
387.11	1217.08
387.31	1294.32
387.50	1228.78
387.70	1273.25
387.89	1273.25
388.09	1277.93
388.28	1289.64
388.48	1247.51
388.67	1348.15
388.86	1425.39
389.06	1336.45
389.25	1284.95
389.45	1252.19
389.64	1350.49
389.84	1338.79
390.03	1331.76
390.22	1441.77
390.42	1378.58
390.61	1334.11
390.81	1352.83
391.00	1483.90
391.19	1458.15
391.39	1397.30
391.58	1425.39
391.78	1469.86
391.97	1474.54
392.16	1483.90
392.36	1530.71
392.55	1535.39
392.75	1504.96
392.94	1338.79
393.13	1547.09
393.33	1584.54
393.52	1584.54
393.71	1561.14
393.91	1570.50
394.10	1563.48
394.29	1572.84
394.49	1659.44
394.68	1614.97
394.88	1633.69
395.07	1708.59
395.26	1603.27
395.46	1692.21
395.65	1680.50
395.84	1764.76
396.04	1727.32
396.23	1706.25
396.42	1837.32
396.62	1806.89
396.81	1741.36
397.00	1790.51
397.19	1785.83
397.39	1804.55
397.58	1865.41
397.77	1755.40
397.97	1842.00
398.16	1781.15
398.35	1912.22
398.55	1916.90
398.74	1902.86
398.93	1975.41
399.12	1926.26
399.32	1881.79
399.51	1956.69
399.70	1870.09
399.90	1921.58
400.09	1865.41
400.28	2050.31
400.47	2003.50
400.67	2092.44
400.86	2040.95
401.05	2076.06
401.24	2134.57
401.44	2172.02
401.63	2211.81
401.82	2134.57
402.01	2129.89
402.21	2298.41
402.40	2228.19
402.59	2258.62
402.78	2193.08
402.97	2155.63
403.17	2263.30
403.36	2296.07
403.55	2228.19
403.74	2293.72
403.93	2438.84
404.13	2399.05
404.32	2464.58
404.51	2420.11
404.70	2331.17
404.89	2349.90
405.09	2438.84
405.28	2480.97
405.47	2476.29
405.66	2427.14
405.85	2464.58
406.05	2502.03
406.24	2644.81
406.43	2693.96
406.62	2612.04
406.81	2700.98
407.00	2576.93
407.20	2518.42
407.39	2684.59
407.58	2647.15
407.77	2799.28
407.96	2860.13
408.15	2733.75
408.34	2822.69
408.54	2698.64
408.73	2829.71
408.92	2850.77
409.11	2874.18
409.30	2867.16
409.49	3021.63
409.68	2988.86
409.87	2958.44
410.07	3105.89
410.26	3159.72
410.45	3040.36
410.64	3098.87
410.83	3117.59
411.02	3180.79
411.21	3295.47
411.40	3133.98
411.59	3302.50
411.78	3176.11
411.98	3103.55
412.17	3351.65
412.36	3344.63
412.55	3496.76
412.74	3384.41
412.93	3417.18
413.12	3337.60
413.31	3569.32
413.50	3531.87
413.69	3562.30
413.88	3669.96
414.07	3646.55
414.26	3639.53
414.45	3667.62
414.64	3658.26
414.83	3684.00
415.02	3765.92
415.22	3754.22
415.41	3840.82
415.60	3857.20
415.79	3922.74
415.98	4004.66
416.17	3784.65
416.36	3946.14
416.55	3992.95
416.74	4095.94
416.93	3992.95
417.12	4236.37
417.31	4187.22
417.50	4210.62
417.69	4449.36
417.88	4329.99
418.07	4219.99
418.26	4306.59
418.45	4301.90
418.64	4484.47
418.83	4428.29
419.02	4451.70
419.21	4599.15
419.39	4451.70
419.58	4575.75
419.77	4479.79
419.96	4542.98
420.15	4638.94
420.34	4674.05
420.53	4615.54
420.72	4711.50
420.91	4805.12
421.10	4875.34
421.29	4730.22
421.48	4854.27
421.67	4685.75
421.86	4664.69
422.05	4856.61
422.24	4784.06
422.43	4746.61
422.61	4975.98
422.80	5144.50
422.99	5043.85
423.18	4980.66
423.37	4985.34
423.56	4837.89
423.75	4940.87
423.94	4947.89
424.13	4664.69
424.32	4650.64
424.50	5013.43
424.69	5273.23
424.88	5142.16
425.07	5057.90
425.26	4861.29
425.45	4936.19
425.64	4971.30
425.83	5069.60
426.01	5088.32
426.20	5158.54
426.39	5034.49
426.58	5172.58
426.77	4929.17
426.96	5214.71
427.15	5151.52
427.33	5247.48
427.52	4978.32
427.71	5406.64
427.90	5259.18
428.09	5287.27
428.28	5331.74
428.46	5411.32
428.65	5352.81
428.84	5441.75
429.03	5439.40
429.22	5301.31
429.40	5533.03
429.59	5523.66
429.78	5298.97
429.97	5317.70
430.16	5521.32
430.34	5607.92
430.53	5746.02
430.72	5563.45
430.91	5701.54
431.10	5628.99
431.28	5746.02
431.47	5902.83
431.66	6087.73
431.85	5809.21
432.03	5987.09
432.22	6003.47
432.41	5973.05
432.60	5888.79
432.79	5949.64
432.97	6001.13
433.16	6118.16
433.35	6045.60
433.54	6221.14
433.72	6090.07
433.91	6104.12
434.10	6265.61
434.28	6097.10
434.47	6284.34
434.66	6244.55
434.85	6162.63
435.03	6356.90
435.22	6239.87
435.41	6441.15
435.59	6279.66
435.78	6406.05
435.97	6494.99
436.16	6373.28
436.34	6438.81
436.53	6555.84
436.72	6836.70
436.90	6602.65
437.09	6628.40
437.28	6478.60
437.46	6623.72
437.65	6684.57
437.84	6825.00
438.02	6867.13
438.21	6916.28
438.40	6867.13
438.58	6977.14
438.77	7094.16
438.96	7016.93
439.14	7232.26
439.33	7314.17
439.52	7417.16
439.70	7213.53
439.89	7492.05
440.08	7487.37
440.26	7417.16
440.45	7393.75
440.63	7566.95
440.82	7669.94
441.01	7442.90
441.19	7686.32
441.38	7756.54
441.57	7758.88
441.75	7932.08
441.94	7915.69
442.12	7854.84
442.31	8149.75
442.50	8423.59
442.68	8081.87
442.87	8042.08
443.05	8217.62
443.24	8400.18
443.43	8210.60
443.61	8198.90
443.80	8585.08
443.98	8011.65
444.17	8105.28
444.35	8379.12
444.54	8339.33
444.73	8414.23
444.91	8189.53
445.10	8395.50
445.28	8421.25
445.47	8360.39
445.65	8290.18
445.84	8571.04
446.02	8491.46
446.21	8552.32
446.39	8533.59
446.58	8575.72
446.77	8568.70
446.95	8500.83
447.14	8507.85
447.32	8613.17
447.51	8463.38
447.69	8486.78
447.88	8578.06
448.06	8596.79
448.25	8496.14
448.43	8528.91
448.62	8758.28
448.80	8737.22
448.99	8917.44
449.17	9050.85
449.36	8606.15
449.54	8879.99
449.73	8823.82
449.91	9071.92
450.10	9186.60
450.28	9025.11
450.46	9200.65
450.65	9221.71
450.83	9200.65
451.02	9158.52
451.20	9247.46
451.39	9135.11
451.57	9310.65
451.76	9139.79
451.94	9366.82
452.13	9406.61
452.31	9322.35
452.49	9394.91
452.68	9254.48
452.86	9310.65
453.05	9509.60
453.23	9458.10
453.42	9282.56
453.60	9432.36
453.78	9603.22
453.97	9472.15
454.15	9706.20
454.34	9675.77
454.52	9811.53
454.70	9635.99
454.89	9764.72
455.07	9994.09
455.26	9848.97
455.44	10104.09
455.62	9984.73
455.81	10164.95
455.99	10209.42
456.17	10274.95
456.36	10127.50
456.54	10038.56
456.73	10265.59
456.91	10729.02
457.09	10387.30
457.28	10597.95
457.46	10377.94
457.64	10532.41
457.83	10431.77
458.01	10417.72
458.19	10857.75
458.38	10345.17
458.56	10951.37
458.74	10824.98
458.93	10572.20
459.11	10590.92
459.29	11005.20
459.48	10824.98
459.66	10750.08
459.84	11176.06
460.03	11103.50
460.21	10904.56
460.39	11063.71
460.57	11052.01
460.76	11215.85
460.94	11194.78
461.12	11272.02
461.31	11143.29
461.49	11178.40
461.67	11232.23
461.85	11477.99
462.04	11185.42
462.22	11707.36
462.40	11875.88
462.59	11686.29
462.77	11475.65
462.95	11833.75
463.13	11920.35
463.32	11761.19
463.50	11800.98
463.68	11730.76
463.86	11941.41
464.05	11929.71
464.23	11681.61
464.41	12037.38
464.59	11852.47
464.78	12159.08
464.96	11936.73
465.14	12065.46
465.32	12067.80
465.50	12189.51
465.69	12325.26
465.87	12219.94
466.05	12114.61
466.23	12362.71
466.41	12379.09
466.60	12669.32
466.78	12421.22
466.96	12404.84
467.14	12306.54
467.32	12503.14
467.51	12549.95
467.69	12177.81
467.87	12659.96
468.05	12601.44
468.23	12528.89
468.41	12533.57
468.60	12547.61
468.78	12774.64
468.96	12458.67
469.14	12980.61
469.32	13142.11
469.50	12671.66
469.69	13233.39
469.87	13144.45
470.05	13074.23
470.23	13165.51
470.41	13315.31
470.59	13270.84
470.77	13418.29
470.95	13465.10
471.14	13434.68
471.32	13149.13
471.50	13568.09
471.68	13542.34
471.86	13797.46
472.04	13851.29
472.22	14188.33
472.40	13806.82
472.58	14031.51
472.77	14106.41
472.95	14263.22
473.13	14532.39
473.31	14008.11
473.49	14214.07
473.67	14396.64
473.85	14560.47
474.03	14466.85
474.21	14782.82
474.39	14712.61
474.57	14787.50
474.75	14728.99
474.93	15288.38
475.12	15110.50
475.30	15274.34
475.48	14895.17
475.66	15496.69
475.84	15152.63
476.02	15501.37
476.20	15550.52
476.38	15786.91
476.56	16168.42
476.74	16095.86
476.92	15925.00
477.10	15871.17
477.28	16318.22
477.46	16528.86
477.64	16341.62
477.82	16657.59
478.00	17003.99
478.18	16917.39
478.36	17144.42
478.54	17275.49
478.72	17406.56
478.90	17413.59
479.08	17537.63
479.26	17877.01
479.44	17736.58
479.62	18099.36
479.80	18104.04
479.98	18221.07
480.16	18455.12
480.34	18490.23
480.52	18672.79
480.70	18691.52
480.88	18677.48
481.06	18897.49
481.24	18855.36
481.41	19274.31
481.59	19381.98
481.77	19555.18
481.95	19695.61
482.13	19985.83
482.31	19800.93
482.49	20477.35
482.67	20472.67
482.85	20580.33
483.03	20793.32
483.21	20975.88
483.39	21425.26
483.57	20849.49
483.74	21195.89
483.92	21553.99
484.10	21132.70
484.28	21757.62
484.46	22085.30
484.64	22434.03
484.82	21926.14
485.00	22389.56
485.18	22757.03
485.35	23089.38
485.53	23367.91
485.71	23173.64
485.89	23730.69
486.07	23555.15
486.25	23559.83
486.43	23709.63
486.61	23866.44
486.78	24210.50
486.96	24437.53
487.14	24954.79
487.32	24299.44
487.50	25083.52
487.68	25153.74
487.85	25497.80
488.03	25853.56
488.21	26012.71
488.39	26103.99
488.57	26122.72
488.75	26380.18
488.92	26834.24
489.10	26895.10
489.28	26787.43
489.46	27124.47
489.64	27501.29
489.81	27955.36
489.99	27798.54
490.17	27927.27
490.35	28114.52
490.53	28591.98
490.70	28416.44
490.88	28341.55
491.06	29233.29
491.24	28783.91
491.41	28945.41
491.59	29486.07
491.77	29670.97
491.95	30183.55
492.13	29851.19
492.30	30426.96
492.48	30328.66
492.66	30663.36
492.84	30300.58
493.01	31030.82
493.19	30611.87
493.37	30962.95
493.54	31681.49
493.72	31644.04
493.90	31690.85
494.08	31906.18
494.25	32760.48
494.43	32177.68
494.61	32383.65
494.79	32844.74
494.96	32615.37
495.14	33240.29
495.32	33223.90
495.49	33233.27
495.67	33769.25
495.85	33483.70
496.02	34190.55
496.20	34246.72
496.38	34340.34
496.55	34574.39
496.73	35019.10
496.91	35023.78
497.09	35159.53
497.26	35178.25
497.44	35351.45
497.62	35871.05
497.79	35866.37
497.97	35634.66
498.14	36278.30
498.32	36280.64
498.50	36666.83
498.67	36917.27
498.85	36669.17
499.03	37010.89
499.20	37158.34
499.38	37071.75
499.56	37296.44
499.73	37736.46
499.91	37993.92
500.08	37778.59
500.26	37776.25
500.44	38234.99
500.61	38433.94
500.79	38316.91
500.97	38176.48
501.14	38546.28
501.32	38506.49
501.49	38995.67
501.67	38990.98
501.84	39248.44
502.02	39173.55
502.20	39442.71
502.37	39402.92
502.55	39306.96
502.72	40023.16
502.90	39625.27
503.07	39849.96
503.25	40414.03
503.43	40086.36
503.60	40435.10
503.78	40779.15
503.95	40395.31
504.13	40467.86
504.30	40886.82
504.48	40840.01
504.65	40884.48
504.83	41181.73
505.01	41450.89
505.18	41425.14
505.36	42127.30
505.53	41308.11
505.71	41853.46
505.88	42354.33
506.06	42326.25
506.23	41876.86
506.41	41731.75
506.58	42440.93
506.76	42513.49
506.93	42815.42
507.11	42176.45
507.28	43016.71
507.46	42925.42
507.63	42995.64
507.81	43817.17
507.98	43154.80
508.16	43133.73
508.33	43817.17
508.50	44095.69
508.68	43812.49
508.85	44395.28
509.03	43615.88
509.20	44254.85
509.38	44339.11
509.55	44533.37
509.73	44622.31
509.90	44762.75
510.08	44601.25
510.25	44996.80
510.42	44926.58
510.60	45237.87
510.77	45387.67
510.95	45801.94
511.12	45170.00
511.30	45385.33
511.47	45815.99
511.64	45869.82
511.82	46277.07
511.99	46038.34
512.17	46038.34
512.34	46019.61
512.51	46328.56
512.69	46649.22
512.86	47061.15
513.04	47061.15
513.21	46831.78
513.38	46747.52
513.56	47182.86
513.73	47082.22
513.90	47262.44
514.08	47058.81
514.25	47580.75
514.43	47625.22
514.60	48044.18
514.77	47805.44
514.95	48179.93
515.12	47803.10
515.29	48041.84
515.47	48025.45
515.64	48725.27
515.81	48336.74
515.99	48196.31
516.16	48767.40
516.33	49219.13
516.51	48921.88
516.68	48811.87
516.85	48758.04
517.03	49212.10
517.20	49247.21
517.37	49034.22
517.54	48882.09
517.72	49418.07
517.89	49031.88
518.06	49464.88
518.24	49677.87
518.41	49532.76
518.58	49715.32
518.75	49474.24
518.93	49724.68
519.10	49766.81
519.27	49684.89
519.45	49900.22
519.62	50199.81
519.79	50464.29
519.96	50206.83
520.14	50433.86
520.31	50501.74
520.48	50672.60
520.65	50628.13
520.83	50979.21
521.00	50873.88
521.17	50688.98
521.34	51047.08
521.52	51019.00
521.69	51100.92
521.86	51154.75
522.03	51545.62
522.20	51814.78
522.38	51576.04
522.55	51571.36
522.72	51711.80
522.89	51597.11
523.07	51915.42
523.24	51931.81
523.41	51770.31
523.58	51672.01
523.75	52083.94
523.92	52435.02
524.10	52198.63
524.27	52004.36
524.44	52215.01
524.61	52416.30
524.78	52589.50
524.96	52151.82
525.13	52547.37
525.30	52758.02
525.47	52851.64
525.64	52870.36
525.81	52935.90
525.98	52933.56
526.16	52828.23
526.33	52893.77
526.50	53315.06
526.67	52989.73
526.84	53073.99
527.01	53062.29
527.18	52952.28
527.36	53198.04
527.53	53272.93
527.70	53642.74
527.87	53382.94
528.04	53460.18
528.21	53729.34
528.38	53551.46
528.55	53939.99
528.72	53570.18
528.89	53546.78
529.07	53535.07
529.24	53640.40
529.41	54085.10
529.58	53783.17
529.75	53778.49
529.92	54117.87
530.09	53975.09
530.26	54136.59
530.43	54555.55
530.60	54028.93
530.77	54000.84
530.94	54141.27
531.11	54513.42
531.28	54265.32
531.46	54307.45
531.63	54459.58
531.80	54457.24
531.97	54543.84
532.14	54777.90
532.31	54913.65
532.48	55100.89
532.65	54820.03
532.82	54667.89
532.99	54981.52
533.16	54773.22
533.33	55112.59
533.50	55138.34
533.67	54967.48
533.84	55049.40
534.01	55255.37
534.18	55173.45
534.35	55337.29
534.52	55168.77
534.69	55442.61
534.86	55400.48
535.03	55203.88
535.20	55426.23
535.37	55407.50
535.54	55636.87
535.71	55189.83
535.88	55370.05
536.05	55669.64
536.22	55744.54
536.38	55735.18
536.55	55908.38
536.72	55716.45
536.89	55922.42
537.06	55838.16
537.23	56013.70
537.40	55618.15
537.57	56002.00
537.74	55934.12
537.91	56240.73
538.08	56301.59
538.25	55840.50
538.42	55938.80
538.59	56348.40
538.75	56287.54
538.92	56430.32
539.09	56500.53
539.26	56486.49
539.43	56214.99
539.60	56547.34
539.77	56406.91
539.94	56973.32
540.11	56388.19
540.28	56633.94
540.44	56563.73
540.61	56584.79
540.78	56612.88
540.95	56748.63
541.12	56406.91
541.29	56605.86
541.46	56811.82
541.62	56727.56
541.79	57001.41
541.96	56694.80
542.13	56779.06
542.30	56940.55
542.47	57076.30
542.63	56917.15
542.80	57097.37
542.97	57389.94
543.14	57148.86
543.31	57333.76
543.48	57418.02
543.64	57478.88
543.81	57476.54
543.98	57434.41
544.15	57481.22
544.32	57499.94
544.48	57820.59
544.65	57387.60
544.82	57567.82
544.99	57343.12
545.16	57616.97
545.32	57762.08
545.49	57851.02
545.66	57902.51
545.83	57750.38
546.00	58017.20
546.16	57642.71
546.33	57822.93
546.50	57591.22
546.67	57886.13
546.83	57523.35
547.00	58005.50
547.17	58124.86
547.34	57972.73
547.50	58199.76
547.67	58361.26
547.84	58234.87
548.00	58384.66
548.17	58487.65
548.34	58197.42
548.51	58408.07
548.67	58323.81
548.84	58389.34
549.01	58356.58
549.18	58302.74
549.34	58489.99
549.51	58436.16
549.68	58628.08
549.84	58667.87
550.01	58461.90
550.18	58485.31
550.34	58468.92
550.51	58794.26
550.68	58583.61
550.84	58541.48
551.01	58815.32
551.18	58857.45
551.34	58649.14
551.51	58583.61
551.68	58836.39
551.84	58777.87
552.01	58567.23
552.18	58885.54
552.34	58981.50
552.51	59030.65
552.68	58646.80
552.84	58857.45
553.01	59009.59
553.18	58986.18
553.34	59217.89
553.51	59030.65
553.67	59051.72
553.84	58993.20
554.01	59161.72
554.17	59182.79
554.34	59302.15
554.51	59182.79
554.67	59103.21
554.84	59182.79
555.00	59121.93
555.17	59154.70
555.33	59262.36
555.50	59131.29
555.67	59168.74
555.83	59011.93
556.00	59196.83
556.16	59487.06
556.33	59573.66
556.50	59402.80
556.66	59711.75
556.83	59171.08
556.99	59557.27
557.16	59728.13
557.32	59704.73
557.49	59980.91
557.65	59437.90
557.82	59550.25
557.98	59580.68
558.15	59442.59
558.32	59702.38
558.48	59395.77
558.65	59718.77
558.81	59742.17
558.98	59678.98
559.14	59704.73
559.31	59704.73
559.47	59831.11
559.64	59945.80
559.80	59767.92
559.97	60095.60
560.13	59620.47
560.30	59800.69
560.46	59910.69
560.63	59831.11
560.79	59957.50
560.96	60114.32
561.12	60121.34
561.29	59966.87
561.45	60048.78
561.61	59959.84
561.78	59929.42
561.94	59936.44
562.11	60034.74
562.27	60191.56
562.44	60243.05
562.60	60217.30
562.77	60154.11
562.93	60001.97
563.10	60104.96
563.26	59943.46
563.42	60317.95
563.59	60055.81
563.75	60083.89
563.92	60271.14
564.08	60186.88
564.24	60622.22
564.41	60339.01
564.57	60219.64
564.74	60329.65
564.90	60451.36
565.07	60493.49
565.23	60303.90
565.39	60397.52
565.56	60498.17
565.72	60505.19
565.88	60523.91
566.05	60395.18
566.21	60322.63
566.38	60334.33
566.54	60427.95
566.70	60507.53
566.87	60610.51
567.03	60371.78
567.19	60463.06
567.36	60453.70
567.52	60552.00
567.68	60608.17
567.85	60350.71
568.01	60453.70
568.17	60636.26
568.34	60638.60
568.50	60512.21
568.66	60556.68
568.83	60554.34
568.99	60486.46
569.15	60472.42
569.32	60615.19
569.48	60502.85
569.64	60605.83
569.81	60673.71
569.97	60486.46
570.13	60519.23
570.30	60512.21
570.46	60615.19
570.62	60708.82
570.78	60671.37
570.95	60776.69
571.11	60825.84
571.27	60891.38
571.43	60664.35
571.60	60996.70
571.76	60797.76
571.92	60818.82
572.09	60729.88
572.25	60612.85
572.41	60776.69
572.57	60816.48
572.74	60952.23
572.90	60818.82
573.06	60846.91
573.22	60750.94
573.38	60629.24
573.55	60776.69
573.71	60832.86
573.87	60741.58
574.03	60626.90
574.20	60956.91
574.36	60722.86
574.52	61080.96
574.68	60963.93
574.84	60989.68
575.01	61003.72
575.17	61055.21
575.33	60664.35
575.49	60804.78
575.65	61013.08
575.82	61111.39
575.98	60917.12
576.14	61139.47
576.30	60999.04
576.46	60966.27
576.62	60842.23
576.79	60921.80
576.95	60823.50
577.11	61059.90
577.27	60945.21
577.43	60804.78
577.59	60889.04
577.75	60952.23
577.92	60750.94
578.08	61008.40
578.24	60982.66
578.40	60975.64
578.56	61090.32
578.72	61015.43
578.88	61237.78
579.04	61087.98
579.21	61109.05
579.37	61240.12
579.53	61141.81
579.69	61073.94
579.85	61013.08
580.01	60928.83
580.17	60828.18
580.33	61113.73
580.49	61137.13
580.65	60970.96
580.82	60912.44
580.98	60823.50
581.14	60985.00
581.30	61200.33
581.46	61174.58
581.62	61195.65
581.78	61312.67
581.94	61127.77
582.10	61003.72
582.26	60992.02
582.42	61085.64
582.58	61010.74
582.74	61003.72
582.90	60959.25
583.06	61118.41
583.22	60956.91
583.38	61256.50
583.54	61158.20
583.70	61102.03
583.86	61254.16
584.02	61141.81
584.18	61165.22
584.34	61258.84
584.50	61013.08
584.66	61158.20
584.82	60856.27
584.98	61312.67
585.14	61284.59
585.30	61181.60
585.46	61240.12
585.62	61359.48
585.78	61289.27
585.94	60921.80
586.10	61272.88
586.26	61104.37
586.42	61261.18
586.58	61254.16
586.74	61202.67
586.90	61284.59
587.06	61153.52
587.22	61214.37
587.38	61291.61
587.54	61422.68
587.70	61450.77
587.86	61291.61
588.02	61193.31
588.18	61240.12
588.34	61235.44
588.49	61345.44
