SpectraSuite Data File
++++++++++++++++++++++++++++++++++++
Date: Fri Oct 25 11:23:14 EDT 2013
User: price-jones
Dark Spectrum Present: No
Reference Spectrum Present: No
Number of Sampled Component Spectra: 1
Spectrometers: USB2+H05261
Integration Time (usec): 100000 (USB2+H05261)
Spectra Averaged: 1 (USB2+H05261)
Boxcar Smoothing: 0 (USB2+H05261)
Correct for Electrical Dark: No (USB2+H05261)
Strobe/Lamp Enabled: No (USB2+H05261)
Correct for Detector Non-linearity: No (USB2+H05261)
Correct for Stray Light: No (USB2+H05261)
Number of Pixels in Processed Spectrum: 2048
>>>>>Begin Processed Spectral Data<<<<<
365.73	255.12
365.92	255.12
366.12	255.12
366.32	210.65
366.52	152.13
366.72	189.58
366.91	110.01
367.11	117.03
367.31	110.01
367.51	187.24
367.70	102.98
367.90	138.09
368.10	102.98
368.30	168.52
368.49	133.41
368.69	229.37
368.89	67.88
369.09	128.73
369.28	110.01
369.48	110.01
369.68	187.24
369.87	170.86
370.07	126.39
370.27	236.39
370.47	308.95
370.66	641.31
370.86	566.41
371.06	629.60
371.25	690.46
371.45	594.50
371.65	657.69
371.84	720.88
372.04	718.54
372.24	725.57
372.44	772.38
372.63	720.88
372.83	667.05
373.03	732.59
373.22	751.31
373.42	741.95
373.62	819.19
373.81	767.70
374.01	809.83
374.21	833.23
374.40	870.68
374.60	819.19
374.79	746.63
374.99	777.06
375.19	793.44
375.38	875.36
375.58	933.87
375.78	915.15
375.97	866.00
376.17	901.11
376.37	884.72
376.56	910.47
376.76	966.64
376.95	861.32
377.15	877.70
377.35	891.74
377.54	910.47
377.74	898.77
377.93	926.85
378.13	912.81
378.33	966.64
378.52	1036.86
378.72	922.17
378.91	971.32
379.11	807.48
379.31	866.00
379.50	990.05
379.70	1027.50
379.89	1036.86
380.09	966.64
380.28	976.00
380.48	997.07
380.68	1013.45
380.87	999.41
381.07	1046.22
381.26	1135.16
381.46	1086.01
381.65	1034.52
381.85	999.41
382.04	1036.86
382.24	1086.01
382.43	1135.16
382.63	1078.99
382.83	1060.26
383.02	1100.05
383.22	1165.59
383.41	1013.45
383.61	1029.84
383.80	1109.41
384.00	1076.65
384.19	1060.26
384.39	1086.01
384.58	1121.12
384.78	1090.69
384.97	1102.39
385.17	1132.82
385.36	1151.54
385.56	1114.10
385.75	1170.27
385.95	1139.84
386.14	1275.59
386.34	1177.29
386.53	1167.93
386.72	1163.25
386.92	1226.44
387.11	1338.79
387.31	1259.21
387.50	1275.59
387.70	1324.74
387.89	1254.53
388.09	1228.78
388.28	1306.02
388.48	1256.87
388.67	1343.47
388.86	1313.04
389.06	1261.55
389.25	1369.21
389.45	1387.94
389.64	1289.64
389.84	1376.24
390.03	1500.28
390.22	1399.64
390.42	1411.34
390.61	1380.92
390.81	1385.60
391.00	1462.83
391.19	1413.68
391.39	1420.71
391.58	1497.94
391.78	1455.81
391.97	1514.33
392.16	1486.24
392.36	1586.88
392.55	1547.09
392.75	1610.29
392.94	1533.05
393.13	1577.52
393.33	1469.86
393.52	1523.69
393.71	1570.50
393.91	1596.25
394.10	1568.16
394.29	1586.88
394.49	1621.99
394.68	1696.89
394.88	1598.59
395.07	1673.48
395.26	1717.95
395.46	1643.06
395.65	1736.68
395.84	1746.04
396.04	1767.10
396.23	1689.87
396.42	1762.42
396.62	1783.49
396.81	1788.17
397.00	1734.34
397.19	1710.93
397.39	1874.77
397.58	1884.13
397.77	1778.81
397.97	1823.28
398.16	1867.75
398.35	1928.60
398.55	1898.17
398.74	1888.81
398.93	1954.35
399.12	1963.71
399.32	1867.75
399.51	1884.13
399.70	1923.92
399.90	1975.41
400.09	2036.27
400.28	2050.31
400.47	2012.86
400.67	2059.67
400.86	2111.16
401.05	1998.82
401.24	2062.01
401.44	2209.47
401.63	2190.74
401.82	2162.66
402.01	2148.61
402.21	2153.29
402.40	2244.57
402.59	2282.02
402.78	2263.30
402.97	2167.34
403.17	2291.38
403.36	2263.30
403.55	2333.51
403.74	2429.48
403.93	2487.99
404.13	2492.67
404.32	2445.86
404.51	2356.92
404.70	2377.98
404.89	2370.96
405.09	2464.58
405.28	2441.18
405.47	2518.42
405.66	2560.55
405.85	2523.10
406.05	2619.06
406.24	2452.88
406.43	2544.16
406.62	2644.81
406.81	2747.79
407.00	2574.59
407.20	2581.61
407.39	2605.02
407.58	2724.38
407.77	2729.06
407.96	2942.05
408.15	2729.06
408.34	2656.51
408.54	2796.94
408.73	2843.75
408.92	2892.90
409.11	2918.65
409.30	2785.24
409.49	2963.12
409.68	2958.44
409.87	3023.97
410.07	3091.85
410.26	3119.93
410.45	3080.14
410.64	3070.78
410.83	3070.78
411.02	3073.12
411.21	3215.90
411.40	3096.53
411.59	3164.40
411.78	3157.38
411.98	3229.94
412.17	3316.54
412.36	3318.88
412.55	3337.60
412.74	3400.80
412.93	3377.39
413.12	3403.14
413.31	3552.93
413.50	3412.50
413.69	3513.14
413.88	3648.90
414.07	3609.11
414.26	3733.15
414.45	3557.61
414.64	3772.94
414.83	3744.86
415.02	3786.99
415.22	3756.56
415.41	3913.38
415.60	3882.95
415.79	4044.45
415.98	3873.59
416.17	4133.39
416.36	3934.44
416.55	3950.82
416.74	4067.85
416.93	4229.35
417.12	4126.36
417.31	4121.68
417.50	4255.09
417.69	4346.37
417.88	4292.54
418.07	4402.55
418.26	4475.10
418.45	4404.89
418.64	4592.13
418.83	4334.67
419.02	4432.97
419.21	4519.57
419.39	4564.04
419.58	4624.90
419.77	4440.00
419.96	4636.60
420.15	4671.71
420.34	4741.93
420.53	4601.49
420.72	4746.61
420.91	4720.86
421.10	4844.91
421.29	4856.61
421.48	4636.60
421.67	4823.84
421.86	4826.18
422.05	4896.40
422.24	4849.59
422.43	4819.16
422.61	4863.63
422.80	5043.85
422.99	4999.38
423.18	4947.89
423.37	4997.04
423.56	4919.81
423.75	4912.78
423.94	4968.96
424.13	4585.11
424.32	4706.82
424.50	5135.14
424.69	5179.61
424.88	5093.01
425.07	4999.38
425.26	4924.49
425.45	5137.48
425.64	4945.55
425.83	4947.89
426.01	5085.98
426.20	5069.60
426.39	5067.26
426.58	5184.29
426.77	5198.33
426.96	5362.17
427.15	5301.31
427.33	5121.09
427.52	5142.16
427.71	5467.49
427.90	5240.46
428.09	5369.19
428.28	5263.86
428.46	5261.52
428.65	5383.23
428.84	5469.83
429.03	5549.41
429.22	5371.53
429.40	5523.66
429.59	5591.54
429.78	5198.33
429.97	5235.78
430.16	5479.19
430.34	5689.84
430.53	5769.42
430.72	5727.29
430.91	5724.95
431.10	5710.91
431.28	5853.68
431.47	5841.98
431.66	5853.68
431.85	5764.74
432.03	5785.80
432.22	6101.78
432.41	5867.72
432.60	5980.07
432.79	6179.01
432.97	6106.46
433.16	6080.71
433.35	5996.45
433.54	6050.28
433.72	6061.99
433.91	6174.33
434.10	6218.80
434.28	6146.25
434.47	6181.35
434.66	6204.76
434.85	6207.10
435.03	6452.86
435.22	6256.25
435.41	6438.81
435.59	6452.86
435.78	6628.40
435.97	6684.57
436.16	6459.88
436.34	6340.51
436.53	6499.67
436.72	6633.08
436.90	6455.20
437.09	6619.04
437.28	6530.09
437.46	6612.01
437.65	6747.76
437.84	6782.87
438.02	6733.72
438.21	6932.67
438.40	6705.63
438.58	6998.20
438.77	7112.89
438.96	7030.97
439.14	7311.83
439.33	7218.21
439.52	7190.13
439.70	7424.18
439.89	7279.07
440.08	7508.44
440.26	7496.74
440.45	7417.16
440.63	7564.61
440.82	7513.12
441.01	7719.09
441.19	7808.03
441.38	7939.10
441.57	7693.34
441.75	8119.32
441.94	8093.57
442.12	7772.92
442.31	8011.65
442.50	8105.28
442.68	8060.80
442.87	8147.40
443.05	7882.92
443.24	8472.74
443.43	8236.35
443.61	8234.00
443.80	8610.83
443.98	8039.74
444.17	7957.82
444.35	8379.12
444.54	8503.17
444.73	8353.37
444.91	8475.08
445.10	8482.10
445.28	8568.70
445.47	8346.35
445.65	8306.56
445.84	8547.64
446.02	8428.27
446.21	8503.17
446.39	8517.21
446.58	8531.25
446.77	8648.28
446.95	8231.66
447.14	8458.70
447.32	8636.58
447.51	8748.92
447.69	8669.34
447.88	8643.60
448.06	8594.45
448.25	8521.89
448.43	8683.39
448.62	8641.26
448.80	8568.70
448.99	8741.90
449.17	8793.39
449.36	8858.93
449.54	8919.78
449.73	9095.32
449.91	9090.64
450.10	8999.36
450.28	9071.92
450.46	9156.18
450.65	9212.35
450.83	9055.53
451.02	9193.62
451.20	9235.75
451.39	9114.05
451.57	9287.25
451.76	9221.71
451.94	9139.79
452.13	9263.84
452.31	9334.06
452.49	9256.82
452.68	9441.72
452.86	9535.34
453.05	9444.06
453.23	9502.58
453.42	9357.46
453.60	9432.36
453.78	9614.92
453.97	9516.62
454.15	9490.87
454.34	9638.33
454.52	9844.29
454.70	9858.34
454.89	9572.79
455.07	9764.72
455.26	9928.55
455.44	10174.31
455.62	9949.62
455.81	10183.67
455.99	10195.37
456.17	10246.87
456.36	10209.42
456.54	10223.46
456.73	10317.08
456.91	10471.56
457.09	10296.02
457.28	10473.90
457.46	10349.85
457.64	10560.50
457.83	10836.68
458.01	10696.25
458.19	10675.18
458.38	10588.58
458.56	10572.20
458.74	10677.52
458.93	10766.46
459.11	10698.59
459.29	11082.44
459.48	10817.96
459.66	10949.03
459.84	10913.92
460.03	11187.76
460.21	11021.58
460.39	11154.99
460.57	10967.75
460.76	11215.85
460.94	11302.45
461.12	11084.78
461.31	11356.28
461.49	11487.35
461.67	11239.25
461.85	11543.52
462.04	11325.85
462.22	11658.21
462.40	11630.12
462.59	11545.86
462.77	11452.24
462.95	11866.52
463.13	11674.59
463.32	11751.83
463.50	11819.71
463.68	11653.53
463.86	11833.75
464.05	11833.75
464.23	11817.36
464.41	11843.11
464.59	11885.24
464.78	12264.41
464.96	12273.77
465.14	11908.65
465.32	12233.98
465.50	12126.32
465.69	12414.20
465.87	12187.17
466.05	12245.68
466.23	12231.64
466.41	12257.39
466.60	12491.44
466.78	12013.97
466.96	12325.26
467.14	12212.92
467.32	12425.90
467.51	12774.64
467.69	12262.07
467.87	12592.08
468.05	12821.45
468.23	12475.06
468.41	12369.73
468.60	12662.30
468.78	12767.62
468.96	12823.80
469.14	13071.89
469.32	13139.77
469.50	12950.18
469.69	12896.35
469.87	13252.11
470.05	13153.81
470.23	13348.08
470.41	13181.90
470.59	13427.65
470.77	13226.37
470.95	13277.86
471.14	13680.43
471.32	13186.58
471.50	13582.13
471.68	13762.35
471.86	13778.73
472.04	13884.06
472.22	14162.58
472.40	13572.77
472.58	13865.33
472.77	14143.86
472.95	14354.51
473.13	14738.35
473.31	14490.26
473.49	14324.08
473.67	14235.14
473.85	14157.90
474.03	15005.17
474.21	14616.65
474.39	14850.70
474.57	14780.48
474.75	14881.13
474.93	15089.43
475.12	15096.46
475.30	15314.13
475.48	15033.26
475.66	15566.90
475.84	15276.68
476.02	15389.02
476.20	15391.36
476.38	15960.11
476.56	15957.77
476.74	16056.08
476.92	15903.94
477.10	15772.87
477.28	16362.69
477.46	16266.72
477.64	16409.50
477.82	16678.66
478.00	17195.92
478.18	16779.30
478.36	16917.39
478.54	17511.89
478.72	17341.03
478.90	17317.62
479.08	17699.13
479.26	17757.64
479.44	17792.75
479.62	18050.21
479.80	18434.06
479.98	18333.42
480.16	18864.72
480.34	18501.93
480.52	18766.42
480.70	18764.07
480.88	18925.57
481.06	18883.44
481.24	19274.31
481.41	19215.80
481.59	19782.21
481.77	19503.68
481.95	19534.11
482.13	19726.04
482.31	19957.75
482.49	20697.36
482.67	20446.92
482.85	20613.10
483.03	20760.55
483.21	20793.32
483.39	20915.03
483.57	20643.52
483.74	21118.65
483.92	21612.51
484.10	21341.00
484.28	21783.37
484.46	22010.40
484.64	22637.66
484.82	22183.60
485.00	22469.14
485.18	23152.58
485.35	23108.11
485.53	22906.82
485.71	23225.14
485.89	23852.40
486.07	23466.21
486.25	23840.70
486.43	23875.80
486.61	23810.27
486.78	23910.91
486.96	24533.50
487.14	24812.02
487.32	24634.14
487.50	24936.07
487.68	25228.63
487.85	25462.69
488.03	25848.88
488.21	26143.78
488.39	25797.38
488.57	26258.47
488.75	26506.57
488.92	26771.05
489.10	26962.97
489.28	26918.50
489.46	27435.76
489.64	27096.38
489.81	27606.62
489.99	27562.15
490.17	27695.56
490.35	28463.25
490.53	28428.15
490.70	28835.40
490.88	28594.32
491.06	28828.38
491.24	29106.90
491.41	29315.21
491.59	29390.11
491.77	29692.04
491.95	29902.68
492.13	29865.24
492.30	30263.13
492.48	30288.87
492.66	30618.89
492.84	30246.74
493.01	30946.56
493.19	31178.28
493.37	31122.10
493.54	31370.20
493.72	31960.02
493.90	32063.00
494.08	32233.86
494.25	32268.97
494.43	32165.98
494.61	32474.93
494.79	32685.58
494.96	32528.77
495.14	33118.58
495.32	33291.78
495.49	33666.27
495.67	33626.48
495.85	33539.88
496.02	33773.93
496.20	34522.90
496.38	34576.73
496.55	34408.22
496.73	35171.23
496.91	34866.96
497.09	35503.59
497.26	35405.28
497.44	35075.27
497.62	35770.41
497.79	36119.15
497.97	35784.45
498.14	35934.24
498.32	36549.81
498.50	36624.70
498.67	36655.13
498.85	36495.97
499.03	36989.83
499.20	36896.20
499.38	37148.98
499.56	37111.53
499.73	37680.28
499.91	37713.05
500.08	37970.51
500.26	37876.89
500.44	38171.80
500.61	38211.59
500.79	38195.20
500.97	38469.04
501.14	38700.76
501.32	38829.49
501.49	39227.38
501.67	39227.38
501.84	38923.11
502.02	39594.84
502.20	39234.40
502.37	39702.51
502.55	39845.28
502.72	39686.12
502.90	39964.65
503.07	39838.26
503.25	39686.12
503.43	40566.16
503.60	39952.94
503.78	40657.45
503.95	40708.94
504.13	40779.15
504.30	41427.48
504.48	40561.48
504.65	40849.37
504.83	41556.21
505.01	41677.92
505.18	41427.48
505.36	42000.91
505.53	41275.35
505.71	42026.66
505.88	42136.66
506.06	41963.46
506.23	42632.86
506.41	42300.50
506.58	42382.42
506.76	42396.46
506.93	42714.78
507.11	42600.09
507.28	42993.30
507.46	43103.31
507.63	43262.46
507.81	43665.03
507.98	43189.91
508.16	43430.98
508.33	43966.96
508.50	44016.11
508.68	44451.45
508.85	44046.54
509.03	44079.31
509.20	44411.67
509.38	44879.77
509.55	44697.21
509.73	44959.35
509.90	44734.66
510.08	44381.24
510.25	44882.11
510.42	45125.53
510.60	45640.45
510.77	45801.94
510.95	46064.08
511.12	45528.10
511.30	45778.54
511.47	46071.10
511.64	45600.66
511.82	45872.16
511.99	45811.31
512.17	46391.76
512.34	46237.28
512.51	46911.36
512.69	46419.84
512.86	46604.75
513.04	46693.69
513.21	46672.62
513.38	47234.35
513.56	47487.13
513.73	47075.19
513.90	47114.98
514.08	47091.58
514.25	47924.81
514.43	48105.03
514.60	48254.82
514.77	47821.83
514.95	48128.44
515.12	47767.99
515.29	48102.69
515.47	48123.75
515.64	48406.96
515.81	48254.82
515.99	48488.88
516.16	48692.50
516.33	49041.24
516.51	48861.02
516.68	48999.12
516.85	49045.93
517.03	49251.89
517.20	49684.89
517.37	49085.72
517.54	49240.19
517.72	49612.34
517.89	49448.50
518.06	49766.81
518.24	49635.74
518.41	49717.66
518.58	49588.93
518.75	49888.52
518.93	49944.69
519.10	49535.10
519.27	49996.18
519.45	50164.70
519.62	50536.85
519.79	50188.11
519.96	50124.91
520.14	50356.63
520.31	50131.93
520.48	50988.57
520.65	50564.93
520.83	50798.99
521.00	50974.53
521.17	51007.29
521.34	50937.08
521.52	51112.62
521.69	51274.12
521.86	51400.50
522.03	51487.10
522.20	51356.03
522.38	51583.07
522.55	51861.59
522.72	51700.09
522.89	51779.67
523.07	52011.38
523.24	51688.39
523.41	51927.13
523.58	51594.77
523.75	52102.67
523.92	52062.88
524.10	52095.64
524.27	52306.29
524.44	52692.48
524.61	52652.69
524.78	52364.81
524.96	52573.11
525.13	52397.57
525.30	52720.57
525.47	52505.24
525.64	52736.95
525.81	52921.85
525.98	53216.76
526.16	52903.13
526.33	53109.10
526.50	53198.04
526.67	52914.83
526.84	53071.65
527.01	53109.10
527.18	53226.12
527.36	53059.94
527.53	53221.44
527.70	53822.96
527.87	53701.25
528.04	53535.07
528.21	53455.50
528.38	53378.26
528.55	53858.07
528.72	53584.22
528.89	53750.40
529.07	53736.36
529.24	53443.79
529.41	54021.90
529.58	54033.61
529.75	54000.84
529.92	54312.13
530.09	54028.93
530.26	54141.27
530.43	54258.30
530.60	54148.29
530.77	54085.10
530.94	54216.17
531.11	54349.58
531.28	54536.82
531.46	54499.37
531.63	54768.54
531.80	54398.73
531.97	54754.49
532.14	54670.23
532.31	54611.72
532.48	54798.96
532.65	54653.85
532.82	54536.82
532.99	54962.80
533.16	54747.47
533.33	55180.47
533.50	55217.92
533.67	54761.51
533.84	55018.97
534.01	55061.10
534.18	55114.94
534.35	55620.49
534.52	55463.67
534.69	55550.27
534.86	55636.87
535.03	55374.73
535.20	55519.85
535.37	55529.21
535.54	55407.50
535.71	55435.59
535.88	55498.78
536.05	55753.90
536.22	55641.56
536.38	55868.59
536.55	55739.86
536.72	55463.67
536.89	55863.91
537.06	55889.65
537.23	55887.31
537.40	55739.86
537.57	56025.40
537.74	55889.65
537.91	56119.02
538.08	56432.66
538.25	56041.79
538.42	55964.55
538.59	56474.79
538.75	56067.53
538.92	56346.06
539.09	56505.21
539.26	56425.64
539.43	56526.28
539.60	56626.92
539.77	56704.16
539.94	56533.30
540.11	56765.01
540.28	56615.22
540.44	56636.28
540.61	56765.01
540.78	56605.86
540.95	56669.05
541.12	56655.01
541.29	56521.60
541.46	56767.35
541.62	56898.42
541.79	56879.70
541.96	56680.75
542.13	56739.27
542.30	56858.63
542.47	57050.56
542.63	57183.97
542.80	57071.62
542.97	57420.36
543.14	57401.64
543.31	57364.19
543.48	57455.47
543.64	57687.18
543.81	57329.08
543.98	57717.61
544.15	57628.67
544.32	57663.78
544.48	57832.30
544.65	57572.50
544.82	57708.25
544.99	57832.30
545.16	57621.65
545.32	57619.31
545.49	58085.07
545.66	57874.43
545.83	57776.12
546.00	58120.18
546.16	57923.58
546.33	57958.69
546.50	57743.36
546.67	58096.78
546.83	57958.69
547.00	57942.30
547.17	57904.85
547.34	58049.97
547.50	58183.38
547.67	58351.90
547.84	58204.44
548.00	58450.20
548.17	58504.03
548.34	58298.06
548.51	58614.04
548.67	58628.08
548.84	58253.59
549.01	58286.36
549.18	58314.45
549.34	58176.36
549.51	58731.06
549.68	58560.20
549.84	58478.28
550.01	58674.89
550.18	58527.44
550.34	58820.00
550.51	58805.96
550.68	58700.64
550.84	58501.69
551.01	58768.51
551.18	58780.21
551.34	58836.39
551.51	58960.44
551.68	58946.39
551.84	58714.68
552.01	58817.66
552.18	58953.41
552.34	58815.32
552.51	58993.20
552.68	58663.19
552.84	58761.49
553.01	59105.55
553.18	59166.40
553.34	59161.72
553.51	59014.27
553.67	58930.01
553.84	59124.27
554.01	59196.83
554.17	59208.53
554.34	59082.14
554.51	59217.89
554.67	59363.01
554.84	59215.55
555.00	59040.01
555.17	59180.45
555.33	59152.36
555.50	59119.59
555.67	59047.04
555.83	59355.99
556.00	59187.47
556.16	59714.09
556.33	59686.00
556.50	59484.72
556.66	59718.77
556.83	59341.94
556.99	59709.41
557.16	59707.07
557.32	59728.13
557.49	59852.18
557.65	59667.28
557.82	59681.32
557.98	59583.02
558.15	59454.29
558.32	59693.02
558.48	59648.55
558.65	59760.90
558.81	59597.06
558.98	59648.55
559.14	59810.05
559.31	59835.80
559.47	59959.84
559.64	59936.44
559.80	59765.58
559.97	59716.43
560.13	59671.96
560.30	59945.80
560.46	59997.29
560.63	59976.23
560.79	59910.69
560.96	60219.64
561.12	59950.48
561.29	60170.49
561.45	59767.92
561.61	60013.68
561.78	60086.23
561.94	59859.20
562.11	59950.48
562.27	60039.42
562.44	60198.58
562.60	60210.28
562.77	60095.60
562.93	60030.06
563.10	60331.99
563.26	60193.90
563.42	60264.11
563.59	60140.07
563.75	60207.94
563.92	60289.86
564.08	60027.72
564.24	60355.39
564.41	60341.35
564.57	60425.61
564.74	60383.48
564.90	60238.37
565.07	60308.58
565.23	60477.10
565.39	60292.20
565.56	60537.96
565.72	60465.40
565.88	60451.36
566.05	60364.76
566.21	60224.32
566.38	60491.15
566.54	60430.29
566.70	60486.46
566.87	60664.35
567.03	60420.93
567.19	60570.72
567.36	60629.24
567.52	60523.91
567.68	60685.41
567.85	60544.98
568.01	60638.60
568.17	60453.70
568.34	60605.83
568.50	60353.05
568.66	60540.30
568.83	60704.13
568.99	60774.35
569.15	60734.56
569.32	60692.43
569.48	60725.20
569.64	60645.62
569.81	60626.90
569.97	60640.94
570.13	60713.50
570.30	60484.12
570.46	60624.56
570.62	61024.79
570.78	60699.45
570.95	60458.38
571.11	60821.16
571.27	60704.13
571.43	60743.92
571.60	60903.08
571.76	60779.03
571.92	61003.72
572.09	60882.02
572.25	60835.20
572.41	60493.49
572.57	60853.93
572.74	61073.94
572.90	60783.71
573.06	60800.10
573.22	60970.96
573.38	60800.10
573.55	60821.16
573.71	61017.77
573.87	60912.44
574.03	60772.01
574.20	61123.09
574.36	60856.27
574.52	60846.91
574.68	60966.27
574.84	61209.69
575.01	60963.93
575.17	60910.10
575.33	60910.10
575.49	60856.27
575.65	60928.83
575.82	61050.53
575.98	60949.89
576.14	61095.00
576.30	61034.15
576.46	60884.36
576.62	60996.70
576.79	60889.04
576.95	60928.83
577.11	60982.66
577.27	61134.79
577.43	61160.54
577.59	61080.96
577.75	61073.94
577.92	61118.41
578.08	60924.14
578.24	61050.53
578.40	61087.98
578.56	61258.84
578.72	61258.84
578.88	61167.56
579.04	61172.24
579.21	61015.43
579.37	61315.01
579.53	61132.45
579.69	60832.86
579.85	61137.13
580.01	60940.53
580.17	60987.34
580.33	61010.74
580.49	61038.83
580.65	61169.90
580.82	60900.74
580.98	61041.17
581.14	61036.49
581.30	61095.00
581.46	61043.51
581.62	61099.68
581.78	61193.31
581.94	61263.52
582.10	60980.32
582.26	61230.75
582.42	61141.81
582.58	61076.28
582.74	61050.53
582.90	61221.39
583.06	61275.22
583.22	60954.57
583.38	61104.37
583.54	61172.24
583.70	60940.53
583.86	61319.70
584.02	61043.51
584.18	61038.83
584.34	61017.77
584.50	61174.58
584.66	60994.36
584.82	61024.79
584.98	61275.22
585.14	61263.52
585.30	61242.46
585.46	61214.37
585.62	61132.45
585.78	61141.81
585.94	61020.11
586.10	61219.05
586.26	61165.22
586.42	61303.31
586.58	61481.19
586.74	61240.12
586.90	61183.94
587.06	61188.63
587.22	61286.93
587.38	61097.34
587.54	61462.47
587.70	61394.59
587.86	61233.10
588.02	61181.60
588.18	61394.59
588.34	61523.32
