SpectraSuite Data File
++++++++++++++++++++++++++++++++++++
Date: Fri Oct 25 10:47:41 EDT 2013
User: price-jones
Dark Spectrum Present: No
Reference Spectrum Present: No
Number of Sampled Component Spectra: 1
Spectrometers: USB2+H05261
Integration Time (usec): 100000 (USB2+H05261)
Spectra Averaged: 1 (USB2+H05261)
Boxcar Smoothing: 0 (USB2+H05261)
Correct for Electrical Dark: No (USB2+H05261)
Strobe/Lamp Enabled: No (USB2+H05261)
Correct for Detector Non-linearity: No (USB2+H05261)
Correct for Stray Light: No (USB2+H05261)
Number of Pixels in Processed Spectrum: 2048
>>>>>Begin Processed Spectral Data<<<<<
365.73	152.13
365.92	152.13
366.12	152.13
366.32	140.43
366.52	32.77
366.72	100.64
366.91	51.49
367.11	14.04
367.31	44.47
367.51	42.13
367.70	65.54
367.90	86.60
368.10	70.22
368.30	42.13
368.49	56.17
368.69	18.72
368.89	79.58
369.09	16.38
369.28	102.98
369.48	25.75
369.68	114.69
369.87	100.64
370.07	58.51
370.27	184.90
370.47	229.37
370.66	313.63
370.86	468.11
371.06	428.32
371.25	491.51
371.45	421.30
371.65	475.13
371.84	493.85
372.04	416.62
372.24	463.43
372.44	503.22
372.63	524.28
372.83	369.80
373.03	496.19
373.22	484.49
373.42	528.96
373.62	463.43
373.81	557.05
374.01	554.71
374.21	528.96
374.40	596.84
374.60	571.09
374.79	599.18
374.99	596.84
375.19	552.37
375.38	599.18
375.58	564.07
375.78	547.69
375.97	589.82
376.17	674.07
376.37	521.94
376.56	566.41
376.76	587.47
376.95	573.43
377.15	603.86
377.35	610.88
377.54	596.84
377.74	596.84
377.93	594.50
378.13	634.29
378.33	603.86
378.52	669.39
378.72	507.90
378.91	648.33
379.11	571.09
379.31	615.56
379.50	573.43
379.70	631.94
379.89	667.05
380.09	624.92
380.28	634.29
380.48	594.50
380.68	627.26
380.87	692.80
381.07	718.54
381.26	667.05
381.46	709.18
381.65	608.54
381.85	622.58
382.04	638.97
382.24	638.97
382.43	737.27
382.63	681.10
382.83	641.31
383.02	725.57
383.22	718.54
383.41	685.78
383.61	772.38
383.80	741.95
384.00	695.14
384.19	688.12
384.39	730.25
384.58	755.99
384.78	755.99
384.97	746.63
385.17	791.10
385.36	793.44
385.56	734.93
385.75	727.91
385.95	809.83
386.14	779.40
386.34	842.59
386.53	748.97
386.72	777.06
386.92	851.96
387.11	788.76
387.31	823.87
387.50	830.89
387.70	880.04
387.89	800.46
388.09	861.32
388.28	819.19
388.48	849.61
388.67	945.58
388.86	924.51
389.06	770.04
389.25	987.71
389.45	870.68
389.64	950.26
389.84	880.04
390.03	905.79
390.22	931.53
390.42	980.68
390.61	926.85
390.81	952.60
391.00	1013.45
391.19	1011.11
391.39	936.21
391.58	1104.73
391.78	1004.09
391.97	870.68
392.16	938.55
392.36	978.34
392.55	961.96
392.75	901.11
392.94	938.55
393.13	905.79
393.33	1032.18
393.52	1078.99
393.71	1015.79
393.91	1149.20
394.10	1027.50
394.29	1121.12
394.49	1053.24
394.68	1116.44
394.88	1015.79
395.07	1212.40
395.26	1107.07
395.46	1114.10
395.65	1153.88
395.84	1144.52
396.04	1294.32
396.23	1149.20
396.42	1167.93
396.62	1102.39
396.81	1263.89
397.00	1181.97
397.19	1172.61
397.39	1160.91
397.58	1196.01
397.77	1245.16
397.97	1259.21
398.16	1200.69
398.35	1224.10
398.55	1313.04
398.74	1369.21
398.93	1350.49
399.12	1331.76
399.32	1310.70
399.51	1401.98
399.70	1343.47
399.90	1357.51
400.09	1364.53
400.28	1376.24
400.47	1348.15
400.67	1413.68
400.86	1434.75
401.05	1474.54
401.24	1476.88
401.44	1474.54
401.63	1542.41
401.82	1502.62
402.01	1495.60
402.21	1551.78
402.40	1563.48
402.59	1614.97
402.78	1544.75
402.97	1593.90
403.17	1610.29
403.36	1664.12
403.55	1678.16
403.74	1647.74
403.93	1636.03
404.13	1680.50
404.32	1715.61
404.51	1638.38
404.70	1699.23
404.89	1551.78
405.09	1764.76
405.28	1806.89
405.47	1783.49
405.66	1687.53
405.85	1755.40
406.05	1769.44
406.24	1659.44
406.43	1811.57
406.62	1856.04
406.81	1895.83
407.00	1746.04
407.20	1837.32
407.39	1795.19
407.58	1944.99
407.77	1991.80
407.96	1916.90
408.15	1973.07
408.34	2052.65
408.54	2038.61
408.73	2017.54
408.92	2029.24
409.11	1898.17
409.30	2092.44
409.49	2038.61
409.68	2113.50
409.87	2150.95
410.07	2071.37
410.26	2120.53
410.45	2118.18
410.64	2083.08
410.83	2314.79
411.02	2279.68
411.21	2347.56
411.40	2270.32
411.59	2286.70
411.78	2324.15
411.98	2265.64
412.17	2338.20
412.36	2340.54
412.55	2499.69
412.74	2417.77
412.93	2565.23
413.12	2328.83
413.31	2448.20
413.50	2509.05
413.69	2609.70
413.88	2740.77
414.07	2548.84
414.26	2710.34
414.45	2504.37
414.64	2626.08
414.83	2628.42
415.02	2750.13
415.22	2794.60
415.41	2644.81
415.60	2726.72
415.79	2932.69
415.98	3007.59
416.17	2930.35
416.36	2951.42
416.55	2925.67
416.74	2825.03
416.93	2825.03
417.12	2909.29
417.31	3082.49
417.50	2946.73
417.69	3269.73
417.88	3089.51
418.07	3126.96
418.26	3009.93
418.45	3145.68
418.64	3267.39
418.83	3152.70
419.02	3124.62
419.21	3194.83
419.39	3199.51
419.58	3183.13
419.77	3243.98
419.96	3295.47
420.15	3274.41
420.34	3328.24
420.53	3274.41
420.72	3421.86
420.91	3410.16
421.10	3445.27
421.29	3517.83
421.48	3428.88
421.67	3314.20
421.86	3365.69
422.05	3410.16
422.24	3239.30
422.43	3555.27
422.61	3379.73
422.80	3449.95
422.99	3456.97
423.18	3449.95
423.37	3620.81
423.56	3541.23
423.75	3566.98
423.94	3513.14
424.13	3262.71
424.32	3384.41
424.50	3468.67
424.69	3616.13
424.88	3571.66
425.07	3578.68
425.26	3468.67
425.45	3529.53
425.64	3456.97
425.83	3475.70
426.01	3691.02
426.20	3653.58
426.39	3613.79
426.58	3543.57
426.77	3487.40
426.96	3700.39
427.15	3569.32
427.33	3688.68
427.52	3616.13
427.71	3763.58
427.90	3728.47
428.09	3709.75
428.28	3822.09
428.46	3709.75
428.65	3714.43
428.84	3885.29
429.03	3789.33
429.22	3641.87
429.40	3735.50
429.59	3742.52
429.78	3688.68
429.97	3492.08
430.16	3815.07
430.34	3918.06
430.53	3894.65
430.72	3864.22
430.91	3878.27
431.10	3953.16
431.28	4140.41
431.47	4070.19
431.66	4168.49
431.85	4219.99
432.03	4088.92
432.22	4222.33
432.41	4227.01
432.60	4154.45
432.79	4315.95
432.97	4278.50
433.16	4189.56
433.35	4196.58
433.54	4212.96
433.72	4294.88
433.91	4243.39
434.10	4404.89
434.28	4238.71
434.47	4484.47
434.66	4395.53
434.85	4465.74
435.03	4552.34
435.22	4397.87
435.41	4650.64
435.59	4421.27
435.78	4535.96
435.97	4645.96
436.16	4643.62
436.34	4533.62
436.53	4648.30
436.72	4554.68
436.90	4475.10
437.09	4652.98
437.28	4631.92
437.46	4713.84
437.65	4727.88
437.84	4809.80
438.02	4685.75
438.21	4725.54
438.40	4760.65
438.58	4987.68
438.77	4952.57
438.96	4821.50
439.14	4997.04
439.33	4964.28
439.52	5097.69
439.70	5224.08
439.89	5240.46
440.08	5163.22
440.26	5324.72
440.45	5188.97
440.63	5219.39
440.82	5362.17
441.01	5263.86
441.19	5469.83
441.38	5380.89
441.57	5345.78
441.75	5472.17
441.94	5645.37
442.12	5659.42
442.31	5675.80
442.50	5743.67
442.68	5715.59
442.87	5762.40
443.05	5680.48
443.24	5956.66
443.43	5589.20
443.61	5849.00
443.80	5881.77
443.98	5809.21
444.17	5638.35
444.35	5860.70
444.54	5856.02
444.73	5792.83
444.91	5776.44
445.10	5853.68
445.28	5825.59
445.47	5755.38
445.65	5832.62
445.84	5872.40
446.02	5898.15
446.21	5916.87
446.39	5762.40
446.58	6031.56
446.77	5874.74
446.95	5755.38
447.14	6099.44
447.32	6162.63
447.51	5968.37
447.69	5830.27
447.88	6267.95
448.06	5970.71
448.25	6069.01
448.43	6139.23
448.62	6225.82
448.80	6127.52
448.99	6113.48
449.17	6078.37
449.36	6160.29
449.54	6218.80
449.73	6289.02
449.91	6473.92
450.10	6431.79
450.28	6434.13
450.46	6370.94
450.65	6389.66
450.83	6569.88
451.02	6356.90
451.20	6478.60
451.39	6567.54
451.57	6471.58
451.76	6394.34
451.94	6476.26
452.13	6415.41
452.31	6434.13
452.49	6333.49
452.68	6516.05
452.86	6462.22
453.05	6740.74
453.23	6377.96
453.42	6600.31
453.60	6644.78
453.78	6712.66
453.97	6429.45
454.15	6597.97
454.34	6651.80
454.52	6715.00
454.70	6817.98
454.89	6808.62
455.07	6916.28
455.26	6822.66
455.44	6972.46
455.62	6946.71
455.81	6747.76
455.99	6935.01
456.17	7059.06
456.36	7066.08
456.54	7133.95
456.73	7190.13
456.91	7365.67
457.09	7215.87
457.28	7274.38
457.46	7178.42
457.64	7234.60
457.83	7267.36
458.01	7253.32
458.19	7323.54
458.38	7208.85
458.56	7414.82
458.74	7609.08
458.93	7417.16
459.11	7393.75
459.29	7660.57
459.48	7632.49
459.66	7590.36
459.84	7620.78
460.03	7597.38
460.21	7709.72
460.39	7653.55
460.57	7655.89
460.76	7772.92
460.94	7740.15
461.12	7992.93
461.31	7943.78
461.49	7756.54
461.67	7662.91
461.85	7873.56
462.04	7941.44
462.22	8573.38
462.40	8016.33
462.59	8042.08
462.77	7920.37
462.95	8114.64
463.13	7929.74
463.32	8156.77
463.50	8002.29
463.68	8074.85
463.86	8222.30
464.05	8077.19
464.23	8210.60
464.41	8238.69
464.59	8049.10
464.78	8404.86
464.96	8334.65
465.14	8278.47
465.32	8362.73
465.50	8360.39
465.69	8334.65
465.87	8259.75
466.05	8411.89
466.23	8449.33
466.41	8573.38
466.60	8624.87
466.78	8344.01
466.96	8383.80
467.14	8360.39
467.32	8528.91
467.51	8559.34
467.69	8400.18
467.87	8564.02
468.05	8486.78
468.23	8505.51
468.41	8432.95
468.60	8472.74
468.78	8650.62
468.96	8706.79
469.14	8868.29
469.32	8837.86
469.50	8592.11
469.69	9050.85
469.87	9097.66
470.05	9107.02
470.23	8973.61
470.41	8821.48
470.59	8938.51
470.77	9078.94
470.95	9109.36
471.14	9266.18
471.32	9029.79
471.50	9111.71
471.68	9394.91
471.86	9315.33
472.04	9399.59
472.22	9586.83
472.40	9245.12
472.58	9514.28
472.77	9432.36
472.95	9666.41
473.13	9825.57
473.31	9713.22
473.49	9647.69
473.67	9647.69
473.85	9781.10
474.03	9963.66
474.21	9893.44
474.39	10087.71
474.57	10083.03
474.75	10195.37
474.93	10078.35
475.12	10190.69
475.30	10452.83
475.48	10129.84
475.66	10349.85
475.84	10164.95
476.02	10513.69
476.20	10466.88
476.38	10689.23
476.56	10787.53
476.74	10857.75
476.92	10827.32
477.10	10691.57
477.28	11145.63
477.46	10817.96
477.64	11108.18
477.82	11246.27
478.00	11566.93
478.18	11637.14
478.36	11400.75
478.54	11566.93
478.72	11555.22
478.90	12016.31
479.08	11648.85
479.26	11845.45
479.44	12088.87
479.62	12175.47
479.80	12107.59
479.98	12189.51
480.16	12484.42
480.34	12519.53
480.52	12407.18
480.70	12362.71
480.88	12355.69
481.06	12704.43
481.24	12681.02
481.41	12784.01
481.59	12872.95
481.77	12910.40
481.95	13231.05
482.13	13259.13
482.31	13256.79
482.49	13408.93
482.67	13708.52
482.85	13717.88
483.03	13830.23
483.21	13954.27
483.39	14202.37
483.57	13907.46
483.74	14188.33
483.92	14223.44
484.10	14136.84
484.28	14689.20
484.46	14630.69
484.64	14986.45
484.82	14736.01
485.00	14750.06
485.18	15098.80
485.35	15473.28
485.53	15286.04
485.71	15229.87
485.89	15290.72
486.07	15260.29
486.25	15281.36
486.43	15473.28
486.61	15646.48
486.78	16009.26
486.96	15983.52
487.14	16486.73
487.32	16203.53
487.50	16390.77
487.68	16594.40
487.85	16978.25
488.03	16783.98
488.21	17429.97
488.39	17144.42
488.57	16947.82
488.75	17357.41
488.92	17617.21
489.10	17757.64
489.28	17809.14
489.46	18209.37
489.64	18097.02
489.81	18527.68
489.99	18635.35
490.17	18558.11
490.35	18574.49
490.53	18927.91
490.70	18906.85
490.88	18710.24
491.06	19147.92
491.24	19016.85
491.41	18981.74
491.59	19105.79
491.77	19208.78
491.95	19367.93
492.13	19683.91
492.30	19927.32
492.48	19768.16
492.66	20130.95
492.84	20011.58
493.01	20575.65
493.19	20456.28
493.37	20383.73
493.54	20753.53
493.72	20861.19
493.90	20737.15
494.08	20917.37
494.25	21064.82
494.43	21303.56
494.61	21553.99
494.79	21238.02
494.96	21544.63
495.14	21741.24
495.32	21408.88
495.49	21811.45
495.67	21628.89
495.85	22190.62
496.02	22298.28
496.20	22675.11
496.38	22427.01
496.55	22565.10
496.73	22995.76
496.91	22850.65
497.09	23077.68
497.26	23103.43
497.44	23323.44
497.62	23424.08
497.79	23384.29
497.97	23482.59
498.14	23597.28
498.32	23920.28
498.50	23520.04
498.67	24149.65
498.85	23683.88
499.03	24217.52
499.20	24140.29
499.38	24292.42
499.56	24442.21
499.73	24449.24
499.91	24477.32
500.08	24732.44
500.26	24456.26
500.44	24393.06
500.61	24996.92
500.79	24339.23
500.97	24870.53
501.14	25537.59
501.32	25474.39
501.49	25111.61
501.67	25230.98
501.84	25465.03
502.02	25294.17
502.20	25919.09
502.37	25860.58
502.55	25624.18
502.72	25851.22
502.90	25848.88
503.07	25724.83
503.25	26164.85
503.43	26026.76
503.60	26185.91
503.78	26183.57
503.95	26319.32
504.13	26419.97
504.30	26972.33
504.48	26789.77
504.65	26867.01
504.83	27070.64
505.01	27072.98
505.18	27185.32
505.36	27412.35
505.53	27054.25
505.71	27718.96
505.88	27754.07
506.06	27307.03
506.23	27702.58
506.41	27447.46
506.58	27435.76
506.76	27562.15
506.93	28538.15
507.11	27990.47
507.28	28133.24
507.46	27632.36
507.63	28067.70
507.81	28130.90
507.98	28187.07
508.16	28276.01
508.33	28210.48
508.50	28407.08
508.68	28804.97
508.85	29298.83
509.03	28701.99
509.20	28746.46
509.38	28896.25
509.55	29315.21
509.73	28929.02
509.90	29163.08
510.08	29024.98
510.25	29120.95
510.42	29256.70
510.60	29378.40
510.77	29750.55
510.95	29682.67
511.12	29680.33
511.30	29692.04
511.47	30096.95
511.64	29752.89
511.82	30293.55
511.99	30300.58
512.17	29942.47
512.34	29986.94
512.51	30436.33
512.69	30450.37
512.86	30480.80
513.04	30822.51
513.21	30831.88
513.38	30927.84
513.56	30852.94
513.73	30583.78
513.90	30988.69
514.08	31140.83
514.25	31225.09
514.43	30984.01
514.60	31276.58
514.77	31374.88
514.95	31445.10
515.12	31407.65
515.29	31428.71
515.47	31454.46
515.64	31484.89
515.81	31842.99
515.99	31786.82
516.16	31618.30
516.33	31974.06
516.51	32025.55
516.68	31749.37
516.85	31332.75
517.03	31503.61
517.20	32297.05
517.37	32336.84
517.54	32137.90
517.72	31878.10
517.89	31985.76
518.06	32268.97
518.24	32432.80
518.41	32325.14
518.58	32591.96
518.75	32397.70
518.93	32779.20
519.10	32727.71
519.27	32910.27
519.45	32957.08
519.62	33153.69
519.79	33069.43
519.96	33464.98
520.14	33427.53
520.31	33354.97
520.48	33394.76
520.65	33383.06
520.83	33874.57
521.00	33890.96
521.17	34064.16
521.34	33766.91
521.52	33839.47
521.69	34129.69
521.86	33734.14
522.03	34075.86
522.20	34134.37
522.38	34148.42
522.55	34506.52
522.72	34504.18
522.89	34501.84
523.07	34623.54
523.24	34462.05
523.41	34330.98
523.58	34801.43
523.75	35044.84
523.92	35185.27
524.10	34934.84
524.27	34941.86
524.44	35288.26
524.61	35068.25
524.78	35058.88
524.96	35342.09
525.13	35463.80
525.30	35889.77
525.47	35627.63
525.64	35519.97
525.81	35665.08
525.98	35620.61
526.16	35606.57
526.33	35515.29
526.50	35491.88
526.67	35358.47
526.84	35786.79
527.01	35487.20
527.18	35632.32
527.36	36119.15
527.53	35857.01
527.70	36376.61
527.87	36123.83
528.04	36147.23
528.21	36304.05
528.38	36252.56
528.55	36580.23
528.72	36137.87
528.89	36486.61
529.07	36444.48
529.24	36264.26
529.41	36627.04
529.58	36552.15
529.75	36334.48
529.92	36575.55
530.09	36613.00
530.26	37027.28
530.43	37193.45
530.60	36664.49
530.77	36685.56
530.94	37008.55
531.11	37001.53
531.28	37401.76
531.46	37373.67
531.63	37441.55
531.80	37244.94
531.97	37120.90
532.14	37457.93
532.31	37031.96
532.48	37752.84
532.65	37596.03
532.82	37626.45
532.99	37958.81
533.16	37734.12
533.33	37949.45
533.50	37935.40
533.67	37977.53
533.84	38078.18
534.01	37872.21
534.18	37361.97
534.35	38415.21
534.52	37996.26
534.69	38352.02
534.86	38115.62
535.03	38225.63
535.20	38567.35
535.37	38801.40
535.54	38560.33
535.71	38328.61
535.88	38419.89
536.05	38223.29
536.22	38747.57
536.38	38714.80
536.55	38532.24
536.72	38529.90
536.89	38410.53
537.06	38494.79
537.23	39218.02
537.40	38794.38
537.57	38965.24
537.74	39009.71
537.91	38911.41
538.08	39700.17
538.25	39124.40
538.42	39414.62
538.59	38939.49
538.75	38827.15
538.92	38969.92
539.09	39491.86
539.26	39309.30
539.43	39768.04
539.60	39339.72
539.77	38658.63
539.94	39538.67
540.11	39711.87
540.28	39866.34
540.44	39449.73
540.61	39435.69
540.78	39641.65
540.95	39536.33
541.12	39360.79
541.29	39449.73
541.46	39583.14
541.62	39538.67
541.79	40123.80
541.96	39966.99
542.13	39695.49
542.30	39871.03
542.47	39941.24
542.63	39847.62
542.80	40348.50
542.97	40486.59
543.14	40931.29
543.31	41151.30
543.48	40706.60
543.64	41155.98
543.81	40634.04
543.98	40587.23
544.15	40744.05
544.32	40924.27
544.48	41368.97
544.65	40966.40
544.82	41127.89
544.99	40650.42
545.16	41071.72
545.32	40886.82
545.49	41120.87
545.66	41216.83
545.83	41038.95
546.00	41521.10
546.16	41258.96
546.33	41265.99
546.50	40982.78
546.67	40893.84
546.83	40783.83
547.00	41448.55
547.17	41553.87
547.34	41254.28
547.50	41523.44
547.67	41860.48
547.84	41345.56
548.00	41542.17
548.17	41549.19
548.34	41869.84
548.51	41539.83
548.67	41811.33
548.84	41743.45
549.01	41401.74
549.18	41851.12
549.34	42066.45
549.51	41930.70
549.68	41846.44
549.84	42249.01
550.01	41989.21
550.18	41986.87
550.34	41790.27
550.51	41769.20
550.68	41682.60
550.84	41514.08
551.01	42272.42
551.18	42239.65
551.34	42288.80
551.51	42029.00
551.68	42211.56
551.84	42225.60
552.01	42153.05
552.18	42513.49
552.34	42384.76
552.51	42628.18
552.68	42192.84
552.84	42021.98
553.01	42724.14
553.18	42305.18
553.34	42506.47
553.51	42246.67
553.67	42068.79
553.84	42827.12
554.01	42546.26
554.17	42792.01
554.34	42918.40
554.51	43299.91
554.67	43063.52
554.84	42862.23
555.00	42562.64
555.17	42462.00
555.33	42782.65
555.50	42740.52
555.67	43000.32
555.83	43365.45
556.00	42841.17
556.16	43393.53
556.33	43042.45
556.50	43068.20
556.66	43171.18
556.83	42906.70
556.99	43330.34
557.16	43585.46
557.32	43414.60
557.49	43201.61
557.65	43147.78
557.82	42761.59
557.98	42997.98
558.15	43215.65
558.32	43501.20
558.48	43316.29
558.65	43047.13
558.81	43608.86
558.98	43578.43
559.14	43620.56
559.31	43285.87
559.47	43491.83
559.64	43536.30
559.80	43948.24
559.97	43332.68
560.13	43491.83
560.30	43569.07
560.46	43615.88
560.63	43810.15
560.79	44025.48
560.96	43777.38
561.12	43423.96
561.29	43466.09
561.45	43491.83
561.61	43435.66
561.78	43732.91
561.94	43751.63
562.11	44107.40
562.27	43402.89
562.44	43613.54
562.60	43793.76
562.77	44044.20
562.93	43878.02
563.10	44308.68
563.26	43765.68
563.42	43859.30
563.59	43775.04
563.75	43552.69
563.92	43866.32
564.08	44069.95
564.24	44493.58
564.41	44093.35
564.57	43913.13
564.74	43761.00
564.90	43896.75
565.07	44041.86
565.23	43887.39
565.39	43550.35
565.56	44018.46
565.72	44334.43
565.88	43508.22
566.05	44226.76
566.21	44116.76
566.38	44142.50
566.54	43709.50
566.70	44175.27
566.87	44638.70
567.03	44025.48
567.19	44385.92
567.36	44336.77
567.52	43983.35
567.68	44507.63
567.85	44474.86
568.01	44622.31
568.17	44210.38
568.34	44114.42
568.50	44367.20
568.66	44121.44
568.83	44304.00
568.99	43772.70
569.15	44236.12
569.32	44289.96
569.48	44301.66
569.64	44292.30
569.81	44238.47
569.97	44194.00
570.13	44177.61
570.30	44463.16
570.46	43730.57
570.62	44055.90
570.78	44023.14
570.95	44428.05
571.11	45015.52
571.27	44392.94
571.43	44472.52
571.60	44619.97
571.76	44376.56
571.92	44273.57
572.09	44236.12
572.25	44495.92
572.41	43913.13
572.57	44722.96
572.74	45146.59
572.90	44638.70
573.06	44542.74
573.22	44992.12
573.38	44196.34
573.55	43983.35
573.71	44790.83
573.87	44374.22
574.03	44479.54
574.20	44832.96
574.36	44692.53
574.52	44556.78
574.68	44737.00
574.84	44425.71
575.01	44425.71
575.17	44481.88
575.33	44147.18
575.49	44652.74
575.65	44957.01
575.82	45195.74
575.98	44830.62
576.14	44753.38
576.30	44411.67
576.46	44156.55
576.62	44102.71
576.79	44477.20
576.95	43938.88
577.11	44240.81
577.27	44814.24
577.43	44868.07
577.59	44357.83
577.75	44683.17
577.92	44273.57
578.08	44105.06
578.24	43948.24
578.40	44945.31
578.56	44772.11
578.72	44442.09
578.88	44814.24
579.04	44465.50
579.21	44781.47
579.37	44744.02
579.53	44875.09
579.69	44568.48
579.85	44453.79
580.01	44825.94
580.17	44664.44
580.33	44722.96
580.49	44861.05
580.65	44531.03
580.82	44971.05
580.98	44582.52
581.14	44491.24
581.30	44711.25
581.46	44587.21
581.62	44589.55
581.78	44800.19
581.94	45074.04
582.10	44701.89
582.26	44374.22
582.42	44722.96
582.58	44664.44
582.74	44865.73
582.90	44992.12
583.06	44940.63
583.22	44858.71
583.38	44821.26
583.54	44825.94
583.70	44816.58
583.86	45031.91
584.02	44741.68
584.18	44809.56
584.34	44928.92
584.50	45020.20
584.66	44767.43
584.82	44825.94
584.98	45237.87
585.14	44961.69
585.30	44343.79
585.46	44374.22
585.62	44449.11
585.78	44484.22
585.94	44435.07
586.10	44685.51
586.26	44737.00
586.42	44903.18
586.58	45158.30
586.74	44842.32
586.90	44718.28
587.06	44507.63
587.22	44580.18
587.38	44868.07
587.54	45027.23
587.70	44931.26
587.86	45095.10
588.02	44933.60
588.18	45020.20
588.34	44741.68
588.49	44470.18
588.65	44500.61
588.81	44655.08
588.97	44381.24
589.13	44313.36
589.29	44568.48
589.45	44470.18
589.61	44830.62
589.77	44753.38
589.93	45069.36
590.08	45036.59
590.24	44837.64
