SpectraSuite Data File
++++++++++++++++++++++++++++++++++++
Date: Fri Oct 25 11:23:16 EDT 2013
User: price-jones
Dark Spectrum Present: No
Reference Spectrum Present: No
Number of Sampled Component Spectra: 1
Spectrometers: USB2+H05261
Integration Time (usec): 100000 (USB2+H05261)
Spectra Averaged: 1 (USB2+H05261)
Boxcar Smoothing: 0 (USB2+H05261)
Correct for Electrical Dark: No (USB2+H05261)
Strobe/Lamp Enabled: No (USB2+H05261)
Correct for Detector Non-linearity: No (USB2+H05261)
Correct for Stray Light: No (USB2+H05261)
Number of Pixels in Processed Spectrum: 2048
>>>>>Begin Processed Spectral Data<<<<<
365.73	227.03
365.92	227.03
366.12	227.03
366.32	175.54
366.52	133.41
366.72	105.32
366.91	142.77
367.11	117.03
367.31	149.79
367.51	145.11
367.70	77.24
367.90	107.66
368.10	163.84
368.30	117.03
368.49	177.88
368.69	133.41
368.89	138.09
369.09	135.75
369.28	180.22
369.48	166.18
369.68	163.84
369.87	159.16
370.07	243.42
370.27	212.99
370.47	402.57
370.66	582.79
370.86	606.20
371.06	653.01
371.25	716.20
371.45	716.20
371.65	683.44
371.84	685.78
372.04	690.46
372.24	753.65
372.44	664.71
372.63	763.01
372.83	781.74
373.03	676.41
373.22	730.25
373.42	706.84
373.62	777.06
373.81	774.72
374.01	805.14
374.21	807.48
374.40	760.67
374.60	912.81
374.79	819.19
374.99	844.93
375.19	823.87
375.38	877.70
375.58	793.44
375.78	863.66
375.97	877.70
376.17	915.15
376.37	837.91
376.56	938.55
376.76	873.02
376.95	837.91
377.15	931.53
377.35	926.85
377.54	968.98
377.74	901.11
377.93	901.11
378.13	861.32
378.33	875.36
378.52	866.00
378.72	976.00
378.91	980.68
379.11	940.90
379.31	936.21
379.50	866.00
379.70	1001.75
379.89	1018.13
380.09	985.37
380.28	910.47
380.48	1027.50
380.68	971.32
380.87	999.41
381.07	968.98
381.26	1053.24
381.46	1025.15
381.65	1093.03
381.85	1069.62
382.04	1013.45
382.24	1114.10
382.43	997.07
382.63	1015.79
382.83	1107.07
383.02	1046.22
383.22	1039.20
383.41	1032.18
383.61	1081.33
383.80	1128.14
384.00	1135.16
384.19	1121.12
384.39	1158.57
384.58	1210.06
384.78	1135.16
384.97	1186.65
385.17	1214.74
385.36	1151.54
385.56	1217.08
385.75	1200.69
385.95	1158.57
386.14	1247.51
386.34	1184.31
386.53	1170.27
386.72	1231.12
386.92	1238.14
387.11	1196.01
387.31	1348.15
387.50	1261.55
387.70	1273.25
387.89	1308.36
388.09	1210.06
388.28	1193.67
388.48	1301.34
388.67	1385.60
388.86	1289.64
389.06	1338.79
389.25	1315.38
389.45	1364.53
389.64	1315.38
389.84	1331.76
390.03	1427.73
390.22	1425.39
390.42	1334.11
390.61	1364.53
390.81	1373.89
391.00	1458.15
391.19	1437.09
391.39	1488.58
391.58	1418.36
391.78	1495.60
391.97	1458.15
392.16	1493.26
392.36	1612.63
392.55	1528.37
392.75	1570.50
392.94	1582.20
393.13	1413.68
393.33	1425.39
393.52	1598.59
393.71	1621.99
393.91	1624.33
394.10	1554.12
394.29	1626.67
394.49	1607.95
394.68	1687.53
394.88	1610.29
395.07	1668.80
395.26	1689.87
395.46	1755.40
395.65	1837.32
395.84	1827.96
396.04	1699.23
396.23	1736.68
396.42	1764.76
396.62	1675.82
396.81	1818.60
397.00	1771.79
397.19	1806.89
397.39	1797.53
397.58	1790.51
397.77	1757.74
397.97	1863.07
398.16	1933.28
398.35	1973.07
398.55	1785.83
398.74	1905.20
398.93	1893.49
399.12	1844.34
399.32	1813.92
399.51	1921.58
399.70	1930.94
399.90	1860.73
400.09	2076.06
400.28	1949.67
400.47	2026.90
400.67	2050.31
400.86	2062.01
401.05	2101.80
401.24	2040.95
401.44	2172.02
401.63	2019.88
401.82	2073.71
402.01	2134.57
402.21	2160.31
402.40	2155.63
402.59	2218.83
402.78	2155.63
402.97	2293.72
403.17	2256.28
403.36	2237.55
403.55	2265.64
403.74	2293.72
403.93	2394.37
404.13	2375.64
404.32	2406.07
404.51	2385.01
404.70	2525.44
404.89	2466.92
405.09	2499.69
405.28	2417.77
405.47	2457.56
405.66	2502.03
405.85	2562.89
406.05	2513.74
406.24	2572.25
406.43	2558.21
406.62	2590.97
406.81	2654.17
407.00	2471.61
407.20	2588.63
407.39	2628.42
407.58	2682.25
407.77	2773.53
407.96	2813.32
408.15	2843.75
408.34	2757.15
408.54	2750.13
408.73	2775.88
408.92	2892.90
409.11	2897.58
409.30	2846.09
409.49	2967.80
409.68	2944.39
409.87	2876.52
410.07	2951.42
410.26	3054.40
410.45	2897.58
410.64	3169.09
410.83	3152.70
411.02	3124.62
411.21	3215.90
411.40	3267.39
411.59	3213.56
411.78	3276.75
411.98	3124.62
412.17	3227.60
412.36	3328.24
412.55	3368.03
412.74	3389.10
412.93	3454.63
413.12	3435.91
413.31	3475.70
413.50	3471.01
413.69	3407.82
413.88	3602.08
414.07	3599.74
414.26	3700.39
414.45	3559.95
414.64	3616.13
414.83	3660.60
415.02	3789.33
415.22	3847.84
415.41	3859.54
415.60	3974.23
415.79	3763.58
415.98	4007.00
416.17	4042.11
416.36	3978.91
416.55	3967.21
416.74	4112.32
416.93	4112.32
417.12	4325.31
417.31	4203.60
417.50	4098.28
417.69	4234.03
417.88	4390.84
418.07	4250.41
418.26	4318.29
418.45	4372.12
418.64	4486.81
418.83	4449.36
419.02	4585.11
419.21	4514.89
419.39	4554.68
419.58	4610.86
419.77	4580.43
419.96	4662.35
420.15	4660.01
420.34	4538.30
420.53	4610.86
420.72	4664.69
420.91	4660.01
421.10	4713.84
421.29	4915.12
421.48	4631.92
421.67	4910.44
421.86	4875.34
422.05	4936.19
422.24	4847.25
422.43	4865.97
422.61	4945.55
422.80	5078.96
422.99	4917.47
423.18	4952.57
423.37	5018.11
423.56	5107.05
423.75	4950.23
423.94	4823.84
424.13	4669.37
424.32	4748.95
424.50	5074.28
424.69	5083.64
424.88	5074.28
425.07	5057.90
425.26	5008.75
425.45	4961.94
425.64	4964.28
425.83	5139.82
426.01	5205.35
426.20	5132.79
426.39	5046.20
426.58	5071.94
426.77	5137.48
426.96	5191.31
427.15	5158.54
427.33	5317.70
427.52	5305.99
427.71	5298.97
427.90	5275.57
428.09	5359.83
428.28	5221.74
428.46	5526.00
428.65	5542.39
428.84	5596.22
429.03	5570.48
429.22	5266.21
429.40	5507.28
429.59	5535.37
429.78	5408.98
429.97	5214.71
430.16	5563.45
430.34	5724.95
430.53	5731.97
430.72	5687.50
430.91	5685.16
431.10	5483.88
431.28	5816.23
431.47	5764.74
431.66	5872.40
431.85	5778.78
432.03	6090.07
432.22	6146.25
432.41	5956.66
432.60	6015.18
432.79	6015.18
432.97	5968.37
433.16	5991.77
433.35	6167.31
433.54	6073.69
433.72	6291.36
433.91	6291.36
434.10	6183.70
434.28	6160.29
434.47	6326.47
434.66	6204.76
434.85	6169.65
435.03	6256.25
435.22	6176.67
435.41	6506.69
435.59	6473.92
435.78	6403.71
435.97	6462.22
436.16	6413.07
436.34	6455.20
436.53	6504.35
436.72	6579.25
436.90	6579.25
437.09	6548.82
437.28	6525.41
437.46	6590.95
437.65	6743.08
437.84	6789.89
438.02	6757.13
438.21	6829.68
438.40	6707.98
438.58	7117.57
438.77	7075.44
438.96	6970.12
439.14	7005.22
439.33	7309.49
439.52	7183.10
439.70	7164.38
439.89	7265.02
440.08	7485.03
440.26	7398.43
440.45	7456.95
440.63	7646.53
440.82	7669.94
441.01	7761.22
441.19	7552.91
441.38	7852.50
441.57	7763.56
441.75	7850.16
441.94	8084.21
442.12	8095.91
442.31	8098.25
442.50	8070.17
442.68	7985.91
442.87	8039.74
443.05	8023.36
443.24	8182.51
443.43	8187.19
443.61	8510.19
443.80	8538.27
443.98	8051.44
444.17	8039.74
444.35	8140.38
444.54	8318.26
444.73	8379.12
444.91	8205.92
445.10	8379.12
445.28	8409.54
445.47	8116.98
445.65	8435.29
445.84	8564.02
446.02	8542.96
446.21	8451.67
446.39	8498.49
446.58	8704.45
446.77	8636.58
446.95	8238.69
447.14	8552.32
447.32	8500.83
447.51	8606.15
447.69	8549.98
447.88	8547.64
448.06	8477.42
448.25	8510.19
448.43	8458.70
448.62	8603.81
448.80	8617.85
448.99	8762.97
449.17	8702.11
449.36	8674.03
449.54	8781.69
449.73	8863.61
449.91	9001.70
450.10	8980.64
450.28	9249.80
450.46	9125.75
450.65	9095.32
450.83	9139.79
451.02	9193.62
451.20	9305.97
451.39	9172.56
451.57	9088.30
451.76	9022.77
451.94	9364.48
452.13	9558.75
452.31	9256.82
452.49	9170.22
452.68	9479.17
452.86	9380.87
453.05	9453.42
453.23	9760.03
453.42	9329.38
453.60	9242.78
453.78	9647.69
453.97	9540.02
454.15	9724.93
454.34	9488.53
454.52	9755.35
454.70	9621.94
454.89	9748.33
455.07	9764.72
455.26	9888.76
455.44	10038.56
455.62	9970.68
455.81	9928.55
455.99	10169.63
456.17	9905.15
456.36	10022.17
456.54	10132.18
456.73	10340.49
456.91	10537.09
457.09	10476.24
457.28	10672.84
457.46	10317.08
457.64	10572.20
457.83	10581.56
458.01	10574.54
458.19	10953.71
458.38	10705.61
458.56	10740.72
458.74	10888.17
458.93	10832.00
459.11	10834.34
459.29	10874.13
459.48	10640.08
459.66	10857.75
459.84	11016.90
460.03	10949.03
460.21	10803.91
460.39	11091.80
460.57	11000.52
460.76	11063.71
460.94	11353.94
461.12	11265.00
461.31	11365.64
461.49	11037.97
461.67	11290.74
461.85	11653.53
462.04	11407.77
462.22	11620.76
462.40	11667.57
462.59	11571.61
462.77	11428.84
462.95	11763.53
463.13	11875.88
463.32	11777.58
463.50	11880.56
463.68	12091.21
463.86	11822.05
464.05	11812.68
464.23	12063.12
464.41	11936.73
464.59	11939.07
464.78	12250.36
464.96	12035.03
465.14	11838.43
465.32	12271.43
465.50	12219.94
465.69	12259.73
465.87	12023.33
466.05	12348.67
466.23	12128.66
466.41	12320.58
466.60	12519.53
466.78	12402.50
466.96	12248.02
467.14	12231.64
467.32	12245.68
467.51	12608.47
467.69	12423.56
467.87	12587.40
468.05	12774.64
468.23	12517.18
468.41	12245.68
468.60	12608.47
468.78	12695.07
468.96	12978.27
469.14	12713.79
469.32	13202.96
469.50	12610.81
469.69	13224.03
469.87	13287.22
470.05	13123.38
470.23	13256.79
470.41	13179.56
470.59	13446.38
470.77	13245.09
470.95	13406.59
471.14	13612.56
471.32	13249.77
471.50	13561.06
471.68	13715.54
471.86	13554.04
472.04	13907.46
472.22	14270.25
472.40	13755.33
472.58	13942.57
472.77	14132.15
472.95	14061.94
473.13	14618.99
473.31	14038.53
473.49	14214.07
473.67	14127.47
473.85	14375.57
474.03	14452.81
474.21	14780.48
474.39	14899.85
474.57	15176.03
474.75	15089.43
474.93	15166.67
475.12	15138.58
475.30	15335.19
475.48	15281.36
475.66	15279.02
475.84	15080.07
476.02	15484.98
476.20	15344.55
476.38	15805.64
476.56	15978.84
476.74	16006.92
476.92	15690.95
477.10	15974.16
477.28	16198.85
477.46	16388.43
477.64	16475.03
477.82	16554.61
478.00	17165.49
478.18	16837.81
478.36	17053.14
478.54	17191.23
478.72	17380.82
478.90	17579.76
479.08	17530.61
479.26	17848.93
479.44	18097.02
479.62	17916.80
479.80	18148.51
479.98	18326.39
480.16	18885.78
480.34	18476.19
480.52	18733.65
480.70	18857.70
480.88	18654.07
481.06	18991.11
481.24	19002.81
481.41	19545.81
481.59	19365.59
481.77	19522.41
481.95	19723.69
482.13	20081.80
482.31	20130.95
482.49	20449.26
482.67	20367.34
482.85	20577.99
483.03	21001.63
483.21	21088.23
483.39	20964.18
483.57	21151.42
483.74	21350.37
483.92	21551.65
484.10	21411.22
484.28	21884.01
484.46	22359.14
484.64	22448.08
484.82	21947.20
485.00	22656.39
485.18	22876.40
485.35	23012.15
485.53	22862.35
485.71	23281.31
485.89	23882.83
486.07	23199.39
486.25	23946.02
486.43	23552.81
486.61	24175.39
486.78	24297.10
486.96	24299.44
487.14	24559.24
487.32	24886.92
487.50	25067.14
487.68	25153.74
487.85	25427.58
488.03	25621.84
488.21	25886.32
488.39	26120.38
488.57	25933.14
488.75	26520.61
488.92	26567.42
489.10	27068.30
489.28	27145.53
489.46	27393.63
489.64	27440.44
489.81	27690.88
489.99	27819.61
490.17	27775.14
490.35	28463.25
490.53	28212.82
490.70	28526.45
490.88	28067.70
491.06	28898.59
491.24	28933.70
491.41	29549.26
491.59	29347.98
491.77	29252.02
491.95	29799.70
492.13	30167.16
492.30	30340.36
492.48	30356.75
492.66	30286.53
492.84	30300.58
493.01	30939.54
493.19	31187.64
493.37	31012.10
493.54	31267.22
493.72	31704.90
493.90	31990.44
494.08	31679.15
494.25	32381.31
494.43	32292.37
494.61	32547.49
494.79	32472.59
494.96	32924.32
495.14	32671.54
495.32	33429.87
495.49	33359.66
495.67	33366.68
495.85	33481.36
496.02	33598.39
496.20	34391.83
496.38	34359.06
496.55	34363.75
496.73	35232.08
496.91	34785.04
497.09	35225.06
497.26	34831.85
497.44	34979.31
497.62	35480.18
497.79	35889.77
497.97	35641.68
498.14	36369.58
498.32	36350.86
498.50	35990.42
498.67	36629.38
498.85	36662.15
499.03	36982.80
499.20	37118.56
499.38	37137.28
499.56	37310.48
499.73	37591.34
499.91	37776.25
500.08	37699.01
500.26	37933.06
500.44	37921.36
500.61	38073.49
500.79	38220.95
500.97	38595.43
501.14	38700.76
501.32	38698.42
501.49	38941.83
501.67	38560.33
501.84	38857.57
502.02	39154.82
502.20	39672.08
502.37	39934.22
502.55	39203.97
502.72	39594.84
502.90	39796.13
503.07	39533.99
503.25	40130.83
503.43	40189.34
503.60	40383.60
503.78	40605.95
503.95	40252.53
504.13	40737.02
504.30	40816.60
504.48	40575.53
504.65	40989.80
504.83	41273.01
505.01	41579.62
505.18	41404.08
505.36	41619.41
505.53	41354.93
505.71	41778.56
505.88	42134.32
506.06	41797.29
506.23	42473.70
506.41	41947.08
506.58	42574.34
506.76	42831.80
506.93	42370.72
507.11	42824.78
507.28	42534.56
507.46	42885.64
507.63	43269.48
507.81	43496.52
507.98	43173.52
508.16	43248.42
508.33	43845.26
508.50	43969.30
508.68	43807.81
508.85	44086.33
509.03	43992.71
509.20	44240.81
509.38	44264.21
509.55	44694.87
509.73	44582.52
509.90	44893.82
510.08	44928.92
510.25	44634.02
510.42	45160.64
510.60	45284.68
510.77	45247.24
510.95	45752.79
511.12	45748.11
511.30	45565.55
511.47	45338.52
511.64	46122.60
511.82	46033.66
511.99	45986.85
512.17	46426.87
512.34	46120.26
512.51	46543.89
512.69	46808.37
512.86	46501.76
513.04	46871.57
513.21	46878.59
513.38	47157.11
513.56	47075.19
513.73	46866.89
513.90	47473.09
514.08	46852.84
514.25	47414.57
514.43	47559.69
514.60	47531.60
514.77	47702.46
514.95	48200.99
515.12	47913.11
515.29	47931.83
515.47	48060.56
515.64	48570.80
515.81	48535.69
515.99	48650.38
516.16	48388.24
516.33	48978.05
516.51	48947.62
516.68	48842.30
516.85	48830.60
517.03	49214.44
517.20	49429.77
517.37	49195.72
517.54	49371.26
517.72	49429.77
517.89	49233.17
518.06	49570.21
518.24	49530.42
518.41	49516.37
518.58	49446.16
518.75	49591.27
518.93	49720.00
519.10	49717.66
519.27	49731.70
519.45	49940.01
519.62	50010.23
519.79	50160.02
519.96	50281.73
520.14	50398.76
520.31	50698.34
520.48	50553.23
520.65	50637.49
520.83	51028.36
521.00	50810.69
521.17	50787.28
521.34	50679.62
521.52	50843.46
521.69	51110.28
521.86	51154.75
522.03	51480.08
522.20	51620.52
522.38	51519.87
522.55	51564.34
522.72	51519.87
522.89	51576.04
523.07	51810.10
523.24	51807.76
523.41	51812.44
523.58	51700.09
523.75	52158.84
523.92	52186.92
524.10	52420.98
524.27	51943.51
524.44	52470.13
524.61	52376.51
524.78	52250.12
524.96	52519.28
525.13	52657.37
525.30	52556.73
525.47	52853.98
525.64	52795.46
525.81	52767.38
525.98	53270.59
526.16	52650.35
526.33	52966.32
526.50	53041.22
526.67	52816.53
526.84	53048.24
527.01	52935.90
527.18	53027.18
527.36	53233.14
527.53	53097.39
527.70	53532.73
527.87	53841.68
528.04	53031.86
528.21	53518.69
528.38	53556.14
528.55	53947.01
528.72	53312.72
528.89	53865.09
529.07	53654.44
529.24	53429.75
529.41	53993.82
529.58	53832.32
529.75	53841.68
529.92	54057.01
530.09	53954.03
530.26	53991.48
530.43	54181.06
530.60	53942.33
530.77	54040.63
530.94	54195.10
531.11	54045.31
531.28	54639.81
531.46	54490.01
531.63	54375.33
531.80	54251.28
531.97	54688.96
532.14	54468.95
532.31	54693.64
532.48	54674.91
532.65	54784.92
532.82	54684.28
532.99	54784.92
533.16	54944.08
533.33	55145.36
533.50	55161.75
533.67	54883.22
533.84	54803.64
534.01	54967.48
534.18	55110.25
534.35	55536.23
534.52	55388.78
534.69	55360.69
534.86	55679.00
535.03	55274.09
535.20	55154.72
535.37	55356.01
535.54	55751.56
535.71	55416.86
535.88	55585.38
536.05	55709.43
536.22	55767.94
536.38	55849.86
536.55	55899.01
536.72	55693.05
536.89	55529.21
537.06	55828.80
537.23	55660.28
537.40	55779.65
537.57	55819.44
537.74	55971.57
537.91	56104.98
538.08	55987.95
538.25	55927.10
538.42	56303.93
538.59	56303.93
538.75	56254.78
538.92	56161.15
539.09	56530.96
539.26	56392.87
539.43	56240.73
539.60	56556.70
539.77	56395.21
539.94	56395.21
540.11	56523.94
540.28	56690.12
540.44	56839.91
540.61	56638.62
540.78	56402.23
540.95	56573.09
541.12	56406.91
541.29	56860.97
541.46	56545.00
541.62	56762.67
541.79	56853.95
541.96	56348.40
542.13	56797.78
542.30	56655.01
542.47	57092.69
542.63	57057.58
542.80	56828.21
542.97	57066.94
543.14	57448.45
543.31	57223.76
543.48	57312.70
543.64	57560.79
543.81	57539.73
543.98	57354.83
544.15	57492.92
544.32	57825.28
544.48	57886.13
544.65	57710.59
544.82	57455.47
544.99	57340.78
545.16	57502.28
545.32	57638.03
545.49	57790.17
545.66	58024.22
545.83	57841.66
546.00	58047.63
546.16	57813.57
546.33	57785.49
546.50	57759.74
546.67	57935.28
546.83	57602.92
547.00	57893.15
547.17	58089.76
547.34	57979.75
547.50	57954.00
547.67	58183.38
547.84	58295.72
548.00	58309.77
548.17	58298.06
548.34	58452.54
548.51	58401.05
548.67	58262.96
548.84	58417.43
549.01	58232.53
549.18	58529.78
549.34	58333.17
549.51	58433.81
549.68	58450.20
549.84	58574.25
550.01	58705.32
550.18	58567.23
550.34	58663.19
550.51	58548.50
550.68	58494.67
550.84	58412.75
551.01	58885.54
551.18	58693.61
551.34	58745.11
551.51	58665.53
551.68	58684.25
551.84	58717.02
552.01	58705.32
552.18	58883.20
552.34	58726.38
552.51	58745.11
552.68	58667.87
552.84	59011.93
553.01	59093.85
553.18	59157.04
553.34	59098.53
553.51	58815.32
553.67	59000.22
553.84	59257.68
554.01	58869.15
554.17	59405.14
554.34	59166.40
554.51	59358.33
554.67	59196.83
554.84	59245.98
555.00	59100.87
555.17	59124.27
555.33	59147.68
555.50	59133.63
555.67	59180.45
555.83	59379.39
556.00	59278.75
556.16	59660.26
556.33	59517.48
556.50	59377.05
556.66	59599.40
556.83	59103.21
556.99	59587.70
557.16	59700.04
557.32	59796.01
557.49	59728.13
557.65	59351.30
557.82	59550.25
557.98	59416.84
558.15	59697.70
558.32	59856.86
558.48	59648.55
558.65	59597.06
558.81	59470.67
558.98	59793.67
559.14	59732.81
559.31	59924.74
559.47	59821.75
559.64	59845.16
559.80	59913.03
559.97	59922.40
560.13	59863.88
560.30	59870.90
560.46	59877.93
560.63	59999.63
560.79	59957.50
560.96	60018.36
561.12	59852.18
561.29	59966.87
561.45	59931.76
561.61	60053.47
561.78	59910.69
561.94	60093.25
562.11	59994.95
562.27	60001.97
562.44	60205.60
562.60	60275.82
562.77	60065.17
562.93	60097.94
563.10	60175.17
563.26	59955.16
563.42	60514.55
563.59	60104.96
563.75	60406.89
563.92	60172.83
564.08	60203.26
564.24	60240.71
564.41	60170.49
564.57	60512.21
564.74	60154.11
564.90	60453.70
565.07	60250.07
565.23	60334.33
565.39	60317.95
565.56	60472.42
565.72	60411.57
565.88	60175.17
566.05	60376.46
566.21	60346.03
566.38	60383.48
566.54	60301.56
566.70	60669.03
566.87	60544.98
567.03	60402.21
567.19	60727.54
567.36	60526.25
567.52	60549.66
567.68	60603.49
567.85	60657.32
568.01	60566.04
568.17	60306.24
568.34	60467.74
568.50	60437.31
568.66	60411.57
568.83	60563.70
568.99	60364.76
569.15	60729.88
569.32	60575.40
569.48	60486.46
569.64	60608.17
569.81	60823.50
569.97	60444.33
570.13	60638.60
570.30	60367.10
570.46	60582.43
570.62	60584.77
570.78	60935.85
570.95	60591.79
571.11	60690.09
571.27	60523.91
571.43	60596.47
571.60	60886.70
571.76	60694.77
571.92	60669.03
572.09	60701.79
572.25	60477.10
572.41	60905.42
572.57	60727.54
572.74	61190.97
572.90	60846.91
573.06	60762.65
573.22	60690.09
573.38	60746.26
573.55	60584.77
573.71	60896.06
573.87	61062.24
574.03	60795.42
574.20	60835.20
574.36	60903.08
574.52	61146.50
574.68	60985.00
574.84	60889.04
575.01	61059.90
575.17	60933.51
575.33	60671.37
575.49	60977.98
575.65	61120.75
575.82	61013.08
575.98	61024.79
576.14	61071.60
576.30	61155.86
576.46	60980.32
576.62	60715.84
576.79	60849.25
576.95	60746.26
577.11	60987.34
577.27	61087.98
577.43	61036.49
577.59	60966.27
577.75	61057.56
577.92	60963.93
578.08	60896.06
578.24	61132.45
578.40	61148.84
578.56	61197.99
578.72	60879.67
578.88	61279.91
579.04	61169.90
579.21	61202.67
579.37	61169.90
579.53	61097.34
579.69	60874.99
579.85	61008.40
580.01	61043.51
580.17	60931.17
580.33	61195.65
580.49	61165.22
580.65	61050.53
580.82	61073.94
580.98	61008.40
581.14	61176.92
581.30	61132.45
581.46	61020.11
581.62	61233.10
581.78	61078.62
581.94	61305.65
582.10	61286.93
582.26	61207.35
582.42	61050.53
582.58	61165.22
582.74	61076.28
582.90	61017.77
583.06	60856.27
583.22	60963.93
583.38	61315.01
583.54	61268.20
583.70	61172.24
583.86	61284.59
584.02	61155.86
584.18	61167.56
584.34	61200.33
584.50	61282.25
584.66	61223.73
584.82	60870.31
584.98	61228.41
585.14	61172.24
585.30	61165.22
585.46	61165.22
585.62	61258.84
585.78	61385.23
585.94	61080.96
586.10	61127.77
586.26	61118.41
586.42	61233.10
586.58	61385.23
586.74	61233.10
586.90	61078.62
587.06	61219.05
587.22	61237.78
587.38	61172.24
587.54	61387.57
587.70	61481.19
587.86	61279.91
588.02	61209.69
588.18	61298.63
588.34	61305.65
588.49	61345.44
