SpectraSuite Data File
++++++++++++++++++++++++++++++++++++
Date: Fri Oct 25 10:43:54 EDT 2013
User: price-jones
Dark Spectrum Present: No
Reference Spectrum Present: No
Number of Sampled Component Spectra: 1
Spectrometers: USB2+H05261
Integration Time (usec): 100000 (USB2+H05261)
Spectra Averaged: 1 (USB2+H05261)
Boxcar Smoothing: 0 (USB2+H05261)
Correct for Electrical Dark: No (USB2+H05261)
Strobe/Lamp Enabled: No (USB2+H05261)
Correct for Detector Non-linearity: No (USB2+H05261)
Correct for Stray Light: No (USB2+H05261)
Number of Pixels in Processed Spectrum: 2048
>>>>>Begin Processed Spectral Data<<<<<
365.73	112.35
365.92	112.35
366.12	112.35
366.32	60.85
366.52	42.13
366.72	14.04
366.91	0.00
367.11	2.34
367.31	51.49
367.51	37.45
367.70	9.36
367.90	23.41
368.10	14.04
368.30	35.11
368.49	32.77
368.69	110.01
368.89	84.26
369.09	79.58
369.28	81.92
369.48	72.56
369.68	18.72
369.87	138.09
370.07	88.94
370.27	149.79
370.47	262.14
370.66	353.42
370.86	414.27
371.06	472.79
371.25	463.43
371.45	425.98
371.65	524.28
371.84	435.34
372.04	430.66
372.24	503.22
372.44	486.83
372.63	528.96
372.83	454.06
373.03	554.71
373.22	582.79
373.42	482.15
373.62	517.26
373.81	585.13
374.01	603.86
374.21	566.41
374.40	573.43
374.60	592.16
374.79	596.84
374.99	575.77
375.19	557.05
375.38	589.82
375.58	514.92
375.78	622.58
375.97	676.41
376.17	655.35
376.37	674.07
376.56	608.54
376.76	613.22
376.95	688.12
377.15	636.63
377.35	730.25
377.54	599.18
377.74	634.29
377.93	704.50
378.13	603.86
378.33	676.41
378.52	634.29
378.72	653.01
378.91	772.38
379.11	709.18
379.31	755.99
379.50	624.92
379.70	777.06
379.89	704.50
380.09	692.80
380.28	699.82
380.48	753.65
380.68	681.10
380.87	667.05
381.07	753.65
381.26	727.91
381.46	706.84
381.65	760.67
381.85	732.59
382.04	622.58
382.24	763.01
382.43	779.40
382.63	828.55
382.83	746.63
383.02	791.10
383.22	802.80
383.41	802.80
383.61	819.19
383.80	863.66
384.00	695.14
384.19	814.51
384.39	842.59
384.58	786.42
384.78	840.25
384.97	727.91
385.17	802.80
385.36	807.48
385.56	788.76
385.75	837.91
385.95	880.04
386.14	770.04
386.34	887.06
386.53	833.23
386.72	798.12
386.92	844.93
387.11	821.53
387.31	971.32
387.50	894.08
387.70	929.19
387.89	945.58
388.09	896.43
388.28	983.02
388.48	938.55
388.67	966.64
388.86	936.21
389.06	971.32
389.25	959.62
389.45	964.30
389.64	1039.20
389.84	1041.54
390.03	1039.20
390.22	1013.45
390.42	1165.59
390.61	1170.27
390.81	990.05
391.00	1179.63
391.19	1146.86
391.39	1111.75
391.58	1125.80
391.78	1130.48
391.97	1118.78
392.16	1064.94
392.36	1174.95
392.55	1078.99
392.75	1060.26
392.94	1027.50
393.13	1064.94
393.33	983.02
393.52	1128.14
393.71	1100.05
393.91	1186.65
394.10	1181.97
394.29	1196.01
394.49	1196.01
394.68	1266.23
394.88	1256.87
395.07	1291.98
395.26	1249.85
395.46	1331.76
395.65	1284.95
395.84	1320.06
396.04	1247.51
396.23	1170.27
396.42	1263.89
396.62	1172.61
396.81	1160.91
397.00	1203.04
397.19	1418.36
397.39	1345.81
397.58	1469.86
397.77	1458.15
397.97	1535.39
398.16	1561.14
398.35	1488.58
398.55	1387.94
398.74	1584.54
398.93	1694.55
399.12	1549.43
399.32	1479.22
399.51	1511.99
399.70	1654.76
399.90	1703.91
400.09	1640.72
400.28	1689.87
400.47	1678.16
400.67	1767.10
400.86	1799.87
401.05	1701.57
401.24	1757.74
401.44	1832.64
401.63	1760.08
401.82	1860.73
402.01	1687.53
402.21	1806.89
402.40	1902.86
402.59	1860.73
402.78	1834.98
402.97	1856.04
403.17	1884.13
403.36	1895.83
403.55	2036.27
403.74	2043.29
403.93	2026.90
404.13	2024.56
404.32	1874.77
404.51	1980.09
404.70	2012.86
404.89	1930.94
405.09	2143.93
405.28	1970.73
405.47	2040.95
405.66	2050.31
405.85	2188.40
406.05	2104.14
406.24	2073.71
406.43	2139.25
406.62	2160.31
406.81	2195.42
407.00	2202.44
407.20	2064.35
407.39	2190.74
407.58	2246.91
407.77	2310.11
407.96	2256.28
408.15	2387.35
408.34	2352.24
408.54	2492.67
408.73	2333.51
408.92	2408.41
409.11	2424.80
409.30	2342.88
409.49	2380.32
409.68	2422.45
409.87	2356.92
410.07	2436.50
410.26	2513.74
410.45	2513.74
410.64	2406.07
410.83	2626.08
411.02	2623.74
411.21	2654.17
411.40	2682.25
411.59	2761.83
411.78	2766.51
411.98	2862.48
412.17	2853.11
412.36	2803.96
412.55	2981.84
412.74	2679.91
412.93	2715.02
413.12	2743.11
413.31	2993.55
413.50	2923.33
413.69	2981.84
413.88	3002.91
414.07	2981.84
414.26	3063.76
414.45	3192.49
414.64	3126.96
414.83	3206.53
415.02	3115.25
415.22	3346.97
415.41	3300.16
415.60	3283.77
415.79	3269.73
415.98	3335.26
416.17	3419.52
416.36	3447.61
416.55	3550.59
416.74	3403.14
416.93	3454.63
417.12	3370.37
417.31	3559.95
417.50	3522.51
417.69	3679.32
417.88	3595.06
418.07	3559.95
418.26	3501.44
418.45	3637.19
418.64	3789.33
418.83	3770.60
419.02	3728.47
419.21	3873.59
419.39	3845.50
419.58	3728.47
419.77	3632.51
419.96	3826.78
420.15	3901.67
420.34	3925.08
420.53	3777.62
420.72	4102.96
420.91	4021.04
421.10	3953.16
421.29	4189.56
421.48	4067.85
421.67	4084.23
421.86	3911.04
422.05	3899.33
422.24	3920.40
422.43	3908.69
422.61	3920.40
422.80	4058.49
422.99	4021.04
423.18	4091.26
423.37	4198.92
423.56	4180.20
423.75	4194.24
423.94	4095.94
424.13	3927.42
424.32	4004.66
424.50	4070.19
424.69	4215.30
424.88	4170.83
425.07	4100.62
425.26	4086.58
425.45	4191.90
425.64	4107.64
425.83	4086.58
426.01	4273.82
426.20	4208.28
426.39	4201.26
426.58	4032.74
426.77	3969.55
426.96	4086.58
427.15	4109.98
427.33	4135.73
427.52	4255.09
427.71	4215.30
427.90	4334.67
428.09	4421.27
428.28	4355.74
428.46	4332.33
428.65	4329.99
428.84	4381.48
429.03	4475.10
429.22	4327.65
429.40	4294.88
429.59	4266.80
429.78	4140.41
429.97	4009.34
430.16	4250.41
430.34	4257.43
430.53	4329.99
430.72	4465.74
430.91	4496.17
431.10	4423.61
431.28	4578.09
431.47	4760.65
431.66	4887.04
431.85	4634.26
432.03	4814.48
432.22	4985.34
432.41	4833.21
432.60	5034.49
432.79	5109.39
432.97	5004.07
433.16	4894.06
433.35	4830.87
433.54	4999.38
433.72	4819.16
433.91	4781.71
434.10	4922.15
434.28	4985.34
434.47	5139.82
434.66	5071.94
434.85	5069.60
435.03	5132.79
435.22	5137.48
435.41	5507.28
435.59	5334.08
435.78	5282.59
435.97	5270.89
436.16	5270.89
436.34	5376.21
436.53	5476.85
436.72	5355.15
436.90	5275.57
437.09	5493.24
437.28	5170.24
437.46	5254.50
437.65	5308.34
437.84	5329.40
438.02	5406.64
438.21	5404.30
438.40	5385.57
438.58	5631.33
438.77	5518.98
438.96	5746.02
439.14	5736.65
439.33	5944.96
439.52	5832.62
439.70	5968.37
439.89	5720.27
440.08	5907.51
440.26	5916.87
440.45	6057.31
440.63	6090.07
440.82	6162.63
441.01	6251.57
441.19	6368.60
441.38	6319.45
441.57	6387.32
441.75	6368.60
441.94	6443.49
442.12	6630.74
442.31	6628.40
442.50	6586.27
442.68	6656.48
442.87	6637.76
443.05	6457.54
443.24	6534.78
443.43	6752.45
443.61	6579.25
443.80	6913.94
443.98	6785.21
444.17	6450.52
444.35	6810.96
444.54	6944.37
444.73	6773.51
444.91	6572.22
445.10	6719.68
445.28	6740.74
445.47	6534.78
445.65	6595.63
445.84	6745.42
446.02	6832.02
446.21	6825.00
446.39	6895.22
446.58	6902.24
446.77	7138.63
446.95	6869.47
447.14	7047.35
447.32	6995.86
447.51	7026.29
447.69	7033.31
447.88	6897.56
448.06	7035.65
448.25	6855.43
448.43	7297.79
448.62	7035.65
448.80	6979.48
448.99	7094.16
449.17	7105.87
449.36	7045.01
449.54	7307.15
449.73	7494.40
449.91	7307.15
450.10	7382.05
450.28	7459.29
450.46	7431.20
450.65	7606.74
450.83	7428.86
451.02	7360.98
451.20	7461.63
451.39	7463.97
451.57	7482.69
451.76	7693.34
451.94	7480.35
452.13	7623.12
452.31	7653.55
452.49	7300.13
452.68	7531.84
452.86	7641.85
453.05	7538.87
453.23	7786.96
453.42	7618.44
453.60	7637.17
453.78	7857.18
453.97	7543.55
454.15	7613.76
454.34	7775.26
454.52	7943.78
454.70	7859.52
454.89	7927.39
455.07	7815.05
455.26	8074.85
455.44	8114.64
455.62	8177.83
455.81	8177.83
455.99	8229.32
456.17	8098.25
456.36	8442.31
456.54	8217.62
456.73	8332.31
456.91	8610.83
457.09	8482.10
457.28	8643.60
457.46	8393.16
457.64	8674.03
457.83	8416.57
458.01	8348.69
458.19	8655.30
458.38	8379.12
458.56	8662.32
458.74	8461.04
458.93	8615.51
459.11	8650.62
459.29	8645.94
459.48	8606.15
459.66	8608.49
459.84	8767.65
460.03	9088.30
460.21	8769.99
460.39	8901.06
460.57	8781.69
460.76	8973.61
460.94	9217.03
461.12	9195.96
461.31	9179.58
461.49	8997.02
461.67	8947.87
461.85	9327.03
462.04	9188.94
462.22	9408.95
462.40	9380.87
462.59	9231.07
462.77	9167.88
462.95	9310.65
463.13	9315.33
463.32	9156.18
463.50	9179.58
463.68	9191.28
463.86	9451.08
464.05	9210.01
464.23	9320.01
464.41	9497.89
464.59	9320.01
464.78	9628.96
464.96	9540.02
465.14	9586.83
465.32	9748.33
465.50	9949.62
465.69	9554.07
465.87	9432.36
466.05	9523.64
466.23	9439.38
466.41	9544.70
466.60	10019.83
466.78	9647.69
466.96	9713.22
467.14	9516.62
467.32	9678.12
467.51	9884.08
467.69	9502.58
467.87	9902.81
468.05	9909.83
468.23	9853.66
468.41	9778.76
468.60	9891.10
468.78	9970.68
468.96	9935.57
469.14	9991.75
469.32	10090.05
469.50	9928.55
469.69	10223.46
469.87	10340.49
470.05	10085.37
470.23	10270.27
470.41	10427.09
470.59	10609.65
470.77	10352.19
470.95	10424.75
471.14	10391.98
471.32	10399.00
471.50	10785.19
471.68	10824.98
471.86	10991.16
472.04	10906.90
472.22	11007.54
472.40	10752.42
472.58	10558.16
472.77	11016.90
472.95	10911.58
473.13	11435.86
473.31	10920.94
473.49	11138.61
473.67	10995.84
473.85	11159.67
474.03	11396.07
474.21	11529.48
474.39	11550.54
474.57	11557.57
474.75	11770.55
474.93	11686.29
475.12	11637.14
475.30	11648.85
475.48	11494.37
475.66	11751.83
475.84	11522.46
476.02	11836.09
476.20	11754.17
476.38	12121.63
476.56	12313.56
476.74	12301.86
476.92	12173.13
477.10	12257.39
477.28	12559.31
477.46	12641.23
477.64	12807.41
477.82	12973.59
478.00	13102.32
478.18	13034.44
478.36	13151.47
478.54	13371.48
478.72	13294.24
478.90	13420.63
479.08	13731.92
479.26	13748.31
479.44	13748.31
479.62	13729.58
479.80	13961.30
479.98	14104.07
480.16	14204.71
480.34	14211.73
480.52	14384.93
480.70	14185.99
480.88	14420.04
481.06	14572.18
481.24	14420.04
481.41	14607.28
481.59	14829.63
481.77	14899.85
481.95	15056.67
482.13	15178.37
482.31	15143.27
482.49	15501.37
482.67	15424.13
482.85	15466.26
483.03	15695.63
483.21	15868.83
483.39	15915.64
483.57	15932.03
483.74	16018.63
483.92	16240.98
484.10	16184.80
484.28	16620.14
484.46	16751.21
484.64	16968.88
484.82	16685.68
485.00	16510.14
485.18	17142.08
485.35	16938.46
485.53	16840.15
485.71	16601.42
485.89	16999.31
486.07	16929.09
486.25	17224.00
486.43	17095.27
486.61	17317.62
486.78	18005.74
486.96	18026.81
487.14	18586.19
487.32	18420.02
487.50	18895.14
487.68	18796.84
487.85	18977.06
488.03	19405.38
488.21	19080.05
488.39	19267.29
488.57	19372.61
488.75	19286.01
488.92	19941.36
489.10	20173.08
489.28	20105.20
489.46	20505.43
489.64	20526.50
489.81	20936.09
489.99	21167.80
490.17	20821.41
490.35	21200.57
490.53	21235.68
490.70	21135.04
490.88	21242.70
491.06	21455.69
491.24	21797.41
491.41	21645.27
491.59	21886.35
491.77	21511.86
491.95	21940.18
492.13	21949.54
492.30	22375.52
492.48	22396.59
492.66	22745.33
492.84	22513.61
493.01	22953.63
493.19	23257.90
493.37	23007.47
493.54	23405.36
493.72	23393.65
493.90	23688.56
494.08	23496.64
494.25	23667.50
494.43	23896.87
494.61	24491.37
494.79	24393.06
494.96	24383.70
495.14	24144.97
495.32	24643.50
495.49	24224.54
495.67	24723.08
495.85	24802.66
496.02	25053.09
496.20	25472.05
496.38	25333.96
496.55	25366.73
496.73	26038.46
496.91	25858.24
497.09	25951.86
497.26	25944.84
497.44	25881.64
497.62	25923.77
497.79	26211.66
497.97	25926.11
498.14	26513.59
498.32	26544.02
498.50	26752.32
498.67	27105.74
498.85	27140.85
499.03	27101.06
499.20	27393.63
499.38	27159.58
499.56	27161.92
499.73	27564.49
499.91	27667.47
500.08	27765.78
500.26	27285.97
500.44	27175.96
500.61	27704.92
500.79	27545.76
500.97	27770.46
501.14	27885.14
501.32	27477.89
501.49	28418.78
501.67	28226.86
501.84	28517.09
502.02	28437.51
502.20	28683.27
502.37	28432.83
502.55	28601.35
502.72	28933.70
502.90	28861.15
503.07	28863.49
503.25	29010.94
503.43	28989.88
503.60	29142.01
503.78	29090.52
503.95	29275.42
504.13	29347.98
504.30	29425.22
504.48	29535.22
504.65	29785.66
504.83	29928.43
505.01	30520.59
505.18	30265.47
505.36	30277.17
505.53	30749.96
505.71	30684.42
505.88	30359.09
506.06	30321.64
506.23	30705.49
506.41	30565.06
506.58	30775.70
506.76	31206.36
506.93	30939.54
507.11	30939.54
507.28	30892.73
507.46	31126.78
507.63	30888.05
507.81	30932.52
507.98	31381.90
508.16	31051.89
508.33	31564.46
508.50	31941.29
508.68	31747.03
508.85	32180.03
509.03	31915.54
509.20	31941.29
509.38	32418.76
509.55	32058.32
509.73	32170.66
509.90	32510.04
510.08	32268.97
510.25	32573.24
510.42	32713.67
510.60	33106.88
510.77	33186.46
510.95	33354.97
511.12	32732.39
511.30	33186.46
511.47	33427.53
511.64	33111.56
511.82	33743.50
511.99	33357.32
512.17	33376.04
512.34	33230.93
512.51	33530.51
512.69	33345.61
512.86	33993.94
513.04	33773.93
513.21	34052.45
513.38	33874.57
513.56	33745.84
513.73	33963.51
513.90	33926.07
514.08	34066.50
514.25	34445.66
514.43	33703.71
514.60	34635.25
514.77	34391.83
514.95	34946.54
515.12	34321.62
515.29	34668.02
515.47	35473.16
515.64	35431.03
515.81	34834.19
515.99	34775.68
516.16	34534.60
516.33	34707.80
516.51	34394.17
516.68	34534.60
516.85	34740.57
517.03	34668.02
517.20	35061.22
517.37	35150.17
517.54	35435.71
517.72	35438.05
517.89	34897.39
518.06	34752.27
518.24	35072.93
518.41	35541.03
518.58	35744.66
518.75	35618.27
518.93	35955.31
519.10	36079.36
519.27	36065.31
519.45	35875.73
519.62	36219.79
519.79	36629.38
519.96	36268.94
520.14	36596.62
520.31	36002.12
520.48	36486.61
520.65	36573.21
520.83	37090.47
521.00	36854.08
521.17	37324.52
521.34	37310.48
521.52	36877.48
521.69	37434.53
521.86	37713.05
522.03	37862.85
522.20	37429.85
522.38	37717.73
522.55	37514.11
522.72	37008.55
522.89	37298.78
523.07	37844.12
523.24	37434.53
523.41	38045.41
523.58	37984.55
523.75	38007.96
523.92	38326.27
524.10	38326.27
524.27	38347.34
524.44	38220.95
524.61	38202.22
524.78	38483.09
524.96	38696.08
525.13	38632.88
525.30	38501.81
525.47	39246.10
525.64	38792.04
525.81	38384.79
525.98	38682.03
526.16	38232.65
526.33	38518.20
526.50	38864.60
526.67	38019.66
526.84	38197.54
527.01	38356.70
527.18	38733.53
527.36	39077.58
527.53	39531.65
527.70	39665.06
527.87	39475.48
528.04	39037.80
528.21	39548.03
528.38	39927.20
528.55	39545.69
528.72	39899.11
528.89	39943.58
529.07	39936.56
529.24	39952.94
529.41	39709.53
529.58	40023.16
529.75	39690.80
529.92	40114.44
530.09	40137.85
530.26	39899.11
530.43	40435.10
530.60	40308.71
530.77	40182.32
530.94	40299.34
531.11	40638.72
531.28	40996.82
531.46	41064.70
531.63	40816.60
531.80	40533.40
531.97	40404.67
532.14	40687.87
532.31	40381.26
532.48	40554.46
532.65	40793.20
532.82	40844.69
532.99	41146.62
533.16	41130.23
533.33	41085.76
533.50	40994.48
533.67	41205.13
533.84	40823.62
534.01	40840.01
534.18	40821.28
534.35	41258.96
534.52	41015.55
534.69	41675.58
534.86	41347.90
535.03	41474.29
535.20	41626.43
535.37	42253.69
535.54	41830.05
535.71	42202.20
535.88	41989.21
536.05	41486.00
536.22	41811.33
536.38	41930.70
536.55	41514.08
536.72	41965.81
536.89	41570.25
537.06	42103.90
537.23	42625.84
537.40	42387.10
537.57	42277.10
537.74	42387.10
537.91	42602.43
538.08	42225.60
538.25	41991.55
538.42	42291.14
538.59	42239.65
538.75	42080.49
538.92	42611.79
539.09	42780.31
539.26	42759.25
539.43	42651.58
539.60	42253.69
539.77	42314.55
539.94	42801.38
540.11	42092.19
540.28	42099.22
540.44	42604.77
540.61	42635.20
540.78	42188.16
540.95	42590.73
541.12	42670.31
541.29	42969.90
541.46	42689.03
541.62	42930.11
541.79	43295.23
541.96	42794.36
542.13	43201.61
542.30	42852.87
542.47	43407.58
542.63	43241.40
542.80	43068.20
542.97	43538.65
543.14	43723.55
543.31	43496.52
543.48	43473.11
543.64	44044.20
543.81	44222.08
543.98	43805.47
544.15	43622.90
544.32	43845.26
544.48	44533.37
544.65	44079.31
544.82	44039.52
544.99	43938.88
545.16	44055.90
545.32	43789.08
545.49	44605.93
545.66	44388.26
545.83	44655.08
546.00	44577.84
546.16	44091.01
546.33	43948.24
546.50	44299.32
546.67	44395.28
546.83	44416.35
547.00	44474.86
547.17	44524.01
547.34	44058.24
547.50	44439.75
547.67	44697.21
547.84	44409.32
548.00	44971.05
548.17	44907.86
548.34	44498.26
548.51	45291.71
548.67	44659.76
548.84	44849.35
549.01	44502.95
549.18	44917.22
549.34	44861.05
549.51	45347.88
549.68	45123.19
549.84	45104.46
550.01	44940.63
550.18	44903.18
550.34	45298.73
550.51	44591.89
550.68	45017.86
550.84	44278.25
551.01	45212.13
551.18	45085.74
551.34	44741.68
551.51	45186.38
551.68	45514.06
551.84	45223.83
552.01	45268.30
552.18	45027.23
552.34	44884.45
552.51	45387.67
552.68	45223.83
552.84	45731.73
553.01	45413.41
553.18	45160.64
553.34	45146.59
553.51	45462.57
553.67	45563.21
553.84	46237.28
554.01	45710.66
554.17	45687.26
554.34	45610.02
554.51	45572.57
554.67	45577.25
554.84	46026.63
555.00	45675.55
555.17	45523.42
555.33	46059.40
555.50	46050.04
555.67	45989.19
555.83	45989.19
556.00	45530.44
556.16	46227.92
556.33	45869.82
556.50	45727.05
556.66	46117.92
556.83	45263.62
556.99	46064.08
557.16	45925.99
557.32	46047.70
557.49	46000.89
557.65	45823.01
557.82	45855.78
557.98	46024.29
558.15	46043.02
558.32	46218.56
558.48	46216.22
558.65	46260.69
558.81	46068.76
558.98	45689.60
559.14	46075.79
559.31	45972.80
559.47	46164.73
559.64	46153.02
559.80	46286.43
559.97	45977.48
560.13	46036.00
560.30	45944.72
560.46	46078.13
560.63	46457.29
560.79	46579.00
560.96	46092.17
561.12	46157.70
561.29	46113.23
561.45	46579.00
561.61	46536.87
561.78	46209.20
561.94	46403.46
562.11	46450.27
562.27	46185.79
562.44	46436.23
562.60	46595.38
562.77	46302.82
562.93	46597.73
563.10	46588.36
563.26	46665.60
563.42	46452.61
563.59	46452.61
563.75	46256.01
563.92	47157.11
564.08	46579.00
564.24	46696.03
564.41	46728.80
564.57	46604.75
564.74	46305.16
564.90	46618.79
565.07	46845.82
565.23	46321.54
565.39	46621.13
565.56	46478.36
565.72	46560.28
565.88	46550.91
566.05	46267.71
566.21	46604.75
566.38	46576.66
566.54	46185.79
566.70	46532.19
566.87	46852.84
567.03	47072.85
567.19	46925.40
567.36	46951.15
567.52	46595.38
567.68	47035.41
567.85	46630.49
568.01	46857.52
568.17	46492.40
568.34	46656.24
568.50	47105.62
568.66	46885.61
568.83	47061.15
568.99	46082.81
569.15	46714.75
569.32	46969.87
569.48	46464.32
569.64	47124.35
569.81	46953.49
569.97	46663.26
570.13	46878.59
570.30	46616.45
570.46	46057.06
570.62	46628.15
570.78	46248.99
570.95	46527.51
571.11	46806.03
571.27	46651.56
571.43	46810.71
571.60	47014.34
571.76	46735.82
571.92	46679.64
572.09	47037.75
572.25	46986.25
572.41	46852.84
572.57	47056.47
572.74	47152.43
572.90	47185.20
573.06	47070.51
573.22	47133.71
573.38	46740.50
573.55	46997.96
573.71	47114.98
573.87	46993.28
574.03	46988.60
574.20	46913.70
574.36	46770.93
574.52	46941.78
574.68	46890.29
574.84	47199.24
575.01	46962.85
575.17	46796.67
575.33	46719.43
575.49	47180.52
575.65	46913.70
575.82	46932.42
575.98	46351.97
576.14	47234.35
576.30	47100.94
576.46	46972.21
576.62	46855.18
576.79	46897.31
576.95	46958.17
577.11	46686.67
577.27	47360.74
577.43	46918.38
577.59	46747.52
577.75	46892.63
577.92	46391.76
578.08	46850.50
578.24	46714.75
578.40	47040.09
578.56	46885.61
578.72	46939.44
578.88	47402.87
579.04	47302.23
579.21	46983.91
579.37	46749.86
579.53	46892.63
579.69	46930.08
579.85	46887.95
580.01	47105.62
580.17	46787.31
580.33	46883.27
580.49	46976.89
580.65	47196.90
580.82	47030.72
580.98	46909.02
581.14	46571.98
581.30	47023.70
581.46	46724.11
581.62	47421.59
581.78	46859.87
581.94	47510.53
582.10	47171.16
582.26	47250.74
582.42	46857.52
582.58	47082.22
582.74	47543.30
582.90	47250.74
583.06	47213.29
583.22	47419.25
583.38	47180.52
583.54	47037.75
583.70	47257.76
583.86	47384.15
584.02	46852.84
584.18	47007.32
584.34	47227.33
584.50	47114.98
584.66	47168.82
584.82	46707.73
584.98	47014.34
585.14	46997.96
585.30	46663.26
585.46	47072.85
585.62	46862.21
585.78	46361.33
585.94	46710.07
586.10	47187.54
586.26	47388.83
586.42	47547.98
586.58	47306.91
586.74	47693.10
586.90	46476.02
587.06	46787.31
587.22	47210.95
587.38	46990.94
587.54	47164.14
587.70	47423.93
587.86	47243.71
588.02	47030.72
588.18	47075.19
588.34	46820.08
588.49	46405.80
588.65	46499.42
588.81	46681.98
588.97	46543.89
589.13	46483.04
589.29	46850.50
589.45	46916.04
589.61	46941.78
589.77	47232.01
