SpectraSuite Data File
++++++++++++++++++++++++++++++++++++
Date: Fri Oct 25 11:34:20 EDT 2013
User: price-jones
Dark Spectrum Present: No
Reference Spectrum Present: No
Number of Sampled Component Spectra: 1
Spectrometers: USB2+H05261
Integration Time (usec): 100000 (USB2+H05261)
Spectra Averaged: 1 (USB2+H05261)
Boxcar Smoothing: 0 (USB2+H05261)
Correct for Electrical Dark: No (USB2+H05261)
Strobe/Lamp Enabled: No (USB2+H05261)
Correct for Detector Non-linearity: No (USB2+H05261)
Correct for Stray Light: No (USB2+H05261)
Number of Pixels in Processed Spectrum: 2048
>>>>>Begin Processed Spectral Data<<<<<
365.73	231.71
365.92	231.71
366.12	231.71
366.32	222.35
366.52	128.73
366.72	152.13
366.91	140.43
367.11	124.05
367.31	194.26
367.51	119.37
367.70	124.05
367.90	205.97
368.10	159.16
368.30	166.18
368.49	210.65
368.69	224.69
368.89	191.92
369.09	140.43
369.28	217.67
369.48	191.92
369.68	196.60
369.87	266.82
370.07	278.52
370.27	308.95
370.47	311.29
370.66	461.09
370.86	524.28
371.06	571.09
371.25	554.71
371.45	533.64
371.65	624.92
371.84	573.43
372.04	500.87
372.24	526.62
372.44	575.77
372.63	566.41
372.83	634.29
373.03	545.34
373.22	526.62
373.42	641.31
373.62	648.33
373.81	636.63
374.01	655.35
374.21	699.82
374.40	615.56
374.60	580.45
374.79	657.69
374.99	650.67
375.19	643.65
375.38	695.14
375.58	657.69
375.78	660.03
375.97	685.78
376.17	681.10
376.37	704.50
376.56	662.37
376.76	681.10
376.95	711.52
377.15	627.26
377.35	667.05
377.54	709.18
377.74	660.03
377.93	660.03
378.13	737.27
378.33	681.10
378.52	688.12
378.72	706.84
378.91	751.31
379.11	641.31
379.31	699.82
379.50	688.12
379.70	774.72
379.89	763.01
380.09	634.29
380.28	695.14
380.48	718.54
380.68	737.27
380.87	767.70
381.07	746.63
381.26	727.91
381.46	723.23
381.65	744.29
381.85	744.29
382.04	746.63
382.24	770.04
382.43	805.14
382.63	732.59
382.83	723.23
383.02	777.06
383.22	784.08
383.41	709.18
383.61	781.74
383.80	763.01
384.00	718.54
384.19	793.44
384.39	781.74
384.58	779.40
384.78	821.53
384.97	851.96
385.17	826.21
385.36	730.25
385.56	877.70
385.75	814.51
385.95	767.70
386.14	830.89
386.34	901.11
386.53	891.74
386.72	784.08
386.92	861.32
387.11	788.76
387.31	858.98
387.50	877.70
387.70	894.08
387.89	889.40
388.09	887.06
388.28	795.78
388.48	943.24
388.67	917.49
388.86	898.77
389.06	896.43
389.25	875.36
389.45	997.07
389.64	873.02
389.84	926.85
390.03	978.34
390.22	950.26
390.42	919.83
390.61	940.90
390.81	971.32
391.00	950.26
391.19	983.02
391.39	1039.20
391.58	968.98
391.78	1088.35
391.97	1034.52
392.16	990.05
392.36	987.71
392.55	999.41
392.75	1050.90
392.94	1022.81
393.13	980.68
393.33	1022.81
393.52	966.64
393.71	1041.54
393.91	1081.33
394.10	1055.58
394.29	1015.79
394.49	1128.14
394.68	1114.10
394.88	1114.10
395.07	1170.27
395.26	1149.20
395.46	1151.54
395.65	1196.01
395.84	1228.78
396.04	1153.88
396.23	1158.57
396.42	1081.33
396.62	1181.97
396.81	1130.48
397.00	1165.59
397.19	1184.31
397.39	1221.76
397.58	1207.72
397.77	1181.97
397.97	1221.76
398.16	1252.19
398.35	1156.22
398.55	1233.46
398.74	1282.61
398.93	1350.49
399.12	1383.26
399.32	1273.25
399.51	1282.61
399.70	1348.15
399.90	1282.61
400.09	1394.96
400.28	1406.66
400.47	1383.26
400.67	1345.81
400.86	1427.73
401.05	1376.24
401.24	1378.58
401.44	1336.45
401.63	1465.18
401.82	1425.39
402.01	1366.87
402.21	1465.18
402.40	1345.81
402.59	1423.05
402.78	1418.36
402.97	1521.35
403.17	1427.73
403.36	1507.30
403.55	1497.94
403.74	1451.13
403.93	1535.39
404.13	1540.07
404.32	1610.29
404.51	1533.05
404.70	1523.69
404.89	1607.95
405.09	1703.91
405.28	1589.22
405.47	1685.19
405.66	1664.12
405.85	1659.44
406.05	1652.42
406.24	1701.57
406.43	1713.27
406.62	1736.68
406.81	1699.23
407.00	1715.61
407.20	1724.97
407.39	1769.44
407.58	1727.32
407.77	1741.36
407.96	1767.10
408.15	1816.26
408.34	1888.81
408.54	1842.00
408.73	1783.49
408.92	1921.58
409.11	1893.49
409.30	1893.49
409.49	1933.28
409.68	1987.11
409.87	1989.46
410.07	1952.01
410.26	2022.22
410.45	2031.58
410.64	1923.92
410.83	1952.01
411.02	2064.35
411.21	2054.99
411.40	2092.44
411.59	2176.70
411.78	2101.80
411.98	2085.42
412.17	2188.40
412.36	2155.63
412.55	2197.76
412.74	2249.25
412.93	2277.34
413.12	2162.66
413.31	2361.60
413.50	2317.13
413.69	2349.90
413.88	2410.75
414.07	2417.77
414.26	2459.90
414.45	2551.18
414.64	2502.03
414.83	2523.10
415.02	2586.29
415.22	2562.89
415.41	2635.44
415.60	2621.40
415.79	2640.12
415.98	2668.21
416.17	2759.49
416.36	2719.70
416.55	2567.57
416.74	2696.30
416.93	2787.58
417.12	2782.90
417.31	2796.94
417.50	2876.52
417.69	2862.48
417.88	2899.92
418.07	2839.07
418.26	2754.81
418.45	2902.26
418.64	2892.90
418.83	3026.31
419.02	3014.61
419.21	3063.76
419.39	2916.31
419.58	3026.31
419.77	3005.25
419.96	2988.86
420.15	2981.84
420.34	3005.25
420.53	3028.65
420.72	3141.00
420.91	3124.62
421.10	3066.10
421.29	3332.92
421.48	3138.66
421.67	3204.19
421.86	3166.74
422.05	3213.56
422.24	3150.36
422.43	3234.62
422.61	3272.07
422.80	3232.28
422.99	3258.03
423.18	3342.28
423.37	3440.59
423.56	3316.54
423.75	3346.97
423.94	3204.19
424.13	3105.89
424.32	3164.40
424.50	3307.18
424.69	3480.38
424.88	3475.70
425.07	3435.91
425.26	3293.13
425.45	3391.44
425.64	3321.22
425.83	3288.45
426.01	3297.81
426.20	3342.28
426.39	3337.60
426.58	3372.71
426.77	3438.25
426.96	3379.73
427.15	3398.46
427.33	3578.68
427.52	3508.46
427.71	3581.02
427.90	3456.97
428.09	3494.42
428.28	3534.21
428.46	3538.89
428.65	3686.34
428.84	3740.18
429.03	3721.45
429.22	3529.53
429.40	3707.41
429.59	3719.11
429.78	3538.89
429.97	3581.02
430.16	3674.64
430.34	3843.16
430.53	3719.11
430.72	3747.20
430.91	3758.90
431.10	3702.73
431.28	3691.02
431.47	3749.54
431.66	3798.69
431.85	3861.88
432.03	4135.73
432.22	4072.53
432.41	3904.01
432.60	3875.93
432.79	3915.72
432.97	3983.59
433.16	3911.04
433.35	4007.00
433.54	3948.48
433.72	4018.70
433.91	4039.76
434.10	4187.22
434.28	4007.00
434.47	4152.11
434.66	4189.56
434.85	4166.15
435.03	4234.03
435.22	4159.13
435.41	4344.03
435.59	4156.79
435.78	4255.09
435.97	4423.61
436.16	4353.40
436.34	4198.92
436.53	4355.74
436.72	4301.90
436.90	4255.09
437.09	4437.66
437.28	4297.22
437.46	4315.95
437.65	4365.10
437.84	4634.26
438.02	4535.96
438.21	4435.32
438.40	4475.10
438.58	4416.59
438.77	4592.13
438.96	4547.66
439.14	4706.82
439.33	4652.98
439.52	4667.03
439.70	4786.40
439.89	4760.65
440.08	4954.91
440.26	4863.63
440.45	4755.97
440.63	4826.18
440.82	5149.18
441.01	4894.06
441.19	5004.07
441.38	5219.39
441.57	5151.52
441.75	5118.75
441.94	5294.29
442.12	5151.52
442.31	5380.89
442.50	5280.25
442.68	5088.32
442.87	5313.02
443.05	5315.36
443.24	5413.66
443.43	5425.36
443.61	5488.56
443.80	5511.96
443.98	5444.09
444.17	5102.37
444.35	5444.09
444.54	5490.90
444.73	5511.96
444.91	5582.18
445.10	5399.62
445.28	5420.68
445.47	5460.47
445.65	5556.43
445.84	5652.39
446.02	5717.93
446.21	5589.20
446.39	5575.16
446.58	5577.50
446.77	5762.40
446.95	5266.21
447.14	5486.22
447.32	5441.75
447.51	5633.67
447.69	5446.43
447.88	5600.90
448.06	5542.39
448.25	5561.11
448.43	5781.12
448.62	5570.48
448.80	5689.84
448.99	5549.41
449.17	5687.50
449.36	5593.88
449.54	5748.36
449.73	5884.11
449.91	5884.11
450.10	5837.30
450.28	5809.21
450.46	6064.33
450.65	5994.11
450.83	6106.46
451.02	5909.85
451.20	5940.28
451.39	5902.83
451.57	6005.81
451.76	6181.35
451.94	6064.33
452.13	6059.65
452.31	5961.34
452.49	6003.47
452.68	6141.57
452.86	6113.48
453.05	6293.70
453.23	6338.17
453.42	6190.72
453.60	6115.82
453.78	6366.26
453.97	6291.36
454.15	6209.44
454.34	6164.97
454.52	6368.60
454.70	6518.39
454.89	6228.17
455.07	6284.34
455.26	6614.35
455.44	6450.52
455.62	6483.28
455.81	6668.19
455.99	6722.02
456.17	6691.59
456.36	6562.86
456.54	6672.87
456.73	6724.36
456.91	6815.64
457.09	6832.02
457.28	6773.51
457.46	6752.45
457.64	6972.46
457.83	6876.49
458.01	6801.60
458.19	7098.84
458.38	6930.33
458.56	7082.46
458.74	6789.89
458.93	7066.08
459.11	7021.61
459.29	6970.12
459.48	7211.19
459.66	7166.72
459.84	7180.76
460.03	7246.30
460.21	7068.42
460.39	7056.72
460.57	7260.34
460.76	7272.04
460.94	7213.53
461.12	7304.81
461.31	7133.95
461.49	7112.89
461.67	7110.55
461.85	7363.33
462.04	7300.13
462.22	7882.92
462.40	7564.61
462.59	7365.67
462.77	7588.02
462.95	7651.21
463.13	7543.55
463.32	7513.12
463.50	7672.28
463.68	7611.42
463.86	7742.49
464.05	7438.22
464.23	7648.87
464.41	7623.12
464.59	7588.02
464.78	7850.16
464.96	7730.79
465.14	7679.30
465.32	7784.62
465.50	7723.77
465.69	7985.91
465.87	7765.90
466.05	7723.77
466.23	7831.43
466.41	7866.54
466.60	8142.72
466.78	8037.40
466.96	8002.29
467.14	7955.48
467.32	8004.63
467.51	8065.49
467.69	7908.67
467.87	7836.11
468.05	8035.06
468.23	7941.44
468.41	8149.75
468.60	8255.07
468.78	8369.76
468.96	8182.51
469.14	8423.59
469.32	8332.31
469.50	8198.90
469.69	8404.86
469.87	8374.44
470.05	8446.99
470.23	8615.51
470.41	8578.06
470.59	8652.96
470.77	8510.19
470.95	8505.51
471.14	8762.97
471.32	8348.69
471.50	8816.80
471.68	8805.10
471.86	8929.14
472.04	9015.74
472.22	8947.87
472.40	8889.35
472.58	9041.49
472.77	9032.13
472.95	9132.77
473.13	9195.96
473.31	8915.10
473.49	9090.64
473.67	9064.89
473.85	9198.31
474.03	9305.97
474.21	9432.36
474.39	9610.24
474.57	9404.27
474.75	9701.52
474.93	9596.20
475.12	9654.71
475.30	9572.79
475.48	9626.62
475.66	9998.77
475.84	9635.99
476.02	9994.09
476.20	9998.77
476.38	10207.08
476.56	10256.23
476.74	10312.40
476.92	10380.28
477.10	10066.64
477.28	10312.40
477.46	10300.70
477.64	10410.70
477.82	10459.85
478.00	10768.80
478.18	10658.80
478.36	10883.49
478.54	10920.94
478.72	10871.79
478.90	11098.82
479.08	11087.12
479.26	11253.30
479.44	11506.07
479.62	11681.61
479.80	11564.59
479.98	11648.85
480.16	11992.90
480.34	11665.23
480.52	11796.30
480.70	12081.85
480.88	11838.43
481.06	12135.68
481.24	11995.25
481.41	12152.06
481.59	12203.55
481.77	12255.04
481.95	12395.48
482.13	12589.74
482.31	12573.36
482.49	12849.54
482.67	13217.01
482.85	13025.08
483.03	13111.68
483.21	13160.83
483.39	13331.69
483.57	13172.54
483.74	13273.18
483.92	13556.38
484.10	13542.34
484.28	13734.26
484.46	14036.19
484.64	14223.44
484.82	13956.61
485.00	14242.16
485.18	14331.10
485.35	14757.08
485.53	14441.11
485.71	14569.83
485.89	14878.79
486.07	14956.02
486.25	14846.02
486.43	15000.49
486.61	15243.91
486.78	15225.18
486.96	15484.98
487.14	15400.72
487.32	15826.70
487.50	15447.54
487.68	16437.58
487.85	15962.45
488.03	16418.86
488.21	16432.90
488.39	16269.06
488.57	16535.88
488.75	16842.50
488.92	16872.92
489.10	16807.39
489.28	16685.68
489.46	17125.70
489.64	17071.87
489.81	17605.51
489.99	17469.76
490.17	17795.09
490.35	17846.58
490.53	17891.06
490.70	18127.45
490.88	18122.77
491.06	18218.73
491.24	18265.54
491.41	18473.85
491.59	18511.30
491.77	18689.18
491.95	18948.98
492.13	19077.71
492.30	18956.00
492.48	18986.43
492.66	19201.76
492.84	19143.24
493.01	19630.07
493.19	19412.40
493.37	19529.43
493.54	19590.28
493.72	20039.67
493.90	19840.72
494.08	19880.51
494.25	20360.32
494.43	20372.02
494.61	20535.86
494.79	20751.19
494.96	20737.15
495.14	20680.97
495.32	21160.78
495.49	21172.49
495.67	21142.06
495.85	21380.79
496.02	21275.47
496.20	21635.91
496.38	21511.86
496.55	21743.58
496.73	22164.87
496.91	21776.34
497.09	22115.72
497.26	22001.04
497.44	21961.25
497.62	22277.22
497.79	22649.36
497.97	22654.05
498.14	22642.34
498.32	22913.84
498.50	22831.93
498.67	23136.20
498.85	23115.13
499.03	23028.53
499.20	23199.39
499.38	23669.84
499.56	23372.59
499.73	23421.74
499.91	23641.75
500.08	24182.42
500.26	24088.79
500.44	23637.07
500.61	23840.70
500.79	23990.49
500.97	24306.46
501.14	24449.24
501.32	24346.25
501.49	24355.61
501.67	24870.53
501.84	24348.59
502.02	24474.98
502.20	24484.34
502.37	24961.81
502.55	24837.76
502.72	25160.76
502.90	24910.32
503.07	25118.63
503.25	25216.93
503.43	25378.43
503.60	25467.37
503.78	25511.84
503.95	25603.12
504.13	25820.79
504.30	25795.04
504.48	25862.92
504.65	26047.82
504.83	26143.78
505.01	26450.39
505.18	25830.15
505.36	26356.77
505.53	26738.28
505.71	26590.83
505.88	26651.68
506.06	26452.73
506.23	26691.47
506.41	26656.36
506.58	26857.65
506.76	27072.98
506.93	26920.84
507.11	27030.85
507.28	27515.34
507.46	27061.27
507.63	27388.95
507.81	27051.91
507.98	27342.14
508.16	27711.94
508.33	27814.93
508.50	27735.35
508.68	27641.73
508.85	27908.55
509.03	28229.20
509.20	27810.25
509.38	28432.83
509.55	28030.26
509.73	28348.57
509.90	28353.25
510.08	28552.20
510.25	28608.37
510.42	28973.49
510.60	29032.00
510.77	28940.72
510.95	29418.19
511.12	28739.44
511.30	29106.90
511.47	28973.49
511.64	29104.56
511.82	28865.83
511.99	29507.13
512.17	29518.84
512.34	29301.17
512.51	29898.00
512.69	29752.89
512.86	29472.03
513.04	29710.76
513.21	29799.70
513.38	30260.79
513.56	30103.97
513.73	30209.29
513.90	30483.14
514.08	30146.10
514.25	30649.32
514.43	30525.27
514.60	30586.12
514.77	30380.15
514.95	30539.31
515.12	30646.97
515.29	30661.02
515.47	30904.43
515.64	30822.51
515.81	30951.24
515.99	31211.04
516.16	31204.02
516.33	31344.45
516.51	30953.58
516.68	31201.68
516.85	31475.52
517.03	31573.83
517.20	31573.83
517.37	31295.30
517.54	31639.36
517.72	31885.12
517.89	32023.21
518.06	31974.06
518.24	31910.86
518.41	31964.70
518.58	32278.33
518.75	31730.64
518.93	32374.29
519.10	31828.95
519.27	32442.17
519.45	32098.11
519.62	32533.45
519.79	32591.96
519.96	32545.15
520.14	33146.67
520.31	32570.90
520.48	32980.49
520.65	32886.87
520.83	33392.42
521.00	33551.58
521.17	33333.91
521.34	33277.74
521.52	33249.65
521.69	33425.19
521.86	33259.01
522.03	33448.60
522.20	33694.35
522.38	34087.56
522.55	33483.70
522.72	34115.65
522.89	33998.62
523.07	33905.00
523.24	34333.32
523.41	34272.46
523.58	33986.92
523.75	34534.60
523.92	34087.56
524.10	34281.83
524.27	34487.79
524.44	34820.15
524.61	34766.32
524.78	34632.91
524.96	34625.89
525.13	34579.07
525.30	35168.89
525.47	34649.29
525.64	34658.65
525.81	34787.38
525.98	35119.74
526.16	35206.34
526.33	35161.87
526.50	35339.75
526.67	35021.44
526.84	34951.22
527.01	35260.17
527.18	35421.67
527.36	35407.62
527.53	35915.52
527.70	35821.90
527.87	35908.50
528.04	35498.91
528.21	35959.99
528.38	35578.48
528.55	36172.98
528.72	35948.29
528.89	35754.02
529.07	36084.04
529.24	36280.64
529.41	35976.37
529.58	35896.80
529.75	36545.12
529.92	36327.45
530.09	36208.09
530.26	36315.75
530.43	36760.45
530.60	36554.49
530.77	36620.02
530.94	36697.26
531.11	36636.41
531.28	36847.05
531.46	36847.05
531.63	37151.32
531.80	36725.35
531.97	37500.06
532.14	36715.98
532.31	36978.12
532.48	37113.87
532.65	37177.07
532.82	37151.32
532.99	37581.98
533.16	37240.26
533.33	37666.24
533.50	37663.90
533.67	37783.27
533.84	37144.30
534.01	37649.86
534.18	37280.05
534.35	38057.11
534.52	38047.75
534.69	38045.41
534.86	37715.39
535.03	37867.53
535.20	38101.58
535.37	38256.06
535.54	38110.94
535.71	38190.52
535.88	38520.54
536.05	38335.63
536.22	38667.99
536.38	38253.72
536.55	38199.88
536.72	38380.10
536.89	38445.64
537.06	38211.59
537.23	38962.90
537.40	38717.14
537.57	38719.48
537.74	38462.02
537.91	39000.35
538.08	38438.62
538.25	38581.39
538.42	39470.79
538.59	38920.77
538.75	38857.57
538.92	39012.05
539.09	39374.83
539.26	39077.58
539.43	38951.20
539.60	39615.91
539.77	39229.72
539.94	39798.47
540.11	39978.69
540.28	39154.82
540.44	39496.54
540.61	39810.17
540.78	39414.62
540.95	39321.00
541.12	39601.86
541.29	39370.15
541.46	39922.52
541.62	39620.59
541.79	39875.71
541.96	39351.43
542.13	39145.46
542.30	40046.57
542.47	39915.50
542.63	40449.14
542.80	40252.53
542.97	40257.21
543.14	40573.19
543.31	40364.88
543.48	40458.50
543.64	40816.60
543.81	40411.69
543.98	40968.74
544.15	41053.00
544.32	40774.47
544.48	41153.64
544.65	40744.05
544.82	41251.94
544.99	40425.73
545.16	40706.60
545.32	40854.05
545.49	41085.76
545.66	41493.02
545.83	41118.53
546.00	41546.85
546.16	41099.81
546.33	40950.01
546.50	40662.13
546.67	41404.08
546.83	40924.27
547.00	40999.16
547.17	41469.61
547.34	41174.70
547.50	41764.52
547.67	41722.39
547.84	41383.01
548.00	41581.96
548.17	41918.99
548.34	41570.25
548.51	41916.65
548.67	41865.16
548.84	42274.76
549.01	41600.68
549.18	42052.41
549.34	42080.49
549.51	41640.47
549.68	42010.28
549.84	41677.92
550.01	42319.23
550.18	41914.31
550.34	42380.08
550.51	42583.71
550.68	41886.23
550.84	42237.31
551.01	42476.04
551.18	42057.09
551.34	42108.58
551.51	42225.60
551.68	42829.46
551.84	42185.82
552.01	41989.21
552.18	42342.63
552.34	42087.51
552.51	42588.39
552.68	41947.08
552.84	42340.29
553.01	42454.98
553.18	42314.55
553.34	42967.55
553.51	42646.90
553.67	42817.76
553.84	43271.82
554.01	43225.01
554.17	43257.78
554.34	43440.34
554.51	43236.72
554.67	43180.54
554.84	43349.06
555.00	43037.77
555.17	43290.55
555.33	43409.92
555.50	43014.37
555.67	43377.15
555.83	43496.52
556.00	43395.87
556.16	43849.94
556.33	43264.80
556.50	43782.06
556.66	43510.56
556.83	42887.98
556.99	43784.40
557.16	43650.99
557.32	43693.12
557.49	44030.16
557.65	43405.23
557.82	43543.33
557.98	43894.41
558.15	43505.88
558.32	44294.64
558.48	43587.80
558.65	43742.27
558.81	44282.94
558.98	43786.74
559.14	43828.87
559.31	43590.14
559.47	43732.91
559.64	43704.82
559.80	43973.98
559.97	43929.51
560.13	43903.77
560.30	44098.03
560.46	44128.46
560.63	44470.18
560.79	44299.32
560.96	44325.07
561.12	44399.96
561.29	44409.32
561.45	43955.26
561.61	44208.04
561.78	44058.24
561.94	44406.98
562.11	44210.38
562.27	44154.21
562.44	44027.82
562.60	44311.02
562.77	44371.88
562.93	43878.02
563.10	44959.35
563.26	44428.05
563.42	44847.00
563.59	44655.08
563.75	44648.06
563.92	44465.50
564.08	44870.41
564.24	44505.29
564.41	44498.26
564.57	44587.21
564.74	44573.16
564.90	44444.43
565.07	44538.05
565.23	44275.91
565.39	44563.80
565.56	44793.17
565.72	44392.94
565.88	44685.51
566.05	44816.58
566.21	44933.60
566.38	45109.14
566.54	45017.86
566.70	44816.58
566.87	45139.57
567.03	44542.74
567.19	44992.12
567.36	45071.70
567.52	44634.02
567.68	44811.90
567.85	44886.79
568.01	45050.63
568.17	44786.15
568.34	45205.11
568.50	45301.07
568.66	44769.77
568.83	45284.68
568.99	45605.34
569.15	45148.93
569.32	44858.71
569.48	44966.37
569.64	45511.72
569.81	45317.45
569.97	44940.63
570.13	45146.59
570.30	44758.06
570.46	45078.72
570.62	45151.27
570.78	45485.97
570.95	45104.46
571.11	45511.72
571.27	45193.40
571.43	45113.83
571.60	45233.19
571.76	44891.48
571.92	45174.68
572.09	45139.57
572.25	45158.30
572.41	45162.98
572.57	45235.53
572.74	45684.92
572.90	45488.31
573.06	45605.34
573.22	45397.03
573.38	45546.82
573.55	45352.56
573.71	45982.16
573.87	45174.68
574.03	45762.15
574.20	45647.47
574.36	45750.45
574.52	45574.91
574.68	45518.74
574.84	45607.68
575.01	45970.46
575.17	45778.54
575.33	45371.28
575.49	45310.43
575.65	45977.48
575.82	45652.15
575.98	45567.89
576.14	45834.71
576.30	45666.19
576.46	45200.43
576.62	45724.71
576.79	45659.17
576.95	45406.39
577.11	45345.54
577.27	45312.77
577.43	45502.35
577.59	45532.78
577.75	45806.62
577.92	45549.17
578.08	45364.26
578.24	45626.40
578.40	45769.18
578.56	45572.57
578.72	45495.33
578.88	45591.30
579.04	45385.33
579.21	45521.08
579.37	45584.27
579.53	45710.66
579.69	45832.37
579.85	45766.84
580.01	45771.52
580.17	45720.02
580.33	46272.39
580.49	45748.11
580.65	45855.78
580.82	45544.48
580.98	45710.66
581.14	45404.05
581.30	45797.26
581.46	45762.15
581.62	45830.03
581.78	45581.93
581.94	45867.48
582.10	45659.17
582.26	45900.25
582.42	45839.39
582.58	45670.87
582.74	46017.27
582.90	45996.21
583.06	46057.06
583.22	45492.99
583.38	45748.11
583.54	45605.34
583.70	46054.72
583.86	46220.90
584.02	45815.99
584.18	45869.82
584.34	46024.29
584.50	46450.27
584.66	46256.01
584.82	45963.44
584.98	46248.99
585.14	45944.72
585.30	45935.35
585.46	45815.99
585.62	45488.31
585.78	46344.95
585.94	45478.95
586.10	46054.72
586.26	45495.33
586.42	45675.55
586.58	46117.92
586.74	45521.08
586.90	45783.22
587.06	45577.25
587.22	46089.83
587.38	45961.10
587.54	46148.34
587.70	46529.85
587.86	45998.55
588.02	45792.58
588.18	46061.74
588.34	45792.58
588.49	45867.48
588.65	45911.95
588.81	46099.19
588.97	46703.05
589.13	45902.59
589.29	46110.89
589.45	46239.62
589.61	46312.18
589.77	46138.98
589.93	46021.95
590.08	46368.35
