SpectraSuite Data File
++++++++++++++++++++++++++++++++++++
Date: Fri Oct 25 10:48:05 EDT 2013
User: price-jones
Dark Spectrum Present: No
Reference Spectrum Present: No
Number of Sampled Component Spectra: 1
Spectrometers: USB2+H05261
Integration Time (usec): 100000 (USB2+H05261)
Spectra Averaged: 1 (USB2+H05261)
Boxcar Smoothing: 0 (USB2+H05261)
Correct for Electrical Dark: No (USB2+H05261)
Strobe/Lamp Enabled: No (USB2+H05261)
Correct for Detector Non-linearity: No (USB2+H05261)
Correct for Stray Light: No (USB2+H05261)
Number of Pixels in Processed Spectrum: 2048
>>>>>Begin Processed Spectral Data<<<<<
365.73	135.75
365.92	135.75
366.12	135.75
366.32	135.75
366.52	77.24
366.72	58.51
366.91	30.43
367.11	32.77
367.31	21.06
367.51	0.00
367.70	9.36
367.90	35.11
368.10	9.36
368.30	0.00
368.49	44.47
368.69	88.94
368.89	98.30
369.09	49.15
369.28	81.92
369.48	46.81
369.68	140.43
369.87	147.45
370.07	93.62
370.27	128.73
370.47	255.12
370.66	351.08
370.86	365.12
371.06	397.89
371.25	458.74
371.45	491.51
371.65	479.81
371.84	386.19
372.04	409.59
372.24	463.43
372.44	433.00
372.63	484.49
372.83	463.43
373.03	458.74
373.22	489.17
373.42	578.11
373.62	528.96
373.81	519.60
374.01	575.77
374.21	589.82
374.40	564.07
374.60	566.41
374.79	540.66
374.99	543.00
375.19	533.64
375.38	571.09
375.58	596.84
375.78	578.11
375.97	620.24
376.17	606.20
376.37	608.54
376.56	510.24
376.76	662.37
376.95	535.98
377.15	641.31
377.35	620.24
377.54	620.24
377.74	566.41
377.93	676.41
378.13	571.09
378.33	601.52
378.52	720.88
378.72	545.34
378.91	702.16
379.11	535.98
379.31	559.39
379.50	641.31
379.70	627.26
379.89	638.97
380.09	550.03
380.28	571.09
380.48	624.92
380.68	648.33
380.87	631.94
381.07	676.41
381.26	671.73
381.46	746.63
381.65	716.20
381.85	678.76
382.04	755.99
382.24	655.35
382.43	636.63
382.63	676.41
382.83	741.95
383.02	690.46
383.22	690.46
383.41	697.48
383.61	564.07
383.80	767.70
384.00	681.10
384.19	716.20
384.39	781.74
384.58	725.57
384.78	711.52
384.97	683.44
385.17	765.36
385.36	835.57
385.56	697.48
385.75	704.50
385.95	863.66
386.14	751.31
386.34	798.12
386.53	753.65
386.72	788.76
386.92	788.76
387.11	791.10
387.31	784.08
387.50	730.25
387.70	772.38
387.89	854.30
388.09	730.25
388.28	770.04
388.48	877.70
388.67	908.13
388.86	912.81
389.06	945.58
389.25	922.17
389.45	809.83
389.64	866.00
389.84	926.85
390.03	931.53
390.22	910.47
390.42	887.06
390.61	861.32
390.81	891.74
391.00	919.83
391.19	957.28
391.39	889.40
391.58	968.98
391.78	915.15
391.97	917.49
392.16	999.41
392.36	1001.75
392.55	997.07
392.75	1029.84
392.94	994.73
393.13	952.60
393.33	968.98
393.52	1008.77
393.71	1048.56
393.91	968.98
394.10	999.41
394.29	1025.15
394.49	1013.45
394.68	1088.35
394.88	1128.14
395.07	1184.31
395.26	1060.26
395.46	1034.52
395.65	1165.59
395.84	1074.31
396.04	1172.61
396.23	1102.39
396.42	1067.28
396.62	1163.25
396.81	1174.95
397.00	1137.50
397.19	1165.59
397.39	1074.31
397.58	1238.14
397.77	1160.91
397.97	1181.97
398.16	1238.14
398.35	1282.61
398.55	1282.61
398.74	1261.55
398.93	1235.80
399.12	1378.58
399.32	1284.95
399.51	1280.27
399.70	1275.59
399.90	1296.66
400.09	1310.70
400.28	1371.55
400.47	1394.96
400.67	1425.39
400.86	1427.73
401.05	1448.79
401.24	1413.68
401.44	1465.18
401.63	1504.96
401.82	1448.79
402.01	1469.86
402.21	1423.05
402.40	1502.62
402.59	1481.56
402.78	1519.01
402.97	1455.81
403.17	1500.28
403.36	1549.43
403.55	1434.75
403.74	1556.46
403.93	1605.61
404.13	1689.87
404.32	1589.22
404.51	1542.41
404.70	1701.57
404.89	1654.76
405.09	1727.32
405.28	1652.42
405.47	1638.38
405.66	1713.27
405.85	1675.82
406.05	1659.44
406.24	1774.13
406.43	1856.04
406.62	1771.79
406.81	1825.62
407.00	1706.25
407.20	1701.57
407.39	1851.36
407.58	1750.72
407.77	1727.32
407.96	1888.81
408.15	1935.62
408.34	1935.62
408.54	1874.77
408.73	1867.75
408.92	2031.58
409.11	2057.33
409.30	1961.37
409.49	1895.83
409.68	1963.71
409.87	1973.07
410.07	2015.20
410.26	2043.29
410.45	2134.57
410.64	1970.73
410.83	2003.50
411.02	2230.53
411.21	2200.10
411.40	2186.06
411.59	2155.63
411.78	2305.43
411.98	2207.13
412.17	2307.77
412.36	2202.44
412.55	2417.77
412.74	2455.22
412.93	2410.75
413.12	2265.64
413.31	2490.33
413.50	2385.01
413.69	2464.58
413.88	2399.05
414.07	2506.71
414.26	2415.43
414.45	2450.54
414.64	2644.81
414.83	2443.52
415.02	2583.95
415.22	2649.49
415.41	2668.21
415.60	2757.15
415.79	2775.88
415.98	2745.45
416.17	2806.30
416.36	2766.51
416.55	2778.22
416.74	2850.77
416.93	2832.05
417.12	2869.50
417.31	2920.99
417.50	2857.79
417.69	3026.31
417.88	2998.23
418.07	2895.24
418.26	2928.01
418.45	3026.31
418.64	3180.79
418.83	3052.06
419.02	3035.67
419.21	3138.66
419.39	3290.79
419.58	3063.76
419.77	3148.02
419.96	3180.79
420.15	3243.98
420.34	3288.45
420.53	3323.56
420.72	3283.77
420.91	3346.97
421.10	3302.50
421.29	3351.65
421.48	3438.25
421.67	3288.45
421.86	3325.90
422.05	3316.54
422.24	3342.28
422.43	3361.01
422.61	3412.50
422.80	3487.40
422.99	3410.16
423.18	3405.48
423.37	3536.55
423.56	3421.86
423.75	3421.86
423.94	3431.23
424.13	3260.37
424.32	3363.35
424.50	3508.46
424.69	3571.66
424.88	3562.30
425.07	3435.91
425.26	3461.65
425.45	3417.18
425.64	3353.99
425.83	3531.87
426.01	3496.76
426.20	3513.14
426.39	3527.19
426.58	3510.80
426.77	3520.17
426.96	3456.97
427.15	3510.80
427.33	3574.00
427.52	3562.30
427.71	3641.87
427.90	3550.59
428.09	3660.60
428.28	3574.00
428.46	3665.28
428.65	3674.64
428.84	3803.37
429.03	3693.37
429.22	3712.09
429.40	3705.07
429.59	3632.51
429.78	3520.17
429.97	3667.62
430.16	3684.00
430.34	3740.18
430.53	3894.65
430.72	3735.50
430.91	3749.54
431.10	3779.97
431.28	3946.14
431.47	4088.92
431.66	3953.16
431.85	3971.89
432.03	4140.41
432.22	4201.26
432.41	4056.15
432.60	4023.38
432.79	4053.81
432.97	4121.68
433.16	4332.33
433.35	4283.18
433.54	4189.56
433.72	4191.90
433.91	4128.70
434.10	4180.20
434.28	4236.37
434.47	4163.81
434.66	4367.44
434.85	4381.48
435.03	4266.80
435.22	4273.82
435.41	4517.23
435.59	4393.19
435.78	4440.00
435.97	4416.59
436.16	4414.25
436.34	4409.57
436.53	4458.72
436.72	4571.07
436.90	4503.19
437.09	4601.49
437.28	4514.89
437.46	4603.83
437.65	4594.47
437.84	4550.00
438.02	4531.28
438.21	4676.39
438.40	4573.41
438.58	4730.22
438.77	4849.59
438.96	4781.71
439.14	4933.85
439.33	4947.89
439.52	5034.49
439.70	5128.11
439.89	4975.98
440.08	5036.83
440.26	4985.34
440.45	5039.17
440.63	4961.94
440.82	5191.31
441.01	5235.78
441.19	5226.42
441.38	5217.05
441.57	5282.59
441.75	5205.35
441.94	5308.34
442.12	5439.40
442.31	5448.77
442.50	5518.98
442.68	5432.38
442.87	5593.88
443.05	5528.35
443.24	5645.37
443.43	5748.36
443.61	5596.22
443.80	5645.37
443.98	5518.98
444.17	5472.17
444.35	5687.50
444.54	5806.87
444.73	5837.30
444.91	5664.10
445.10	5565.79
445.28	5657.07
445.47	5551.75
445.65	5689.84
445.84	5731.97
446.02	5748.36
446.21	5696.86
446.39	5628.99
446.58	5802.19
446.77	5825.59
446.95	5785.80
447.14	5804.53
447.32	6061.99
447.51	5879.43
447.69	6010.50
447.88	5886.45
448.06	5856.02
448.25	5827.93
448.43	5851.34
448.62	5921.56
448.80	5753.04
448.99	5872.40
449.17	5959.00
449.36	5886.45
449.54	6050.28
449.73	6214.12
449.91	6216.46
450.10	6155.61
450.28	6169.65
450.46	6197.74
450.65	6237.53
450.83	6162.63
451.02	6183.70
451.20	6272.64
451.39	6417.75
451.57	6216.46
451.76	6174.33
451.94	6274.98
452.13	6232.85
452.31	6443.49
452.49	6214.12
452.68	6399.02
452.86	6253.91
453.05	6403.71
453.23	6396.68
453.42	6382.64
453.60	6560.52
453.78	6623.72
453.97	6427.11
454.15	6342.85
454.34	6396.68
454.52	6537.12
454.70	6626.06
454.89	6693.93
455.07	6616.69
455.26	6703.29
455.44	6672.87
455.62	6977.14
455.81	6911.60
455.99	6876.49
456.17	6764.15
456.36	6937.35
456.54	6892.88
456.73	7052.03
456.91	7173.74
457.09	6974.80
457.28	7143.32
457.46	7098.84
457.64	7042.67
457.83	7002.88
458.01	7185.44
458.19	7234.60
458.38	7211.19
458.56	7314.17
458.74	7290.77
458.93	7068.42
459.11	7211.19
459.29	7220.55
459.48	7311.83
459.66	7276.73
459.84	7410.14
460.03	7667.60
460.21	7639.51
460.39	7417.16
460.57	7290.77
460.76	7524.82
460.94	7466.31
461.12	7318.86
461.31	7538.87
461.49	7548.23
461.67	7555.25
461.85	7899.31
462.04	7709.72
462.22	8152.09
462.40	7719.09
462.59	7702.70
462.77	7981.23
462.95	7983.57
463.13	7920.37
463.32	8039.74
463.50	7929.74
463.68	7950.80
463.86	7845.48
464.05	7887.61
464.23	7817.39
464.41	8198.90
464.59	7742.49
464.78	7999.95
464.96	8180.17
465.14	8056.12
465.32	8049.10
465.50	8149.75
465.69	8219.96
465.87	8266.77
466.05	8147.40
466.23	8105.28
466.41	7892.29
466.60	8241.03
466.78	8086.55
466.96	8435.29
467.14	8280.82
467.32	8236.35
467.51	8468.06
467.69	8093.57
467.87	8138.04
468.05	8407.20
468.23	8435.29
468.41	8299.54
468.60	8421.25
468.78	8393.16
468.96	8496.14
469.14	8489.12
469.32	8589.77
469.50	8416.57
469.69	8571.04
469.87	8519.55
470.05	8716.16
470.23	8746.58
470.41	8617.85
470.59	9062.55
470.77	8791.05
470.95	8872.97
471.14	9179.58
471.32	8912.76
471.50	9107.02
471.68	8938.51
471.86	8966.59
472.04	9240.44
472.22	9383.21
472.40	9118.73
472.58	9280.22
472.77	9364.48
472.95	9343.42
473.13	9792.80
473.31	9411.29
473.49	9415.98
473.67	9380.87
473.85	9497.89
474.03	9586.83
474.21	9626.62
474.39	9699.18
474.57	9783.44
474.75	9610.24
474.93	9884.08
475.12	9949.62
475.30	10026.86
475.48	9851.31
475.66	10246.87
475.84	10134.52
476.02	10118.14
476.20	10118.14
476.38	10244.52
476.56	10707.95
476.74	10663.48
476.92	10553.48
477.10	10551.14
477.28	10736.04
477.46	10801.57
477.64	10862.43
477.82	11084.78
478.00	11194.78
478.18	11159.67
478.36	11201.80
478.54	11227.55
478.72	11164.36
478.90	11253.30
479.08	11637.14
479.26	11496.71
479.44	11918.01
479.62	11712.04
479.80	12065.46
479.98	12084.19
480.16	12299.52
480.34	11936.73
480.52	12325.26
480.70	12147.38
480.88	11950.78
481.06	12067.80
481.24	12339.30
481.41	12575.70
481.59	12933.80
481.77	12711.45
481.95	12898.69
482.13	12858.90
482.31	12826.14
482.49	13102.32
482.67	13298.92
482.85	13394.89
483.03	13525.96
483.21	13799.80
483.39	13439.36
483.57	13811.50
483.74	13813.84
483.92	13982.36
484.10	13912.14
484.28	14263.22
484.46	14335.78
484.64	14569.83
484.82	14176.62
485.00	14335.78
485.18	14604.94
485.35	14960.70
485.53	14614.30
485.71	14829.63
485.89	14972.41
486.07	14902.19
486.25	15342.21
486.43	15321.15
486.61	15393.70
486.78	15550.52
486.96	15587.97
487.14	16074.80
487.32	15967.13
487.50	15941.39
487.68	16264.38
487.85	16313.53
488.03	16617.80
488.21	16753.55
488.39	16613.12
488.57	16669.30
488.75	17046.12
488.92	17151.45
489.10	17114.00
489.28	17441.67
489.46	17500.19
489.64	17462.74
489.81	17820.84
489.99	17940.21
490.17	18101.70
490.35	18097.02
490.53	18150.85
490.70	18417.68
490.88	18684.50
491.06	18635.35
491.24	18476.19
491.41	18768.76
491.59	18970.04
491.77	18527.68
491.95	19501.34
492.13	19349.21
492.30	19040.26
492.48	19599.65
492.66	19573.90
492.84	19452.19
493.01	19688.59
493.19	20107.54
493.37	20119.24
493.54	20023.28
493.72	20339.26
493.90	20402.45
494.08	20641.18
494.25	20704.38
494.43	20917.37
494.61	21076.52
494.79	21223.98
494.96	21071.84
495.14	20826.09
495.32	21191.21
495.49	21619.53
495.67	21329.30
495.85	21797.41
496.02	21551.65
496.20	21942.52
496.38	22216.36
496.55	21876.99
496.73	22380.20
496.91	22403.61
497.09	22340.41
497.26	22539.36
497.44	22581.49
497.62	22621.28
497.79	22906.82
497.97	23094.07
498.14	23143.22
498.32	23300.03
498.50	23222.80
498.67	23529.41
498.85	23508.34
499.03	23676.86
499.20	23557.49
499.38	24046.66
499.56	23564.51
499.73	23630.05
499.91	23810.27
500.08	24393.06
500.26	23906.23
500.44	24063.05
500.61	24655.20
500.79	24666.91
500.97	24620.10
501.14	24966.49
501.32	24769.89
501.49	24854.15
501.67	25130.33
501.84	24709.04
502.02	25125.65
502.20	25270.76
502.37	24957.13
502.55	25305.87
502.72	25586.74
502.90	25638.23
503.07	25465.03
503.25	25441.62
503.43	25310.55
503.60	25872.28
503.78	25699.08
503.95	26064.21
504.13	26122.72
504.30	25898.03
504.48	26118.04
504.65	26532.31
504.83	26647.00
505.01	26459.76
505.18	26569.76
505.36	26483.16
505.53	26698.49
505.71	26679.77
505.88	26904.46
506.06	26761.69
506.23	26930.20
506.41	26607.21
506.58	26967.65
506.76	27285.97
506.93	27007.44
507.11	27374.91
507.28	27536.40
507.46	27353.84
507.63	27508.32
507.81	27501.29
507.98	27473.21
508.16	27564.49
508.33	27718.96
508.50	28016.21
508.68	28407.08
508.85	28231.54
509.03	28140.26
509.20	28081.75
509.38	28793.27
509.55	28774.55
509.73	28943.06
509.90	28580.28
510.08	28877.53
510.25	29118.60
510.42	29064.77
510.60	29024.98
510.77	28959.45
510.95	29230.95
511.12	29092.86
511.30	28769.86
511.47	29699.06
511.64	29467.34
511.82	29827.79
511.99	29467.34
512.17	29649.91
512.34	29493.09
512.51	29668.63
512.69	30150.78
512.86	30031.41
513.04	30260.79
513.21	30122.69
513.38	29977.58
513.56	30331.00
513.73	29940.13
513.90	30398.88
514.08	30541.65
514.25	30637.61
514.43	30569.74
514.60	30536.97
514.77	30630.59
514.95	30930.18
515.12	30796.77
515.29	30654.00
515.47	31257.85
515.64	31346.79
515.81	30878.69
515.99	30794.43
516.16	31225.09
516.33	31304.67
516.51	31299.98
516.68	31119.76
516.85	30976.99
517.03	31405.31
517.20	31482.55
517.37	31283.60
517.54	31840.65
517.72	31934.27
517.89	31637.02
518.06	31728.30
518.24	31449.78
518.41	31655.75
518.58	31866.39
518.75	32023.21
518.93	32086.40
519.10	32158.96
519.27	32404.72
519.45	32376.63
519.62	32357.91
519.79	32591.96
519.96	32608.34
520.14	32851.76
520.31	32442.17
520.48	33074.11
520.65	32851.76
520.83	33179.43
521.00	32954.74
521.17	33380.72
521.34	33294.12
521.52	33326.89
521.69	33275.40
521.86	33420.51
522.03	33755.21
522.20	33830.10
522.38	33582.01
522.55	33937.77
522.72	33759.89
522.89	33692.01
523.07	33593.71
523.24	33577.33
523.41	33750.52
523.58	33790.31
523.75	34218.63
523.92	34267.78
524.10	34338.00
524.27	34623.54
524.44	34529.92
524.61	34595.46
524.78	34604.82
524.96	34693.76
525.13	34644.61
525.30	35124.42
525.47	35009.73
525.64	34934.84
525.81	34677.38
525.98	34808.45
526.16	34923.13
526.33	34944.20
526.50	35152.51
526.67	35166.55
526.84	34806.11
527.01	34838.87
527.18	35323.36
527.36	35576.14
527.53	35206.34
527.70	35864.03
527.87	35644.02
528.04	35906.16
528.21	35597.21
528.38	35969.35
528.55	36109.78
528.72	36088.72
528.89	36048.93
529.07	36013.82
529.24	36037.23
529.41	36128.51
529.58	35805.52
529.75	36311.07
529.92	36039.57
530.09	36570.87
530.26	36400.01
530.43	36154.26
530.60	35976.37
530.77	36322.77
530.94	36486.61
531.11	36774.50
531.28	36495.97
531.46	36439.80
531.63	36687.90
531.80	36641.09
531.97	36933.65
532.14	36854.08
532.31	37027.28
532.48	36818.97
532.65	37230.90
532.82	36931.31
532.99	37280.05
533.16	37099.83
533.33	37141.96
533.50	37633.47
533.67	37235.58
533.84	37270.69
534.01	37191.11
534.18	37228.56
534.35	37553.90
534.52	37104.51
534.69	37205.16
534.86	37951.79
535.03	37148.98
535.20	38117.96
535.37	37970.51
535.54	38253.72
535.71	37762.20
535.88	38012.64
536.05	38443.30
536.22	37893.27
536.38	37710.71
536.55	37986.89
536.72	38082.86
536.89	38274.78
537.06	37834.76
537.23	38279.46
537.40	37951.79
537.57	38099.24
537.74	38319.25
537.91	38335.63
538.08	38471.39
538.25	38462.02
538.42	38485.43
538.59	38859.91
538.75	38342.66
538.92	38462.02
539.09	38960.56
539.26	38602.46
539.43	38873.96
539.60	39042.48
539.77	38735.87
539.94	38880.98
540.11	38770.97
540.28	38738.21
540.44	38902.04
540.61	39030.77
540.78	38878.64
540.95	38871.62
541.12	38941.83
541.29	39201.63
541.46	39075.24
541.62	39278.87
541.79	39194.61
541.96	38944.17
542.13	39145.46
542.30	39566.76
542.47	39641.65
542.63	39929.54
542.80	39716.55
542.97	40114.44
543.14	40060.61
543.31	39634.63
543.48	40187.00
543.64	40322.75
543.81	40074.65
543.98	40236.15
544.15	39917.84
544.32	40432.75
544.48	40194.02
544.65	40437.44
544.82	40505.31
544.99	40369.56
545.16	40266.58
545.32	40182.32
545.49	40495.95
545.66	40498.29
545.83	40641.06
546.00	40802.56
546.16	40470.20
546.33	40545.10
546.50	40130.83
546.67	41076.40
546.83	40065.29
547.00	41092.79
547.17	40655.11
547.34	40783.83
547.50	40641.06
547.67	41408.76
547.84	40879.80
548.00	41319.82
548.17	41116.19
548.34	40865.75
548.51	41167.68
548.67	41413.44
548.84	41340.88
549.01	41200.45
549.18	40961.72
549.34	41324.50
549.51	41572.60
549.68	41385.35
549.84	41361.95
550.01	41448.55
550.18	41429.82
550.34	41324.50
550.51	41148.96
550.68	41106.83
550.84	41198.11
551.01	41347.90
551.18	41914.31
551.34	41509.40
551.51	41305.77
551.68	41783.24
551.84	41614.72
552.01	41691.96
552.18	41359.61
552.34	41560.89
552.51	41713.03
552.68	41942.40
552.84	42036.02
553.01	42169.43
553.18	42005.59
553.34	41902.61
553.51	41701.32
553.67	42197.52
553.84	42342.63
554.01	42462.00
554.17	42410.51
554.34	42286.46
554.51	42216.24
554.67	42586.05
554.84	42326.25
555.00	42284.12
555.17	42080.49
555.33	42340.29
555.50	42171.77
555.67	42157.73
555.83	42665.63
556.00	42525.19
556.16	42705.41
556.33	42576.69
556.50	42555.62
556.66	42869.25
556.83	42244.33
556.99	42295.82
557.16	43040.11
557.32	42911.38
557.49	42918.40
557.65	42192.84
557.82	42813.08
557.98	42726.48
558.15	42752.23
558.32	42532.22
558.48	42703.07
558.65	42684.35
558.81	42541.58
558.98	43005.00
559.14	43306.93
559.31	42923.08
559.47	42986.28
559.64	43292.89
559.80	43346.72
559.97	43164.16
560.13	43285.87
560.30	43049.47
560.46	43189.91
560.63	42710.10
560.79	43166.50
560.96	43229.69
561.12	43302.25
561.29	43377.15
561.45	43232.04
561.61	43189.91
561.78	43255.44
561.94	43026.07
562.11	43217.99
562.27	43150.12
562.44	43042.45
562.60	43402.89
562.77	43901.43
562.93	43562.05
563.10	43250.76
563.26	43386.51
563.42	43138.41
563.59	43136.07
563.75	43480.13
563.92	43548.01
564.08	43714.19
564.24	43571.41
564.41	43594.82
564.57	43213.31
564.74	43665.03
564.90	43697.80
565.07	43597.16
565.23	43765.68
565.39	43641.63
565.56	43517.58
565.72	43215.65
565.88	43526.94
566.05	43545.67
566.21	43402.89
566.38	43360.76
566.54	43936.54
566.70	43768.02
566.87	44048.88
567.03	43564.39
567.19	44313.36
567.36	43934.20
567.52	43136.07
567.68	44020.80
567.85	43477.79
568.01	44215.06
568.17	43749.29
568.34	43594.82
568.50	43810.15
568.66	43667.37
568.83	43526.94
568.99	43346.72
569.15	43805.47
569.32	43938.88
569.48	43730.57
569.64	44112.08
569.81	43955.26
569.97	43777.38
570.13	43871.00
570.30	43758.66
570.46	43805.47
570.62	43695.46
570.78	43807.81
570.95	43636.95
571.11	44053.56
571.27	43606.52
571.43	44163.57
571.60	43826.53
571.76	44044.20
571.92	43470.77
572.09	43952.92
572.25	43775.04
572.41	43908.45
572.57	44048.88
572.74	44189.31
572.90	44224.42
573.06	44011.43
573.22	44552.10
573.38	44250.17
573.55	43924.83
573.71	44299.32
573.87	43831.21
574.03	43538.65
574.20	44095.69
574.36	43711.84
574.52	44395.28
574.68	44147.18
574.84	44339.11
575.01	44285.28
575.17	44112.08
575.33	43447.36
575.49	43665.03
575.65	44711.25
575.82	44357.83
575.98	44500.61
576.14	44179.95
576.30	44182.29
576.46	44186.97
576.62	43927.17
576.79	43828.87
576.95	43859.30
577.11	44488.90
577.27	44250.17
577.43	44458.48
577.59	44208.04
577.75	44144.84
577.92	43777.38
578.08	43608.86
578.24	43737.59
578.40	43803.13
578.56	44095.69
578.72	44053.56
578.88	44083.99
579.04	44271.23
579.21	44041.86
579.37	44102.71
579.53	43782.06
579.69	44048.88
579.85	44140.16
580.01	44519.33
580.17	44315.70
580.33	44123.78
580.49	44208.04
580.65	44378.90
580.82	44212.72
580.98	43814.83
581.14	44226.76
581.30	44439.75
581.46	44149.53
581.62	44067.61
581.78	43873.34
581.94	44645.72
582.10	44364.85
582.26	44446.77
582.42	44376.56
582.58	44388.26
582.74	44376.56
582.90	44009.09
583.06	44472.52
583.22	44622.31
583.38	44313.36
583.54	44175.27
583.70	44500.61
583.86	44329.75
584.02	44189.31
584.18	44516.99
584.34	44072.29
584.50	44135.48
584.66	44243.15
584.82	44156.55
584.98	44507.63
585.14	44657.42
585.30	44161.23
585.46	44350.81
585.62	44198.68
585.78	44154.21
585.94	43931.86
586.10	44198.68
586.26	44282.94
586.42	44559.12
586.58	44130.80
586.74	44397.62
586.90	44603.59
587.06	44231.44
587.22	44002.07
587.38	44236.12
587.54	44631.68
587.70	44861.05
587.86	44299.32
588.02	44301.66
588.18	44442.09
588.34	44406.98
588.49	44332.09
588.65	44247.83
588.81	44189.31
588.97	44795.51
589.13	44339.11
589.29	44238.47
589.45	44952.33
589.61	44114.42
589.77	44921.90
589.93	44432.73
590.08	44505.29
590.24	44748.70
590.40	44800.19
