SpectraSuite Data File
++++++++++++++++++++++++++++++++++++
Date: Fri Oct 25 11:33:31 EDT 2013
User: price-jones
Dark Spectrum Present: No
Reference Spectrum Present: No
Number of Sampled Component Spectra: 1
Spectrometers: USB2+H05261
Integration Time (usec): 100000 (USB2+H05261)
Spectra Averaged: 1 (USB2+H05261)
Boxcar Smoothing: 0 (USB2+H05261)
Correct for Electrical Dark: No (USB2+H05261)
Strobe/Lamp Enabled: No (USB2+H05261)
Correct for Detector Non-linearity: No (USB2+H05261)
Correct for Stray Light: No (USB2+H05261)
Number of Pixels in Processed Spectrum: 2048
>>>>>Begin Processed Spectral Data<<<<<
365.73	294.91
365.92	294.91
366.12	294.91
366.32	168.52
366.52	147.45
366.72	124.05
366.91	217.67
367.11	128.73
367.31	147.45
367.51	107.66
367.70	133.41
367.90	159.16
368.10	154.48
368.30	170.86
368.49	203.63
368.69	252.78
368.89	238.73
369.09	156.82
369.28	198.95
369.48	145.11
369.68	177.88
369.87	215.33
370.07	238.73
370.27	344.06
370.47	313.63
370.66	498.53
370.86	500.87
371.06	526.62
371.25	564.07
371.45	500.87
371.65	617.90
371.84	578.11
372.04	599.18
372.24	561.73
372.44	550.03
372.63	550.03
372.83	608.54
373.03	638.97
373.22	589.82
373.42	634.29
373.62	589.82
373.81	578.11
374.01	699.82
374.21	622.58
374.40	594.50
374.60	711.52
374.79	650.67
374.99	629.60
375.19	571.09
375.38	681.10
375.58	704.50
375.78	723.23
375.97	653.01
376.17	711.52
376.37	615.56
376.56	610.88
376.76	716.20
376.95	674.07
377.15	690.46
377.35	739.61
377.54	699.82
377.74	685.78
377.93	653.01
378.13	711.52
378.33	706.84
378.52	653.01
378.72	692.80
378.91	741.95
379.11	711.52
379.31	638.97
379.50	636.63
379.70	690.46
379.89	809.83
380.09	748.97
380.28	716.20
380.48	716.20
380.68	760.67
380.87	709.18
381.07	767.70
381.26	702.16
381.46	753.65
381.65	734.93
381.85	690.46
382.04	828.55
382.24	730.25
382.43	763.01
382.63	772.38
382.83	877.70
383.02	837.91
383.22	835.57
383.41	711.52
383.61	774.72
383.80	866.00
384.00	713.86
384.19	793.44
384.39	837.91
384.58	823.87
384.78	835.57
384.97	826.21
385.17	816.85
385.36	748.97
385.56	844.93
385.75	868.34
385.95	854.30
386.14	917.49
386.34	795.78
386.53	870.68
386.72	802.80
386.92	844.93
387.11	854.30
387.31	851.96
387.50	903.45
387.70	889.40
387.89	915.15
388.09	840.25
388.28	901.11
388.48	931.53
388.67	912.81
388.86	1041.54
389.06	936.21
389.25	938.55
389.45	976.00
389.64	1048.56
389.84	987.71
390.03	933.87
390.22	929.19
390.42	929.19
390.61	1057.92
390.81	990.05
391.00	992.39
391.19	933.87
391.39	1067.28
391.58	1111.75
391.78	964.30
391.97	1013.45
392.16	1034.52
392.36	1083.67
392.55	992.39
392.75	1018.13
392.94	1050.90
393.13	1027.50
393.33	1041.54
393.52	1001.75
393.71	1144.52
393.91	1118.78
394.10	1086.01
394.29	1184.31
394.49	1121.12
394.68	1142.18
394.88	1200.69
395.07	1123.46
395.26	1151.54
395.46	1139.84
395.65	1179.63
395.84	1149.20
396.04	1277.93
396.23	1212.40
396.42	1172.61
396.62	1160.91
396.81	1256.87
397.00	1163.25
397.19	1301.34
397.39	1240.48
397.58	1231.12
397.77	1324.74
397.97	1210.06
398.16	1191.33
398.35	1296.66
398.55	1315.38
398.74	1359.85
398.93	1383.26
399.12	1366.87
399.32	1270.91
399.51	1291.98
399.70	1359.85
399.90	1378.58
400.09	1420.71
400.28	1500.28
400.47	1411.34
400.67	1299.00
400.86	1284.95
401.05	1434.75
401.24	1385.60
401.44	1387.94
401.63	1378.58
401.82	1514.33
402.01	1474.54
402.21	1467.52
402.40	1516.67
402.59	1472.20
402.78	1551.78
402.97	1551.78
403.17	1556.46
403.36	1565.82
403.55	1514.33
403.74	1554.12
403.93	1621.99
404.13	1631.35
404.32	1685.19
404.51	1612.63
404.70	1678.16
404.89	1640.72
405.09	1767.10
405.28	1727.32
405.47	1614.97
405.66	1715.61
405.85	1643.06
406.05	1671.14
406.24	1661.78
406.43	1647.74
406.62	1781.15
406.81	1769.44
407.00	1827.96
407.20	1792.85
407.39	1820.94
407.58	1879.45
407.77	1757.74
407.96	1788.17
408.15	1907.54
408.34	1776.47
408.54	1837.32
408.73	1935.62
408.92	1874.77
409.11	2005.84
409.30	1940.30
409.49	1968.39
409.68	2015.20
409.87	1970.73
410.07	2003.50
410.26	2076.06
410.45	1930.94
410.64	2080.74
410.83	2029.24
411.02	2174.36
411.21	2174.36
411.40	2146.27
411.59	2190.74
411.78	2099.46
411.98	2157.97
412.17	2251.60
412.36	2335.85
412.55	2282.02
412.74	2333.51
412.93	2291.38
413.12	2293.72
413.31	2520.76
413.50	2413.09
413.69	2441.18
413.88	2377.98
414.07	2399.05
414.26	2410.75
414.45	2532.46
414.64	2551.18
414.83	2609.70
415.02	2621.40
415.22	2614.38
415.41	2640.12
415.60	2626.08
415.79	2684.59
415.98	2743.11
416.17	2782.90
416.36	2813.32
416.55	2834.39
416.74	2768.85
416.93	2651.83
417.12	2846.09
417.31	2815.66
417.50	2822.69
417.69	2979.50
417.88	2829.71
418.07	2883.54
418.26	2902.26
418.45	2958.44
418.64	2930.35
418.83	2953.76
419.02	3012.27
419.21	3073.12
419.39	3059.08
419.58	3133.98
419.77	3028.65
419.96	3176.11
420.15	3155.04
420.34	3108.23
420.53	3117.59
420.72	3197.17
420.91	3211.22
421.10	3201.85
421.29	3171.43
421.48	3262.71
421.67	3265.05
421.86	3236.96
422.05	3318.88
422.24	3229.94
422.43	3398.46
422.61	3318.88
422.80	3311.86
422.99	3344.63
423.18	3379.73
423.37	3478.04
423.56	3236.96
423.75	3466.33
423.94	3337.60
424.13	3258.03
424.32	3157.38
424.50	3463.99
424.69	3557.61
424.88	3452.29
425.07	3403.14
425.26	3342.28
425.45	3386.76
425.64	3426.54
425.83	3527.19
426.01	3379.73
426.20	3393.78
426.39	3419.52
426.58	3412.50
426.77	3410.16
426.96	3365.69
427.15	3424.20
427.33	3447.61
427.52	3529.53
427.71	3634.85
427.90	3606.77
428.09	3665.28
428.28	3665.28
428.46	3653.58
428.65	3482.72
428.84	3667.62
429.03	3791.67
429.22	3672.30
429.40	3712.09
429.59	3751.88
429.78	3665.28
429.97	3618.47
430.16	3786.99
430.34	3740.18
430.53	3859.54
430.72	3913.38
430.91	3887.63
431.10	3918.06
431.28	3983.59
431.47	3885.29
431.66	4014.02
431.85	3847.84
432.03	4025.72
432.22	3997.64
432.41	4131.05
432.60	4114.66
432.79	4102.96
432.97	4163.81
433.16	4201.26
433.35	4037.42
433.54	4156.79
433.72	4161.47
433.91	4175.52
434.10	4329.99
434.28	4121.68
434.47	4227.01
434.66	4196.58
434.85	4229.35
435.03	4198.92
435.22	4205.94
435.41	4355.74
435.59	4390.84
435.78	4339.35
435.97	4280.84
436.16	4280.84
436.34	4374.46
436.53	4521.92
436.72	4454.04
436.90	4498.51
437.09	4475.10
437.28	4461.06
437.46	4428.29
437.65	4538.30
437.84	4615.54
438.02	4545.32
438.21	4592.13
438.40	4638.94
438.58	4697.46
438.77	4706.82
438.96	4706.82
439.14	4835.55
439.33	4814.48
439.52	4936.19
439.70	4919.81
439.89	5006.41
440.08	4997.04
440.26	5048.54
440.45	4973.64
440.63	5109.39
440.82	5179.61
441.01	5027.47
441.19	5224.08
441.38	5310.68
441.57	5214.71
441.75	5228.76
441.94	5310.68
442.12	5408.98
442.31	5397.28
442.50	5544.73
442.68	5380.89
442.87	5497.92
443.05	5490.90
443.24	5521.32
443.43	5430.04
443.61	5420.68
443.80	5692.18
443.98	5355.15
444.17	5277.91
444.35	5561.11
444.54	5750.70
444.73	5556.43
444.91	5650.05
445.10	5533.03
445.28	5577.50
445.47	5509.62
445.65	5530.69
445.84	5561.11
446.02	5696.86
446.21	5586.86
446.39	5694.52
446.58	5858.36
446.77	5774.10
446.95	5640.69
447.14	5612.60
447.32	5914.53
447.51	5664.10
447.69	5741.33
447.88	5659.42
448.06	5699.20
448.25	5783.46
448.43	5895.81
448.62	5738.99
448.80	5844.32
448.99	5731.97
449.17	5900.49
449.36	5806.87
449.54	5933.26
449.73	5996.45
449.91	5973.05
450.10	5961.34
450.28	6181.35
450.46	6157.95
450.65	6097.10
450.83	6282.00
451.02	6001.13
451.20	6111.14
451.39	6232.85
451.57	6129.86
451.76	6157.95
451.94	6197.74
452.13	6171.99
452.31	6286.68
452.49	6249.23
452.68	6148.59
452.86	6209.44
453.05	6331.15
453.23	6441.15
453.42	6260.93
453.60	6232.85
453.78	6471.58
453.97	6452.86
454.15	6363.92
454.34	6230.51
454.52	6558.18
454.70	6579.25
454.89	6546.48
455.07	6593.29
455.26	6651.80
455.44	6693.93
455.62	6612.01
455.81	6565.20
455.99	6743.08
456.17	6717.34
456.36	6574.56
456.54	6944.37
456.73	6768.83
456.91	6970.12
457.09	7030.97
457.28	7033.31
457.46	6752.45
457.64	6885.86
457.83	7023.95
458.01	6951.39
458.19	7311.83
458.38	7229.91
458.56	7208.85
458.74	7173.74
458.93	7155.02
459.11	7358.64
459.29	7246.30
459.48	7169.06
459.66	7368.01
459.84	7265.02
460.03	7412.48
460.21	7461.63
460.39	7356.30
460.57	7459.29
460.76	7466.31
460.94	7419.50
461.12	7667.60
461.31	7681.64
461.49	7421.84
461.67	7449.93
461.85	7632.49
462.04	7562.27
462.22	7782.28
462.40	7852.50
462.59	7611.42
462.77	7896.97
462.95	7695.68
463.13	7688.66
463.32	7772.92
463.50	7831.43
463.68	7859.52
463.86	8056.12
464.05	7936.76
464.23	7859.52
464.41	7885.26
464.59	7829.09
464.78	8170.81
464.96	7899.31
465.14	8004.63
465.32	8004.63
465.50	8196.56
465.69	8180.17
465.87	7955.48
466.05	8116.98
466.23	8196.56
466.41	8037.40
466.60	8388.48
466.78	8084.21
466.96	8063.15
467.14	8215.28
467.32	8234.00
467.51	8203.58
467.69	8081.87
467.87	8301.88
468.05	8444.65
468.23	8367.42
468.41	8114.64
468.60	8276.13
468.78	8477.42
468.96	8320.60
469.14	8444.65
469.32	8538.27
469.50	8315.92
469.69	8692.75
469.87	8704.45
470.05	8734.88
470.23	8842.54
470.41	8676.37
470.59	8765.31
470.77	8901.06
470.95	9046.17
471.14	9095.32
471.32	8755.94
471.50	9121.07
471.68	8943.19
471.86	8940.85
472.04	9256.82
472.22	9231.07
472.40	9198.31
472.58	9006.38
472.77	9327.03
472.95	9310.65
473.13	9727.27
473.31	9476.83
473.49	9547.05
473.67	9486.19
473.85	9411.29
474.03	9734.29
474.21	9760.03
474.39	9802.16
474.57	9652.37
474.75	9760.03
474.93	10026.86
475.12	9825.57
475.30	10085.37
475.48	9919.19
475.66	10232.82
475.84	9951.96
476.02	10417.72
476.20	10052.60
476.38	10448.15
476.56	10555.82
476.74	10569.86
476.92	10581.56
477.10	10410.70
477.28	10766.46
477.46	10499.64
477.64	10827.32
477.82	10925.62
478.00	10988.82
478.18	11192.44
478.36	10934.98
478.54	11225.21
478.72	11208.83
478.90	11461.60
479.08	11616.08
479.26	11688.64
479.44	11583.31
479.62	11796.30
479.80	11796.30
479.98	11826.73
480.16	12126.32
480.34	11918.01
480.52	12273.77
480.70	12292.49
480.88	12051.42
481.06	12116.95
481.24	12456.33
481.41	12571.02
481.59	12507.82
481.77	12788.69
481.95	12910.40
482.13	12931.46
482.31	12826.14
482.49	13228.71
482.67	13315.31
482.85	13558.72
483.03	13469.78
483.21	13535.32
483.39	13617.24
483.57	13673.41
483.74	13977.68
483.92	13942.57
484.10	13944.91
484.28	14246.84
484.46	14333.44
484.64	14417.70
484.82	14448.13
485.00	14597.92
485.18	14946.66
485.35	15000.49
485.53	14897.51
485.71	15213.48
485.89	15206.46
486.07	15159.65
486.25	15630.10
486.43	15559.88
486.61	15798.62
486.78	15653.50
486.96	15838.41
487.14	16037.35
487.32	16236.30
487.50	16280.77
487.68	16329.92
487.85	16552.27
488.03	16856.54
488.21	16678.66
488.39	16863.56
488.57	16795.68
488.75	17116.34
488.92	17240.39
489.10	17273.15
489.28	17399.54
489.46	17839.56
489.64	17846.58
489.81	18127.45
489.99	18279.58
490.17	17968.29
490.35	18506.62
490.53	18696.20
490.70	18586.19
490.88	18403.63
491.06	18792.16
491.24	18881.10
491.41	19145.58
491.59	19143.24
491.77	19264.95
491.95	19517.73
492.13	19243.88
492.30	19487.30
492.48	19793.91
492.66	20086.48
492.84	19843.06
493.01	19955.41
493.19	20030.30
493.37	20219.89
493.54	19913.28
493.72	20587.35
493.90	20718.42
494.08	20737.15
494.25	20798.00
494.43	20936.09
494.61	21137.38
494.79	21195.89
494.96	21331.64
495.14	21434.63
495.32	21575.06
495.49	21661.66
495.67	21797.41
495.85	21844.22
496.02	22174.24
496.20	22258.49
496.38	22305.31
496.55	22520.63
496.73	22747.67
496.91	22691.49
497.09	22841.29
497.26	22871.72
497.44	22939.59
497.62	23110.45
497.79	23222.80
497.97	23145.56
498.14	23536.43
498.32	23594.94
498.50	23611.32
498.67	24004.53
498.85	23819.63
499.03	24180.07
499.20	23679.20
499.38	24320.51
499.56	24311.14
499.73	24460.94
499.91	24603.71
500.08	24620.10
500.26	24411.79
500.44	24912.66
500.61	24629.46
500.79	24851.81
500.97	25319.92
501.14	25256.72
501.32	25207.57
501.49	25111.61
501.67	25151.40
501.84	25577.37
502.02	25387.79
502.20	25322.26
502.37	25481.41
502.55	25734.19
502.72	25968.24
502.90	25902.71
503.07	25727.17
503.25	26150.81
503.43	25909.73
503.60	26546.36
503.78	26618.91
503.95	26260.81
504.13	26396.56
504.30	26567.42
504.48	26544.02
504.65	26647.00
504.83	26553.38
505.01	27236.81
505.18	26932.54
505.36	27253.20
505.53	27131.49
505.71	27508.32
505.88	27192.34
506.06	27484.91
506.23	27613.64
506.41	27534.06
506.58	27515.34
506.76	27763.43
506.93	28032.60
507.11	28091.11
507.28	27887.48
507.46	28229.20
507.63	28163.67
507.81	27941.32
507.98	28133.24
508.16	28446.87
508.33	28601.35
508.50	29078.82
508.68	29123.29
508.85	29029.66
509.03	28856.46
509.20	29041.37
509.38	29493.09
509.55	29125.63
509.73	29202.86
509.90	29333.93
510.08	29633.52
510.25	29525.86
510.42	29905.02
510.60	29642.88
510.77	29883.96
510.95	30008.01
511.12	29876.94
511.30	29673.31
511.47	29991.62
511.64	29481.39
511.82	30277.17
511.99	29933.11
512.17	30520.59
512.34	30515.90
512.51	30871.67
512.69	30656.34
512.86	30806.13
513.04	31049.55
513.21	31213.38
513.38	30740.60
513.56	30817.83
513.73	31243.81
513.90	31056.57
514.08	31002.74
514.25	31285.94
514.43	31576.17
514.60	31409.99
514.77	31522.34
514.95	31431.05
515.12	31316.37
515.29	31545.74
515.47	31814.90
515.64	32105.13
515.81	31728.30
515.99	31878.10
516.16	32573.24
516.33	32041.93
516.51	32584.94
516.68	32006.83
516.85	32418.76
517.03	32767.50
517.20	32833.04
517.37	32582.60
517.54	32730.05
517.72	32727.71
517.89	32861.12
518.06	32683.24
518.24	32975.81
518.41	32938.36
518.58	32856.44
518.75	32624.73
518.93	33436.89
519.10	33603.07
519.27	33642.86
519.45	33212.20
519.62	33397.10
519.79	33589.03
519.96	33652.22
520.14	33998.62
520.31	33773.93
520.48	33921.38
520.65	34015.01
520.83	34377.79
521.00	34223.31
521.17	34148.42
521.34	34235.02
521.52	34415.24
521.69	34714.83
521.86	34637.59
522.03	34658.65
522.20	34752.27
522.38	34574.39
522.55	34876.32
522.72	35267.19
522.89	35164.21
523.07	35424.01
523.24	35452.09
523.41	35225.06
523.58	35342.09
523.75	35950.63
523.92	35290.60
524.10	35391.24
524.27	35505.93
524.44	35470.82
524.61	35580.82
524.78	35950.63
524.96	35999.78
525.13	36140.21
525.30	35772.75
525.47	36582.57
525.64	36540.44
525.81	36187.02
525.98	36388.31
526.16	36194.04
526.33	36123.83
526.50	36613.00
526.67	36308.73
526.84	36362.56
527.01	36006.80
527.18	36481.93
527.36	36528.74
527.53	36868.12
527.70	37191.11
527.87	37308.14
528.04	36542.78
528.21	37127.92
528.38	36882.16
528.55	36669.17
528.72	36947.70
528.89	37244.94
529.07	36959.40
529.24	36980.46
529.41	37226.22
529.58	37553.90
529.75	37354.95
529.92	37504.74
530.09	37589.00
530.26	37734.12
530.43	37811.35
530.60	37392.40
530.77	37755.18
530.94	37991.58
531.11	37280.05
531.28	37876.89
531.46	38134.35
531.63	38237.33
531.80	38092.22
531.97	38565.01
532.14	37919.02
532.31	38459.68
532.48	38586.07
532.65	38693.74
532.82	38436.28
532.99	38305.21
533.16	38497.13
533.33	38398.83
533.50	39136.10
533.67	38684.37
533.84	38792.04
534.01	39264.83
534.18	38667.99
534.35	39262.49
534.52	38972.26
534.69	39227.38
534.86	39709.53
535.03	38766.29
535.20	39096.31
535.37	39299.94
535.54	39426.32
535.71	39175.89
535.88	39384.19
536.05	39533.99
536.22	39321.00
536.38	39674.42
536.55	39732.93
536.72	39793.79
536.89	39309.30
537.06	39618.25
537.23	40109.76
537.40	39665.06
537.57	39929.54
537.74	39992.73
537.91	40399.99
538.08	40243.17
538.25	39442.71
538.42	40109.76
538.59	40147.21
538.75	39999.76
538.92	40212.74
539.09	40650.42
539.26	40598.93
539.43	40390.62
539.60	40411.69
539.77	40367.22
539.94	40474.88
540.11	40627.02
540.28	40847.03
540.44	40570.85
540.61	40505.31
540.78	40744.05
540.95	41146.62
541.12	40739.36
541.29	40479.57
541.46	40947.67
541.62	40800.22
541.79	41378.33
541.96	40701.92
542.13	41024.91
542.30	41078.74
542.47	41181.73
542.63	41336.20
542.80	41258.96
542.97	42000.91
543.14	42014.96
543.31	41801.97
543.48	41773.88
543.64	42513.49
543.81	42103.90
543.98	41928.36
544.15	41738.77
544.32	42099.22
544.48	42466.68
544.65	42171.77
544.82	42562.64
544.99	41855.80
545.16	42059.43
545.32	42043.04
545.49	42670.31
545.66	43070.54
545.83	42550.94
546.00	42782.65
546.16	42366.04
546.33	42579.03
546.50	42050.06
546.67	42541.58
546.83	42298.16
547.00	42447.96
547.17	42768.61
547.34	42646.90
547.50	42698.39
547.67	43091.60
547.84	42803.72
548.00	43232.04
548.17	43789.08
548.34	43107.99
548.51	43154.80
548.67	43005.00
548.84	43182.88
549.01	43210.97
549.18	42976.92
549.34	43407.58
549.51	43672.06
549.68	43182.88
549.84	43196.93
550.01	43948.24
550.18	43632.27
550.34	43463.75
550.51	43302.25
550.68	43648.65
550.84	43288.21
551.01	43407.58
551.18	43480.13
551.34	43578.43
551.51	43627.59
551.68	43927.17
551.84	43894.41
552.01	43648.65
552.18	43737.59
552.34	43901.43
552.51	44151.87
552.68	43655.67
552.84	43416.94
553.01	44376.56
553.18	44165.91
553.34	44053.56
553.51	44051.22
553.67	44596.57
553.84	44491.24
554.01	44727.64
554.17	43590.14
554.34	44495.92
554.51	44294.64
554.67	44928.92
554.84	44774.45
555.00	44240.81
555.17	44374.22
555.33	44854.03
555.50	44444.43
555.67	44769.77
555.83	44718.28
556.00	44748.70
556.16	45118.51
556.33	44758.06
556.50	45148.93
556.66	44699.55
556.83	44430.39
556.99	44905.52
557.16	44690.19
557.32	44645.72
557.49	45233.19
557.65	44554.44
557.82	45188.72
557.98	44825.94
558.15	44751.04
558.32	44917.22
558.48	45003.82
558.65	45050.63
558.81	45045.95
558.98	45308.09
559.14	44645.72
559.31	44949.99
559.47	45352.56
559.64	45525.76
559.80	45284.68
559.97	45284.68
560.13	45453.20
560.30	45071.70
560.46	45481.29
560.63	45249.58
560.79	45432.14
560.96	46066.42
561.12	45392.35
561.29	45593.64
561.45	45523.42
561.61	45619.38
561.78	45769.18
561.94	45757.47
562.11	46085.15
562.27	45462.57
562.44	45109.14
562.60	45876.84
562.77	45638.11
562.93	45727.05
563.10	46344.95
563.26	45708.32
563.42	46117.92
563.59	45832.37
563.75	45872.16
563.92	45806.62
564.08	45333.84
564.24	45851.09
564.41	45787.90
564.57	46028.98
564.74	45652.15
564.90	45949.40
565.07	46094.51
565.23	46356.65
565.39	46033.66
565.56	46087.49
565.72	45832.37
565.88	46113.23
566.05	46021.95
566.21	46028.98
566.38	46263.03
566.54	46209.20
566.70	46337.93
566.87	46387.08
567.03	45904.93
567.19	46735.82
567.36	46232.60
567.52	46089.83
567.68	46415.16
567.85	46347.29
568.01	46478.36
568.17	46295.80
568.34	46735.82
568.50	46560.28
568.66	45965.78
568.83	46534.53
568.99	46291.12
569.15	46277.07
569.32	46188.13
569.48	46642.20
569.64	46628.15
569.81	46527.51
569.97	46284.09
570.13	46696.03
570.30	46108.55
570.46	46672.62
570.62	46511.13
570.78	46532.19
570.95	46476.02
571.11	46770.93
571.27	46595.38
571.43	46366.01
571.60	46330.90
571.76	46038.34
571.92	46237.28
572.09	46483.04
572.25	46574.32
572.41	46513.47
572.57	46550.91
572.74	47171.16
572.90	46513.47
573.06	46794.33
573.22	46829.44
573.38	47068.17
573.55	46946.47
573.71	46918.38
573.87	46782.63
574.03	46412.82
574.20	47084.56
574.36	46960.51
574.52	46988.60
574.68	46691.35
574.84	46969.87
575.01	47545.64
575.17	46850.50
575.33	46894.97
575.49	46710.07
575.65	46995.62
575.82	47192.22
575.98	46852.84
576.14	47393.51
576.30	47145.41
576.46	47107.96
576.62	47147.75
576.79	47173.50
576.95	46670.28
577.11	46466.66
577.27	47000.30
577.43	47047.11
577.59	46691.35
577.75	46852.84
577.92	46794.33
578.08	46639.86
578.24	46890.29
578.40	47290.52
578.56	47054.13
578.72	46799.01
578.88	46817.74
579.04	46838.80
579.21	47150.09
579.37	47023.70
579.53	46663.26
579.69	47374.78
579.85	47037.75
580.01	47049.45
580.17	47306.91
580.33	47264.78
580.49	46955.83
580.65	47168.82
580.82	47185.20
580.98	47089.24
581.14	46794.33
581.30	47105.62
581.46	47531.60
581.62	47318.61
581.78	47215.63
581.94	47016.68
582.10	46953.49
582.26	47222.65
582.42	47091.58
582.58	47194.56
582.74	47260.10
582.90	46656.24
583.06	47136.05
583.22	47192.22
583.38	47325.63
583.54	46813.05
583.70	47412.23
583.86	47327.97
584.02	47040.09
584.18	47447.34
584.34	47224.99
584.50	47721.18
584.66	47203.92
584.82	47082.22
584.98	47318.61
585.14	47562.03
585.30	47257.76
585.46	46976.89
585.62	47440.32
585.78	47297.55
585.94	47264.78
586.10	47620.54
586.26	47533.94
586.42	47360.74
586.58	47423.93
586.74	47456.70
586.90	47274.14
587.06	47428.62
587.22	47400.53
587.38	47136.05
587.54	47119.66
587.70	47580.75
587.86	47164.14
588.02	47285.84
588.18	47292.86
588.34	47316.27
588.49	47412.23
588.65	47243.71
588.81	47264.78
588.97	47592.45
589.13	47110.30
589.29	47524.58
589.45	47955.24
589.61	47798.42
589.77	47477.77
589.93	47449.68
590.08	47337.33
