SpectraSuite Data File
++++++++++++++++++++++++++++++++++++
Date: Fri Oct 25 10:43:26 EDT 2013
User: price-jones
Dark Spectrum Present: No
Reference Spectrum Present: No
Number of Sampled Component Spectra: 1
Spectrometers: USB2+H05261
Integration Time (usec): 100000 (USB2+H05261)
Spectra Averaged: 1 (USB2+H05261)
Boxcar Smoothing: 0 (USB2+H05261)
Correct for Electrical Dark: No (USB2+H05261)
Strobe/Lamp Enabled: No (USB2+H05261)
Correct for Detector Non-linearity: No (USB2+H05261)
Correct for Stray Light: No (USB2+H05261)
Number of Pixels in Processed Spectrum: 2048
>>>>>Begin Processed Spectral Data<<<<<
365.73	110.01
365.92	110.01
366.12	110.01
366.32	0.00
366.52	25.75
366.72	67.88
366.91	49.15
367.11	0.00
367.31	30.43
367.51	60.85
367.70	39.79
367.90	0.00
368.10	58.51
368.30	32.77
368.49	42.13
368.69	16.38
368.89	11.70
369.09	32.77
369.28	23.41
369.48	70.22
369.68	0.00
369.87	98.30
370.07	128.73
370.27	112.35
370.47	184.90
370.66	292.57
370.86	418.96
371.06	393.21
371.25	418.96
371.45	468.11
371.65	503.22
371.84	435.34
372.04	489.17
372.24	507.90
372.44	444.70
372.63	543.00
372.83	500.87
373.03	456.40
373.22	526.62
373.42	517.26
373.62	528.96
373.81	500.87
374.01	594.50
374.21	533.64
374.40	468.11
374.60	524.28
374.79	596.84
374.99	599.18
375.19	587.47
375.38	634.29
375.58	601.52
375.78	575.77
375.97	620.24
376.17	594.50
376.37	592.16
376.56	578.11
376.76	613.22
376.95	519.60
377.15	573.43
377.35	643.65
377.54	580.45
377.74	547.69
377.93	599.18
378.13	594.50
378.33	678.76
378.52	608.54
378.72	678.76
378.91	615.56
379.11	561.73
379.31	596.84
379.50	603.86
379.70	664.71
379.89	732.59
380.09	674.07
380.28	716.20
380.48	671.73
380.68	631.94
380.87	655.35
381.07	678.76
381.26	753.65
381.46	746.63
381.65	662.37
381.85	683.44
382.04	638.97
382.24	683.44
382.43	697.48
382.63	580.45
382.83	779.40
383.02	664.71
383.22	648.33
383.41	671.73
383.61	711.52
383.80	727.91
384.00	709.18
384.19	685.78
384.39	821.53
384.58	753.65
384.78	772.38
384.97	805.14
385.17	718.54
385.36	751.31
385.56	709.18
385.75	802.80
385.95	786.42
386.14	826.21
386.34	976.00
386.53	812.17
386.72	840.25
386.92	844.93
387.11	847.27
387.31	802.80
387.50	777.06
387.70	821.53
387.89	851.96
388.09	861.32
388.28	835.57
388.48	931.53
388.67	943.24
388.86	880.04
389.06	966.64
389.25	957.28
389.45	943.24
389.64	992.39
389.84	1034.52
390.03	936.21
390.22	1011.11
390.42	940.90
390.61	936.21
390.81	987.71
391.00	1011.11
391.19	1069.62
391.39	1015.79
391.58	1057.92
391.78	943.24
391.97	966.64
392.16	950.26
392.36	1006.43
392.55	1050.90
392.75	943.24
392.94	1029.84
393.13	1029.84
393.33	943.24
393.52	952.60
393.71	1067.28
393.91	1083.67
394.10	1088.35
394.29	1100.05
394.49	1203.04
394.68	1158.57
394.88	1245.16
395.07	1172.61
395.26	1177.29
395.46	1193.67
395.65	1212.40
395.84	1186.65
396.04	1217.08
396.23	1050.90
396.42	1100.05
396.62	1163.25
396.81	1179.63
397.00	1196.01
397.19	1245.16
397.39	1301.34
397.58	1350.49
397.77	1401.98
397.97	1423.05
398.16	1474.54
398.35	1451.13
398.55	1383.26
398.74	1420.71
398.93	1519.01
399.12	1561.14
399.32	1467.52
399.51	1460.49
399.70	1526.03
399.90	1558.80
400.09	1551.78
400.28	1500.28
400.47	1533.05
400.67	1636.03
400.86	1596.25
401.05	1631.35
401.24	1591.56
401.44	1629.01
401.63	1652.42
401.82	1565.82
402.01	1671.14
402.21	1720.29
402.40	1710.93
402.59	1692.21
402.78	1643.06
402.97	1678.16
403.17	1673.48
403.36	1696.89
403.55	1919.24
403.74	1888.81
403.93	1860.73
404.13	1853.70
404.32	1750.72
404.51	1813.92
404.70	1851.36
404.89	1881.79
405.09	1846.68
405.28	1877.11
405.47	1952.01
405.66	1956.69
405.85	1961.37
406.05	1947.33
406.24	1970.73
406.43	1926.26
406.62	1912.22
406.81	2132.23
407.00	1994.14
407.20	1966.05
407.39	1919.24
407.58	2066.69
407.77	2069.03
407.96	2193.08
408.15	2218.83
408.34	2188.40
408.54	2204.78
408.73	2188.40
408.92	2251.60
409.11	2256.28
409.30	2251.60
409.49	2202.44
409.68	2162.66
409.87	2190.74
410.07	2296.07
410.26	2303.09
410.45	2333.51
410.64	2265.64
410.83	2408.41
411.02	2464.58
411.21	2583.95
411.40	2544.16
411.59	2605.02
411.78	2516.08
411.98	2600.34
412.17	2609.70
412.36	2593.31
412.55	2567.57
412.74	2647.15
412.93	2644.81
413.12	2640.12
413.31	2792.26
413.50	2686.94
413.69	2782.90
413.88	2904.60
414.07	2836.73
414.26	2827.37
414.45	2871.84
414.64	3035.67
414.83	3012.27
415.02	2979.50
415.22	2967.80
415.41	3038.02
415.60	3094.19
415.79	2998.23
415.98	3173.77
416.17	3070.78
416.36	3248.66
416.55	3171.43
416.74	3148.02
416.93	3267.39
417.12	3255.69
417.31	3236.96
417.50	3295.47
417.69	3304.84
417.88	3236.96
418.07	3171.43
418.26	3393.78
418.45	3424.20
418.64	3524.85
418.83	3489.74
419.02	3517.83
419.21	3524.85
419.39	3618.47
419.58	3513.14
419.77	3449.95
419.96	3485.06
420.15	3599.74
420.34	3695.71
420.53	3672.30
420.72	3847.84
420.91	3616.13
421.10	3819.75
421.29	3751.88
421.48	3630.17
421.67	3838.48
421.86	3768.26
422.05	3763.58
422.24	3669.96
422.43	3716.77
422.61	3784.65
422.80	3857.20
422.99	3843.16
423.18	3801.03
423.37	3817.41
423.56	3829.12
423.75	3777.62
423.94	3822.09
424.13	3613.79
424.32	3756.56
424.50	3913.38
424.69	3812.73
424.88	3992.95
425.07	4014.02
425.26	3850.18
425.45	3794.01
425.64	3819.75
425.83	3911.04
426.01	4037.42
426.20	3882.95
426.39	3960.19
426.58	3817.41
426.77	3770.60
426.96	3950.82
427.15	3932.10
427.33	3906.35
427.52	3983.59
427.71	4072.53
427.90	4070.19
428.09	4046.79
428.28	3990.61
428.46	4126.36
428.65	4135.73
428.84	4102.96
429.03	4152.11
429.22	4044.45
429.40	4067.85
429.59	4091.26
429.78	3955.51
429.97	3845.50
430.16	3957.85
430.34	4007.00
430.53	3969.55
430.72	4168.49
430.91	4102.96
431.10	4297.22
431.28	4367.44
431.47	4407.23
431.66	4608.51
431.85	4430.63
432.03	4493.83
432.22	4503.19
432.41	4512.55
432.60	4463.40
432.79	4568.73
432.97	4854.27
433.16	4713.84
433.35	4667.03
433.54	4634.26
433.72	4517.23
433.91	4503.19
434.10	4610.86
434.28	4662.35
434.47	4851.93
434.66	4734.90
434.85	4945.55
435.03	4908.10
435.22	4854.27
435.41	5025.13
435.59	4910.44
435.78	5053.22
435.97	5053.22
436.16	5069.60
436.34	5090.67
436.53	5032.15
436.72	5212.37
436.90	5158.54
437.09	5130.45
437.28	5055.56
437.46	5078.96
437.65	5060.24
437.84	5144.50
438.02	5144.50
438.21	5095.35
438.40	4870.65
438.58	5317.70
438.77	5294.29
438.96	5362.17
439.14	5406.64
439.33	5472.17
439.52	5547.07
439.70	5579.84
439.89	5673.46
440.08	5687.50
440.26	5729.63
440.45	5605.58
440.63	5654.73
440.82	5813.89
441.01	5727.29
441.19	6015.18
441.38	5853.68
441.57	5919.21
441.75	5987.09
441.94	6134.54
442.12	6038.58
442.31	6202.42
442.50	6183.70
442.68	6073.69
442.87	6265.61
443.05	6150.93
443.24	6267.95
443.43	6263.27
443.61	6279.66
443.80	6579.25
443.98	6242.21
444.17	6162.63
444.35	6331.15
444.54	6469.24
444.73	6375.62
444.91	6415.41
445.10	6214.12
445.28	6249.23
445.47	6216.46
445.65	6186.04
445.84	6361.58
446.02	6633.08
446.21	6434.13
446.39	6345.19
446.58	6422.43
446.77	6441.15
446.95	6462.22
447.14	6548.82
447.32	6607.33
447.51	6424.77
447.69	6555.84
447.88	6597.97
448.06	6551.16
448.25	6497.33
448.43	6548.82
448.62	6614.35
448.80	6602.65
448.99	6740.74
449.17	6771.17
449.36	6771.17
449.54	6820.32
449.73	6846.07
449.91	6733.72
450.10	6792.23
450.28	7063.74
450.46	7068.42
450.65	7148.00
450.83	7108.21
451.02	6874.15
451.20	7061.40
451.39	7054.37
451.57	7119.91
451.76	6984.16
451.94	7042.67
452.13	7229.91
452.31	7047.35
452.49	7063.74
452.68	7283.75
452.86	6909.26
453.05	6939.69
453.23	7056.72
453.42	7089.48
453.60	7047.35
453.78	7314.17
453.97	7349.28
454.15	7101.19
454.34	7255.66
454.52	7185.44
454.70	7246.30
454.89	7311.83
455.07	7515.46
455.26	7543.55
455.44	7538.87
455.62	7365.67
455.81	7478.01
455.99	7583.34
456.17	7639.51
456.36	7744.83
456.54	7658.23
456.73	7903.99
456.91	7899.31
457.09	7885.26
457.28	8173.15
457.46	7843.14
457.64	7861.86
457.83	7892.29
458.01	7950.80
458.19	8067.83
458.38	7948.46
458.56	8154.43
458.74	8072.51
458.93	7934.42
459.11	7995.27
459.29	8004.63
459.48	8039.74
459.66	8278.47
459.84	8224.64
460.03	8290.18
460.21	8381.46
460.39	8290.18
460.57	8306.56
460.76	8526.57
460.94	8596.79
461.12	8456.36
461.31	8489.12
461.49	8432.95
461.67	8596.79
461.85	8599.13
462.04	8671.68
462.22	9118.73
462.40	8659.98
462.59	8606.15
462.77	8627.21
462.95	8683.39
463.13	8840.20
463.32	8634.24
463.50	8793.39
463.68	8812.12
463.86	8791.05
464.05	8847.22
464.23	8702.11
464.41	9011.06
464.59	8744.24
464.78	9076.60
464.96	8908.08
465.14	8765.31
465.32	8936.17
465.50	9069.58
465.69	9092.98
465.87	9013.40
466.05	9074.26
466.23	8798.07
466.41	8999.36
466.60	9088.30
466.78	9013.40
466.96	9022.77
467.14	8957.23
467.32	9090.64
467.51	9212.35
467.69	9057.87
467.87	9298.95
468.05	9408.95
468.23	9111.71
468.41	9156.18
468.60	9352.78
468.78	9413.63
468.96	9280.22
469.14	9516.62
469.32	9408.95
469.50	9195.96
469.69	9458.10
469.87	9392.57
470.05	9589.17
470.23	9703.86
470.41	9547.05
470.59	9598.54
470.77	9694.50
470.95	9603.22
471.14	9919.19
471.32	9851.31
471.50	10108.77
471.68	10097.07
471.86	10050.26
472.04	10293.68
472.22	10462.19
472.40	10120.48
472.58	10022.17
472.77	10459.85
472.95	10174.31
473.13	10623.69
473.31	10333.47
473.49	10209.42
473.67	10494.96
473.85	10523.05
474.03	10726.68
474.21	10942.00
474.39	10764.12
474.57	10834.34
474.75	11002.86
474.93	10874.13
475.12	11026.26
475.30	11101.16
475.48	11101.16
475.66	11307.13
475.84	11262.66
476.02	11176.06
476.20	11026.26
476.38	11517.78
476.56	11609.06
476.74	11606.72
476.92	11590.33
477.10	11679.27
477.28	11889.92
477.46	11740.13
477.64	11962.48
477.82	11978.86
478.00	12042.06
478.18	12348.67
478.36	12306.54
478.54	12498.46
478.72	12365.05
478.90	12973.59
479.08	12863.58
479.26	12929.12
479.44	12877.63
479.62	12908.05
479.80	13224.03
479.98	13125.72
480.16	13514.25
480.34	13298.92
480.52	13654.69
480.70	13509.57
480.88	13247.43
481.06	13556.38
481.24	13547.02
481.41	13825.54
481.59	14038.53
481.77	14071.30
481.95	14225.78
482.13	14347.48
482.31	14127.47
482.49	14733.67
482.67	14401.32
482.85	14565.15
483.03	14750.06
483.21	14712.61
483.39	15138.58
483.57	15082.41
483.74	15124.54
483.92	15424.13
484.10	15108.16
484.28	15405.41
484.46	15597.33
484.64	15901.60
484.82	15815.00
485.00	15777.55
485.18	16116.93
485.35	16243.32
485.53	16063.10
485.71	15882.88
485.89	16240.98
486.07	16152.04
486.25	16327.58
486.43	16732.49
486.61	16622.48
486.78	16847.18
486.96	17139.74
487.14	17460.40
487.32	17357.41
487.50	17633.60
487.68	17795.09
487.85	18073.62
488.03	18319.37
488.21	18190.64
488.39	17972.97
488.57	18253.84
488.75	18361.50
488.92	18981.74
489.10	18979.40
489.28	18944.30
489.46	19421.77
489.64	19269.63
489.81	19770.51
489.99	19917.96
490.17	19655.82
490.35	19988.18
490.53	19875.83
490.70	20353.30
490.88	19955.41
491.06	20444.58
491.24	19948.39
491.41	20287.76
491.59	20390.75
491.77	20556.93
491.95	20765.23
492.13	20957.16
492.30	21032.05
492.48	21399.52
492.66	21406.54
492.84	21390.16
493.01	21490.80
493.19	21460.37
493.37	21635.91
493.54	21869.97
493.72	21916.78
493.90	22176.58
494.08	22232.75
494.25	22515.95
494.43	22953.63
494.61	22970.02
494.79	23054.28
494.96	22712.56
495.14	23033.21
495.32	23101.09
495.49	23353.87
495.67	23166.62
495.85	23616.01
496.02	23681.54
496.20	23992.83
496.38	24032.62
496.55	24079.43
496.73	24826.06
496.91	24372.00
497.09	24540.52
497.26	24542.86
497.44	24676.27
497.62	24907.98
497.79	25298.85
497.97	24552.22
498.14	25214.59
498.32	25191.19
498.50	25242.68
498.67	25500.14
498.85	25308.21
499.03	25970.58
499.20	25635.89
499.38	25797.38
499.56	26232.72
499.73	25610.14
499.91	25834.83
500.08	26033.78
500.26	26066.55
500.44	26047.82
500.61	26412.95
500.79	26162.51
500.97	26436.35
501.14	26855.31
501.32	26569.76
501.49	26431.67
501.67	26984.04
501.84	27096.38
502.02	27068.30
502.20	27494.27
502.37	27192.34
502.55	27585.55
502.72	26845.94
502.90	27367.88
503.07	27819.61
503.25	27564.49
503.43	27211.07
503.60	27454.48
503.78	27431.08
503.95	27782.16
504.13	28044.30
504.30	28374.31
504.48	27901.53
504.65	28346.23
504.83	28510.07
505.01	28367.29
505.18	28266.65
505.36	28849.44
505.53	28673.90
505.71	29153.71
505.88	29392.45
506.06	28645.82
506.23	29261.38
506.41	29249.67
506.58	29493.09
506.76	29214.57
506.93	29362.02
507.11	29188.82
507.28	29479.05
507.46	29326.91
507.63	29181.80
507.81	29979.92
507.98	29446.28
508.16	29560.97
508.33	29872.26
508.50	30108.65
508.68	30246.74
508.85	30881.03
509.03	30302.92
509.20	30525.27
509.38	30541.65
509.55	30508.88
509.73	30866.98
509.90	30583.78
510.08	30756.98
510.25	30829.54
510.42	30948.90
510.60	31222.75
510.77	31150.19
510.95	31257.85
511.12	31234.45
511.30	31297.64
511.47	31828.95
511.64	31824.26
511.82	31917.89
511.99	31480.21
512.17	31665.11
512.34	31475.52
512.51	32091.09
512.69	32245.56
512.86	31967.04
513.04	31873.42
513.21	32013.85
513.38	32404.72
513.56	32542.81
513.73	32261.94
513.90	32467.91
514.08	32294.71
514.25	32243.22
514.43	32439.82
514.60	32701.96
514.77	32355.57
514.95	33017.94
515.12	32968.79
515.29	33027.30
515.47	33549.24
515.64	33223.90
515.81	32875.16
515.99	33427.53
516.16	33102.20
516.33	32797.93
516.51	33156.03
516.68	32526.42
516.85	32748.78
517.03	32929.00
517.20	33378.38
517.37	33422.85
517.54	34033.73
517.72	33614.77
517.89	33275.40
518.06	33460.30
518.24	33556.26
518.41	33598.39
518.58	34094.58
518.75	34092.24
518.93	34335.66
519.10	34022.03
519.27	34508.86
519.45	34377.79
519.62	34525.24
519.79	34684.40
519.96	35218.04
520.14	34632.91
520.31	34771.00
520.48	35122.08
520.65	35054.20
520.83	35356.13
521.00	35152.51
521.17	35138.46
521.34	35323.36
521.52	35409.96
521.69	35653.38
521.86	35536.35
522.03	35683.81
522.20	35599.55
522.38	35611.25
522.55	36046.59
522.72	35480.18
522.89	36023.19
523.07	36392.99
523.24	35896.80
523.41	36343.84
523.58	36027.87
523.75	36762.79
523.92	36903.23
524.10	36500.65
524.27	36706.62
524.44	36615.34
524.61	36987.49
524.78	37015.57
524.96	36957.06
525.13	37097.49
525.30	37226.22
525.47	37287.07
525.64	37088.13
525.81	37081.11
525.98	36823.65
526.16	36673.85
526.33	36708.96
526.50	36924.29
526.67	36851.73
526.84	36992.17
527.01	36708.96
527.18	37502.40
527.36	37181.75
527.53	37600.71
527.70	37834.76
527.87	37792.63
528.04	37607.73
528.21	37984.55
528.38	38038.39
528.55	38036.05
528.72	38153.07
528.89	38611.82
529.07	38412.87
529.24	37933.06
529.41	38340.32
529.58	38134.35
529.75	38234.99
529.92	38234.99
530.09	38780.34
530.26	38731.18
530.43	38340.32
530.60	38803.74
530.77	38450.32
530.94	38941.83
531.11	38745.23
531.28	38831.83
531.46	39009.71
531.63	39496.54
531.80	38969.92
531.97	38925.45
532.14	38490.11
532.31	38815.44
532.48	39047.16
532.65	38557.99
532.82	38913.75
532.99	39023.75
533.16	39316.32
533.33	39215.68
533.50	39175.89
533.67	39295.25
533.84	39433.35
534.01	39550.37
534.18	39545.69
534.35	39864.00
534.52	40034.86
534.69	39906.13
534.86	39924.86
535.03	39381.85
535.20	40006.78
535.37	40165.93
535.54	40580.21
535.71	39711.87
535.88	40147.21
536.05	39941.24
536.22	39814.85
536.38	40093.38
536.55	40343.81
536.72	40093.38
536.89	40128.48
537.06	40488.93
537.23	40341.47
537.40	40460.84
537.57	40416.37
537.74	40582.55
537.91	40664.47
538.08	40655.11
538.25	40418.71
538.42	40730.00
538.59	40919.59
538.75	40205.72
538.92	40458.50
539.09	40776.81
539.26	40844.69
539.43	40706.60
539.60	40879.80
539.77	40540.42
539.94	40722.98
540.11	40692.55
540.28	41045.97
540.44	40692.55
540.61	40863.41
540.78	40783.83
540.95	40893.84
541.12	41186.41
541.29	40910.22
541.46	41216.83
541.62	41443.87
541.79	41631.11
541.96	40928.95
542.13	41387.69
542.30	41310.46
542.47	41165.34
542.63	41179.39
542.80	41574.94
542.97	42153.05
543.14	42005.59
543.31	42218.58
543.48	42305.18
543.64	41696.64
543.81	42375.40
543.98	41818.35
544.15	41874.52
544.32	42363.70
544.48	42349.65
544.65	42351.99
544.82	42202.20
544.99	41783.24
545.16	42539.24
545.32	41979.85
545.49	42419.87
545.66	42770.95
545.83	42593.07
546.00	42642.22
546.16	42316.89
546.33	42380.08
546.50	42550.94
546.67	42525.19
546.83	42075.81
547.00	42532.22
547.17	43026.07
547.34	42344.97
547.50	42880.95
547.67	42672.65
547.84	42714.78
548.00	43136.07
548.17	43213.31
548.34	43540.99
548.51	43096.28
548.67	43019.05
548.84	43253.10
549.01	42864.57
549.18	43157.14
549.34	42934.79
549.51	43257.78
549.68	43398.21
549.84	43147.78
550.01	43079.90
550.18	42866.91
550.34	42951.17
550.51	43131.39
550.68	43236.72
550.84	43089.26
551.01	43494.18
551.18	43311.61
551.34	43239.06
551.51	43796.10
551.68	43344.38
551.84	43164.16
552.01	43243.74
552.18	43894.41
552.34	43346.72
552.51	43672.06
552.68	43587.80
552.84	43239.06
553.01	44107.40
553.18	43622.90
553.34	43948.24
553.51	43826.53
553.67	43842.92
553.84	43908.45
554.01	44224.42
554.17	44186.97
554.34	44191.65
554.51	43611.20
554.67	43999.73
554.84	44430.39
555.00	44088.67
555.17	44154.21
555.33	44088.67
555.50	44126.12
555.67	44121.44
555.83	44343.79
556.00	44210.38
556.16	44463.16
556.33	44020.80
556.50	44088.67
556.66	44179.95
556.83	43627.59
556.99	44205.70
557.16	44037.18
557.32	44514.65
557.49	44727.64
557.65	44371.88
557.82	44774.45
557.98	44589.55
558.15	44198.68
558.32	44481.88
558.48	44266.55
558.65	44545.08
558.81	44069.95
558.98	44334.43
559.14	44381.24
559.31	44264.21
559.47	44584.86
559.64	45015.52
559.80	44949.99
559.97	44949.99
560.13	44744.02
560.30	44479.54
560.46	44734.66
560.63	44807.22
560.79	45223.83
560.96	44987.44
561.12	44879.77
561.29	44582.52
561.45	44472.52
561.61	44959.35
561.78	45071.70
561.94	44877.43
562.11	44430.39
562.27	45006.16
562.44	45109.14
562.60	44945.31
562.77	44795.51
562.93	44971.05
563.10	45237.87
563.26	44594.23
563.42	44959.35
563.59	45291.71
563.75	44832.96
563.92	45399.37
564.08	45144.25
564.24	45530.44
564.41	44765.09
564.57	45111.49
564.74	45118.51
564.90	44989.78
565.07	44842.32
565.23	45230.85
565.39	44870.41
565.56	45085.74
565.72	44708.91
565.88	44903.18
566.05	44718.28
566.21	45050.63
566.38	44828.28
566.54	45134.89
566.70	45656.83
566.87	45668.53
567.03	45104.46
567.19	45500.01
567.36	45485.97
567.52	45074.04
567.68	45380.65
567.85	44996.80
568.01	45057.65
568.17	45366.60
568.34	45055.31
568.50	45167.66
568.66	45017.86
568.83	45165.32
568.99	45181.70
569.15	45216.81
569.32	45272.98
569.48	45385.33
569.64	45654.49
569.81	44804.88
569.97	44809.56
570.13	45879.18
570.30	44980.42
570.46	45195.74
570.62	44842.32
570.78	45050.63
570.95	44961.69
571.11	45085.74
571.27	45177.02
571.43	45467.25
571.60	45425.12
571.76	45394.69
571.92	45404.05
572.09	45422.78
572.25	46010.25
572.41	45717.68
572.57	45647.47
572.74	45869.82
572.90	45874.50
573.06	45263.62
573.22	45588.95
573.38	45537.46
573.55	45448.52
573.71	45626.40
573.87	45603.00
574.03	45507.04
574.20	45715.34
574.36	45846.41
574.52	45581.93
574.68	45111.49
574.84	45474.27
575.01	45539.80
575.17	45347.88
575.33	44818.92
575.49	45333.84
575.65	45769.18
575.82	45860.46
575.98	45397.03
576.14	45738.75
576.30	45581.93
576.46	45495.33
576.62	45177.02
576.79	45354.90
576.95	45448.52
577.11	45518.74
577.27	45333.84
577.43	45284.68
577.59	45272.98
577.75	45656.83
577.92	45034.25
578.08	44968.71
578.24	45268.30
578.40	45560.87
578.56	45738.75
578.72	45354.90
578.88	45701.30
579.04	45509.38
579.21	45420.44
579.37	45429.80
579.53	45593.64
579.69	44966.37
579.85	45502.35
580.01	45345.54
580.17	45228.51
580.33	45462.57
580.49	45675.55
580.65	45338.52
580.82	45422.78
580.98	45099.78
581.14	45261.28
581.30	45595.98
581.46	45581.93
581.62	45542.14
581.78	45645.13
581.94	45911.95
582.10	46087.49
582.26	45399.37
582.42	45930.67
582.58	45450.86
582.74	45703.64
582.90	45713.00
583.06	45872.16
583.22	45731.73
583.38	45881.52
583.54	45511.72
583.70	45722.37
583.86	45617.04
584.02	45701.30
584.18	45993.87
584.34	45626.40
584.50	45645.13
584.66	45544.48
584.82	45251.92
584.98	45984.51
585.14	45715.34
585.30	45729.39
585.46	45455.54
585.62	45336.18
585.78	45574.91
585.94	45001.48
586.10	45610.02
586.26	45277.66
586.42	45935.35
586.58	45530.44
586.74	45324.47
586.90	45535.12
587.06	45364.26
587.22	45673.21
587.38	45523.42
587.54	45736.41
587.70	46167.07
587.86	45619.38
588.02	45748.11
588.18	46043.02
588.34	45177.02
588.49	45261.28
588.65	45425.12
588.81	45242.56
588.97	45055.31
589.13	45008.50
589.29	45078.72
589.45	45397.03
589.61	45947.06
589.77	45502.35
589.93	46286.43
590.08	45902.59
