SpectraSuite Data File
++++++++++++++++++++++++++++++++++++
Date: Fri Oct 25 11:25:17 EDT 2013
User: price-jones
Dark Spectrum Present: No
Reference Spectrum Present: No
Number of Sampled Component Spectra: 1
Spectrometers: USB2+H05261
Integration Time (usec): 100000 (USB2+H05261)
Spectra Averaged: 1 (USB2+H05261)
Boxcar Smoothing: 0 (USB2+H05261)
Correct for Electrical Dark: No (USB2+H05261)
Strobe/Lamp Enabled: No (USB2+H05261)
Correct for Detector Non-linearity: No (USB2+H05261)
Correct for Stray Light: No (USB2+H05261)
Number of Pixels in Processed Spectrum: 2048
>>>>>Begin Processed Spectral Data<<<<<
365.73	231.71
365.92	231.71
366.12	231.71
366.32	138.09
366.52	98.30
366.72	234.05
366.91	173.20
367.11	159.16
367.31	170.86
367.51	131.07
367.70	133.41
367.90	163.84
368.10	170.86
368.30	124.05
368.49	65.54
368.69	182.56
368.89	166.18
369.09	138.09
369.28	166.18
369.48	114.69
369.68	205.97
369.87	198.95
370.07	168.52
370.27	271.50
370.47	346.40
370.66	533.64
370.86	615.56
371.06	585.13
371.25	699.82
371.45	683.44
371.65	718.54
371.84	676.41
372.04	669.39
372.24	589.82
372.44	702.16
372.63	753.65
372.83	748.97
373.03	730.25
373.22	631.94
373.42	767.70
373.62	690.46
373.81	760.67
374.01	826.21
374.21	716.20
374.40	737.27
374.60	835.57
374.79	737.27
374.99	849.61
375.19	837.91
375.38	882.38
375.58	858.98
375.78	873.02
375.97	844.93
376.17	903.45
376.37	882.38
376.56	908.13
376.76	936.21
376.95	788.76
377.15	926.85
377.35	952.60
377.54	908.13
377.74	861.32
377.93	905.79
378.13	926.85
378.33	933.87
378.52	894.08
378.72	966.64
378.91	954.94
379.11	1039.20
379.31	931.53
379.50	915.15
379.70	973.66
379.89	997.07
380.09	952.60
380.28	976.00
380.48	954.94
380.68	894.08
380.87	1004.09
381.07	1057.92
381.26	1013.45
381.46	1050.90
381.65	992.39
381.85	985.37
382.04	1057.92
382.24	1034.52
382.43	1078.99
382.63	1093.03
382.83	994.73
383.02	1118.78
383.22	1097.71
383.41	1090.69
383.61	1109.41
383.80	1053.24
384.00	1039.20
384.19	1097.71
384.39	1130.48
384.58	1081.33
384.78	1095.37
384.97	1144.52
385.17	1062.60
385.36	1069.62
385.56	1128.14
385.75	1224.10
385.95	1170.27
386.14	1203.04
386.34	1165.59
386.53	1200.69
386.72	1196.01
386.92	1277.93
387.11	1277.93
387.31	1299.00
387.50	1261.55
387.70	1212.40
387.89	1174.95
388.09	1324.74
388.28	1296.66
388.48	1334.11
388.67	1366.87
388.86	1259.21
389.06	1256.87
389.25	1291.98
389.45	1385.60
389.64	1275.59
389.84	1404.32
390.03	1322.40
390.22	1404.32
390.42	1392.62
390.61	1352.83
390.81	1378.58
391.00	1448.79
391.19	1439.43
391.39	1432.41
391.58	1465.18
391.78	1458.15
391.97	1406.66
392.16	1497.94
392.36	1579.86
392.55	1465.18
392.75	1488.58
392.94	1509.65
393.13	1502.62
393.33	1465.18
393.52	1547.09
393.71	1582.20
393.91	1563.48
394.10	1598.59
394.29	1614.97
394.49	1540.07
394.68	1612.63
394.88	1593.90
395.07	1748.38
395.26	1589.22
395.46	1727.32
395.65	1561.14
395.84	1818.60
396.04	1834.98
396.23	1795.19
396.42	1694.55
396.62	1783.49
396.81	1722.63
397.00	1795.19
397.19	1668.80
397.39	1790.51
397.58	1732.00
397.77	1732.00
397.97	1827.96
398.16	1811.57
398.35	1898.17
398.55	1802.21
398.74	1905.20
398.93	1952.01
399.12	1926.26
399.32	1881.79
399.51	1926.26
399.70	1930.94
399.90	1980.09
400.09	1952.01
400.28	1952.01
400.47	2099.46
400.67	2073.71
400.86	2076.06
401.05	2076.06
401.24	2019.88
401.44	2155.63
401.63	2062.01
401.82	2193.08
402.01	2043.29
402.21	2120.53
402.40	2218.83
402.59	2174.36
402.78	2167.34
402.97	2249.25
403.17	2165.00
403.36	2253.94
403.55	2277.34
403.74	2324.15
403.93	2324.15
404.13	2270.32
404.32	2415.43
404.51	2352.24
404.70	2417.77
404.89	2408.41
405.09	2499.69
405.28	2420.11
405.47	2417.77
405.66	2450.54
405.85	2464.58
406.05	2417.77
406.24	2480.97
406.43	2459.90
406.62	2602.68
406.81	2736.09
407.00	2537.14
407.20	2539.48
407.39	2612.04
407.58	2775.88
407.77	2773.53
407.96	2764.17
408.15	2825.03
408.34	2691.62
408.54	2743.11
408.73	2750.13
408.92	2647.15
409.11	2771.19
409.30	2848.43
409.49	2815.66
409.68	2766.51
409.87	2832.05
410.07	3009.93
410.26	3077.80
410.45	2956.10
410.64	2932.69
410.83	3105.89
411.02	3126.96
411.21	3251.00
411.40	3110.57
411.59	3159.72
411.78	2981.84
411.98	3251.00
412.17	3208.87
412.36	3332.92
412.55	3279.09
412.74	3248.66
412.93	3283.77
413.12	3253.34
413.31	3391.44
413.50	3482.72
413.69	3506.12
413.88	3627.83
414.07	3599.74
414.26	3510.80
414.45	3618.47
414.64	3658.26
414.83	3740.18
415.02	3730.81
415.22	3815.07
415.41	3768.26
415.60	3789.33
415.79	3922.74
415.98	3964.87
416.17	3927.42
416.36	3904.01
416.55	3826.78
416.74	4028.06
416.93	3974.23
417.12	4147.43
417.31	4124.02
417.50	4180.20
417.69	4255.09
417.88	4229.35
418.07	4180.20
418.26	4266.80
418.45	4311.27
418.64	4470.42
418.83	4465.74
419.02	4416.59
419.21	4346.37
419.39	4447.02
419.58	4514.89
419.77	4444.68
419.96	4690.43
420.15	4603.83
420.34	4547.66
420.53	4622.56
420.72	4706.82
420.91	4652.98
421.10	4669.37
421.29	4865.97
421.48	4550.00
421.67	4638.94
421.86	4837.89
422.05	4765.33
422.24	4854.27
422.43	4901.08
422.61	5008.75
422.80	4908.10
422.99	4851.93
423.18	4943.21
423.37	5001.72
423.56	4919.81
423.75	4851.93
423.94	4765.33
424.13	4517.23
424.32	4662.35
424.50	5039.17
424.69	5053.22
424.88	4940.87
425.07	4812.14
425.26	5015.77
425.45	4809.80
425.64	4880.02
425.83	4791.08
426.01	5048.54
426.20	5069.60
426.39	5111.73
426.58	5029.81
426.77	5015.77
426.96	5275.57
427.15	5027.47
427.33	5151.52
427.52	5186.63
427.71	5214.71
427.90	5160.88
428.09	5191.31
428.28	5139.82
428.46	5184.29
428.65	5308.34
428.84	5542.39
429.03	5413.66
429.22	5242.80
429.40	5647.71
429.59	5275.57
429.78	5334.08
429.97	5212.37
430.16	5476.85
430.34	5404.30
430.53	5628.99
430.72	5675.80
430.91	5710.91
431.10	5636.01
431.28	5738.99
431.47	5832.62
431.66	5673.46
431.85	5680.48
432.03	5907.51
432.22	5891.13
432.41	5755.38
432.60	5940.28
432.79	5767.08
432.97	5923.90
433.16	5795.17
433.35	6029.22
433.54	5977.73
433.72	6160.29
433.91	5996.45
434.10	6040.92
434.28	5888.79
434.47	6069.01
434.66	6303.06
434.85	6272.64
435.03	6319.45
435.22	6153.27
435.41	6258.59
435.59	6314.77
435.78	6497.33
435.97	6291.36
436.16	6394.34
436.34	6434.13
436.53	6443.49
436.72	6637.76
436.90	6422.43
437.09	6593.29
437.28	6483.28
437.46	6555.84
437.65	6483.28
437.84	6822.66
438.02	6745.42
438.21	6647.12
438.40	6600.31
438.58	6832.02
438.77	7019.27
438.96	7047.35
439.14	7002.88
439.33	7059.06
439.52	7131.61
439.70	7042.67
439.89	7421.84
440.08	7248.64
440.26	7274.38
440.45	7293.11
440.63	7393.75
440.82	7433.54
441.01	7487.37
441.19	7456.95
441.38	7660.57
441.57	7625.47
441.75	7583.34
441.94	7770.58
442.12	7929.74
442.31	7978.89
442.50	7999.95
442.68	7859.52
442.87	7981.23
443.05	8004.63
443.24	8128.68
443.43	7936.76
443.61	8035.06
443.80	8449.33
443.98	7754.19
444.17	7777.60
444.35	8119.32
444.54	8372.10
444.73	7990.59
444.91	8348.69
445.10	8086.55
445.28	8159.11
445.47	8292.52
445.65	8255.07
445.84	8234.00
446.02	8409.54
446.21	8102.93
446.39	8285.50
446.58	8428.27
446.77	8414.23
446.95	8243.37
447.14	8472.74
447.32	8596.79
447.51	8299.54
447.69	8379.12
447.88	8409.54
448.06	8505.51
448.25	8402.52
448.43	8505.51
448.62	8458.70
448.80	8566.36
448.99	8571.04
449.17	8779.35
449.36	8650.62
449.54	8784.03
449.73	8901.06
449.91	8933.82
450.10	8732.54
450.28	9018.08
450.46	8861.27
450.65	8964.25
450.83	9043.83
451.02	9020.42
451.20	9132.77
451.39	9081.28
451.57	9114.05
451.76	9001.70
451.94	9081.28
452.13	9160.86
452.31	9212.35
452.49	9083.62
452.68	9315.33
452.86	9315.33
453.05	9280.22
453.23	9474.49
453.42	9233.41
453.60	9121.07
453.78	9448.74
453.97	9289.59
454.15	9373.85
454.34	9294.27
454.52	9563.43
454.70	9722.59
454.89	9689.82
455.07	9584.49
455.26	9741.31
455.44	9724.93
455.62	9792.80
455.81	9818.55
455.99	9935.57
456.17	9958.98
456.36	10143.88
456.54	9930.89
456.73	10033.88
456.91	10317.08
457.09	10239.84
457.28	10289.00
457.46	10059.62
457.64	10349.85
457.83	10555.82
458.01	10232.82
458.19	10633.05
458.38	10455.17
458.56	10431.77
458.74	10661.14
458.93	10679.86
459.11	10871.79
459.29	10593.26
459.48	10764.12
459.66	10808.59
459.84	10862.43
460.03	11054.35
460.21	10829.66
460.39	10651.78
460.57	10951.37
460.76	11171.38
460.94	11265.00
461.12	11091.80
461.31	11068.39
461.49	11138.61
461.67	11103.50
461.85	11302.45
462.04	11194.78
462.22	11892.26
462.40	11576.29
462.59	11269.68
462.77	11569.27
462.95	11452.24
463.13	11346.92
463.32	11527.14
463.50	11742.47
463.68	11445.22
463.86	11683.95
464.05	11363.30
464.23	11452.24
464.41	11922.69
464.59	11658.21
464.78	12070.14
464.96	11674.59
465.14	11658.21
465.32	11880.56
465.50	12016.31
465.69	11861.84
465.87	11871.20
466.05	11971.84
466.23	12177.81
466.41	12023.33
466.60	12248.02
466.78	11969.50
466.96	12023.33
467.14	12217.60
467.32	12219.94
467.51	12554.63
467.69	12166.10
467.87	12210.57
468.05	12765.28
468.23	12374.41
468.41	12222.28
468.60	12549.95
468.78	12758.26
468.96	12479.74
469.14	12753.58
469.32	12875.29
469.50	12631.87
469.69	12865.92
469.87	13050.83
470.05	13107.00
470.23	13233.39
470.41	12844.86
470.59	13186.58
470.77	13111.68
470.95	13144.45
471.14	13352.76
471.32	13247.43
471.50	13635.96
471.68	13659.37
471.86	13460.42
472.04	13846.61
472.22	13914.48
472.40	13408.93
472.58	13565.74
472.77	13980.02
472.95	13905.12
473.13	14284.29
473.31	14054.92
473.49	14064.28
473.67	13703.84
473.85	14408.34
474.03	14225.78
474.21	14450.47
474.39	14633.03
474.57	14476.21
474.75	14637.71
474.93	14857.72
475.12	14675.16
475.30	14878.79
475.48	14738.35
475.66	15087.09
475.84	15433.49
476.02	15187.74
476.20	15372.64
476.38	15407.75
476.56	15623.08
476.74	15831.38
476.92	15377.32
477.10	15630.10
477.28	16030.33
477.46	16315.87
477.64	16315.87
477.82	16535.88
478.00	16723.13
478.18	16690.36
478.36	16669.30
478.54	17188.89
478.72	17039.10
478.90	17219.32
479.08	17291.88
479.26	17575.08
479.44	17570.40
479.62	17436.99
479.80	17900.42
479.98	18099.36
480.16	18314.69
480.34	18190.64
480.52	18438.74
480.70	18244.48
480.88	18354.48
481.06	18483.21
481.24	18815.57
481.41	19005.15
481.59	19028.56
481.77	19164.31
481.95	19543.47
482.13	19702.63
482.31	19630.07
482.49	20056.05
482.67	19812.63
482.85	20357.98
483.03	20428.20
483.21	20589.69
483.39	20716.08
483.57	20868.22
483.74	20767.57
483.92	21160.78
484.10	21064.82
484.28	21708.47
484.46	21900.39
484.64	22059.55
484.82	21879.33
485.00	22253.81
485.18	22256.15
485.35	22993.42
485.53	22707.88
485.71	22693.83
485.89	23391.31
486.07	23068.32
486.25	23054.28
486.43	23541.11
486.61	23590.26
486.78	23859.42
486.96	23866.44
487.14	24229.23
487.32	24034.96
487.50	24582.65
487.68	24779.25
487.85	25275.45
488.03	25546.95
488.21	25642.91
488.39	25535.24
488.57	26005.69
488.75	25638.23
488.92	25989.31
489.10	26361.45
489.28	26675.09
489.46	26995.74
489.64	26691.47
489.81	27323.41
489.99	27398.31
490.17	27608.96
490.35	28215.16
490.53	27536.40
490.70	27946.00
490.88	28039.62
491.06	28699.65
491.24	28655.18
491.41	28898.59
491.59	28664.54
491.77	29090.52
491.95	29237.97
492.13	29418.19
492.30	29881.62
492.48	29577.35
492.66	30272.49
492.84	29771.61
493.01	30555.69
493.19	30586.12
493.37	30457.39
493.54	30625.91
493.72	31295.30
493.90	31456.80
494.08	31777.45
494.25	31618.30
494.43	31697.88
494.61	32140.24
494.79	31810.22
494.96	31899.16
495.14	32554.51
495.32	33132.62
495.49	32912.61
495.67	33289.44
495.85	33228.59
496.02	33193.48
496.20	33551.58
496.38	33785.63
496.55	33851.17
496.73	34464.39
496.91	34103.95
497.09	34672.70
497.26	34876.32
497.44	34630.57
497.62	34759.30
497.79	35414.65
497.97	35054.20
498.14	35339.75
498.32	35997.44
498.50	36240.86
498.67	36444.48
498.85	36109.78
499.03	36369.58
499.20	36601.30
499.38	36552.15
499.56	36723.01
499.73	36488.95
499.91	36896.20
500.08	37511.77
500.26	36877.48
500.44	36891.52
500.61	37233.24
500.79	37359.63
500.97	37809.01
501.14	38043.07
501.32	38501.81
501.49	38178.82
501.67	38557.99
501.84	38712.46
502.02	38623.52
502.20	38810.76
502.37	38904.38
502.55	38801.40
502.72	39386.54
502.90	39328.02
503.07	38953.54
503.25	39566.76
503.43	39180.57
503.60	39414.62
503.78	40011.46
503.95	39803.15
504.13	40065.29
504.30	40245.51
504.48	40135.51
504.65	40041.88
504.83	40802.56
505.01	41085.76
505.18	40968.74
505.36	41076.40
505.53	41401.74
505.71	41500.04
505.88	41385.35
506.06	41289.39
506.23	41794.95
506.41	42029.00
506.58	41626.43
506.76	42108.58
506.93	41933.04
507.11	41841.76
507.28	41804.31
507.46	42504.13
507.63	42698.39
507.81	42698.39
507.98	42747.54
508.16	42766.27
508.33	43335.02
508.50	43215.65
508.68	43391.19
508.85	43681.42
509.03	43278.85
509.20	43613.54
509.38	44198.68
509.55	43927.17
509.73	44006.75
509.90	44273.57
510.08	44404.64
510.25	44598.91
510.42	44446.77
510.60	44790.83
510.77	44907.86
510.95	45027.23
511.12	44767.43
511.30	45038.93
511.47	45296.39
511.64	45298.73
511.82	45588.95
511.99	45544.48
512.17	45703.64
512.34	45689.60
512.51	45883.86
512.69	45986.85
512.86	46024.29
513.04	46403.46
513.21	46230.26
513.38	46780.29
513.56	46951.15
513.73	46188.13
513.90	46618.79
514.08	46583.68
514.25	46965.19
514.43	47157.11
514.60	46932.42
514.77	46642.20
514.95	47042.43
515.12	47224.99
515.29	47290.52
515.47	47749.27
515.64	47246.05
515.81	47311.59
515.99	47889.70
516.16	48023.11
516.33	47908.43
516.51	48690.16
516.68	48271.21
516.85	48278.23
517.03	48739.32
517.20	48580.16
517.37	48704.21
517.54	48470.15
517.72	48835.28
517.89	48900.81
518.06	48938.26
518.24	48992.09
518.41	48851.66
518.58	48755.70
518.75	49092.74
518.93	48999.12
519.10	49275.30
519.27	49354.88
519.45	49514.03
519.62	49586.59
519.79	49787.88
519.96	49710.64
520.14	50094.49
520.31	49801.92
520.48	50136.62
520.65	49851.07
520.83	50375.35
521.00	50127.25
521.17	50267.69
521.34	50499.40
521.52	50485.36
521.69	50309.82
521.86	50658.56
522.03	50789.62
522.20	50993.25
522.38	51007.29
522.55	51215.60
522.72	51021.34
522.89	51110.28
523.07	51332.63
523.24	51393.48
523.41	51662.64
523.58	51136.02
523.75	51625.20
523.92	51540.94
524.10	51632.22
524.27	51674.35
524.44	51686.05
524.61	52079.26
524.78	52097.98
524.96	51990.32
525.13	51913.08
525.30	52058.20
525.47	52369.49
525.64	52193.95
525.81	52215.01
525.98	52374.17
526.16	52229.05
526.33	52392.89
526.50	52774.40
526.67	52399.91
526.84	52465.45
527.01	52453.75
527.18	52865.68
527.36	52566.09
527.53	52947.60
527.70	53312.72
527.87	53008.45
528.04	52903.13
528.21	53078.67
528.38	53132.50
528.55	53233.14
528.72	52935.90
528.89	52996.75
529.07	53256.55
529.24	53144.20
529.41	53446.13
529.58	53279.96
529.75	53553.80
529.92	53394.64
530.09	53577.20
530.26	53450.81
530.43	53748.06
530.60	53460.18
530.77	53577.20
530.94	53785.51
531.11	54003.18
531.28	53991.48
531.46	54012.54
531.63	54061.69
531.80	54202.13
531.97	54124.89
532.14	54457.24
532.31	54010.20
532.48	54335.54
532.65	54272.34
532.82	54270.00
532.99	54440.86
533.16	54312.13
533.33	54578.95
533.50	54705.34
533.67	54747.47
533.84	54218.51
534.01	54590.66
534.18	54429.16
534.35	55016.63
534.52	54714.70
534.69	54969.82
534.86	54993.23
535.03	54754.49
535.20	55201.53
535.37	55180.47
535.54	55285.79
535.71	55035.36
535.88	55466.02
536.05	55283.45
536.22	55236.64
536.38	55255.37
536.55	55269.41
536.72	55292.82
536.89	55358.35
537.06	55327.92
537.23	55793.69
537.40	55393.46
537.57	55690.71
537.74	55477.72
537.91	55732.84
538.08	55508.14
538.25	55599.43
538.42	55599.43
538.59	55882.63
538.75	55599.43
538.92	55828.80
539.09	56025.40
539.26	55725.81
539.43	55913.06
539.60	56095.62
539.77	56193.92
539.94	56371.80
540.11	56002.00
540.28	56329.67
540.44	56470.11
540.61	56126.05
540.78	56168.18
540.95	56175.20
541.12	56310.95
541.29	56296.91
541.46	56306.27
541.62	56261.80
541.79	56339.04
541.96	56395.21
542.13	56566.07
542.30	56647.99
542.47	56549.68
542.63	56540.32
542.80	56566.07
542.97	56790.76
543.14	56994.39
543.31	56968.64
543.48	57031.83
543.64	57167.58
543.81	57329.08
543.98	57331.42
544.15	57123.11
544.32	56996.73
544.48	57331.42
544.65	57270.57
544.82	57123.11
544.99	57050.56
545.16	57350.15
545.32	57162.90
545.49	57354.83
545.66	57558.45
545.83	57420.36
546.00	57549.09
546.16	57471.85
546.33	57378.23
546.50	57226.10
546.67	57457.81
546.83	57162.90
547.00	57762.08
547.17	57497.60
547.34	57392.28
547.50	57614.63
547.67	57991.45
547.84	57790.17
548.00	57886.13
548.17	57993.79
548.34	57820.59
548.51	58211.46
548.67	58019.54
548.84	58026.56
549.01	57703.57
549.18	57808.89
549.34	58019.54
549.51	57862.72
549.68	58087.42
549.84	58113.16
550.01	58209.12
550.18	57832.30
550.34	58188.06
550.51	58141.25
550.68	58234.87
550.84	58017.20
551.01	58447.86
551.18	58195.08
551.34	58049.97
551.51	58028.90
551.68	58506.37
551.84	58379.98
552.01	58321.47
552.18	58564.88
552.34	58408.07
552.51	58557.86
552.68	58295.72
552.84	58466.58
553.01	58714.68
553.18	58660.85
553.34	58894.90
553.51	58494.67
553.67	58731.06
553.84	58632.76
554.01	58969.80
554.17	58864.47
554.34	58831.71
554.51	58543.82
554.67	58939.37
554.84	58827.02
555.00	58822.34
555.17	58777.87
555.33	58925.33
555.50	58714.68
555.67	58707.66
555.83	58862.13
556.00	59028.31
556.16	59112.57
556.33	59274.07
556.50	59025.97
556.66	59194.49
556.83	58993.20
556.99	59374.71
557.16	59330.24
557.32	59243.64
557.49	59611.10
557.65	59107.89
557.82	59337.26
557.98	59131.29
558.15	59330.24
558.32	59327.90
558.48	59103.21
558.65	59470.67
558.81	59245.98
558.98	59131.29
559.14	59468.33
559.31	59498.76
559.47	59447.27
559.64	59384.07
559.80	59538.55
559.97	59524.50
560.13	59484.72
560.30	59348.96
560.46	59503.44
560.63	59489.40
560.79	59613.44
560.96	59695.36
561.12	59510.46
561.29	59599.40
561.45	59779.62
561.61	59817.07
561.78	59735.15
561.94	59805.37
562.11	59667.28
562.27	59700.04
562.44	59831.11
562.60	59777.28
562.77	59826.43
562.93	59498.76
563.10	59898.99
563.26	59671.96
563.42	59980.91
563.59	59669.62
563.75	59784.30
563.92	59849.84
564.08	59749.20
564.24	60149.43
564.41	59845.16
564.57	59994.95
564.74	59742.17
564.90	59962.18
565.07	59765.58
565.23	59767.92
565.39	59831.11
565.56	60140.07
565.72	59948.14
565.88	60006.65
566.05	59934.10
566.21	60011.34
566.38	60009.00
566.54	60016.02
566.70	60093.25
566.87	60224.32
567.03	59866.22
567.19	60301.56
567.36	60088.57
567.52	59915.37
567.68	60336.67
567.85	60097.94
568.01	60114.32
568.17	59987.93
568.34	60147.09
568.50	60240.71
568.66	60343.69
568.83	60165.81
568.99	60126.02
569.15	60381.14
569.32	59959.84
569.48	60189.22
569.64	60423.27
569.81	60175.17
569.97	60200.92
570.13	60126.02
570.30	60135.38
570.46	60135.38
570.62	60566.04
570.78	60130.70
570.95	60214.96
571.11	60495.83
571.27	60418.59
571.43	60355.39
571.60	60449.02
571.76	60308.58
571.92	60437.31
572.09	60310.92
572.25	60441.99
572.41	60458.38
572.57	60219.64
572.74	60647.96
572.90	60282.84
573.06	60327.31
573.22	60245.39
573.38	60540.30
573.55	60416.25
573.71	60554.34
573.87	60460.72
574.03	60346.03
574.20	60610.51
574.36	60324.97
574.52	60495.83
574.68	60797.76
574.84	60669.03
575.01	60767.33
575.17	60369.44
575.33	60374.12
575.49	60528.59
575.65	60629.24
575.82	60650.30
575.98	60575.40
576.14	60823.50
576.30	60736.90
576.46	60388.16
576.62	60664.35
576.79	60406.89
576.95	60577.75
577.11	60505.19
577.27	60432.63
577.43	60617.53
577.59	60638.60
577.75	60591.79
577.92	60507.53
578.08	60570.72
578.24	60523.91
578.40	60760.31
578.56	60947.55
578.72	60664.35
578.88	60874.99
579.04	60828.18
579.21	60657.32
579.37	60797.76
579.53	60734.56
579.69	60292.20
579.85	60624.56
580.01	60645.62
580.17	60680.73
580.33	60598.81
580.49	60638.60
580.65	60575.40
580.82	60849.25
580.98	60647.96
581.14	60671.37
581.30	60853.93
581.46	60776.69
581.62	60701.79
581.78	60594.13
581.94	61024.79
582.10	60708.82
582.26	60708.82
582.42	60650.30
582.58	60617.53
582.74	60736.90
582.90	60795.42
583.06	60795.42
583.22	60589.45
583.38	60804.78
583.54	60982.66
583.70	60662.00
583.86	60587.11
584.02	60753.29
584.18	60931.17
584.34	60757.97
584.50	60676.05
584.66	60832.86
584.82	60601.15
584.98	60975.64
585.14	60832.86
585.30	60652.64
585.46	60807.12
585.62	60952.23
585.78	61073.94
585.94	60434.97
586.10	60933.51
586.26	60931.17
586.42	60942.87
586.58	60947.55
586.74	61017.77
586.90	60839.89
587.06	60823.50
587.22	60919.46
587.38	60903.08
587.54	61109.05
587.70	61174.58
587.86	60985.00
588.02	60821.16
588.18	61146.50
588.34	60750.94
588.49	60938.19
