SpectraSuite Data File
++++++++++++++++++++++++++++++++++++
Date: Fri Oct 25 11:26:18 EDT 2013
User: price-jones
Dark Spectrum Present: No
Reference Spectrum Present: No
Number of Sampled Component Spectra: 1
Spectrometers: USB2+H05261
Integration Time (usec): 100000 (USB2+H05261)
Spectra Averaged: 1 (USB2+H05261)
Boxcar Smoothing: 0 (USB2+H05261)
Correct for Electrical Dark: No (USB2+H05261)
Strobe/Lamp Enabled: No (USB2+H05261)
Correct for Detector Non-linearity: No (USB2+H05261)
Correct for Stray Light: No (USB2+H05261)
Number of Pixels in Processed Spectrum: 2048
>>>>>Begin Processed Spectral Data<<<<<
365.73	227.03
365.92	227.03
366.12	227.03
366.32	177.88
366.52	177.88
366.72	121.71
366.91	140.43
367.11	138.09
367.31	121.71
367.51	131.07
367.70	124.05
367.90	182.56
368.10	175.54
368.30	114.69
368.49	145.11
368.69	170.86
368.89	203.63
369.09	126.39
369.28	149.79
369.48	180.22
369.68	180.22
369.87	283.20
370.07	191.92
370.27	287.89
370.47	287.89
370.66	589.82
370.86	615.56
371.06	713.86
371.25	674.07
371.45	653.01
371.65	657.69
371.84	704.50
372.04	720.88
372.24	720.88
372.44	746.63
372.63	758.33
372.83	821.53
373.03	800.46
373.22	791.10
373.42	727.91
373.62	777.06
373.81	748.97
374.01	741.95
374.21	837.91
374.40	760.67
374.60	863.66
374.79	809.83
374.99	760.67
375.19	840.25
375.38	819.19
375.58	891.74
375.78	795.78
375.97	816.85
376.17	851.96
376.37	863.66
376.56	957.28
376.76	830.89
376.95	898.77
377.15	861.32
377.35	837.91
377.54	891.74
377.74	936.21
377.93	938.55
378.13	915.15
378.33	966.64
378.52	924.51
378.72	903.45
378.91	985.37
379.11	894.08
379.31	987.71
379.50	936.21
379.70	943.24
379.89	990.05
380.09	990.05
380.28	976.00
380.48	947.92
380.68	964.30
380.87	971.32
381.07	997.07
381.26	1015.79
381.46	1097.71
381.65	1062.60
381.85	1020.47
382.04	1086.01
382.24	1076.65
382.43	1100.05
382.63	1057.92
382.83	1123.46
383.02	1048.56
383.22	1097.71
383.41	1036.86
383.61	1062.60
383.80	1139.84
384.00	1151.54
384.19	1116.44
384.39	1144.52
384.58	1144.52
384.78	1219.42
384.97	1259.21
385.17	1170.27
385.36	1109.41
385.56	1149.20
385.75	1181.97
385.95	1188.99
386.14	1291.98
386.34	1219.42
386.53	1231.12
386.72	1130.48
386.92	1242.82
387.11	1273.25
387.31	1263.89
387.50	1373.89
387.70	1277.93
387.89	1242.82
388.09	1224.10
388.28	1266.23
388.48	1254.53
388.67	1303.68
388.86	1357.51
389.06	1324.74
389.25	1212.40
389.45	1322.40
389.64	1355.17
389.84	1406.66
390.03	1362.19
390.22	1416.02
390.42	1331.76
390.61	1369.21
390.81	1362.19
391.00	1406.66
391.19	1467.52
391.39	1387.94
391.58	1352.83
391.78	1519.01
391.97	1483.90
392.16	1500.28
392.36	1523.69
392.55	1507.30
392.75	1591.56
392.94	1509.65
393.13	1507.30
393.33	1507.30
393.52	1561.14
393.71	1526.03
393.91	1556.46
394.10	1668.80
394.29	1540.07
394.49	1631.35
394.68	1540.07
394.88	1661.78
395.07	1563.48
395.26	1568.16
395.46	1790.51
395.65	1739.02
395.84	1666.46
396.04	1736.68
396.23	1755.40
396.42	1727.32
396.62	1729.66
396.81	1781.15
397.00	1741.36
397.19	1806.89
397.39	1710.93
397.58	1804.55
397.77	1858.39
397.97	1888.81
398.16	1858.39
398.35	1923.92
398.55	1923.92
398.74	1959.03
398.93	1884.13
399.12	1907.54
399.32	1898.17
399.51	1968.39
399.70	2008.18
399.90	1947.33
400.09	2005.84
400.28	2113.50
400.47	1973.07
400.67	2031.58
400.86	1961.37
401.05	2090.10
401.24	2047.97
401.44	2033.93
401.63	2129.89
401.82	2237.55
402.01	2101.80
402.21	2214.15
402.40	2186.06
402.59	2169.68
402.78	2328.83
402.97	2275.00
403.17	2282.02
403.36	2197.76
403.55	2160.31
403.74	2342.88
403.93	2380.32
404.13	2368.62
404.32	2277.34
404.51	2239.89
404.70	2471.61
404.89	2307.77
405.09	2450.54
405.28	2504.37
405.47	2520.76
405.66	2560.55
405.85	2469.27
406.05	2492.67
406.24	2621.40
406.43	2544.16
406.62	2663.53
406.81	2651.83
407.00	2558.21
407.20	2722.04
407.39	2576.93
407.58	2715.02
407.77	2670.55
407.96	2752.47
408.15	2764.17
408.34	2750.13
408.54	2698.64
408.73	2792.26
408.92	2792.26
409.11	2801.62
409.30	2862.48
409.49	2939.71
409.68	2881.20
409.87	2916.31
410.07	2946.73
410.26	3054.40
410.45	2979.50
410.64	2946.73
410.83	3131.64
411.02	3038.02
411.21	3119.93
411.40	3075.46
411.59	3129.30
411.78	3194.83
411.98	3199.51
412.17	3300.16
412.36	3243.98
412.55	3152.70
412.74	3262.71
412.93	3337.60
413.12	3332.92
413.31	3410.16
413.50	3531.87
413.69	3506.12
413.88	3723.79
414.07	3529.53
414.26	3578.68
414.45	3662.94
414.64	3758.90
414.83	3637.19
415.02	3669.96
415.22	3791.67
415.41	3985.93
415.60	3716.77
415.79	3866.56
415.98	3969.55
416.17	3845.50
416.36	3852.52
416.55	3885.29
416.74	4105.30
416.93	4025.72
417.12	4222.33
417.31	4173.18
417.50	4266.80
417.69	4086.58
417.88	4182.54
418.07	4407.23
418.26	4189.56
418.45	4243.39
418.64	4379.14
418.83	4393.19
419.02	4498.51
419.21	4393.19
419.39	4362.76
419.58	4388.50
419.77	4454.04
419.96	4594.47
420.15	4594.47
420.34	4592.13
420.53	4465.74
420.72	4690.43
420.91	4676.39
421.10	4730.22
421.29	4812.14
421.48	4737.24
421.67	4851.93
421.86	4718.52
422.05	4746.61
422.24	4929.17
422.43	4887.04
422.61	4844.91
422.80	4695.11
422.99	4840.23
423.18	4997.04
423.37	5144.50
423.56	4964.28
423.75	4863.63
423.94	4938.53
424.13	4655.33
424.32	4786.40
424.50	5039.17
424.69	5085.98
424.88	5078.96
425.07	5095.35
425.26	5055.56
425.45	4983.00
425.64	4905.76
425.83	4968.96
426.01	5128.11
426.20	5039.17
426.39	5097.69
426.58	5022.79
426.77	5015.77
426.96	5076.62
427.15	5090.67
427.33	5160.88
427.52	5214.71
427.71	5289.61
427.90	5135.14
428.09	5179.61
428.28	5242.80
428.46	5322.38
428.65	5254.50
428.84	5659.42
429.03	5523.66
429.22	5387.91
429.40	5600.90
429.59	5523.66
429.78	5324.72
429.97	5273.23
430.16	5558.77
430.34	5568.13
430.53	5760.06
430.72	5645.37
430.91	5614.95
431.10	5692.18
431.28	5703.89
431.47	5668.78
431.66	5891.13
431.85	5727.29
432.03	5916.87
432.22	5891.13
432.41	5851.34
432.60	5912.19
432.79	5987.09
432.97	5989.43
433.16	6061.99
433.35	5914.53
433.54	6040.92
433.72	6118.16
433.91	6136.88
434.10	6186.04
434.28	5895.81
434.47	6242.21
434.66	6211.78
434.85	6256.25
435.03	6267.95
435.22	6146.25
435.41	6328.81
435.59	6434.13
435.78	6612.01
435.97	6483.28
436.16	6361.58
436.34	6401.37
436.53	6434.13
436.72	6614.35
436.90	6363.92
437.09	6612.01
437.28	6483.28
437.46	6651.80
437.65	6778.19
437.84	6689.25
438.02	6691.59
438.21	6523.07
438.40	6857.77
438.58	6953.73
438.77	6951.39
438.96	6773.51
439.14	7077.78
439.33	7199.49
439.52	7122.25
439.70	7220.55
439.89	7243.96
440.08	7339.92
440.26	7332.90
440.45	7255.66
440.63	7445.24
440.82	7667.60
441.01	7517.80
441.19	7646.53
441.38	7616.10
441.57	7793.98
441.75	7786.96
441.94	7918.03
442.12	7908.67
442.31	8056.12
442.50	8135.70
442.68	7929.74
442.87	8011.65
443.05	8283.16
443.24	8229.32
443.43	8142.72
443.61	8201.24
443.80	8362.73
443.98	7875.90
444.17	7894.63
444.35	8168.47
444.54	8241.03
444.73	8191.88
444.91	8299.54
445.10	8327.63
445.28	8124.00
445.47	8198.90
445.65	8400.18
445.84	8493.80
446.02	8456.36
446.21	8479.76
446.39	8226.98
446.58	8531.25
446.77	8564.02
446.95	8388.48
447.14	8484.44
447.32	8470.40
447.51	8409.54
447.69	8418.91
447.88	8587.43
448.06	8477.42
448.25	8435.29
448.43	8482.10
448.62	8538.27
448.80	8531.25
448.99	8561.68
449.17	8575.72
449.36	8442.31
449.54	8926.80
449.73	9053.19
449.91	9062.55
450.10	8741.90
450.28	8805.10
450.46	8800.41
450.65	8933.82
450.83	9184.26
451.02	8833.18
451.20	9097.66
451.39	8922.12
451.57	9020.42
451.76	8905.74
451.94	9221.71
452.13	9411.29
452.31	9460.45
452.49	9235.75
452.68	9341.08
452.86	9568.11
453.05	9252.14
453.23	9568.11
453.42	9430.02
453.60	9277.88
453.78	9497.89
453.97	9329.38
454.15	9427.68
454.34	9287.25
454.52	9631.30
454.70	9535.34
454.89	9764.72
455.07	9710.88
455.26	9755.35
455.44	9839.61
455.62	9813.87
455.81	9748.33
455.99	9966.00
456.17	10008.13
456.36	10150.90
456.54	9966.00
456.73	10377.94
456.91	10476.24
457.09	10279.63
457.28	10349.85
457.46	10242.18
457.64	10466.88
457.83	10417.72
458.01	10377.94
458.19	10574.54
458.38	10396.66
458.56	10691.57
458.74	10478.58
458.93	10586.24
459.11	10654.12
459.29	10342.83
459.48	10792.21
459.66	10736.04
459.84	10801.57
460.03	11061.37
460.21	10963.07
460.39	10775.83
460.57	10956.05
460.76	11035.63
460.94	10960.73
461.12	11014.56
461.31	11239.25
461.49	10998.18
461.67	11145.63
461.85	11393.73
462.04	11033.29
462.22	11978.86
462.40	11442.88
462.59	11410.11
462.77	11419.47
462.95	11412.45
463.13	11351.60
463.32	11604.38
463.50	11646.51
463.68	11782.26
463.86	11812.68
464.05	11482.67
464.23	11648.85
464.41	11845.45
464.59	11587.99
464.78	12161.42
464.96	12100.57
465.14	11555.22
465.32	11910.99
465.50	12018.65
465.69	12327.60
465.87	12180.15
466.05	11983.54
466.23	11976.52
466.41	12074.82
466.60	12311.22
466.78	12121.63
466.96	11918.01
467.14	12224.62
467.32	12346.33
467.51	12456.33
467.69	12100.57
467.87	12154.40
468.05	12596.76
468.23	12369.73
468.41	12273.77
468.60	12613.15
468.78	12791.03
468.96	12538.25
469.14	12809.75
469.32	12812.09
469.50	12634.21
469.69	13071.89
469.87	13240.41
470.05	13018.06
470.23	13249.77
470.41	13174.88
470.59	13289.56
470.77	13090.62
470.95	13319.99
471.14	13291.90
471.32	13057.85
471.50	13582.13
471.68	13678.09
471.86	13474.46
472.04	13816.18
472.22	13872.36
472.40	13710.86
472.58	13785.76
472.77	13944.91
472.95	14059.60
473.13	14281.95
473.31	13902.78
473.49	14174.28
473.67	14162.58
473.85	14239.82
474.03	14314.72
474.21	14462.17
474.39	14677.50
474.57	14466.85
474.75	14958.36
474.93	15023.90
475.12	14916.23
475.30	15080.07
475.48	15061.35
475.66	14965.39
475.84	15037.94
476.02	15281.36
476.20	15075.39
476.38	15861.81
476.56	16285.45
476.74	15929.69
476.92	15723.72
477.10	15623.08
477.28	15969.48
477.46	16236.30
477.64	16442.26
477.82	16388.43
478.00	16870.58
478.18	16561.63
478.36	16458.65
478.54	17057.82
478.72	17156.13
478.90	17415.93
479.08	17413.59
479.26	17788.07
479.44	17799.77
479.62	17572.74
479.80	18073.62
479.98	18143.83
480.16	18422.36
480.34	18171.92
480.52	18579.17
480.70	18445.76
480.88	18338.10
481.06	18487.89
481.24	18670.45
481.41	19119.84
481.59	19449.85
481.77	19508.37
481.95	19494.32
482.13	19531.77
482.31	19475.60
482.49	20264.36
482.67	20123.93
482.85	20432.88
483.03	20533.52
483.21	20933.75
483.39	20725.44
483.57	20893.96
483.74	20795.66
483.92	21308.24
484.10	21240.36
484.28	21315.26
484.46	21664.00
484.64	22412.97
484.82	21731.87
485.00	22047.85
485.18	22492.55
485.35	22473.82
485.53	22759.37
485.71	22733.62
485.89	23030.87
486.07	23138.54
486.25	23204.07
486.43	23756.44
486.61	23885.17
486.78	23828.99
486.96	24135.60
487.14	24521.79
487.32	24383.70
487.50	24538.18
487.68	24959.47
487.85	25144.38
488.03	25163.10
488.21	25844.20
488.39	25844.20
488.57	26087.61
488.75	26125.06
488.92	26211.66
489.10	26625.93
489.28	26574.44
489.46	26974.67
489.64	26597.85
489.81	27679.18
489.99	27419.38
490.17	27461.51
490.35	28135.58
490.53	27845.35
490.70	28046.64
490.88	28142.60
491.06	28620.07
491.24	28577.94
491.41	28823.70
491.59	29455.64
491.77	29235.63
491.95	29680.33
492.13	29366.70
492.30	29862.90
492.48	29886.30
492.66	29942.47
492.84	30101.63
493.01	30476.12
493.19	30651.66
493.37	30878.69
493.54	31089.34
493.72	31402.97
493.90	30981.67
494.08	31461.48
494.25	31868.73
494.43	31779.79
494.61	32210.45
494.79	32201.09
494.96	32507.70
495.14	32641.11
495.32	33020.28
495.49	33083.47
495.67	32964.10
495.85	33008.58
496.02	33450.94
496.20	33830.10
496.38	33879.25
496.55	34000.96
496.73	34532.26
496.91	34272.46
497.09	34534.60
497.26	34469.07
497.44	34740.57
497.62	34749.93
497.79	35648.70
497.97	35084.63
498.14	35576.14
498.32	36165.96
498.50	35917.86
498.67	36371.92
498.85	36360.22
499.03	36627.04
499.20	36266.60
499.38	36713.64
499.56	37195.79
499.73	37277.71
499.91	37242.60
500.08	37530.49
500.26	37411.12
500.44	37193.45
500.61	37727.10
500.79	37696.67
500.97	37640.50
501.14	38656.29
501.32	38256.06
501.49	38541.60
501.67	38398.83
501.84	38749.91
502.02	38541.60
502.20	38911.41
502.37	39274.19
502.55	39695.49
502.72	39524.63
502.90	39267.17
503.07	39342.06
503.25	39885.07
503.43	39604.20
503.60	39639.31
503.78	40114.44
503.95	40084.01
504.13	40238.49
504.30	40666.81
504.48	39833.58
504.65	40397.65
504.83	40884.48
505.01	41020.23
505.18	40872.78
505.36	41003.85
505.53	41223.86
505.71	41263.64
505.88	41364.29
506.06	41310.46
506.23	41801.97
506.41	41383.01
506.58	41839.42
506.76	42351.99
506.93	42216.24
507.11	42007.94
507.28	42171.77
507.46	42398.80
507.63	42740.52
507.81	42756.91
507.98	42588.39
508.16	43065.86
508.33	43005.00
508.50	43152.46
508.68	43271.82
508.85	43306.93
509.03	43910.79
509.20	44058.24
509.38	43906.11
509.55	44142.50
509.73	43889.73
509.90	44444.43
510.08	43959.94
510.25	44165.91
510.42	44959.35
510.60	44746.36
510.77	45184.04
510.95	45052.97
511.12	44947.65
511.30	45038.93
511.47	45504.70
511.64	44905.52
511.82	45570.23
511.99	45490.65
512.17	45696.62
512.34	45874.50
512.51	46284.09
512.69	46162.39
512.86	46319.20
513.04	46316.86
513.21	46546.23
513.38	46445.59
513.56	46824.76
513.73	46225.58
513.90	47093.92
514.08	46909.02
514.25	47077.54
514.43	46817.74
514.60	47040.09
514.77	46925.40
514.95	47543.30
515.12	47243.71
515.29	47360.74
515.47	47693.10
515.64	48058.22
515.81	47852.25
515.99	48266.53
516.16	48109.71
516.33	48095.67
516.51	48444.41
516.68	47999.71
516.85	48477.18
517.03	48832.94
517.20	49097.42
517.37	48486.54
517.54	48402.28
517.72	48360.15
517.89	48797.83
518.06	48961.67
518.24	48919.54
518.41	48917.20
518.58	49134.87
518.75	48858.68
518.93	49387.64
519.10	49095.08
519.27	49872.14
519.45	49467.22
519.62	49752.77
519.79	50106.19
519.96	49720.00
520.14	49769.15
520.31	49961.08
520.48	50059.38
520.65	49900.22
520.83	50536.85
521.00	50279.39
521.17	49968.10
521.34	50623.45
521.52	50698.34
521.69	50368.33
521.86	50939.42
522.03	51143.05
522.20	51079.85
522.38	51437.95
522.55	51026.02
522.72	51208.58
522.89	51306.88
523.07	51353.69
523.24	51147.73
523.41	51615.83
523.58	51171.13
523.75	51569.02
523.92	51735.20
524.10	52046.49
524.27	51779.67
524.44	52088.62
524.61	52200.97
524.78	51906.06
524.96	52072.24
525.13	51784.35
525.30	52310.97
525.47	52800.15
525.64	52243.10
525.81	52416.30
525.98	52360.12
526.16	52538.01
526.33	52526.30
526.50	52662.05
526.67	52563.75
526.84	52664.39
527.01	52931.22
527.18	52570.77
527.36	52921.85
527.53	52975.69
527.70	53216.76
527.87	53209.74
528.04	53038.88
528.21	53265.91
528.38	53364.21
528.55	53244.85
528.72	53038.88
528.89	53214.42
529.07	53193.36
529.24	53373.58
529.41	53727.00
529.58	53350.17
529.75	53408.68
529.92	53780.83
530.09	53656.78
530.26	54096.80
530.43	53820.62
530.60	53485.92
530.77	54049.99
530.94	53886.15
531.11	53565.50
531.28	54148.29
531.46	54017.22
531.63	54227.87
531.80	54176.38
531.97	54033.61
532.14	54227.87
532.31	54101.48
532.48	54511.08
532.65	54628.10
532.82	54639.81
532.99	54611.72
533.16	54548.53
533.33	54698.32
533.50	54712.36
533.67	54614.06
533.84	54464.27
534.01	54438.52
534.18	54571.93
534.35	54969.82
534.52	54944.08
534.69	55189.83
534.86	55098.55
535.03	54845.77
535.20	55143.02
535.37	55157.06
535.54	55405.16
535.71	55299.84
535.88	55257.71
536.05	55145.36
536.22	55346.65
536.38	55664.96
536.55	55313.88
536.72	55529.21
536.89	55327.92
537.06	55421.55
537.23	55634.53
537.40	55437.93
537.57	55442.61
537.74	55662.62
537.91	55915.40
538.08	55826.46
538.25	55543.25
538.42	55491.76
538.59	55931.78
538.75	55770.28
538.92	55915.40
539.09	55980.93
539.26	56369.46
539.43	55938.80
539.60	56303.93
539.77	56055.83
539.94	56474.79
540.11	56055.83
540.28	56140.09
540.44	56278.18
540.61	56341.38
540.78	56376.48
540.95	56212.65
541.12	56196.26
541.29	56175.20
541.46	56250.09
541.62	56214.99
541.79	56268.82
541.96	56236.05
542.13	56474.79
542.30	56685.43
542.47	56552.02
542.63	56617.56
542.80	56706.50
542.97	56872.68
543.14	57045.88
543.31	56816.50
543.48	57125.46
543.64	57453.13
543.81	57228.44
543.98	57331.42
544.15	57102.05
544.32	57286.95
544.48	57525.69
544.65	57158.22
544.82	57308.02
544.99	57195.67
545.16	57418.02
545.32	57242.48
545.49	57495.26
545.66	57689.52
545.83	57326.74
546.00	57701.23
546.16	57361.85
546.33	57483.56
546.50	57368.87
546.67	57902.51
546.83	57499.94
547.00	57502.28
547.17	57612.29
547.34	57710.59
547.50	57839.32
547.67	58202.10
547.84	57876.77
548.00	58014.86
548.17	57986.77
548.34	57963.37
548.51	57909.53
548.67	57949.32
548.84	58145.93
549.01	57748.04
549.18	58071.03
549.34	58162.31
549.51	58286.36
549.68	58115.50
549.84	58246.57
550.01	58267.64
550.18	58064.01
550.34	58202.10
550.51	58262.96
550.68	58323.81
550.84	57993.79
551.01	58585.95
551.18	58312.11
551.34	58578.93
551.51	58333.17
551.68	58637.44
551.84	58326.15
552.01	58354.24
552.18	58513.39
552.34	58429.13
552.51	58618.72
552.68	58447.86
552.84	58639.78
553.01	58838.73
553.18	58642.12
553.34	58822.34
553.51	58478.28
553.67	58658.51
553.84	58866.81
554.01	58780.21
554.17	59004.91
554.34	58841.07
554.51	58885.54
554.67	59068.10
554.84	58918.31
555.00	59072.78
555.17	59068.10
555.33	58845.75
555.50	58679.57
555.67	58784.90
555.83	58890.22
556.00	59112.57
556.16	59494.08
556.33	59166.40
556.50	59091.51
556.66	59152.36
556.83	58930.01
556.99	59295.13
557.16	59253.00
557.32	59381.73
557.49	59458.97
557.65	59313.86
557.82	59461.31
557.98	59135.98
558.15	59299.81
558.32	59435.56
558.48	59447.27
558.65	59306.83
558.81	59540.89
558.98	59332.58
559.14	59374.71
559.31	59554.93
559.47	59468.33
559.64	59552.59
559.80	59583.02
559.97	59524.50
560.13	59414.50
560.30	59496.42
560.46	59643.87
560.63	59676.64
560.79	59587.70
560.96	59786.64
561.12	59840.48
561.29	59763.24
561.45	59709.41
561.61	59587.70
561.78	59737.49
561.94	59524.50
562.11	59746.86
562.27	59856.86
562.44	59875.58
562.60	60009.00
562.77	59966.87
562.93	59641.53
563.10	59882.61
563.26	59927.08
563.42	60039.42
563.59	59929.42
563.75	59866.22
563.92	59882.61
564.08	59990.27
564.24	59934.10
564.41	60044.10
564.57	60111.98
564.74	59910.69
564.90	60165.81
565.07	60039.42
565.23	60140.07
565.39	60034.74
565.56	60200.92
565.72	60037.08
565.88	59924.74
566.05	59788.98
566.21	60088.57
566.38	60207.94
566.54	60158.79
566.70	60156.45
566.87	60308.58
567.03	60044.10
567.19	60247.73
567.36	60107.30
567.52	60247.73
567.68	60238.37
567.85	60250.07
568.01	60079.21
568.17	59901.33
568.34	60273.48
568.50	60299.22
568.66	60264.11
568.83	60395.18
568.99	60135.38
569.15	60357.74
569.32	60266.45
569.48	60114.32
569.64	60360.08
569.81	60198.58
569.97	60058.15
570.13	60151.77
570.30	60133.04
570.46	60238.37
570.62	60313.26
570.78	60355.39
570.95	60163.47
571.11	60453.70
571.27	60346.03
571.43	60430.29
571.60	60589.45
571.76	60399.86
571.92	60453.70
572.09	60491.15
572.25	60388.16
572.41	60456.04
572.57	60273.48
572.74	60889.04
572.90	60470.08
573.06	60458.38
573.22	60484.12
573.38	60502.85
573.55	60404.55
573.71	60662.00
573.87	60498.17
574.03	60446.68
574.20	60697.11
574.36	60369.44
574.52	60732.22
574.68	60460.72
574.84	60779.03
575.01	60587.11
575.17	60629.24
575.33	60486.46
575.49	60502.85
575.65	60706.47
575.82	60654.98
575.98	60652.64
576.14	60865.63
576.30	60851.59
576.46	60587.11
576.62	60739.24
576.79	60591.79
576.95	60514.55
577.11	60643.28
577.27	60566.04
577.43	60788.39
577.59	60645.62
577.75	60549.66
577.92	60584.77
578.08	60533.28
578.24	60741.58
578.40	60814.14
578.56	60844.57
578.72	60767.33
578.88	60823.50
579.04	60818.82
579.21	60643.28
579.37	60858.61
579.53	60706.47
579.69	60750.94
579.85	60537.96
580.01	60760.31
580.17	60608.17
580.33	60842.23
580.49	60774.35
580.65	60874.99
580.82	60720.52
580.98	60584.77
581.14	60664.35
581.30	60968.61
581.46	60633.92
581.62	60886.70
581.78	60523.91
581.94	60732.22
582.10	60790.73
582.26	60734.56
582.42	60645.62
582.58	60818.82
582.74	60722.86
582.90	60823.50
583.06	60886.70
583.22	60566.04
583.38	60863.29
583.54	60865.63
583.70	60779.03
583.86	60823.50
584.02	60790.73
584.18	60961.59
584.34	60942.87
584.50	60977.98
584.66	60725.20
584.82	60659.66
584.98	60935.85
585.14	61027.13
585.30	60729.88
585.46	61076.28
585.62	60830.52
585.78	61123.09
585.94	60832.86
586.10	60896.06
586.26	61020.11
586.42	61015.43
586.58	61017.77
586.74	60877.33
586.90	60760.31
587.06	60898.40
587.22	60959.25
587.38	60839.89
587.54	61017.77
587.70	61095.00
587.86	61073.94
588.02	60718.18
588.18	61120.75
588.34	60999.04
588.49	60987.34
