SpectraSuite Data File
++++++++++++++++++++++++++++++++++++
Date: Fri Oct 25 10:43:43 EDT 2013
User: price-jones
Dark Spectrum Present: No
Reference Spectrum Present: No
Number of Sampled Component Spectra: 1
Spectrometers: USB2+H05261
Integration Time (usec): 100000 (USB2+H05261)
Spectra Averaged: 1 (USB2+H05261)
Boxcar Smoothing: 0 (USB2+H05261)
Correct for Electrical Dark: No (USB2+H05261)
Strobe/Lamp Enabled: No (USB2+H05261)
Correct for Detector Non-linearity: No (USB2+H05261)
Correct for Stray Light: No (USB2+H05261)
Number of Pixels in Processed Spectrum: 2048
>>>>>Begin Processed Spectral Data<<<<<
365.73	119.37
365.92	119.37
366.12	119.37
366.32	49.15
366.52	0.00
366.72	65.54
366.91	0.00
367.11	21.06
367.31	0.00
367.51	93.62
367.70	53.83
367.90	4.68
368.10	18.72
368.30	60.85
368.49	30.43
368.69	81.92
368.89	77.24
369.09	65.54
369.28	56.17
369.48	0.00
369.68	84.26
369.87	70.22
370.07	86.60
370.27	152.13
370.47	126.39
370.66	435.34
370.86	433.00
371.06	500.87
371.25	528.96
371.45	407.25
371.65	512.58
371.84	416.62
372.04	440.02
372.24	498.53
372.44	486.83
372.63	496.19
372.83	507.90
373.03	505.56
373.22	531.30
373.42	507.90
373.62	547.69
373.81	533.64
374.01	564.07
374.21	552.37
374.40	493.85
374.60	557.05
374.79	615.56
374.99	587.47
375.19	580.45
375.38	557.05
375.58	601.52
375.78	622.58
375.97	582.79
376.17	664.71
376.37	557.05
376.56	587.47
376.76	564.07
376.95	575.77
377.15	615.56
377.35	631.94
377.54	599.18
377.74	657.69
377.93	617.90
378.13	683.44
378.33	631.94
378.52	617.90
378.72	629.60
378.91	755.99
379.11	695.14
379.31	631.94
379.50	603.86
379.70	655.35
379.89	653.01
380.09	695.14
380.28	674.07
380.48	767.70
380.68	690.46
380.87	716.20
381.07	784.08
381.26	748.97
381.46	727.91
381.65	683.44
381.85	711.52
382.04	650.67
382.24	713.86
382.43	709.18
382.63	683.44
382.83	699.82
383.02	702.16
383.22	725.57
383.41	746.63
383.61	767.70
383.80	795.78
384.00	727.91
384.19	791.10
384.39	777.06
384.58	816.85
384.78	814.51
384.97	877.70
385.17	791.10
385.36	887.06
385.56	889.40
385.75	828.55
385.95	821.53
386.14	847.27
386.34	751.31
386.53	884.72
386.72	821.53
386.92	919.83
387.11	882.38
387.31	905.79
387.50	912.81
387.70	873.02
387.89	938.55
388.09	959.62
388.28	870.68
388.48	861.32
388.67	924.51
388.86	950.26
389.06	912.81
389.25	957.28
389.45	940.90
389.64	961.96
389.84	976.00
390.03	976.00
390.22	950.26
390.42	1053.24
390.61	1013.45
390.81	929.19
391.00	985.37
391.19	1071.97
391.39	983.02
391.58	1102.39
391.78	1083.67
391.97	1095.37
392.16	1046.22
392.36	1060.26
392.55	1027.50
392.75	1011.11
392.94	917.49
393.13	1081.33
393.33	1025.15
393.52	1018.13
393.71	1090.69
393.91	1116.44
394.10	1146.86
394.29	1078.99
394.49	1160.91
394.68	1174.95
394.88	1186.65
395.07	1231.12
395.26	1221.76
395.46	1163.25
395.65	1277.93
395.84	1174.95
396.04	1186.65
396.23	1160.91
396.42	1128.14
396.62	1128.14
396.81	1156.22
397.00	1259.21
397.19	1231.12
397.39	1263.89
397.58	1394.96
397.77	1371.55
397.97	1383.26
398.16	1394.96
398.35	1488.58
398.55	1472.20
398.74	1514.33
398.93	1519.01
399.12	1446.45
399.32	1526.03
399.51	1378.58
399.70	1479.22
399.90	1446.45
400.09	1584.54
400.28	1661.78
400.47	1614.97
400.67	1682.85
400.86	1685.19
401.05	1757.74
401.24	1657.10
401.44	1715.61
401.63	1760.08
401.82	1605.61
402.01	1647.74
402.21	1678.16
402.40	1661.78
402.59	1762.42
402.78	1710.93
402.97	1757.74
403.17	1736.68
403.36	1746.04
403.55	1760.08
403.74	1970.73
403.93	1888.81
404.13	1832.64
404.32	1818.60
404.51	1830.30
404.70	1877.11
404.89	1823.28
405.09	1977.75
405.28	1949.67
405.47	1942.64
405.66	1928.60
405.85	2059.67
406.05	2064.35
406.24	1994.14
406.43	2076.06
406.62	2083.08
406.81	2134.57
407.00	2047.97
407.20	2118.18
407.39	2181.38
407.58	2172.02
407.77	2134.57
407.96	2284.36
408.15	2300.75
408.34	2197.76
408.54	2275.00
408.73	2300.75
408.92	2296.07
409.11	2228.19
409.30	2277.34
409.49	2153.29
409.68	2221.17
409.87	2235.21
410.07	2324.15
410.26	2370.96
410.45	2328.83
410.64	2413.09
410.83	2448.20
411.02	2490.33
411.21	2567.57
411.40	2626.08
411.59	2588.63
411.78	2708.00
411.98	2612.04
412.17	2661.19
412.36	2602.68
412.55	2773.53
412.74	2850.77
412.93	2729.06
413.12	2675.23
413.31	2944.39
413.50	2916.31
413.69	2771.19
413.88	2867.16
414.07	2904.60
414.26	2925.67
414.45	3066.10
414.64	2977.16
414.83	3038.02
415.02	3070.78
415.22	3087.17
415.41	3007.59
415.60	3176.11
415.79	3248.66
415.98	3269.73
416.17	3255.69
416.36	3206.53
416.55	3234.62
416.74	3199.51
416.93	3283.77
417.12	3368.03
417.31	3386.76
417.50	3403.14
417.69	3405.48
417.88	3421.86
418.07	3452.29
418.26	3543.57
418.45	3466.33
418.64	3590.38
418.83	3669.96
419.02	3487.40
419.21	3613.79
419.39	3782.31
419.58	3658.26
419.77	3566.98
419.96	3576.34
420.15	3660.60
420.34	3726.13
420.53	3721.45
420.72	3859.54
420.91	3744.86
421.10	3782.31
421.29	3943.80
421.48	3831.46
421.67	3995.29
421.86	3756.56
422.05	3838.48
422.24	3782.31
422.43	3698.05
422.61	3899.33
422.80	3892.31
422.99	3992.95
423.18	4051.47
423.37	4142.75
423.56	4037.42
423.75	3817.41
423.94	3946.14
424.13	3735.50
424.32	3763.58
424.50	3943.80
424.69	4086.58
424.88	4114.66
425.07	3997.64
425.26	3892.31
425.45	4053.81
425.64	3967.21
425.83	3971.89
426.01	4072.53
426.20	4114.66
426.39	4051.47
426.58	3920.40
426.77	3983.59
426.96	3988.27
427.15	4007.00
427.33	4030.40
427.52	4044.45
427.71	4198.92
427.90	4212.96
428.09	4269.14
428.28	4147.43
428.46	4126.36
428.65	4072.53
428.84	4257.43
429.03	4311.27
429.22	4023.38
429.40	4145.09
429.59	4060.83
429.78	3929.76
429.97	3992.95
430.16	4077.21
430.34	4007.00
430.53	4170.83
430.72	4191.90
430.91	4149.77
431.10	4217.65
431.28	4461.06
431.47	4510.21
431.66	4645.96
431.85	4587.45
432.03	4531.28
432.22	4706.82
432.41	4463.40
432.60	4739.58
432.79	4713.84
432.97	4791.08
433.16	4758.31
433.35	4727.88
433.54	4807.46
433.72	4716.18
433.91	4627.24
434.10	4802.78
434.28	4725.54
434.47	4779.37
434.66	4849.59
434.85	4894.06
435.03	4929.17
435.22	4842.57
435.41	5158.54
435.59	5144.50
435.78	5074.28
435.97	5158.54
436.16	5029.81
436.34	5142.16
436.53	5313.02
436.72	5256.84
436.90	5146.84
437.09	5235.78
437.28	5174.92
437.46	5348.12
437.65	5142.16
437.84	5188.97
438.02	5160.88
438.21	5203.01
438.40	5242.80
438.58	5305.99
438.77	5397.28
438.96	5404.30
439.14	5600.90
439.33	5657.07
439.52	5675.80
439.70	5706.23
439.89	5645.37
440.08	5834.96
440.26	5657.07
440.45	5734.31
440.63	5970.71
440.82	5881.77
441.01	5991.77
441.19	5944.96
441.38	5937.94
441.57	6043.26
441.75	6232.85
441.94	6445.84
442.12	6377.96
442.31	6314.77
442.50	6324.13
442.68	6319.45
442.87	6513.71
443.05	6448.18
443.24	6448.18
443.43	6307.74
443.61	6485.62
443.80	6581.59
443.98	6380.30
444.17	6197.74
444.35	6616.69
444.54	6534.78
444.73	6569.88
444.91	6541.80
445.10	6375.62
445.28	6628.40
445.47	6380.30
445.65	6581.59
445.84	6434.13
446.02	6546.48
446.21	6640.10
446.39	6518.39
446.58	6389.66
446.77	6602.65
446.95	6462.22
447.14	6555.84
447.32	6747.76
447.51	6586.27
447.69	6745.42
447.88	6712.66
448.06	6654.14
448.25	6871.81
448.43	6853.09
448.62	6757.13
448.80	6747.76
448.99	6937.35
449.17	6991.18
449.36	6757.13
449.54	7040.33
449.73	7040.33
449.91	7077.78
450.10	7136.29
450.28	7183.10
450.46	7286.09
450.65	7281.41
450.83	7178.42
451.02	7068.42
451.20	7267.36
451.39	7180.76
451.57	7056.72
451.76	7204.17
451.94	7382.05
452.13	7255.66
452.31	7145.66
452.49	6979.48
452.68	7204.17
452.86	7239.28
453.05	7288.43
453.23	7440.56
453.42	7199.49
453.60	7555.25
453.78	7356.30
453.97	7421.84
454.15	7321.20
454.34	7323.54
454.52	7552.91
454.70	7527.16
454.89	7597.38
455.07	7573.97
455.26	7597.38
455.44	7674.62
455.62	7712.07
455.81	7733.13
455.99	7735.47
456.17	7859.52
456.36	7941.44
456.54	7906.33
456.73	7864.20
456.91	7953.14
457.09	8196.56
457.28	8215.28
457.46	8067.83
457.64	8215.28
457.83	8184.85
458.01	8072.51
458.19	8407.20
458.38	8231.66
458.56	8468.06
458.74	8241.03
458.93	8219.96
459.11	8229.32
459.29	8346.35
459.48	8294.86
459.66	8278.47
459.84	8512.53
460.03	8571.04
460.21	8655.30
460.39	8713.81
460.57	8564.02
460.76	8627.21
460.94	8566.36
461.12	8697.43
461.31	8659.98
461.49	8589.77
461.67	8613.17
461.85	8847.22
462.04	8777.01
462.22	9221.71
462.40	9025.11
462.59	8837.86
462.77	8891.70
462.95	8805.10
463.13	9015.74
463.32	8882.33
463.50	8938.51
463.68	9083.62
463.86	9123.41
464.05	8905.74
464.23	8872.97
464.41	8957.23
464.59	8887.01
464.78	9064.89
464.96	9139.79
465.14	8959.57
465.32	9018.08
465.50	9263.84
465.69	9338.74
465.87	9123.41
466.05	9298.95
466.23	9184.26
466.41	9172.56
466.60	9427.68
466.78	9195.96
466.96	9273.20
467.14	9490.87
467.32	9504.92
467.51	9554.07
467.69	9277.88
467.87	9394.91
468.05	9563.43
468.23	9488.53
468.41	9341.08
468.60	9689.82
468.78	9720.24
468.96	9514.28
469.14	9549.39
469.32	9769.40
469.50	9605.56
469.69	9764.72
469.87	9764.72
470.05	9797.48
470.23	9783.44
470.41	9921.53
470.59	10080.69
470.77	9774.08
470.95	10015.15
471.14	10141.54
471.32	9916.85
471.50	10281.97
471.68	10375.59
471.86	10427.09
472.04	10417.72
472.22	10747.74
472.40	10361.55
472.58	10310.06
472.77	10333.47
472.95	10553.48
473.13	10937.32
473.31	10555.82
473.49	10565.18
473.67	10733.70
473.85	10841.36
474.03	10850.72
474.21	10965.41
474.39	11037.97
474.57	11037.97
474.75	11290.74
474.93	11250.96
475.12	11173.72
475.30	11178.40
475.48	11304.79
475.66	11573.95
475.84	11405.43
476.02	11412.45
476.20	11445.22
476.38	11578.63
476.56	12039.72
476.74	11782.26
476.92	11901.62
477.10	11609.06
477.28	12191.85
477.46	12177.81
477.64	12154.40
477.82	12250.36
478.00	12449.31
478.18	12465.69
478.36	12514.84
478.54	12636.55
478.72	12882.31
478.90	12917.42
479.08	13020.40
479.26	13207.64
479.44	13209.98
479.62	13186.58
479.80	13144.45
479.98	13231.05
480.16	13851.29
480.34	13537.66
480.52	13582.13
480.70	13867.67
480.88	13490.85
481.06	13816.18
481.24	14118.11
481.41	14221.10
481.59	14326.42
481.77	14513.66
481.95	14373.23
482.13	14658.78
482.31	14686.86
482.49	14696.22
482.67	15061.35
482.85	14984.11
483.03	15019.22
483.21	15201.78
483.39	15541.16
483.57	15239.23
483.74	15779.89
483.92	15573.92
484.10	15477.96
484.28	15646.48
484.46	16353.32
484.64	16376.73
484.82	15948.41
485.00	16301.83
485.18	16678.66
485.35	16332.26
485.53	16315.87
485.71	16196.51
485.89	16411.84
486.07	16435.24
486.25	16725.47
486.43	16805.05
486.61	17121.02
486.78	17472.10
486.96	17404.22
487.14	17813.82
487.32	17750.62
487.50	18216.39
487.68	18134.47
487.85	18586.19
488.03	18513.64
488.21	18757.05
488.39	18682.16
488.57	18658.75
488.75	18616.62
488.92	18817.91
489.10	19484.96
489.28	19307.08
489.46	19723.69
489.64	19812.63
489.81	20081.80
489.99	20416.49
490.17	20264.36
490.35	20489.05
490.53	20348.62
490.70	20442.24
490.88	20526.50
491.06	20678.63
491.24	21055.46
491.41	20680.97
491.59	20695.02
491.77	20620.12
491.95	21216.96
492.13	21181.85
492.30	21860.60
492.48	21621.87
492.66	22019.76
492.84	22045.51
493.01	22424.67
493.19	21942.52
493.37	22431.69
493.54	22637.66
493.72	22480.85
493.90	22455.10
494.08	22937.25
494.25	23168.96
494.43	23379.61
494.61	23501.32
494.79	23487.28
494.96	23367.91
495.14	23501.32
495.32	24023.26
495.49	24149.65
495.67	23983.47
495.85	23908.57
496.02	24383.70
496.20	24163.69
496.38	24421.15
496.55	24423.49
496.73	25095.22
496.91	24760.53
497.09	24924.36
497.26	25450.99
497.44	24989.90
497.62	25071.82
497.79	25130.33
497.97	25233.32
498.14	25488.43
498.32	25556.31
498.50	25729.51
498.67	25680.36
498.85	26059.52
499.03	26588.49
499.20	26499.55
499.38	26232.72
499.56	26068.89
499.73	26586.15
499.91	26412.95
500.08	26768.71
500.26	26338.05
500.44	26813.18
500.61	26607.21
500.79	26469.12
500.97	26850.63
501.14	27126.81
501.32	27349.16
501.49	27150.21
501.67	27213.41
501.84	27424.06
502.02	27655.77
502.20	27597.26
502.37	27955.36
502.55	27969.40
502.72	28161.33
502.90	28224.52
503.07	27459.16
503.25	28077.07
503.43	27728.33
503.60	28173.03
503.78	28271.33
503.95	28484.32
504.13	28575.60
504.30	28641.14
504.48	28727.74
504.65	29139.67
504.83	28903.28
505.01	28896.25
505.18	29205.20
505.36	29727.14
505.53	29525.86
505.71	29982.26
505.88	29844.17
506.06	29544.58
506.23	30134.40
506.41	29652.25
506.58	29996.31
506.76	30359.09
506.93	30181.21
507.11	30195.25
507.28	30213.98
507.46	30267.81
507.63	29940.13
507.81	30342.70
507.98	30071.20
508.16	30422.28
508.33	30459.73
508.50	30710.17
508.68	30920.82
508.85	31515.31
509.03	31185.30
509.20	31065.93
509.38	31227.43
509.55	31363.18
509.73	31255.51
509.90	31276.58
510.08	31122.10
510.25	31115.08
510.42	31599.57
510.60	31798.52
510.77	31945.97
510.95	31960.02
511.12	31749.37
511.30	32364.93
511.47	32533.45
511.64	32425.78
511.82	32194.07
511.99	32259.60
512.17	32582.60
512.34	32409.40
512.51	32737.07
512.69	32711.33
512.86	32435.14
513.04	32694.94
513.21	32678.56
513.38	32870.48
513.56	32797.93
513.73	33188.80
513.90	32996.87
514.08	32713.67
514.25	33127.94
514.43	33443.91
514.60	32828.35
514.77	33687.33
514.95	34068.84
515.12	33591.37
515.29	33811.38
515.47	34113.31
515.64	34338.00
515.81	33876.91
515.99	34174.16
516.16	33881.60
516.33	33603.07
516.51	34064.16
516.68	33331.57
516.85	33329.23
517.03	33619.46
517.20	34431.62
517.37	34600.14
517.54	34560.35
517.72	34520.56
517.89	34024.37
518.06	33867.55
518.24	33930.75
518.41	34738.23
518.58	34668.02
518.75	34658.65
518.93	34593.12
519.10	34829.51
519.27	35316.34
519.45	34972.28
519.62	35297.62
519.79	35309.32
519.96	35243.79
520.14	35838.28
520.31	35498.91
520.48	35381.88
520.65	35782.11
520.83	35992.76
521.00	35927.22
521.17	35660.40
521.34	36322.77
521.52	36273.62
521.69	36032.55
521.86	36378.95
522.03	36505.34
522.20	36573.21
522.38	36505.34
522.55	36334.48
522.72	36254.90
522.89	36341.50
523.07	36603.64
523.24	36182.34
523.41	36797.90
523.58	36903.23
523.75	37474.32
523.92	37256.65
524.10	37446.23
524.27	37247.29
524.44	37139.62
524.61	37780.93
524.78	37881.57
524.96	37640.50
525.13	37401.76
525.30	37631.13
525.47	37893.27
525.64	37256.65
525.81	37670.92
525.98	37652.20
526.16	37486.02
526.33	36982.80
526.50	37951.79
526.67	37368.99
526.84	37244.94
527.01	37432.19
527.18	37804.33
527.36	38382.45
527.53	38618.84
527.70	38499.47
527.87	38555.64
528.04	38429.26
528.21	38342.66
528.38	38541.60
528.55	38712.46
528.72	38520.54
528.89	38836.51
529.07	39002.69
529.24	38752.25
529.41	38775.66
529.58	38670.33
529.75	38663.31
529.92	38869.28
530.09	38939.49
530.26	39292.91
530.43	38920.77
530.60	38953.54
530.77	38890.34
530.94	39669.74
531.11	39402.92
531.28	39491.86
531.46	39775.06
531.63	39592.50
531.80	39627.61
531.97	39175.89
532.14	39754.00
532.31	39580.80
532.48	39328.02
532.65	39690.80
532.82	39784.43
532.99	39852.30
533.16	39737.62
533.33	40055.93
533.50	40423.39
533.67	39821.87
533.84	40219.77
534.01	39751.66
534.18	40292.32
534.35	40266.58
534.52	40165.93
534.69	40524.04
534.86	40753.41
535.03	40519.35
535.20	41055.34
535.37	41148.96
535.54	40587.23
535.71	40978.10
535.88	40704.26
536.05	40594.25
536.22	40746.39
536.38	40971.08
536.55	40610.64
536.72	40835.33
536.89	40507.65
537.06	40495.95
537.23	41394.71
537.40	40957.03
537.57	41060.02
537.74	41244.92
537.91	41706.01
538.08	41493.02
538.25	40940.65
538.42	40793.20
538.59	41380.67
538.75	41153.64
538.92	41118.53
539.09	41467.27
539.26	41734.09
539.43	41659.20
539.60	41521.10
539.77	41165.34
539.94	41134.92
540.11	41523.44
540.28	41677.92
540.44	41663.88
540.61	41170.02
540.78	41584.30
540.95	41677.92
541.12	41820.69
541.29	41420.46
541.46	41839.42
541.62	42302.84
541.79	42230.29
541.96	41467.27
542.13	41977.51
542.30	41804.31
542.47	42227.95
542.63	41621.75
542.80	42064.11
542.97	42326.25
543.14	42515.83
543.31	42810.74
543.48	42705.41
543.64	42721.80
543.81	42981.60
543.98	42656.26
544.15	42534.56
544.32	42773.29
544.48	43646.31
544.65	42988.62
544.82	43033.09
544.99	42789.67
545.16	42632.86
545.32	42965.21
545.49	43814.83
545.66	43421.62
545.83	43194.59
546.00	43297.57
546.16	42635.20
546.33	43173.52
546.50	42838.83
546.67	43332.68
546.83	43033.09
547.00	43014.37
547.17	43629.93
547.34	43133.73
547.50	43203.95
547.67	43943.56
547.84	43330.34
548.00	43908.45
548.17	43480.13
548.34	43665.03
548.51	43981.01
548.67	43662.69
548.84	43768.02
549.01	43658.01
549.18	43842.92
549.34	43840.57
549.51	43777.38
549.68	43934.20
549.84	44025.48
550.01	43959.94
550.18	43625.25
550.34	44264.21
550.51	44196.34
550.68	44189.31
550.84	43784.40
551.01	44376.56
551.18	43810.15
551.34	44093.35
551.51	44411.67
551.68	44488.90
551.84	44547.42
552.01	44364.85
552.18	44341.45
552.34	44278.25
552.51	44264.21
552.68	43938.88
552.84	44264.21
553.01	44753.38
553.18	44292.30
553.34	44542.74
553.51	44493.58
553.67	44638.70
553.84	45095.10
554.01	44935.95
554.17	44685.51
554.34	44666.78
554.51	44711.25
554.67	45354.90
554.84	44790.83
555.00	44837.64
555.17	44926.58
555.33	44861.05
555.50	44975.73
555.67	44584.86
555.83	44865.73
556.00	44935.95
556.16	45226.17
556.33	44804.88
556.50	45123.19
556.66	44818.92
556.83	44769.77
556.99	45181.70
557.16	45137.23
557.32	45120.85
557.49	45109.14
557.65	44774.45
557.82	45153.62
557.98	45333.84
558.15	45467.25
558.32	45043.61
558.48	45106.80
558.65	45116.17
558.81	44767.43
558.98	44994.46
559.14	45022.54
559.31	45008.50
559.47	45137.23
559.64	45270.64
559.80	44594.23
559.97	45209.79
560.13	45277.66
560.30	45198.09
560.46	45188.72
560.63	45478.95
560.79	45713.00
560.96	45982.16
561.12	45191.06
561.29	45572.57
561.45	45162.98
561.61	45280.00
561.78	45469.59
561.94	45242.56
562.11	45375.97
562.27	45394.69
562.44	45565.55
562.60	45741.09
562.77	45640.45
562.93	45333.84
563.10	45975.14
563.26	45490.65
563.42	46071.10
563.59	45574.91
563.75	45397.03
563.92	45724.71
564.08	45759.81
564.24	46024.29
564.41	45811.31
564.57	45848.75
564.74	45862.80
564.90	45399.37
565.07	45457.88
565.23	45771.52
565.39	45729.39
565.56	46017.27
565.72	45565.55
565.88	45996.21
566.05	45502.35
566.21	45713.00
566.38	45144.25
566.54	45986.85
566.70	46244.30
566.87	45825.35
567.03	45834.71
567.19	46373.03
567.36	45558.53
567.52	45989.19
567.68	45815.99
567.85	45724.71
568.01	45722.37
568.17	45731.73
568.34	46017.27
568.50	46010.25
568.66	45914.29
568.83	45752.79
568.99	45975.14
569.15	45811.31
569.32	45422.78
569.48	45883.86
569.64	46038.34
569.81	45745.77
569.97	45928.33
570.13	45792.58
570.30	45720.02
570.46	45633.42
570.62	45729.39
570.78	45490.65
570.95	45633.42
571.11	45925.99
571.27	45371.28
571.43	45977.48
571.60	46164.73
571.76	45820.67
571.92	45893.22
572.09	46349.63
572.25	45876.84
572.41	46410.48
572.57	45794.92
572.74	46447.93
572.90	45832.37
573.06	46146.00
573.22	45909.61
573.38	45909.61
573.55	46312.18
573.71	46899.65
573.87	46117.92
574.03	45818.33
574.20	46195.15
574.36	46040.68
574.52	46052.38
574.68	45928.33
574.84	46026.63
575.01	46244.30
575.17	45797.26
575.33	45701.30
575.49	45881.52
575.65	46204.52
575.82	46057.06
575.98	45567.89
576.14	46387.08
576.30	46195.15
576.46	45982.16
576.62	45790.24
576.79	46174.09
576.95	45916.63
577.11	46024.29
577.27	46110.89
577.43	45940.04
577.59	45991.53
577.75	45944.72
577.92	45668.53
578.08	45399.37
578.24	45574.91
578.40	46078.13
578.56	45996.21
578.72	46480.70
578.88	46630.49
579.04	46335.59
579.21	45942.38
579.37	46000.89
579.53	46286.43
579.69	46085.15
579.85	46356.65
580.01	46204.52
580.17	45815.99
580.33	46014.93
580.49	46141.32
580.65	46309.84
580.82	46134.30
580.98	45947.06
581.14	45759.81
581.30	46267.71
581.46	46005.57
581.62	46473.68
581.78	46518.15
581.94	46707.73
582.10	45956.42
582.26	46110.89
582.42	46092.17
582.58	46164.73
582.74	46143.66
582.90	46293.46
583.06	46211.54
583.22	46202.18
583.38	46141.32
583.54	46586.02
583.70	46323.88
583.86	46422.19
584.02	46211.54
584.18	46267.71
584.34	45956.42
584.50	46108.55
584.66	45811.31
584.82	46134.30
584.98	46267.71
585.14	45951.74
585.30	45991.53
585.46	46099.19
585.62	46080.47
585.78	46192.81
585.94	45839.39
586.10	46096.85
586.26	46092.17
586.42	46171.75
586.58	46323.88
586.74	46335.59
586.90	46263.03
587.06	46286.43
587.22	45933.01
587.38	45954.08
587.54	46110.89
587.70	46220.90
587.86	46169.41
588.02	46391.76
588.18	46555.60
588.34	46094.51
588.49	45851.09
588.65	45661.51
588.81	45858.12
588.97	45724.71
589.13	45907.27
589.29	45717.68
589.45	46380.06
589.61	46136.64
589.77	46270.05
589.93	46176.43
590.08	46096.85
