SpectraSuite Data File
++++++++++++++++++++++++++++++++++++
Date: Fri Oct 25 11:23:10 EDT 2013
User: price-jones
Dark Spectrum Present: No
Reference Spectrum Present: No
Number of Sampled Component Spectra: 1
Spectrometers: USB2+H05261
Integration Time (usec): 100000 (USB2+H05261)
Spectra Averaged: 1 (USB2+H05261)
Boxcar Smoothing: 0 (USB2+H05261)
Correct for Electrical Dark: No (USB2+H05261)
Strobe/Lamp Enabled: No (USB2+H05261)
Correct for Detector Non-linearity: No (USB2+H05261)
Correct for Stray Light: No (USB2+H05261)
Number of Pixels in Processed Spectrum: 2048
>>>>>Begin Processed Spectral Data<<<<<
365.73	271.50
365.92	271.50
366.12	271.50
366.32	107.66
366.52	112.35
366.72	56.17
366.91	98.30
367.11	166.18
367.31	156.82
367.51	110.01
367.70	119.37
367.90	133.41
368.10	152.13
368.30	173.20
368.49	58.51
368.69	117.03
368.89	119.37
369.09	156.82
369.28	131.07
369.48	175.54
369.68	191.92
369.87	215.33
370.07	163.84
370.27	227.03
370.47	243.42
370.66	512.58
370.86	608.54
371.06	587.47
371.25	681.10
371.45	674.07
371.65	725.57
371.84	664.71
372.04	711.52
372.24	737.27
372.44	716.20
372.63	720.88
372.83	699.82
373.03	744.29
373.22	685.78
373.42	704.50
373.62	746.63
373.81	798.12
374.01	837.91
374.21	835.57
374.40	746.63
374.60	837.91
374.79	819.19
374.99	882.38
375.19	837.91
375.38	821.53
375.58	896.43
375.78	821.53
375.97	844.93
376.17	919.83
376.37	877.70
376.56	889.40
376.76	858.98
376.95	863.66
377.15	940.90
377.35	908.13
377.54	814.51
377.74	826.21
377.93	1034.52
378.13	966.64
378.33	983.02
378.52	931.53
378.72	922.17
378.91	1034.52
379.11	968.98
379.31	908.13
379.50	968.98
379.70	959.62
379.89	945.58
380.09	1018.13
380.28	952.60
380.48	1074.31
380.68	976.00
380.87	971.32
381.07	1022.81
381.26	1076.65
381.46	1020.47
381.65	1027.50
381.85	1074.31
382.04	1100.05
382.24	1057.92
382.43	1022.81
382.63	1139.84
382.83	1067.28
383.02	1006.43
383.22	1081.33
383.41	1055.58
383.61	1135.16
383.80	1130.48
384.00	1142.18
384.19	1125.80
384.39	1130.48
384.58	1093.03
384.78	1165.59
384.97	1186.65
385.17	1181.97
385.36	1090.69
385.56	1144.52
385.75	1191.33
385.95	1156.22
386.14	1249.85
386.34	1203.04
386.53	1193.67
386.72	1132.82
386.92	1174.95
387.11	1177.29
387.31	1231.12
387.50	1196.01
387.70	1303.68
387.89	1235.80
388.09	1303.68
388.28	1294.32
388.48	1366.87
388.67	1317.72
388.86	1399.64
389.06	1336.45
389.25	1378.58
389.45	1394.96
389.64	1343.47
389.84	1296.66
390.03	1371.55
390.22	1376.24
390.42	1420.71
390.61	1439.43
390.81	1409.00
391.00	1397.30
391.19	1418.36
391.39	1425.39
391.58	1490.92
391.78	1460.49
391.97	1474.54
392.16	1554.12
392.36	1551.78
392.55	1502.62
392.75	1619.65
392.94	1554.12
393.13	1636.03
393.33	1544.75
393.52	1476.88
393.71	1631.35
393.91	1511.99
394.10	1547.09
394.29	1614.97
394.49	1666.46
394.68	1631.35
394.88	1732.00
395.07	1743.70
395.26	1638.38
395.46	1739.02
395.65	1830.30
395.84	1755.40
396.04	1732.00
396.23	1776.47
396.42	1746.04
396.62	1741.36
396.81	1830.30
397.00	1753.06
397.19	1734.34
397.39	1853.70
397.58	1856.04
397.77	1858.39
397.97	1823.28
398.16	1799.87
398.35	1949.67
398.55	1865.41
398.74	2005.84
398.93	2001.16
399.12	1966.05
399.32	1947.33
399.51	1888.81
399.70	2012.86
399.90	2071.37
400.09	2059.67
400.28	2090.10
400.47	2047.97
400.67	2141.59
400.86	2076.06
401.05	2026.90
401.24	2169.68
401.44	2195.42
401.63	2179.04
401.82	2062.01
402.01	2125.21
402.21	2094.78
402.40	2160.31
402.59	2186.06
402.78	2253.94
402.97	2209.47
403.17	2284.36
403.36	2328.83
403.55	2279.68
403.74	2401.39
403.93	2420.11
404.13	2499.69
404.32	2417.77
404.51	2422.45
404.70	2471.61
404.89	2420.11
405.09	2527.78
405.28	2415.43
405.47	2438.84
405.66	2555.86
405.85	2375.64
406.05	2532.46
406.24	2516.08
406.43	2569.91
406.62	2705.66
406.81	2796.94
407.00	2675.23
407.20	2558.21
407.39	2605.02
407.58	2759.49
407.77	2754.81
407.96	2719.70
408.15	2698.64
408.34	2853.11
408.54	2794.60
408.73	2815.66
408.92	2920.99
409.11	2984.18
409.30	2897.58
409.49	2860.13
409.68	3021.63
409.87	3007.59
410.07	3066.10
410.26	3016.95
410.45	3028.65
410.64	3038.02
410.83	3059.08
411.02	3082.49
411.21	3255.69
411.40	3176.11
411.59	3152.70
411.78	3089.51
411.98	3171.43
412.17	3370.37
412.36	3375.05
412.55	3421.86
412.74	3346.97
412.93	3403.14
413.12	3440.59
413.31	3564.64
413.50	3496.76
413.69	3548.25
413.88	3688.68
414.07	3543.57
414.26	3632.51
414.45	3662.94
414.64	3843.16
414.83	3786.99
415.02	3861.88
415.22	3819.75
415.41	3866.56
415.60	3719.11
415.79	3875.93
415.98	3892.31
416.17	3922.74
416.36	4105.30
416.55	4004.66
416.74	4039.76
416.93	4042.11
417.12	4088.92
417.31	4259.78
417.50	4187.22
417.69	4156.79
417.88	4367.44
418.07	4329.99
418.26	4346.37
418.45	4311.27
418.64	4437.66
418.83	4432.97
419.02	4526.60
419.21	4620.22
419.39	4603.83
419.58	4496.17
419.77	4486.81
419.96	4627.24
420.15	4650.64
420.34	4641.28
420.53	4699.80
420.72	4891.72
420.91	4683.41
421.10	4741.93
421.29	4903.42
421.48	4751.29
421.67	4767.67
421.86	4793.42
422.05	4875.34
422.24	4870.65
422.43	4835.55
422.61	4961.94
422.80	4922.15
422.99	4966.62
423.18	4940.87
423.37	5034.49
423.56	4929.17
423.75	4936.19
423.94	4973.64
424.13	4629.58
424.32	4667.03
424.50	5256.84
424.69	5069.60
424.88	5167.90
425.07	4945.55
425.26	4882.36
425.45	5008.75
425.64	5100.03
425.83	4997.04
426.01	5071.94
426.20	4985.34
426.39	4980.66
426.58	5109.39
426.77	5057.90
426.96	5107.05
427.15	5186.63
427.33	5268.55
427.52	5266.21
427.71	5348.12
427.90	5401.96
428.09	5488.56
428.28	5305.99
428.46	5430.04
428.65	5362.17
428.84	5556.43
429.03	5544.73
429.22	5294.29
429.40	5490.90
429.59	5406.64
429.78	5420.68
429.97	5329.40
430.16	5526.00
430.34	5776.44
430.53	5713.25
430.72	5694.52
430.91	5638.35
431.10	5650.05
431.28	5870.06
431.47	5685.16
431.66	5886.45
431.85	5795.17
432.03	6001.13
432.22	6038.58
432.41	6050.28
432.60	6029.22
432.79	6059.65
432.97	6132.20
433.16	6225.82
433.35	6050.28
433.54	6171.99
433.72	6167.31
433.91	6129.86
434.10	6237.53
434.28	6162.63
434.47	6176.67
434.66	6333.49
434.85	6310.08
435.03	6366.26
435.22	6452.86
435.41	6438.81
435.59	6534.78
435.78	6462.22
435.97	6513.71
436.16	6375.62
436.34	6530.09
436.53	6696.27
436.72	6654.14
436.90	6670.53
437.09	6977.14
437.28	6546.48
437.46	6626.06
437.65	6693.93
437.84	6808.62
438.02	6799.26
438.21	6998.20
438.40	6834.36
438.58	7028.63
438.77	7213.53
438.96	7115.23
439.14	7096.50
439.33	7351.62
439.52	7325.88
439.70	7344.60
439.89	7349.28
440.08	7276.73
440.26	7527.16
440.45	7508.44
440.63	7583.34
440.82	7641.85
441.01	7695.68
441.19	7789.30
441.38	7779.94
441.57	7875.90
441.75	7915.69
441.94	8098.25
442.12	7950.80
442.31	8072.51
442.50	7978.89
442.68	8102.93
442.87	8032.72
443.05	8175.49
443.24	8278.47
443.43	8262.09
443.61	8322.94
443.80	8727.86
443.98	8255.07
444.17	7810.37
444.35	8524.23
444.54	8535.93
444.73	8425.93
444.91	8524.23
445.10	8475.08
445.28	8255.07
445.47	8414.23
445.65	8358.05
445.84	8606.15
446.02	8620.19
446.21	8388.48
446.39	8505.51
446.58	8519.55
446.77	8610.83
446.95	8348.69
447.14	8542.96
447.32	8748.92
447.51	8585.08
447.69	8496.14
447.88	8617.85
448.06	8557.00
448.25	8823.82
448.43	8788.71
448.62	8711.47
448.80	8573.38
448.99	8720.84
449.17	8901.06
449.36	8641.26
449.54	8690.41
449.73	9235.75
449.91	9188.94
450.10	8929.14
450.28	9289.59
450.46	9006.38
450.65	9100.00
450.83	9149.15
451.02	9240.44
451.20	9022.77
451.39	9238.09
451.57	9207.67
451.76	9191.28
451.94	9254.48
452.13	9401.93
452.31	9289.59
452.49	9355.12
452.68	9418.32
452.86	9521.30
453.05	9635.99
453.23	9406.61
453.42	9474.49
453.60	9467.47
453.78	9856.00
453.97	9376.19
454.15	9619.60
454.34	9575.13
454.52	9783.44
454.70	9783.44
454.89	9963.66
455.07	9900.47
455.26	9909.83
455.44	10228.14
455.62	9963.66
455.81	10101.75
455.99	10017.49
456.17	10031.54
456.36	10239.84
456.54	10366.23
456.73	10359.21
456.91	10459.85
457.09	10485.60
457.28	10684.55
457.46	10478.58
457.64	10532.41
457.83	10614.33
458.01	10406.02
458.19	10930.30
458.38	10668.16
458.56	10916.26
458.74	10649.44
458.93	10736.04
459.11	10682.20
459.29	10740.72
459.48	10757.10
459.66	10890.51
459.84	10937.32
460.03	11192.44
460.21	11101.16
460.39	11192.44
460.57	11192.44
460.76	11225.21
460.94	11236.91
461.12	11459.26
461.31	11257.98
461.49	11122.23
461.67	11428.84
461.85	11583.31
462.04	11410.11
462.22	11653.53
462.40	11847.79
462.59	11784.60
462.77	11796.30
462.95	11784.60
463.13	11669.91
463.32	11714.38
463.50	11749.49
463.68	12016.31
463.86	11868.86
464.05	11702.68
464.23	11939.07
464.41	12049.08
464.59	11646.51
464.78	12250.36
464.96	12208.23
465.14	12067.80
465.32	12208.23
465.50	12241.00
465.69	12327.60
465.87	12067.80
466.05	12088.87
466.23	12173.13
466.41	12439.95
466.60	12772.30
466.78	12269.09
466.96	12456.33
467.14	12280.79
467.32	12662.30
467.51	12739.54
467.69	12374.41
467.87	12498.46
468.05	12702.09
468.23	12575.70
468.41	12819.11
468.60	12912.74
468.78	13008.70
468.96	12779.32
469.14	12872.95
469.32	13376.16
469.50	12823.80
469.69	13160.83
469.87	13270.84
470.05	13144.45
470.23	13107.00
470.41	13451.06
470.59	13397.23
470.77	13504.89
470.95	13401.91
471.14	13610.22
471.32	13095.30
471.50	13692.13
471.68	13799.80
471.86	13975.34
472.04	13811.50
472.22	14108.75
472.40	13867.67
472.58	14085.34
472.77	13895.76
472.95	14293.65
473.13	14747.72
473.31	14317.06
473.49	14410.68
473.67	14513.66
473.85	14361.53
474.03	14705.59
474.21	14684.52
474.39	15030.92
474.57	14775.80
474.75	15014.54
474.93	15044.96
475.12	15159.65
475.30	15140.93
475.48	15337.53
475.66	15351.57
475.84	15241.57
476.02	15442.85
476.20	15564.56
476.38	15885.22
476.56	16149.70
476.74	16285.45
476.92	15960.11
477.10	15796.28
477.28	16182.46
477.46	16334.60
477.64	16645.89
477.82	16809.73
478.00	17067.19
478.18	16912.71
478.36	17235.70
478.54	17483.80
478.72	17422.95
478.90	17680.41
479.08	17785.73
479.26	18054.89
479.44	17790.41
479.62	18045.53
479.80	18134.47
479.98	18174.26
480.16	18747.69
480.34	18396.61
480.52	18843.65
480.70	18855.36
480.88	18700.88
481.06	19016.85
481.24	18951.32
481.41	19222.82
481.59	19559.86
481.77	19964.77
481.95	19852.42
482.13	19915.62
482.31	19852.42
482.49	20479.69
482.67	20685.65
482.85	20404.79
483.03	20556.93
483.21	21291.85
483.39	21233.34
483.57	21113.97
483.74	21439.31
483.92	21689.74
484.10	21556.33
484.28	21991.67
484.46	22143.81
484.64	22340.41
484.82	22228.07
485.00	22256.15
485.18	23208.75
485.35	23454.51
485.53	22904.48
485.71	23445.15
485.89	23543.45
486.07	23634.73
486.25	23613.66
486.43	23812.61
486.61	24144.97
486.78	24243.27
486.96	24748.82
487.14	24915.00
487.32	25090.54
487.50	25170.12
487.68	25235.66
487.85	26005.69
488.03	25645.25
488.21	26305.28
488.39	26094.63
488.57	26590.83
488.75	26642.32
488.92	27033.19
489.10	27016.80
489.28	26972.33
489.46	27531.72
489.64	27229.79
489.81	28116.86
489.99	27840.67
490.17	27814.93
490.35	28739.44
490.53	28645.82
490.70	28748.80
490.88	28573.26
491.06	29352.66
491.24	29315.21
491.41	29123.29
491.59	29563.31
491.77	29607.78
491.95	29795.02
492.13	30328.66
492.30	30129.72
492.48	30525.27
492.66	30562.72
492.84	30628.25
493.01	30831.88
493.19	31122.10
493.37	31763.41
493.54	31227.43
493.72	31976.40
493.90	31786.82
494.08	32297.05
494.25	32266.63
494.43	32720.69
494.61	32694.94
494.79	32748.78
494.96	33130.28
495.14	33134.96
495.32	33771.59
495.49	33338.59
495.67	34129.69
495.85	34000.96
496.02	34359.06
496.20	34092.24
496.38	34429.28
496.55	34717.17
496.73	34993.35
496.91	34789.72
497.09	35264.85
497.26	35215.70
497.44	35054.20
497.62	35342.09
497.79	36278.30
497.97	36020.84
498.14	36479.59
498.32	37123.24
498.50	36657.47
498.67	37202.82
498.85	36996.85
499.03	37050.68
499.20	37310.48
499.38	36940.68
499.56	37626.45
499.73	38043.07
499.91	37904.98
500.08	38101.58
500.26	37537.51
500.44	38286.48
500.61	38253.72
500.79	38543.94
500.97	38452.66
501.14	39187.59
501.32	38979.28
501.49	38829.49
501.67	38813.10
501.84	39695.49
502.02	39112.69
502.20	39264.83
502.37	39693.15
502.55	39812.51
502.72	39974.01
502.90	40289.98
503.07	39503.56
503.25	39927.20
503.43	40282.96
503.60	40444.46
503.78	40772.13
503.95	40451.48
504.13	40891.50
504.30	40940.65
504.48	41118.53
504.65	41383.01
504.83	41413.44
505.01	41820.69
505.18	41811.33
505.36	41968.15
505.53	41549.19
505.71	41720.05
505.88	42508.81
506.06	41820.69
506.23	42192.84
506.41	42508.81
506.58	42916.06
506.76	42602.43
506.93	42850.53
507.11	42866.91
507.28	43222.67
507.46	42958.19
507.63	42937.13
507.81	43402.89
507.98	43250.76
508.16	43885.04
508.33	43688.44
508.50	43746.95
508.68	44119.10
508.85	44327.41
509.03	44130.80
509.20	44430.39
509.38	45172.34
509.55	45020.20
509.73	44582.52
509.90	44898.50
510.08	44573.16
510.25	45598.32
510.42	45034.25
510.60	45387.67
510.77	45752.79
510.95	45766.84
511.12	45818.33
511.30	45724.71
511.47	45893.22
511.64	45942.38
511.82	46326.22
511.99	45827.69
512.17	46415.16
512.34	46136.64
512.51	46618.79
512.69	46848.16
512.86	46707.73
513.04	47288.18
513.21	46766.24
513.38	47054.13
513.56	47487.13
513.73	47498.83
513.90	47435.64
514.08	47540.96
514.25	47627.56
514.43	47634.58
514.60	48177.59
514.77	47552.66
514.95	48100.35
515.12	48067.58
515.29	48072.26
515.47	48322.70
515.64	48402.28
515.81	48453.77
515.99	48872.73
516.16	48718.25
516.33	49095.08
516.51	49113.80
516.68	48729.95
516.85	48793.15
517.03	49656.81
517.20	49439.14
517.37	49116.14
517.54	49099.76
517.72	49287.00
517.89	49666.17
518.06	49698.94
518.24	49853.41
518.41	49301.04
518.58	50035.97
518.75	49605.31
518.93	49951.71
519.10	49626.38
519.27	50588.34
519.45	50330.88
519.62	50490.04
519.79	50272.37
519.96	50330.88
520.14	50422.16
520.31	50298.11
520.48	50953.46
520.65	50803.67
520.83	50958.14
521.00	51042.40
521.17	50571.96
521.34	51014.32
521.52	51241.35
521.69	51339.65
521.86	51440.29
522.03	51559.66
522.20	51510.51
522.38	51913.08
522.55	51763.29
522.72	51782.01
522.89	51819.46
523.07	51945.85
523.24	52013.73
523.41	52158.84
523.58	51714.14
523.75	52362.46
523.92	51941.17
524.10	52266.50
524.27	52392.89
524.44	52329.70
524.61	52341.40
524.78	52423.32
524.96	52715.89
525.13	52451.41
525.30	52942.92
525.47	52919.51
525.64	52858.66
525.81	52968.66
525.98	53469.54
526.16	52975.69
526.33	53092.71
526.50	53237.83
526.67	53111.44
526.84	53326.77
527.01	53022.50
527.18	53453.15
527.36	53364.21
527.53	53183.99
527.70	53586.57
527.87	53521.03
528.04	53270.59
528.21	54021.90
528.38	53979.78
528.55	53961.05
528.72	53516.35
528.89	54026.59
529.07	53867.43
529.24	53928.28
529.41	54110.85
529.58	54005.52
529.75	53780.83
529.92	54068.72
530.09	54251.28
530.26	54422.14
530.43	54138.93
530.60	53886.15
530.77	54321.49
530.94	54609.38
531.11	54054.67
531.28	54293.41
531.46	54485.33
531.63	54747.47
531.80	54368.30
531.97	54738.11
532.14	54724.07
532.31	54824.71
532.48	54962.80
532.65	55004.93
532.82	54901.95
532.99	54946.42
533.16	54948.76
533.33	55374.73
533.50	55140.68
533.67	55430.91
533.84	55086.85
534.01	55257.71
534.18	55187.49
534.35	55739.86
534.52	55423.89
534.69	55531.55
534.86	55107.91
535.03	55470.70
535.20	55554.96
535.37	55508.14
535.54	55992.64
535.71	55552.62
535.88	55842.84
536.05	55997.32
536.22	56037.11
536.38	55959.87
536.55	55894.33
536.72	55950.51
536.89	55955.19
537.06	56037.11
537.23	55978.59
537.40	56093.28
537.57	55859.23
537.74	56278.18
537.91	56287.54
538.08	56114.34
538.25	55945.83
538.42	56306.27
538.59	56470.11
538.75	56332.01
538.92	56147.11
539.09	56507.55
539.26	56514.58
539.43	56491.17
539.60	56561.39
539.77	56310.95
539.94	56870.34
540.11	56687.78
540.28	56825.87
540.44	56662.03
540.61	56561.39
540.78	56575.43
540.95	56708.84
541.12	56596.49
541.29	56917.15
541.46	56825.87
541.62	56772.03
541.79	57286.95
541.96	56741.61
542.13	56978.00
542.30	57020.13
542.47	57190.99
542.63	57226.10
542.80	57326.74
542.97	57244.82
543.14	57441.43
543.31	57368.87
543.48	57148.86
543.64	57703.57
543.81	57710.59
543.98	57656.76
544.15	57544.41
544.32	57790.17
544.48	57836.98
544.65	57813.57
544.82	57801.87
544.99	57460.15
545.16	57930.60
545.32	57675.48
545.49	57865.06
545.66	58192.74
545.83	57996.13
546.00	57827.62
546.16	58108.48
546.33	57801.87
546.50	57900.17
546.67	58014.86
546.83	57811.23
547.00	58171.67
547.17	58145.93
547.34	57998.48
547.50	58152.95
547.67	58532.12
547.84	58227.85
548.00	58473.60
548.17	58630.42
548.34	58216.14
548.51	58426.79
548.67	58557.86
548.84	58583.61
549.01	58372.96
549.18	58417.43
549.34	58639.78
549.51	58384.66
549.68	58543.82
549.84	58733.40
550.01	58590.63
550.18	58511.05
550.34	58585.95
550.51	58791.92
550.68	58522.76
550.84	58478.28
551.01	58890.22
551.18	58857.45
551.34	58918.31
551.51	58801.28
551.68	58766.17
551.84	58897.24
552.01	58766.17
552.18	59150.02
552.34	58955.75
552.51	59121.93
552.68	58829.37
552.84	59000.22
553.01	59203.85
553.18	59168.74
553.34	59175.76
553.51	58841.07
553.67	59023.63
553.84	59238.96
554.01	59351.30
554.17	59159.38
554.34	59348.96
554.51	59086.82
554.67	59330.24
554.84	59236.62
555.00	59255.34
555.17	59351.30
555.33	59358.33
555.50	59285.77
555.67	59327.90
555.83	59135.98
556.00	59372.37
556.16	59580.68
556.33	59332.58
556.50	59594.72
556.66	59522.16
556.83	59372.37
556.99	59770.26
557.16	59901.33
557.32	59494.08
557.49	59875.58
557.65	59519.82
557.82	59943.46
557.98	59608.76
558.15	59580.68
558.32	59718.77
558.48	59693.02
558.65	59786.64
558.81	59781.96
558.98	59760.90
559.14	59882.61
559.31	59803.03
559.47	59985.59
559.64	60097.94
559.80	59959.84
559.97	60116.66
560.13	59898.99
560.30	60175.17
560.46	59950.48
560.63	60107.30
560.79	60020.70
560.96	60016.02
561.12	60289.86
561.29	59957.50
561.45	60189.22
561.61	59987.93
561.78	59931.76
561.94	60097.94
562.11	60236.03
562.27	60079.21
562.44	60254.75
562.60	60383.48
562.77	60205.60
562.93	60018.36
563.10	60430.29
563.26	60034.74
563.42	60273.48
563.59	60231.35
563.75	60301.56
563.92	60289.86
564.08	60303.90
564.24	60479.44
564.41	60282.84
564.57	60350.71
564.74	60200.92
564.90	60509.87
565.07	60446.68
565.23	60329.65
565.39	60512.21
565.56	60519.23
565.72	60467.74
565.88	60247.73
566.05	60430.29
566.21	60341.35
566.38	60804.78
566.54	60502.85
566.70	60720.52
566.87	60692.43
567.03	60481.78
567.19	60790.73
567.36	60659.66
567.52	60491.15
567.68	60790.73
567.85	60652.64
568.01	60860.95
568.17	60605.83
568.34	60598.81
568.50	60647.96
568.66	60418.59
568.83	60800.10
568.99	60612.85
569.15	60591.79
569.32	60598.81
569.48	60633.92
569.64	60809.46
569.81	60760.31
569.97	60605.83
570.13	60708.82
570.30	60526.25
570.46	60786.05
570.62	60683.07
570.78	60746.26
570.95	60757.97
571.11	60947.55
571.27	60856.27
571.43	60858.61
571.60	60846.91
571.76	60699.45
571.92	60867.97
572.09	60891.38
572.25	60973.30
572.41	60734.56
572.57	61015.43
572.74	61127.77
572.90	60800.10
573.06	60837.54
573.22	60872.65
573.38	60809.46
573.55	60830.52
573.71	61125.43
573.87	60907.76
574.03	60900.74
574.20	60980.32
574.36	60795.42
574.52	61006.06
574.68	61001.38
574.84	61118.41
575.01	61212.03
575.17	61095.00
575.33	60949.89
575.49	60818.82
575.65	61125.43
575.82	61102.03
575.98	61174.58
576.14	61120.75
576.30	61296.29
576.46	61069.26
576.62	60942.87
576.79	61001.38
576.95	60907.76
577.11	61106.71
577.27	61022.45
577.43	60917.12
577.59	61190.97
577.75	60961.59
577.92	60877.33
578.08	61057.56
578.24	61165.22
578.40	61272.88
578.56	61230.75
578.72	61144.16
578.88	61181.60
579.04	61293.95
579.21	61144.16
579.37	61095.00
579.53	61359.48
579.69	60865.63
579.85	60966.27
580.01	61272.88
580.17	61104.37
580.33	61148.84
580.49	61336.08
580.65	61045.85
580.82	61123.09
580.98	61097.34
581.14	61069.26
581.30	61394.59
581.46	61029.47
581.62	61315.01
581.78	61169.90
581.94	61205.01
582.10	61038.83
582.26	61080.96
582.42	61202.67
582.58	61333.74
582.74	61111.39
582.90	61015.43
583.06	61181.60
583.22	60945.21
583.38	61228.41
583.54	61268.20
583.70	61174.58
583.86	61230.75
584.02	60945.21
584.18	61106.71
584.34	61268.20
584.50	61270.54
584.66	61076.28
584.82	60790.73
584.98	61286.93
585.14	61104.37
585.30	61193.31
585.46	61186.28
585.62	61275.22
585.78	61471.83
585.94	61144.16
586.10	61401.61
586.26	61214.37
586.42	61282.25
586.58	61258.84
586.74	61212.03
586.90	61293.95
587.06	61226.07
587.22	61240.12
587.38	61310.33
587.54	61464.81
587.70	61394.59
587.86	61214.37
588.02	61254.16
588.18	61490.55
588.34	61256.50
