SpectraSuite Data File
++++++++++++++++++++++++++++++++++++
Date: Fri Oct 25 11:34:15 EDT 2013
User: price-jones
Dark Spectrum Present: No
Reference Spectrum Present: No
Number of Sampled Component Spectra: 1
Spectrometers: USB2+H05261
Integration Time (usec): 100000 (USB2+H05261)
Spectra Averaged: 1 (USB2+H05261)
Boxcar Smoothing: 0 (USB2+H05261)
Correct for Electrical Dark: No (USB2+H05261)
Strobe/Lamp Enabled: No (USB2+H05261)
Correct for Detector Non-linearity: No (USB2+H05261)
Correct for Stray Light: No (USB2+H05261)
Number of Pixels in Processed Spectrum: 2048
>>>>>Begin Processed Spectral Data<<<<<
365.73	315.97
365.92	315.97
366.12	315.97
366.32	177.88
366.52	145.11
366.72	177.88
366.91	194.26
367.11	184.90
367.31	117.03
367.51	196.60
367.70	170.86
367.90	205.97
368.10	177.88
368.30	168.52
368.49	175.54
368.69	184.90
368.89	187.24
369.09	201.29
369.28	159.16
369.48	135.75
369.68	224.69
369.87	269.16
370.07	222.35
370.27	374.49
370.47	395.55
370.66	486.83
370.86	507.90
371.06	440.02
371.25	491.51
371.45	533.64
371.65	519.60
371.84	599.18
372.04	575.77
372.24	585.13
372.44	482.15
372.63	571.09
372.83	526.62
373.03	594.50
373.22	589.82
373.42	587.47
373.62	554.71
373.81	685.78
374.01	650.67
374.21	599.18
374.40	622.58
374.60	683.44
374.79	615.56
374.99	643.65
375.19	594.50
375.38	631.94
375.58	676.41
375.78	678.76
375.97	669.39
376.17	622.58
376.37	643.65
376.56	685.78
376.76	610.88
376.95	706.84
377.15	674.07
377.35	620.24
377.54	641.31
377.74	655.35
377.93	695.14
378.13	711.52
378.33	697.48
378.52	763.01
378.72	667.05
378.91	730.25
379.11	657.69
379.31	723.23
379.50	641.31
379.70	650.67
379.89	704.50
380.09	713.86
380.28	697.48
380.48	718.54
380.68	739.61
380.87	709.18
381.07	683.44
381.26	697.48
381.46	784.08
381.65	835.57
381.85	802.80
382.04	732.59
382.24	823.87
382.43	807.48
382.63	723.23
382.83	767.70
383.02	741.95
383.22	725.57
383.41	744.29
383.61	858.98
383.80	800.46
384.00	849.61
384.19	814.51
384.39	748.97
384.58	791.10
384.78	791.10
384.97	840.25
385.17	828.55
385.36	793.44
385.56	870.68
385.75	758.33
385.95	774.72
386.14	812.17
386.34	959.62
386.53	870.68
386.72	772.38
386.92	823.87
387.11	821.53
387.31	898.77
387.50	898.77
387.70	861.32
387.89	919.83
388.09	903.45
388.28	908.13
388.48	816.85
388.67	940.90
388.86	936.21
389.06	936.21
389.25	873.02
389.45	891.74
389.64	943.24
389.84	931.53
390.03	919.83
390.22	896.43
390.42	861.32
390.61	945.58
390.81	973.66
391.00	992.39
391.19	973.66
391.39	987.71
391.58	1071.97
391.78	976.00
391.97	990.05
392.16	971.32
392.36	1139.84
392.55	1095.37
392.75	1060.26
392.94	1020.47
393.13	1071.97
393.33	1088.35
393.52	1036.86
393.71	1078.99
393.91	1062.60
394.10	1020.47
394.29	1109.41
394.49	1125.80
394.68	1114.10
394.88	1093.03
395.07	1034.52
395.26	1135.16
395.46	1111.75
395.65	1156.22
395.84	1064.94
396.04	1170.27
396.23	1053.24
396.42	1102.39
396.62	1181.97
396.81	1212.40
397.00	1163.25
397.19	1224.10
397.39	1174.95
397.58	1200.69
397.77	1139.84
397.97	1219.42
398.16	1299.00
398.35	1334.11
398.55	1270.91
398.74	1301.34
398.93	1273.25
399.12	1224.10
399.32	1289.64
399.51	1301.34
399.70	1259.21
399.90	1179.63
400.09	1343.47
400.28	1380.92
400.47	1303.68
400.67	1282.61
400.86	1341.13
401.05	1348.15
401.24	1327.08
401.44	1448.79
401.63	1394.96
401.82	1460.49
402.01	1476.88
402.21	1373.89
402.40	1497.94
402.59	1474.54
402.78	1511.99
402.97	1460.49
403.17	1511.99
403.36	1476.88
403.55	1523.69
403.74	1481.56
403.93	1542.41
404.13	1612.63
404.32	1633.69
404.51	1603.27
404.70	1724.97
404.89	1554.12
405.09	1701.57
405.28	1664.12
405.47	1619.65
405.66	1696.89
405.85	1708.59
406.05	1643.06
406.24	1724.97
406.43	1722.63
406.62	1673.48
406.81	1764.76
407.00	1724.97
407.20	1713.27
407.39	1750.72
407.58	1813.92
407.77	1872.43
407.96	1856.04
408.15	1928.60
408.34	1856.04
408.54	1771.79
408.73	1923.92
408.92	1837.32
409.11	1846.68
409.30	1968.39
409.49	1886.47
409.68	1933.28
409.87	1980.09
410.07	1980.09
410.26	2022.22
410.45	1977.75
410.64	2033.93
410.83	2111.16
411.02	2143.93
411.21	2108.82
411.40	2115.84
411.59	2230.53
411.78	2291.38
411.98	2097.12
412.17	2148.61
412.36	2209.47
412.55	2267.98
412.74	2228.19
412.93	2263.30
413.12	2296.07
413.31	2424.80
413.50	2387.35
413.69	2347.56
413.88	2420.11
414.07	2429.48
414.26	2495.01
414.45	2525.44
414.64	2487.99
414.83	2544.16
415.02	2595.65
415.22	2668.21
415.41	2602.68
415.60	2518.42
415.79	2544.16
415.98	2738.43
416.17	2609.70
416.36	2803.96
416.55	2717.36
416.74	2775.88
416.93	2829.71
417.12	2810.98
417.31	2698.64
417.50	2766.51
417.69	2935.03
417.88	2869.50
418.07	2832.05
418.26	2892.90
418.45	2939.71
418.64	3063.76
418.83	2946.73
419.02	2846.09
419.21	3038.02
419.39	3094.19
419.58	2949.08
419.77	2960.78
419.96	3049.72
420.15	3110.57
420.34	3178.45
420.53	3014.61
420.72	3229.94
420.91	3173.77
421.10	3215.90
421.29	3124.62
421.48	3265.05
421.67	3141.00
421.86	3087.17
422.05	3279.09
422.24	3234.62
422.43	3171.43
422.61	3323.56
422.80	3204.19
422.99	3295.47
423.18	3325.90
423.37	3410.16
423.56	3204.19
423.75	3363.35
423.94	3159.72
424.13	3098.87
424.32	3101.21
424.50	3372.71
424.69	3581.02
424.88	3330.58
425.07	3330.58
425.26	3262.71
425.45	3307.18
425.64	3403.14
425.83	3197.17
426.01	3293.13
426.20	3288.45
426.39	3351.65
426.58	3403.14
426.77	3351.65
426.96	3421.86
427.15	3445.27
427.33	3438.25
427.52	3377.39
427.71	3431.23
427.90	3449.95
428.09	3513.14
428.28	3665.28
428.46	3480.38
428.65	3538.89
428.84	3634.85
429.03	3765.92
429.22	3534.21
429.40	3660.60
429.59	3702.73
429.78	3515.48
429.97	3461.65
430.16	3723.79
430.34	3698.05
430.53	3784.65
430.72	3765.92
430.91	3719.11
431.10	3735.50
431.28	3609.11
431.47	3861.88
431.66	3932.10
431.85	3850.18
432.03	3969.55
432.22	4049.13
432.41	3829.12
432.60	3971.89
432.79	3932.10
432.97	3929.76
433.16	4056.15
433.35	4065.51
433.54	3969.55
433.72	4093.60
433.91	4095.94
434.10	4133.39
434.28	4219.99
434.47	3915.72
434.66	4194.24
434.85	4189.56
435.03	4299.56
435.22	4271.48
435.41	4374.46
435.59	4278.50
435.78	4236.37
435.97	4245.73
436.16	4367.44
436.34	4177.86
436.53	4287.86
436.72	4456.38
436.90	4325.31
437.09	4430.63
437.28	4273.82
437.46	4418.93
437.65	4337.01
437.84	4498.51
438.02	4388.50
438.21	4528.94
438.40	4374.46
438.58	4664.69
438.77	4725.54
438.96	4645.96
439.14	4608.51
439.33	4812.14
439.52	4727.88
439.70	4917.47
439.89	4919.81
440.08	4821.50
440.26	4929.17
440.45	4940.87
440.63	4943.21
440.82	5053.22
441.01	5067.26
441.19	4997.04
441.38	5050.88
441.57	5179.61
441.75	5090.67
441.94	5219.39
442.12	5210.03
442.31	5275.57
442.50	5217.05
442.68	5191.31
442.87	5324.72
443.05	5287.27
443.24	5408.98
443.43	5308.34
443.61	5427.70
443.80	5638.35
443.98	5348.12
444.17	5130.45
444.35	5481.53
444.54	5418.34
444.73	5378.55
444.91	5355.15
445.10	5748.36
445.28	5521.32
445.47	5636.01
445.65	5359.83
445.84	5647.71
446.02	5500.26
446.21	5530.69
446.39	5441.75
446.58	5694.52
446.77	5540.05
446.95	5416.00
447.14	5593.88
447.32	5493.24
447.51	5472.17
447.69	5701.54
447.88	5722.61
448.06	5680.48
448.25	5638.35
448.43	5654.73
448.62	5767.08
448.80	5469.83
448.99	5617.29
449.17	5659.42
449.36	5614.95
449.54	5809.21
449.73	5919.21
449.91	6050.28
450.10	5816.23
450.28	6040.92
450.46	5912.19
450.65	5933.26
450.83	5933.26
451.02	5795.17
451.20	6080.71
451.39	6162.63
451.57	6031.56
451.76	5961.34
451.94	6017.52
452.13	6033.90
452.31	6127.52
452.49	6094.76
452.68	6001.13
452.86	6111.14
453.05	6167.31
453.23	6146.25
453.42	6024.54
453.60	6167.31
453.78	6373.28
453.97	6289.02
454.15	6300.72
454.34	6059.65
454.52	6284.34
454.70	6230.51
454.89	6382.64
455.07	6354.55
455.26	6539.46
455.44	6455.20
455.62	6438.81
455.81	6576.91
455.99	6604.99
456.17	6471.58
456.36	6733.72
456.54	6726.70
456.73	6619.04
456.91	6642.44
457.09	6768.83
457.28	6899.90
457.46	6834.36
457.64	6825.00
457.83	6878.83
458.01	6822.66
458.19	6981.82
458.38	6897.56
458.56	7049.69
458.74	6958.41
458.93	6920.96
459.11	7115.23
459.29	7068.42
459.48	7028.63
459.66	7007.56
459.84	7112.89
460.03	7339.92
460.21	7293.11
460.39	6899.90
460.57	7304.81
460.76	7258.00
460.94	7351.62
461.12	7332.90
461.31	7155.02
461.49	7215.87
461.67	7283.75
461.85	7396.09
462.04	7300.13
462.22	7911.01
462.40	7541.21
462.59	7492.05
462.77	7433.54
462.95	7648.87
463.13	7281.41
463.32	7623.12
463.50	7620.78
463.68	7667.60
463.86	7801.01
464.05	7433.54
464.23	7618.44
464.41	7721.43
464.59	7496.74
464.78	7751.85
464.96	7798.66
465.14	7627.81
465.32	7866.54
465.50	7763.56
465.69	8079.53
465.87	7985.91
466.05	7801.01
466.23	7892.29
466.41	8002.29
466.60	7946.12
466.78	7871.22
466.96	7927.39
467.14	8042.08
467.32	7962.50
467.51	8086.55
467.69	7822.07
467.87	8098.25
468.05	8245.71
468.23	8037.40
468.41	8161.45
468.60	8243.37
468.78	8187.19
468.96	8184.85
469.14	8168.47
469.32	8627.21
469.50	8416.57
469.69	8498.49
469.87	8388.48
470.05	8388.48
470.23	8545.30
470.41	8336.99
470.59	8571.04
470.77	8444.65
470.95	8592.11
471.14	8807.44
471.32	8432.95
471.50	8674.03
471.68	8760.63
471.86	8681.05
472.04	8730.20
472.22	9153.84
472.40	8931.48
472.58	9013.40
472.77	9069.58
472.95	9121.07
473.13	9535.34
473.31	9081.28
473.49	9083.62
473.67	9128.09
473.85	9345.76
474.03	9301.29
474.21	9600.88
474.39	9523.64
474.57	9481.51
474.75	9563.43
474.93	9717.90
475.12	9572.79
475.30	9671.09
475.48	9806.84
475.66	9987.07
475.84	9731.95
476.02	9851.31
476.20	9942.60
476.38	9846.63
476.56	10544.11
476.74	10136.86
476.92	10143.88
477.10	10146.22
477.28	10373.25
477.46	10455.17
477.64	10562.84
477.82	10483.26
478.00	10808.59
478.18	10803.91
478.36	10806.25
478.54	10979.45
478.72	10993.50
478.90	11028.60
479.08	11187.76
479.26	11323.51
479.44	11377.34
479.62	11332.87
479.80	11492.03
479.98	11485.01
480.16	11733.11
480.34	11847.79
480.52	11934.39
480.70	12084.19
480.88	11726.08
481.06	12013.97
481.24	12133.34
481.41	12236.32
481.59	12332.28
481.77	12358.03
481.95	12596.76
482.13	12638.89
482.31	12620.17
482.49	12683.36
482.67	12664.64
482.85	13074.23
483.03	13151.47
483.21	13177.22
483.39	13036.78
483.57	13315.31
483.74	13516.59
483.92	13327.01
484.10	13717.88
484.28	13706.18
484.46	13951.93
484.64	14370.89
484.82	14040.87
485.00	14312.38
485.18	14274.93
485.35	14731.33
485.53	14476.21
485.71	14630.69
485.89	14946.66
486.07	15061.35
486.25	14941.98
486.43	15204.12
486.61	15342.21
486.78	15405.41
486.96	15400.72
487.14	15716.70
487.32	15580.95
487.50	16051.39
487.68	15908.62
487.85	16383.75
488.03	16156.72
488.21	16570.99
488.39	16486.73
488.57	16528.86
488.75	16194.17
488.92	16842.50
489.10	17085.91
489.28	16776.96
489.46	17331.67
489.64	17319.96
489.81	17640.62
489.99	17500.19
490.17	17570.40
490.35	17926.16
490.53	17923.82
490.70	18164.90
490.88	17898.08
491.06	18101.70
491.24	18658.75
491.41	18595.56
491.59	18668.11
491.77	18735.99
491.95	18595.56
492.13	18904.51
492.30	18719.60
492.48	19075.37
492.66	19208.78
492.84	19073.03
493.01	19440.49
493.19	19138.56
493.37	19676.88
493.54	20060.73
493.72	20049.03
493.90	19805.61
494.08	20170.74
494.25	20304.15
494.43	20285.42
494.61	20629.48
494.79	20599.05
494.96	20519.48
495.14	20910.35
495.32	21057.80
495.49	21219.30
495.67	20861.19
495.85	21373.77
496.02	21245.04
496.20	21408.88
496.38	21771.66
496.55	21394.84
496.73	22265.52
496.91	21876.99
497.09	22279.56
497.26	22228.07
497.44	21944.86
497.62	22427.01
497.79	22625.96
497.97	22309.99
498.14	22895.12
498.32	22960.66
498.50	23129.17
498.67	23218.11
498.85	23035.55
499.03	23360.89
499.20	23396.00
499.38	23566.85
499.56	23854.74
499.73	23592.60
499.91	23786.86
500.08	23772.82
500.26	23711.97
500.44	24016.24
500.61	23786.86
500.79	23864.10
500.97	24149.65
501.14	24706.70
501.32	24280.72
501.49	24360.30
501.67	24538.18
501.84	24573.28
502.02	24458.60
502.20	25071.82
502.37	24875.21
502.55	25090.54
502.72	25195.87
502.90	25184.16
503.07	25118.63
503.25	25305.87
503.43	24975.86
503.60	25345.66
503.78	25776.32
503.95	25312.89
504.13	25434.60
504.30	26005.69
504.48	25638.23
504.65	26038.46
504.83	26064.21
505.01	26087.61
505.18	26068.89
505.36	26452.73
505.53	26176.55
505.71	26644.66
505.88	26773.39
506.06	26342.73
506.23	26614.23
506.41	26757.00
506.58	26841.26
506.76	26930.20
506.93	27030.85
507.11	27084.68
507.28	27269.58
507.46	27208.73
507.63	27353.84
507.81	27646.41
507.98	27332.78
508.16	27601.94
508.33	27711.94
508.50	28081.75
508.68	27501.29
508.85	28233.88
509.03	27674.49
509.20	28034.94
509.38	28428.15
509.55	28407.08
509.73	28219.84
509.90	28596.67
510.08	28596.67
510.25	28285.37
510.42	28821.36
510.60	28971.15
510.77	29032.00
510.95	29326.91
511.12	28919.66
511.30	28980.51
511.47	29149.03
511.64	28992.22
511.82	29518.84
511.99	29324.57
512.17	29525.86
512.34	29752.89
512.51	29640.54
512.69	29851.19
512.86	29773.95
513.04	30228.02
513.21	29738.85
513.38	30113.33
513.56	30150.78
513.73	29858.21
513.90	30185.89
514.08	29977.58
514.25	30483.14
514.43	30291.21
514.60	30829.54
514.77	30920.82
514.95	30595.48
515.12	30569.74
515.29	30981.67
515.47	31199.34
515.64	31087.00
515.81	30604.84
515.99	30766.34
516.16	31292.96
516.33	31569.15
516.51	31573.83
516.68	31398.29
516.85	31484.89
517.03	31974.06
517.20	31644.04
517.37	31761.07
517.54	32030.23
517.72	31688.51
517.89	31901.50
518.06	32240.88
518.24	32018.53
518.41	32154.28
518.58	31997.46
518.75	31960.02
518.93	32243.22
519.10	31941.29
519.27	32161.30
519.45	32222.16
519.62	32524.08
519.79	32444.51
519.96	32795.59
520.14	32938.36
520.31	32788.56
520.48	32945.38
520.65	32905.59
520.83	33029.64
521.00	33420.51
521.17	33289.44
521.34	33296.46
521.52	33106.88
521.69	33223.90
521.86	33493.07
522.03	33401.79
522.20	33773.93
522.38	33926.07
522.55	33905.00
522.72	33937.77
522.89	33748.18
523.07	34394.17
523.24	34061.82
523.41	34506.52
523.58	34050.11
523.75	34352.04
523.92	34309.91
524.10	34426.94
524.27	34232.68
524.44	34782.70
524.61	34679.72
524.78	34607.16
524.96	34614.18
525.13	34948.88
525.30	34991.01
525.47	34946.54
525.64	34679.72
525.81	35089.31
525.98	35473.16
526.16	35255.49
526.33	35126.76
526.50	35498.91
526.67	34845.90
526.84	35515.29
527.01	35393.58
527.18	35620.61
527.36	35412.31
527.53	35541.03
527.70	36130.85
527.87	36158.94
528.04	35826.58
528.21	35868.71
528.38	35599.55
528.55	36107.44
528.72	35754.02
528.89	35945.95
529.07	36126.17
529.24	36172.98
529.41	36472.57
529.58	36114.47
529.75	36608.32
529.92	36755.77
530.09	36140.21
530.26	36327.45
530.43	36840.03
530.60	36500.65
530.77	36648.11
530.94	36493.63
531.11	36589.59
531.28	36741.73
531.46	36615.34
531.63	37071.75
531.80	36856.42
531.97	36985.15
532.14	37167.71
532.31	36694.92
532.48	37092.81
532.65	37333.89
532.82	37010.89
532.99	37322.18
533.16	37546.87
533.33	37464.96
533.50	37521.13
533.67	37528.15
533.84	37682.62
534.01	37684.97
534.18	37530.49
534.35	38237.33
534.52	37764.54
534.69	38422.23
534.86	38586.07
535.03	38281.80
535.20	38134.35
535.37	38195.20
535.54	38223.29
535.71	37961.15
535.88	38293.50
536.05	38031.36
536.22	38143.71
536.38	38216.27
536.55	38670.33
536.72	38499.47
536.89	38167.12
537.06	38763.95
537.23	38649.27
537.40	38218.61
537.57	38445.64
537.74	38754.59
537.91	38848.21
538.08	39002.69
538.25	39159.50
538.42	38911.41
538.59	39002.69
538.75	38951.20
538.92	39110.35
539.09	39311.64
539.26	39370.15
539.43	39049.50
539.60	39402.92
539.77	39452.07
539.94	39735.27
540.11	39290.57
540.28	39503.56
540.44	39236.74
540.61	39618.25
540.78	39402.92
540.95	39669.74
541.12	39512.92
541.29	39711.87
541.46	39882.73
541.62	39920.18
541.79	40011.46
541.96	39311.64
542.13	39765.70
542.30	39831.24
542.47	40133.17
542.63	40004.44
542.80	40172.96
542.97	40219.77
543.14	40617.66
543.31	40215.08
543.48	40318.07
543.64	41024.91
543.81	40882.14
543.98	41090.44
544.15	41102.15
544.32	40591.91
544.48	41113.85
544.65	40748.73
544.82	40861.07
544.99	40678.51
545.16	40924.27
545.32	40837.67
545.49	41146.62
545.66	41347.90
545.83	41036.61
546.00	41216.83
546.16	41392.37
546.33	40868.09
546.50	40769.79
546.67	41734.09
546.83	40872.78
547.00	41478.97
547.17	41331.52
547.34	41654.51
547.50	41687.28
547.67	41736.43
547.84	41565.57
548.00	41691.96
548.17	41792.61
548.34	41958.78
548.51	42141.35
548.67	41450.89
548.84	41874.52
549.01	41890.91
549.18	41865.16
549.34	42251.35
549.51	42403.49
549.68	42209.22
549.84	42066.45
550.01	42036.02
550.18	41904.95
550.34	42288.80
550.51	42359.02
550.68	42361.36
550.84	41975.17
551.01	42349.65
551.18	42192.84
551.34	42244.33
551.51	42852.87
551.68	42766.27
551.84	42462.00
552.01	42473.70
552.18	42487.74
552.34	42726.48
552.51	42618.81
552.68	42293.48
552.84	42639.88
553.01	43016.71
553.18	42536.90
553.34	42803.72
553.51	43157.14
553.67	42827.12
553.84	43337.36
554.01	42965.21
554.17	43063.52
554.34	43278.85
554.51	43051.81
554.67	43283.53
554.84	43208.63
555.00	43395.87
555.17	43545.67
555.33	43061.18
555.50	43306.93
555.67	43185.22
555.83	43079.90
556.00	43356.08
556.16	44091.01
556.33	43445.02
556.50	43758.66
556.66	43772.70
556.83	43391.19
556.99	44135.48
557.16	43412.26
557.32	43515.24
557.49	43915.47
557.65	43737.59
557.82	43772.70
557.98	43309.27
558.15	43653.33
558.32	44212.72
558.48	43695.46
558.65	43950.58
558.81	43512.90
558.98	43608.86
559.14	43665.03
559.31	43686.10
559.47	43660.35
559.64	43917.81
559.80	44172.93
559.97	43887.39
560.13	43882.70
560.30	43908.45
560.46	44261.87
560.63	44205.70
560.79	44470.18
560.96	44645.72
561.12	44025.48
561.29	44847.00
561.45	44442.09
561.61	44678.49
561.78	44598.91
561.94	44399.96
562.11	44381.24
562.27	44201.02
562.44	44364.85
562.60	44416.35
562.77	44390.60
562.93	44304.00
563.10	44697.21
563.26	44451.45
563.42	44781.47
563.59	44610.61
563.75	44392.94
563.92	44488.90
564.08	44603.59
564.24	44762.75
564.41	44744.02
564.57	44722.96
564.74	44720.62
564.90	44411.67
565.07	44123.78
565.23	44596.57
565.39	44208.04
565.56	44706.57
565.72	44818.92
565.88	44582.52
566.05	44699.55
566.21	44790.83
566.38	44879.77
566.54	45179.36
566.70	45289.37
566.87	45010.84
567.03	45010.84
567.19	45144.25
567.36	44898.50
567.52	44921.90
567.68	45429.80
567.85	44921.90
568.01	45123.19
568.17	45244.90
568.34	44800.19
568.50	45340.86
568.66	45263.62
568.83	45319.79
568.99	45179.36
569.15	45359.58
569.32	44758.06
569.48	45216.81
569.64	45469.59
569.81	45579.59
569.97	45195.74
570.13	45528.10
570.30	44961.69
570.46	45537.46
570.62	45581.93
570.78	45373.63
570.95	45469.59
571.11	45457.88
571.27	45457.88
571.43	45209.79
571.60	45350.22
571.76	45219.15
571.92	45137.23
572.09	45331.50
572.25	45633.42
572.41	45287.03
572.57	45544.48
572.74	45647.47
572.90	45563.21
573.06	45492.99
573.22	45399.37
573.38	45390.01
573.55	45457.88
573.71	45666.19
573.87	45787.90
574.03	45366.60
574.20	45888.54
574.36	45574.91
574.52	45996.21
574.68	45542.14
574.84	46078.13
575.01	45956.42
575.17	45825.35
575.33	45738.75
575.49	45371.28
575.65	45801.94
575.82	45879.18
575.98	45846.41
576.14	45511.72
576.30	46054.72
576.46	45542.14
576.62	45272.98
576.79	45680.24
576.95	45469.59
577.11	45478.95
577.27	45532.78
577.43	45848.75
577.59	45638.11
577.75	45670.87
577.92	45216.81
578.08	45785.56
578.24	45851.09
578.40	45738.75
578.56	45853.44
578.72	45397.03
578.88	45806.62
579.04	45460.23
579.21	45783.22
579.37	45570.23
579.53	45523.42
579.69	45558.53
579.85	45181.70
580.01	45731.73
580.17	45610.02
580.33	46117.92
580.49	45848.75
580.65	45745.77
580.82	46270.05
580.98	45502.35
581.14	45680.24
581.30	45886.20
581.46	46197.49
581.62	45867.48
581.78	46068.76
581.94	45785.56
582.10	46176.43
582.26	46213.88
582.42	45876.84
582.58	45989.19
582.74	46131.96
582.90	45996.21
583.06	46038.34
583.22	46094.51
583.38	45900.25
583.54	45652.15
583.70	46010.25
583.86	46019.61
584.02	45853.44
584.18	46342.61
584.34	46099.19
584.50	45979.82
584.66	45731.73
584.82	45968.12
584.98	46621.13
585.14	46281.75
585.30	46337.93
585.46	46003.23
585.62	46057.06
585.78	46131.96
585.94	45933.01
586.10	46164.73
586.26	45794.92
586.42	45947.06
586.58	45762.15
586.74	45799.60
586.90	46314.52
587.06	45736.41
587.22	46031.32
587.38	45694.28
587.54	46543.89
587.70	46148.34
587.86	46307.50
588.02	46178.77
588.18	46103.87
588.34	46047.70
588.49	46096.85
588.65	46003.23
588.81	46094.51
588.97	46209.20
589.13	46433.89
589.29	46012.59
589.45	46248.99
589.61	46092.17
589.77	46335.59
589.93	46241.96
590.08	46431.55
