SpectraSuite Data File
++++++++++++++++++++++++++++++++++++
Date: Fri Oct 25 10:43:15 EDT 2013
User: price-jones
Dark Spectrum Present: No
Reference Spectrum Present: No
Number of Sampled Component Spectra: 1
Spectrometers: USB2+H05261
Integration Time (usec): 100000 (USB2+H05261)
Spectra Averaged: 1 (USB2+H05261)
Boxcar Smoothing: 0 (USB2+H05261)
Correct for Electrical Dark: No (USB2+H05261)
Strobe/Lamp Enabled: No (USB2+H05261)
Correct for Detector Non-linearity: No (USB2+H05261)
Correct for Stray Light: No (USB2+H05261)
Number of Pixels in Processed Spectrum: 2048
>>>>>Begin Processed Spectral Data<<<<<
365.73	138.09
365.92	138.09
366.12	138.09
366.32	25.75
366.52	32.77
366.72	84.26
366.91	0.00
367.11	9.36
367.31	79.58
367.51	0.00
367.70	37.45
367.90	51.49
368.10	119.37
368.30	25.75
368.49	21.06
368.69	84.26
368.89	131.07
369.09	0.00
369.28	102.98
369.48	11.70
369.68	84.26
369.87	30.43
370.07	102.98
370.27	114.69
370.47	152.13
370.66	468.11
370.86	353.42
371.06	407.25
371.25	503.22
371.45	402.57
371.65	514.92
371.84	461.09
372.04	484.49
372.24	489.17
372.44	489.17
372.63	510.24
372.83	503.22
373.03	528.96
373.22	528.96
373.42	477.47
373.62	493.85
373.81	540.66
374.01	564.07
374.21	545.34
374.40	564.07
374.60	559.39
374.79	566.41
374.99	554.71
375.19	526.62
375.38	601.52
375.58	533.64
375.78	620.24
375.97	617.90
376.17	645.99
376.37	655.35
376.56	545.34
376.76	596.84
376.95	667.05
377.15	695.14
377.35	608.54
377.54	662.37
377.74	573.43
377.93	702.16
378.13	629.60
378.33	638.97
378.52	585.13
378.72	627.26
378.91	685.78
379.11	657.69
379.31	702.16
379.50	578.11
379.70	631.94
379.89	697.48
380.09	678.76
380.28	645.99
380.48	706.84
380.68	681.10
380.87	704.50
381.07	709.18
381.26	648.33
381.46	648.33
381.65	739.61
381.85	674.07
382.04	676.41
382.24	688.12
382.43	664.71
382.63	627.26
382.83	688.12
383.02	791.10
383.22	699.82
383.41	669.39
383.61	674.07
383.80	688.12
384.00	774.72
384.19	758.33
384.39	781.74
384.58	741.95
384.78	866.00
384.97	777.06
385.17	798.12
385.36	753.65
385.56	786.42
385.75	706.84
385.95	758.33
386.14	805.14
386.34	802.80
386.53	870.68
386.72	784.08
386.92	889.40
387.11	854.30
387.31	887.06
387.50	784.08
387.70	901.11
387.89	929.19
388.09	809.83
388.28	922.17
388.48	887.06
388.67	901.11
388.86	880.04
389.06	971.32
389.25	933.87
389.45	999.41
389.64	858.98
389.84	957.28
390.03	917.49
390.22	992.39
390.42	1050.90
390.61	910.47
390.81	1060.26
391.00	1062.60
391.19	1104.73
391.39	1078.99
391.58	1060.26
391.78	1097.71
391.97	1062.60
392.16	1013.45
392.36	1048.56
392.55	1001.75
392.75	1013.45
392.94	1039.20
393.13	1041.54
393.33	915.15
393.52	1053.24
393.71	1121.12
393.91	1158.57
394.10	1137.50
394.29	1193.67
394.49	1165.59
394.68	1111.75
394.88	1336.45
395.07	1259.21
395.26	1341.13
395.46	1135.16
395.65	1200.69
395.84	1240.48
396.04	1313.04
396.23	1170.27
396.42	1153.88
396.62	1261.55
396.81	1151.54
397.00	1247.51
397.19	1235.80
397.39	1252.19
397.58	1380.92
397.77	1357.51
397.97	1308.36
398.16	1364.53
398.35	1577.52
398.55	1507.30
398.74	1394.96
398.93	1591.56
399.12	1521.35
399.32	1472.20
399.51	1530.71
399.70	1631.35
399.90	1479.22
400.09	1640.72
400.28	1720.29
400.47	1589.22
400.67	1678.16
400.86	1668.80
401.05	1645.40
401.24	1654.76
401.44	1706.25
401.63	1678.16
401.82	1776.47
402.01	1722.63
402.21	1729.66
402.40	1710.93
402.59	1804.55
402.78	1816.26
402.97	1769.44
403.17	1823.28
403.36	1825.62
403.55	1916.90
403.74	1858.39
403.93	1788.17
404.13	1858.39
404.32	1900.52
404.51	1858.39
404.70	1928.60
404.89	1891.15
405.09	1963.71
405.28	1886.47
405.47	1959.03
405.66	2012.86
405.85	1984.77
406.05	1984.77
406.24	1987.11
406.43	1949.67
406.62	2054.99
406.81	2148.61
407.00	2015.20
407.20	2038.61
407.39	2054.99
407.58	2239.89
407.77	2190.74
407.96	2263.30
408.15	2202.44
408.34	2249.25
408.54	2335.85
408.73	2253.94
408.92	2284.36
409.11	2296.07
409.30	2253.94
409.49	2321.81
409.68	2225.85
409.87	2237.55
410.07	2387.35
410.26	2436.50
410.45	2389.69
410.64	2349.90
410.83	2469.27
411.02	2574.59
411.21	2670.55
411.40	2567.57
411.59	2567.57
411.78	2722.04
411.98	2658.85
412.17	2539.48
412.36	2658.85
412.55	2740.77
412.74	2736.09
412.93	2717.36
413.12	2682.25
413.31	2789.92
413.50	2810.98
413.69	2843.75
413.88	2923.33
414.07	2878.86
414.26	2829.71
414.45	3016.95
414.64	2920.99
414.83	3012.27
415.02	3061.42
415.22	3063.76
415.41	3192.49
415.60	3143.34
415.79	3258.03
415.98	3248.66
416.17	3253.34
416.36	3314.20
416.55	3171.43
416.74	3173.77
416.93	3419.52
417.12	3344.63
417.31	3309.52
417.50	3328.24
417.69	3426.54
417.88	3463.99
418.07	3321.22
418.26	3452.29
418.45	3531.87
418.64	3571.66
418.83	3541.23
419.02	3571.66
419.21	3543.57
419.39	3625.49
419.58	3641.87
419.77	3639.53
419.96	3588.04
420.15	3651.24
420.34	3695.71
420.53	3719.11
420.72	3794.01
420.91	3967.21
421.10	3840.82
421.29	3875.93
421.48	3829.12
421.67	3843.16
421.86	3777.62
422.05	3843.16
422.24	3796.35
422.43	3747.20
422.61	3840.82
422.80	3899.33
422.99	3995.29
423.18	3906.35
423.37	3983.59
423.56	3932.10
423.75	3976.57
423.94	3845.50
424.13	3676.98
424.32	3772.94
424.50	3925.08
424.69	3976.57
424.88	3868.91
425.07	3911.04
425.26	3822.09
425.45	3934.44
425.64	3840.82
425.83	3878.27
426.01	3948.48
426.20	3955.51
426.39	4018.70
426.58	4028.06
426.77	4046.79
426.96	4074.87
427.15	4030.40
427.33	4166.15
427.52	4025.72
427.71	3988.27
427.90	4053.81
428.09	4051.47
428.28	4219.99
428.46	4231.69
428.65	4095.94
428.84	4198.92
429.03	4327.65
429.22	4098.28
429.40	4121.68
429.59	4011.68
429.78	3948.48
429.97	3904.01
430.16	4030.40
430.34	4049.13
430.53	4109.98
430.72	4262.12
430.91	4269.14
431.10	4360.42
431.28	4557.02
431.47	4748.95
431.66	4622.56
431.85	4528.94
432.03	4521.92
432.22	4809.80
432.41	4662.35
432.60	4622.56
432.79	4723.20
432.97	4608.51
433.16	4784.06
433.35	4650.64
433.54	4711.50
433.72	4702.14
433.91	4692.77
434.10	4725.54
434.28	4657.67
434.47	4819.16
434.66	4910.44
434.85	4865.97
435.03	5006.41
435.22	4994.70
435.41	5153.86
435.59	4964.28
435.78	5203.01
435.97	5062.58
436.16	5242.80
436.34	5069.60
436.53	5200.67
436.72	5139.82
436.90	5048.54
437.09	5242.80
437.28	5109.39
437.46	5294.29
437.65	5245.14
437.84	5205.35
438.02	5149.18
438.21	5158.54
438.40	5160.88
438.58	5322.38
438.77	5437.06
438.96	5427.70
439.14	5479.19
439.33	5465.15
439.52	5678.14
439.70	5570.48
439.89	5659.42
440.08	5584.52
440.26	5561.11
440.45	5673.46
440.63	5975.39
440.82	6146.25
441.01	5895.81
441.19	5888.79
441.38	5984.75
441.57	6190.72
441.75	6270.30
441.94	6289.02
442.12	6251.57
442.31	6471.58
442.50	6424.77
442.68	6321.79
442.87	6349.87
443.05	6452.86
443.24	6401.37
443.43	6523.07
443.61	6420.09
443.80	6665.85
443.98	6256.25
444.17	6279.66
444.35	6478.60
444.54	6448.18
444.73	6537.12
444.91	6532.44
445.10	6455.20
445.28	6366.26
445.47	6340.51
445.65	6480.94
445.84	6452.86
446.02	6663.51
446.21	6722.02
446.39	6539.46
446.58	6537.12
446.77	6832.02
446.95	6436.47
447.14	6581.59
447.32	6677.55
447.51	6829.68
447.69	6604.99
447.88	6593.29
448.06	6801.60
448.25	6766.49
448.43	6686.91
448.62	6724.36
448.80	6829.68
448.99	6712.66
449.17	6956.07
449.36	6815.64
449.54	7049.69
449.73	6944.37
449.91	6888.20
450.10	7047.35
450.28	7288.43
450.46	7250.98
450.65	7368.01
450.83	7176.08
451.02	7297.79
451.20	7148.00
451.39	6998.20
451.57	7187.79
451.76	7157.36
451.94	7475.67
452.13	7426.52
452.31	7243.96
452.49	7159.70
452.68	7150.34
452.86	7218.21
453.05	7159.70
453.23	7297.79
453.42	7234.60
453.60	7269.70
453.78	7431.20
453.97	7449.93
454.15	7293.11
454.34	7421.84
454.52	7407.80
454.70	7573.97
454.89	7538.87
455.07	7541.21
455.26	7609.08
455.44	7810.37
455.62	7808.03
455.81	7674.62
455.99	7660.57
456.17	7854.84
456.36	7934.42
456.54	8074.85
456.73	8065.49
456.91	8138.04
457.09	8044.42
457.28	8313.58
457.46	8056.12
457.64	8147.40
457.83	8030.38
458.01	8053.78
458.19	8093.57
458.38	8042.08
458.56	8252.73
458.74	8273.79
458.93	8287.84
459.11	8301.88
459.29	8283.16
459.48	8315.92
459.66	8252.73
459.84	8311.24
460.03	8554.66
460.21	8512.53
460.39	8716.16
460.57	8596.79
460.76	8568.70
460.94	8683.39
461.12	8582.74
461.31	8645.94
461.49	8720.84
461.67	8554.66
461.85	8538.27
462.04	8767.65
462.22	9263.84
462.40	8898.72
462.59	8627.21
462.77	8706.79
462.95	8905.74
463.13	8903.40
463.32	8826.16
463.50	8931.48
463.68	9027.45
463.86	9102.34
464.05	8898.72
464.23	8915.10
464.41	9064.89
464.59	8858.93
464.78	9294.27
464.96	9036.81
465.14	8968.93
465.32	9156.18
465.50	9376.19
465.69	9404.27
465.87	9284.91
466.05	9247.46
466.23	9228.73
466.41	9261.50
466.60	9352.78
466.78	9242.78
466.96	9231.07
467.14	9315.33
467.32	9408.95
467.51	9481.51
467.69	9434.70
467.87	9312.99
468.05	9624.28
468.23	9504.92
468.41	9291.93
468.60	9518.96
468.78	9706.20
468.96	9614.92
469.14	9577.47
469.32	9809.19
469.50	9570.45
469.69	9678.12
469.87	9762.37
470.05	9839.61
470.23	9994.09
470.41	9877.06
470.59	9795.14
470.77	9900.47
470.95	10050.26
471.14	10026.86
471.32	9921.53
471.50	10181.33
471.68	10160.27
471.86	10225.80
472.04	10373.25
472.22	10436.45
472.40	10228.14
472.58	10284.31
472.77	10291.34
472.95	10511.35
473.13	10794.55
473.31	10644.76
473.49	10555.82
473.67	10759.44
473.85	10761.78
474.03	11016.90
474.21	11094.14
474.39	10906.90
474.57	11073.07
474.75	11052.01
474.93	11218.19
475.12	11150.31
475.30	11339.90
475.48	11159.67
475.66	11351.60
475.84	11241.59
476.02	11377.34
476.20	11356.28
476.38	11592.67
476.56	11981.20
476.74	11648.85
476.92	11861.84
477.10	11889.92
477.28	12016.31
477.46	12229.30
477.64	12035.03
477.82	12442.29
478.00	12767.62
478.18	12374.41
478.36	12507.82
478.54	12709.11
478.72	12594.42
478.90	12882.31
479.08	13221.69
479.26	13219.35
479.44	13404.25
479.62	13392.55
479.80	13256.79
479.98	13329.35
480.16	13858.31
480.34	13544.68
480.52	13645.32
480.70	13647.66
480.88	13692.13
481.06	13921.51
481.24	13846.61
481.41	14160.24
481.59	14649.41
481.77	14335.78
481.95	14270.25
482.13	14548.77
482.31	14565.15
482.49	14792.19
482.67	14668.14
482.85	14782.82
483.03	15084.75
483.21	15374.98
483.39	15426.47
483.57	15351.57
483.74	15461.58
483.92	15557.54
484.10	15452.22
484.28	15583.29
484.46	16128.63
484.64	16191.83
484.82	16011.60
485.00	16109.91
485.18	16460.99
485.35	16606.10
485.53	15857.13
485.71	15971.82
485.89	16657.59
486.07	16475.03
486.25	16791.00
486.43	16882.28
486.61	16891.65
486.78	17287.20
486.96	17034.42
487.14	17788.07
487.32	17734.24
487.50	17769.35
487.68	18239.79
487.85	18108.72
488.03	18356.82
488.21	18972.38
488.39	18429.38
488.57	18841.31
488.75	18806.20
488.92	18984.09
489.10	19295.38
489.28	19370.27
489.46	19978.81
489.64	19653.48
489.81	19988.18
489.99	19915.62
490.17	20037.33
490.35	20425.86
490.53	20409.47
490.70	20610.76
490.88	20493.73
491.06	20760.55
491.24	20706.72
491.41	20596.71
491.59	20439.90
491.77	20627.14
491.95	20968.86
492.13	21359.73
492.30	21752.94
492.48	21656.98
492.66	21851.24
492.84	22033.80
493.01	21799.75
493.19	21982.31
493.37	22270.20
493.54	22176.58
493.72	22434.03
493.90	22427.01
494.08	22979.38
494.25	23131.51
494.43	22977.04
494.61	23524.72
494.79	23634.73
494.96	23470.89
495.14	23342.16
495.32	23517.70
495.49	23608.98
495.67	23496.64
495.85	23990.49
496.02	23960.06
496.20	24514.77
496.38	23887.51
496.55	24081.77
496.73	25200.55
496.91	25057.78
497.09	24891.60
497.26	24840.11
497.44	24638.82
497.62	25032.03
497.79	25406.52
497.97	25078.84
498.14	25376.09
498.32	25364.39
498.50	25708.44
498.67	25893.35
498.85	26096.97
499.03	26169.53
499.20	26286.56
499.38	26532.31
499.56	26501.89
499.73	26258.47
499.91	26143.78
500.08	26490.18
500.26	26586.15
500.44	26637.64
500.61	26792.11
500.79	26682.11
500.97	26874.03
501.14	26932.54
501.32	26745.30
501.49	26986.38
501.67	27555.13
501.84	27225.11
502.02	27349.16
502.20	27707.26
502.37	28037.28
502.55	27527.04
502.72	27819.61
502.90	27716.62
503.07	27651.09
503.25	27910.89
503.43	28496.02
503.60	28329.84
503.78	28201.11
503.95	28121.54
504.13	28456.23
504.30	28353.25
504.48	28652.84
504.65	28173.03
504.83	29324.57
505.01	29305.85
505.18	28819.02
505.36	29422.87
505.53	29727.14
505.71	29347.98
505.88	29799.70
506.06	29497.77
506.23	29645.23
506.41	29722.46
506.58	29954.18
506.76	30005.67
506.93	29972.90
507.11	29373.72
507.28	29949.50
507.46	29954.18
507.63	29869.92
507.81	29876.94
507.98	30080.56
508.16	30513.56
508.33	30267.81
508.50	30436.33
508.68	30661.02
508.85	31068.27
509.03	31330.41
509.20	31166.57
509.38	31143.17
509.55	31562.12
509.73	31433.39
509.90	31143.17
510.08	31316.37
510.25	31342.11
510.42	31765.75
510.60	31484.89
510.77	31807.88
510.95	31978.74
511.12	31770.43
511.30	32189.39
511.47	32512.38
511.64	32161.30
511.82	32378.97
511.99	32046.62
512.17	32247.90
512.34	32119.17
512.51	32271.31
512.69	32561.53
512.86	32751.12
513.04	32882.19
513.21	32496.00
513.38	32325.14
513.56	32547.49
513.73	32584.94
513.90	33322.21
514.08	32720.69
514.25	32945.38
514.43	32809.63
514.60	33104.54
514.77	33301.14
514.95	33507.11
515.12	33305.82
515.29	33509.45
515.47	33830.10
515.64	34167.14
515.81	33661.58
515.99	33773.93
516.16	33673.29
516.33	33476.68
516.51	33741.16
516.68	32938.36
516.85	33443.91
517.03	33553.92
517.20	33404.13
517.37	34045.43
517.54	34448.00
517.72	33921.38
517.89	33951.81
518.06	33626.48
518.24	33893.30
518.41	34258.42
518.58	34251.40
518.75	34117.99
518.93	34972.28
519.10	34546.31
519.27	35122.08
519.45	34597.80
519.62	35201.66
519.79	35086.97
519.96	35306.98
520.14	35215.70
520.31	34621.20
520.48	35484.86
520.65	35192.30
520.83	35871.05
521.00	35704.87
521.17	35875.73
521.34	35857.01
521.52	36070.00
521.69	35950.63
521.86	36264.26
522.03	36357.88
522.20	36744.07
522.38	36191.70
522.55	36325.11
522.72	36208.09
522.89	36348.52
523.07	36437.46
523.24	36577.89
523.41	36694.92
523.58	36437.46
523.75	37457.93
523.92	36940.68
524.10	36856.42
524.27	37008.55
524.44	36903.23
524.61	36863.44
524.78	36910.25
524.96	37256.65
525.13	37385.38
525.30	37504.74
525.47	37703.69
525.64	37591.34
525.81	37717.73
525.98	37434.53
526.16	37207.50
526.33	37163.03
526.50	37434.53
526.67	36788.54
526.84	36781.52
527.01	37413.46
527.18	37797.31
527.36	37731.78
527.53	38117.96
527.70	38284.14
527.87	38096.90
528.04	38026.68
528.21	38087.54
528.38	38494.79
528.55	38913.75
528.72	38873.96
528.89	38789.70
529.07	38377.76
529.24	38410.53
529.41	38450.32
529.58	38485.43
529.75	38110.94
529.92	39299.94
530.09	38918.43
530.26	39313.98
530.43	38920.77
530.60	38667.99
530.77	39285.89
530.94	39208.65
531.11	39346.75
531.28	38941.83
531.46	39475.48
531.63	39196.95
531.80	39182.91
531.97	39349.09
532.14	38810.76
532.31	38990.98
532.48	39318.66
532.65	39620.59
532.82	39407.60
532.99	39332.70
533.16	39496.54
533.33	39981.03
533.50	39683.78
533.67	40091.04
533.84	39566.76
534.01	39856.98
534.18	39873.37
534.35	40114.44
534.52	40051.25
534.69	40364.88
534.86	40154.23
535.03	40519.35
535.20	40666.81
535.37	40730.00
535.54	40521.69
535.71	40175.30
535.88	40795.54
536.05	40636.38
536.22	40987.46
536.38	40428.07
536.55	40493.61
536.72	40933.63
536.89	40507.65
537.06	40151.89
537.23	40987.46
537.40	41249.60
537.57	40840.01
537.74	40851.71
537.91	41642.81
538.08	41263.64
538.25	40818.94
538.42	41216.83
538.59	41120.87
538.75	40912.56
538.92	41137.26
539.09	41273.01
539.26	41273.01
539.43	40982.78
539.60	41778.56
539.77	41060.02
539.94	41390.03
540.11	41031.93
540.28	41425.14
540.44	41291.73
540.61	41317.48
540.78	41411.10
540.95	41130.23
541.12	41076.40
541.29	41427.48
541.46	41745.80
541.62	41619.41
541.79	41804.31
541.96	41205.13
542.13	41563.23
542.30	41673.24
542.47	42061.77
542.63	42220.92
542.80	42195.18
542.97	42274.76
543.14	42567.32
543.31	42562.64
543.48	42579.03
543.64	43107.99
543.81	42759.25
543.98	42752.23
544.15	42480.72
544.32	42244.33
544.48	43154.80
544.65	42890.32
544.82	42518.17
544.99	42464.34
545.16	42417.53
545.32	42635.20
545.49	43452.05
545.66	43047.13
545.83	43206.29
546.00	43281.19
546.16	43365.45
546.33	42382.42
546.50	42637.54
546.67	43126.71
546.83	42735.84
547.00	43049.47
547.17	42724.14
547.34	42880.95
547.50	43227.35
547.67	43246.08
547.84	43461.41
548.00	43442.68
548.17	43449.70
548.34	43217.99
548.51	43948.24
548.67	43903.77
548.84	43517.58
549.01	43442.68
549.18	43468.43
549.34	43253.10
549.51	43583.12
549.68	43789.08
549.84	43821.85
550.01	43505.88
550.18	43730.57
550.34	43798.44
550.51	43379.49
550.68	43548.01
550.84	43217.99
551.01	43990.37
551.18	43978.67
551.34	43737.59
551.51	44339.11
551.68	44074.63
551.84	43704.82
552.01	44051.22
552.18	44151.87
552.34	43723.55
552.51	44060.58
552.68	43910.79
552.84	44271.23
553.01	44390.60
553.18	44142.50
553.34	44292.30
553.51	44093.35
553.67	44493.58
553.84	44622.31
554.01	44816.58
554.17	44626.99
554.34	44266.55
554.51	44697.21
554.67	44554.44
554.84	44472.52
555.00	44318.04
555.17	44088.67
555.33	44795.51
555.50	45095.10
555.67	44449.11
555.83	44446.77
556.00	44484.22
556.16	45226.17
556.33	44304.00
556.50	44905.52
556.66	44495.92
556.83	44638.70
556.99	44851.69
557.16	44755.72
557.32	44559.12
557.49	44858.71
557.65	44238.47
557.82	44842.32
557.98	45085.74
558.15	45188.72
558.32	45265.96
558.48	44563.80
558.65	45003.82
558.81	44732.32
558.98	44505.29
559.14	44545.08
559.31	44744.02
559.47	44634.02
559.64	45191.06
559.80	44811.90
559.97	44900.84
560.13	44589.55
560.30	44861.05
560.46	45347.88
560.63	45343.20
560.79	45574.91
560.96	45226.17
561.12	45144.25
561.29	45212.13
561.45	45382.99
561.61	45191.06
561.78	45017.86
561.94	44945.31
562.11	45048.29
562.27	45193.40
562.44	45125.53
562.60	45361.92
562.77	45380.65
562.93	45483.63
563.10	45614.70
563.26	45088.08
563.42	45591.30
563.59	45443.84
563.75	45579.59
563.92	45443.84
564.08	45572.57
564.24	45626.40
564.41	45207.45
564.57	45490.65
564.74	45525.76
564.90	45408.73
565.07	45387.67
565.23	45556.19
565.39	45062.33
565.56	45478.95
565.72	45247.24
565.88	45221.49
566.05	45195.74
566.21	45469.59
566.38	45272.98
566.54	45390.01
566.70	45322.13
566.87	45736.41
567.03	45797.26
567.19	46209.20
567.36	45771.52
567.52	45743.43
567.68	45879.18
567.85	45308.09
568.01	45689.60
568.17	45741.09
568.34	45890.88
568.50	45436.82
568.66	45375.97
568.83	45656.83
568.99	45490.65
569.15	45694.28
569.32	45177.02
569.48	45446.18
569.64	45954.08
569.81	45811.31
569.97	45986.85
570.13	45834.71
570.30	45214.47
570.46	45289.37
570.62	45294.05
570.78	44987.44
570.95	45212.13
571.11	45535.12
571.27	45481.29
571.43	45649.81
571.60	45560.87
571.76	45787.90
571.92	46162.39
572.09	45860.46
572.25	45638.11
572.41	45705.98
572.57	45881.52
572.74	46106.21
572.90	45949.40
573.06	45717.68
573.22	46260.69
573.38	45947.06
573.55	45738.75
573.71	45970.46
573.87	46122.60
574.03	45418.10
574.20	45408.73
574.36	45528.10
574.52	45951.74
574.68	45652.15
574.84	45780.88
575.01	45418.10
575.17	45214.47
575.33	45572.57
575.49	45862.80
575.65	45888.54
575.82	45759.81
575.98	45516.40
576.14	45933.01
576.30	45883.86
576.46	45769.18
576.62	45881.52
576.79	45790.24
576.95	45242.56
577.11	45605.34
577.27	46061.74
577.43	45954.08
577.59	45610.02
577.75	45605.34
577.92	45392.35
578.08	45851.09
578.24	45572.57
578.40	45680.24
578.56	45918.97
578.72	45357.24
578.88	46087.49
579.04	45914.29
579.21	45378.31
579.37	45242.56
579.53	45801.94
579.69	45605.34
579.85	45921.31
580.01	46148.34
580.17	45488.31
580.33	45961.10
580.49	45862.80
580.65	45649.81
580.82	45563.21
580.98	45628.74
581.14	45752.79
581.30	45956.42
581.46	45598.32
581.62	45858.12
581.78	45614.70
581.94	46356.65
582.10	46373.03
582.26	46291.12
582.42	46164.73
582.58	45773.86
582.74	45528.10
582.90	46014.93
583.06	45991.53
583.22	46375.37
583.38	46464.32
583.54	45883.86
583.70	45855.78
583.86	46108.55
584.02	45815.99
584.18	45780.88
584.34	46050.04
584.50	46012.59
584.66	45895.56
584.82	46045.36
584.98	46082.81
585.14	45998.55
585.30	45610.02
585.46	45722.37
585.62	45801.94
585.78	45846.41
585.94	45720.02
586.10	45509.38
586.26	45916.63
586.42	46080.47
586.58	46113.23
586.74	45991.53
586.90	45895.56
587.06	46108.55
587.22	45806.62
587.38	45661.51
587.54	45972.80
587.70	46302.82
587.86	45993.87
588.02	45591.30
588.18	45661.51
588.34	45631.08
588.49	45422.78
588.65	45481.29
588.81	45406.39
588.97	45584.27
589.13	45439.16
589.29	45411.07
589.45	45347.88
589.61	45801.94
589.77	46190.47
589.93	46342.61
