SpectraSuite Data File
++++++++++++++++++++++++++++++++++++
Date: Fri Oct 25 10:47:01 EDT 2013
User: price-jones
Dark Spectrum Present: No
Reference Spectrum Present: No
Number of Sampled Component Spectra: 1
Spectrometers: USB2+H05261
Integration Time (usec): 100000 (USB2+H05261)
Spectra Averaged: 1 (USB2+H05261)
Boxcar Smoothing: 0 (USB2+H05261)
Correct for Electrical Dark: No (USB2+H05261)
Strobe/Lamp Enabled: No (USB2+H05261)
Correct for Detector Non-linearity: No (USB2+H05261)
Correct for Stray Light: No (USB2+H05261)
Number of Pixels in Processed Spectrum: 2048
>>>>>Begin Processed Spectral Data<<<<<
365.73	168.52
365.92	168.52
366.12	168.52
366.32	93.62
366.52	91.28
366.72	53.83
366.91	93.62
367.11	0.00
367.31	44.47
367.51	77.24
367.70	39.79
367.90	86.60
368.10	16.38
368.30	67.88
368.49	56.17
368.69	58.51
368.89	67.88
369.09	67.88
369.28	21.06
369.48	53.83
369.68	156.82
369.87	147.45
370.07	107.66
370.27	138.09
370.47	166.18
370.66	470.45
370.86	425.98
371.06	477.47
371.25	496.19
371.45	437.68
371.65	374.49
371.84	428.32
372.04	496.19
372.24	526.62
372.44	472.79
372.63	470.45
372.83	557.05
373.03	484.49
373.22	430.66
373.42	585.13
373.62	486.83
373.81	596.84
374.01	580.45
374.21	585.13
374.40	528.96
374.60	596.84
374.79	596.84
374.99	552.37
375.19	613.22
375.38	580.45
375.58	599.18
375.78	622.58
375.97	617.90
376.17	575.77
376.37	634.29
376.56	653.01
376.76	603.86
376.95	608.54
377.15	587.47
377.35	631.94
377.54	617.90
377.74	557.05
377.93	601.52
378.13	557.05
378.33	566.41
378.52	559.39
378.72	622.58
378.91	678.76
379.11	624.92
379.31	660.03
379.50	617.90
379.70	748.97
379.89	695.14
380.09	753.65
380.28	599.18
380.48	690.46
380.68	667.05
380.87	613.22
381.07	622.58
381.26	674.07
381.46	678.76
381.65	702.16
381.85	662.37
382.04	645.99
382.24	748.97
382.43	678.76
382.63	643.65
382.83	690.46
383.02	751.31
383.22	723.23
383.41	727.91
383.61	655.35
383.80	795.78
384.00	748.97
384.19	751.31
384.39	837.91
384.58	737.27
384.78	795.78
384.97	823.87
385.17	819.19
385.36	800.46
385.56	805.14
385.75	702.16
385.95	774.72
386.14	821.53
386.34	793.44
386.53	833.23
386.72	725.57
386.92	840.25
387.11	807.48
387.31	891.74
387.50	800.46
387.70	898.77
387.89	835.57
388.09	905.79
388.28	821.53
388.48	870.68
388.67	910.47
388.86	870.68
389.06	938.55
389.25	847.27
389.45	915.15
389.64	968.98
389.84	997.07
390.03	971.32
390.22	866.00
390.42	964.30
390.61	922.17
390.81	915.15
391.00	978.34
391.19	1062.60
391.39	992.39
391.58	1018.13
391.78	1053.24
391.97	961.96
392.16	1057.92
392.36	1076.65
392.55	1090.69
392.75	971.32
392.94	999.41
393.13	1055.58
393.33	947.92
393.52	943.24
393.71	1090.69
393.91	978.34
394.10	1081.33
394.29	1055.58
394.49	1090.69
394.68	1116.44
394.88	1116.44
395.07	1200.69
395.26	1151.54
395.46	1121.12
395.65	1121.12
395.84	1186.65
396.04	1273.25
396.23	1114.10
396.42	1050.90
396.62	1207.72
396.81	1123.46
397.00	1181.97
397.19	1188.99
397.39	1242.82
397.58	1291.98
397.77	1287.29
397.97	1287.29
398.16	1380.92
398.35	1334.11
398.55	1303.68
398.74	1357.51
398.93	1385.60
399.12	1331.76
399.32	1394.96
399.51	1420.71
399.70	1511.99
399.90	1385.60
400.09	1519.01
400.28	1444.11
400.47	1507.30
400.67	1565.82
400.86	1439.43
401.05	1586.88
401.24	1598.59
401.44	1640.72
401.63	1561.14
401.82	1561.14
402.01	1547.09
402.21	1507.30
402.40	1549.43
402.59	1572.84
402.78	1607.95
402.97	1671.14
403.17	1598.59
403.36	1713.27
403.55	1619.65
403.74	1689.87
403.93	1638.38
404.13	1816.26
404.32	1827.96
404.51	1762.42
404.70	1832.64
404.89	1727.32
405.09	1898.17
405.28	1813.92
405.47	1795.19
405.66	1891.15
405.85	1874.77
406.05	1870.09
406.24	1844.34
406.43	1865.41
406.62	1937.96
406.81	1919.24
407.00	2005.84
407.20	1872.43
407.39	1916.90
407.58	1933.28
407.77	2008.18
407.96	2003.50
408.15	1996.48
408.34	1949.67
408.54	2057.33
408.73	2090.10
408.92	2087.76
409.11	2054.99
409.30	2129.89
409.49	2129.89
409.68	2202.44
409.87	2097.12
410.07	2083.08
410.26	2132.23
410.45	2214.15
410.64	2228.19
410.83	2214.15
411.02	2354.58
411.21	2319.47
411.40	2291.38
411.59	2349.90
411.78	2399.05
411.98	2319.47
412.17	2436.50
412.36	2464.58
412.55	2466.92
412.74	2567.57
412.93	2520.76
413.12	2466.92
413.31	2644.81
413.50	2593.31
413.69	2670.55
413.88	2700.98
414.07	2766.51
414.26	2717.36
414.45	2663.53
414.64	2874.18
414.83	2825.03
415.02	2827.37
415.22	2944.39
415.41	2782.90
415.60	2928.01
415.79	2928.01
415.98	3070.78
416.17	2984.18
416.36	2923.33
416.55	2977.16
416.74	3119.93
416.93	3012.27
417.12	3087.17
417.31	3119.93
417.50	3112.91
417.69	3466.33
417.88	3208.87
418.07	3133.98
418.26	3269.73
418.45	3339.94
418.64	3370.37
418.83	3487.40
419.02	3255.69
419.21	3279.09
419.39	3330.58
419.58	3290.79
419.77	3316.54
419.96	3335.26
420.15	3414.84
420.34	3407.82
420.53	3337.60
420.72	3482.72
420.91	3459.31
421.10	3555.27
421.29	3578.68
421.48	3461.65
421.67	3674.64
421.86	3627.83
422.05	3618.47
422.24	3463.99
422.43	3564.64
422.61	3555.27
422.80	3552.93
422.99	3632.51
423.18	3723.79
423.37	3758.90
423.56	3698.05
423.75	3632.51
423.94	3641.87
424.13	3262.71
424.32	3566.98
424.50	3719.11
424.69	3756.56
424.88	3702.73
425.07	3721.45
425.26	3620.81
425.45	3730.81
425.64	3749.54
425.83	3674.64
426.01	3756.56
426.20	3801.03
426.39	3742.52
426.58	3616.13
426.77	3796.35
426.96	3896.99
427.15	3803.37
427.33	3810.39
427.52	3875.93
427.71	3899.33
427.90	3812.73
428.09	3967.21
428.28	3946.14
428.46	3920.40
428.65	3936.78
428.84	3934.44
429.03	3974.23
429.22	3779.97
429.40	3936.78
429.59	3911.04
429.78	3812.73
429.97	3719.11
430.16	3880.61
430.34	3953.16
430.53	3960.19
430.72	4021.04
430.91	3948.48
431.10	3969.55
431.28	4311.27
431.47	4212.96
431.66	4236.37
431.85	4208.28
432.03	4266.80
432.22	4404.89
432.41	4337.01
432.60	4386.16
432.79	4477.44
432.97	4463.40
433.16	4423.61
433.35	4374.46
433.54	4421.27
433.72	4315.95
433.91	4367.44
434.10	4510.21
434.28	4524.26
434.47	4505.53
434.66	4713.84
434.85	4638.94
435.03	4643.62
435.22	4615.54
435.41	4770.01
435.59	4744.27
435.78	4777.03
435.97	4652.98
436.16	4835.55
436.34	4894.06
436.53	4760.65
436.72	4990.02
436.90	4816.82
437.09	4793.42
437.28	4718.52
437.46	4929.17
437.65	4910.44
437.84	4812.14
438.02	4774.69
438.21	4882.36
438.40	4875.34
438.58	5146.84
438.77	5200.67
438.96	5039.17
439.14	5163.22
439.33	5348.12
439.52	5355.15
439.70	5135.14
439.89	5334.08
440.08	5359.83
440.26	5413.66
440.45	5430.04
440.63	5488.56
440.82	5425.36
441.01	5523.66
441.19	5638.35
441.38	5706.23
441.57	5741.33
441.75	5841.98
441.94	5809.21
442.12	5809.21
442.31	5951.98
442.50	5682.82
442.68	5799.85
442.87	6003.47
443.05	5872.40
443.24	5951.98
443.43	6087.73
443.61	6087.73
443.80	6094.76
443.98	5935.60
444.17	5675.80
444.35	6108.80
444.54	6052.63
444.73	6136.88
444.91	6059.65
445.10	5944.96
445.28	6085.39
445.47	6171.99
445.65	5940.28
445.84	6155.61
446.02	6289.02
446.21	6120.50
446.39	6197.74
446.58	6324.13
446.77	6164.97
446.95	6167.31
447.14	6300.72
447.32	6251.57
447.51	6200.08
447.69	6230.51
447.88	6377.96
448.06	6153.27
448.25	6307.74
448.43	6260.93
448.62	6347.53
448.80	6267.95
448.99	6356.90
449.17	6530.09
449.36	6319.45
449.54	6532.44
449.73	6633.08
449.91	6532.44
450.10	6670.53
450.28	6703.29
450.46	6766.49
450.65	6733.72
450.83	6506.69
451.02	6516.05
451.20	6663.51
451.39	6848.41
451.57	6635.42
451.76	6799.26
451.94	6658.82
452.13	6745.42
452.31	6712.66
452.49	6757.13
452.68	6656.48
452.86	6691.59
453.05	6813.30
453.23	6799.26
453.42	6729.04
453.60	6761.81
453.78	6939.69
453.97	6916.28
454.15	6885.86
454.34	6995.86
454.52	7091.82
454.70	7122.25
454.89	7143.32
455.07	7204.17
455.26	7140.97
455.44	7211.19
455.62	7122.25
455.81	7225.23
455.99	7431.20
456.17	7323.54
456.36	7337.58
456.54	7442.90
456.73	7480.35
456.91	7534.18
457.09	7583.34
457.28	7922.71
457.46	7449.93
457.64	7485.03
457.83	7630.15
458.01	7431.20
458.19	7674.62
458.38	7468.65
458.56	7599.72
458.74	7686.32
458.93	7859.52
459.11	7775.26
459.29	7833.77
459.48	7730.79
459.66	7520.14
459.84	7655.89
460.03	7953.14
460.21	8159.11
460.39	8093.57
460.57	8006.97
460.76	7824.41
460.94	7976.55
461.12	8114.64
461.31	8063.15
461.49	8006.97
461.67	7981.23
461.85	8311.24
462.04	8145.06
462.22	8753.60
462.40	8259.75
462.59	8318.26
462.77	8374.44
462.95	8521.89
463.13	8463.38
463.32	8353.37
463.50	8449.33
463.68	8493.80
463.86	8276.13
464.05	8423.59
464.23	8386.14
464.41	8657.64
464.59	8292.52
464.78	8807.44
464.96	8718.50
465.14	8393.16
465.32	8517.21
465.50	8671.68
465.69	8730.20
465.87	8903.40
466.05	8603.81
466.23	8571.04
466.41	8753.60
466.60	8844.88
466.78	8580.40
466.96	8655.30
467.14	8802.75
467.32	8882.33
467.51	8898.72
467.69	8617.85
467.87	8748.92
468.05	8938.51
468.23	8779.35
468.41	8861.27
468.60	9034.47
468.78	9245.12
468.96	8954.89
469.14	9100.00
469.32	9067.24
469.50	8992.34
469.69	9193.62
469.87	9228.73
470.05	9369.16
470.23	9088.30
470.41	9266.18
470.59	9453.42
470.77	9376.19
470.95	9331.72
471.14	9678.12
471.32	9322.35
471.50	9671.09
471.68	9530.66
471.86	9558.75
472.04	9628.96
472.22	9919.19
472.40	9614.92
472.58	10033.88
472.77	9823.23
472.95	9863.02
473.13	10214.10
473.31	9998.77
473.49	9760.03
473.67	10188.35
473.85	10143.88
474.03	10148.56
474.21	10391.98
474.39	10317.08
474.57	10321.76
474.75	10448.15
474.93	10462.19
475.12	10431.77
475.30	10654.12
475.48	10359.21
475.66	10626.03
475.84	10771.15
476.02	10853.06
476.20	10803.91
476.38	10902.22
476.56	11227.55
476.74	11281.38
476.92	10899.87
477.10	11157.33
477.28	11421.81
477.46	11265.00
477.64	11506.07
477.82	11548.20
478.00	11885.24
478.18	11716.72
478.36	11885.24
478.54	12114.61
478.72	11892.26
478.90	12262.07
479.08	12248.02
479.26	12327.60
479.44	12461.01
479.62	12545.27
479.80	12596.76
479.98	12580.38
480.16	12947.84
480.34	12678.68
480.52	12842.52
480.70	13104.66
480.88	12931.46
481.06	12952.52
481.24	13062.53
481.41	13486.17
481.59	13493.19
481.77	13453.40
481.95	13650.00
482.13	13661.71
482.31	13338.71
482.49	13930.87
482.67	14127.47
482.85	14195.35
483.03	14260.88
483.21	14431.74
483.39	14642.39
483.57	14377.91
483.74	14864.74
483.92	14941.98
484.10	14750.06
484.28	14780.48
484.46	15344.55
484.64	15161.99
484.82	14972.41
485.00	15220.50
485.18	15573.92
485.35	15714.36
485.53	15475.62
485.71	15459.24
485.89	15822.02
486.07	15449.88
486.25	15999.90
486.43	16093.52
486.61	16301.83
486.78	16556.95
486.96	16257.36
487.14	16739.51
487.32	16683.34
487.50	17128.04
487.68	17060.16
487.85	17231.02
488.03	17376.14
488.21	17631.26
488.39	17563.38
488.57	17565.72
488.75	17668.70
488.92	18183.62
489.10	18225.75
489.28	18401.29
489.46	18876.42
489.64	18801.52
489.81	18829.61
489.99	18913.87
490.17	19176.01
490.35	19225.16
490.53	19110.47
490.70	19583.26
490.88	19447.51
491.06	19728.38
491.24	19793.91
491.41	19566.88
491.59	19658.16
491.77	19800.93
491.95	20020.94
492.13	20327.55
492.30	20336.91
492.48	20287.76
492.66	20800.34
492.84	20786.30
493.01	21216.96
493.19	20805.02
493.37	21254.40
493.54	21177.17
493.72	21488.46
493.90	21336.32
494.08	21788.05
494.25	21884.01
494.43	21886.35
494.61	22288.92
494.79	22171.89
494.96	22216.36
495.14	21994.01
495.32	22576.81
495.49	22443.40
495.67	22649.36
495.85	22597.87
496.02	22993.42
496.20	22944.27
496.38	23009.81
496.55	23264.92
496.73	24086.45
496.91	23517.70
497.09	23756.44
497.26	24023.26
497.44	23758.78
497.62	23913.25
497.79	23960.06
497.97	23857.08
498.14	24498.39
498.32	24278.38
498.50	24570.94
498.67	24577.97
498.85	24816.70
499.03	24786.27
499.20	25193.53
499.38	25163.10
499.56	24922.02
499.73	25153.74
499.91	25553.97
500.08	25277.79
500.26	25113.95
500.44	25504.82
500.61	25542.27
500.79	25441.62
500.97	25799.73
501.14	25982.29
501.32	25933.14
501.49	26218.68
501.67	25883.98
501.84	26192.94
502.02	26150.81
502.20	26539.33
502.37	26768.71
502.55	26649.34
502.72	26679.77
502.90	26838.92
503.07	26499.55
503.25	27002.76
503.43	26691.47
503.60	27239.15
503.78	26993.40
503.95	26937.23
504.13	27337.46
504.30	27122.13
504.48	27115.11
504.65	27300.01
504.83	27531.72
505.01	27924.93
505.18	27555.13
505.36	28060.68
505.53	27847.69
505.71	28299.42
505.88	28432.83
506.06	28133.24
506.23	28166.01
506.41	28056.00
506.58	27964.72
506.76	28814.34
506.93	28645.82
507.11	28332.18
507.28	28739.44
507.46	28709.01
507.63	28809.65
507.81	28678.58
507.98	28631.77
508.16	29083.50
508.33	29362.02
508.50	29448.62
508.68	29373.72
508.85	29965.88
509.03	29504.79
509.20	29465.00
509.38	30115.67
509.55	30054.82
509.73	29783.32
509.90	29773.95
510.08	30242.06
510.25	29996.31
510.42	30501.86
510.60	30176.53
510.77	30448.03
510.95	30714.85
511.12	30370.79
511.30	30806.13
511.47	31122.10
511.64	30834.22
511.82	31250.83
511.99	30654.00
512.17	31173.60
512.34	30948.90
512.51	31094.02
512.69	31618.30
512.86	31461.48
513.04	31791.50
513.21	31618.30
513.38	31477.86
513.56	31634.68
513.73	31550.42
513.90	32004.49
514.08	31276.58
514.25	31545.74
514.43	31737.66
514.60	31578.51
514.77	32023.21
514.95	32161.30
515.12	32573.24
515.29	32006.83
515.47	32524.08
515.64	33050.70
515.81	32540.47
515.99	32444.51
516.16	32720.69
516.33	32046.62
516.51	32411.74
516.68	32343.86
516.85	32278.33
517.03	32776.86
517.20	32720.69
517.37	32931.34
517.54	33369.02
517.72	33111.56
517.89	33071.77
518.06	32737.07
518.24	33104.54
518.41	33139.65
518.58	33266.03
518.75	33216.88
518.93	33748.18
519.10	33607.75
519.27	34103.95
519.45	33881.60
519.62	34134.37
519.79	34153.10
519.96	34125.01
520.14	34459.71
520.31	34089.90
520.48	34033.73
520.65	33970.54
520.83	34646.95
521.00	34316.93
521.17	34572.05
521.34	34366.09
521.52	35117.40
521.69	35033.14
521.86	34888.03
522.03	34574.39
522.20	34873.98
522.38	35110.38
522.55	35220.38
522.72	34953.56
522.89	34836.53
523.07	35562.10
523.24	34941.86
523.41	35583.16
523.58	35257.83
523.75	35857.01
523.92	35866.37
524.10	35885.09
524.27	36044.25
524.44	35655.72
524.61	36067.66
524.78	35976.37
524.96	36212.77
525.13	36484.27
525.30	36388.31
525.47	36355.54
525.64	36486.61
525.81	36327.45
525.98	36528.74
526.16	36060.63
526.33	36215.11
526.50	36765.14
526.67	36495.97
526.84	36191.70
527.01	36339.16
527.18	36856.42
527.36	36748.75
527.53	36701.94
527.70	37371.33
527.87	36889.18
528.04	37415.80
528.21	36940.68
528.38	36882.16
528.55	37371.33
528.72	37539.85
528.89	37787.95
529.07	37378.36
529.24	37251.97
529.41	37647.52
529.58	37371.33
529.75	37483.68
529.92	37572.62
530.09	37949.45
530.26	37581.98
530.43	38108.60
530.60	37715.39
530.77	38120.31
530.94	37689.65
531.11	37813.70
531.28	38293.50
531.46	38054.77
531.63	38501.81
531.80	37937.74
531.97	37750.50
532.14	38230.31
532.31	38089.88
532.48	37991.58
532.65	38696.08
532.82	38263.08
532.99	38447.98
533.16	38815.44
533.33	38684.37
533.50	38981.62
533.67	38635.22
533.84	38714.80
534.01	38831.83
534.18	39239.08
534.35	39346.75
534.52	38974.60
534.69	39232.06
534.86	39201.63
535.03	38859.91
535.20	39398.24
535.37	39243.76
535.54	40013.80
535.71	39185.25
535.88	39517.60
536.05	39463.77
536.22	39498.88
536.38	39587.82
536.55	39449.73
536.72	39592.50
536.89	39477.82
537.06	39482.50
537.23	40144.87
537.40	39761.02
537.57	39929.54
537.74	39906.13
537.91	39847.62
538.08	39896.77
538.25	39763.36
538.42	39840.60
538.59	40154.23
538.75	39643.99
538.92	39903.79
539.09	40109.76
539.26	40280.62
539.43	40189.34
539.60	40126.14
539.77	40062.95
539.94	40435.10
540.11	40074.65
540.28	40156.57
540.44	40465.52
540.61	39920.18
540.78	40245.51
540.95	39966.99
541.12	40399.99
541.29	40432.75
541.46	40500.63
541.62	40538.08
541.79	40900.86
541.96	40364.88
542.13	40334.45
542.30	41038.95
542.47	41099.81
542.63	40594.25
542.80	40926.61
542.97	41743.45
543.14	41497.70
543.31	41530.47
543.48	41631.11
543.64	41851.12
543.81	41911.97
543.98	41853.46
544.15	41783.24
544.32	41397.06
544.48	41507.06
544.65	41904.95
544.82	41820.69
544.99	41141.94
545.16	41659.20
545.32	41855.80
545.49	41900.27
545.66	41951.76
545.83	41776.22
546.00	42087.51
546.16	42036.02
546.33	41900.27
546.50	41783.24
546.67	42136.66
546.83	41462.59
547.00	42143.69
547.17	41694.30
547.34	42059.43
547.50	41998.57
547.67	42387.10
547.84	42410.51
548.00	42483.06
548.17	42672.65
548.34	42806.06
548.51	42810.74
548.67	42326.25
548.84	42518.17
549.01	42471.36
549.18	42433.91
549.34	42740.52
549.51	43037.77
549.68	43164.16
549.84	42731.16
550.01	42782.65
550.18	42972.24
550.34	42787.33
550.51	42595.41
550.68	42527.53
550.84	42337.95
551.01	42876.27
551.18	43079.90
551.34	43201.61
551.51	42754.57
551.68	43232.04
551.84	43173.52
552.01	43047.13
552.18	43260.12
552.34	42885.64
552.51	43519.92
552.68	43199.27
552.84	43187.56
553.01	43679.08
553.18	43576.09
553.34	43646.31
553.51	43180.54
553.67	43379.49
553.84	43676.74
554.01	43658.01
554.17	43908.45
554.34	43672.06
554.51	43854.62
554.67	43952.92
554.84	43856.96
555.00	43576.09
555.17	43379.49
555.33	43856.96
555.50	43761.00
555.67	43819.51
555.83	44011.43
556.00	43487.15
556.16	43957.60
556.33	44128.46
556.50	44467.84
556.66	44229.10
556.83	43810.15
556.99	43751.63
557.16	44086.33
557.32	44030.16
557.49	44076.97
557.65	43934.20
557.82	44219.74
557.98	44156.55
558.15	43920.15
558.32	44074.63
558.48	44156.55
558.65	44467.84
558.81	44027.82
558.98	44414.01
559.14	43936.54
559.31	44280.60
559.47	44449.11
559.64	43948.24
559.80	44456.14
559.97	44348.47
560.13	44095.69
560.30	44271.23
560.46	44278.25
560.63	44119.10
560.79	44605.93
560.96	44701.89
561.12	44746.36
561.29	44318.04
561.45	44430.39
561.61	44311.02
561.78	44285.28
561.94	44421.03
562.11	44533.37
562.27	44488.90
562.44	44376.56
562.60	44650.40
562.77	44781.47
562.93	44350.81
563.10	45092.76
563.26	44423.37
563.42	44793.17
563.59	44804.88
563.75	44737.00
563.92	44882.11
564.08	44767.43
564.24	44980.42
564.41	44699.55
564.57	44882.11
564.74	44531.03
564.90	44788.49
565.07	44818.92
565.23	44994.46
565.39	44802.53
565.56	44636.36
565.72	44619.97
565.88	44566.14
566.05	44928.92
566.21	44844.66
566.38	44669.12
566.54	44708.91
566.70	45277.66
566.87	45027.23
567.03	44896.16
567.19	45640.45
567.36	45338.52
567.52	44278.25
567.68	45209.79
567.85	45298.73
568.01	44999.14
568.17	44612.95
568.34	45050.63
568.50	45144.25
568.66	44905.52
568.83	45001.48
568.99	44533.37
569.15	44727.64
569.32	45172.34
569.48	44795.51
569.64	45116.17
569.81	45118.51
569.97	45045.95
570.13	45324.47
570.30	44856.37
570.46	44737.00
570.62	44928.92
570.78	45104.46
570.95	44891.48
571.11	44938.29
571.27	44924.24
571.43	45074.04
571.60	45401.71
571.76	45411.07
571.92	45167.66
572.09	44481.88
572.25	45104.46
572.41	45027.23
572.57	45280.00
572.74	45858.12
572.90	45469.59
573.06	45280.00
573.22	45116.17
573.38	45345.54
573.55	44823.60
573.71	44910.20
573.87	45212.13
574.03	45064.67
574.20	45067.02
574.36	45614.70
574.52	45425.12
574.68	45146.59
574.84	45324.47
575.01	45048.29
575.17	45420.44
575.33	45134.89
575.49	44842.32
575.65	45610.02
575.82	45752.79
575.98	45141.91
576.14	45605.34
576.30	45184.04
576.46	44631.68
576.62	45282.34
576.79	45411.07
576.95	45116.17
577.11	45518.74
577.27	45390.01
577.43	45450.86
577.59	45404.05
577.75	45247.24
577.92	44828.28
578.08	45492.99
578.24	44797.85
578.40	45371.28
578.56	45485.97
578.72	45375.97
578.88	45904.93
579.04	45705.98
579.21	45418.10
579.37	45364.26
579.53	45240.21
579.69	44886.79
579.85	45205.11
580.01	45558.53
580.17	45724.71
580.33	45134.89
580.49	45593.64
580.65	45338.52
580.82	45762.15
580.98	45467.25
581.14	45521.08
581.30	45469.59
581.46	45263.62
581.62	45474.27
581.78	45577.25
581.94	45429.80
582.10	45359.58
582.26	45586.61
582.42	45387.67
582.58	45052.97
582.74	45425.12
582.90	45497.67
583.06	45649.81
583.22	45574.91
583.38	45411.07
583.54	45738.75
583.70	44926.58
583.86	45193.40
584.02	45322.13
584.18	45682.58
584.34	45876.84
584.50	45518.74
584.66	45411.07
584.82	45191.06
584.98	45537.46
585.14	45649.81
585.30	45207.45
585.46	45289.37
585.62	45434.48
585.78	45226.17
585.94	44636.36
586.10	45198.09
586.26	45207.45
586.42	45900.25
586.58	45230.85
586.74	45219.15
586.90	45471.93
587.06	45132.55
587.22	45687.26
587.38	45272.98
587.54	45546.82
587.70	45741.09
587.86	45769.18
588.02	45518.74
588.18	45570.23
588.34	45509.38
588.49	44924.24
588.65	45106.80
588.81	45336.18
588.97	45216.81
589.13	45413.41
589.29	45617.04
589.45	45621.72
589.61	45401.71
589.77	45738.75
589.93	45530.44
590.08	45757.47
