SpectraSuite Data File
++++++++++++++++++++++++++++++++++++
Date: Fri Oct 25 10:44:54 EDT 2013
User: price-jones
Dark Spectrum Present: No
Reference Spectrum Present: No
Number of Sampled Component Spectra: 1
Spectrometers: USB2+H05261
Integration Time (usec): 100000 (USB2+H05261)
Spectra Averaged: 1 (USB2+H05261)
Boxcar Smoothing: 0 (USB2+H05261)
Correct for Electrical Dark: No (USB2+H05261)
Strobe/Lamp Enabled: No (USB2+H05261)
Correct for Detector Non-linearity: No (USB2+H05261)
Correct for Stray Light: No (USB2+H05261)
Number of Pixels in Processed Spectrum: 2048
>>>>>Begin Processed Spectral Data<<<<<
365.73	91.28
365.92	91.28
366.12	91.28
366.32	39.79
366.52	51.49
366.72	77.24
366.91	88.94
367.11	28.09
367.31	23.41
367.51	46.81
367.70	30.43
367.90	30.43
368.10	58.51
368.30	84.26
368.49	37.45
368.69	72.56
368.89	37.45
369.09	30.43
369.28	74.90
369.48	7.02
369.68	44.47
369.87	95.96
370.07	37.45
370.27	110.01
370.47	145.11
370.66	407.25
370.86	344.06
371.06	430.66
371.25	517.26
371.45	465.77
371.65	393.21
371.84	400.23
372.04	524.28
372.24	461.09
372.44	461.09
372.63	561.73
372.83	489.17
373.03	461.09
373.22	533.64
373.42	475.13
373.62	458.74
373.81	545.34
374.01	552.37
374.21	482.15
374.40	557.05
374.60	531.30
374.79	599.18
374.99	561.73
375.19	557.05
375.38	650.67
375.58	571.09
375.78	599.18
375.97	695.14
376.17	601.52
376.37	610.88
376.56	601.52
376.76	521.94
376.95	500.87
377.15	620.24
377.35	552.37
377.54	606.20
377.74	617.90
377.93	645.99
378.13	585.13
378.33	638.97
378.52	613.22
378.72	599.18
378.91	664.71
379.11	678.76
379.31	531.30
379.50	636.63
379.70	608.54
379.89	648.33
380.09	645.99
380.28	645.99
380.48	678.76
380.68	535.98
380.87	702.16
381.07	650.67
381.26	699.82
381.46	716.20
381.65	676.41
381.85	699.82
382.04	634.29
382.24	713.86
382.43	692.80
382.63	667.05
382.83	727.91
383.02	688.12
383.22	681.10
383.41	627.26
383.61	641.31
383.80	748.97
384.00	711.52
384.19	739.61
384.39	802.80
384.58	777.06
384.78	755.99
384.97	746.63
385.17	697.48
385.36	830.89
385.56	795.78
385.75	814.51
385.95	683.44
386.14	835.57
386.34	748.97
386.53	755.99
386.72	716.20
386.92	727.91
387.11	791.10
387.31	891.74
387.50	870.68
387.70	863.66
387.89	873.02
388.09	884.72
388.28	781.74
388.48	671.73
388.67	866.00
388.86	835.57
389.06	873.02
389.25	873.02
389.45	891.74
389.64	805.14
389.84	919.83
390.03	868.34
390.22	931.53
390.42	910.47
390.61	926.85
390.81	912.81
391.00	940.90
391.19	994.73
391.39	950.26
391.58	943.24
391.78	990.05
391.97	940.90
392.16	912.81
392.36	983.02
392.55	889.40
392.75	856.64
392.94	917.49
393.13	950.26
393.33	936.21
393.52	938.55
393.71	1043.88
393.91	1048.56
394.10	1039.20
394.29	1008.77
394.49	1036.86
394.68	1142.18
394.88	1139.84
395.07	1135.16
395.26	1039.20
395.46	1158.57
395.65	1095.37
395.84	1107.07
396.04	1039.20
396.23	1100.05
396.42	1128.14
396.62	1121.12
396.81	1165.59
397.00	1135.16
397.19	1086.01
397.39	1242.82
397.58	1273.25
397.77	1188.99
397.97	1270.91
398.16	1217.08
398.35	1294.32
398.55	1331.76
398.74	1273.25
398.93	1329.42
399.12	1376.24
399.32	1357.51
399.51	1308.36
399.70	1378.58
399.90	1284.95
400.09	1355.17
400.28	1439.43
400.47	1500.28
400.67	1465.18
400.86	1444.11
401.05	1448.79
401.24	1497.94
401.44	1451.13
401.63	1535.39
401.82	1425.39
402.01	1511.99
402.21	1631.35
402.40	1589.22
402.59	1556.46
402.78	1526.03
402.97	1474.54
403.17	1423.05
403.36	1577.52
403.55	1577.52
403.74	1556.46
403.93	1586.88
404.13	1661.78
404.32	1692.21
404.51	1621.99
404.70	1710.93
404.89	1694.55
405.09	1813.92
405.28	1760.08
405.47	1689.87
405.66	1760.08
405.85	1788.17
406.05	1753.06
406.24	1783.49
406.43	1746.04
406.62	1905.20
406.81	1947.33
407.00	1776.47
407.20	1750.72
407.39	1813.92
407.58	1797.53
407.77	1916.90
407.96	2005.84
408.15	1949.67
408.34	1996.48
408.54	1984.77
408.73	2008.18
408.92	2003.50
409.11	1912.22
409.30	1970.73
409.49	1977.75
409.68	1996.48
409.87	2017.54
410.07	2136.91
410.26	2029.24
410.45	2090.10
410.64	2150.95
410.83	2249.25
411.02	2244.57
411.21	2260.96
411.40	2181.38
411.59	2225.85
411.78	2403.73
411.98	2258.62
412.17	2380.32
412.36	2314.79
412.55	2473.95
412.74	2569.91
412.93	2459.90
413.12	2401.39
413.31	2576.93
413.50	2490.33
413.69	2448.20
413.88	2553.52
414.07	2572.25
414.26	2670.55
414.45	2619.06
414.64	2705.66
414.83	2761.83
415.02	2773.53
415.22	2693.96
415.41	2850.77
415.60	2801.62
415.79	3009.93
415.98	2871.84
416.17	2977.16
416.36	2768.85
416.55	2942.05
416.74	2972.48
416.93	2953.76
417.12	2918.65
417.31	3021.63
417.50	2995.89
417.69	3096.53
417.88	3105.89
418.07	3005.25
418.26	2939.71
418.45	3061.42
418.64	3204.19
418.83	3218.24
419.02	3124.62
419.21	3297.81
419.39	3077.80
419.58	3218.24
419.77	3117.59
419.96	3255.69
420.15	3440.59
420.34	3267.39
420.53	3234.62
420.72	3459.31
420.91	3426.54
421.10	3379.73
421.29	3569.32
421.48	3323.56
421.67	3581.02
421.86	3456.97
422.05	3421.86
422.24	3314.20
422.43	3419.52
422.61	3482.72
422.80	3590.38
422.99	3543.57
423.18	3552.93
423.37	3618.47
423.56	3508.46
423.75	3574.00
423.94	3564.64
424.13	3262.71
424.32	3311.86
424.50	3442.93
424.69	3555.27
424.88	3576.34
425.07	3513.14
425.26	3536.55
425.45	3382.07
425.64	3403.14
425.83	3482.72
426.01	3597.40
426.20	3719.11
426.39	3559.95
426.58	3583.36
426.77	3604.42
426.96	3604.42
427.15	3609.11
427.33	3662.94
427.52	3581.02
427.71	3758.90
427.90	3712.09
428.09	3768.26
428.28	3798.69
428.46	3831.46
428.65	3786.99
428.84	3758.90
429.03	3836.14
429.22	3684.00
429.40	3812.73
429.59	3742.52
429.78	3604.42
429.97	3681.66
430.16	3847.84
430.34	3730.81
430.53	3819.75
430.72	3784.65
430.91	3805.71
431.10	3911.04
431.28	4084.23
431.47	4109.98
431.66	4175.52
431.85	4088.92
432.03	4133.39
432.22	4241.05
432.41	4177.86
432.60	4320.63
432.79	4152.11
432.97	4201.26
433.16	4243.39
433.35	4262.12
433.54	4327.65
433.72	4292.54
433.91	4182.54
434.10	4271.48
434.28	4329.99
434.47	4259.78
434.66	4503.19
434.85	4421.27
435.03	4432.97
435.22	4465.74
435.41	4622.56
435.59	4472.76
435.78	4645.96
435.97	4458.72
436.16	4496.17
436.34	4510.21
436.53	4627.24
436.72	4662.35
436.90	4538.30
437.09	4545.32
437.28	4547.66
437.46	4568.73
437.65	4709.16
437.84	4650.64
438.02	4603.83
438.21	4706.82
438.40	4606.17
438.58	4847.25
438.77	4828.53
438.96	4903.42
439.14	4983.00
439.33	5013.43
439.52	4901.08
439.70	5050.88
439.89	5121.09
440.08	5139.82
440.26	5130.45
440.45	5128.11
440.63	5315.36
440.82	5423.02
441.01	5221.74
441.19	5188.97
441.38	5533.03
441.57	5284.93
441.75	5540.05
441.94	5636.01
442.12	5521.32
442.31	5556.43
442.50	5544.73
442.68	5591.54
442.87	5514.30
443.05	5636.01
443.24	5720.27
443.43	5792.83
443.61	5762.40
443.80	5940.28
443.98	5746.02
444.17	5572.82
444.35	5916.87
444.54	5928.58
444.73	5959.00
444.91	5954.32
445.10	5743.67
445.28	5668.78
445.47	5760.06
445.65	5664.10
445.84	6052.63
446.02	5928.58
446.21	5804.53
446.39	5853.68
446.58	5790.49
446.77	5846.66
446.95	5818.57
447.14	5926.24
447.32	6132.20
447.51	6120.50
447.69	6223.48
447.88	6104.12
448.06	6057.31
448.25	6092.41
448.43	6157.95
448.62	6040.92
448.80	5944.96
448.99	5982.41
449.17	6181.35
449.36	6008.16
449.54	6160.29
449.73	6195.40
449.91	6279.66
450.10	6476.26
450.28	6216.46
450.46	6410.73
450.65	6504.35
450.83	6525.41
451.02	6464.56
451.20	6518.39
451.39	6520.73
451.57	6567.54
451.76	6345.19
451.94	6291.36
452.13	6546.48
452.31	6497.33
452.49	6410.73
452.68	6338.17
452.86	6190.72
453.05	6445.84
453.23	6518.39
453.42	6497.33
453.60	6691.59
453.78	6766.49
453.97	6537.12
454.15	6726.70
454.34	6642.44
454.52	6630.74
454.70	6775.85
454.89	6876.49
455.07	6668.19
455.26	6757.13
455.44	6970.12
455.62	7052.03
455.81	6932.67
455.99	7028.63
456.17	7054.37
456.36	6937.35
456.54	7356.30
456.73	7122.25
456.91	7276.73
457.09	7213.53
457.28	7365.67
457.46	7253.32
457.64	7346.94
457.83	7414.82
458.01	7262.68
458.19	7269.70
458.38	7300.13
458.56	7459.29
458.74	7262.68
458.93	7428.86
459.11	7651.21
459.29	7405.46
459.48	7499.08
459.66	7414.82
459.84	7552.91
460.03	7838.45
460.21	7571.63
460.39	7728.45
460.57	7658.23
460.76	7749.51
460.94	7857.18
461.12	7882.92
461.31	7913.35
461.49	7709.72
461.67	7840.79
461.85	7992.93
462.04	7749.51
462.22	8114.64
462.40	7868.88
462.59	7988.25
462.77	7995.27
462.95	8037.40
463.13	8051.44
463.32	7964.84
463.50	8266.77
463.68	8180.17
463.86	7995.27
464.05	8105.28
464.23	7985.91
464.41	8032.72
464.59	7978.89
464.78	8491.46
464.96	8369.76
465.14	8180.17
465.32	8362.73
465.50	8367.42
465.69	8116.98
465.87	8116.98
466.05	8229.32
466.23	8224.64
466.41	8519.55
466.60	8493.80
466.78	8334.65
466.96	8561.68
467.14	8493.80
467.32	8568.70
467.51	8505.51
467.69	8510.19
467.87	8500.83
468.05	8540.61
468.23	8482.10
468.41	8671.68
468.60	8491.46
468.78	8777.01
468.96	8557.00
469.14	8933.82
469.32	8781.69
469.50	8685.73
469.69	8882.33
469.87	8992.34
470.05	8685.73
470.23	9006.38
470.41	8765.31
470.59	8891.70
470.77	8987.66
470.95	8891.70
471.14	9308.31
471.32	9123.41
471.50	9275.54
471.68	9231.07
471.86	9167.88
472.04	9345.76
472.22	9549.39
472.40	9111.71
472.58	9387.89
472.77	9430.02
472.95	9458.10
473.13	9820.89
473.31	9476.83
473.49	9415.98
473.67	9535.34
473.85	9647.69
474.03	10047.92
474.21	9867.70
474.39	9937.91
474.57	10073.67
474.75	10132.18
474.93	10146.22
475.12	10246.87
475.30	10071.33
475.48	10237.50
475.66	10286.65
475.84	10214.10
476.02	10462.19
476.20	10221.12
476.38	10717.31
476.56	10661.14
476.74	10485.60
476.92	10850.72
477.10	10731.36
477.28	10963.07
477.46	10808.59
477.64	11059.03
477.82	11056.69
478.00	11438.20
478.18	11524.80
478.36	11557.57
478.54	11487.35
478.72	11590.33
478.90	11520.12
479.08	11765.87
479.26	11894.60
479.44	12072.48
479.62	12231.64
479.80	12065.46
479.98	12116.95
480.16	12409.52
480.34	12348.67
480.52	12456.33
480.70	12475.06
480.88	12126.32
481.06	12589.74
481.24	12524.21
481.41	12816.77
481.59	13130.41
481.77	12894.01
481.95	13034.44
482.13	13238.07
482.31	13186.58
482.49	13591.49
482.67	13668.73
482.85	13460.42
483.03	14010.45
483.21	13930.87
483.39	14253.86
483.57	14139.18
483.74	14104.07
483.92	14225.78
484.10	14207.05
484.28	14464.51
484.46	14649.41
484.64	15040.28
484.82	14892.83
485.00	14855.38
485.18	15005.17
485.35	15185.40
485.53	14717.29
485.71	15201.78
485.89	15288.38
486.07	15400.72
486.25	15398.38
486.43	15538.82
486.61	15800.96
486.78	15985.86
486.96	16067.78
487.14	16332.26
487.32	16226.93
487.50	16407.16
487.68	16360.34
487.85	16830.79
488.03	17191.23
488.21	17006.33
488.39	17294.22
488.57	17249.75
488.75	17212.30
488.92	17504.87
489.10	17488.48
489.28	17598.49
489.46	17762.33
489.64	17715.51
489.81	18469.17
489.99	18459.81
490.17	18450.44
490.35	18752.37
490.53	18501.93
490.70	18579.17
490.88	18731.31
491.06	19110.47
491.24	19147.92
491.41	19267.29
491.59	19330.48
491.77	19073.03
491.95	19288.35
492.13	19768.16
492.30	19873.49
492.48	19843.06
492.66	19796.25
492.84	20009.24
493.01	20322.87
493.19	20273.72
493.37	20374.36
493.54	20222.23
493.72	20245.63
493.90	20762.89
494.08	20893.96
494.25	21289.51
494.43	21472.07
494.61	21507.18
494.79	21582.08
494.96	21483.78
495.14	21582.08
495.32	21865.28
495.49	22073.59
495.67	21809.11
495.85	22242.11
496.02	22340.41
496.20	22391.91
496.38	22054.87
496.55	22410.63
496.73	22878.74
496.91	22972.36
497.09	22827.24
497.26	22930.23
497.44	22827.24
497.62	23082.36
497.79	23332.80
497.97	23316.42
498.14	23421.74
498.32	23580.90
498.50	23866.44
498.67	23929.64
498.85	23922.62
499.03	24280.72
499.20	24442.21
499.38	24315.83
499.56	24353.27
499.73	24362.64
499.91	24507.75
500.08	24599.03
500.26	24683.29
500.44	24563.92
500.61	24680.95
500.79	24957.13
500.97	25048.41
501.14	25240.34
501.32	25088.20
501.49	25078.84
501.67	25160.76
501.84	25603.12
502.02	25537.59
502.20	25439.28
502.37	25956.54
502.55	25848.88
502.72	25907.39
502.90	25935.48
503.07	25731.85
503.25	26054.84
503.43	25958.88
503.60	26068.89
503.78	26279.54
503.95	26214.00
504.13	26501.89
504.30	26663.38
504.48	26572.10
504.65	26675.09
504.83	26890.41
505.01	26967.65
505.18	27072.98
505.36	27278.94
505.53	26871.69
505.71	27164.26
505.88	27468.53
506.06	27211.07
506.23	27253.20
506.41	27433.42
506.58	27459.16
506.76	27129.15
506.93	27924.93
507.11	27852.38
507.28	28154.30
507.46	28032.60
507.63	28091.11
507.81	28126.22
507.98	27632.36
508.16	28379.00
508.33	28563.90
508.50	28290.06
508.68	28552.20
508.85	28994.56
509.03	28620.07
509.20	28676.24
509.38	29118.60
509.55	29123.29
509.73	28957.11
509.90	29083.50
510.08	28828.38
510.25	29046.05
510.42	29605.44
510.60	29457.98
510.77	29509.47
510.95	29722.46
511.12	29666.29
511.30	29834.81
511.47	30054.82
511.64	29986.94
511.82	30426.96
511.99	29820.77
512.17	29972.90
512.34	29951.84
512.51	30487.82
512.69	30639.95
512.86	30403.56
513.04	30614.21
513.21	30794.43
513.38	30773.36
513.56	30785.07
513.73	30590.80
513.90	31019.12
514.08	30876.35
514.25	30862.30
514.43	30745.28
514.60	30590.80
514.77	31316.37
514.95	31489.57
515.12	31016.78
515.29	31168.91
515.47	31679.15
515.64	31704.90
515.81	31384.24
515.99	31431.05
516.16	31742.35
516.33	31412.33
516.51	31854.69
516.68	31569.15
516.85	31583.19
517.03	31428.71
517.20	31580.85
517.37	31775.11
517.54	32437.48
517.72	32346.20
517.89	32093.43
518.06	31971.72
518.24	32196.41
518.41	32004.49
518.58	32264.28
518.75	32788.56
518.93	32559.19
519.10	32830.69
519.27	32622.39
519.45	32617.71
519.62	32877.51
519.79	32872.82
519.96	32884.53
520.14	33607.75
520.31	32762.82
520.48	32947.72
520.65	33055.39
520.83	34125.01
521.00	33617.11
521.17	33996.28
521.34	33537.54
521.52	33589.03
521.69	33748.18
521.86	34120.33
522.03	33841.81
522.20	33914.36
522.38	33769.25
522.55	34469.07
522.72	34178.84
522.89	34258.42
523.07	34375.45
523.24	34246.72
523.41	34754.61
523.58	34309.91
523.75	34955.90
523.92	34941.86
524.10	35241.45
524.27	34892.71
524.44	35145.48
524.61	34824.83
524.78	35449.75
524.96	35143.14
525.13	35321.02
525.30	35360.81
525.47	35737.64
525.64	35639.34
525.81	35407.62
525.98	35414.65
526.16	35442.73
526.33	35108.04
526.50	35379.54
526.67	35072.93
526.84	35330.39
527.01	35702.53
527.18	35765.73
527.36	35667.42
527.53	35807.86
527.70	36479.59
527.87	36048.93
528.04	36191.70
528.21	36196.38
528.38	35990.42
528.55	36217.45
528.72	36346.18
528.89	36395.33
529.07	36290.01
529.24	36254.90
529.41	36348.52
529.58	36575.55
529.75	36589.59
529.92	36423.42
530.09	36713.64
530.26	36161.28
530.43	36840.03
530.60	36823.65
530.77	36730.03
530.94	37420.48
531.11	37158.34
531.28	36774.50
531.46	37266.01
531.63	36994.51
531.80	37273.03
531.97	37453.25
532.14	37256.65
532.31	37081.11
532.48	37144.30
532.65	37228.56
532.82	37446.23
532.99	37589.00
533.16	37268.35
533.33	37275.37
533.50	37787.95
533.67	37610.07
533.84	37486.02
534.01	37701.35
534.18	37834.76
534.35	38340.32
534.52	38211.59
534.69	38281.80
534.86	38335.63
535.03	37837.10
535.20	38178.82
535.37	38567.35
535.54	38593.09
535.71	38501.81
535.88	38340.32
536.05	38902.04
536.22	38871.62
536.38	38340.32
536.55	38389.47
536.72	38822.47
536.89	38387.13
537.06	38548.62
537.23	38792.04
537.40	38766.29
537.57	38660.97
537.74	39215.68
537.91	39285.89
538.08	38941.83
538.25	38866.94
538.42	38597.77
538.59	39402.92
538.75	38960.56
538.92	39225.04
539.09	39391.22
539.26	38923.11
539.43	39297.59
539.60	38876.30
539.77	39126.74
539.94	39541.01
540.11	39484.84
540.28	39421.64
540.44	39372.49
540.61	38967.58
540.78	39288.23
540.95	39529.31
541.12	39398.24
541.29	38892.68
541.46	39517.60
541.62	39325.68
541.79	39845.28
541.96	39339.72
542.13	39838.26
542.30	39629.95
542.47	39704.85
542.63	40226.79
542.80	39964.65
542.97	40072.31
543.14	40407.01
543.31	40407.01
543.48	40149.55
543.64	40896.18
543.81	41088.10
543.98	40933.63
544.15	40652.76
544.32	40690.21
544.48	40863.41
544.65	40598.93
544.82	40645.74
544.99	40554.46
545.16	40933.63
545.32	40910.22
545.49	41008.53
545.66	40978.10
545.83	41282.37
546.00	40928.95
546.16	41118.53
546.33	40971.08
546.50	40746.39
546.67	41027.25
546.83	40594.25
547.00	40959.38
547.17	40711.28
547.34	41022.57
547.50	41322.16
547.67	41776.22
547.84	41839.42
548.00	41347.90
548.17	41748.14
548.34	41467.27
548.51	41287.05
548.67	41904.95
548.84	41509.40
549.01	41563.23
549.18	41708.35
549.34	41158.32
549.51	41565.57
549.68	42136.66
549.84	41645.15
550.01	42288.80
550.18	41287.05
550.34	41865.16
550.51	42249.01
550.68	41888.57
550.84	41584.30
551.01	42033.68
551.18	41975.17
551.34	42014.96
551.51	42000.91
551.68	42466.68
551.84	42293.48
552.01	41968.15
552.18	42024.32
552.34	42064.11
552.51	42342.63
552.68	41801.97
552.84	42188.16
553.01	42564.98
553.18	42543.92
553.34	42281.78
553.51	42139.00
553.67	42153.05
553.84	42810.74
554.01	42241.99
554.17	42452.64
554.34	42937.13
554.51	42986.28
554.67	42541.58
554.84	42600.09
555.00	42548.60
555.17	42424.55
555.33	42735.84
555.50	42394.12
555.67	42522.85
555.83	42504.13
556.00	42990.96
556.16	42784.99
556.33	42534.56
556.50	43037.77
556.66	42974.58
556.83	42895.00
556.99	43075.22
557.16	43140.75
557.32	43407.58
557.49	43508.22
557.65	42693.71
557.82	43290.55
557.98	42916.06
558.15	42944.15
558.32	43379.49
558.48	42969.90
558.65	43512.90
558.81	43435.66
558.98	42583.71
559.14	43339.70
559.31	43641.63
559.47	43445.02
559.64	43650.99
559.80	43529.28
559.97	43320.98
560.13	42941.81
560.30	43217.99
560.46	43014.37
560.63	43550.35
560.79	43433.32
560.96	43461.41
561.12	43398.21
561.29	43452.05
561.45	43381.83
561.61	43267.14
561.78	43452.05
561.94	43215.65
562.11	43466.09
562.27	43849.94
562.44	43599.50
562.60	43557.37
562.77	43725.89
562.93	43564.39
563.10	43753.97
563.26	43501.20
563.42	43470.77
563.59	43856.96
563.75	43576.09
563.92	43569.07
564.08	43346.72
564.24	43826.53
564.41	43508.22
564.57	44002.07
564.74	43681.42
564.90	43445.02
565.07	43735.25
565.23	43643.97
565.39	43683.76
565.56	44046.54
565.72	43770.36
565.88	43594.82
566.05	44046.54
566.21	43950.58
566.38	43751.63
566.54	43936.54
566.70	44203.36
566.87	44371.88
567.03	44179.95
567.19	44538.05
567.36	44273.57
567.52	43910.79
567.68	44271.23
567.85	44037.18
568.01	43863.98
568.17	43714.19
568.34	44053.56
568.50	43693.12
568.66	43835.89
568.83	44385.92
568.99	43489.49
569.15	43758.66
569.32	43761.00
569.48	43821.85
569.64	44519.33
569.81	44374.22
569.97	44048.88
570.13	44016.11
570.30	44350.81
570.46	43585.46
570.62	44058.24
570.78	44069.95
570.95	43735.25
571.11	44100.37
571.27	44315.70
571.43	44044.20
571.60	44177.61
571.76	44032.50
571.92	44222.08
572.09	44154.21
572.25	44179.95
572.41	43922.49
572.57	43931.86
572.74	44392.94
572.90	44119.10
573.06	44116.76
573.22	44212.72
573.38	44311.02
573.55	44411.67
573.71	44301.66
573.87	44547.42
574.03	44020.80
574.20	44383.58
574.36	43920.15
574.52	44444.43
574.68	43992.71
574.84	44699.55
575.01	44191.65
575.17	44172.93
575.33	44168.25
575.49	44287.62
575.65	44217.40
575.82	44435.07
575.98	44521.67
576.14	44348.47
576.30	44650.40
576.46	44713.59
576.62	44683.17
576.79	44524.01
576.95	44350.81
577.11	44484.22
577.27	44851.69
577.43	44268.89
577.59	44329.75
577.75	44313.36
577.92	44016.11
578.08	44114.42
578.24	44350.81
578.40	44425.71
578.56	44264.21
578.72	44222.08
578.88	44322.72
579.04	44432.73
579.21	44327.41
579.37	44362.51
579.53	44364.85
579.69	44563.80
579.85	44430.39
580.01	44966.37
580.17	44306.34
580.33	44807.22
580.49	44701.89
580.65	44715.93
580.82	44687.85
580.98	44055.90
581.14	44362.51
581.30	44601.25
581.46	44605.93
581.62	44858.71
581.78	44175.27
581.94	44636.36
582.10	44133.14
582.26	44397.62
582.42	44364.85
582.58	44575.50
582.74	43971.64
582.90	44594.23
583.06	44830.62
583.22	44657.42
583.38	45006.16
583.54	44608.27
583.70	44549.76
583.86	44446.77
584.02	44261.87
584.18	44596.57
584.34	44634.02
584.50	44369.54
584.66	44177.61
584.82	44128.46
584.98	45120.85
585.14	44793.17
585.30	44444.43
585.46	44788.49
585.62	44411.67
585.78	44566.14
585.94	43819.51
586.10	44322.72
586.26	44449.11
586.42	44872.75
586.58	44596.57
586.74	44914.88
586.90	44397.62
587.06	44500.61
587.22	44650.40
587.38	44332.09
587.54	44498.26
587.70	44699.55
587.86	44615.29
588.02	44666.78
588.18	44266.55
588.34	45017.86
588.49	44245.49
588.65	43948.24
588.81	44339.11
588.97	44729.98
589.13	44287.62
589.29	44671.46
589.45	44865.73
589.61	44378.90
589.77	44643.38
589.93	44718.28
590.08	44818.92
590.24	44549.76
