SpectraSuite Data File
++++++++++++++++++++++++++++++++++++
Date: Fri Oct 25 11:26:11 EDT 2013
User: price-jones
Dark Spectrum Present: No
Reference Spectrum Present: No
Number of Sampled Component Spectra: 1
Spectrometers: USB2+H05261
Integration Time (usec): 100000 (USB2+H05261)
Spectra Averaged: 1 (USB2+H05261)
Boxcar Smoothing: 0 (USB2+H05261)
Correct for Electrical Dark: No (USB2+H05261)
Strobe/Lamp Enabled: No (USB2+H05261)
Correct for Detector Non-linearity: No (USB2+H05261)
Correct for Stray Light: No (USB2+H05261)
Number of Pixels in Processed Spectrum: 2048
>>>>>Begin Processed Spectral Data<<<<<
365.73	255.12
365.92	255.12
366.12	255.12
366.32	142.77
366.52	126.39
366.72	156.82
366.91	163.84
367.11	117.03
367.31	138.09
367.51	180.22
367.70	161.50
367.90	156.82
368.10	119.37
368.30	131.07
368.49	74.90
368.69	191.92
368.89	91.28
369.09	93.62
369.28	184.90
369.48	191.92
369.68	248.10
369.87	217.67
370.07	203.63
370.27	220.01
370.47	294.91
370.66	594.50
370.86	634.29
371.06	711.52
371.25	746.63
371.45	685.78
371.65	692.80
371.84	725.57
372.04	648.33
372.24	727.91
372.44	746.63
372.63	770.04
372.83	812.17
373.03	807.48
373.22	741.95
373.42	812.17
373.62	798.12
373.81	809.83
374.01	814.51
374.21	737.27
374.40	772.38
374.60	863.66
374.79	805.14
374.99	744.29
375.19	823.87
375.38	791.10
375.58	788.76
375.78	837.91
375.97	903.45
376.17	959.62
376.37	840.25
376.56	866.00
376.76	973.66
376.95	812.17
377.15	1022.81
377.35	910.47
377.54	903.45
377.74	866.00
377.93	1036.86
378.13	1008.77
378.33	966.64
378.52	961.96
378.72	1029.84
378.91	1011.11
379.11	1001.75
379.31	961.96
379.50	943.24
379.70	938.55
379.89	954.94
380.09	957.28
380.28	1093.03
380.48	978.34
380.68	1060.26
380.87	926.85
381.07	985.37
381.26	1050.90
381.46	985.37
381.65	1116.44
381.85	1064.94
382.04	1062.60
382.24	1053.24
382.43	1048.56
382.63	1029.84
382.83	1036.86
383.02	1043.88
383.22	1111.75
383.41	1121.12
383.61	1060.26
383.80	1107.07
384.00	1128.14
384.19	1076.65
384.39	1027.50
384.58	1142.18
384.78	1170.27
384.97	1128.14
385.17	1266.23
385.36	1226.44
385.56	1181.97
385.75	1184.31
385.95	1179.63
386.14	1203.04
386.34	1303.68
386.53	1151.54
386.72	1125.80
386.92	1224.10
387.11	1247.51
387.31	1156.22
387.50	1348.15
387.70	1315.38
387.89	1254.53
388.09	1261.55
388.28	1254.53
388.48	1299.00
388.67	1359.85
388.86	1397.30
389.06	1263.89
389.25	1362.19
389.45	1338.79
389.64	1266.23
389.84	1280.27
390.03	1444.11
390.22	1380.92
390.42	1406.66
390.61	1390.28
390.81	1434.75
391.00	1425.39
391.19	1469.86
391.39	1483.90
391.58	1437.09
391.78	1444.11
391.97	1488.58
392.16	1502.62
392.36	1533.05
392.55	1460.49
392.75	1516.67
392.94	1629.01
393.13	1526.03
393.33	1519.01
393.52	1619.65
393.71	1565.82
393.91	1621.99
394.10	1645.40
394.29	1643.06
394.49	1605.61
394.68	1675.82
394.88	1689.87
395.07	1696.89
395.26	1659.44
395.46	1678.16
395.65	1717.95
395.84	1762.42
396.04	1764.76
396.23	1762.42
396.42	1753.06
396.62	1720.29
396.81	1727.32
397.00	1762.42
397.19	1767.10
397.39	1717.95
397.58	1870.09
397.77	1944.99
397.97	1816.26
398.16	1865.41
398.35	1884.13
398.55	1783.49
398.74	1947.33
398.93	1959.03
399.12	1879.45
399.32	1975.41
399.51	1968.39
399.70	1963.71
399.90	1984.77
400.09	1970.73
400.28	2040.95
400.47	1914.56
400.67	2038.61
400.86	2054.99
401.05	2057.33
401.24	2080.74
401.44	2005.84
401.63	2132.23
401.82	2036.27
402.01	2099.46
402.21	2106.48
402.40	2141.59
402.59	2225.85
402.78	2260.96
402.97	2022.22
403.17	2263.30
403.36	2263.30
403.55	2298.41
403.74	2368.62
403.93	2380.32
404.13	2335.85
404.32	2293.72
404.51	2401.39
404.70	2394.37
404.89	2338.20
405.09	2581.61
405.28	2394.37
405.47	2457.56
405.66	2497.35
405.85	2504.37
406.05	2450.54
406.24	2532.46
406.43	2623.74
406.62	2637.78
406.81	2682.25
407.00	2567.57
407.20	2471.61
407.39	2590.97
407.58	2693.96
407.77	2726.72
407.96	2768.85
408.15	2738.43
408.34	2796.94
408.54	2726.72
408.73	2796.94
408.92	2841.41
409.11	2928.01
409.30	2897.58
409.49	2825.03
409.68	2928.01
409.87	2970.14
410.07	3019.29
410.26	2993.55
410.45	2991.20
410.64	3028.65
410.83	2923.33
411.02	3141.00
411.21	3241.64
411.40	3124.62
411.59	3304.84
411.78	3162.06
411.98	3328.24
412.17	3279.09
412.36	3391.44
412.55	3412.50
412.74	3258.03
412.93	3405.48
413.12	3323.56
413.31	3517.83
413.50	3368.03
413.69	3487.40
413.88	3634.85
414.07	3545.91
414.26	3592.72
414.45	3700.39
414.64	3618.47
414.83	3747.20
415.02	3765.92
415.22	3831.46
415.41	3911.04
415.60	3740.18
415.79	3892.31
415.98	3871.25
416.17	4016.36
416.36	3918.06
416.55	3971.89
416.74	4109.98
416.93	3918.06
417.12	4042.11
417.31	4327.65
417.50	4095.94
417.69	4362.76
417.88	4248.07
418.07	4278.50
418.26	4215.30
418.45	4306.59
418.64	4304.25
418.83	4423.61
419.02	4397.87
419.21	4358.08
419.39	4498.51
419.58	4540.64
419.77	4461.06
419.96	4554.68
420.15	4566.39
420.34	4550.00
420.53	4571.07
420.72	4767.67
420.91	4594.47
421.10	4709.16
421.29	4875.34
421.48	4685.75
421.67	4798.10
421.86	4681.07
422.05	4826.18
422.24	4830.87
422.43	4865.97
422.61	4830.87
422.80	5013.43
422.99	4929.17
423.18	4908.10
423.37	4973.64
423.56	4877.68
423.75	5006.41
423.94	4891.72
424.13	4645.96
424.32	4788.74
424.50	4887.04
424.69	5172.58
424.88	5069.60
425.07	4896.40
425.26	4837.89
425.45	4905.76
425.64	4952.57
425.83	4926.83
426.01	4971.30
426.20	5118.75
426.39	5071.94
426.58	5104.71
426.77	4945.55
426.96	5233.44
427.15	5212.37
427.33	5149.18
427.52	4992.36
427.71	5266.21
427.90	5205.35
428.09	5160.88
428.28	5198.33
428.46	5355.15
428.65	5444.09
428.84	5458.13
429.03	5462.81
429.22	5408.98
429.40	5535.37
429.59	5467.49
429.78	5207.69
429.97	5310.68
430.16	5324.72
430.34	5631.33
430.53	5645.37
430.72	5530.69
430.91	5537.71
431.10	5659.42
431.28	5675.80
431.47	5872.40
431.66	5802.19
431.85	5731.97
432.03	5954.32
432.22	6106.46
432.41	5975.39
432.60	5846.66
432.79	5966.03
432.97	6015.18
433.16	5818.57
433.35	5867.72
433.54	6043.26
433.72	6090.07
433.91	6094.76
434.10	6171.99
434.28	6017.52
434.47	6083.05
434.66	6338.17
434.85	6403.71
435.03	6235.19
435.22	6221.14
435.41	6235.19
435.59	6368.60
435.78	6434.13
435.97	6230.51
436.16	6277.32
436.34	6207.10
436.53	6609.67
436.72	6544.14
436.90	6373.28
437.09	6567.54
437.28	6448.18
437.46	6647.12
437.65	6553.50
437.84	6675.21
438.02	6649.46
438.21	6726.70
438.40	6642.44
438.58	7019.27
438.77	6988.84
438.96	6932.67
439.14	7096.50
439.33	7103.53
439.52	7124.59
439.70	7220.55
439.89	7332.90
440.08	7365.67
440.26	7339.92
440.45	7211.19
440.63	7358.64
440.82	7403.11
441.01	7520.14
441.19	7522.48
441.38	7651.21
441.57	7674.62
441.75	7723.77
441.94	7950.80
442.12	7812.71
442.31	7798.66
442.50	8133.36
442.68	7899.31
442.87	7875.90
443.05	8063.15
443.24	8208.26
443.43	8060.80
443.61	8196.56
443.80	8430.61
443.98	8056.12
444.17	7875.90
444.35	8079.53
444.54	8182.51
444.73	8241.03
444.91	8269.11
445.10	8318.26
445.28	8294.86
445.47	8124.00
445.65	8177.83
445.84	8311.24
446.02	8564.02
446.21	8353.37
446.39	8355.71
446.58	8578.06
446.77	8229.32
446.95	8166.13
447.14	8208.26
447.32	8362.73
447.51	8402.52
447.69	8540.61
447.88	8379.12
448.06	8524.23
448.25	8484.44
448.43	8634.24
448.62	8475.08
448.80	8397.84
448.99	8615.51
449.17	8702.11
449.36	8580.40
449.54	8917.44
449.73	8915.10
449.91	9022.77
450.10	8875.31
450.28	9132.77
450.46	8924.46
450.65	8889.35
450.83	9092.98
451.02	9055.53
451.20	9207.67
451.39	9188.94
451.57	8884.67
451.76	9011.06
451.94	9067.24
452.13	9163.20
452.31	9207.67
452.49	9280.22
452.68	9497.89
452.86	9305.97
453.05	9235.75
453.23	9348.10
453.42	9408.95
453.60	9259.16
453.78	9355.12
453.97	9458.10
454.15	9631.30
454.34	9657.05
454.52	9635.99
454.70	9387.89
454.89	9582.15
455.07	9666.41
455.26	9846.63
455.44	9694.50
455.62	9853.66
455.81	9998.77
455.99	9987.07
456.17	9947.28
456.36	10174.31
456.54	10129.84
456.73	10150.90
456.91	10328.78
457.09	10263.25
457.28	10506.66
457.46	10265.59
457.64	10462.19
457.83	10532.41
458.01	10314.74
458.19	10637.73
458.38	10359.21
458.56	10813.28
458.74	10462.19
458.93	10661.14
459.11	10691.57
459.29	10693.91
459.48	10827.32
459.66	11005.20
459.84	10909.24
460.03	11143.29
460.21	10972.43
460.39	10834.34
460.57	10864.77
460.76	11014.56
460.94	11220.53
461.12	11052.01
461.31	11033.29
461.49	11066.05
461.67	11070.73
461.85	11452.24
462.04	11178.40
462.22	11709.70
462.40	11611.40
462.59	11674.59
462.77	11527.14
462.95	11461.60
463.13	11447.56
463.32	11552.88
463.50	11847.79
463.68	11903.96
463.86	11564.59
464.05	11700.34
464.23	11683.95
464.41	11805.66
464.59	11733.11
464.78	12138.02
464.96	11943.75
465.14	11808.00
465.32	11899.28
465.50	11920.35
465.69	12189.51
465.87	12102.91
466.05	12044.40
466.23	12009.29
466.41	12348.67
466.60	12566.34
466.78	11971.84
466.96	12163.76
467.14	12386.12
467.32	12292.49
467.51	12358.03
467.69	12016.31
467.87	12573.36
468.05	12386.12
468.23	12526.55
468.41	12554.63
468.60	12514.84
468.78	12601.44
468.96	12503.14
469.14	12767.62
469.32	12877.63
469.50	12521.87
469.69	12973.59
469.87	13179.56
470.05	13022.74
470.23	13364.46
470.41	13111.68
470.59	13207.64
470.77	13090.62
470.95	13247.43
471.14	13554.04
471.32	13249.77
471.50	13589.15
471.68	13467.44
471.86	13748.31
472.04	13645.32
472.22	14015.13
472.40	13722.56
472.58	13914.48
472.77	13825.54
472.95	14284.29
473.13	14689.20
473.31	13928.53
473.49	14239.82
473.67	14284.29
473.85	14190.67
474.03	14572.18
474.21	14707.93
474.39	14595.58
474.57	14707.93
474.75	14909.21
474.93	15082.41
475.12	15166.67
475.30	14834.32
475.48	14773.46
475.66	14848.36
475.84	15122.20
476.02	15246.25
476.20	15192.42
476.38	15667.55
476.56	16060.76
476.74	15866.49
476.92	15997.56
477.10	15709.68
477.28	16023.31
477.46	15920.32
477.64	16482.05
477.82	16252.68
478.00	16669.30
478.18	16882.28
478.36	16755.90
478.54	17116.34
478.72	17200.60
478.90	17214.64
479.08	17343.37
479.26	17671.04
479.44	17341.03
479.62	17696.79
479.80	17710.83
479.98	18031.49
480.16	18429.38
480.34	18094.68
480.52	18656.41
480.70	18803.86
480.88	18415.34
481.06	18499.59
481.24	19073.03
481.41	19105.79
481.59	19449.85
481.77	19459.21
481.95	19524.75
482.13	19702.63
482.31	19700.29
482.49	20217.55
482.67	19997.54
482.85	20210.53
483.03	20365.00
483.21	20482.03
483.39	21020.35
483.57	20673.95
483.74	20908.01
483.92	21685.06
484.10	21324.62
484.28	21565.70
484.46	22286.58
484.64	21986.99
484.82	22085.30
485.00	22405.95
485.18	22567.45
485.35	22883.42
485.53	22806.18
485.71	22810.86
485.89	23384.29
486.07	23199.39
486.25	23314.08
486.43	23651.11
486.61	23707.29
486.78	23943.68
486.96	24325.19
487.14	24287.74
487.32	24716.06
487.50	24786.27
487.68	24858.83
487.85	25254.38
488.03	25439.28
488.21	25624.18
488.39	26054.84
488.57	26249.11
488.75	25940.16
488.92	26230.38
489.10	26859.99
489.28	26672.74
489.46	26895.10
489.64	27225.11
489.81	27466.19
489.99	27843.01
490.17	27744.71
490.35	28151.96
490.53	27978.76
490.70	28194.09
490.88	27871.10
491.06	28554.54
491.24	28367.29
491.41	28826.04
491.59	29123.29
491.77	28945.41
491.95	29493.09
492.13	29359.68
492.30	29731.83
492.48	29823.11
492.66	30108.65
492.84	30183.55
493.01	30548.67
493.19	30450.37
493.37	30838.90
493.54	30878.69
493.72	31379.56
493.90	31578.51
494.08	31576.17
494.25	31831.29
494.43	31960.02
494.61	32091.09
494.79	32484.30
494.96	32191.73
495.14	32889.21
495.32	32800.27
495.49	33057.73
495.67	32966.45
495.85	33399.44
496.02	33603.07
496.20	33780.95
496.38	34122.67
496.55	33785.63
496.73	34763.98
496.91	34539.29
497.09	34679.72
497.26	34806.11
497.44	34815.47
497.62	35002.71
497.79	35644.02
497.97	35239.11
498.14	35487.20
498.32	36058.29
498.50	36208.09
498.67	36215.11
498.85	36421.08
499.03	36339.16
499.20	36732.37
499.38	36680.88
499.56	37071.75
499.73	36823.65
499.91	37151.32
500.08	37301.12
500.26	37308.14
500.44	37523.47
500.61	37886.25
500.79	37462.61
500.97	37991.58
501.14	38333.29
501.32	38225.63
501.49	38232.65
501.67	38724.16
501.84	38464.36
502.02	38625.86
502.20	39056.52
502.37	39026.09
502.55	39199.29
502.72	39232.06
502.90	39651.02
503.07	39611.23
503.25	39936.56
503.43	39927.20
503.60	39988.05
503.78	40095.72
503.95	40072.31
504.13	40746.39
504.30	40718.30
504.48	40687.87
504.65	40236.15
504.83	40804.90
505.01	41228.54
505.18	40985.12
505.36	41240.24
505.53	40978.10
505.71	41364.29
505.88	41626.43
506.06	41116.19
506.23	41886.23
506.41	41546.85
506.58	41876.86
506.76	41806.65
506.93	42532.22
507.11	42078.15
507.28	42220.92
507.46	42660.94
507.63	42581.37
507.81	42859.89
507.98	42684.35
508.16	42672.65
508.33	43241.40
508.50	43821.85
508.68	43419.28
508.85	43768.02
509.03	43522.26
509.20	43756.32
509.38	44381.24
509.55	44783.81
509.73	44182.29
509.90	44327.41
510.08	44486.56
510.25	44767.43
510.42	44746.36
510.60	44975.73
510.77	44938.29
510.95	45013.18
511.12	45139.57
511.30	45460.23
511.47	45368.94
511.64	45228.51
511.82	45404.05
511.99	45549.17
512.17	45666.19
512.34	45851.09
512.51	46321.54
512.69	45593.64
512.86	46272.39
513.04	46333.24
513.21	46188.13
513.38	46710.07
513.56	46756.88
513.73	46768.58
513.90	46817.74
514.08	46801.35
514.25	47370.10
514.43	46939.44
514.60	46997.96
514.77	47061.15
514.95	47601.82
515.12	47447.34
515.29	47276.48
515.47	47381.80
515.64	47927.15
515.81	47758.63
515.99	48100.35
516.16	48121.41
516.33	48208.01
516.51	48306.32
516.68	48292.27
516.85	47903.74
517.03	48753.36
517.20	48938.26
517.37	48807.19
517.54	48594.20
517.72	48912.52
517.89	48790.81
518.06	48879.75
518.24	49308.07
518.41	48975.71
518.58	49158.27
518.75	48783.79
518.93	49397.01
519.10	49186.36
519.27	49621.70
519.45	49628.72
519.62	49659.15
519.79	49780.85
519.96	50019.59
520.14	50106.19
520.31	50244.28
520.48	50298.11
520.65	50373.01
520.83	50740.47
521.00	50494.72
521.17	50443.23
521.34	50583.66
521.52	50597.70
521.69	50522.80
521.86	50773.24
522.03	50871.54
522.20	51068.15
522.38	51311.56
522.55	51215.60
522.72	51318.59
522.89	51154.75
523.07	51789.03
523.24	51388.80
523.41	51676.69
523.58	51351.35
523.75	51576.04
523.92	51859.25
524.10	51810.10
524.27	51767.97
524.44	52032.45
524.61	51735.20
524.78	51983.30
524.96	51831.16
525.13	52027.77
525.30	52397.57
525.47	52149.48
525.64	52446.72
525.81	52570.77
525.98	52692.48
526.16	52545.03
526.33	52678.44
526.50	52912.49
526.67	52500.56
526.84	52942.92
527.01	52839.93
527.18	52650.35
527.36	52861.00
527.53	52882.06
527.70	53186.33
527.87	53530.39
528.04	53029.52
528.21	52956.96
528.38	53614.65
528.55	53364.21
528.72	53455.50
528.89	53457.84
529.07	53258.89
529.24	53528.05
529.41	53450.81
529.58	53661.46
529.75	53366.55
529.92	53860.41
530.09	53668.48
530.26	53743.38
530.43	53925.94
530.60	53579.54
530.77	53984.46
530.94	54274.68
531.11	54099.14
531.28	53991.48
531.46	54152.97
531.63	54101.48
531.80	54398.73
531.97	54253.62
532.14	54333.20
532.31	54330.86
532.48	54335.54
532.65	54365.96
532.82	54323.83
532.99	54459.58
533.16	54487.67
533.33	54644.49
533.50	54754.49
533.67	54703.00
533.84	54557.89
534.01	54681.94
534.18	54845.77
534.35	55283.45
534.52	55030.68
534.69	55281.11
534.86	55337.29
535.03	54869.18
535.20	54923.01
535.37	55082.17
535.54	55224.94
535.71	55070.46
535.88	55377.08
536.05	55353.67
536.22	55489.42
536.38	55629.85
536.55	55337.29
536.72	55510.49
536.89	55508.14
537.06	55496.44
537.23	55629.85
537.40	55662.62
537.57	55470.70
537.74	55861.57
537.91	55634.53
538.08	56020.72
538.25	55468.36
538.42	55798.37
538.59	55880.29
538.75	55861.57
538.92	56020.72
539.09	56210.31
539.26	56097.96
539.43	55920.08
539.60	56090.94
539.77	56069.87
539.94	56306.27
540.11	56252.44
540.28	56364.78
540.44	56502.87
540.61	56332.01
540.78	56357.76
540.95	56458.40
541.12	56308.61
541.29	56193.92
541.46	56662.03
541.62	56502.87
541.79	56540.32
541.96	56437.34
542.13	56554.36
542.30	56619.90
542.47	56781.40
542.63	56552.02
542.80	56961.62
542.97	57113.75
543.14	57073.96
543.31	57235.46
543.48	57151.20
543.64	57366.53
543.81	57336.10
543.98	57092.69
544.15	57205.03
544.32	57371.21
544.48	57284.61
544.65	57333.76
544.82	57434.41
544.99	57279.93
545.16	57434.41
545.32	57111.41
545.49	57565.48
545.66	57673.14
545.83	57581.86
546.00	57506.96
546.16	57513.98
546.33	57579.52
546.50	57123.11
546.67	57492.92
546.83	57413.34
547.00	57448.45
547.17	57338.44
547.34	57801.87
547.50	57939.96
547.67	57879.11
547.84	57956.35
548.00	57841.66
548.17	58000.82
548.34	57972.73
548.51	58272.32
548.67	58131.89
548.84	57780.81
549.01	57881.45
549.18	58047.63
549.34	58010.18
549.51	58094.44
549.68	58333.17
549.84	58225.51
550.01	58300.40
550.18	58328.49
550.34	58206.78
550.51	58145.93
550.68	58361.26
550.84	58337.85
551.01	58543.82
551.18	58459.56
551.34	58478.28
551.51	58466.58
551.68	58534.46
551.84	58344.87
552.01	58401.05
552.18	58578.93
552.34	58403.39
552.51	58602.33
552.68	58330.83
552.84	58555.52
553.01	58841.07
553.18	58557.86
553.34	58714.68
553.51	58831.71
553.67	58693.61
553.84	58885.54
554.01	58789.58
554.17	58876.18
554.34	59021.29
554.51	58976.82
554.67	58702.98
554.84	58880.86
555.00	58953.41
555.17	58794.26
555.33	58969.80
555.50	58965.12
555.67	58796.60
555.83	58892.56
556.00	59025.97
556.16	59199.17
556.33	59276.41
556.50	59262.36
556.66	59250.66
556.83	59025.97
556.99	59480.03
557.16	59351.30
557.32	59353.65
557.49	59381.73
557.65	59255.34
557.82	59208.53
557.98	59185.13
558.15	59231.94
558.32	59363.01
558.48	59199.17
558.65	59276.41
558.81	59302.15
558.98	59655.57
559.14	59732.81
559.31	59557.27
559.47	59416.84
559.64	59693.02
559.80	59440.24
559.97	59751.54
560.13	59442.59
560.30	59632.17
560.46	59634.51
560.63	59707.07
560.79	59627.49
560.96	59660.26
561.12	59730.47
561.29	59725.79
561.45	59641.53
561.61	59688.34
561.78	59756.22
561.94	59606.42
562.11	59847.50
562.27	59786.64
562.44	59693.02
562.60	59929.42
562.77	59915.37
562.93	59662.60
563.10	59952.82
563.26	59690.68
563.42	60046.44
563.59	59884.95
563.75	59898.99
563.92	60060.49
564.08	59910.69
564.24	60032.40
564.41	60051.12
564.57	59997.29
564.74	59868.56
564.90	60009.00
565.07	59856.86
565.23	60051.12
565.39	60004.31
565.56	60203.26
565.72	60149.43
565.88	59959.84
566.05	60168.15
566.21	60053.47
566.38	60264.11
566.54	60116.66
566.70	60280.50
566.87	60126.02
567.03	60037.08
567.19	60221.98
567.36	60261.77
567.52	60221.98
567.68	60453.70
567.85	60303.90
568.01	60353.05
568.17	59929.42
568.34	60266.45
568.50	60205.60
568.66	60121.34
568.83	60350.71
568.99	60182.19
569.15	60320.29
569.32	60360.08
569.48	60331.99
569.64	60378.80
569.81	60193.90
569.97	60308.58
570.13	60313.26
570.30	60041.76
570.46	60488.80
570.62	60477.10
570.78	60432.63
570.95	60505.19
571.11	60170.49
571.27	60430.29
571.43	60392.84
571.60	60697.11
571.76	60388.16
571.92	60456.04
572.09	60509.87
572.25	60404.55
572.41	60460.72
572.57	60617.53
572.74	60706.47
572.90	60383.48
573.06	60472.42
573.22	60481.78
573.38	60624.56
573.55	60427.95
573.71	60638.60
573.87	60481.78
574.03	60547.32
574.20	60559.02
574.36	60596.47
574.52	60577.75
574.68	60640.94
574.84	60821.16
575.01	60807.12
575.17	60612.85
575.33	60683.07
575.49	60470.08
575.65	60629.24
575.82	60647.96
575.98	60748.60
576.14	60851.59
576.30	60858.61
576.46	60739.24
576.62	60701.79
576.79	60795.42
576.95	60662.00
577.11	60676.05
577.27	60874.99
577.43	60870.31
577.59	60694.77
577.75	60711.16
577.92	60622.22
578.08	60540.30
578.24	60568.38
578.40	60882.02
578.56	60741.58
578.72	60954.57
578.88	60725.20
579.04	60828.18
579.21	60811.80
579.37	60926.49
579.53	60886.70
579.69	60594.13
579.85	60594.13
580.01	60472.42
580.17	60697.11
580.33	60828.18
580.49	60746.26
580.65	60900.74
580.82	60767.33
580.98	60690.09
581.14	60650.30
581.30	60982.66
581.46	60769.67
581.62	60942.87
581.78	60830.52
581.94	60931.17
582.10	60940.53
582.26	60746.26
582.42	60874.99
582.58	60860.95
582.74	60776.69
582.90	60879.67
583.06	60910.10
583.22	60839.89
583.38	60879.67
583.54	60959.25
583.70	60781.37
583.86	60699.45
584.02	60640.94
584.18	61020.11
584.34	61097.34
584.50	60837.54
584.66	60926.49
584.82	60605.83
584.98	61151.18
585.14	61008.40
585.30	60898.40
585.46	61001.38
585.62	60804.78
585.78	60938.19
585.94	60582.43
586.10	61041.17
586.26	60750.94
586.42	61050.53
586.58	61010.74
586.74	60910.10
586.90	60846.91
587.06	60975.64
587.22	61111.39
587.38	60917.12
587.54	61169.90
587.70	61183.94
587.86	61165.22
588.02	61097.34
588.18	61080.96
588.34	60985.00
588.49	60893.72
