SpectraSuite Data File
++++++++++++++++++++++++++++++++++++
Date: Fri Oct 25 10:44:25 EDT 2013
User: price-jones
Dark Spectrum Present: No
Reference Spectrum Present: No
Number of Sampled Component Spectra: 1
Spectrometers: USB2+H05261
Integration Time (usec): 100000 (USB2+H05261)
Spectra Averaged: 1 (USB2+H05261)
Boxcar Smoothing: 0 (USB2+H05261)
Correct for Electrical Dark: No (USB2+H05261)
Strobe/Lamp Enabled: No (USB2+H05261)
Correct for Detector Non-linearity: No (USB2+H05261)
Correct for Stray Light: No (USB2+H05261)
Number of Pixels in Processed Spectrum: 2048
>>>>>Begin Processed Spectral Data<<<<<
365.73	98.30
365.92	98.30
366.12	98.30
366.32	77.24
366.52	9.36
366.72	23.41
366.91	58.51
367.11	32.77
367.31	0.00
367.51	110.01
367.70	77.24
367.90	30.43
368.10	0.00
368.30	0.00
368.49	21.06
368.69	0.00
368.89	0.00
369.09	0.00
369.28	77.24
369.48	140.43
369.68	72.56
369.87	49.15
370.07	72.56
370.27	124.05
370.47	177.88
370.66	421.30
370.86	430.66
371.06	482.15
371.25	528.96
371.45	440.02
371.65	491.51
371.84	461.09
372.04	468.11
372.24	470.45
372.44	479.81
372.63	507.90
372.83	503.22
373.03	461.09
373.22	528.96
373.42	561.73
373.62	535.98
373.81	519.60
374.01	615.56
374.21	517.26
374.40	622.58
374.60	552.37
374.79	608.54
374.99	589.82
375.19	571.09
375.38	550.03
375.58	603.86
375.78	657.69
375.97	631.94
376.17	622.58
376.37	610.88
376.56	571.09
376.76	575.77
376.95	629.60
377.15	627.26
377.35	578.11
377.54	685.78
377.74	585.13
377.93	645.99
378.13	592.16
378.33	648.33
378.52	645.99
378.72	688.12
378.91	643.65
379.11	692.80
379.31	550.03
379.50	755.99
379.70	730.25
379.89	734.93
380.09	716.20
380.28	713.86
380.48	716.20
380.68	678.76
380.87	683.44
381.07	741.95
381.26	807.48
381.46	788.76
381.65	737.27
381.85	732.59
382.04	653.01
382.24	791.10
382.43	650.67
382.63	716.20
382.83	711.52
383.02	786.42
383.22	765.36
383.41	807.48
383.61	763.01
383.80	774.72
384.00	821.53
384.19	851.96
384.39	791.10
384.58	753.65
384.78	802.80
384.97	807.48
385.17	798.12
385.36	842.59
385.56	791.10
385.75	758.33
385.95	987.71
386.14	856.64
386.34	856.64
386.53	931.53
386.72	828.55
386.92	936.21
387.11	891.74
387.31	805.14
387.50	877.70
387.70	922.17
387.89	866.00
388.09	870.68
388.28	844.93
388.48	922.17
388.67	1008.77
388.86	1011.11
389.06	1029.84
389.25	999.41
389.45	1001.75
389.64	891.74
389.84	971.32
390.03	978.34
390.22	1062.60
390.42	990.05
390.61	1020.47
390.81	983.02
391.00	1107.07
391.19	1153.88
391.39	1111.75
391.58	1114.10
391.78	1097.71
391.97	1078.99
392.16	1011.11
392.36	1102.39
392.55	1125.80
392.75	1027.50
392.94	1027.50
393.13	1071.97
393.33	1067.28
393.52	1062.60
393.71	1132.82
393.91	1064.94
394.10	1130.48
394.29	1074.31
394.49	1261.55
394.68	1242.82
394.88	1308.36
395.07	1303.68
395.26	1301.34
395.46	1226.44
395.65	1362.19
395.84	1207.72
396.04	1299.00
396.23	1289.64
396.42	1221.76
396.62	1231.12
396.81	1273.25
397.00	1270.91
397.19	1315.38
397.39	1331.76
397.58	1448.79
397.77	1451.13
397.97	1521.35
398.16	1549.43
398.35	1619.65
398.55	1547.09
398.74	1638.38
398.93	1575.18
399.12	1612.63
399.32	1572.84
399.51	1645.40
399.70	1659.44
399.90	1621.99
400.09	1621.99
400.28	1680.50
400.47	1689.87
400.67	1739.02
400.86	1748.38
401.05	1626.67
401.24	1818.60
401.44	1736.68
401.63	1746.04
401.82	1706.25
402.01	1776.47
402.21	1792.85
402.40	1764.76
402.59	1891.15
402.78	1846.68
402.97	1851.36
403.17	1928.60
403.36	1933.28
403.55	2012.86
403.74	1926.26
403.93	1907.54
404.13	1963.71
404.32	2022.22
404.51	1994.14
404.70	1977.75
404.89	2003.50
405.09	2047.97
405.28	2047.97
405.47	1952.01
405.66	2134.57
405.85	2069.03
406.05	2043.29
406.24	2047.97
406.43	2106.48
406.62	2242.23
406.81	2160.31
407.00	2167.34
407.20	2057.33
407.39	2101.80
407.58	2328.83
407.77	2253.94
407.96	2354.58
408.15	2298.41
408.34	2363.94
408.54	2272.66
408.73	2429.48
408.92	2300.75
409.11	2495.01
409.30	2401.39
409.49	2342.88
409.68	2464.58
409.87	2328.83
410.07	2373.30
410.26	2427.14
410.45	2513.74
410.64	2476.29
410.83	2569.91
411.02	2574.59
411.21	2661.19
411.40	2684.59
411.59	2785.24
411.78	2649.49
411.98	2754.81
412.17	2836.73
412.36	2644.81
412.55	2848.43
412.74	2787.58
412.93	2876.52
413.12	2771.19
413.31	3007.59
413.50	2993.55
413.69	2944.39
413.88	3038.02
414.07	3021.63
414.26	2953.76
414.45	3087.17
414.64	2946.73
414.83	3145.68
415.02	3110.57
415.22	3105.89
415.41	3215.90
415.60	3328.24
415.79	3351.65
415.98	3311.86
416.17	3194.83
416.36	3372.71
416.55	3272.07
416.74	3389.10
416.93	3281.43
417.12	3447.61
417.31	3346.97
417.50	3548.25
417.69	3440.59
417.88	3611.45
418.07	3508.46
418.26	3611.45
418.45	3639.53
418.64	3798.69
418.83	3705.07
419.02	3620.81
419.21	3726.13
419.39	3705.07
419.58	3618.47
419.77	3728.47
419.96	3728.47
420.15	3744.86
420.34	3889.97
420.53	3796.35
420.72	3911.04
420.91	3922.74
421.10	4051.47
421.29	3985.93
421.48	4039.76
421.67	4060.83
421.86	3957.85
422.05	3929.76
422.24	3737.84
422.43	3950.82
422.61	4014.02
422.80	4140.41
422.99	4105.30
423.18	4016.36
423.37	4063.17
423.56	4091.26
423.75	4011.68
423.94	3962.53
424.13	3777.62
424.32	3920.40
424.50	4021.04
424.69	4121.68
424.88	4102.96
425.07	3934.44
425.26	3976.57
425.45	3985.93
425.64	4081.89
425.83	4060.83
426.01	4124.02
426.20	4170.83
426.39	4236.37
426.58	4039.76
426.77	4140.41
426.96	4203.60
427.15	4021.04
427.33	4205.94
427.52	4212.96
427.71	4238.71
427.90	4257.43
428.09	4236.37
428.28	4318.29
428.46	4229.35
428.65	4346.37
428.84	4304.25
429.03	4400.21
429.22	4210.62
429.40	4360.42
429.59	4369.78
429.78	4074.87
429.97	4042.11
430.16	4149.77
430.34	4147.43
430.53	4231.69
430.72	4311.27
430.91	4297.22
431.10	4414.25
431.28	4568.73
431.47	4840.23
431.66	4774.69
431.85	4643.62
432.03	4772.35
432.22	4697.46
432.41	4739.58
432.60	4842.57
432.79	4873.00
432.97	4887.04
433.16	4847.25
433.35	4837.89
433.54	4809.80
433.72	4851.93
433.91	4833.21
434.10	5036.83
434.28	4910.44
434.47	5006.41
434.66	5015.77
434.85	4961.94
435.03	5191.31
435.22	5053.22
435.41	5118.75
435.59	5160.88
435.78	5259.18
435.97	5359.83
436.16	5350.46
436.34	5296.63
436.53	5352.81
436.72	5322.38
436.90	5350.46
437.09	5378.55
437.28	5111.73
437.46	5320.04
437.65	5448.77
437.84	5310.68
438.02	5413.66
438.21	5313.02
438.40	5387.91
438.58	5603.24
438.77	5509.62
438.96	5458.13
439.14	5692.18
439.33	5678.14
439.52	5762.40
439.70	5954.32
439.89	5987.09
440.08	5788.14
440.26	5905.17
440.45	5825.59
440.63	5973.05
440.82	6204.76
441.01	6141.57
441.19	6066.67
441.38	6331.15
441.57	6153.27
441.75	6499.67
441.94	6588.61
442.12	6300.72
442.31	6670.53
442.50	6572.22
442.68	6551.16
442.87	6455.20
443.05	6689.25
443.24	6658.82
443.43	6621.38
443.61	6523.07
443.80	6813.30
443.98	6668.19
444.17	6389.66
444.35	6764.15
444.54	6860.11
444.73	6679.89
444.91	6609.67
445.10	6668.19
445.28	6499.67
445.47	6392.00
445.65	6569.88
445.84	6750.10
446.02	6757.13
446.21	7002.88
446.39	6604.99
446.58	7091.82
446.77	7016.93
446.95	6707.98
447.14	7035.65
447.32	7108.21
447.51	6913.94
447.69	6789.89
447.88	6668.19
448.06	6937.35
448.25	6977.14
448.43	6998.20
448.62	7066.08
448.80	6885.86
448.99	7152.68
449.17	7068.42
449.36	7045.01
449.54	7225.23
449.73	7112.89
449.91	7363.33
450.10	7487.37
450.28	7393.75
450.46	7358.64
450.65	7365.67
450.83	7576.31
451.02	7386.73
451.20	7513.12
451.39	7431.20
451.57	7295.45
451.76	7360.98
451.94	7590.36
452.13	7447.58
452.31	7386.73
452.49	7140.97
452.68	7286.09
452.86	7302.47
453.05	7440.56
453.23	7536.52
453.42	7407.80
453.60	7569.29
453.78	7545.89
453.97	7475.67
454.15	7709.72
454.34	7784.62
454.52	7740.15
454.70	7667.60
454.89	7625.47
455.07	7784.62
455.26	7978.89
455.44	8042.08
455.62	7974.21
455.81	7992.93
455.99	8149.75
456.17	8107.62
456.36	8105.28
456.54	8170.81
456.73	8224.64
456.91	8449.33
457.09	8318.26
457.28	8353.37
457.46	8276.13
457.64	8369.76
457.83	8166.13
458.01	8053.78
458.19	8351.03
458.38	8444.65
458.56	8582.74
458.74	8507.85
458.93	8332.31
459.11	8512.53
459.29	8718.50
459.48	8648.28
459.66	8578.06
459.84	8564.02
460.03	8748.92
460.21	8807.44
460.39	8861.27
460.57	8690.41
460.76	8982.98
460.94	8973.61
461.12	8945.53
461.31	9018.08
461.49	8844.88
461.67	8833.18
461.85	9088.30
462.04	8975.95
462.22	9188.94
462.40	9210.01
462.59	9247.46
462.77	9280.22
462.95	9179.58
463.13	9018.08
463.32	8980.64
463.50	9273.20
463.68	9444.06
463.86	9359.80
464.05	9249.80
464.23	9322.35
464.41	9305.97
464.59	9256.82
464.78	9584.49
464.96	9423.00
465.14	9334.06
465.32	9427.68
465.50	9582.15
465.69	9605.56
465.87	9507.26
466.05	9575.13
466.23	9486.19
466.41	9533.00
466.60	9575.13
466.78	9502.58
466.96	9488.53
467.14	9497.89
467.32	9788.12
467.51	9614.92
467.69	9551.73
467.87	9729.61
468.05	9745.99
468.23	9483.85
468.41	9799.82
468.60	9874.72
468.78	9888.76
468.96	9921.53
469.14	9914.51
469.32	10221.12
469.50	10022.17
469.69	9963.66
469.87	10071.33
470.05	9860.68
470.23	9916.85
470.41	10132.18
470.59	10242.18
470.77	10090.05
470.95	10197.71
471.14	10274.95
471.32	10176.65
471.50	10614.33
471.68	10504.32
471.86	10677.52
472.04	10829.66
472.22	10932.64
472.40	10705.61
472.58	10747.74
472.77	10787.53
472.95	10736.04
473.13	11147.97
473.31	10899.87
473.49	10736.04
473.67	10881.15
473.85	10843.70
474.03	11267.34
474.21	11384.37
474.39	11311.81
474.57	11473.31
474.75	11623.10
474.93	11524.80
475.12	11515.44
475.30	11775.24
475.48	11583.31
475.66	11639.48
475.84	11613.74
476.02	11573.95
476.20	11880.56
476.38	11969.50
476.56	12262.07
476.74	12145.04
476.92	12327.60
477.10	12191.85
477.28	12362.71
477.46	12446.97
477.64	12540.59
477.82	12847.20
478.00	12875.29
478.18	12772.30
478.36	12879.97
478.54	12961.89
478.72	13032.10
478.90	13135.09
479.08	13195.94
479.26	13696.82
479.44	13619.58
479.62	13750.65
479.80	13731.92
479.98	14036.19
480.16	13989.38
480.34	13984.70
480.52	14047.90
480.70	14115.77
480.88	14321.74
481.06	14122.79
481.24	14403.66
481.41	14445.79
481.59	14871.76
481.77	14761.76
481.95	14867.08
482.13	15012.20
482.31	14843.68
482.49	15187.74
482.67	15433.49
482.85	15403.07
483.03	15672.23
483.21	15875.85
483.39	15569.24
483.57	15749.46
483.74	15955.43
483.92	16084.16
484.10	15967.13
484.28	16273.74
484.46	16704.40
484.64	16622.48
484.82	16613.12
485.00	16531.20
485.18	16910.37
485.35	16889.31
485.53	16470.35
485.71	16425.88
485.89	16985.27
486.07	16652.91
486.25	17109.32
486.43	17233.36
486.61	17664.02
486.78	17759.98
486.96	17872.33
487.14	18099.36
487.32	18263.20
487.50	18457.46
487.68	18583.85
487.85	19023.87
488.03	18904.51
488.21	19066.00
488.39	19054.30
488.57	19159.63
488.75	19190.05
488.92	19737.74
489.10	19822.00
489.28	19964.77
489.46	20262.02
489.64	19978.81
489.81	20589.69
489.99	20409.47
490.17	20699.70
490.35	20772.25
490.53	20678.63
490.70	21032.05
490.88	20655.23
491.06	21687.40
491.24	21509.52
491.41	21525.91
491.59	21406.54
491.77	21434.63
491.95	21333.98
492.13	21563.36
492.30	22375.52
492.48	22419.99
492.66	22541.70
492.84	22427.01
493.01	22623.62
493.19	22754.69
493.37	22684.47
493.54	22604.89
493.72	23199.39
493.90	23283.65
494.08	23702.61
494.25	23707.29
494.43	24032.62
494.61	23964.75
494.79	24034.96
494.96	23978.79
495.14	24159.01
495.32	24123.90
495.49	24383.70
495.67	24531.15
495.85	24568.60
496.02	24676.27
496.20	25006.28
496.38	24987.56
496.55	25120.97
496.73	25596.10
496.91	25703.76
497.09	25830.15
497.26	25806.75
497.44	25823.13
497.62	25640.57
497.79	26122.72
497.97	25729.51
498.14	26089.95
498.32	26347.41
498.50	26359.11
498.67	26382.52
498.85	26740.62
499.03	26824.88
499.20	27068.30
499.38	27103.40
499.56	26609.55
499.73	27161.92
499.91	27187.66
500.08	27557.47
500.26	26787.43
500.44	27391.29
500.61	27482.57
500.79	27283.62
500.97	27608.96
501.14	28112.17
501.32	27281.28
501.49	27962.38
501.67	27995.15
501.84	28222.18
502.02	27957.70
502.20	28217.50
502.37	28575.60
502.55	28437.51
502.72	28748.80
502.90	28577.94
503.07	28910.30
503.25	28912.64
503.43	28741.78
503.60	29081.16
503.78	29090.52
503.95	28519.43
504.13	28966.47
504.30	28957.11
504.48	29270.74
504.65	29682.67
504.83	29926.09
505.01	30178.87
505.18	29645.23
505.36	30298.23
505.53	29956.52
505.71	30242.06
505.88	30352.07
506.06	29942.47
506.23	30127.38
506.41	30080.56
506.58	30672.72
506.76	30553.35
506.93	30726.55
507.11	30555.69
507.28	30567.40
507.46	30731.23
507.63	30998.06
507.81	31087.00
507.98	30855.28
508.16	30984.01
508.33	31105.72
508.50	31627.66
508.68	31569.15
508.85	31714.26
509.03	31971.72
509.20	32004.49
509.38	31601.91
509.55	32224.50
509.73	32046.62
509.90	32367.27
510.08	32077.04
510.25	32449.19
510.42	32231.52
510.60	32617.71
510.77	32257.26
510.95	32451.53
511.12	32680.90
511.30	33113.90
511.47	33312.84
511.64	33350.29
511.82	33537.54
511.99	32863.46
512.17	32973.47
512.34	32882.19
512.51	33518.81
512.69	33593.71
512.86	33273.06
513.04	33951.81
513.21	33738.82
513.38	33617.11
513.56	33490.73
513.73	33050.70
513.90	33570.30
514.08	33689.67
514.25	33795.00
514.43	33968.19
514.60	33715.42
514.77	34192.89
514.95	34597.80
515.12	34155.44
515.29	34298.21
515.47	34738.23
515.64	34686.74
515.81	34398.85
515.99	34773.34
516.16	34518.22
516.33	34141.39
516.51	34286.51
516.68	34139.05
516.85	33834.78
517.03	34408.22
517.20	34623.54
517.37	34904.41
517.54	35002.71
517.72	35082.29
517.89	34967.60
518.06	34352.04
518.24	34593.12
518.41	34649.29
518.58	35049.52
518.75	35585.50
518.93	35253.15
519.10	35419.33
519.27	35936.59
519.45	35601.89
519.62	36041.91
519.79	35835.94
519.96	36060.63
520.14	36446.82
520.31	36114.47
520.48	36144.89
520.65	36292.35
520.83	36723.01
521.00	36671.51
521.17	36084.04
521.34	36816.63
521.52	36856.42
521.69	36872.80
521.86	37130.26
522.03	37303.46
522.20	37043.66
522.38	37146.64
522.55	37179.41
522.72	37280.05
522.89	37064.72
523.07	37560.92
523.24	37214.52
523.41	37727.10
523.58	37790.29
523.75	38167.12
523.92	37670.92
524.10	38380.10
524.27	38323.93
524.44	38284.14
524.61	38352.02
524.78	38239.67
524.96	38424.57
525.13	38478.41
525.30	38965.24
525.47	39030.77
525.64	38597.77
525.81	38501.81
525.98	38192.86
526.16	38026.68
526.33	37961.15
526.50	38579.05
526.67	38012.64
526.84	37956.47
527.01	38071.15
527.18	38630.54
527.36	38714.80
527.53	38902.04
527.70	39440.37
527.87	39466.11
528.04	39108.01
528.21	39180.57
528.38	39384.19
528.55	39791.45
528.72	40041.88
528.89	39765.70
529.07	39765.70
529.24	39381.85
529.41	39693.15
529.58	39723.57
529.75	39943.58
529.92	39667.40
530.09	40140.19
530.26	40268.92
530.43	39931.88
530.60	39999.76
530.77	39950.60
530.94	40194.02
531.11	40105.08
531.28	40196.36
531.46	40421.05
531.63	40168.27
531.80	40114.44
531.97	40460.84
532.14	40165.93
532.31	40088.70
532.48	40130.83
532.65	40533.40
532.82	40264.24
532.99	40823.62
533.16	40292.32
533.33	40744.05
533.50	40730.00
533.67	40795.54
533.84	40816.60
534.01	40802.56
534.18	40896.18
534.35	41617.07
534.52	40994.48
534.69	41188.75
534.86	41368.97
535.03	41198.11
535.20	41581.96
535.37	41581.96
535.54	42073.47
535.71	41291.73
535.88	41212.15
536.05	41514.08
536.22	41504.72
536.38	41457.91
536.55	41380.67
536.72	41191.09
536.89	41368.97
537.06	41443.87
537.23	41799.63
537.40	41488.34
537.57	41535.15
537.74	41890.91
537.91	42342.63
538.08	41984.53
538.25	41642.81
538.42	41787.92
538.59	42256.03
538.75	41930.70
538.92	41794.95
539.09	42387.10
539.26	42129.64
539.43	42124.96
539.60	42246.67
539.77	42038.36
539.94	42167.09
540.11	42363.70
540.28	42342.63
540.44	42298.16
540.61	42401.14
540.78	42117.94
540.95	41996.23
541.12	42405.83
541.29	42284.12
541.46	42794.36
541.62	42703.07
541.79	42955.85
541.96	42307.52
542.13	42391.78
542.30	42550.94
542.47	42859.89
542.63	43210.97
542.80	42672.65
542.97	43618.22
543.14	43395.87
543.31	43503.54
543.48	42967.55
543.64	44018.46
543.81	43739.93
543.98	43391.19
544.15	43480.13
544.32	43320.98
544.48	44027.82
544.65	43969.30
544.82	43772.70
544.99	43208.63
545.16	43929.51
545.32	43625.25
545.49	44406.98
545.66	44374.22
545.83	44210.38
546.00	44107.40
546.16	44034.84
546.33	43903.77
546.50	43735.25
546.67	44165.91
546.83	43943.56
547.00	44037.18
547.17	43899.09
547.34	44201.02
547.50	44509.97
547.67	44701.89
547.84	44041.86
548.00	44502.95
548.17	44287.62
548.34	44285.28
548.51	44685.51
548.67	44538.05
548.84	44502.95
549.01	44573.16
549.18	44385.92
549.34	44247.83
549.51	44964.03
549.68	44641.04
549.84	45052.97
550.01	44821.26
550.18	45219.15
550.34	45102.12
550.51	45071.70
550.68	44926.58
550.84	44406.98
551.01	45123.19
551.18	44545.08
551.34	45076.38
551.51	45095.10
551.68	45029.57
551.84	44952.33
552.01	44858.71
552.18	45392.35
552.34	44474.86
552.51	45160.64
552.68	44753.38
552.84	45165.32
553.01	45191.06
553.18	45460.23
553.34	45455.54
553.51	44982.76
553.67	45301.07
553.84	45361.92
554.01	45392.35
554.17	45422.78
554.34	45883.86
554.51	45556.19
554.67	45617.04
554.84	45914.29
555.00	45404.05
555.17	45256.60
555.33	45336.18
555.50	45301.07
555.67	45031.91
555.83	45361.92
556.00	45610.02
556.16	46134.30
556.33	45757.47
556.50	45492.99
556.66	45565.55
556.83	45799.60
556.99	46021.95
557.16	45598.32
557.32	45846.41
557.49	46256.01
557.65	45425.12
557.82	46089.83
557.98	46265.37
558.15	46033.66
558.32	45886.20
558.48	45876.84
558.65	45935.35
558.81	45191.06
558.98	45474.27
559.14	46101.53
559.31	45923.65
559.47	46071.10
559.64	46007.91
559.80	46054.72
559.97	46340.27
560.13	45921.31
560.30	45556.19
560.46	46361.33
560.63	46101.53
560.79	46349.63
560.96	46005.57
561.12	46447.93
561.29	46129.62
561.45	45827.69
561.61	46190.47
561.78	45879.18
561.94	45684.92
562.11	46422.19
562.27	46003.23
562.44	46005.57
562.60	46492.40
562.77	46602.41
562.93	46258.35
563.10	46213.88
563.26	46003.23
563.42	46639.86
563.59	46064.08
563.75	46368.35
563.92	46513.47
564.08	46464.32
564.24	46665.60
564.41	46340.27
564.57	46157.70
564.74	46312.18
564.90	46078.13
565.07	46265.37
565.23	46609.43
565.39	46197.49
565.56	46569.64
565.72	46408.14
565.88	46115.58
566.05	46274.73
566.21	46401.12
566.38	45925.99
566.54	46302.82
566.70	46581.34
566.87	46806.03
567.03	46401.12
567.19	46845.82
567.36	46852.84
567.52	46490.06
567.68	46555.60
567.85	46487.72
568.01	46646.88
568.17	46440.91
568.34	46639.86
568.50	46263.03
568.66	46536.87
568.83	46738.16
568.99	46546.23
569.15	46691.35
569.32	46593.04
569.48	46174.09
569.64	46735.82
569.81	46483.04
569.97	46897.31
570.13	46621.13
570.30	46263.03
570.46	46380.06
570.62	46494.74
570.78	46263.03
570.95	46820.08
571.11	46721.77
571.27	46759.22
571.43	46429.21
571.60	46667.94
571.76	46658.58
571.92	46646.88
572.09	46637.51
572.25	46754.54
572.41	46588.36
572.57	46756.88
572.74	46717.09
572.90	46789.65
573.06	46752.20
573.22	46597.73
573.38	46579.00
573.55	46990.94
573.71	47119.66
573.87	46799.01
574.03	46698.37
574.20	46859.87
574.36	46630.49
574.52	46677.30
574.68	46609.43
574.84	46747.52
575.01	46469.00
575.17	47000.30
575.33	46394.10
575.49	46398.78
575.65	46579.00
575.82	47019.02
575.98	46597.73
576.14	46862.21
576.30	46934.76
576.46	46485.38
576.62	46892.63
576.79	46880.93
576.95	46796.67
577.11	46543.89
577.27	46562.62
577.43	46829.44
577.59	46791.99
577.75	46742.84
577.92	46548.57
578.08	46749.86
578.24	46546.23
578.40	46443.25
578.56	46712.41
578.72	46880.93
578.88	47119.66
579.04	46747.52
579.21	46806.03
579.37	46794.33
579.53	46803.69
579.69	46410.48
579.85	46747.52
580.01	46883.27
580.17	46604.75
580.33	46693.69
580.49	47056.47
580.65	46850.50
580.82	47037.75
580.98	46993.28
581.14	47173.50
581.30	47449.68
581.46	46813.05
581.62	47068.17
581.78	46983.91
581.94	47086.90
582.10	46873.91
582.26	47152.43
582.42	46588.36
582.58	46827.10
582.74	46958.17
582.90	47103.28
583.06	47302.23
583.22	47051.79
583.38	47201.58
583.54	47140.73
583.70	47093.92
583.86	46632.83
584.02	46258.35
584.18	46747.52
584.34	46714.75
584.50	46887.95
584.66	46499.42
584.82	46773.27
584.98	47220.31
585.14	46937.10
585.30	46749.86
585.46	46478.36
585.62	46714.75
585.78	46279.41
585.94	46312.18
586.10	47098.60
586.26	46508.79
586.42	47091.58
586.58	46869.23
586.74	47283.50
586.90	46972.21
587.06	46794.33
587.22	46911.36
587.38	46483.04
587.54	47119.66
587.70	47040.09
587.86	47107.96
588.02	46714.75
588.18	46866.89
588.34	46550.91
588.49	46366.01
588.65	46188.13
588.81	46169.41
588.97	46525.17
589.13	46347.29
589.29	46396.44
589.45	46660.92
589.61	46864.55
589.77	46937.10
589.93	46756.88
