SpectraSuite Data File
++++++++++++++++++++++++++++++++++++
Date: Fri Oct 25 10:48:25 EDT 2013
User: price-jones
Dark Spectrum Present: No
Reference Spectrum Present: No
Number of Sampled Component Spectra: 1
Spectrometers: USB2+H05261
Integration Time (usec): 100000 (USB2+H05261)
Spectra Averaged: 1 (USB2+H05261)
Boxcar Smoothing: 0 (USB2+H05261)
Correct for Electrical Dark: No (USB2+H05261)
Strobe/Lamp Enabled: No (USB2+H05261)
Correct for Detector Non-linearity: No (USB2+H05261)
Correct for Stray Light: No (USB2+H05261)
Number of Pixels in Processed Spectrum: 2048
>>>>>Begin Processed Spectral Data<<<<<
365.73	117.03
365.92	117.03
366.12	117.03
366.32	49.15
366.52	37.45
366.72	145.11
366.91	0.00
367.11	9.36
367.31	65.54
367.51	86.60
367.70	63.19
367.90	100.64
368.10	9.36
368.30	21.06
368.49	56.17
368.69	0.00
368.89	23.41
369.09	67.88
369.28	65.54
369.48	105.32
369.68	98.30
369.87	110.01
370.07	191.92
370.27	159.16
370.47	189.58
370.66	360.44
370.86	449.38
371.06	479.81
371.25	568.75
371.45	472.79
371.65	358.10
371.84	407.25
372.04	451.72
372.24	519.60
372.44	554.71
372.63	496.19
372.83	437.68
373.03	535.98
373.22	437.68
373.42	559.39
373.62	606.20
373.81	585.13
374.01	587.47
374.21	564.07
374.40	622.58
374.60	624.92
374.79	507.90
374.99	599.18
375.19	564.07
375.38	678.76
375.58	596.84
375.78	603.86
375.97	627.26
376.17	599.18
376.37	533.64
376.56	622.58
376.76	571.09
376.95	711.52
377.15	645.99
377.35	627.26
377.54	657.69
377.74	634.29
377.93	643.65
378.13	690.46
378.33	709.18
378.52	653.01
378.72	699.82
378.91	617.90
379.11	664.71
379.31	662.37
379.50	610.88
379.70	655.35
379.89	706.84
380.09	692.80
380.28	662.37
380.48	716.20
380.68	660.03
380.87	730.25
381.07	631.94
381.26	739.61
381.46	734.93
381.65	774.72
381.85	716.20
382.04	676.41
382.24	713.86
382.43	770.04
382.63	744.29
382.83	702.16
383.02	688.12
383.22	767.70
383.41	770.04
383.61	751.31
383.80	760.67
384.00	753.65
384.19	716.20
384.39	788.76
384.58	854.30
384.78	784.08
384.97	910.47
385.17	730.25
385.36	819.19
385.56	784.08
385.75	732.59
385.95	807.48
386.14	884.72
386.34	840.25
386.53	849.61
386.72	812.17
386.92	901.11
387.11	854.30
387.31	866.00
387.50	858.98
387.70	868.34
387.89	894.08
388.09	866.00
388.28	854.30
388.48	826.21
388.67	964.30
388.86	999.41
389.06	940.90
389.25	957.28
389.45	912.81
389.64	936.21
389.84	959.62
390.03	1069.62
390.22	1062.60
390.42	1022.81
390.61	1027.50
390.81	1008.77
391.00	1015.79
391.19	1022.81
391.39	966.64
391.58	1027.50
391.78	1076.65
391.97	1060.26
392.16	1027.50
392.36	1069.62
392.55	940.90
392.75	1020.47
392.94	971.32
393.13	1034.52
393.33	1004.09
393.52	1078.99
393.71	1097.71
393.91	1062.60
394.10	1196.01
394.29	1069.62
394.49	1095.37
394.68	1203.04
394.88	1167.93
395.07	1170.27
395.26	1224.10
395.46	1217.08
395.65	1233.46
395.84	1196.01
396.04	1233.46
396.23	1132.82
396.42	1135.16
396.62	1224.10
396.81	1205.38
397.00	1191.33
397.19	1160.91
397.39	1280.27
397.58	1343.47
397.77	1409.00
397.97	1362.19
398.16	1380.92
398.35	1362.19
398.55	1348.15
398.74	1418.36
398.93	1418.36
399.12	1509.65
399.32	1416.02
399.51	1509.65
399.70	1554.12
399.90	1392.62
400.09	1481.56
400.28	1502.62
400.47	1446.45
400.67	1624.33
400.86	1493.26
401.05	1589.22
401.24	1575.18
401.44	1551.78
401.63	1671.14
401.82	1610.29
402.01	1577.52
402.21	1694.55
402.40	1685.19
402.59	1636.03
402.78	1652.42
402.97	1682.85
403.17	1675.82
403.36	1710.93
403.55	1739.02
403.74	1739.02
403.93	1802.21
404.13	1797.53
404.32	1790.51
404.51	1804.55
404.70	1909.88
404.89	1874.77
405.09	1856.04
405.28	1856.04
405.47	1870.09
405.66	1839.66
405.85	1973.07
406.05	1987.11
406.24	1893.49
406.43	1975.41
406.62	1879.45
406.81	2012.86
407.00	1909.88
407.20	1963.71
407.39	2003.50
407.58	2015.20
407.77	2045.63
407.96	2094.78
408.15	2113.50
408.34	2169.68
408.54	2207.13
408.73	2258.62
408.92	2204.78
409.11	2230.53
409.30	2181.38
409.49	2155.63
409.68	2132.23
409.87	2284.36
410.07	2249.25
410.26	2223.51
410.45	2331.17
410.64	2389.69
410.83	2431.82
411.02	2434.16
411.21	2480.97
411.40	2490.33
411.59	2466.92
411.78	2656.51
411.98	2469.27
412.17	2588.63
412.36	2628.42
412.55	2663.53
412.74	2574.59
412.93	2560.55
413.12	2612.04
413.31	2717.36
413.50	2675.23
413.69	2675.23
413.88	2883.54
414.07	2766.51
414.26	2789.92
414.45	2731.41
414.64	2878.86
414.83	2867.16
415.02	2930.35
415.22	2974.82
415.41	3068.44
415.60	3000.57
415.79	2984.18
415.98	3122.27
416.17	3056.74
416.36	3176.11
416.55	3005.25
416.74	3089.51
416.93	3112.91
417.12	3173.77
417.31	3173.77
417.50	3325.90
417.69	3346.97
417.88	3391.44
418.07	3304.84
418.26	3321.22
418.45	3581.02
418.64	3400.80
418.83	3466.33
419.02	3351.65
419.21	3433.57
419.39	3384.41
419.58	3473.36
419.77	3480.38
419.96	3599.74
420.15	3571.66
420.34	3503.78
420.53	3602.08
420.72	3557.61
420.91	3550.59
421.10	3637.19
421.29	3707.41
421.48	3501.44
421.67	3693.37
421.86	3627.83
422.05	3606.77
422.24	3513.14
422.43	3658.26
422.61	3672.30
422.80	3857.20
422.99	3712.09
423.18	3630.17
423.37	3751.88
423.56	3805.71
423.75	3723.79
423.94	3702.73
424.13	3449.95
424.32	3693.37
424.50	3819.75
424.69	3985.93
424.88	4011.68
425.07	3754.22
425.26	3740.18
425.45	3794.01
425.64	3798.69
425.83	3786.99
426.01	4035.08
426.20	3864.22
426.39	3779.97
426.58	3756.56
426.77	3871.25
426.96	3812.73
427.15	3878.27
427.33	4070.19
427.52	4007.00
427.71	3995.29
427.90	4044.45
428.09	4070.19
428.28	3978.91
428.46	4056.15
428.65	4056.15
428.84	4007.00
429.03	4133.39
429.22	4117.00
429.40	4079.55
429.59	4074.87
429.78	3843.16
429.97	3955.51
430.16	3911.04
430.34	4149.77
430.53	4074.87
430.72	4088.92
430.91	4124.02
431.10	4175.52
431.28	4362.76
431.47	4400.21
431.66	4449.36
431.85	4414.25
432.03	4269.14
432.22	4610.86
432.41	4491.49
432.60	4498.51
432.79	4573.41
432.97	4779.37
433.16	4643.62
433.35	4592.13
433.54	4564.04
433.72	4496.17
433.91	4582.77
434.10	4674.05
434.28	4667.03
434.47	4662.35
434.66	4786.40
434.85	4720.86
435.03	4837.89
435.22	4723.20
435.41	4905.76
435.59	4940.87
435.78	4807.46
435.97	4999.38
436.16	4833.21
436.34	4968.96
436.53	4842.57
436.72	5085.98
436.90	4945.55
437.09	5048.54
437.28	4929.17
437.46	4973.64
437.65	4959.60
437.84	5111.73
438.02	4980.66
438.21	5032.15
438.40	4961.94
438.58	5149.18
438.77	5263.86
438.96	5383.23
439.14	5425.36
439.33	5313.02
439.52	5533.03
439.70	5298.97
439.89	5392.59
440.08	5547.07
440.26	5479.19
440.45	5434.72
440.63	5687.50
440.82	5760.06
441.01	5720.27
441.19	5874.74
441.38	5818.57
441.57	5722.61
441.75	5975.39
441.94	6078.37
442.12	6164.97
442.31	6225.82
442.50	6164.97
442.68	5966.03
442.87	6099.44
443.05	6141.57
443.24	6232.85
443.43	6333.49
443.61	6188.38
443.80	6450.52
443.98	6106.46
444.17	5933.26
444.35	6263.27
444.54	6396.68
444.73	6310.08
444.91	6340.51
445.10	6321.79
445.28	6249.23
445.47	6122.84
445.65	6066.67
445.84	6115.82
446.02	6373.28
446.21	6291.36
446.39	6335.83
446.58	6303.06
446.77	6469.24
446.95	6380.30
447.14	6399.02
447.32	6478.60
447.51	6588.61
447.69	6551.16
447.88	6392.00
448.06	6368.60
448.25	6394.34
448.43	6485.62
448.62	6462.22
448.80	6551.16
448.99	6530.09
449.17	6747.76
449.36	6604.99
449.54	6719.68
449.73	6773.51
449.91	6827.34
450.10	6883.52
450.28	6794.58
450.46	6864.79
450.65	6782.87
450.83	6834.36
451.02	6834.36
451.20	6902.24
451.39	6951.39
451.57	7061.40
451.76	6958.41
451.94	6946.71
452.13	6942.03
452.31	6967.77
452.49	6977.14
452.68	6927.99
452.86	6846.07
453.05	6913.94
453.23	7171.40
453.42	7096.50
453.60	7101.19
453.78	7199.49
453.97	7162.04
454.15	7129.27
454.34	7075.44
454.52	7164.38
454.70	7272.04
454.89	7148.00
455.07	7178.42
455.26	7272.04
455.44	7414.82
455.62	7365.67
455.81	7400.77
455.99	7573.97
456.17	7496.74
456.36	7573.97
456.54	7599.72
456.73	7747.17
456.91	7632.49
457.09	7737.81
457.28	7946.12
457.46	7702.70
457.64	7826.75
457.83	7808.03
458.01	7588.02
458.19	7880.58
458.38	7583.34
458.56	8084.21
458.74	7934.42
458.93	7922.71
459.11	8124.00
459.29	8109.96
459.48	8100.59
459.66	8013.99
459.84	7964.84
460.03	8315.92
460.21	8365.07
460.39	8074.85
460.57	8124.00
460.76	8236.35
460.94	8695.09
461.12	8358.05
461.31	8332.31
461.49	8355.71
461.67	8079.53
461.85	8540.61
462.04	8549.98
462.22	9032.13
462.40	8559.34
462.59	8615.51
462.77	8542.96
462.95	8610.83
463.13	8617.85
463.32	8748.92
463.50	8713.81
463.68	8933.82
463.86	8645.94
464.05	8425.93
464.23	8678.71
464.41	8755.94
464.59	8737.22
464.78	8957.23
464.96	8720.84
465.14	8905.74
465.32	8887.01
465.50	8777.01
465.69	8997.02
465.87	8889.35
466.05	8905.74
466.23	8992.34
466.41	8985.32
466.60	9064.89
466.78	9004.04
466.96	9100.00
467.14	8978.30
467.32	9235.75
467.51	9142.13
467.69	8887.01
467.87	9212.35
468.05	9121.07
468.23	9256.82
468.41	9088.30
468.60	9296.61
468.78	9345.76
468.96	9181.92
469.14	9451.08
469.32	9497.89
469.50	9345.76
469.69	9476.83
469.87	9596.20
470.05	9472.15
470.23	9439.38
470.41	9472.15
470.59	9650.03
470.77	9392.57
470.95	9750.67
471.14	9872.38
471.32	9490.87
471.50	9958.98
471.68	10024.51
471.86	10031.54
472.04	9907.49
472.22	10017.49
472.40	9863.02
472.58	9942.60
472.77	10148.56
472.95	10291.34
473.13	10406.02
473.31	10267.93
473.49	10167.29
473.67	10214.10
473.85	10478.58
474.03	10497.30
474.21	10714.97
474.39	10752.42
474.57	10698.59
474.75	10600.29
474.93	10794.55
475.12	10707.95
475.30	10862.43
475.48	10867.11
475.66	11042.65
475.84	11052.01
476.02	11052.01
476.20	11166.70
476.38	11482.67
476.56	11456.92
476.74	11613.74
476.92	11412.45
477.10	11545.86
477.28	11852.47
477.46	11543.52
477.64	11815.02
477.82	12271.43
478.00	12231.64
478.18	12067.80
478.36	12116.95
478.54	12269.09
478.72	12453.99
478.90	12428.24
479.08	12599.10
479.26	12865.92
479.44	12807.41
479.62	12842.52
479.80	13018.06
479.98	12865.92
480.16	13303.60
480.34	13135.09
480.52	13462.76
480.70	13074.23
480.88	13111.68
481.06	13422.97
481.24	13399.57
481.41	13741.29
481.59	13947.25
481.77	13963.64
481.95	14005.77
482.13	14127.47
482.31	14293.65
482.49	14511.32
482.67	14384.93
482.85	14501.96
483.03	14642.39
483.21	14822.61
483.39	14906.87
483.57	15014.54
483.74	15063.69
483.92	15075.39
484.10	14988.79
484.28	15531.80
484.46	15550.52
484.64	15992.88
484.82	15564.56
485.00	15676.91
485.18	15922.66
485.35	16056.08
485.53	15704.99
485.71	15770.53
485.89	16196.51
486.07	16252.68
486.25	16224.59
486.43	16496.10
486.61	16484.39
486.78	16702.06
486.96	17092.93
487.14	17050.80
487.32	17172.51
487.50	17584.44
487.68	17642.96
487.85	17818.50
488.03	17968.29
488.21	18078.30
488.39	18389.59
488.57	18324.05
488.75	18305.33
488.92	18473.85
489.10	18836.63
489.28	18822.59
489.46	19197.07
489.64	19290.70
489.81	19557.52
489.99	19655.82
490.17	19681.56
490.35	20140.31
490.53	19536.45
490.70	19985.83
490.88	20011.58
491.06	20549.90
491.24	20163.72
491.41	20278.40
491.59	20025.62
491.77	20449.26
491.95	20479.69
492.13	20854.17
492.30	20905.66
492.48	21034.39
492.66	21130.36
492.84	21167.80
493.01	21448.67
493.19	21598.46
493.37	21343.35
493.54	21549.31
493.72	21884.01
493.90	22185.94
494.08	22349.78
494.25	22789.80
494.43	22574.47
494.61	22621.28
494.79	22773.41
494.96	22597.87
495.14	22836.61
495.32	23246.20
495.49	23070.66
495.67	23274.29
495.85	22988.74
496.02	23632.39
496.20	23730.69
496.38	23976.45
496.55	24004.53
496.73	24470.30
496.91	23548.13
497.09	24348.59
497.26	24273.70
497.44	24428.17
497.62	24594.35
497.79	24779.25
497.97	24526.47
498.14	24526.47
498.32	25043.73
498.50	25193.53
498.67	25340.98
498.85	25254.38
499.03	25523.54
499.20	25228.63
499.38	25652.27
499.56	25734.19
499.73	26010.37
499.91	25989.31
500.08	25853.56
500.26	25706.10
500.44	26010.37
500.61	26555.72
500.79	26242.09
500.97	26324.01
501.14	26665.72
501.32	26632.96
501.49	26403.58
501.67	26843.60
501.84	26742.96
502.02	26845.94
502.20	27080.00
502.37	26864.67
502.55	27353.84
502.72	27297.67
502.90	27255.54
503.07	27402.99
503.25	27714.28
503.43	27501.29
503.60	27688.54
503.78	27517.68
503.95	27531.72
504.13	27597.26
504.30	27946.00
504.48	28191.75
504.65	28203.46
504.83	28224.52
505.01	28662.20
505.18	28369.63
505.36	28797.95
505.53	28652.84
505.71	28868.17
505.88	29219.25
506.06	28652.84
506.23	28732.42
506.41	28762.84
506.58	29244.99
506.76	28912.64
506.93	29242.65
507.11	29495.43
507.28	29420.53
507.46	29422.87
507.63	29773.95
507.81	29429.90
507.98	29008.60
508.16	29818.42
508.33	29898.00
508.50	30054.82
508.68	30071.20
508.85	30492.50
509.03	30099.29
509.20	30218.66
509.38	30824.86
509.55	30654.00
509.73	30405.90
509.90	30724.21
510.08	30682.08
510.25	30906.77
510.42	30899.75
510.60	30927.84
510.77	31058.91
510.95	31409.99
511.12	31075.29
511.30	31166.57
511.47	31590.21
511.64	31768.09
511.82	31999.80
511.99	31527.02
512.17	31653.40
512.34	31882.78
512.51	32039.59
512.69	32081.72
512.86	31978.74
513.04	32254.92
513.21	32369.61
513.38	31941.29
513.56	32123.85
513.73	32470.25
513.90	32327.48
514.08	32622.39
514.25	32685.58
514.43	32481.95
514.60	32252.58
514.77	32809.63
514.95	32863.46
515.12	32914.95
515.29	32950.06
515.47	33418.17
515.64	33443.91
515.81	33141.99
515.99	33195.82
516.16	33165.39
516.33	33207.52
516.51	33352.63
516.68	32802.61
516.85	32905.59
517.03	33191.14
517.20	33301.14
517.37	33563.28
517.54	33684.99
517.72	33343.27
517.89	34045.43
518.06	33748.18
518.24	33830.10
518.41	33469.66
518.58	34089.90
518.75	33949.47
518.93	34855.26
519.10	34309.91
519.27	34670.36
519.45	34621.20
519.62	34539.29
519.79	34869.30
519.96	34932.50
520.14	35393.58
520.31	34700.78
520.48	34974.63
520.65	34904.41
520.83	34953.56
521.00	35365.49
521.17	35370.18
521.34	35204.00
521.52	35318.68
521.69	35667.42
521.86	36245.54
522.03	35599.55
522.20	35807.86
522.38	35992.76
522.55	35730.62
522.72	35758.70
522.89	35786.79
523.07	35634.66
523.24	35934.24
523.41	36079.36
523.58	35938.93
523.75	36865.78
523.92	36746.41
524.10	36409.37
524.27	36664.49
524.44	36854.08
524.61	36896.20
524.78	37085.79
524.96	36526.40
525.13	36907.91
525.30	37305.80
525.47	37301.12
525.64	37216.86
525.81	37134.94
525.98	36900.89
526.16	36802.58
526.33	36627.04
526.50	37167.71
526.67	37141.96
526.84	37195.79
527.01	36980.46
527.18	37132.60
527.36	37436.87
527.53	37514.11
527.70	37860.51
527.87	37914.34
528.04	37743.48
528.21	38019.66
528.38	37886.25
528.55	38010.30
528.72	38323.93
528.89	38239.67
529.07	38316.91
529.24	37954.13
529.41	38635.22
529.58	38349.68
529.75	38244.35
529.92	38738.21
530.09	38756.93
530.26	38761.61
530.43	39021.41
530.60	37982.21
530.77	38586.07
530.94	38993.32
531.11	38808.42
531.28	38859.91
531.46	38792.04
531.63	39187.59
531.80	38976.94
531.97	39026.09
532.14	38916.09
532.31	38653.95
532.48	38990.98
532.65	39239.08
532.82	39250.78
532.99	39473.13
533.16	38761.61
533.33	39524.63
533.50	40196.36
533.67	39477.82
533.84	39608.89
534.01	39498.88
534.18	39634.63
534.35	40381.26
534.52	39220.36
534.69	40044.23
534.86	39917.84
535.03	39810.17
535.20	39922.52
535.37	40528.72
535.54	40301.68
535.71	40140.19
535.88	40191.68
536.05	40201.04
536.22	40177.64
536.38	40371.90
536.55	40425.73
536.72	39864.00
536.89	40423.39
537.06	40467.86
537.23	40580.21
537.40	40575.53
537.57	40697.24
537.74	40711.28
537.91	41099.81
538.08	40966.40
538.25	40484.25
538.42	40800.22
538.59	40856.39
538.75	40818.94
538.92	41167.68
539.09	40797.88
539.26	40802.56
539.43	40914.90
539.60	41375.99
539.77	41027.25
539.94	40870.43
540.11	40942.99
540.28	40634.04
540.44	40790.86
540.61	40797.88
540.78	40954.69
540.95	41832.39
541.12	41184.07
541.29	41212.15
541.46	41319.82
541.62	41406.42
541.79	41603.02
541.96	41504.72
542.13	41628.77
542.30	41586.64
542.47	42057.09
542.63	41855.80
542.80	41654.51
542.97	41825.37
543.14	42293.48
543.31	41177.04
543.48	42181.13
543.64	42426.89
543.81	42632.86
543.98	42426.89
544.15	42438.59
544.32	42532.22
544.48	42761.59
544.65	42548.60
544.82	42241.99
544.99	42237.31
545.16	42550.94
545.32	42403.49
545.49	42988.62
545.66	42515.83
545.83	42469.02
546.00	42829.46
546.16	42864.57
546.33	42817.76
546.50	42101.56
546.67	43061.18
546.83	42244.33
547.00	42871.59
547.17	42564.98
547.34	42836.48
547.50	43049.47
547.67	43105.65
547.84	43281.19
548.00	43449.70
548.17	43407.58
548.34	42827.12
548.51	43412.26
548.67	43674.40
548.84	43157.14
549.01	43484.81
549.18	43508.22
549.34	43501.20
549.51	43360.76
549.68	43220.33
549.84	43365.45
550.01	43480.13
550.18	43445.02
550.34	43381.83
550.51	43559.71
550.68	43454.39
550.84	43772.70
551.01	43906.11
551.18	43775.04
551.34	44147.18
551.51	43445.02
551.68	43981.01
551.84	43964.62
552.01	43950.58
552.18	43660.35
552.34	43487.15
552.51	43728.23
552.68	44027.82
552.84	44348.47
553.01	44287.62
553.18	43899.09
553.34	43793.76
553.51	43796.10
553.67	44374.22
553.84	44481.88
554.01	44137.82
554.17	44835.30
554.34	44570.82
554.51	44437.41
554.67	44760.40
554.84	44411.67
555.00	44514.65
555.17	44381.24
555.33	44067.61
555.50	44432.73
555.67	44222.08
555.83	44311.02
556.00	44493.58
556.16	44949.99
556.33	44458.48
556.50	44619.97
556.66	44942.97
556.83	44540.39
556.99	44774.45
557.16	44758.06
557.32	44996.80
557.49	45167.66
557.65	44786.15
557.82	44624.65
557.98	44891.48
558.15	45184.04
558.32	44807.22
558.48	44842.32
558.65	44648.06
558.81	44942.97
558.98	44568.48
559.14	44849.35
559.31	44495.92
559.47	44898.50
559.64	45212.13
559.80	45390.01
559.97	45338.52
560.13	44631.68
560.30	45071.70
560.46	44931.26
560.63	45118.51
560.79	45326.81
560.96	45247.24
561.12	44671.46
561.29	45254.26
561.45	45352.56
561.61	44982.76
561.78	45034.25
561.94	44823.60
562.11	45057.65
562.27	45303.41
562.44	45460.23
562.60	45146.59
562.77	45556.19
562.93	45429.80
563.10	45675.55
563.26	45207.45
563.42	45668.53
563.59	45361.92
563.75	45036.59
563.92	45567.89
564.08	45085.74
564.24	45846.41
564.41	45722.37
564.57	45492.99
564.74	45375.97
564.90	45230.85
565.07	45460.23
565.23	45382.99
565.39	45474.27
565.56	45551.51
565.72	45624.06
565.88	45757.47
566.05	45577.25
566.21	45502.35
566.38	45532.78
566.54	45844.07
566.70	45701.30
566.87	45954.08
567.03	45827.69
567.19	45879.18
567.36	45427.46
567.52	45586.61
567.68	45876.84
567.85	45659.17
568.01	45661.51
568.17	45188.72
568.34	45556.19
568.50	45577.25
568.66	45373.63
568.83	45425.12
568.99	45530.44
569.15	45607.68
569.32	45544.48
569.48	45542.14
569.64	45879.18
569.81	46312.18
569.97	45642.79
570.13	45481.29
570.30	45497.67
570.46	45954.08
570.62	45497.67
570.78	45626.40
570.95	45696.62
571.11	45937.69
571.27	45563.21
571.43	45837.05
571.60	45940.04
571.76	45652.15
571.92	45958.76
572.09	45755.13
572.25	45591.30
572.41	45879.18
572.57	46113.23
572.74	46473.68
572.90	45745.77
573.06	46316.86
573.22	46082.81
573.38	45937.69
573.55	45603.00
573.71	46017.27
573.87	45621.72
574.03	45357.24
574.20	45837.05
574.36	45727.05
574.52	46136.64
574.68	46171.75
574.84	45968.12
575.01	46019.61
575.17	45996.21
575.33	45759.81
575.49	45741.09
575.65	45570.23
575.82	46401.12
575.98	46019.61
576.14	46036.00
576.30	45977.48
576.46	46138.98
576.62	46040.68
576.79	45925.99
576.95	45736.41
577.11	46021.95
577.27	45986.85
577.43	45970.46
577.59	45715.34
577.75	45893.22
577.92	45752.79
578.08	45315.11
578.24	45661.51
578.40	45703.64
578.56	45808.96
578.72	46110.89
578.88	46485.38
579.04	45918.97
579.21	45968.12
579.37	45806.62
579.53	45839.39
579.69	45801.94
579.85	45923.65
580.01	46171.75
580.17	45965.78
580.33	46124.94
580.49	45806.62
580.65	46251.33
580.82	46122.60
580.98	46447.93
581.14	45736.41
581.30	46380.06
581.46	46115.58
581.62	46057.06
581.78	45823.01
581.94	46349.63
582.10	45944.72
582.26	46356.65
582.42	46595.38
582.58	46473.68
582.74	46464.32
582.90	45862.80
583.06	46078.13
583.22	46291.12
583.38	46419.84
583.54	46340.27
583.70	46059.40
583.86	46328.56
584.02	46206.86
584.18	45947.06
584.34	46080.47
584.50	46164.73
584.66	46167.07
584.82	45933.01
584.98	46483.04
585.14	46298.14
585.30	45801.94
585.46	46157.70
585.62	46167.07
585.78	45961.10
585.94	45951.74
586.10	45986.85
586.26	46059.40
586.42	46438.57
586.58	46316.86
586.74	45813.65
586.90	46110.89
587.06	46174.09
587.22	46504.10
587.38	45961.10
587.54	46064.08
587.70	46789.65
587.86	45792.58
588.02	46244.30
588.18	46298.14
588.34	46017.27
588.49	46185.79
588.65	45698.96
588.81	46134.30
588.97	45869.82
589.13	45694.28
589.29	45940.04
589.45	46120.26
589.61	46246.65
589.77	46127.28
589.93	46227.92
