SpectraSuite Data File
++++++++++++++++++++++++++++++++++++
Date: Fri Oct 25 11:23:45 EDT 2013
User: price-jones
Dark Spectrum Present: No
Reference Spectrum Present: No
Number of Sampled Component Spectra: 1
Spectrometers: USB2+H05261
Integration Time (usec): 100000 (USB2+H05261)
Spectra Averaged: 1 (USB2+H05261)
Boxcar Smoothing: 0 (USB2+H05261)
Correct for Electrical Dark: No (USB2+H05261)
Strobe/Lamp Enabled: No (USB2+H05261)
Correct for Detector Non-linearity: No (USB2+H05261)
Correct for Stray Light: No (USB2+H05261)
Number of Pixels in Processed Spectrum: 2048
>>>>>Begin Processed Spectral Data<<<<<
365.73	210.65
365.92	210.65
366.12	210.65
366.32	168.52
366.52	126.39
366.72	126.39
366.91	124.05
367.11	131.07
367.31	100.64
367.51	182.56
367.70	49.15
367.90	114.69
368.10	98.30
368.30	194.26
368.49	203.63
368.69	124.05
368.89	170.86
369.09	184.90
369.28	145.11
369.48	95.96
369.68	135.75
369.87	189.58
370.07	142.77
370.27	276.18
370.47	383.85
370.66	559.39
370.86	622.58
371.06	653.01
371.25	662.37
371.45	664.71
371.65	613.22
371.84	688.12
372.04	737.27
372.24	676.41
372.44	720.88
372.63	699.82
372.83	819.19
373.03	751.31
373.22	720.88
373.42	732.59
373.62	791.10
373.81	793.44
374.01	739.61
374.21	767.70
374.40	753.65
374.60	805.14
374.79	732.59
374.99	781.74
375.19	816.85
375.38	837.91
375.58	866.00
375.78	791.10
375.97	870.68
376.17	901.11
376.37	830.89
376.56	891.74
376.76	898.77
376.95	966.64
377.15	870.68
377.35	793.44
377.54	915.15
377.74	901.11
377.93	919.83
378.13	901.11
378.33	940.90
378.52	926.85
378.72	985.37
378.91	936.21
379.11	994.73
379.31	877.70
379.50	896.43
379.70	983.02
379.89	997.07
380.09	994.73
380.28	1001.75
380.48	926.85
380.68	952.60
380.87	1046.22
381.07	990.05
381.26	985.37
381.46	980.68
381.65	1069.62
381.85	1074.31
382.04	1064.94
382.24	1053.24
382.43	994.73
382.63	1057.92
382.83	1111.75
383.02	1184.31
383.22	1081.33
383.41	1142.18
383.61	1088.35
383.80	1179.63
384.00	1090.69
384.19	1149.20
384.39	1135.16
384.58	1165.59
384.78	1160.91
384.97	1083.67
385.17	1139.84
385.36	1109.41
385.56	1186.65
385.75	1191.33
385.95	1233.46
386.14	1193.67
386.34	1221.76
386.53	1242.82
386.72	1219.42
386.92	1350.49
387.11	1287.29
387.31	1266.23
387.50	1196.01
387.70	1280.27
387.89	1217.08
388.09	1334.11
388.28	1275.59
388.48	1329.42
388.67	1352.83
388.86	1263.89
389.06	1329.42
389.25	1392.62
389.45	1345.81
389.64	1301.34
389.84	1392.62
390.03	1425.39
390.22	1355.17
390.42	1289.64
390.61	1270.91
390.81	1448.79
391.00	1453.47
391.19	1385.60
391.39	1479.22
391.58	1420.71
391.78	1430.07
391.97	1423.05
392.16	1453.47
392.36	1591.56
392.55	1579.86
392.75	1476.88
392.94	1591.56
393.13	1619.65
393.33	1458.15
393.52	1479.22
393.71	1563.48
393.91	1703.91
394.10	1638.38
394.29	1638.38
394.49	1572.84
394.68	1685.19
394.88	1605.61
395.07	1699.23
395.26	1657.10
395.46	1650.08
395.65	1736.68
395.84	1645.40
396.04	1781.15
396.23	1769.44
396.42	1748.38
396.62	1769.44
396.81	1764.76
397.00	1661.78
397.19	1813.92
397.39	1823.28
397.58	1832.64
397.77	1877.11
397.97	1856.04
398.16	1778.81
398.35	1849.02
398.55	1865.41
398.74	1884.13
398.93	1926.26
399.12	1912.22
399.32	1886.47
399.51	2024.56
399.70	2038.61
399.90	1926.26
400.09	2132.23
400.28	1968.39
400.47	2045.63
400.67	2033.93
400.86	2054.99
401.05	2054.99
401.24	2094.78
401.44	2122.87
401.63	2150.95
401.82	2174.36
402.01	2136.91
402.21	2087.76
402.40	2204.78
402.59	2267.98
402.78	2228.19
402.97	2239.89
403.17	2265.64
403.36	2256.28
403.55	2331.17
403.74	2354.58
403.93	2436.50
404.13	2356.92
404.32	2377.98
404.51	2431.82
404.70	2399.05
404.89	2473.95
405.09	2525.44
405.28	2487.99
405.47	2455.22
405.66	2516.08
405.85	2497.35
406.05	2495.01
406.24	2445.86
406.43	2600.34
406.62	2579.27
406.81	2572.25
407.00	2590.97
407.20	2562.89
407.39	2651.83
407.58	2684.59
407.77	2780.56
407.96	2691.62
408.15	2815.66
408.34	2827.37
408.54	2815.66
408.73	2803.96
408.92	2885.88
409.11	2895.24
409.30	2967.80
409.49	2789.92
409.68	2920.99
409.87	2951.42
410.07	3040.36
410.26	3028.65
410.45	2984.18
410.64	3091.85
410.83	3075.46
411.02	3112.91
411.21	3129.30
411.40	3133.98
411.59	3229.94
411.78	3225.26
411.98	3253.34
412.17	3335.26
412.36	3309.52
412.55	3398.46
412.74	3368.03
412.93	3363.35
413.12	3318.88
413.31	3613.79
413.50	3475.70
413.69	3529.53
413.88	3693.37
414.07	3721.45
414.26	3662.94
414.45	3735.50
414.64	3786.99
414.83	3772.94
415.02	3770.60
415.22	3985.93
415.41	3934.44
415.60	3955.51
415.79	3948.48
415.98	4100.62
416.17	4004.66
416.36	3967.21
416.55	3957.85
416.74	4117.00
416.93	4060.83
417.12	4086.58
417.31	4135.73
417.50	4011.68
417.69	4332.33
417.88	4297.22
418.07	4341.69
418.26	4329.99
418.45	4407.23
418.64	4603.83
418.83	4491.49
419.02	4418.93
419.21	4383.82
419.39	4566.39
419.58	4386.16
419.77	4498.51
419.96	4615.54
420.15	4606.17
420.34	4493.83
420.53	4809.80
420.72	4692.77
420.91	4713.84
421.10	4781.71
421.29	4910.44
421.48	4610.86
421.67	4753.63
421.86	4809.80
422.05	4816.82
422.24	4767.67
422.43	4835.55
422.61	4737.24
422.80	5025.13
422.99	4856.61
423.18	4854.27
423.37	5107.05
423.56	4938.53
423.75	5074.28
423.94	4954.91
424.13	4725.54
424.32	4931.51
424.50	5036.83
424.69	5322.38
424.88	5081.30
425.07	4945.55
425.26	5020.45
425.45	5011.09
425.64	5022.79
425.83	4990.02
426.01	5151.52
426.20	5015.77
426.39	5069.60
426.58	5046.20
426.77	4968.96
426.96	5135.14
427.15	5186.63
427.33	5289.61
427.52	5188.97
427.71	5331.74
427.90	5336.42
428.09	5397.28
428.28	5416.00
428.46	5259.18
428.65	5380.89
428.84	5490.90
429.03	5530.69
429.22	5460.47
429.40	5458.13
429.59	5624.31
429.78	5287.27
429.97	5315.36
430.16	5612.60
430.34	5743.67
430.53	5717.93
430.72	5902.83
430.91	5701.54
431.10	5572.82
431.28	5778.78
431.47	5902.83
431.66	5825.59
431.85	5682.82
432.03	5881.77
432.22	6015.18
432.41	5933.26
432.60	5870.06
432.79	5856.02
432.97	6094.76
433.16	6057.31
433.35	6113.48
433.54	6047.94
433.72	6129.86
433.91	6146.25
434.10	6125.18
434.28	5959.00
434.47	6221.14
434.66	6232.85
434.85	6317.11
435.03	6296.04
435.22	6242.21
435.41	6445.84
435.59	6520.73
435.78	6574.56
435.97	6511.37
436.16	6539.46
436.34	6516.05
436.53	6745.42
436.72	6764.15
436.90	6537.12
437.09	6707.98
437.28	6588.61
437.46	6553.50
437.65	6691.59
437.84	6754.79
438.02	6754.79
438.21	6799.26
438.40	6539.46
438.58	6946.71
438.77	7054.37
438.96	7126.93
439.14	7213.53
439.33	7227.57
439.52	7180.76
439.70	7325.88
439.89	7492.05
440.08	7389.07
440.26	7578.65
440.45	7346.94
440.63	7470.99
440.82	7754.19
441.01	7730.79
441.19	7826.75
441.38	7997.61
441.57	7592.70
441.75	7810.37
441.94	8109.96
442.12	8067.83
442.31	8224.64
442.50	8049.10
442.68	8119.32
442.87	8119.32
443.05	8215.28
443.24	8276.13
443.43	8315.92
443.61	8451.67
443.80	8648.28
443.98	8344.01
444.17	7796.32
444.35	8379.12
444.54	8372.10
444.73	8327.63
444.91	8280.82
445.10	8280.82
445.28	8409.54
445.47	8205.92
445.65	8318.26
445.84	8477.42
446.02	8561.68
446.21	8549.98
446.39	8538.27
446.58	8564.02
446.77	8484.44
446.95	8229.32
447.14	8533.59
447.32	8510.19
447.51	8692.75
447.69	8454.02
447.88	8662.32
448.06	8575.72
448.25	8507.85
448.43	8638.92
448.62	8610.83
448.80	8798.07
448.99	8762.97
449.17	8812.12
449.36	8737.22
449.54	8851.91
449.73	9142.13
449.91	9088.30
450.10	9125.75
450.28	9069.58
450.46	9240.44
450.65	9104.68
450.83	9277.88
451.02	8910.42
451.20	9252.14
451.39	9078.94
451.57	9221.71
451.76	9193.62
451.94	9064.89
452.13	9235.75
452.31	9554.07
452.49	9275.54
452.68	9453.42
452.86	9275.54
453.05	9650.03
453.23	9479.17
453.42	9605.56
453.60	9430.02
453.78	9638.33
453.97	9579.81
454.15	9575.13
454.34	9371.50
454.52	9612.58
454.70	9802.16
454.89	9708.54
455.07	9963.66
455.26	9795.14
455.44	10087.71
455.62	10068.98
455.81	10015.15
455.99	10024.51
456.17	10146.22
456.36	10186.01
456.54	10207.08
456.73	10328.78
456.91	10546.45
457.09	10483.26
457.28	10511.35
457.46	10134.52
457.64	10672.84
457.83	10560.50
458.01	10296.02
458.19	10836.68
458.38	10714.97
458.56	10963.07
458.74	10817.96
458.93	10766.46
459.11	10579.22
459.29	11133.93
459.48	10862.43
459.66	11094.14
459.84	10911.58
460.03	11262.66
460.21	11126.91
460.39	10909.24
460.57	10995.84
460.76	11239.25
460.94	11218.19
461.12	11068.39
461.31	11548.20
461.49	11410.11
461.67	11442.88
461.85	11700.34
462.04	11480.33
462.22	11501.39
462.40	11683.95
462.59	11461.60
462.77	11534.16
462.95	11520.12
463.13	11452.24
463.32	11662.89
463.50	11836.09
463.68	11850.13
463.86	11929.71
464.05	11901.62
464.23	11770.55
464.41	11789.28
464.59	11892.26
464.78	12154.40
464.96	12053.76
465.14	11913.33
465.32	12283.13
465.50	12109.93
465.69	12177.81
465.87	12205.89
466.05	12376.75
466.23	12243.34
466.41	12517.18
466.60	12652.94
466.78	12458.67
466.96	12365.05
467.14	12259.73
467.32	12512.50
467.51	12456.33
467.69	12320.58
467.87	12650.60
468.05	12636.55
468.23	12753.58
468.41	12538.25
468.60	12601.44
468.78	12762.94
468.96	12828.48
469.14	13078.91
469.32	13092.96
469.50	12559.31
469.69	13071.89
469.87	13235.73
470.05	13036.78
470.23	13455.74
470.41	13235.73
470.59	13259.13
470.77	13298.92
470.95	13362.12
471.14	13579.79
471.32	13289.56
471.50	13689.79
471.68	13596.17
471.86	13635.96
472.04	13827.88
472.22	13905.12
472.40	13685.11
472.58	13968.32
472.77	14012.79
472.95	14406.00
473.13	14492.60
473.31	14221.10
473.49	14246.84
473.67	14094.71
473.85	14274.93
474.03	14785.16
474.21	14637.71
474.39	14700.90
474.57	14642.39
474.75	14888.15
474.93	15367.96
475.12	15009.86
475.30	15470.94
475.48	15208.80
475.66	15400.72
475.84	15417.11
476.02	15571.58
476.20	15515.41
476.38	15784.57
476.56	16091.18
476.74	16201.19
476.92	16072.46
477.10	15878.19
477.28	16126.29
477.46	16386.09
477.64	16545.25
477.82	16762.92
478.00	17226.34
478.18	17055.48
478.36	16805.05
478.54	17296.56
478.72	17404.22
478.90	17860.63
479.08	17687.43
479.26	17645.30
479.44	17989.36
479.62	18174.26
479.80	18321.71
479.98	18412.99
480.16	18607.26
480.34	18375.55
480.52	18850.67
480.70	18534.70
480.88	18824.93
481.06	18707.90
481.24	19019.19
481.41	19353.89
481.59	19389.00
481.77	19466.24
481.95	19793.91
482.13	19927.32
482.31	19936.68
482.49	20402.45
482.67	19967.11
482.85	20620.12
483.03	20915.03
483.21	21090.57
483.39	20837.79
483.57	21149.08
483.74	21383.13
483.92	21390.16
484.10	21605.49
484.28	21895.71
484.46	22384.88
484.64	22300.62
484.82	22424.67
485.00	22597.87
485.18	23056.62
485.35	23063.64
485.53	22995.76
485.71	23082.36
485.89	23887.51
486.07	23447.49
486.25	23594.94
486.43	24151.99
486.61	24142.63
486.78	24027.94
486.96	24500.73
487.14	24910.32
487.32	24711.38
487.50	24837.76
487.68	25317.57
487.85	25556.31
488.03	25797.38
488.21	26230.38
488.39	25617.16
488.57	26522.95
488.75	26520.61
488.92	26363.79
489.10	26801.47
489.28	26951.27
489.46	27248.52
489.64	27480.23
489.81	27847.69
489.99	27768.12
490.17	28086.43
490.35	28276.01
490.53	28554.54
490.70	28835.40
490.88	28283.03
491.06	28938.38
491.24	29029.66
491.41	29268.40
491.59	29355.00
491.77	29502.45
491.95	29560.97
492.13	29923.75
492.30	30127.38
492.48	30352.07
492.66	30450.37
492.84	30565.06
493.01	31171.25
493.19	30965.29
493.37	31201.68
493.54	31407.65
493.72	31833.63
493.90	31859.37
494.08	32023.21
494.25	32266.63
494.43	32423.44
494.61	32636.43
494.79	32713.67
494.96	32704.31
495.14	32765.16
495.32	33523.49
495.49	33357.32
495.67	33832.44
495.85	33963.51
496.02	34019.69
496.20	34181.18
496.38	34005.64
496.55	34394.17
496.73	35379.54
496.91	34993.35
497.09	35133.78
497.26	35110.38
497.44	35152.51
497.62	35227.40
497.79	36002.12
497.97	35515.29
498.14	36383.63
498.32	36514.70
498.50	36128.51
498.67	36966.42
498.85	36669.17
499.03	37167.71
499.20	36957.06
499.38	37048.34
499.56	37308.14
499.73	37263.67
499.91	37237.92
500.08	37874.55
500.26	37361.97
500.44	38321.59
500.61	38050.09
500.79	37958.81
500.97	38632.88
501.14	38890.34
501.32	38974.60
501.49	38878.64
501.67	38888.00
501.84	39367.81
502.02	39040.14
502.20	39669.74
502.37	39660.38
502.55	39388.88
502.72	39833.58
502.90	39519.95
503.07	40327.43
503.25	40048.91
503.43	39697.83
503.60	40524.04
503.78	40484.25
503.95	40734.68
504.13	40931.29
504.30	41111.51
504.48	40919.59
504.65	41752.82
504.83	41273.01
505.01	41500.04
505.18	41551.53
505.36	41790.27
505.53	41820.69
505.71	42279.44
505.88	42213.90
506.06	42026.66
506.23	42511.15
506.41	42143.69
506.58	42646.90
506.76	42220.92
506.93	42389.44
507.11	42911.38
507.28	43278.85
507.46	42803.72
507.63	43232.04
507.81	43613.54
507.98	43346.72
508.16	43466.09
508.33	43552.69
508.50	43658.01
508.68	43793.76
508.85	44051.22
509.03	43988.03
509.20	44411.67
509.38	44615.29
509.55	44940.63
509.73	44711.25
509.90	44964.03
510.08	44788.49
510.25	44746.36
510.42	44856.37
510.60	45059.99
510.77	45247.24
510.95	45858.12
511.12	46129.62
511.30	45771.52
511.47	45972.80
511.64	45820.67
511.82	46410.48
511.99	45603.00
512.17	46195.15
512.34	46464.32
512.51	46691.35
512.69	46838.80
512.86	46696.03
513.04	46953.49
513.21	46852.84
513.38	46909.02
513.56	47562.03
513.73	47175.84
513.90	47133.71
514.08	47147.75
514.25	47760.97
514.43	47821.83
514.60	47896.72
514.77	47629.90
514.95	48086.31
515.12	47896.72
515.29	48095.67
515.47	48137.80
515.64	48460.79
515.81	48217.38
515.99	48378.87
516.16	48837.62
516.33	48985.07
516.51	49181.68
516.68	48952.30
516.85	48769.74
517.03	49263.60
517.20	49310.41
517.37	49279.98
517.54	49006.14
517.72	49015.50
517.89	49209.76
518.06	49649.78
518.24	49703.62
518.41	49532.76
518.58	49696.59
518.75	49736.38
518.93	50157.68
519.10	49867.45
519.27	50003.20
519.45	50220.87
519.62	49958.73
519.79	49808.94
519.96	50206.83
520.14	50520.46
520.31	50600.04
520.48	50766.22
520.65	50719.41
520.83	50644.51
521.00	50838.78
521.17	50688.98
521.34	50777.92
521.52	50714.73
521.69	51070.49
521.86	51430.93
522.03	51442.63
522.20	51421.57
522.38	51707.12
522.55	51353.69
522.72	51695.41
522.89	51547.96
523.07	51966.91
523.24	51814.78
523.41	51929.47
523.58	51676.69
523.75	52102.67
523.92	52081.60
524.10	52320.34
524.27	52238.42
524.44	52044.15
524.61	52172.88
524.78	52346.08
524.96	52371.83
525.13	52428.00
525.30	52690.14
525.47	52678.44
525.64	52598.86
525.81	52975.69
525.98	53104.41
526.16	52596.52
526.33	52718.23
526.50	53162.93
526.67	53130.16
526.84	53249.53
527.01	53265.91
527.18	53162.93
527.36	53003.77
527.53	53146.54
527.70	53663.80
527.87	53586.57
528.04	53226.12
528.21	53766.79
528.38	53696.57
528.55	53827.64
528.72	53474.22
528.89	53829.98
529.07	53911.90
529.24	53652.10
529.41	53991.48
529.58	53841.68
529.75	53712.95
529.92	53956.37
530.09	54143.61
530.26	54134.25
530.43	54234.89
530.60	54054.67
530.77	54223.19
530.94	54487.67
531.11	54422.14
531.28	54550.87
531.46	54316.81
531.63	54813.01
531.80	54457.24
531.97	54543.84
532.14	54859.82
532.31	54569.59
532.48	55014.29
532.65	54939.39
532.82	54532.14
532.99	54925.35
533.16	54541.50
533.33	55440.27
533.50	55227.28
533.67	54974.50
533.84	54911.31
534.01	54995.57
534.18	55103.23
534.35	55306.86
534.52	55271.75
534.69	55437.93
534.86	55480.06
535.03	55440.27
535.20	55309.20
535.37	55774.97
535.54	55444.95
535.71	55536.23
535.88	55901.36
536.05	55723.47
536.22	55828.80
536.38	55826.46
536.55	55716.45
536.72	55929.44
536.89	55615.81
537.06	55798.37
537.23	55922.42
537.40	55889.65
537.57	55763.26
537.74	56030.08
537.91	56292.22
538.08	56048.81
538.25	55852.20
538.42	56034.77
538.59	56350.74
538.75	56114.34
538.92	56257.12
539.09	56498.19
539.26	56341.38
539.43	56144.77
539.60	56699.48
539.77	56411.59
539.94	56800.12
540.11	56495.85
540.28	56664.37
540.44	56636.28
540.61	56521.60
540.78	56416.27
540.95	56741.61
541.12	56636.28
541.29	56603.52
541.46	56755.65
541.62	56514.58
541.79	56715.86
541.96	56809.48
542.13	56704.16
542.30	56978.00
542.47	56907.79
542.63	57106.73
542.80	57188.65
542.97	57272.91
543.14	57378.23
543.31	57439.09
543.48	57373.55
543.64	57640.37
543.81	57509.30
543.98	57413.34
544.15	57502.28
544.32	57621.65
544.48	57719.95
544.65	57439.09
544.82	57659.10
544.99	57553.77
545.16	57609.95
545.32	57708.25
545.49	58129.54
545.66	58026.56
545.83	57921.24
546.00	58080.39
546.16	57808.89
546.33	57787.83
546.50	57485.90
546.67	57935.28
546.83	57396.96
547.00	57939.96
547.17	57799.53
547.34	57858.04
547.50	58003.16
547.67	58138.91
547.84	58230.19
548.00	58307.43
548.17	58279.34
548.34	58241.89
548.51	58361.26
548.67	58482.97
548.84	58312.11
549.01	58211.46
549.18	58440.84
549.34	58389.34
549.51	58312.11
549.68	58548.50
549.84	58614.04
550.01	58834.05
550.18	58389.34
550.34	58803.62
550.51	58918.31
550.68	58468.92
550.84	58340.19
551.01	58831.71
551.18	58616.38
551.34	58632.76
551.51	58894.90
551.68	58908.94
551.84	58843.41
552.01	58789.58
552.18	58920.65
552.34	58789.58
552.51	59152.36
552.68	58784.90
552.84	58913.62
553.01	59075.12
553.18	58918.31
553.34	59100.87
553.51	58915.96
553.67	59040.01
553.84	59077.46
554.01	58990.86
554.17	59105.55
554.34	59199.17
554.51	59152.36
554.67	59278.75
554.84	59358.33
555.00	59238.96
555.17	59220.23
555.33	59512.80
555.50	59199.17
555.67	59395.77
555.83	59164.06
556.00	59260.02
556.16	59547.91
556.33	59501.10
556.50	59442.59
556.66	59484.72
556.83	59344.28
556.99	59604.08
557.16	59709.41
557.32	59681.32
557.49	59929.42
557.65	59608.76
557.82	59515.14
557.98	59671.96
558.15	59498.76
558.32	59695.36
558.48	59491.74
558.65	59613.44
558.81	59793.67
558.98	59877.93
559.14	59810.05
559.31	59966.87
559.47	59856.86
559.64	59999.63
559.80	59924.74
559.97	60037.08
560.13	59751.54
560.30	59908.35
560.46	59976.23
560.63	59880.27
560.79	59959.84
560.96	60104.96
561.12	60074.53
561.29	60149.43
561.45	59948.14
561.61	59805.37
561.78	60083.89
561.94	59948.14
562.11	60039.42
562.27	60219.64
562.44	60200.92
562.60	60339.01
562.77	60317.95
562.93	59980.91
563.10	60324.97
563.26	60219.64
563.42	60353.05
563.59	60062.83
563.75	60198.58
563.92	60135.38
564.08	60285.18
564.24	60315.61
564.41	60427.95
564.57	60271.14
564.74	60252.41
564.90	60385.82
565.07	60207.94
565.23	60378.80
565.39	60214.96
565.56	60416.25
565.72	60327.31
565.88	60303.90
566.05	60278.16
566.21	60327.31
566.38	60423.27
566.54	60397.52
566.70	60463.06
566.87	60413.91
567.03	60355.39
567.19	60495.83
567.36	60552.00
567.52	60540.30
567.68	60708.82
567.85	60580.09
568.01	60633.92
568.17	60519.23
568.34	60573.06
568.50	60491.15
568.66	60331.99
568.83	60519.23
568.99	60498.17
569.15	60460.72
569.32	60601.15
569.48	60580.09
569.64	60617.53
569.81	60537.96
569.97	60685.41
570.13	60549.66
570.30	60636.26
570.46	60690.09
570.62	60570.72
570.78	60542.64
570.95	60687.75
571.11	60790.73
571.27	60561.36
571.43	60680.73
571.60	60772.01
571.76	60577.75
571.92	60882.02
572.09	60823.50
572.25	60704.13
572.41	60654.98
572.57	60748.60
572.74	61092.66
572.90	60591.79
573.06	60769.67
573.22	60732.22
573.38	60807.12
573.55	60619.88
573.71	60907.76
573.87	60874.99
574.03	60734.56
574.20	60966.27
574.36	60931.17
574.52	60797.76
574.68	60935.85
574.84	60982.66
575.01	60968.61
575.17	60790.73
575.33	60874.99
575.49	60800.10
575.65	61024.79
575.82	60825.84
575.98	61073.94
576.14	61155.86
576.30	61099.68
576.46	61001.38
576.62	60949.89
576.79	60853.93
576.95	60736.90
577.11	60877.33
577.27	61038.83
577.43	60931.17
577.59	60931.17
577.75	60750.94
577.92	60926.49
578.08	60891.38
578.24	61153.52
578.40	61144.16
578.56	61066.92
578.72	61013.08
578.88	61092.66
579.04	61071.60
579.21	61104.37
579.37	61059.90
579.53	61338.42
579.69	60678.39
579.85	60938.19
580.01	60956.91
580.17	60968.61
580.33	60921.80
580.49	61116.07
580.65	61214.37
580.82	61043.51
580.98	60779.03
581.14	61027.13
581.30	61169.90
581.46	60914.78
581.62	60977.98
581.78	60963.93
581.94	61205.01
582.10	61078.62
582.26	61127.77
582.42	61029.47
582.58	61263.52
582.74	61029.47
582.90	61085.64
583.06	61013.08
583.22	60865.63
583.38	61256.50
583.54	61078.62
583.70	61179.26
583.86	61179.26
584.02	60963.93
584.18	61322.04
584.34	61179.26
584.50	61223.73
584.66	60917.12
584.82	61029.47
584.98	61197.99
585.14	61277.57
585.30	61102.03
585.46	61130.11
585.62	61188.63
585.78	61165.22
585.94	60963.93
586.10	61141.81
586.26	61326.72
586.42	61172.24
586.58	61226.07
586.74	61158.20
586.90	61347.78
587.06	61268.20
587.22	61366.51
587.38	61303.31
587.54	61389.91
587.70	61422.68
587.86	61247.14
588.02	61237.78
588.18	61251.82
588.34	61195.65
588.49	61385.23
