SpectraSuite Data File
++++++++++++++++++++++++++++++++++++
Date: Fri Oct 25 11:25:25 EDT 2013
User: price-jones
Dark Spectrum Present: No
Reference Spectrum Present: No
Number of Sampled Component Spectra: 1
Spectrometers: USB2+H05261
Integration Time (usec): 100000 (USB2+H05261)
Spectra Averaged: 1 (USB2+H05261)
Boxcar Smoothing: 0 (USB2+H05261)
Correct for Electrical Dark: No (USB2+H05261)
Strobe/Lamp Enabled: No (USB2+H05261)
Correct for Detector Non-linearity: No (USB2+H05261)
Correct for Stray Light: No (USB2+H05261)
Number of Pixels in Processed Spectrum: 2048
>>>>>Begin Processed Spectral Data<<<<<
365.73	241.08
365.92	241.08
366.12	241.08
366.32	189.58
366.52	177.88
366.72	124.05
366.91	53.83
367.11	79.58
367.31	88.94
367.51	95.96
367.70	152.13
367.90	177.88
368.10	198.95
368.30	168.52
368.49	133.41
368.69	187.24
368.89	168.52
369.09	198.95
369.28	191.92
369.48	189.58
369.68	280.86
369.87	269.16
370.07	243.42
370.27	238.73
370.47	367.46
370.66	617.90
370.86	601.52
371.06	615.56
371.25	634.29
371.45	669.39
371.65	578.11
371.84	732.59
372.04	653.01
372.24	664.71
372.44	683.44
372.63	830.89
372.83	774.72
373.03	706.84
373.22	770.04
373.42	777.06
373.62	858.98
373.81	807.48
374.01	786.42
374.21	774.72
374.40	807.48
374.60	866.00
374.79	823.87
374.99	851.96
375.19	830.89
375.38	938.55
375.58	847.27
375.78	763.01
375.97	858.98
376.17	933.87
376.37	915.15
376.56	882.38
376.76	842.59
376.95	917.49
377.15	926.85
377.35	922.17
377.54	959.62
377.74	863.66
377.93	938.55
378.13	926.85
378.33	915.15
378.52	940.90
378.72	924.51
378.91	987.71
379.11	1013.45
379.31	964.30
379.50	950.26
379.70	924.51
379.89	994.73
380.09	1004.09
380.28	1046.22
380.48	980.68
380.68	1020.47
380.87	992.39
381.07	1011.11
381.26	1013.45
381.46	940.90
381.65	940.90
381.85	990.05
382.04	1100.05
382.24	1062.60
382.43	1060.26
382.63	1001.75
382.83	1022.81
383.02	1116.44
383.22	1130.48
383.41	1064.94
383.61	1048.56
383.80	1224.10
384.00	1114.10
384.19	1093.03
384.39	1020.47
384.58	1053.24
384.78	1149.20
384.97	1156.22
385.17	1135.16
385.36	1057.92
385.56	1121.12
385.75	1100.05
385.95	1125.80
386.14	1114.10
386.34	1104.73
386.53	1249.85
386.72	1191.33
386.92	1270.91
387.11	1282.61
387.31	1188.99
387.50	1125.80
387.70	1228.78
387.89	1275.59
388.09	1275.59
388.28	1231.12
388.48	1301.34
388.67	1299.00
388.86	1261.55
389.06	1301.34
389.25	1294.32
389.45	1409.00
389.64	1364.53
389.84	1397.30
390.03	1474.54
390.22	1355.17
390.42	1291.98
390.61	1308.36
390.81	1460.49
391.00	1434.75
391.19	1509.65
391.39	1364.53
391.58	1413.68
391.78	1486.24
391.97	1516.67
392.16	1434.75
392.36	1486.24
392.55	1479.22
392.75	1542.41
392.94	1472.20
393.13	1514.33
393.33	1554.12
393.52	1533.05
393.71	1528.37
393.91	1584.54
394.10	1481.56
394.29	1528.37
394.49	1460.49
394.68	1521.35
394.88	1647.74
395.07	1570.50
395.26	1699.23
395.46	1682.85
395.65	1713.27
395.84	1678.16
396.04	1760.08
396.23	1736.68
396.42	1701.57
396.62	1757.74
396.81	1722.63
397.00	1839.66
397.19	1724.97
397.39	1774.13
397.58	1811.57
397.77	1795.19
397.97	1827.96
398.16	1872.43
398.35	1823.28
398.55	1863.07
398.74	1937.96
398.93	1952.01
399.12	1944.99
399.32	2005.84
399.51	1982.43
399.70	1991.80
399.90	2019.88
400.09	2001.16
400.28	2066.69
400.47	2083.08
400.67	2092.44
400.86	2174.36
401.05	2076.06
401.24	2069.03
401.44	2120.53
401.63	2139.25
401.82	2167.34
402.01	2054.99
402.21	2127.55
402.40	2120.53
402.59	2146.27
402.78	2204.78
402.97	2305.43
403.17	2251.60
403.36	2193.08
403.55	2214.15
403.74	2368.62
403.93	2317.13
404.13	2335.85
404.32	2282.02
404.51	2307.77
404.70	2380.32
404.89	2394.37
405.09	2450.54
405.28	2385.01
405.47	2443.52
405.66	2413.09
405.85	2541.82
406.05	2502.03
406.24	2576.93
406.43	2537.14
406.62	2605.02
406.81	2654.17
407.00	2452.88
407.20	2605.02
407.39	2595.65
407.58	2708.00
407.77	2665.87
407.96	2750.13
408.15	2647.15
408.34	2656.51
408.54	2731.41
408.73	2829.71
408.92	2913.97
409.11	2820.35
409.30	2843.75
409.49	2869.50
409.68	2906.95
409.87	3000.57
410.07	2874.18
410.26	3012.27
410.45	3035.67
410.64	3077.80
410.83	3066.10
411.02	3197.17
411.21	3068.44
411.40	3098.87
411.59	3129.30
411.78	3117.59
411.98	3201.85
412.17	3276.75
412.36	3211.22
412.55	3283.77
412.74	3269.73
412.93	3332.92
413.12	3297.81
413.31	3597.40
413.50	3517.83
413.69	3400.80
413.88	3545.91
414.07	3442.93
414.26	3541.23
414.45	3566.98
414.64	3559.95
414.83	3779.97
415.02	3623.15
415.22	3894.65
415.41	3829.12
415.60	3712.09
415.79	3794.01
415.98	4014.02
416.17	3974.23
416.36	3983.59
416.55	3957.85
416.74	4077.21
416.93	3997.64
417.12	4086.58
417.31	4114.66
417.50	4091.26
417.69	4184.88
417.88	4332.33
418.07	4231.69
418.26	4329.99
418.45	4327.65
418.64	4512.55
418.83	4360.42
419.02	4329.99
419.21	4367.44
419.39	4477.44
419.58	4325.31
419.77	4374.46
419.96	4444.68
420.15	4442.34
420.34	4552.34
420.53	4470.42
420.72	4748.95
420.91	4638.94
421.10	4737.24
421.29	4788.74
421.48	4573.41
421.67	4650.64
421.86	4788.74
422.05	4748.95
422.24	4805.12
422.43	4762.99
422.61	4975.98
422.80	4950.23
422.99	4898.74
423.18	4851.93
423.37	4994.70
423.56	4882.36
423.75	4887.04
423.94	4898.74
424.13	4545.32
424.32	4702.14
424.50	5198.33
424.69	5039.17
424.88	5071.94
425.07	4870.65
425.26	4755.97
425.45	4863.63
425.64	4896.40
425.83	5032.15
426.01	4990.02
426.20	5083.64
426.39	5137.48
426.58	4959.60
426.77	4957.25
426.96	5011.09
427.15	5104.71
427.33	5097.69
427.52	5156.20
427.71	5181.95
427.90	5093.01
428.09	5308.34
428.28	5291.95
428.46	5465.15
428.65	5247.48
428.84	5465.15
429.03	5397.28
429.22	5413.66
429.40	5444.09
429.59	5425.36
429.78	5298.97
429.97	5298.97
430.16	5516.64
430.34	5643.03
430.53	5504.94
430.72	5600.90
430.91	5469.83
431.10	5507.28
431.28	5516.64
431.47	5675.80
431.66	5818.57
431.85	5659.42
432.03	5834.96
432.22	5731.97
432.41	5928.58
432.60	5844.32
432.79	5799.85
432.97	5856.02
433.16	5998.79
433.35	5914.53
433.54	5991.77
433.72	6083.05
433.91	6097.10
434.10	6101.78
434.28	6054.97
434.47	6169.65
434.66	6368.60
434.85	6352.21
435.03	6176.67
435.22	6176.67
435.41	6338.17
435.59	6422.43
435.78	6368.60
435.97	6420.09
436.16	6389.66
436.34	6111.14
436.53	6483.28
436.72	6539.46
436.90	6319.45
437.09	6604.99
437.28	6354.55
437.46	6464.56
437.65	6635.42
437.84	6740.74
438.02	6640.10
438.21	6635.42
438.40	6544.14
438.58	6874.15
438.77	6853.09
438.96	6953.73
439.14	7162.04
439.33	7087.14
439.52	7091.82
439.70	7162.04
439.89	7220.55
440.08	7258.00
440.26	7267.36
440.45	7265.02
440.63	7351.62
440.82	7543.55
441.01	7405.46
441.19	7599.72
441.38	7569.29
441.57	7812.71
441.75	7618.44
441.94	8004.63
442.12	7864.20
442.31	8023.36
442.50	7950.80
442.68	7857.18
442.87	8128.68
443.05	8131.02
443.24	7964.84
443.43	8116.98
443.61	8070.17
443.80	8390.82
443.98	8023.36
444.17	7681.64
444.35	8271.45
444.54	8369.76
444.73	8205.92
444.91	8065.49
445.10	8383.80
445.28	8098.25
445.47	8329.97
445.65	8234.00
445.84	8439.97
446.02	8575.72
446.21	8215.28
446.39	8152.09
446.58	8421.25
446.77	8439.97
446.95	8170.81
447.14	8432.95
447.32	8381.46
447.51	8365.07
447.69	8442.31
447.88	8557.00
448.06	8535.93
448.25	8521.89
448.43	8524.23
448.62	8601.47
448.80	8554.66
448.99	8514.87
449.17	8704.45
449.36	8774.67
449.54	8725.52
449.73	8835.52
449.91	8896.38
450.10	8898.72
450.28	9034.47
450.46	8943.19
450.65	8952.55
450.83	8821.48
451.02	8997.02
451.20	9172.56
451.39	9039.15
451.57	9191.28
451.76	9121.07
451.94	9116.39
452.13	9275.54
452.31	9202.99
452.49	9177.24
452.68	9156.18
452.86	9277.88
453.05	9310.65
453.23	9329.38
453.42	9179.58
453.60	9308.31
453.78	9336.40
453.97	9312.99
454.15	9329.38
454.34	9338.74
454.52	9556.41
454.70	9579.81
454.89	9549.39
455.07	9528.32
455.26	9771.74
455.44	9820.89
455.62	9809.19
455.81	9832.59
455.99	9933.23
456.17	9858.34
456.36	9853.66
456.54	10106.43
456.73	10052.60
456.91	10504.32
457.09	10401.34
457.28	10553.48
457.46	10115.80
457.64	10347.51
457.83	10487.94
458.01	10200.05
458.19	10656.46
458.38	10317.08
458.56	10595.61
458.74	10551.14
458.93	10621.35
459.11	10827.32
459.29	10621.35
459.48	10698.59
459.66	10684.55
459.84	10729.02
460.03	10897.53
460.21	10862.43
460.39	10869.45
460.57	10836.68
460.76	10930.30
460.94	11089.46
461.12	11253.30
461.31	11180.74
461.49	10862.43
461.67	11131.59
461.85	11463.94
462.04	11295.43
462.22	11662.89
462.40	11573.95
462.59	11496.71
462.77	11344.58
462.95	11538.84
463.13	11295.43
463.32	11438.20
463.50	11618.42
463.68	11796.30
463.86	11669.91
464.05	11459.26
464.23	11463.94
464.41	11777.58
464.59	11508.41
464.78	11955.46
464.96	11749.49
465.14	11723.74
465.32	11651.19
465.50	12004.61
465.69	12079.50
465.87	11676.93
466.05	12156.74
466.23	11892.26
466.41	12252.70
466.60	12458.67
466.78	12037.38
466.96	12252.70
467.14	12351.01
467.32	12126.32
467.51	12369.73
467.69	12037.38
467.87	12339.30
468.05	12521.87
468.23	12432.93
468.41	12285.47
468.60	12498.46
468.78	12542.93
468.96	12407.18
469.14	12664.64
469.32	12784.01
469.50	12545.27
469.69	12734.85
469.87	12753.58
470.05	12791.03
470.23	13376.16
470.41	12844.86
470.59	13280.20
470.77	12929.12
470.95	13032.10
471.14	13385.52
471.32	13116.36
471.50	13446.38
471.68	13479.15
471.86	13453.40
472.04	13617.24
472.22	14113.43
472.40	13778.73
472.58	13621.92
472.77	13717.88
472.95	14019.81
473.13	14150.88
473.31	13837.25
473.49	14141.52
473.67	13923.85
473.85	14106.41
474.03	14099.39
474.21	14331.10
474.39	14410.68
474.57	14803.89
474.75	14754.74
474.93	14719.63
475.12	14881.13
475.30	14871.76
475.48	15030.92
475.66	15173.69
475.84	14986.45
476.02	15103.48
476.20	15274.34
476.38	15562.22
476.56	15887.56
476.74	15964.79
476.92	15819.68
477.10	15552.86
477.28	15728.40
477.46	16109.91
477.64	16147.36
477.82	16390.77
478.00	16645.89
478.18	16596.74
478.36	16823.77
478.54	17137.40
478.72	17018.04
478.90	17254.43
479.08	17317.62
479.26	17535.29
479.44	17322.30
479.62	17525.93
479.80	17853.61
479.98	17879.35
480.16	18576.83
480.34	18097.02
480.52	18197.67
480.70	18300.65
480.88	18281.92
481.06	18602.58
481.24	18593.22
481.41	19012.17
481.59	19108.13
481.77	19428.79
481.95	19243.88
482.13	19644.12
482.31	19323.46
482.49	19988.18
482.67	20074.77
482.85	19894.55
483.03	20271.38
483.21	20383.73
483.39	20982.90
483.57	20774.60
483.74	20816.72
483.92	20905.66
484.10	20929.07
484.28	21589.10
484.46	21675.70
484.64	21792.73
484.82	21518.89
485.00	22300.62
485.18	22742.99
485.35	22911.50
485.53	22356.80
485.71	23002.78
485.89	23386.63
486.07	23044.91
486.25	23147.90
486.43	23030.87
486.61	23697.92
486.78	23885.17
486.96	23667.50
487.14	24376.68
487.32	24379.02
487.50	24617.75
487.68	24758.19
487.85	25160.76
488.03	24961.81
488.21	25628.87
488.39	25797.38
488.57	25872.28
488.75	25607.80
488.92	25963.56
489.10	26733.60
489.28	26431.67
489.46	26597.85
489.64	26789.77
489.81	27337.46
489.99	27349.16
490.17	27700.24
490.35	27859.40
490.53	28194.09
490.70	28278.35
490.88	28257.29
491.06	28095.79
491.24	28451.55
491.41	28819.02
491.59	29020.30
491.77	29090.52
491.95	28858.81
492.13	29359.68
492.30	29439.26
492.48	29586.71
492.66	29766.93
492.84	30148.44
493.01	30546.33
493.19	30628.25
493.37	30895.07
493.54	31335.09
493.72	31307.01
493.90	30976.99
494.08	31367.86
494.25	31433.39
494.43	31791.50
494.61	32137.90
494.79	32116.83
494.96	32121.51
495.14	32048.96
495.32	32582.60
495.49	32790.91
495.67	32744.09
495.85	33228.59
496.02	33525.83
496.20	33600.73
496.38	34031.39
496.55	33680.31
496.73	34342.68
496.91	34370.77
497.09	34356.72
497.26	34705.46
497.44	35002.71
497.62	34855.26
497.79	35386.56
497.97	35093.99
498.14	35955.31
498.32	35637.00
498.50	35702.53
498.67	35931.90
498.85	35999.78
499.03	36570.87
499.20	36474.91
499.38	36217.45
499.56	36638.75
499.73	36575.55
499.91	37258.99
500.08	37577.30
500.26	37008.55
500.44	37371.33
500.61	37612.41
500.79	37574.96
500.97	37790.29
501.14	38108.60
501.32	38363.72
501.49	38003.28
501.67	38352.02
501.84	38553.30
502.02	38583.73
502.20	38415.21
502.37	39388.88
502.55	38895.02
502.72	39222.70
502.90	39021.41
503.07	39344.41
503.25	39365.47
503.43	38782.68
503.60	39915.50
503.78	39873.37
503.95	39796.13
504.13	40411.69
504.30	39964.65
504.48	40236.15
504.65	40650.42
504.83	40643.40
505.01	40844.69
505.18	41001.50
505.36	41216.83
505.53	41055.34
505.71	41111.51
505.88	41254.28
506.06	40797.88
506.23	41818.35
506.41	41450.89
506.58	42071.13
506.76	41759.84
506.93	42094.53
507.11	41797.29
507.28	42075.81
507.46	42403.49
507.63	42382.42
507.81	43264.80
507.98	42396.46
508.16	42836.48
508.33	42880.95
508.50	43103.31
508.68	43440.34
508.85	43339.70
509.03	43646.31
509.20	43473.11
509.38	43728.23
509.55	43938.88
509.73	44161.23
509.90	44112.08
510.08	44025.48
510.25	43971.64
510.42	44432.73
510.60	44435.07
510.77	44673.81
510.95	44790.83
511.12	45074.04
511.30	44484.22
511.47	44945.31
511.64	45315.11
511.82	45315.11
511.99	45162.98
512.17	45572.57
512.34	45766.84
512.51	46459.63
512.69	46263.03
512.86	45947.06
513.04	46354.31
513.21	46293.46
513.38	46817.74
513.56	46246.65
513.73	46459.63
513.90	46279.41
514.08	46239.62
514.25	46923.06
514.43	46995.62
514.60	46883.27
514.77	47182.86
514.95	47398.19
515.12	47517.56
515.29	47131.37
515.47	47290.52
515.64	48079.28
515.81	47161.79
515.99	47351.38
516.16	48231.42
516.33	47959.92
516.51	48069.92
516.68	48067.58
516.85	47950.56
517.03	48432.71
517.20	48774.42
517.37	48481.86
517.54	48608.25
517.72	48378.87
517.89	48954.64
518.06	48456.11
518.24	48999.12
518.41	48748.68
518.58	48935.92
518.75	49055.29
518.93	49130.19
519.10	49095.08
519.27	49336.15
519.45	49336.15
519.62	49546.80
519.79	49815.96
519.96	49617.02
520.14	50019.59
520.31	49619.36
520.48	49937.67
520.65	49717.66
520.83	50014.91
521.00	50471.31
521.17	50380.03
521.34	50206.83
521.52	50543.87
521.69	50380.03
521.86	50906.65
522.03	50827.07
522.20	51114.96
522.38	51437.95
522.55	51178.15
522.72	51075.17
522.89	50550.89
523.07	51398.16
523.24	51278.80
523.41	51395.82
523.58	51159.43
523.75	51484.76
523.92	51592.43
524.10	51772.65
524.27	52030.11
524.44	51515.19
524.61	51341.99
524.78	51531.57
524.96	51838.18
525.13	51936.49
525.30	52009.04
525.47	52210.33
525.64	52325.02
525.81	52030.11
525.98	52016.07
526.16	52147.14
526.33	52470.13
526.50	52725.25
526.67	52542.69
526.84	52662.05
527.01	52484.17
527.18	52760.36
527.36	52598.86
527.53	52811.85
527.70	52924.19
527.87	52940.58
528.04	53029.52
528.21	53158.25
528.38	53216.76
528.55	53434.43
528.72	53219.10
528.89	53343.15
529.07	53247.19
529.24	53305.70
529.41	53254.21
529.58	53352.51
529.75	53373.58
529.92	53595.93
530.09	53783.17
530.26	53689.55
530.43	53787.85
530.60	53183.99
530.77	53329.11
530.94	53687.21
531.11	53645.08
531.28	53656.78
531.46	54106.16
531.63	53900.20
531.80	53951.69
531.97	54298.09
532.14	54471.29
532.31	54108.50
532.48	54167.02
532.65	54686.62
532.82	54157.66
532.99	54384.69
533.16	54277.02
533.33	54452.56
533.50	54614.06
533.67	54628.10
533.84	54354.26
534.01	54525.12
534.18	54632.78
534.35	55203.88
534.52	54712.36
534.69	55000.25
534.86	54885.56
535.03	54581.29
535.20	55025.99
535.37	55061.10
535.54	55061.10
535.71	54747.47
535.88	55126.64
536.05	55278.77
536.22	55421.55
536.38	55224.94
536.55	55213.24
536.72	55470.70
536.89	55238.98
537.06	55487.08
537.23	55508.14
537.40	55463.67
537.57	55641.56
537.74	55559.64
537.91	55817.10
538.08	55571.34
538.25	55269.41
538.42	55484.74
538.59	55882.63
538.75	55667.30
538.92	55786.67
539.09	56163.50
539.26	55772.63
539.43	55732.84
539.60	56076.90
539.77	55856.88
539.94	56329.67
540.11	56013.70
540.28	55931.78
540.44	56332.01
540.61	56205.62
540.78	56287.54
540.95	56039.45
541.12	56016.04
541.29	56086.26
541.46	56322.65
541.62	56299.25
541.79	56502.87
541.96	56355.42
542.13	56554.36
542.30	56390.53
542.47	56849.27
542.63	56500.53
542.80	56526.28
542.97	56657.35
543.14	56800.12
543.31	56917.15
543.48	57158.22
543.64	57022.47
543.81	57130.14
543.98	57165.24
544.15	56961.62
544.32	57277.59
544.48	57481.22
544.65	57083.33
544.82	57247.16
544.99	57059.92
545.16	57120.77
545.32	57167.58
545.49	57502.28
545.66	57532.71
545.83	57422.70
546.00	57705.91
546.16	57535.05
546.33	57286.95
546.50	57350.15
546.67	57361.85
546.83	57261.21
547.00	57591.22
547.17	57614.63
547.34	57490.58
547.50	57698.89
547.67	57773.78
547.84	57818.25
548.00	58138.91
548.17	57881.45
548.34	57911.88
548.51	58054.65
548.67	58024.22
548.84	57836.98
549.01	57691.86
549.18	57944.64
549.34	57986.77
549.51	58075.71
549.68	58218.49
549.84	58131.89
550.01	58166.99
550.18	57930.60
550.34	58115.50
550.51	58150.61
550.68	58166.99
550.84	57879.11
551.01	58230.19
551.18	58312.11
551.34	58281.68
551.51	58300.40
551.68	58438.50
551.84	58127.20
552.01	58099.12
552.18	58216.14
552.34	58209.12
552.51	58415.09
552.68	58440.84
552.84	58468.92
553.01	58803.62
553.18	58635.10
553.34	58546.16
553.51	58621.06
553.67	58555.52
553.84	58651.48
554.01	58843.41
554.17	58607.01
554.34	58775.53
554.51	58660.85
554.67	58749.79
554.84	58672.55
555.00	58628.08
555.17	58653.82
555.33	58848.09
555.50	58829.37
555.67	58735.74
555.83	58883.20
556.00	58951.07
556.16	59210.87
556.33	58941.71
556.50	59110.23
556.66	58883.20
556.83	58948.73
556.99	59075.12
557.16	59395.77
557.32	59363.01
557.49	59393.43
557.65	58876.18
557.82	59262.36
557.98	59084.48
558.15	59320.88
558.32	59164.06
558.48	59264.70
558.65	59250.66
558.81	59173.42
558.98	59412.16
559.14	59608.76
559.31	59447.27
559.47	59269.39
559.64	59456.63
559.80	59536.21
559.97	59660.26
560.13	59505.78
560.30	59372.37
560.46	59571.32
560.63	59683.66
560.79	59634.51
560.96	59576.00
561.12	59519.82
561.29	59721.11
561.45	59622.81
561.61	59447.27
561.78	59700.04
561.94	59585.36
562.11	59484.72
562.27	59807.71
562.44	59749.20
562.60	59777.28
562.77	59887.29
562.93	59678.98
563.10	59793.67
563.26	59538.55
563.42	59725.79
563.59	59746.86
563.75	59730.47
563.92	59791.33
564.08	59835.80
564.24	59875.58
564.41	59611.10
564.57	60062.83
564.74	60044.10
564.90	59957.50
565.07	59922.40
565.23	59831.11
565.39	59812.39
565.56	60114.32
565.72	59903.67
565.88	60186.88
566.05	59920.05
566.21	60037.08
566.38	60013.68
566.54	60093.25
566.70	60088.57
566.87	59898.99
567.03	59774.94
567.19	60100.28
567.36	60013.68
567.52	59985.59
567.68	60378.80
567.85	60104.96
568.01	60261.77
568.17	60186.88
568.34	60144.75
568.50	60191.56
568.66	60107.30
568.83	60104.96
568.99	60116.66
569.15	60072.19
569.32	60282.84
569.48	60170.49
569.64	60434.97
569.81	60236.03
569.97	60030.06
570.13	60229.01
570.30	60172.83
570.46	60350.71
570.62	60210.28
570.78	60343.69
570.95	60027.72
571.11	60502.85
571.27	60074.53
571.43	60397.52
571.60	60250.07
571.76	60456.04
571.92	60280.50
572.09	60149.43
572.25	60416.25
572.41	60404.55
572.57	60313.26
572.74	60451.36
572.90	60406.89
573.06	60446.68
573.22	60434.97
573.38	60402.21
573.55	60388.16
573.71	60715.84
573.87	60444.33
574.03	60275.82
574.20	60519.23
574.36	60381.14
574.52	60664.35
574.68	60584.77
574.84	60580.09
575.01	60671.37
575.17	60566.04
575.33	60409.23
575.49	60294.54
575.65	60582.43
575.82	60488.80
575.98	60601.15
576.14	60608.17
576.30	60818.82
576.46	60470.08
576.62	60662.00
576.79	60456.04
576.95	60528.59
577.11	60657.32
577.27	60722.86
577.43	60640.94
577.59	60690.09
577.75	60519.23
577.92	60537.96
578.08	60535.62
578.24	60750.94
578.40	60746.26
578.56	60711.16
578.72	60669.03
578.88	60692.43
579.04	60933.51
579.21	60711.16
579.37	60528.59
579.53	60664.35
579.69	60378.80
579.85	60404.55
580.01	60781.37
580.17	60453.70
580.33	60612.85
580.49	60807.12
580.65	60830.52
580.82	60535.62
580.98	60481.78
581.14	60706.47
581.30	60790.73
581.46	60795.42
581.62	60746.26
581.78	60659.66
581.94	60825.84
582.10	60692.43
582.26	60601.15
582.42	60624.56
582.58	60886.70
582.74	60970.96
582.90	60750.94
583.06	60732.22
583.22	60645.62
583.38	60772.01
583.54	60874.99
583.70	60650.30
583.86	60680.73
584.02	60755.63
584.18	60772.01
584.34	60687.75
584.50	60764.99
584.66	60516.89
584.82	60680.73
584.98	60938.19
585.14	60711.16
585.30	60666.69
585.46	60797.76
585.62	60753.29
585.78	60917.12
585.94	60683.07
586.10	60823.50
586.26	60685.41
586.42	60961.59
586.58	61137.13
586.74	60959.25
586.90	61015.43
587.06	60774.35
587.22	60844.57
587.38	60851.59
587.54	60867.97
587.70	60973.30
587.86	60832.86
588.02	60900.74
588.18	60924.14
588.34	60797.76
588.49	60928.83
