SpectraSuite Data File
++++++++++++++++++++++++++++++++++++
Date: Fri Oct 25 11:24:02 EDT 2013
User: price-jones
Dark Spectrum Present: No
Reference Spectrum Present: No
Number of Sampled Component Spectra: 1
Spectrometers: USB2+H05261
Integration Time (usec): 100000 (USB2+H05261)
Spectra Averaged: 1 (USB2+H05261)
Boxcar Smoothing: 0 (USB2+H05261)
Correct for Electrical Dark: No (USB2+H05261)
Strobe/Lamp Enabled: No (USB2+H05261)
Correct for Detector Non-linearity: No (USB2+H05261)
Correct for Stray Light: No (USB2+H05261)
Number of Pixels in Processed Spectrum: 2048
>>>>>Begin Processed Spectral Data<<<<<
365.73	224.69
365.92	224.69
366.12	224.69
366.32	91.28
366.52	135.75
366.72	161.50
366.91	98.30
367.11	70.22
367.31	110.01
367.51	131.07
367.70	79.58
367.90	189.58
368.10	117.03
368.30	173.20
368.49	107.66
368.69	58.51
368.89	170.86
369.09	126.39
369.28	126.39
369.48	168.52
369.68	140.43
369.87	182.56
370.07	187.24
370.27	280.86
370.47	411.93
370.66	493.85
370.86	589.82
371.06	706.84
371.25	662.37
371.45	648.33
371.65	746.63
371.84	648.33
372.04	734.93
372.24	699.82
372.44	648.33
372.63	662.37
372.83	732.59
373.03	781.74
373.22	758.33
373.42	777.06
373.62	802.80
373.81	767.70
374.01	795.78
374.21	812.17
374.40	837.91
374.60	940.90
374.79	823.87
374.99	784.08
375.19	835.57
375.38	844.93
375.58	849.61
375.78	809.83
375.97	809.83
376.17	851.96
376.37	858.98
376.56	861.32
376.76	891.74
376.95	954.94
377.15	842.59
377.35	884.72
377.54	950.26
377.74	964.30
377.93	854.30
378.13	880.04
378.33	870.68
378.52	842.59
378.72	945.58
378.91	940.90
379.11	957.28
379.31	994.73
379.50	999.41
379.70	952.60
379.89	978.34
380.09	910.47
380.28	1001.75
380.48	915.15
380.68	987.71
380.87	894.08
381.07	1053.24
381.26	950.26
381.46	1025.15
381.65	978.34
381.85	1057.92
382.04	1046.22
382.24	1118.78
382.43	1013.45
382.63	1135.16
382.83	1013.45
383.02	1135.16
383.22	1107.07
383.41	1111.75
383.61	1069.62
383.80	1142.18
384.00	1188.99
384.19	1114.10
384.39	1188.99
384.58	1114.10
384.78	1128.14
384.97	1177.29
385.17	1170.27
385.36	1114.10
385.56	1167.93
385.75	1170.27
385.95	1167.93
386.14	1303.68
386.34	1226.44
386.53	1151.54
386.72	1210.06
386.92	1261.55
387.11	1284.95
387.31	1238.14
387.50	1203.04
387.70	1179.63
387.89	1228.78
388.09	1240.48
388.28	1350.49
388.48	1259.21
388.67	1390.28
388.86	1362.19
389.06	1373.89
389.25	1373.89
389.45	1380.92
389.64	1331.76
389.84	1373.89
390.03	1371.55
390.22	1362.19
390.42	1308.36
390.61	1301.34
390.81	1446.45
391.00	1481.56
391.19	1448.79
391.39	1409.00
391.58	1493.26
391.78	1324.74
391.97	1479.22
392.16	1504.96
392.36	1535.39
392.55	1497.94
392.75	1533.05
392.94	1533.05
393.13	1514.33
393.33	1572.84
393.52	1521.35
393.71	1572.84
393.91	1603.27
394.10	1502.62
394.29	1610.29
394.49	1638.38
394.68	1654.76
394.88	1626.67
395.07	1671.14
395.26	1593.90
395.46	1657.10
395.65	1699.23
395.84	1750.72
396.04	1818.60
396.23	1675.82
396.42	1727.32
396.62	1774.13
396.81	1720.29
397.00	1755.40
397.19	1799.87
397.39	1858.39
397.58	1785.83
397.77	1694.55
397.97	1830.30
398.16	1827.96
398.35	1834.98
398.55	1764.76
398.74	1863.07
398.93	1851.36
399.12	1790.51
399.32	1872.43
399.51	1975.41
399.70	1963.71
399.90	1919.24
400.09	2045.63
400.28	2073.71
400.47	2090.10
400.67	1996.48
400.86	2108.82
401.05	2062.01
401.24	2005.84
401.44	2132.23
401.63	2143.93
401.82	2134.57
402.01	2181.38
402.21	2179.04
402.40	2223.51
402.59	2188.40
402.78	2188.40
402.97	2118.18
403.17	2317.13
403.36	2218.83
403.55	2270.32
403.74	2260.96
403.93	2452.88
404.13	2415.43
404.32	2293.72
404.51	2335.85
404.70	2466.92
404.89	2319.47
405.09	2516.08
405.28	2553.52
405.47	2520.76
405.66	2413.09
405.85	2551.18
406.05	2452.88
406.24	2537.14
406.43	2455.22
406.62	2665.87
406.81	2642.46
407.00	2534.80
407.20	2616.72
407.39	2661.19
407.58	2773.53
407.77	2799.28
407.96	2801.62
408.15	2583.95
408.34	2689.28
408.54	2808.64
408.73	2794.60
408.92	2862.48
409.11	2892.90
409.30	2942.05
409.49	2944.39
409.68	2932.69
409.87	2930.35
410.07	3002.91
410.26	3073.12
410.45	2995.89
410.64	3009.93
410.83	3269.73
411.02	3056.74
411.21	3208.87
411.40	3143.34
411.59	3314.20
411.78	3234.62
411.98	3122.27
412.17	3307.18
412.36	3211.22
412.55	3379.73
412.74	3391.44
412.93	3386.76
413.12	3412.50
413.31	3538.89
413.50	3363.35
413.69	3606.77
413.88	3564.64
414.07	3543.57
414.26	3566.98
414.45	3653.58
414.64	3674.64
414.83	3782.31
415.02	3815.07
415.22	3819.75
415.41	3899.33
415.60	3955.51
415.79	3950.82
415.98	4025.72
416.17	3983.59
416.36	4016.36
416.55	4056.15
416.74	4238.71
416.93	4102.96
417.12	4046.79
417.31	4182.54
417.50	4287.86
417.69	4372.12
417.88	4376.80
418.07	4280.84
418.26	4252.75
418.45	4383.82
418.64	4461.06
418.83	4320.63
419.02	4458.72
419.21	4592.13
419.39	4505.53
419.58	4507.87
419.77	4407.23
419.96	4477.44
420.15	4638.94
420.34	4533.62
420.53	4739.58
420.72	4706.82
420.91	4587.45
421.10	4760.65
421.29	4727.88
421.48	4561.70
421.67	4854.27
421.86	4837.89
422.05	4758.31
422.24	4725.54
422.43	4936.19
422.61	4938.53
422.80	5088.32
422.99	4856.61
423.18	4898.74
423.37	5095.35
423.56	4933.85
423.75	5069.60
423.94	4760.65
424.13	4493.83
424.32	4720.86
424.50	4870.65
424.69	5046.20
424.88	5172.58
425.07	5032.15
425.26	5018.11
425.45	4994.70
425.64	5067.26
425.83	5011.09
426.01	5198.33
426.20	4999.38
426.39	5273.23
426.58	4896.40
426.77	5270.89
426.96	5301.31
427.15	5170.24
427.33	5277.91
427.52	5132.79
427.71	5390.25
427.90	5341.10
428.09	5298.97
428.28	5338.76
428.46	5261.52
428.65	5320.04
428.84	5556.43
429.03	5509.62
429.22	5266.21
429.40	5509.62
429.59	5537.71
429.78	5298.97
429.97	5186.63
430.16	5441.75
430.34	5631.33
430.53	5605.58
430.72	5636.01
430.91	5839.64
431.10	5659.42
431.28	5839.64
431.47	5872.40
431.66	5809.21
431.85	5734.31
432.03	5895.81
432.22	5961.34
432.41	5839.64
432.60	5951.98
432.79	5968.37
432.97	6181.35
433.16	6022.20
433.35	5947.30
433.54	6267.95
433.72	6305.40
433.91	6146.25
434.10	6017.52
434.28	6069.01
434.47	6258.59
434.66	6202.42
434.85	6352.21
435.03	6523.07
435.22	6256.25
435.41	6527.75
435.59	6455.20
435.78	6499.67
435.97	6373.28
436.16	6527.75
436.34	6279.66
436.53	6593.29
436.72	6705.63
436.90	6628.40
437.09	6839.05
437.28	6548.82
437.46	6740.74
437.65	6602.65
437.84	6733.72
438.02	6731.38
438.21	6726.70
438.40	6668.19
438.58	6974.80
438.77	7005.22
438.96	6881.18
439.14	7192.47
439.33	7255.66
439.52	7136.29
439.70	7124.59
439.89	7368.01
440.08	7520.14
440.26	7194.81
440.45	7342.26
440.63	7405.46
440.82	7744.83
441.01	7573.97
441.19	7609.08
441.38	7810.37
441.57	7843.14
441.75	7829.09
441.94	8056.12
442.12	7953.14
442.31	8262.09
442.50	8131.02
442.68	7943.78
442.87	7950.80
443.05	8234.00
443.24	8229.32
443.43	8163.79
443.61	8262.09
443.80	8444.65
443.98	8170.81
444.17	7817.39
444.35	8147.40
444.54	8322.94
444.73	8468.06
444.91	8336.99
445.10	8386.14
445.28	8332.31
445.47	8259.75
445.65	8259.75
445.84	8348.69
446.02	8400.18
446.21	8484.44
446.39	8514.87
446.58	8407.20
446.77	8379.12
446.95	8198.90
447.14	8425.93
447.32	8535.93
447.51	8645.94
447.69	8423.59
447.88	8608.49
448.06	8449.33
448.25	8575.72
448.43	8678.71
448.62	8578.06
448.80	8538.27
448.99	8786.37
449.17	8507.85
449.36	8587.43
449.54	8971.27
449.73	9008.72
449.91	9062.55
450.10	8898.72
450.28	9142.13
450.46	9181.92
450.65	8964.25
450.83	9097.66
451.02	9055.53
451.20	9404.27
451.39	9184.26
451.57	9240.44
451.76	9064.89
451.94	9233.41
452.13	9156.18
452.31	9401.93
452.49	9247.46
452.68	9399.59
452.86	9434.70
453.05	9544.70
453.23	9364.48
453.42	9404.27
453.60	9268.52
453.78	9755.35
453.97	9525.98
454.15	9628.96
454.34	9111.71
454.52	9635.99
454.70	9635.99
454.89	9661.73
455.07	9813.87
455.26	9802.16
455.44	9984.73
455.62	9912.17
455.81	10193.03
455.99	10160.27
456.17	9994.09
456.36	10108.77
456.54	10305.38
456.73	10174.31
456.91	10387.30
457.09	10391.98
457.28	10487.94
457.46	10338.15
457.64	10707.95
457.83	10377.94
458.01	10509.01
458.19	10878.81
458.38	10740.72
458.56	10946.69
458.74	10785.19
458.93	10740.72
459.11	10874.13
459.29	10942.00
459.48	11021.58
459.66	10700.93
459.84	10832.00
460.03	11026.26
460.21	11056.69
460.39	11052.01
460.57	11066.05
460.76	11239.25
460.94	11236.91
461.12	11257.98
461.31	11328.19
461.49	11487.35
461.67	11190.10
461.85	11454.58
462.04	11524.80
462.22	11449.90
462.40	11660.55
462.59	11459.26
462.77	11602.04
462.95	11611.40
463.13	11487.35
463.32	11667.57
463.50	11772.89
463.68	11630.12
463.86	11665.23
464.05	11723.74
464.23	11477.99
464.41	11824.39
464.59	11683.95
464.78	12215.26
464.96	12032.69
465.14	12095.89
465.32	12105.25
465.50	12418.88
465.69	12259.73
465.87	12229.30
466.05	12264.41
466.23	12131.00
466.41	12341.64
466.60	12388.46
466.78	12428.24
466.96	12182.49
467.14	12594.42
467.32	12498.46
467.51	12407.18
467.69	12358.03
467.87	12535.91
468.05	12608.47
468.23	12280.79
468.41	12311.22
468.60	12566.34
468.78	12690.38
468.96	12645.91
469.14	12994.65
469.32	13116.36
469.50	12809.75
469.69	12898.69
469.87	13429.99
470.05	13179.56
470.23	13209.98
470.41	12929.12
470.59	13434.68
470.77	13369.14
470.95	13336.37
471.14	13778.73
471.32	13280.20
471.50	13736.60
471.68	13593.83
471.86	13664.05
472.04	13642.98
472.22	14045.55
472.40	13858.31
472.58	14047.90
472.77	14073.64
472.95	14122.79
473.13	14647.07
473.31	14263.22
473.49	14108.75
473.67	14291.31
473.85	14251.52
474.03	14661.12
474.21	14590.90
474.39	14824.95
474.57	14649.41
474.75	14796.87
474.93	15161.99
475.12	14993.47
475.30	15302.42
475.48	15063.69
475.66	15293.06
475.84	15183.06
476.02	15672.23
476.20	15552.86
476.38	15702.65
476.56	16175.44
476.74	15932.03
476.92	16102.89
477.10	16032.67
477.28	16196.51
477.46	16037.35
477.64	16276.09
477.82	16404.81
478.00	17209.96
478.18	16952.50
478.36	16877.60
478.54	17249.75
478.72	17298.90
478.90	17378.48
479.08	17968.29
479.26	17834.88
479.44	17940.21
479.62	17757.64
479.80	18111.07
479.98	18530.02
480.16	18537.04
480.34	18366.18
480.52	18836.63
480.70	19204.10
480.88	18595.56
481.06	18820.25
481.24	19126.86
481.41	19307.08
481.59	19489.64
481.77	19578.58
481.95	19538.79
482.13	19932.00
482.31	19885.19
482.49	20484.37
482.67	20332.23
482.85	20374.36
483.03	20760.55
483.21	20776.94
483.39	20931.41
483.57	20706.72
483.74	21018.01
483.92	21685.06
484.10	21359.73
484.28	21844.22
484.46	21972.95
484.64	22471.48
484.82	21888.69
485.00	22403.61
485.18	22785.12
485.35	23054.28
485.53	22841.29
485.71	23496.64
485.89	23590.26
486.07	23346.84
486.25	23625.37
486.43	23864.10
486.61	23772.82
486.78	24269.01
486.96	24233.91
487.14	24790.95
487.32	24718.40
487.50	25116.29
487.68	25083.52
487.85	25373.75
488.03	25582.06
488.21	25823.13
488.39	25928.45
488.57	26225.70
488.75	26059.52
488.92	26438.69
489.10	26703.17
489.28	26941.91
489.46	27384.27
489.64	27201.71
489.81	27552.79
489.99	27651.09
490.17	27756.41
490.35	28411.76
490.53	28329.84
490.70	28542.83
490.88	28311.12
491.06	28631.77
491.24	29209.89
491.41	29017.96
491.59	29123.29
491.77	29322.23
491.95	29921.41
492.13	30031.41
492.30	30213.98
492.48	29692.04
492.66	30382.49
492.84	30848.26
493.01	30890.39
493.19	30862.30
493.37	31157.21
493.54	31299.98
493.72	31655.75
493.90	31618.30
494.08	31885.12
494.25	32011.51
494.43	31775.11
494.61	32407.06
494.79	32886.87
494.96	32835.38
495.14	32821.33
495.32	33333.91
495.49	33324.55
495.67	33275.40
495.85	33738.82
496.02	33989.26
496.20	34050.11
496.38	34258.42
496.55	33912.02
496.73	35185.27
496.91	34637.59
497.09	34876.32
497.26	34888.03
497.44	34693.76
497.62	35243.79
497.79	36198.73
497.97	35482.52
498.14	35849.99
498.32	36458.52
498.50	36350.86
498.67	36704.28
498.85	36570.87
499.03	37343.25
499.20	36973.44
499.38	36938.33
499.56	37378.36
499.73	37280.05
499.91	37488.36
500.08	37663.90
500.26	37446.23
500.44	37773.91
500.61	37904.98
500.79	37680.28
500.97	38040.73
501.14	38323.93
501.32	38366.06
501.49	38569.69
501.67	38981.62
501.84	39175.89
502.02	38501.81
502.20	38888.00
502.37	39669.74
502.55	39241.42
502.72	39791.45
502.90	39529.31
503.07	39487.18
503.25	39859.32
503.43	39573.78
503.60	39981.03
503.78	40584.89
503.95	40472.54
504.13	41092.79
504.30	40545.10
504.48	40797.88
504.65	40851.71
504.83	41228.54
505.01	41514.08
505.18	41490.68
505.36	42071.13
505.53	41310.46
505.71	42230.29
505.88	42005.59
506.06	41574.94
506.23	41710.69
506.41	42064.11
506.58	42632.86
506.76	42480.72
506.93	42513.49
507.11	42426.89
507.28	42876.27
507.46	42976.92
507.63	42895.00
507.81	43056.50
507.98	43171.18
508.16	43627.59
508.33	43412.26
508.50	43360.76
508.68	43840.57
508.85	43824.19
509.03	43938.88
509.20	44217.40
509.38	44507.63
509.55	44243.15
509.73	44030.16
509.90	44870.41
510.08	44250.17
510.25	45024.89
510.42	44783.81
510.60	45193.40
510.77	45228.51
510.95	45507.04
511.12	45394.69
511.30	45354.90
511.47	45614.70
511.64	45677.90
511.82	46218.56
511.99	45830.03
512.17	46024.29
512.34	45778.54
512.51	46810.71
512.69	46525.17
512.86	46412.82
513.04	46681.98
513.21	46831.78
513.38	46944.12
513.56	47180.52
513.73	46813.05
513.90	47000.30
514.08	46609.43
514.25	47302.23
514.43	47718.84
514.60	47494.15
514.77	47459.04
514.95	47870.98
515.12	47299.89
515.29	47758.63
515.47	48039.50
515.64	48142.48
515.81	48037.16
515.99	48453.77
516.16	48751.02
516.33	48519.31
516.51	49127.84
516.68	48722.93
516.85	48561.44
517.03	49092.74
517.20	49233.17
517.37	48725.27
517.54	49153.59
517.72	49153.59
517.89	49169.97
518.06	49591.27
518.24	49289.34
518.41	49359.56
518.58	49345.51
518.75	49406.37
518.93	49785.54
519.10	49769.15
519.27	49827.66
519.45	49792.56
519.62	50312.16
519.79	50050.02
519.96	50117.89
520.14	50440.89
520.31	50047.68
520.48	50319.18
520.65	50639.83
520.83	50981.55
521.00	50726.43
521.17	50398.76
521.34	50873.88
521.52	50911.33
521.69	51037.72
521.86	51341.99
522.03	51501.15
522.20	51452.00
522.38	51711.80
522.55	51599.45
522.72	51430.93
522.89	51494.13
523.07	51367.74
523.24	51540.94
523.41	52137.77
523.58	51517.53
523.75	51643.92
523.92	51910.74
524.10	51971.60
524.27	52278.21
524.44	51985.64
524.61	52140.11
524.78	52451.41
524.96	52168.20
525.13	52367.15
525.30	52533.32
525.47	52720.57
525.64	52561.41
525.81	52673.76
525.98	52952.28
526.16	52409.28
526.33	52753.33
526.50	53069.31
526.67	52891.43
526.84	53223.78
527.01	53088.03
527.18	52889.09
527.36	52978.03
527.53	53319.74
527.70	53710.61
527.87	53490.60
528.04	53394.64
528.21	53574.86
528.38	53270.59
528.55	53876.79
528.72	53518.69
528.89	53797.21
529.07	53701.25
529.24	53614.65
529.41	53808.92
529.58	53998.50
529.75	53673.16
529.92	53989.14
530.09	53656.78
530.26	53886.15
530.43	54007.86
530.60	53682.53
530.77	53766.79
530.94	53879.13
531.11	54171.70
531.28	54347.24
531.46	54248.94
531.63	54302.77
531.80	54211.49
531.97	54466.61
532.14	54494.69
532.31	54464.27
532.48	54871.52
532.65	54988.55
532.82	54457.24
532.99	54777.90
533.16	54632.78
533.33	54995.57
533.50	55171.11
533.67	54960.46
533.84	54979.18
534.01	55014.29
534.18	55044.72
534.35	55430.91
534.52	55255.37
534.69	55487.08
534.86	55412.18
535.03	55517.51
535.20	55590.06
535.37	55309.20
535.54	55632.19
535.71	55128.98
535.88	55510.49
536.05	55683.69
536.22	55569.00
536.38	55842.84
536.55	55559.64
536.72	55648.58
536.89	55789.01
537.06	55697.73
537.23	55978.59
537.40	55643.90
537.57	55966.89
537.74	55786.67
537.91	55894.33
538.08	55945.83
538.25	55709.43
538.42	55934.12
538.59	56168.18
538.75	55973.91
538.92	56280.52
539.09	56177.54
539.26	56306.27
539.43	56254.78
539.60	56060.51
539.77	56245.41
539.94	56437.34
540.11	56427.98
540.28	56348.40
540.44	56399.89
540.61	56793.10
540.78	56559.05
540.95	56652.67
541.12	56596.49
541.29	56521.60
541.46	56507.55
541.62	56629.26
541.79	56624.58
541.96	56577.77
542.13	56720.54
542.30	56793.10
542.47	57036.51
542.63	57022.47
542.80	57064.60
542.97	57155.88
543.14	57141.84
543.31	57251.84
543.48	57326.74
543.64	57673.14
543.81	57389.94
543.98	57481.22
544.15	57343.12
544.32	57467.17
544.48	57640.37
544.65	57179.29
544.82	57396.96
544.99	57558.45
545.16	57804.21
545.32	57521.01
545.49	57673.14
545.66	57733.99
545.83	57825.28
546.00	57675.48
546.16	57846.34
546.33	57757.40
546.50	57544.41
546.67	57668.46
546.83	57682.50
547.00	57834.64
547.17	57752.72
547.34	57696.55
547.50	58049.97
547.67	58157.63
547.84	58246.57
548.00	58267.64
548.17	58202.10
548.34	58239.55
548.51	58056.99
548.67	58300.40
548.84	58274.66
549.01	58321.47
549.18	58368.28
549.34	58319.13
549.51	58513.39
549.68	58614.04
549.84	58436.16
550.01	58557.86
550.18	58429.13
550.34	58557.86
550.51	58438.50
550.68	58309.77
550.84	58138.91
551.01	58485.31
551.18	58578.93
551.34	58731.06
551.51	58649.14
551.68	58674.89
551.84	58749.79
552.01	58672.55
552.18	58644.46
552.34	58824.68
552.51	58738.08
552.68	58672.55
552.84	58827.02
553.01	59077.46
553.18	58803.62
553.34	58969.80
553.51	58632.76
553.67	58988.52
553.84	58988.52
554.01	58948.73
554.17	58951.07
554.34	59166.40
554.51	59075.12
554.67	59274.07
554.84	59068.10
555.00	59250.66
555.17	59086.82
555.33	59037.67
555.50	58920.65
555.67	59229.60
555.83	59009.59
556.00	59274.07
556.16	59475.35
556.33	59278.75
556.50	59253.00
556.66	59437.90
556.83	59175.76
556.99	59423.86
557.16	59627.49
557.32	59559.61
557.49	59557.27
557.65	59245.98
557.82	59458.97
557.98	59311.52
558.15	59552.59
558.32	59707.07
558.48	59393.43
558.65	59660.26
558.81	59639.19
558.98	59524.50
559.14	59749.20
559.31	59597.06
559.47	59695.36
559.64	59835.80
559.80	59632.17
559.97	59887.29
560.13	59536.21
560.30	59721.11
560.46	59934.10
560.63	59924.74
560.79	59725.79
560.96	59948.14
561.12	59847.50
561.29	59849.84
561.45	59966.87
561.61	59774.94
561.78	60025.38
561.94	59739.83
562.11	59770.26
562.27	59887.29
562.44	60111.98
562.60	60009.00
562.77	60313.26
562.93	59828.77
563.10	60154.11
563.26	59903.67
563.42	60236.03
563.59	60065.17
563.75	60006.65
563.92	60257.09
564.08	60016.02
564.24	60032.40
564.41	60259.43
564.57	60236.03
564.74	60315.61
564.90	60346.03
565.07	60133.04
565.23	60083.89
565.39	60168.15
565.56	60191.56
565.72	60271.14
565.88	60339.01
566.05	60231.35
566.21	60102.62
566.38	60385.82
566.54	60406.89
566.70	60434.97
566.87	60559.02
567.03	60350.71
567.19	60498.17
567.36	60495.83
567.52	60392.84
567.68	60467.74
567.85	60294.54
568.01	60484.12
568.17	60404.55
568.34	60523.91
568.50	60463.06
568.66	60470.08
568.83	60439.65
568.99	60339.01
569.15	60416.25
569.32	60523.91
569.48	60411.57
569.64	60706.47
569.81	60463.06
569.97	60353.05
570.13	60390.50
570.30	60346.03
570.46	60402.21
570.62	60619.88
570.78	60542.64
570.95	60676.05
571.11	60580.09
571.27	60542.64
571.43	60530.93
571.60	60732.22
571.76	60645.62
571.92	60870.31
572.09	60629.24
572.25	60582.43
572.41	60514.55
572.57	60736.90
572.74	60814.14
572.90	60582.43
573.06	60896.06
573.22	60786.05
573.38	60856.27
573.55	60781.37
573.71	60926.49
573.87	60699.45
574.03	60662.00
574.20	60884.36
574.36	60584.77
574.52	60736.90
574.68	60764.99
574.84	60889.04
575.01	60879.67
575.17	60879.67
575.33	60746.26
575.49	60774.35
575.65	60879.67
575.82	60823.50
575.98	60837.54
576.14	61123.09
576.30	60910.10
576.46	60870.31
576.62	60921.80
576.79	60804.78
576.95	60846.91
577.11	60772.01
577.27	60968.61
577.43	60750.94
577.59	60832.86
577.75	60835.20
577.92	60727.54
578.08	60800.10
578.24	60818.82
578.40	61090.32
578.56	60905.42
578.72	60837.54
578.88	61113.73
579.04	61010.74
579.21	60788.39
579.37	61064.58
579.53	61153.52
579.69	60680.73
579.85	60924.14
580.01	60903.08
580.17	60874.99
580.33	60966.27
580.49	60961.59
580.65	61048.19
580.82	60970.96
580.98	60830.52
581.14	60935.85
581.30	60954.57
581.46	61017.77
581.62	61059.90
581.78	60865.63
581.94	60940.53
582.10	61080.96
582.26	61134.79
582.42	60996.70
582.58	60963.93
582.74	60898.40
582.90	60935.85
583.06	61120.75
583.22	60669.03
583.38	60879.67
583.54	61090.32
583.70	61064.58
583.86	61172.24
584.02	60928.83
584.18	61006.06
584.34	61130.11
584.50	61064.58
584.66	60818.82
584.82	60949.89
584.98	61226.07
585.14	61188.63
585.30	60884.36
585.46	61268.20
585.62	61095.00
585.78	61448.42
585.94	60975.64
586.10	61022.45
586.26	61179.26
586.42	61090.32
586.58	61319.70
586.74	61186.28
586.90	61078.62
587.06	61059.90
587.22	61247.14
587.38	61015.43
587.54	61293.95
587.70	61380.55
587.86	61247.14
588.02	61172.24
588.18	61265.86
588.34	61099.68
588.49	61193.31
