SpectraSuite Data File
++++++++++++++++++++++++++++++++++++
Date: Fri Oct 25 11:26:33 EDT 2013
User: price-jones
Dark Spectrum Present: No
Reference Spectrum Present: No
Number of Sampled Component Spectra: 1
Spectrometers: USB2+H05261
Integration Time (usec): 100000 (USB2+H05261)
Spectra Averaged: 1 (USB2+H05261)
Boxcar Smoothing: 0 (USB2+H05261)
Correct for Electrical Dark: No (USB2+H05261)
Strobe/Lamp Enabled: No (USB2+H05261)
Correct for Detector Non-linearity: No (USB2+H05261)
Correct for Stray Light: No (USB2+H05261)
Number of Pixels in Processed Spectrum: 2048
>>>>>Begin Processed Spectral Data<<<<<
365.73	248.10
365.92	248.10
366.12	248.10
366.32	170.86
366.52	177.88
366.72	205.97
366.91	56.17
367.11	86.60
367.31	145.11
367.51	140.43
367.70	156.82
367.90	124.05
368.10	112.35
368.30	142.77
368.49	56.17
368.69	154.48
368.89	168.52
369.09	177.88
369.28	234.05
369.48	210.65
369.68	147.45
369.87	142.77
370.07	243.42
370.27	224.69
370.47	365.12
370.66	690.46
370.86	678.76
371.06	650.67
371.25	758.33
371.45	636.63
371.65	744.29
371.84	716.20
372.04	664.71
372.24	767.70
372.44	734.93
372.63	746.63
372.83	744.29
373.03	835.57
373.22	753.65
373.42	770.04
373.62	748.97
373.81	814.51
374.01	802.80
374.21	802.80
374.40	842.59
374.60	830.89
374.79	805.14
374.99	800.46
375.19	814.51
375.38	814.51
375.58	835.57
375.78	858.98
375.97	882.38
376.17	882.38
376.37	887.06
376.56	849.61
376.76	826.21
376.95	873.02
377.15	903.45
377.35	924.51
377.54	938.55
377.74	875.36
377.93	931.53
378.13	915.15
378.33	976.00
378.52	950.26
378.72	877.70
378.91	959.62
379.11	854.30
379.31	957.28
379.50	964.30
379.70	1020.47
379.89	1034.52
380.09	926.85
380.28	1032.18
380.48	943.24
380.68	940.90
380.87	1069.62
381.07	1083.67
381.26	994.73
381.46	1036.86
381.65	1006.43
381.85	1097.71
382.04	1062.60
382.24	990.05
382.43	1123.46
382.63	1064.94
382.83	1109.41
383.02	1214.74
383.22	1116.44
383.41	1088.35
383.61	1118.78
383.80	1116.44
384.00	1137.50
384.19	1114.10
384.39	1212.40
384.58	1179.63
384.78	1212.40
384.97	1139.84
385.17	1132.82
385.36	1123.46
385.56	1198.35
385.75	1069.62
385.95	1266.23
386.14	1217.08
386.34	1238.14
386.53	1235.80
386.72	1153.88
386.92	1149.20
387.11	1191.33
387.31	1165.59
387.50	1210.06
387.70	1240.48
387.89	1294.32
388.09	1329.42
388.28	1315.38
388.48	1289.64
388.67	1254.53
388.86	1359.85
389.06	1266.23
389.25	1390.28
389.45	1320.06
389.64	1280.27
389.84	1303.68
390.03	1362.19
390.22	1413.68
390.42	1444.11
390.61	1373.89
390.81	1348.15
391.00	1324.74
391.19	1451.13
391.39	1483.90
391.58	1547.09
391.78	1472.20
391.97	1465.18
392.16	1418.36
392.36	1516.67
392.55	1418.36
392.75	1397.30
392.94	1551.78
393.13	1511.99
393.33	1533.05
393.52	1575.18
393.71	1540.07
393.91	1685.19
394.10	1605.61
394.29	1570.50
394.49	1626.67
394.68	1607.95
394.88	1652.42
395.07	1666.46
395.26	1586.88
395.46	1689.87
395.65	1739.02
395.84	1720.29
396.04	1888.81
396.23	1743.70
396.42	1741.36
396.62	1839.66
396.81	1834.98
397.00	1790.51
397.19	1764.76
397.39	1767.10
397.58	1804.55
397.77	1790.51
397.97	1900.52
398.16	1776.47
398.35	1893.49
398.55	1760.08
398.74	1818.60
398.93	1870.09
399.12	1935.62
399.32	1872.43
399.51	2031.58
399.70	1998.82
399.90	2099.46
400.09	2132.23
400.28	2015.20
400.47	2008.18
400.67	2017.54
400.86	2097.12
401.05	2115.84
401.24	2195.42
401.44	2181.38
401.63	2258.62
401.82	2153.29
402.01	2036.27
402.21	2148.61
402.40	2265.64
402.59	2211.81
402.78	2167.34
402.97	2181.38
403.17	2317.13
403.36	2242.23
403.55	2279.68
403.74	2293.72
403.93	2324.15
404.13	2359.26
404.32	2441.18
404.51	2307.77
404.70	2338.20
404.89	2438.84
405.09	2485.65
405.28	2590.97
405.47	2420.11
405.66	2427.14
405.85	2429.48
406.05	2487.99
406.24	2633.10
406.43	2590.97
406.62	2633.10
406.81	2576.93
407.00	2623.74
407.20	2530.12
407.39	2686.94
407.58	2705.66
407.77	2785.24
407.96	2827.37
408.15	2726.72
408.34	2710.34
408.54	2832.05
408.73	2775.88
408.92	2810.98
409.11	2876.52
409.30	2981.84
409.49	2839.07
409.68	2944.39
409.87	2895.24
410.07	2956.10
410.26	3136.32
410.45	2878.86
410.64	3080.14
410.83	3089.51
411.02	3108.23
411.21	3166.74
411.40	3087.17
411.59	3272.07
411.78	3187.81
411.98	3260.37
412.17	3321.22
412.36	3243.98
412.55	3318.88
412.74	3323.56
412.93	3361.01
413.12	3248.66
413.31	3466.33
413.50	3424.20
413.69	3520.17
413.88	3634.85
414.07	3510.80
414.26	3691.02
414.45	3574.00
414.64	3672.30
414.83	3794.01
415.02	3740.18
415.22	3803.37
415.41	3861.88
415.60	3819.75
415.79	3964.87
415.98	3843.16
416.17	3997.64
416.36	3850.18
416.55	3960.19
416.74	4086.58
416.93	4128.70
417.12	4117.00
417.31	4243.39
417.50	4170.83
417.69	4210.62
417.88	4236.37
418.07	4102.96
418.26	4414.25
418.45	4414.25
418.64	4454.04
418.83	4449.36
419.02	4337.01
419.21	4531.28
419.39	4552.34
419.58	4397.87
419.77	4404.89
419.96	4615.54
420.15	4617.88
420.34	4437.66
420.53	4575.75
420.72	4643.62
420.91	4826.18
421.10	4758.31
421.29	4767.67
421.48	4704.48
421.67	4788.74
421.86	4758.31
422.05	4856.61
422.24	4819.16
422.43	4791.08
422.61	4840.23
422.80	4987.68
422.99	4983.00
423.18	4910.44
423.37	5125.77
423.56	4952.57
423.75	4950.23
423.94	4978.32
424.13	4688.09
424.32	4858.95
424.50	4936.19
424.69	5076.62
424.88	5153.86
425.07	5048.54
425.26	4924.49
425.45	5041.51
425.64	4910.44
425.83	4910.44
426.01	5121.09
426.20	5057.90
426.39	4997.04
426.58	5149.18
426.77	5095.35
426.96	5069.60
427.15	5095.35
427.33	5163.22
427.52	5160.88
427.71	5238.12
427.90	5341.10
428.09	5329.40
428.28	5324.72
428.46	5327.06
428.65	5282.59
428.84	5500.26
429.03	5523.66
429.22	5273.23
429.40	5462.81
429.59	5521.32
429.78	5345.78
429.97	5275.57
430.16	5432.38
430.34	5509.62
430.53	5518.98
430.72	5636.01
430.91	5488.56
431.10	5678.14
431.28	5806.87
431.47	5757.72
431.66	5856.02
431.85	5781.12
432.03	5975.39
432.22	6108.80
432.41	5961.34
432.60	5813.89
432.79	6078.37
432.97	6047.94
433.16	6083.05
433.35	5942.62
433.54	6019.86
433.72	6256.25
433.91	6111.14
434.10	6195.40
434.28	6223.48
434.47	6052.63
434.66	6249.23
434.85	6370.94
435.03	6377.96
435.22	6307.74
435.41	6548.82
435.59	6539.46
435.78	6338.17
435.97	6394.34
436.16	6389.66
436.34	6497.33
436.53	6567.54
436.72	6810.96
436.90	6565.20
437.09	6604.99
437.28	6429.45
437.46	6565.20
437.65	6707.98
437.84	6745.42
438.02	6640.10
438.21	6630.74
438.40	6579.25
438.58	7014.59
438.77	7037.99
438.96	7066.08
439.14	7066.08
439.33	7211.19
439.52	7316.51
439.70	7194.81
439.89	7370.35
440.08	7410.14
440.26	7353.96
440.45	7342.26
440.63	7543.55
440.82	7494.40
441.01	7686.32
441.19	7566.95
441.38	7543.55
441.57	7824.41
441.75	7801.01
441.94	7999.95
442.12	8037.40
442.31	8009.31
442.50	8079.53
442.68	7744.83
442.87	7906.33
443.05	7997.61
443.24	8304.22
443.43	8161.45
443.61	8168.47
443.80	8327.63
443.98	8060.80
444.17	7775.26
444.35	8353.37
444.54	8287.84
444.73	8358.05
444.91	8390.82
445.10	8173.15
445.28	8327.63
445.47	8400.18
445.65	8292.52
445.84	8573.38
446.02	8624.87
446.21	8255.07
446.39	8498.49
446.58	8437.63
446.77	8599.13
446.95	8313.58
447.14	8315.92
447.32	8557.00
447.51	8547.64
447.69	8458.70
447.88	8531.25
448.06	8538.27
448.25	8428.27
448.43	8528.91
448.62	8631.90
448.80	8367.42
448.99	8772.33
449.17	8847.22
449.36	8662.32
449.54	8765.31
449.73	9020.42
449.91	8945.53
450.10	9081.28
450.28	9156.18
450.46	9053.19
450.65	9064.89
450.83	8863.61
451.02	9074.26
451.20	9291.93
451.39	9331.72
451.57	9015.74
451.76	9109.36
451.94	9221.71
452.13	9315.33
452.31	9369.16
452.49	9254.48
452.68	9408.95
452.86	9404.27
453.05	9324.69
453.23	9390.23
453.42	9348.10
453.60	9507.26
453.78	9687.48
453.97	9593.86
454.15	9530.66
454.34	9476.83
454.52	9827.91
454.70	9760.03
454.89	9788.12
455.07	9767.06
455.26	9846.63
455.44	9977.70
455.62	9846.63
455.81	9776.42
455.99	10057.28
456.17	10122.82
456.36	9940.26
456.54	10239.84
456.73	10176.65
456.91	10537.09
457.09	10499.64
457.28	10565.18
457.46	10218.78
457.64	10541.77
457.83	10382.62
458.01	10413.04
458.19	10768.80
458.38	10626.03
458.56	10637.73
458.74	10532.41
458.93	10607.31
459.11	10640.08
459.29	10810.93
459.48	10984.13
459.66	10967.75
459.84	11124.57
460.03	11026.26
460.21	11040.31
460.39	10803.91
460.57	10942.00
460.76	11112.86
460.94	11260.32
461.12	11183.08
461.31	11346.92
461.49	11288.40
461.67	11236.91
461.85	11534.16
462.04	11386.71
462.22	11555.22
462.40	11555.22
462.59	11503.73
462.77	11384.37
462.95	11723.74
463.13	11520.12
463.32	11679.27
463.50	11637.14
463.68	11585.65
463.86	11892.26
464.05	11777.58
464.23	11660.55
464.41	11847.79
464.59	11761.19
464.78	12339.30
464.96	11817.36
465.14	11939.07
465.32	11915.67
465.50	12114.61
465.69	12051.42
465.87	12292.49
466.05	12327.60
466.23	12100.57
466.41	12189.51
466.60	12652.94
466.78	12280.79
466.96	12177.81
467.14	12198.87
467.32	12259.73
467.51	12549.95
467.69	12184.83
467.87	12250.36
468.05	12772.30
468.23	12470.37
468.41	12730.17
468.60	12737.20
468.78	12788.69
468.96	12634.21
469.14	12751.24
469.32	12854.22
469.50	12769.96
469.69	13006.36
469.87	12879.97
470.05	13158.49
470.23	13184.24
470.41	13209.98
470.59	13282.54
470.77	13217.01
470.95	13235.73
471.14	13504.89
471.32	13067.21
471.50	13769.37
471.68	13490.85
471.86	13493.19
472.04	13872.36
472.22	13797.46
472.40	13638.30
472.58	13905.12
472.77	14038.53
472.95	14181.31
473.13	14663.46
473.31	14235.14
473.49	14239.82
473.67	14216.41
473.85	14293.65
474.03	14602.60
474.21	14633.03
474.39	14864.74
474.57	14586.22
474.75	14721.97
474.93	15030.92
475.12	14974.75
475.30	15012.20
475.48	15279.02
475.66	15005.17
475.84	14995.81
476.02	15723.72
476.20	15541.16
476.38	15604.35
476.56	16004.58
476.74	15840.75
476.92	15707.34
477.10	16023.31
477.28	16418.86
477.46	16491.41
477.64	16318.22
477.82	16549.93
478.00	17020.38
478.18	16783.98
478.36	17160.81
478.54	17219.32
478.72	17523.59
478.90	17598.49
479.08	17582.10
479.26	17834.88
479.44	17584.44
479.62	18104.04
479.80	18178.94
479.98	17947.23
480.16	18651.73
480.34	18464.49
480.52	18927.91
480.70	18693.86
480.88	18647.05
481.06	18864.72
481.24	18714.92
481.41	19508.37
481.59	19194.73
481.77	19721.35
481.95	19522.41
482.13	19988.18
482.31	19491.98
482.49	20086.48
482.67	20308.83
482.85	20617.78
483.03	20683.31
483.21	20634.16
483.39	21069.50
483.57	20954.82
483.74	20891.62
483.92	21207.59
484.10	21188.87
484.28	21642.93
484.46	22293.60
484.64	22434.03
484.82	22075.93
485.00	22286.58
485.18	22731.28
485.35	23023.85
485.53	22747.67
485.71	23087.04
485.89	23728.35
486.07	23178.33
486.25	23623.03
486.43	23967.09
486.61	24084.11
486.78	24313.48
486.96	24395.40
487.14	24486.68
487.32	24467.96
487.50	25064.80
487.68	25043.73
487.85	25046.07
488.03	25867.60
488.21	25879.30
488.39	25722.49
488.57	26174.21
488.75	26267.83
488.92	26609.55
489.10	26665.72
489.28	26775.73
489.46	27316.39
489.64	26806.16
489.81	27758.75
489.99	27723.65
490.17	27779.82
490.35	28177.71
490.53	28376.66
490.70	28683.27
490.88	28320.48
491.06	29020.30
491.24	29034.35
491.41	29223.93
491.59	29301.17
491.77	29305.85
491.95	29394.79
492.13	29795.02
492.30	30033.75
492.48	30237.38
492.66	30274.83
492.84	30209.29
493.01	30501.86
493.19	30637.61
493.37	31016.78
493.54	30808.47
493.72	31323.39
493.90	31445.10
494.08	31920.23
494.25	31747.03
494.43	32023.21
494.61	32409.40
494.79	32542.81
494.96	32467.91
495.14	32652.81
495.32	33095.18
495.49	32943.04
495.67	33399.44
495.85	33530.51
496.02	34064.16
496.20	33876.91
496.38	33780.95
496.55	34040.75
496.73	34895.05
496.91	34686.74
497.09	34546.31
497.26	34862.28
497.44	34967.60
497.62	35431.03
497.79	36088.72
497.97	35335.07
498.14	35849.99
498.32	36334.48
498.50	36252.56
498.67	36914.93
498.85	36598.96
499.03	36783.86
499.20	37046.00
499.38	37296.44
499.56	37003.87
499.73	37120.90
499.91	37467.30
500.08	37876.89
500.26	37280.05
500.44	37975.19
500.61	37954.13
500.79	37483.68
500.97	38314.57
501.14	38602.46
501.32	38646.93
501.49	38562.67
501.67	38686.71
501.84	39002.69
502.02	38810.76
502.20	39313.98
502.37	39604.20
502.55	39452.07
502.72	39566.76
502.90	39447.39
503.07	39503.56
503.25	39379.51
503.43	39508.24
503.60	39770.38
503.78	40549.78
503.95	39997.41
504.13	40282.96
504.30	40641.06
504.48	40357.86
504.65	41083.42
504.83	41214.49
505.01	41275.35
505.18	40938.31
505.36	41205.13
505.53	41186.41
505.71	41736.43
505.88	41977.51
506.06	41626.43
506.23	42141.35
506.41	41979.85
506.58	41834.74
506.76	42457.32
506.93	42906.70
507.11	42260.71
507.28	42457.32
507.46	43075.22
507.63	42911.38
507.81	43512.90
507.98	42887.98
508.16	43058.84
508.33	43789.08
508.50	43447.36
508.68	43590.14
508.85	44121.44
509.03	43999.73
509.20	44186.97
509.38	44697.21
509.55	44605.93
509.73	44121.44
509.90	44863.39
510.08	44807.22
510.25	44856.37
510.42	44804.88
510.60	45275.32
510.77	45390.01
510.95	45296.39
511.12	45048.29
511.30	45062.33
511.47	45600.66
511.64	45565.55
511.82	45647.47
511.99	45684.92
512.17	46003.23
512.34	45944.72
512.51	46415.16
512.69	46419.84
512.86	46162.39
513.04	46766.24
513.21	46773.27
513.38	46866.89
513.56	46892.63
513.73	46799.01
513.90	46857.52
514.08	47154.77
514.25	46967.53
514.43	47372.44
514.60	47870.98
514.77	47693.10
514.95	47775.02
515.12	47248.39
515.29	47552.66
515.47	47854.59
515.64	48088.65
515.81	48079.28
515.99	48456.11
516.16	48582.50
516.33	48100.35
516.51	48573.14
516.68	48559.09
516.85	48526.33
517.03	48865.70
517.20	48662.08
517.37	48587.18
517.54	49031.88
517.72	48821.23
517.89	49059.97
518.06	49221.47
518.24	49450.84
518.41	49492.97
518.58	48912.52
518.75	49455.52
518.93	49371.26
519.10	49659.15
519.27	49862.77
519.45	49712.98
519.62	49937.67
519.79	50188.11
519.96	50171.72
520.14	50515.78
520.31	50267.69
520.48	50686.64
520.65	50209.17
520.83	50415.14
521.00	50593.02
521.17	50969.85
521.34	50681.96
521.52	50714.73
521.69	50749.84
521.86	50820.05
522.03	51054.11
522.20	51096.24
522.38	51648.60
522.55	51576.04
522.72	51320.93
522.89	51494.13
523.07	51583.07
523.24	51283.48
523.41	51859.25
523.58	51454.34
523.75	51899.04
523.92	51807.76
524.10	52275.87
524.27	51669.67
524.44	51971.60
524.61	52116.71
524.78	52053.51
524.96	52137.77
525.13	52205.65
525.30	52680.78
525.47	52456.09
525.64	52687.80
525.81	52540.35
525.98	52514.60
526.16	52650.35
526.33	52369.49
526.50	53055.26
526.67	52722.91
526.84	52793.12
527.01	53062.29
527.18	52973.34
527.36	53219.10
527.53	53172.29
527.70	53481.24
527.87	53719.98
528.04	53073.99
528.21	53448.47
528.38	53186.33
528.55	53588.91
528.72	53291.66
528.89	53450.81
529.07	53490.60
529.24	53518.69
529.41	53907.22
529.58	53902.54
529.75	53755.08
529.92	53851.05
530.09	54085.10
530.26	54005.52
530.43	53956.37
530.60	53822.96
530.77	53832.32
530.94	54267.66
531.11	54145.95
531.28	54167.02
531.46	54248.94
531.63	54096.80
531.80	54262.98
531.97	54410.43
532.14	54522.78
532.31	54405.75
532.48	54567.25
532.65	54480.65
532.82	54635.13
532.99	54698.32
533.16	54642.15
533.33	54623.42
533.50	55107.91
533.67	54733.43
533.84	54841.09
534.01	54920.67
534.18	55140.68
534.35	55140.68
534.52	55028.34
534.69	55061.10
534.86	55192.17
535.03	55175.79
535.20	55040.04
535.37	55601.77
535.54	55365.37
535.71	55196.85
535.88	55571.34
536.05	55737.52
536.22	55688.37
536.38	55697.73
536.55	55730.50
536.72	55611.13
536.89	55852.20
537.06	55566.66
537.23	55718.79
537.40	55477.72
537.57	55793.69
537.74	55608.79
537.91	56023.06
538.08	55805.39
538.25	55945.83
538.42	56205.62
538.59	56144.77
538.75	55929.44
538.92	56048.81
539.09	56259.46
539.26	56231.37
539.43	56222.01
539.60	56292.22
539.77	56196.26
539.94	56425.64
540.11	56411.59
540.28	56409.25
540.44	56495.85
540.61	56573.09
540.78	56381.16
540.95	56341.38
541.12	56404.57
541.29	56420.95
541.46	56907.79
541.62	56500.53
541.79	56704.16
541.96	56444.36
542.13	56612.88
542.30	56683.09
542.47	56830.55
542.63	56949.92
542.80	56999.07
542.97	57293.97
543.14	57003.75
543.31	57205.03
543.48	57495.26
543.64	57462.49
543.81	57436.75
543.98	57392.28
544.15	57684.84
544.32	57277.59
544.48	57506.96
544.65	57251.84
544.82	57446.11
544.99	57155.88
545.16	57710.59
545.32	57403.98
545.49	57764.42
545.66	57752.72
545.83	57623.99
546.00	57663.78
546.16	57420.36
546.33	57581.86
546.50	57492.92
546.67	57923.58
546.83	57396.96
547.00	57858.04
547.17	57804.21
547.34	57965.71
547.50	57897.83
547.67	58117.84
547.84	57865.06
548.00	58052.31
548.17	58363.60
548.34	58181.04
548.51	58321.47
548.67	58335.51
548.84	58106.14
549.01	58157.63
549.18	58099.12
549.34	58426.79
549.51	58312.11
549.68	58342.53
549.84	58145.93
550.01	58445.52
550.18	58300.40
550.34	58525.10
550.51	58681.91
550.68	58305.09
550.84	58272.32
551.01	58375.30
551.18	58401.05
551.34	58473.60
551.51	58574.25
551.68	58595.31
551.84	58459.56
552.01	58379.98
552.18	58632.76
552.34	58412.75
552.51	58681.91
552.68	58665.53
552.84	58831.71
553.01	58871.49
553.18	58920.65
553.34	59025.97
553.51	58710.00
553.67	58820.00
553.84	58944.05
554.01	58967.46
554.17	58876.18
554.34	58986.18
554.51	59054.06
554.67	59126.61
554.84	59049.38
555.00	58986.18
555.17	58953.41
555.33	59135.98
555.50	58883.20
555.67	59100.87
555.83	58986.18
556.00	59119.59
556.16	59508.12
556.33	59264.70
556.50	59150.02
556.66	59421.52
556.83	59194.49
556.99	59426.20
557.16	59531.53
557.32	59473.01
557.49	59700.04
557.65	59309.18
557.82	59309.18
557.98	59433.22
558.15	59512.80
558.32	59545.57
558.48	59416.84
558.65	59632.17
558.81	59358.33
558.98	59437.90
559.14	59690.68
559.31	59756.22
559.47	59735.15
559.64	59564.29
559.80	59704.73
559.97	59784.30
560.13	59543.23
560.30	59583.02
560.46	59669.62
560.63	59657.91
560.79	59803.03
560.96	59838.14
561.12	59859.20
561.29	60020.70
561.45	59784.30
561.61	60062.83
561.78	59770.26
561.94	59910.69
562.11	59819.41
562.27	59985.59
562.44	59994.95
562.60	60011.34
562.77	60093.25
562.93	60023.04
563.10	60301.56
563.26	59812.39
563.42	60214.96
563.59	60076.87
563.75	59908.35
563.92	59826.43
564.08	60168.15
564.24	60236.03
564.41	60196.24
564.57	60212.62
564.74	60149.43
564.90	60093.25
565.07	60240.71
565.23	60119.00
565.39	60320.29
565.56	60245.39
565.72	60200.92
565.88	60257.09
566.05	60090.91
566.21	60348.37
566.38	60149.43
566.54	60294.54
566.70	60151.77
566.87	60453.70
567.03	60236.03
567.19	60264.11
567.36	60339.01
567.52	60388.16
567.68	60626.90
567.85	60287.52
568.01	60364.76
568.17	60493.49
568.34	60495.83
568.50	60367.10
568.66	60563.70
568.83	60535.62
568.99	60559.02
569.15	60479.44
569.32	60353.05
569.48	60458.38
569.64	60463.06
569.81	60409.23
569.97	60350.71
570.13	60528.59
570.30	60453.70
570.46	60594.13
570.62	60346.03
570.78	60310.92
570.95	60385.82
571.11	60685.41
571.27	60500.51
571.43	60540.30
571.60	60556.68
571.76	60495.83
571.92	60507.53
572.09	60603.49
572.25	60573.06
572.41	60498.17
572.57	60650.30
572.74	60874.99
572.90	60640.94
573.06	60554.34
573.22	60568.38
573.38	60640.94
573.55	60645.62
573.71	60933.51
573.87	60879.67
574.03	60458.38
574.20	60903.08
574.36	60750.94
574.52	60793.07
574.68	60743.92
574.84	60729.88
575.01	60608.17
575.17	60697.11
575.33	60722.86
575.49	60694.77
575.65	60748.60
575.82	60891.38
575.98	60699.45
576.14	60748.60
576.30	60757.97
576.46	60797.76
576.62	60746.26
576.79	60631.58
576.95	60556.68
577.11	60823.50
577.27	60811.80
577.43	60896.06
577.59	60680.73
577.75	60917.12
577.92	60809.46
578.08	60582.43
578.24	60851.59
578.40	60963.93
578.56	60837.54
578.72	60811.80
578.88	61102.03
579.04	61076.28
579.21	60837.54
579.37	61022.45
579.53	61031.81
579.69	60760.31
579.85	60568.38
580.01	60804.78
580.17	60662.00
580.33	60774.35
580.49	61013.08
580.65	60977.98
580.82	60844.57
580.98	60694.77
581.14	60874.99
581.30	60994.36
581.46	60772.01
581.62	61254.16
581.78	60860.95
581.94	60968.61
582.10	60865.63
582.26	60907.76
582.42	60893.72
582.58	60980.32
582.74	60954.57
582.90	60736.90
583.06	60874.99
583.22	60994.36
583.38	60987.34
583.54	61097.34
583.70	60966.27
583.86	61055.21
584.02	60839.89
584.18	61132.45
584.34	60846.91
584.50	61188.63
584.66	60685.41
584.82	60889.04
584.98	61195.65
585.14	60956.91
585.30	61034.15
585.46	61109.05
585.62	60977.98
585.78	61106.71
585.94	60893.72
586.10	61010.74
586.26	60940.53
586.42	61034.15
586.58	61076.28
586.74	61069.26
586.90	61193.31
587.06	60851.59
587.22	61202.67
587.38	61153.52
587.54	61165.22
587.70	61319.70
587.86	61095.00
588.02	61139.47
588.18	61291.61
588.34	61127.77
588.49	61076.28
