SpectraSuite Data File
++++++++++++++++++++++++++++++++++++
Date: Fri Oct 25 11:26:15 EDT 2013
User: price-jones
Dark Spectrum Present: No
Reference Spectrum Present: No
Number of Sampled Component Spectra: 1
Spectrometers: USB2+H05261
Integration Time (usec): 100000 (USB2+H05261)
Spectra Averaged: 1 (USB2+H05261)
Boxcar Smoothing: 0 (USB2+H05261)
Correct for Electrical Dark: No (USB2+H05261)
Strobe/Lamp Enabled: No (USB2+H05261)
Correct for Detector Non-linearity: No (USB2+H05261)
Correct for Stray Light: No (USB2+H05261)
Number of Pixels in Processed Spectrum: 2048
>>>>>Begin Processed Spectral Data<<<<<
365.73	259.80
365.92	259.80
366.12	259.80
366.32	194.26
366.52	168.52
366.72	180.22
366.91	128.73
367.11	140.43
367.31	112.35
367.51	159.16
367.70	135.75
367.90	189.58
368.10	142.77
368.30	173.20
368.49	198.95
368.69	215.33
368.89	191.92
369.09	187.24
369.28	248.10
369.48	194.26
369.68	217.67
369.87	250.44
370.07	166.18
370.27	205.97
370.47	285.55
370.66	589.82
370.86	739.61
371.06	648.33
371.25	734.93
371.45	720.88
371.65	685.78
371.84	627.26
372.04	662.37
372.24	732.59
372.44	660.03
372.63	737.27
372.83	819.19
373.03	725.57
373.22	805.14
373.42	711.52
373.62	844.93
373.81	753.65
374.01	826.21
374.21	840.25
374.40	844.93
374.60	807.48
374.79	819.19
374.99	828.55
375.19	877.70
375.38	774.72
375.58	837.91
375.78	835.57
375.97	837.91
376.17	898.77
376.37	830.89
376.56	978.34
376.76	880.04
376.95	866.00
377.15	849.61
377.35	891.74
377.54	915.15
377.74	952.60
377.93	908.13
378.13	987.71
378.33	945.58
378.52	952.60
378.72	1004.09
378.91	915.15
379.11	910.47
379.31	903.45
379.50	1001.75
379.70	992.39
379.89	929.19
380.09	936.21
380.28	983.02
380.48	950.26
380.68	983.02
380.87	978.34
381.07	1001.75
381.26	1018.13
381.46	1004.09
381.65	1008.77
381.85	1046.22
382.04	1060.26
382.24	1149.20
382.43	1062.60
382.63	1146.86
382.83	1032.18
383.02	1174.95
383.22	1041.54
383.41	1097.71
383.61	1146.86
383.80	1062.60
384.00	1093.03
384.19	1121.12
384.39	1095.37
384.58	1074.31
384.78	1142.18
384.97	1149.20
385.17	1188.99
385.36	1188.99
385.56	1224.10
385.75	1214.74
385.95	1130.48
386.14	1158.57
386.34	1165.59
386.53	1291.98
386.72	1184.31
386.92	1160.91
387.11	1268.57
387.31	1282.61
387.50	1203.04
387.70	1240.48
387.89	1303.68
388.09	1270.91
388.28	1306.02
388.48	1334.11
388.67	1303.68
388.86	1306.02
389.06	1291.98
389.25	1336.45
389.45	1362.19
389.64	1301.34
389.84	1423.05
390.03	1458.15
390.22	1425.39
390.42	1453.47
390.61	1350.49
390.81	1306.02
391.00	1352.83
391.19	1383.26
391.39	1486.24
391.58	1483.90
391.78	1341.13
391.97	1528.37
392.16	1472.20
392.36	1453.47
392.55	1490.92
392.75	1619.65
392.94	1460.49
393.13	1530.71
393.33	1497.94
393.52	1547.09
393.71	1575.18
393.91	1593.90
394.10	1640.72
394.29	1542.41
394.49	1593.90
394.68	1619.65
394.88	1605.61
395.07	1654.76
395.26	1671.14
395.46	1666.46
395.65	1703.91
395.84	1652.42
396.04	1776.47
396.23	1837.32
396.42	1636.03
396.62	1680.50
396.81	1797.53
397.00	1830.30
397.19	1830.30
397.39	1713.27
397.58	1834.98
397.77	1860.73
397.97	1851.36
398.16	1720.29
398.35	1832.64
398.55	1905.20
398.74	1834.98
398.93	1867.75
399.12	1834.98
399.32	1867.75
399.51	1856.04
399.70	1982.43
399.90	1900.52
400.09	2017.54
400.28	1888.81
400.47	2064.35
400.67	2115.84
400.86	2059.67
401.05	2069.03
401.24	2085.42
401.44	2052.65
401.63	2167.34
401.82	2160.31
402.01	2043.29
402.21	2167.34
402.40	2200.10
402.59	2129.89
402.78	2265.64
402.97	2246.91
403.17	2303.09
403.36	2317.13
403.55	2275.00
403.74	2258.62
403.93	2361.60
404.13	2335.85
404.32	2293.72
404.51	2298.41
404.70	2443.52
404.89	2354.58
405.09	2420.11
405.28	2462.24
405.47	2525.44
405.66	2438.84
405.85	2504.37
406.05	2572.25
406.24	2565.23
406.43	2548.84
406.62	2691.62
406.81	2637.78
407.00	2588.63
407.20	2558.21
407.39	2700.98
407.58	2705.66
407.77	2626.08
407.96	2661.19
408.15	2689.28
408.34	2717.36
408.54	2857.79
408.73	2867.16
408.92	2832.05
409.11	2902.26
409.30	2822.69
409.49	2888.22
409.68	2899.92
409.87	2951.42
410.07	3009.93
410.26	2965.46
410.45	2930.35
410.64	3068.44
410.83	3089.51
411.02	3211.22
411.21	3082.49
411.40	3187.81
411.59	3133.98
411.78	3157.38
411.98	3262.71
412.17	3234.62
412.36	3180.79
412.55	3239.30
412.74	3370.37
412.93	3433.57
413.12	3328.24
413.31	3599.74
413.50	3414.84
413.69	3346.97
413.88	3606.77
414.07	3524.85
414.26	3623.15
414.45	3583.36
414.64	3562.30
414.83	3716.77
415.02	3742.52
415.22	3805.71
415.41	3969.55
415.60	3681.66
415.79	3779.97
415.98	3934.44
416.17	4056.15
416.36	3971.89
416.55	3985.93
416.74	3915.72
416.93	3974.23
417.12	4329.99
417.31	4217.65
417.50	4105.30
417.69	4191.90
417.88	4219.99
418.07	4208.28
418.26	4276.16
418.45	4418.93
418.64	4496.17
418.83	4365.10
419.02	4430.63
419.21	4498.51
419.39	4650.64
419.58	4578.09
419.77	4451.70
419.96	4475.10
420.15	4510.21
420.34	4528.94
420.53	4559.36
420.72	4634.26
420.91	4587.45
421.10	4746.61
421.29	4842.57
421.48	4650.64
421.67	4676.39
421.86	4681.07
422.05	4631.92
422.24	4795.76
422.43	4994.70
422.61	4805.12
422.80	4936.19
422.99	4842.57
423.18	4826.18
423.37	5008.75
423.56	4905.76
423.75	5022.79
423.94	4826.18
424.13	4566.39
424.32	4751.29
424.50	4978.32
424.69	5008.75
424.88	4997.04
425.07	4945.55
425.26	4933.85
425.45	4873.00
425.64	4842.57
425.83	4957.25
426.01	5025.13
426.20	5062.58
426.39	4992.36
426.58	5093.01
426.77	4917.47
426.96	5207.69
427.15	5217.05
427.33	5289.61
427.52	5074.28
427.71	5280.25
427.90	5315.36
428.09	5310.68
428.28	5308.34
428.46	5308.34
428.65	5446.43
428.84	5434.72
429.03	5511.96
429.22	5467.49
429.40	5533.03
429.59	5338.76
429.78	5203.01
429.97	5298.97
430.16	5495.58
430.34	5577.50
430.53	5495.58
430.72	5607.92
430.91	5568.13
431.10	5565.79
431.28	5675.80
431.47	5760.06
431.66	5785.80
431.85	5785.80
432.03	5626.65
432.22	5891.13
432.41	5631.33
432.60	5989.43
432.79	5921.56
432.97	5987.09
433.16	6069.01
433.35	5895.81
433.54	5886.45
433.72	6216.46
433.91	5940.28
434.10	6122.84
434.28	6113.48
434.47	6237.53
434.66	6136.88
434.85	6242.21
435.03	6307.74
435.22	6193.06
435.41	6457.54
435.59	6380.30
435.78	6235.19
435.97	6429.45
436.16	6338.17
436.34	6359.24
436.53	6581.59
436.72	6644.78
436.90	6342.85
437.09	6562.86
437.28	6649.46
437.46	6537.12
437.65	6600.31
437.84	6675.21
438.02	6670.53
438.21	6782.87
438.40	6464.56
438.58	6944.37
438.77	6974.80
438.96	6906.92
439.14	7030.97
439.33	7215.87
439.52	7316.51
439.70	7103.53
439.89	7368.01
440.08	7353.96
440.26	7258.00
440.45	7178.42
440.63	7566.95
440.82	7660.57
441.01	7508.44
441.19	7578.65
441.38	7683.98
441.57	7618.44
441.75	7616.10
441.94	7878.24
442.12	7838.45
442.31	7983.57
442.50	8028.04
442.68	7857.18
442.87	7885.26
443.05	8056.12
443.24	8159.11
443.43	8128.68
443.61	8088.89
443.80	8395.50
443.98	8088.89
444.17	7808.03
444.35	8128.68
444.54	8428.27
444.73	8159.11
444.91	8098.25
445.10	8245.71
445.28	8418.91
445.47	8306.56
445.65	8241.03
445.84	8425.93
446.02	8365.07
446.21	8351.03
446.39	8533.59
446.58	8493.80
446.77	8329.97
446.95	8299.54
447.14	8362.73
447.32	8547.64
447.51	8386.14
447.69	8358.05
447.88	8425.93
448.06	8517.21
448.25	8341.67
448.43	8533.59
448.62	8641.26
448.80	8383.80
448.99	8468.06
449.17	8688.07
449.36	8699.77
449.54	8695.09
449.73	8931.48
449.91	8901.06
450.10	8713.81
450.28	8947.87
450.46	8987.66
450.65	9018.08
450.83	9135.11
451.02	8856.59
451.20	9142.13
451.39	9006.38
451.57	9114.05
451.76	9114.05
451.94	8982.98
452.13	9355.12
452.31	9259.16
452.49	9034.47
452.68	9303.63
452.86	9170.22
453.05	9245.12
453.23	9425.34
453.42	9312.99
453.60	9376.19
453.78	9404.27
453.97	9336.40
454.15	9439.38
454.34	9406.61
454.52	9694.50
454.70	9516.62
454.89	9497.89
455.07	9614.92
455.26	9771.74
455.44	9809.19
455.62	9724.93
455.81	9727.27
455.99	10005.79
456.17	10064.30
456.36	10054.94
456.54	10195.37
456.73	10104.09
456.91	10501.98
457.09	10420.06
457.28	10403.68
457.46	10251.55
457.64	10480.92
457.83	10483.26
458.01	10256.23
458.19	10574.54
458.38	10487.94
458.56	10738.38
458.74	10729.02
458.93	10553.48
459.11	10738.38
459.29	10583.90
459.48	10668.16
459.66	10846.04
459.84	10824.98
460.03	10878.81
460.21	10920.94
460.39	11012.22
460.57	10963.07
460.76	11096.48
460.94	11197.12
461.12	11042.65
461.31	11138.61
461.49	11332.87
461.67	11311.81
461.85	11492.03
462.04	11424.15
462.22	11655.87
462.40	11325.85
462.59	11255.64
462.77	11248.61
462.95	11531.82
463.13	11815.02
463.32	11559.91
463.50	11646.51
463.68	11646.51
463.86	11700.34
464.05	11606.72
464.23	11637.14
464.41	12102.91
464.59	11690.98
464.78	11899.28
464.96	11789.28
465.14	11829.07
465.32	11878.22
465.50	12180.15
465.69	12133.34
465.87	12149.72
466.05	12222.28
466.23	11854.81
466.41	12060.78
466.60	12428.24
466.78	12154.40
466.96	12449.31
467.14	12116.95
467.32	12407.18
467.51	12395.48
467.69	12128.66
467.87	12229.30
468.05	12365.05
468.23	12308.88
468.41	12456.33
468.60	12435.27
468.78	12608.47
468.96	12603.78
469.14	12641.23
469.32	12659.96
469.50	12734.85
469.69	12896.35
469.87	13195.94
470.05	13078.91
470.23	13062.53
470.41	13116.36
470.59	13319.99
470.77	13362.12
470.95	13406.59
471.14	13282.54
471.32	13053.17
471.50	13589.15
471.68	13413.61
471.86	13432.33
472.04	13427.65
472.22	13893.42
472.40	13851.29
472.58	13577.45
472.77	13631.28
472.95	14115.77
473.13	14682.18
473.31	14181.31
473.49	14197.69
473.67	14008.11
473.85	14101.73
474.03	14574.52
474.21	14459.83
474.39	14754.74
474.57	14679.84
474.75	14679.84
474.93	14693.88
475.12	14780.48
475.30	15063.69
475.48	14796.87
475.66	15161.99
475.84	14930.28
476.02	15220.50
476.20	15384.34
476.38	15707.34
476.56	15920.32
476.74	15782.23
476.92	15733.08
477.10	15721.38
477.28	15873.51
477.46	15985.86
477.64	16264.38
477.82	16477.37
478.00	16961.86
478.18	16772.28
478.36	16776.96
478.54	16952.50
478.72	17186.55
478.90	17338.69
479.08	17301.24
479.26	17500.19
479.44	17434.65
479.62	17640.62
479.80	17741.26
479.98	18164.90
480.16	18300.65
480.34	18239.79
480.52	18466.83
480.70	18431.72
480.88	18284.26
481.06	18443.42
481.24	18780.46
481.41	18787.48
481.59	19410.06
481.77	19168.99
481.95	19248.57
482.13	19639.44
482.31	19513.05
482.49	20170.74
482.67	20088.82
482.85	20559.27
483.03	20493.73
483.21	20655.23
483.39	21020.35
483.57	20870.56
483.74	20973.54
483.92	21252.06
484.10	21132.70
484.28	21631.23
484.46	21818.47
484.64	21799.75
484.82	21774.00
485.00	22485.53
485.18	22583.83
485.35	22932.57
485.53	22843.63
485.71	22927.89
485.89	23564.51
486.07	23021.51
486.25	23058.96
486.43	23304.71
486.61	23410.04
486.78	23953.04
486.96	24116.88
487.14	24416.47
487.32	24416.47
487.50	24781.59
487.68	24968.84
487.85	24964.15
488.03	25453.33
488.21	25448.64
488.39	25406.52
488.57	26106.34
488.75	26181.23
488.92	26223.36
489.10	26443.37
489.28	26501.89
489.46	26911.48
489.64	26885.73
489.81	27274.26
489.99	27388.95
490.17	27555.13
490.35	27683.86
490.53	27922.59
490.70	28561.56
490.88	28194.09
491.06	28407.08
491.24	28835.40
491.41	29048.39
491.59	29223.93
491.77	29436.92
491.95	29380.74
492.13	29617.14
492.30	29820.77
492.48	29785.66
492.66	29654.59
492.84	30085.25
493.01	30682.08
493.19	30230.36
493.37	30698.47
493.54	30775.70
493.72	31452.12
493.90	31309.35
494.08	31974.06
494.25	31686.17
494.43	31800.86
494.61	32198.75
494.79	32577.92
494.96	32084.06
495.14	32261.94
495.32	33350.29
495.49	33116.24
495.67	32968.79
495.85	33266.03
496.02	33874.57
496.20	33703.71
496.38	33771.59
496.55	33860.53
496.73	34717.17
496.91	34426.94
497.09	34513.54
497.26	34948.88
497.44	35164.21
497.62	35040.16
497.79	35566.78
497.97	35204.00
498.14	35725.94
498.32	36339.16
498.50	36098.08
498.67	36308.73
498.85	36048.93
499.03	36093.40
499.20	36503.00
499.38	36519.38
499.56	36598.96
499.73	37125.58
499.91	36950.04
500.08	37460.27
500.26	37378.36
500.44	37291.76
500.61	37497.72
500.79	37586.66
500.97	38417.55
501.14	38036.05
501.32	38150.73
501.49	38539.26
501.67	38607.14
501.84	38595.43
502.02	38595.43
502.20	38916.09
502.37	39070.56
502.55	39290.57
502.72	39426.32
502.90	39199.29
503.07	39232.06
503.25	39468.45
503.43	39641.65
503.60	39765.70
503.78	39732.93
503.95	40369.56
504.13	40264.24
504.30	40091.04
504.48	40128.48
504.65	40584.89
504.83	40577.87
505.01	41120.87
505.18	41256.62
505.36	41125.55
505.53	41429.82
505.71	41434.50
505.88	41319.82
506.06	41116.19
506.23	41661.54
506.41	41392.37
506.58	42213.90
506.76	42197.52
506.93	42330.93
507.11	42073.47
507.28	41975.17
507.46	42948.83
507.63	42897.34
507.81	42777.97
507.98	42878.61
508.16	42532.22
508.33	43079.90
508.50	43182.88
508.68	43194.59
508.85	43606.52
509.03	43161.82
509.20	43910.79
509.38	44142.50
509.55	43971.64
509.73	44095.69
509.90	44603.59
510.08	44147.18
510.25	44715.93
510.42	44341.45
510.60	44720.62
510.77	44737.00
510.95	45462.57
511.12	44896.16
511.30	45102.12
511.47	45301.07
511.64	45553.85
511.82	45827.69
511.99	45464.91
512.17	45771.52
512.34	45853.44
512.51	46078.13
512.69	45729.39
512.86	46092.17
513.04	46611.77
513.21	46323.88
513.38	46782.63
513.56	46693.69
513.73	46511.13
513.90	46689.01
514.08	46436.23
514.25	47152.43
514.43	46897.31
514.60	47126.69
514.77	47079.88
514.95	47536.28
515.12	47285.84
515.29	47641.60
515.47	47800.76
515.64	47875.66
515.81	47618.20
515.99	48126.10
516.16	47814.80
516.33	48170.57
516.51	48655.06
516.68	48343.77
516.85	48343.77
517.03	48727.61
517.20	48428.02
517.37	48591.86
517.54	48512.28
517.72	48767.40
517.89	48786.13
518.06	48823.58
518.24	48905.49
518.41	48863.36
518.58	49195.72
518.75	49045.93
518.93	49294.02
519.10	48961.67
519.27	49684.89
519.45	49261.26
519.62	49900.22
519.79	50066.40
519.96	49574.89
520.14	49996.18
520.31	49701.28
520.48	50270.03
520.65	50014.91
520.83	50653.87
521.00	50354.29
521.17	50436.20
521.34	50382.37
521.52	50515.78
521.69	50883.25
521.86	50497.06
522.03	50908.99
522.20	50951.12
522.38	51339.65
522.55	51255.39
522.72	50740.47
522.89	51157.09
523.07	51599.45
523.24	51496.47
523.41	51554.98
523.58	51470.72
523.75	51690.73
523.92	51735.20
524.10	51477.74
524.27	51573.70
524.44	51786.69
524.61	52034.79
524.78	51590.09
524.96	52062.88
525.13	52023.09
525.30	51969.26
525.47	52240.76
525.64	52376.51
525.81	52633.97
525.98	52720.57
526.16	52355.44
526.33	52252.46
526.50	52556.73
526.67	52619.92
526.84	52692.48
527.01	52769.72
527.18	52652.69
527.36	52835.25
527.53	52961.64
527.70	53268.25
527.87	53240.17
528.04	52980.37
528.21	53078.67
528.38	53495.28
528.55	53560.82
528.72	53045.90
528.89	53347.83
529.07	53109.10
529.24	53429.75
529.41	53684.87
529.58	53151.23
529.75	53525.71
529.92	53631.04
530.09	53574.86
530.26	53895.52
530.43	53886.15
530.60	53233.14
530.77	53703.59
530.94	54024.25
531.11	53804.24
531.28	53743.38
531.46	53939.99
531.63	53825.30
531.80	54061.69
531.97	54447.88
532.14	54237.23
532.31	54197.44
532.48	54333.20
532.65	54490.01
532.82	54131.91
532.99	54480.65
533.16	54312.13
533.33	54607.04
533.50	54546.18
533.67	54761.51
533.84	54508.74
534.01	54733.43
534.18	54857.48
534.35	55044.72
534.52	55140.68
534.69	54911.31
534.86	55042.38
535.03	54585.97
535.20	55018.97
535.37	55037.70
535.54	55000.25
535.71	55128.98
535.88	55288.13
536.05	55124.30
536.22	55611.13
536.38	55704.75
536.55	55505.80
536.72	55437.93
536.89	55409.84
537.06	55571.34
537.23	55803.05
537.40	55409.84
537.57	55599.43
537.74	55494.10
537.91	55889.65
538.08	55849.86
538.25	55374.73
538.42	55828.80
538.59	55950.51
538.75	55894.33
538.92	55910.72
539.09	55931.78
539.26	55943.48
539.43	56123.71
539.60	55786.67
539.77	56280.52
539.94	56186.90
540.11	56343.72
540.28	56114.34
540.44	56292.22
540.61	56341.38
540.78	56364.78
540.95	56219.67
541.12	56371.80
541.29	56142.43
541.46	56280.52
541.62	56456.06
541.79	56460.74
541.96	56062.85
542.13	56495.85
542.30	56570.75
542.47	56470.11
542.63	56706.50
542.80	56666.71
542.97	56959.28
543.14	56846.93
543.31	56954.60
543.48	56961.62
543.64	57322.06
543.81	57099.71
543.98	57207.37
544.15	57312.70
544.32	57221.42
544.48	57645.05
544.65	56970.98
544.82	57317.38
544.99	57396.96
545.16	57181.63
545.32	57244.82
545.49	57623.99
545.66	57729.31
545.83	57532.71
546.00	57544.41
546.16	57270.57
546.33	57340.78
546.50	57186.31
546.67	57607.61
546.83	57490.58
547.00	57726.97
547.17	57612.29
547.34	57771.44
547.50	57766.76
547.67	57853.36
547.84	57748.04
548.00	57925.92
548.17	58188.06
548.34	57895.49
548.51	58085.07
548.67	58115.50
548.84	57874.43
549.01	57963.37
549.18	58042.95
549.34	57918.90
549.51	58035.92
549.68	58190.40
549.84	58089.76
550.01	58253.59
550.18	58206.78
550.34	58164.65
550.51	58408.07
550.68	58291.04
550.84	58080.39
551.01	58394.03
551.18	58365.94
551.34	58277.00
551.51	58335.51
551.68	58440.84
551.84	58436.16
552.01	58368.28
552.18	58548.50
552.34	58576.59
552.51	58775.53
552.68	58281.68
552.84	58555.52
553.01	58616.38
553.18	58525.10
553.34	58681.91
553.51	58513.39
553.67	58707.66
553.84	58878.52
554.01	58749.79
554.17	58911.28
554.34	58827.02
554.51	58915.96
554.67	58932.35
554.84	58869.15
555.00	58775.53
555.17	58827.02
555.33	59032.99
555.50	58838.73
555.67	58829.37
555.83	58749.79
556.00	58887.88
556.16	59367.69
556.33	59180.45
556.50	59119.59
556.66	59075.12
556.83	58803.62
556.99	59224.92
557.16	59531.53
557.32	59426.20
557.49	59391.09
557.65	59260.02
557.82	59260.02
557.98	59255.34
558.15	59351.30
558.32	59512.80
558.48	59180.45
558.65	59444.93
558.81	59447.27
558.98	59206.19
559.14	59325.56
559.31	59599.40
559.47	59559.61
559.64	59543.23
559.80	59662.60
559.97	59751.54
560.13	59341.94
560.30	59587.70
560.46	59800.69
560.63	59763.24
560.79	59597.06
560.96	59669.62
561.12	59627.49
561.29	59742.17
561.45	59571.32
561.61	59772.60
561.78	59674.30
561.94	59695.36
562.11	59695.36
562.27	59597.06
562.44	59894.31
562.60	59952.82
562.77	59997.29
562.93	59674.30
563.10	60025.38
563.26	59772.60
563.42	60067.51
563.59	59931.76
563.75	59657.91
563.92	59700.04
564.08	59643.87
564.24	59969.21
564.41	60111.98
564.57	60114.32
564.74	59849.84
564.90	60013.68
565.07	59873.24
565.23	60111.98
565.39	59994.95
565.56	60086.23
565.72	60051.12
565.88	59910.69
566.05	59908.35
566.21	60119.00
566.38	60151.77
566.54	60186.88
566.70	60219.64
566.87	60214.96
567.03	59852.18
567.19	60266.45
567.36	60133.04
567.52	60254.75
567.68	60374.12
567.85	60130.70
568.01	60392.84
568.17	60193.90
568.34	60261.77
568.50	60299.22
568.66	60350.71
568.83	60474.76
568.99	60303.90
569.15	60313.26
569.32	60172.83
569.48	60179.85
569.64	60364.76
569.81	60434.97
569.97	60142.41
570.13	60367.10
570.30	60420.93
570.46	60390.50
570.62	60427.95
570.78	60168.15
570.95	60289.86
571.11	60397.52
571.27	60346.03
571.43	60491.15
571.60	60308.58
571.76	60516.89
571.92	60254.75
572.09	60404.55
572.25	60273.48
572.41	60460.72
572.57	60390.50
572.74	60708.82
572.90	60544.98
573.06	60423.27
573.22	60521.57
573.38	60589.45
573.55	60444.33
573.71	60676.05
573.87	60795.42
574.03	60392.84
574.20	60706.47
574.36	60296.88
574.52	60629.24
574.68	60757.97
574.84	60650.30
575.01	60729.88
575.17	60619.88
575.33	60615.19
575.49	60364.76
575.65	60678.39
575.82	60673.71
575.98	60720.52
576.14	60814.14
576.30	60811.80
576.46	60589.45
576.62	60666.69
576.79	60385.82
576.95	60498.17
577.11	60601.15
577.27	60650.30
577.43	60818.82
577.59	60528.59
577.75	60678.39
577.92	60540.30
578.08	60598.81
578.24	60680.73
578.40	60807.12
578.56	60706.47
578.72	60804.78
578.88	60746.26
579.04	60774.35
579.21	60563.70
579.37	60889.04
579.53	60954.57
579.69	60762.65
579.85	60732.22
580.01	60626.90
580.17	60823.50
580.33	60718.18
580.49	60741.58
580.65	60776.69
580.82	60706.47
580.98	60764.99
581.14	60617.53
581.30	61104.37
581.46	60732.22
581.62	60786.05
581.78	60638.60
581.94	60856.27
582.10	60706.47
582.26	60694.77
582.42	60540.30
582.58	60940.53
582.74	60711.16
582.90	60804.78
583.06	60743.92
583.22	60643.28
583.38	60853.93
583.54	60879.67
583.70	60954.57
583.86	60762.65
584.02	60802.44
584.18	61006.06
584.34	60769.67
584.50	61020.11
584.66	60739.24
584.82	60753.29
584.98	60905.42
585.14	61020.11
585.30	60903.08
585.46	60823.50
585.62	60786.05
585.78	61043.51
585.94	60612.85
586.10	60870.31
586.26	60898.40
586.42	60919.46
586.58	60959.25
586.74	60772.01
586.90	61020.11
587.06	60870.31
587.22	61048.19
587.38	60870.31
587.54	61008.40
587.70	60914.78
587.86	60975.64
588.02	60701.79
588.18	60931.17
588.34	61148.84
