SpectraSuite Data File
++++++++++++++++++++++++++++++++++++
Date: Fri Oct 25 11:23:52 EDT 2013
User: price-jones
Dark Spectrum Present: No
Reference Spectrum Present: No
Number of Sampled Component Spectra: 1
Spectrometers: USB2+H05261
Integration Time (usec): 100000 (USB2+H05261)
Spectra Averaged: 1 (USB2+H05261)
Boxcar Smoothing: 0 (USB2+H05261)
Correct for Electrical Dark: No (USB2+H05261)
Strobe/Lamp Enabled: No (USB2+H05261)
Correct for Detector Non-linearity: No (USB2+H05261)
Correct for Stray Light: No (USB2+H05261)
Number of Pixels in Processed Spectrum: 2048
>>>>>Begin Processed Spectral Data<<<<<
365.73	231.71
365.92	231.71
366.12	231.71
366.32	138.09
366.52	91.28
366.72	189.58
366.91	138.09
367.11	166.18
367.31	126.39
367.51	117.03
367.70	93.62
367.90	77.24
368.10	152.13
368.30	142.77
368.49	81.92
368.69	140.43
368.89	135.75
369.09	187.24
369.28	152.13
369.48	131.07
369.68	203.63
369.87	217.67
370.07	145.11
370.27	203.63
370.47	325.33
370.66	538.32
370.86	594.50
371.06	575.77
371.25	624.92
371.45	645.99
371.65	739.61
371.84	688.12
372.04	793.44
372.24	688.12
372.44	737.27
372.63	739.61
372.83	774.72
373.03	741.95
373.22	737.27
373.42	767.70
373.62	835.57
373.81	821.53
374.01	837.91
374.21	830.89
374.40	791.10
374.60	884.72
374.79	795.78
374.99	851.96
375.19	833.23
375.38	849.61
375.58	908.13
375.78	964.30
375.97	945.58
376.17	884.72
376.37	896.43
376.56	784.08
376.76	910.47
376.95	809.83
377.15	873.02
377.35	826.21
377.54	891.74
377.74	971.32
377.93	882.38
378.13	854.30
378.33	940.90
378.52	968.98
378.72	938.55
378.91	992.39
379.11	940.90
379.31	884.72
379.50	1004.09
379.70	1001.75
379.89	1041.54
380.09	947.92
380.28	954.94
380.48	917.49
380.68	964.30
380.87	898.77
381.07	1004.09
381.26	1083.67
381.46	966.64
381.65	994.73
381.85	1015.79
382.04	1015.79
382.24	1041.54
382.43	1076.65
382.63	1039.20
382.83	1107.07
383.02	983.02
383.22	1156.22
383.41	1039.20
383.61	1116.44
383.80	1153.88
384.00	1142.18
384.19	1226.44
384.39	1132.82
384.58	1139.84
384.78	1249.85
384.97	1158.57
385.17	1116.44
385.36	1104.73
385.56	1165.59
385.75	1170.27
385.95	1135.16
386.14	1174.95
386.34	1217.08
386.53	1249.85
386.72	1210.06
386.92	1221.76
387.11	1233.46
387.31	1221.76
387.50	1289.64
387.70	1144.52
387.89	1282.61
388.09	1270.91
388.28	1266.23
388.48	1217.08
388.67	1301.34
388.86	1427.73
389.06	1406.66
389.25	1291.98
389.45	1352.83
389.64	1289.64
389.84	1355.17
390.03	1413.68
390.22	1315.38
390.42	1409.00
390.61	1315.38
390.81	1476.88
391.00	1425.39
391.19	1413.68
391.39	1493.26
391.58	1434.75
391.78	1401.98
391.97	1458.15
392.16	1409.00
392.36	1504.96
392.55	1530.71
392.75	1533.05
392.94	1621.99
393.13	1579.86
393.33	1460.49
393.52	1516.67
393.71	1554.12
393.91	1521.35
394.10	1451.13
394.29	1537.73
394.49	1640.72
394.68	1727.32
394.88	1668.80
395.07	1687.53
395.26	1732.00
395.46	1701.57
395.65	1631.35
395.84	1689.87
396.04	1762.42
396.23	1790.51
396.42	1727.32
396.62	1734.34
396.81	1743.70
397.00	1870.09
397.19	1806.89
397.39	1813.92
397.58	1825.62
397.77	1778.81
397.97	1886.47
398.16	1799.87
398.35	1823.28
398.55	1874.77
398.74	1895.83
398.93	1919.24
399.12	1984.77
399.32	1961.37
399.51	1879.45
399.70	1970.73
399.90	2005.84
400.09	1933.28
400.28	2003.50
400.47	2085.42
400.67	2008.18
400.86	2054.99
401.05	2104.14
401.24	2090.10
401.44	2022.22
401.63	2216.49
401.82	2118.18
402.01	2169.68
402.21	2267.98
402.40	2225.85
402.59	2230.53
402.78	2190.74
402.97	2244.57
403.17	2249.25
403.36	2272.66
403.55	2359.26
403.74	2312.45
403.93	2289.04
404.13	2307.77
404.32	2406.07
404.51	2319.47
404.70	2359.26
404.89	2424.80
405.09	2532.46
405.28	2385.01
405.47	2431.82
405.66	2459.90
405.85	2588.63
406.05	2511.39
406.24	2565.23
406.43	2595.65
406.62	2649.49
406.81	2729.06
407.00	2649.49
407.20	2626.08
407.39	2729.06
407.58	2799.28
407.77	2691.62
407.96	2668.21
408.15	2827.37
408.34	2736.09
408.54	2785.24
408.73	2761.83
408.92	2848.43
409.11	2820.35
409.30	2843.75
409.49	2920.99
409.68	2956.10
409.87	2876.52
410.07	3061.42
410.26	2928.01
410.45	2970.14
410.64	3002.91
410.83	3150.36
411.02	3141.00
411.21	3124.62
411.40	3201.85
411.59	3204.19
411.78	3201.85
411.98	3103.55
412.17	3199.51
412.36	3342.28
412.55	3372.71
412.74	3321.22
412.93	3286.11
413.12	3265.05
413.31	3606.77
413.50	3531.87
413.69	3463.99
413.88	3641.87
414.07	3534.21
414.26	3566.98
414.45	3618.47
414.64	3655.92
414.83	3737.84
415.02	3868.91
415.22	3904.01
415.41	3838.48
415.60	3854.86
415.79	3822.09
415.98	3873.59
416.17	4046.79
416.36	3948.48
416.55	3953.16
416.74	4149.77
416.93	4128.70
417.12	4074.87
417.31	4191.90
417.50	4107.64
417.69	4404.89
417.88	4341.69
418.07	4222.33
418.26	4421.27
418.45	4301.90
418.64	4477.44
418.83	4355.74
419.02	4341.69
419.21	4528.94
419.39	4582.77
419.58	4636.60
419.77	4418.93
419.96	4575.75
420.15	4416.59
420.34	4498.51
420.53	4559.36
420.72	4711.50
420.91	4720.86
421.10	4606.17
421.29	4674.05
421.48	4772.35
421.67	4851.93
421.86	4734.90
422.05	4842.57
422.24	4704.48
422.43	4865.97
422.61	4781.71
422.80	4947.89
422.99	4912.78
423.18	4945.55
423.37	5085.98
423.56	4875.34
423.75	4922.15
423.94	4835.55
424.13	4514.89
424.32	4578.09
424.50	4919.81
424.69	5139.82
424.88	5097.69
425.07	4917.47
425.26	4973.64
425.45	4891.72
425.64	5018.11
425.83	5107.05
426.01	5107.05
426.20	5071.94
426.39	5097.69
426.58	5043.85
426.77	5160.88
426.96	5123.43
427.15	5093.01
427.33	5195.99
427.52	5282.59
427.71	5298.97
427.90	5158.54
428.09	5331.74
428.28	5385.57
428.46	5390.25
428.65	5254.50
428.84	5474.51
429.03	5373.87
429.22	5446.43
429.40	5371.53
429.59	5411.32
429.78	5329.40
429.97	5341.10
430.16	5579.84
430.34	5659.42
430.53	5713.25
430.72	5589.20
430.91	5542.39
431.10	5612.60
431.28	5844.32
431.47	5818.57
431.66	5820.91
431.85	5797.51
432.03	6057.31
432.22	6181.35
432.41	5799.85
432.60	6017.52
432.79	5935.60
432.97	5940.28
433.16	6216.46
433.35	5902.83
433.54	6043.26
433.72	6078.37
433.91	6047.94
434.10	6069.01
434.28	6122.84
434.47	6195.40
434.66	6300.72
434.85	6291.36
435.03	6352.21
435.22	6181.35
435.41	6420.09
435.59	6509.03
435.78	6335.83
435.97	6438.81
436.16	6368.60
436.34	6471.58
436.53	6464.56
436.72	6614.35
436.90	6394.34
437.09	6466.90
437.28	6539.46
437.46	6525.41
437.65	6569.88
437.84	6780.53
438.02	6644.78
438.21	6836.70
438.40	6675.21
438.58	7089.48
438.77	6916.28
438.96	6991.18
439.14	7059.06
439.33	7265.02
439.52	7169.06
439.70	7253.32
439.89	7281.41
440.08	7332.90
440.26	7403.11
440.45	7487.37
440.63	7426.52
440.82	7676.96
441.01	7606.74
441.19	7482.69
441.38	7772.92
441.57	7686.32
441.75	7894.63
441.94	7974.21
442.12	7992.93
442.31	7964.84
442.50	7922.71
442.68	7723.77
442.87	8112.30
443.05	8121.66
443.24	8091.23
443.43	8149.75
443.61	8294.86
443.80	8446.99
443.98	8126.34
444.17	7971.86
444.35	8292.52
444.54	8475.08
444.73	8411.89
444.91	8280.82
445.10	8442.31
445.28	8362.73
445.47	8355.71
445.65	8287.84
445.84	8362.73
446.02	8596.79
446.21	8205.92
446.39	8353.37
446.58	8503.17
446.77	8573.38
446.95	8121.66
447.14	8390.82
447.32	8702.11
447.51	8388.48
447.69	8517.21
447.88	8678.71
448.06	8493.80
448.25	8428.27
448.43	8524.23
448.62	8524.23
448.80	8683.39
448.99	8751.26
449.17	8777.01
449.36	8608.49
449.54	8758.28
449.73	9074.26
449.91	8929.14
450.10	8912.76
450.28	8978.30
450.46	9092.98
450.65	9226.39
450.83	9118.73
451.02	9102.34
451.20	9156.18
451.39	9217.03
451.57	9207.67
451.76	9142.13
451.94	9158.52
452.13	9603.22
452.31	9427.68
452.49	9338.74
452.68	9334.06
452.86	9530.66
453.05	9411.29
453.23	9682.80
453.42	9373.85
453.60	9352.78
453.78	9586.83
453.97	9518.96
454.15	9579.81
454.34	9415.98
454.52	9867.70
454.70	9734.29
454.89	9724.93
455.07	10057.28
455.26	9682.80
455.44	9947.28
455.62	10071.33
455.81	10001.11
455.99	9851.31
456.17	10033.88
456.36	10270.27
456.54	10338.15
456.73	10331.12
456.91	10602.63
457.09	10281.97
457.28	10546.45
457.46	10443.47
457.64	10679.86
457.83	10523.05
458.01	10394.32
458.19	10752.42
458.38	10373.25
458.56	10649.44
458.74	10892.85
458.93	10888.17
459.11	10698.59
459.29	10729.02
459.48	10956.05
459.66	10761.78
459.84	10972.43
460.03	10939.66
460.21	10995.84
460.39	11077.76
460.57	11124.57
460.76	11328.19
460.94	10979.45
461.12	10909.24
461.31	11328.19
461.49	11428.84
461.67	11456.92
461.85	11342.24
462.04	11318.83
462.22	11620.76
462.40	11583.31
462.59	11403.09
462.77	11548.20
462.95	11522.46
463.13	11651.19
463.32	11580.97
463.50	11784.60
463.68	11726.08
463.86	11906.31
464.05	11623.10
464.23	11693.32
464.41	12091.21
464.59	11772.89
464.78	12095.89
464.96	12032.69
465.14	12074.82
465.32	11969.50
465.50	12266.75
465.69	12166.10
465.87	12226.96
466.05	12353.35
466.23	12058.44
466.41	12072.48
466.60	12343.99
466.78	12404.84
466.96	11971.84
467.14	12353.35
467.32	12741.88
467.51	12659.96
467.69	12468.03
467.87	12477.40
468.05	12662.30
468.23	12519.53
468.41	12531.23
468.60	12582.72
468.78	12819.11
468.96	12542.93
469.14	12877.63
469.32	13015.72
469.50	12788.69
469.69	13048.49
469.87	13392.55
470.05	13238.07
470.23	13188.92
470.41	13088.28
470.59	13415.95
470.77	13123.38
470.95	13172.54
471.14	13816.18
471.32	13116.36
471.50	13544.68
471.68	13493.19
471.86	13935.55
472.04	13909.80
472.22	13991.72
472.40	13593.83
472.58	14057.26
472.77	14064.28
472.95	14171.94
473.13	14792.19
473.31	14064.28
473.49	13893.42
473.67	14120.45
473.85	14108.75
474.03	14665.80
474.21	14614.30
474.39	14651.75
474.57	14530.05
474.75	14956.02
474.93	14895.17
475.12	14892.83
475.30	15040.28
475.48	14836.66
475.66	15356.25
475.84	15091.77
476.02	15356.25
476.20	15147.95
476.38	15751.81
476.56	15920.32
476.74	15866.49
476.92	16161.40
477.10	15779.89
477.28	16240.98
477.46	16100.55
477.64	16432.90
477.82	16669.30
478.00	17111.66
478.18	16758.24
478.36	16741.85
478.54	17263.79
478.72	17064.85
478.90	17418.27
479.08	17633.60
479.26	17582.10
479.44	17867.65
479.62	17748.28
479.80	18113.41
479.98	18356.82
480.16	18427.04
480.34	18235.11
480.52	18581.51
480.70	18469.17
480.88	18429.38
481.06	18792.16
481.24	18628.32
481.41	19035.58
481.59	19559.86
481.77	19892.21
481.95	19786.89
482.13	19831.36
482.31	19679.22
482.49	20390.75
482.67	20156.69
482.85	20423.51
483.03	20484.37
483.21	20751.19
483.39	20788.64
483.57	20837.79
483.74	20884.60
483.92	21427.60
484.10	20889.28
484.28	21633.57
484.46	22075.93
484.64	22394.25
484.82	22092.32
485.00	22452.76
485.18	22834.27
485.35	22869.37
485.53	22752.35
485.71	23023.85
485.89	23616.01
486.07	23498.98
486.25	23330.46
486.43	23702.61
486.61	24339.23
486.78	24013.90
486.96	24098.16
487.14	24692.65
487.32	24657.54
487.50	24772.23
487.68	24854.15
487.85	25151.40
488.03	25785.68
488.21	25818.45
488.39	26029.10
488.57	26174.21
488.75	26295.92
488.92	26778.07
489.10	26920.84
489.28	26614.23
489.46	27314.05
489.64	27204.05
489.81	27632.36
489.99	27693.22
490.17	27599.60
490.35	28348.57
490.53	28472.62
490.70	28418.78
490.88	28397.72
491.06	29219.25
491.24	29099.88
491.41	28854.12
491.59	29165.42
491.77	29181.80
491.95	29324.57
492.13	29954.18
492.30	30160.14
492.48	30073.54
492.66	30251.42
492.84	30377.81
493.01	30752.30
493.19	30518.25
493.37	30953.58
493.54	31402.97
493.72	31803.20
493.90	31250.83
494.08	31906.18
494.25	31927.25
494.43	31887.46
494.61	32030.23
494.79	32584.94
494.96	32514.72
495.14	32896.23
495.32	33418.17
495.49	32994.53
495.67	32875.16
495.85	33755.21
496.02	33816.06
496.20	34192.89
496.38	34036.07
496.55	34417.58
496.73	34841.21
496.91	34611.84
497.09	34452.69
497.26	35084.63
497.44	35255.49
497.62	35426.35
497.79	35496.56
497.97	35339.75
498.14	36088.72
498.32	36182.34
498.50	36453.84
498.67	36748.75
498.85	36477.25
499.03	37013.23
499.20	36854.08
499.38	36926.63
499.56	37376.01
499.73	37212.18
499.91	37521.13
500.08	37722.41
500.26	37687.31
500.44	37581.98
500.61	37799.65
500.79	37717.73
500.97	38115.62
501.14	38520.54
501.32	38806.08
501.49	38995.67
501.67	38756.93
501.84	39084.61
502.02	39000.35
502.20	39405.26
502.37	39440.37
502.55	39082.27
502.72	39798.47
502.90	39599.52
503.07	39847.62
503.25	39835.92
503.43	40006.78
503.60	40163.59
503.78	40641.06
503.95	40130.83
504.13	40364.88
504.30	40484.25
504.48	40645.74
504.65	41064.70
504.83	41043.63
505.01	41415.78
505.18	41118.53
505.36	41422.80
505.53	41443.87
505.71	41942.40
505.88	42075.81
506.06	41628.77
506.23	41890.91
506.41	41698.98
506.58	42094.53
506.76	42181.13
506.93	42930.11
507.11	42632.86
507.28	42770.95
507.46	42834.14
507.63	42857.55
507.81	43227.35
507.98	42990.96
508.16	43093.94
508.33	43384.17
508.50	43552.69
508.68	43934.20
508.85	44032.50
509.03	44170.59
509.20	44030.16
509.38	43819.51
509.55	44502.95
509.73	44559.12
509.90	45319.79
510.08	44889.13
510.25	44741.68
510.42	44306.34
510.60	45240.21
510.77	45282.34
510.95	45724.71
511.12	44802.53
511.30	45160.64
511.47	45378.31
511.64	45914.29
511.82	45895.56
511.99	45766.84
512.17	46045.36
512.34	45624.06
512.51	46000.89
512.69	46529.85
512.86	46548.57
513.04	46665.60
513.21	46611.77
513.38	46869.23
513.56	46817.74
513.73	47028.38
513.90	47143.07
514.08	47124.35
514.25	47480.11
514.43	47470.75
514.60	47627.56
514.77	47440.32
514.95	47817.14
515.12	47264.78
515.29	47681.39
515.47	48018.43
515.64	48032.47
515.81	47810.12
515.99	48072.26
516.16	48465.47
516.33	48418.66
516.51	48748.68
516.68	48406.96
516.85	48671.44
517.03	49052.95
517.20	48938.26
517.37	48835.28
517.54	49088.06
517.72	48914.86
517.89	49247.21
518.06	49179.34
518.24	49329.13
518.41	49492.97
518.58	49811.28
518.75	49315.09
518.93	50253.64
519.10	49525.74
519.27	49902.56
519.45	50080.44
519.62	49755.11
519.79	50064.06
519.96	49757.45
520.14	50216.19
520.31	50181.09
520.48	50522.80
520.65	50417.48
520.83	50794.31
521.00	50705.37
521.17	50539.19
521.34	50752.18
521.52	50794.31
521.69	50862.18
521.86	51250.71
522.03	51175.81
522.20	51409.87
522.38	51545.62
522.55	51648.60
522.72	51353.69
522.89	51477.74
523.07	51620.52
523.24	51812.44
523.41	51732.86
523.58	51494.13
523.75	51819.46
523.92	51760.95
524.10	51948.19
524.27	52095.64
524.44	52105.01
524.61	52041.81
524.78	52055.85
524.96	52266.50
525.13	52088.62
525.30	52580.13
525.47	52411.62
525.64	52374.17
525.81	52374.17
525.98	52978.03
526.16	52617.58
526.33	52622.26
526.50	53059.94
526.67	52978.03
526.84	53073.99
527.01	52823.55
527.18	53118.46
527.36	53221.44
527.53	53319.74
527.70	53097.39
527.87	53380.60
528.04	53392.30
528.21	53301.02
528.38	53251.87
528.55	53581.88
528.72	53228.46
528.89	53614.65
529.07	53141.86
529.24	53478.90
529.41	53649.76
529.58	53574.86
529.75	53565.50
529.92	54019.56
530.09	53659.12
530.26	53893.18
530.43	54057.01
530.60	53879.13
530.77	53970.41
530.94	54281.70
531.11	53956.37
531.28	54422.14
531.46	54232.55
531.63	54202.13
531.80	54307.45
531.97	54328.52
532.14	54578.95
532.31	54536.82
532.48	54623.42
532.65	54827.05
532.82	54555.55
532.99	55002.59
533.16	54759.17
533.33	54845.77
533.50	55004.93
533.67	55105.57
533.84	54775.56
534.01	55051.74
534.18	54838.75
534.35	55330.26
534.52	55288.13
534.69	55222.60
534.86	55180.47
535.03	55014.29
535.20	55442.61
535.37	55458.99
535.54	55557.30
535.71	55374.73
535.88	55557.30
536.05	55753.90
536.22	55634.53
536.38	55758.58
536.55	55512.83
536.72	55671.98
536.89	55690.71
537.06	55688.37
537.23	55927.10
537.40	55746.88
537.57	55344.31
537.74	55840.50
537.91	56170.52
538.08	55985.61
538.25	55627.51
538.42	56114.34
538.59	56088.60
538.75	55945.83
538.92	55969.23
539.09	56292.22
539.26	56212.65
539.43	55994.98
539.60	56339.04
539.77	56317.97
539.94	56587.13
540.11	56378.82
540.28	56495.85
540.44	56486.49
540.61	56535.64
540.78	56409.25
540.95	56598.83
541.12	56446.70
541.29	56439.68
541.46	56704.16
541.62	56451.38
541.79	56942.89
541.96	56458.40
542.13	56488.83
542.30	56622.24
542.47	56779.06
542.63	56912.47
542.80	56839.91
542.97	57113.75
543.14	57055.24
543.31	57312.70
543.48	57411.00
543.64	57436.75
543.81	57420.36
543.98	57652.08
544.15	57418.02
544.32	57572.50
544.48	57509.30
544.65	57354.83
544.82	57457.81
544.99	57345.47
545.16	57453.13
545.32	57474.20
545.49	57626.33
545.66	57846.34
545.83	57787.83
546.00	57560.79
546.16	57572.50
546.33	57523.35
546.50	57666.12
546.67	57792.51
546.83	57329.08
547.00	57640.37
547.17	57757.40
547.34	57846.34
547.50	58206.78
547.67	57998.48
547.84	57860.38
548.00	58218.49
548.17	58307.43
548.34	58127.20
548.51	58279.34
548.67	58127.20
548.84	58288.70
549.01	58265.30
549.18	57998.48
549.34	58312.11
549.51	58356.58
549.68	58391.68
549.84	58361.26
550.01	58377.64
550.18	58429.13
550.34	58550.84
550.51	58574.25
550.68	58588.29
550.84	58443.18
551.01	58635.10
551.18	58670.21
551.34	58585.95
551.51	58738.08
551.68	58515.73
551.84	58742.77
552.01	58611.70
552.18	58646.80
552.34	58560.20
552.51	58946.39
552.68	58429.13
552.84	58518.07
553.01	59157.04
553.18	59035.33
553.34	58962.78
553.51	58695.95
553.67	58866.81
553.84	58946.39
554.01	58869.15
554.17	59058.74
554.34	59032.99
554.51	58976.82
554.67	59217.89
554.84	59018.95
555.00	59110.23
555.17	59018.95
555.33	59210.87
555.50	59011.93
555.67	58901.92
555.83	59196.83
556.00	59238.96
556.16	59206.19
556.33	59540.89
556.50	59215.55
556.66	59538.55
556.83	59096.19
556.99	59430.88
557.16	59491.74
557.32	59409.82
557.49	59693.02
557.65	59341.94
557.82	59208.53
557.98	59447.27
558.15	59501.10
558.32	59465.99
558.48	59381.73
558.65	59400.46
558.81	59573.66
558.98	59728.13
559.14	59770.26
559.31	59845.16
559.47	59458.97
559.64	59770.26
559.80	59859.20
559.97	59877.93
560.13	59566.63
560.30	59807.71
560.46	59643.87
560.63	59770.26
560.79	59756.22
560.96	59845.16
561.12	59898.99
561.29	59903.67
561.45	59920.05
561.61	59760.90
561.78	59884.95
561.94	59781.96
562.11	59943.46
562.27	59763.24
562.44	60065.17
562.60	60004.31
562.77	59891.97
562.93	59718.77
563.10	60238.37
563.26	60086.23
563.42	60245.39
563.59	60142.41
563.75	59964.52
563.92	60062.83
564.08	60001.97
564.24	60285.18
564.41	60149.43
564.57	60196.24
564.74	60306.24
564.90	59990.27
565.07	60048.78
565.23	60191.56
565.39	60243.05
565.56	60060.49
565.72	60259.43
565.88	60097.94
566.05	60306.24
566.21	60402.21
566.38	60418.59
566.54	60303.90
566.70	60406.89
566.87	60610.51
567.03	60296.88
567.19	60444.33
567.36	60257.09
567.52	60320.29
567.68	60446.68
567.85	60402.21
568.01	60615.19
568.17	60224.32
568.34	60559.02
568.50	60271.14
568.66	60381.14
568.83	60498.17
568.99	60371.78
569.15	60409.23
569.32	60477.10
569.48	60210.28
569.64	60544.98
569.81	60530.93
569.97	60238.37
570.13	60537.96
570.30	60437.31
570.46	60617.53
570.62	60605.83
570.78	60619.88
570.95	60523.91
571.11	60755.63
571.27	60486.46
571.43	60580.09
571.60	60788.39
571.76	60549.66
571.92	60654.98
572.09	60643.28
572.25	60610.51
572.41	60589.45
572.57	60409.23
572.74	61050.53
572.90	60458.38
573.06	60774.35
573.22	60764.99
573.38	60680.73
573.55	60725.20
573.71	60851.59
573.87	60643.28
574.03	60715.84
574.20	60612.85
574.36	60720.52
574.52	60769.67
574.68	60762.65
574.84	60903.08
575.01	60800.10
575.17	61057.56
575.33	60720.52
575.49	60474.76
575.65	60961.59
575.82	60825.84
575.98	60727.54
576.14	61059.90
576.30	61083.30
576.46	60903.08
576.62	60713.50
576.79	60706.47
576.95	60699.45
577.11	60699.45
577.27	60821.16
577.43	60804.78
577.59	60823.50
577.75	60659.66
577.92	60577.75
578.08	60896.06
578.24	60708.82
578.40	60954.57
578.56	61244.80
578.72	60980.32
578.88	61057.56
579.04	61176.92
579.21	60956.91
579.37	61003.72
579.53	61064.58
579.69	60690.09
579.85	60963.93
580.01	60938.19
580.17	60863.29
580.33	60872.65
580.49	60945.21
580.65	61066.92
580.82	60732.22
580.98	60886.70
581.14	60884.36
581.30	61099.68
581.46	60935.85
581.62	60935.85
581.78	60828.18
581.94	61066.92
582.10	60839.89
582.26	60879.67
582.42	60870.31
582.58	60874.99
582.74	61008.40
582.90	60985.00
583.06	60926.49
583.22	60867.97
583.38	60886.70
583.54	61024.79
583.70	61022.45
583.86	61148.84
584.02	60921.80
584.18	61195.65
584.34	60949.89
584.50	61052.87
584.66	60851.59
584.82	60900.74
584.98	61141.81
585.14	60896.06
585.30	60968.61
585.46	61272.88
585.62	61041.17
585.78	61134.79
585.94	60912.44
586.10	60800.10
586.26	61006.06
586.42	61258.84
586.58	61132.45
586.74	61137.13
586.90	61041.17
587.06	60961.59
587.22	61050.53
587.38	61165.22
587.54	61272.88
587.70	61319.70
587.86	61284.59
588.02	61073.94
588.18	61181.60
588.34	61092.66
588.49	61144.16
