SpectraSuite Data File
++++++++++++++++++++++++++++++++++++
Date: Fri Oct 25 10:43:14 EDT 2013
User: price-jones
Dark Spectrum Present: No
Reference Spectrum Present: No
Number of Sampled Component Spectra: 1
Spectrometers: USB2+H05261
Integration Time (usec): 100000 (USB2+H05261)
Spectra Averaged: 1 (USB2+H05261)
Boxcar Smoothing: 0 (USB2+H05261)
Correct for Electrical Dark: No (USB2+H05261)
Strobe/Lamp Enabled: No (USB2+H05261)
Correct for Detector Non-linearity: No (USB2+H05261)
Correct for Stray Light: No (USB2+H05261)
Number of Pixels in Processed Spectrum: 2048
>>>>>Begin Processed Spectral Data<<<<<
365.73	44.47
365.92	44.47
366.12	44.47
366.32	0.00
366.52	0.00
366.72	28.09
366.91	28.09
367.11	49.15
367.31	9.36
367.51	30.43
367.70	11.70
367.90	0.00
368.10	0.00
368.30	23.41
368.49	39.79
368.69	93.62
368.89	39.79
369.09	72.56
369.28	102.98
369.48	28.09
369.68	88.94
369.87	67.88
370.07	102.98
370.27	154.48
370.47	180.22
370.66	395.55
370.86	416.62
371.06	374.49
371.25	430.66
371.45	397.89
371.65	510.24
371.84	416.62
372.04	531.30
372.24	505.56
372.44	465.77
372.63	500.87
372.83	550.03
373.03	559.39
373.22	519.60
373.42	575.77
373.62	503.22
373.81	470.45
374.01	540.66
374.21	543.00
374.40	543.00
374.60	543.00
374.79	550.03
374.99	545.34
375.19	608.54
375.38	580.45
375.58	594.50
375.78	634.29
375.97	531.30
376.17	664.71
376.37	613.22
376.56	606.20
376.76	575.77
376.95	566.41
377.15	589.82
377.35	685.78
377.54	655.35
377.74	667.05
377.93	627.26
378.13	622.58
378.33	615.56
378.52	713.86
378.72	685.78
378.91	559.39
379.11	603.86
379.31	667.05
379.50	692.80
379.70	713.86
379.89	709.18
380.09	678.76
380.28	746.63
380.48	751.31
380.68	650.67
380.87	617.90
381.07	732.59
381.26	774.72
381.46	608.54
381.65	662.37
381.85	671.73
382.04	755.99
382.24	755.99
382.43	744.29
382.63	685.78
382.83	739.61
383.02	793.44
383.22	784.08
383.41	741.95
383.61	760.67
383.80	751.31
384.00	755.99
384.19	751.31
384.39	795.78
384.58	739.61
384.78	765.36
384.97	807.48
385.17	788.76
385.36	767.70
385.56	772.38
385.75	826.21
385.95	760.67
386.14	840.25
386.34	868.34
386.53	840.25
386.72	781.74
386.92	805.14
387.11	812.17
387.31	847.27
387.50	868.34
387.70	945.58
387.89	823.87
388.09	802.80
388.28	847.27
388.48	877.70
388.67	959.62
388.86	990.05
389.06	938.55
389.25	931.53
389.45	915.15
389.64	961.96
389.84	978.34
390.03	954.94
390.22	994.73
390.42	1067.28
390.61	945.58
390.81	997.07
391.00	1034.52
391.19	1067.28
391.39	968.98
391.58	1116.44
391.78	1027.50
391.97	1107.07
392.16	1043.88
392.36	1055.58
392.55	1036.86
392.75	950.26
392.94	940.90
393.13	1029.84
393.33	957.28
393.52	1111.75
393.71	1076.65
393.91	1111.75
394.10	1139.84
394.29	1163.25
394.49	1090.69
394.68	1149.20
394.88	1193.67
395.07	1165.59
395.26	1139.84
395.46	1252.19
395.65	1263.89
395.84	1205.38
396.04	1310.70
396.23	1198.35
396.42	1196.01
396.62	1214.74
396.81	1207.72
397.00	1331.76
397.19	1291.98
397.39	1247.51
397.58	1303.68
397.77	1369.21
397.97	1299.00
398.16	1444.11
398.35	1348.15
398.55	1437.09
398.74	1547.09
398.93	1458.15
399.12	1411.34
399.32	1636.03
399.51	1516.67
399.70	1542.41
399.90	1521.35
400.09	1682.85
400.28	1633.69
400.47	1654.76
400.67	1664.12
400.86	1715.61
401.05	1589.22
401.24	1792.85
401.44	1722.63
401.63	1736.68
401.82	1736.68
402.01	1657.10
402.21	1713.27
402.40	1783.49
402.59	1743.70
402.78	1837.32
402.97	1696.89
403.17	1846.68
403.36	1795.19
403.55	1844.34
403.74	1884.13
403.93	1872.43
404.13	1774.13
404.32	1816.26
404.51	1891.15
404.70	1970.73
404.89	1888.81
405.09	1987.11
405.28	2008.18
405.47	1980.09
405.66	1968.39
405.85	1849.02
406.05	1870.09
406.24	1991.80
406.43	2029.24
406.62	2001.16
406.81	2188.40
407.00	2064.35
407.20	2148.61
407.39	1916.90
407.58	2064.35
407.77	2195.42
407.96	2122.87
408.15	2221.17
408.34	2148.61
408.54	2094.78
408.73	2326.49
408.92	2181.38
409.11	2272.66
409.30	2352.24
409.49	2314.79
409.68	2253.94
409.87	2394.37
410.07	2284.36
410.26	2387.35
410.45	2434.16
410.64	2413.09
410.83	2511.39
411.02	2527.78
411.21	2656.51
411.40	2546.50
411.59	2626.08
411.78	2597.99
411.98	2511.39
412.17	2715.02
412.36	2722.04
412.55	2654.17
412.74	2780.56
412.93	2754.81
413.12	2626.08
413.31	2946.73
413.50	2981.84
413.69	3007.59
413.88	2773.53
414.07	2855.45
414.26	2963.12
414.45	2841.41
414.64	2939.71
414.83	3049.72
415.02	3019.29
415.22	3019.29
415.41	3192.49
415.60	3063.76
415.79	3157.38
415.98	3346.97
416.17	3227.60
416.36	3187.81
416.55	3279.09
416.74	3330.58
416.93	3222.92
417.12	3379.73
417.31	3421.86
417.50	3349.31
417.69	3478.04
417.88	3463.99
418.07	3391.44
418.26	3501.44
418.45	3527.19
418.64	3585.70
418.83	3562.30
419.02	3487.40
419.21	3702.73
419.39	3578.68
419.58	3616.13
419.77	3651.24
419.96	3688.68
420.15	3602.08
420.34	3665.28
420.53	3845.50
420.72	3761.24
420.91	3784.65
421.10	3763.58
421.29	3833.80
421.48	3803.37
421.67	3911.04
421.86	3859.54
422.05	3775.28
422.24	3873.59
422.43	3838.48
422.61	3824.44
422.80	3852.52
422.99	3960.19
423.18	3906.35
423.37	3981.25
423.56	3983.59
423.75	3861.88
423.94	3772.94
424.13	3564.64
424.32	3770.60
424.50	4028.06
424.69	3969.55
424.88	3911.04
425.07	3911.04
425.26	3761.24
425.45	3918.06
425.64	3868.91
425.83	4105.30
426.01	3854.86
426.20	4011.68
426.39	3999.98
426.58	3969.55
426.77	3852.52
426.96	4032.74
427.15	3964.87
427.33	4037.42
427.52	4028.06
427.71	4215.30
427.90	4142.75
428.09	4119.34
428.28	4191.90
428.46	4086.58
428.65	4058.49
428.84	4365.10
429.03	4091.26
429.22	4051.47
429.40	3967.21
429.59	4287.86
429.78	3974.23
429.97	3995.29
430.16	3880.61
430.34	4056.15
430.53	4203.60
430.72	4194.24
430.91	4299.56
431.10	4379.14
431.28	4486.81
431.47	4704.48
431.66	4688.09
431.85	4514.89
432.03	4538.30
432.22	4753.63
432.41	4634.26
432.60	4608.51
432.79	4624.90
432.97	4847.25
433.16	4702.14
433.35	4606.17
433.54	4662.35
433.72	4554.68
433.91	4739.58
434.10	4791.08
434.28	4781.71
434.47	4889.38
434.66	4847.25
434.85	4910.44
435.03	4873.00
435.22	4896.40
435.41	5170.24
435.59	5008.75
435.78	5041.51
435.97	5174.92
436.16	5109.39
436.34	5186.63
436.53	5144.50
436.72	5200.67
436.90	4999.38
437.09	5039.17
437.28	5118.75
437.46	5097.69
437.65	5331.74
437.84	5252.16
438.02	5078.96
438.21	5069.60
438.40	5214.71
438.58	5249.82
438.77	5547.07
438.96	5558.77
439.14	5626.65
439.33	5675.80
439.52	5860.70
439.70	5486.22
439.89	5603.24
440.08	5715.59
440.26	5710.91
440.45	5696.86
440.63	5858.36
440.82	5881.77
441.01	5832.62
441.19	5991.77
441.38	6069.01
441.57	6008.16
441.75	6225.82
441.94	6408.39
442.12	6406.05
442.31	6291.36
442.50	6352.21
442.68	6239.87
442.87	6251.57
443.05	6298.38
443.24	6384.98
443.43	6314.77
443.61	6415.41
443.80	6612.01
443.98	6197.74
444.17	6349.87
444.35	6469.24
444.54	6640.10
444.73	6431.79
444.91	6347.53
445.10	6494.99
445.28	6473.92
445.47	6370.94
445.65	6401.37
445.84	6441.15
446.02	6736.06
446.21	6600.31
446.39	6473.92
446.58	6499.67
446.77	6654.14
446.95	6647.12
447.14	6764.15
447.32	6888.20
447.51	6635.42
447.69	6754.79
447.88	6757.13
448.06	6588.61
448.25	6745.42
448.43	6796.92
448.62	6689.25
448.80	6689.25
448.99	6841.39
449.17	6761.81
449.36	6693.93
449.54	6958.41
449.73	7173.74
449.91	7197.15
450.10	7108.21
450.28	7213.53
450.46	7190.13
450.65	7232.26
450.83	7248.64
451.02	7073.10
451.20	7342.26
451.39	7309.49
451.57	7328.22
451.76	7101.19
451.94	7061.40
452.13	7276.73
452.31	7204.17
452.49	6949.05
452.68	7227.57
452.86	7166.72
453.05	7246.30
453.23	7332.90
453.42	7417.16
453.60	7342.26
453.78	7655.89
453.97	7279.07
454.15	7389.07
454.34	7412.48
454.52	7475.67
454.70	7482.69
454.89	7672.28
455.07	7599.72
455.26	7770.58
455.44	7606.74
455.62	7756.54
455.81	7721.43
455.99	7889.95
456.17	7819.73
456.36	7805.69
456.54	7885.26
456.73	7964.84
456.91	8194.22
457.09	8035.06
457.28	8397.84
457.46	8102.93
457.64	8095.91
457.83	8074.85
458.01	8049.10
458.19	8245.71
458.38	8191.88
458.56	8285.50
458.74	8313.58
458.93	8351.03
459.11	8306.56
459.29	8266.77
459.48	8285.50
459.66	8365.07
459.84	8243.37
460.03	8622.53
460.21	8458.70
460.39	8475.08
460.57	8592.11
460.76	8432.95
460.94	8854.25
461.12	8514.87
461.31	8592.11
461.49	8489.12
461.67	8657.64
461.85	8940.85
462.04	9071.92
462.22	9362.14
462.40	8786.37
462.59	8842.54
462.77	8816.80
462.95	8819.14
463.13	8713.81
463.32	8879.99
463.50	9018.08
463.68	9149.15
463.86	8936.17
464.05	8812.12
464.23	8931.48
464.41	9069.58
464.59	8968.93
464.78	9210.01
464.96	9151.49
465.14	8959.57
465.32	9116.39
465.50	9210.01
465.69	9376.19
465.87	9027.45
466.05	8990.00
466.23	9071.92
466.41	9090.64
466.60	9179.58
466.78	9249.80
466.96	9198.31
467.14	9430.02
467.32	9476.83
467.51	9650.03
467.69	9069.58
467.87	9591.52
468.05	9345.76
468.23	9170.22
468.41	9455.76
468.60	9401.93
468.78	9528.32
468.96	9525.98
469.14	9713.22
469.32	9781.10
469.50	9570.45
469.69	9596.20
469.87	9771.74
470.05	9848.97
470.23	9881.74
470.41	9790.46
470.59	9816.21
470.77	9963.66
470.95	9949.62
471.14	10136.86
471.32	9853.66
471.50	10253.89
471.68	10216.44
471.86	10125.16
472.04	10361.55
472.22	10516.03
472.40	10171.97
472.58	10279.63
472.77	10401.34
472.95	10478.58
473.13	10717.31
473.31	10656.46
473.49	10420.06
473.67	10822.64
473.85	10539.43
474.03	10965.41
474.21	10857.75
474.39	10927.96
474.57	10876.47
474.75	11063.71
474.93	11171.38
475.12	10972.43
475.30	11316.49
475.48	11304.79
475.66	11351.60
475.84	11084.78
476.02	11435.86
476.20	11309.47
476.38	11520.12
476.56	11992.90
476.74	11587.99
476.92	11791.62
477.10	12131.00
477.28	11981.20
477.46	12009.29
477.64	12046.74
477.82	12456.33
478.00	12634.21
478.18	12774.64
478.36	12435.27
478.54	12564.00
478.72	12652.94
478.90	12994.65
479.08	12989.97
479.26	13282.54
479.44	13039.12
479.62	13298.92
479.80	13125.72
479.98	13441.70
480.16	13912.14
480.34	13874.70
480.52	13785.76
480.70	13680.43
480.88	13584.47
481.06	13750.65
481.24	14122.79
481.41	14223.44
481.59	14438.76
481.77	14485.58
481.95	14445.79
482.13	14794.53
482.31	14696.22
482.49	14902.19
482.67	14897.51
482.85	15194.76
483.03	15229.87
483.21	15311.78
483.39	15594.99
483.57	15325.83
483.74	15557.54
483.92	15536.48
484.10	15651.16
484.28	15920.32
484.46	15903.94
484.64	16407.16
484.82	16168.42
485.00	16053.73
485.18	16491.41
485.35	16198.85
485.53	16418.86
485.71	16145.02
485.89	16264.38
486.07	16435.24
486.25	16620.14
486.43	16823.77
486.61	16727.81
486.78	17268.47
486.96	17420.61
487.14	17628.92
487.32	17877.01
487.50	17970.63
487.68	18153.20
487.85	18279.58
488.03	18361.50
488.21	18394.27
488.39	18555.77
488.57	18934.93
488.75	18771.10
488.92	19009.83
489.10	19358.57
489.28	19545.81
489.46	19714.33
489.64	19578.58
489.81	19976.47
489.99	20067.75
490.17	20262.02
490.35	20226.91
490.53	20236.27
490.70	20238.61
490.88	20299.47
491.06	20622.46
491.24	20741.83
491.41	20645.87
491.59	20891.62
491.77	20725.44
491.95	20973.54
492.13	21205.25
492.30	21436.97
492.48	21743.58
492.66	21619.53
492.84	22146.15
493.01	21972.95
493.19	21914.44
493.37	22120.40
493.54	22361.48
493.72	22274.88
493.90	22441.06
494.08	22881.08
494.25	23229.82
494.43	22986.40
494.61	23051.94
494.79	23304.71
494.96	23117.47
495.14	23267.27
495.32	23456.85
495.49	23456.85
495.67	23775.16
495.85	23981.13
496.02	23854.74
496.20	24226.89
496.38	24142.63
496.55	24489.03
496.73	25207.57
496.91	24758.19
497.09	24987.56
497.26	24985.22
497.44	25322.26
497.62	24861.17
497.79	25509.50
497.97	25076.50
498.14	25209.91
498.32	25851.22
498.50	25591.42
498.67	25869.94
498.85	26164.85
499.03	26061.87
499.20	26101.65
499.38	26324.01
499.56	26422.31
499.73	26171.87
499.91	26712.53
500.08	26405.92
500.26	26162.51
500.44	26628.27
500.61	26686.79
500.79	26319.32
500.97	26923.18
501.14	26948.93
501.32	26843.60
501.49	27328.10
501.67	27056.59
501.84	27295.33
502.02	27075.32
502.20	27737.69
502.37	27946.00
502.55	27882.80
502.72	28048.98
502.90	28203.46
503.07	27882.80
503.25	28051.32
503.43	27814.93
503.60	28203.46
503.78	27922.59
503.95	28109.83
504.13	28013.87
504.30	28524.11
504.48	28435.17
504.65	28914.98
504.83	28849.44
505.01	29060.09
505.18	29069.45
505.36	29209.89
505.53	28947.75
505.71	29539.90
505.88	29443.94
506.06	29237.97
506.23	29497.77
506.41	29046.05
506.58	29439.26
506.76	29984.60
506.93	30132.06
507.11	30164.82
507.28	29947.15
507.46	29713.10
507.63	29837.15
507.81	29977.58
507.98	29944.81
508.16	30380.15
508.33	30033.75
508.50	30429.30
508.68	30644.63
508.85	30878.69
509.03	31152.53
509.20	31061.25
509.38	31236.79
509.55	31374.88
509.73	31220.41
509.90	31274.24
510.08	30859.96
510.25	31590.21
510.42	31438.08
510.60	31725.96
510.77	31644.04
510.95	31976.40
511.12	31386.58
511.30	31910.86
511.47	32435.14
511.64	32048.96
511.82	32498.34
511.99	31728.30
512.17	32229.18
512.34	31995.12
512.51	32376.63
512.69	32409.40
512.86	32673.88
513.04	32837.72
513.21	32589.62
513.38	32945.38
513.56	32451.53
513.73	32781.54
513.90	32889.21
514.08	32285.35
514.25	33062.41
514.43	32903.25
514.60	33074.11
514.77	33184.12
514.95	33574.98
515.12	33376.04
515.29	33338.59
515.47	33890.96
515.64	34005.64
515.81	33275.40
515.99	33748.18
516.16	33626.48
516.33	33394.76
516.51	33352.63
516.68	32971.13
516.85	33338.59
517.03	33230.93
517.20	33589.03
517.37	34162.46
517.54	34026.71
517.72	34614.18
517.89	33954.15
518.06	33876.91
518.24	34220.97
518.41	33769.25
518.58	34469.07
518.75	34852.92
518.93	34763.98
519.10	34462.05
519.27	34810.79
519.45	34803.77
519.62	35194.64
519.79	35213.36
519.96	34986.33
520.14	35529.33
520.31	35227.40
520.48	34991.01
520.65	35449.75
520.83	35564.44
521.00	35517.63
521.17	35992.76
521.34	36123.83
521.52	35906.16
521.69	35681.47
521.86	35990.42
522.03	36133.19
522.20	35964.67
522.38	36236.17
522.55	36254.90
522.72	36194.04
522.89	36341.50
523.07	36526.40
523.24	36315.75
523.41	36814.29
523.58	36804.92
523.75	37357.29
523.92	37270.69
524.10	36926.63
524.27	36985.15
524.44	37038.98
524.61	37221.54
524.78	37663.90
524.96	37376.01
525.13	37436.87
525.30	37759.86
525.47	37801.99
525.64	38078.18
525.81	37184.09
525.98	37308.14
526.16	37118.56
526.33	36975.78
526.50	37247.29
526.67	36879.82
526.84	37130.26
527.01	37240.26
527.18	37675.60
527.36	37919.02
527.53	37904.98
527.70	38569.69
527.87	38302.87
528.04	38085.20
528.21	38300.53
528.38	38541.60
528.55	38763.95
528.72	38679.69
528.89	38583.73
529.07	38424.57
529.24	38162.43
529.41	38548.62
529.58	38719.48
529.75	38335.63
529.92	39037.80
530.09	39075.24
530.26	39103.33
530.43	39189.93
530.60	38752.25
530.77	39363.13
530.94	39758.68
531.11	39210.99
531.28	39145.46
531.46	39449.73
531.63	39374.83
531.80	38878.64
531.97	39510.58
532.14	38918.43
532.31	38653.95
532.48	39028.43
532.65	39660.38
532.82	39526.97
532.99	39629.95
533.16	39445.05
533.33	39636.97
533.50	39756.34
533.67	39831.24
533.84	40062.95
534.01	40507.65
534.18	39859.32
534.35	40116.78
534.52	39489.52
534.69	40481.91
534.86	40407.01
535.03	40163.59
535.20	40615.32
535.37	40395.31
535.54	40795.54
535.71	40147.21
535.88	40404.67
536.05	40804.90
536.22	40636.38
536.38	40697.24
536.55	40512.33
536.72	40407.01
536.89	40123.80
537.06	40474.88
537.23	40835.33
537.40	40947.67
537.57	41104.49
537.74	40713.62
537.91	41488.34
538.08	41053.00
538.25	40730.00
538.42	41153.64
538.59	41235.56
538.75	40938.31
538.92	40725.32
539.09	41448.55
539.26	41020.23
539.43	40741.71
539.60	41448.55
539.77	40744.05
539.94	41401.74
540.11	41109.17
540.28	41368.97
540.44	41659.20
540.61	41642.81
540.78	41226.20
540.95	41418.12
541.12	41148.96
541.29	41619.41
541.46	41354.93
541.62	41769.20
541.79	41982.19
541.96	41464.93
542.13	41827.71
542.30	41340.88
542.47	41921.34
542.63	41598.34
542.80	42064.11
542.97	41731.75
543.14	42536.90
543.31	42057.09
543.48	42707.76
543.64	42871.59
543.81	42618.81
543.98	42862.23
544.15	42871.59
544.32	42904.36
544.48	42869.25
544.65	42595.41
544.82	42707.76
544.99	42263.05
545.16	42408.17
545.32	42618.81
545.49	42965.21
545.66	43147.78
545.83	42651.58
546.00	43353.74
546.16	42672.65
546.33	42749.88
546.50	42387.10
546.67	43253.10
546.83	42873.93
547.00	42738.18
547.17	43037.77
547.34	42892.66
547.50	42780.31
547.67	43428.64
547.84	43236.72
548.00	43201.61
548.17	43863.98
548.34	43372.47
548.51	43447.36
548.67	43487.15
548.84	43356.08
549.01	43519.92
549.18	43358.42
549.34	43260.12
549.51	42939.47
549.68	43339.70
549.84	43592.48
550.01	44182.29
550.18	43704.82
550.34	43775.04
550.51	43882.70
550.68	43700.14
550.84	43309.27
551.01	43590.14
551.18	43508.22
551.34	43765.68
551.51	44076.97
551.68	44306.34
551.84	44186.97
552.01	43826.53
552.18	43660.35
552.34	43957.60
552.51	43896.75
552.68	44395.28
552.84	44325.07
553.01	44105.06
553.18	44383.58
553.34	44624.65
553.51	44376.56
553.67	44093.35
553.84	44641.04
554.01	44535.71
554.17	44481.88
554.34	44458.48
554.51	44690.19
554.67	44818.92
554.84	44809.56
555.00	44247.83
555.17	44306.34
555.33	44844.66
555.50	44568.48
555.67	44573.16
555.83	44114.42
556.00	44601.25
556.16	45013.18
556.33	44526.35
556.50	44624.65
556.66	44914.88
556.83	44486.56
556.99	44914.88
557.16	45254.26
557.32	44706.57
557.49	45155.96
557.65	45052.97
557.82	44706.57
557.98	45109.14
558.15	44678.49
558.32	44755.72
558.48	44432.73
558.65	44687.85
558.81	44832.96
558.98	44325.07
559.14	44334.43
559.31	44699.55
559.47	45371.28
559.64	45460.23
559.80	45425.12
559.97	45155.96
560.13	44779.13
560.30	44942.97
560.46	45118.51
560.63	45427.46
560.79	45603.00
560.96	45453.20
561.12	45200.43
561.29	45277.66
561.45	44971.05
561.61	45078.72
561.78	45315.11
561.94	45003.82
562.11	45043.61
562.27	45088.08
562.44	45567.89
562.60	45399.37
562.77	45184.04
562.93	45247.24
563.10	45600.66
563.26	45198.09
563.42	45481.29
563.59	45179.36
563.75	44884.45
563.92	45188.72
564.08	45228.51
564.24	45546.82
564.41	45404.05
564.57	44945.31
564.74	45137.23
564.90	45336.18
565.07	45429.80
565.23	45570.23
565.39	45069.36
565.56	45301.07
565.72	45242.56
565.88	45165.32
566.05	45275.32
566.21	45617.04
566.38	45137.23
566.54	45738.75
566.70	45954.08
566.87	45633.42
567.03	45698.96
567.19	46000.89
567.36	45801.94
567.52	45420.44
567.68	45869.82
567.85	45549.17
568.01	45762.15
568.17	45645.13
568.34	45574.91
568.50	45565.55
568.66	45385.33
568.83	45680.24
568.99	45675.55
569.15	45525.76
569.32	45193.40
569.48	45514.06
569.64	45752.79
569.81	45989.19
569.97	45717.68
570.13	45652.15
570.30	45284.68
570.46	45572.57
570.62	45195.74
570.78	44928.92
570.95	45242.56
571.11	45570.23
571.27	45640.45
571.43	45776.20
571.60	45457.88
571.76	45713.00
571.92	45954.08
572.09	45631.08
572.25	45979.82
572.41	45668.53
572.57	45958.76
572.74	46265.37
572.90	45935.35
573.06	45834.71
573.22	45703.64
573.38	45677.90
573.55	45404.05
573.71	45827.69
573.87	45720.02
574.03	45106.80
574.20	45476.61
574.36	45420.44
574.52	46052.38
574.68	45633.42
574.84	45872.16
575.01	45504.70
575.17	45530.44
575.33	45717.68
575.49	45914.29
575.65	46164.73
575.82	45635.77
575.98	46005.57
576.14	46447.93
576.30	45975.14
576.46	45886.20
576.62	45567.89
576.79	45422.78
576.95	45399.37
577.11	45965.78
577.27	46026.63
577.43	45476.61
577.59	45375.97
577.75	45684.92
577.92	45312.77
578.08	45680.24
578.24	45556.19
578.40	45584.27
578.56	45366.60
578.72	45689.60
578.88	46211.54
579.04	45888.54
579.21	45806.62
579.37	45439.16
579.53	45579.59
579.69	45521.08
579.85	45846.41
580.01	45591.30
580.17	45647.47
580.33	46150.68
580.49	45874.50
580.65	46117.92
580.82	46274.73
580.98	45933.01
581.14	45787.90
581.30	46190.47
581.46	45879.18
581.62	46333.24
581.78	46045.36
581.94	46461.97
582.10	45738.75
582.26	45827.69
582.42	46103.87
582.58	45881.52
582.74	45485.97
582.90	45975.14
583.06	46038.34
583.22	46073.45
583.38	46256.01
583.54	45991.53
583.70	46003.23
583.86	45738.75
584.02	45570.23
584.18	46167.07
584.34	46248.99
584.50	46129.62
584.66	46082.81
584.82	45940.04
584.98	45963.44
585.14	45911.95
585.30	46295.80
585.46	46239.62
585.62	45778.54
585.78	45764.49
585.94	45645.13
586.10	45373.63
586.26	45722.37
586.42	46007.91
586.58	45785.56
586.74	46127.28
586.90	45734.07
587.06	45984.51
587.22	45937.69
587.38	45469.59
587.54	45764.49
587.70	46190.47
587.86	45787.90
588.02	46120.26
588.18	46036.00
588.34	45666.19
588.49	45853.44
588.65	45425.12
588.81	45581.93
588.97	45368.94
589.13	45265.96
589.29	45244.90
589.45	45502.35
589.61	45347.88
589.77	46017.27
589.93	46256.01
590.08	45890.88
