SpectraSuite Data File
++++++++++++++++++++++++++++++++++++
Date: Fri Oct 25 11:22:35 EDT 2013
User: price-jones
Dark Spectrum Present: No
Reference Spectrum Present: No
Number of Sampled Component Spectra: 1
Spectrometers: USB2+H05261
Integration Time (usec): 100000 (USB2+H05261)
Spectra Averaged: 1 (USB2+H05261)
Boxcar Smoothing: 0 (USB2+H05261)
Correct for Electrical Dark: No (USB2+H05261)
Strobe/Lamp Enabled: No (USB2+H05261)
Correct for Detector Non-linearity: No (USB2+H05261)
Correct for Stray Light: No (USB2+H05261)
Number of Pixels in Processed Spectrum: 2048
>>>>>Begin Processed Spectral Data<<<<<
365.73	252.78
365.92	252.78
366.12	252.78
366.32	177.88
366.52	161.50
366.72	159.16
366.91	140.43
367.11	152.13
367.31	114.69
367.51	84.26
367.70	102.98
367.90	114.69
368.10	60.85
368.30	147.45
368.49	170.86
368.69	152.13
368.89	135.75
369.09	149.79
369.28	107.66
369.48	126.39
369.68	196.60
369.87	227.03
370.07	177.88
370.27	173.20
370.47	351.08
370.66	512.58
370.86	585.13
371.06	610.88
371.25	690.46
371.45	617.90
371.65	655.35
371.84	589.82
372.04	730.25
372.24	706.84
372.44	669.39
372.63	718.54
372.83	709.18
373.03	697.48
373.22	788.76
373.42	760.67
373.62	720.88
373.81	781.74
374.01	819.19
374.21	800.46
374.40	770.04
374.60	840.25
374.79	837.91
374.99	833.23
375.19	770.04
375.38	828.55
375.58	898.77
375.78	816.85
375.97	870.68
376.17	936.21
376.37	891.74
376.56	851.96
376.76	905.79
376.95	847.27
377.15	858.98
377.35	931.53
377.54	891.74
377.74	931.53
377.93	875.36
378.13	959.62
378.33	854.30
378.52	873.02
378.72	926.85
378.91	936.21
379.11	940.90
379.31	940.90
379.50	1008.77
379.70	987.71
379.89	940.90
380.09	894.08
380.28	990.05
380.48	983.02
380.68	997.07
380.87	926.85
381.07	978.34
381.26	1086.01
381.46	1062.60
381.65	1022.81
381.85	1057.92
382.04	1022.81
382.24	1039.20
382.43	964.30
382.63	1004.09
382.83	1167.93
383.02	1132.82
383.22	1128.14
383.41	1067.28
383.61	1163.25
383.80	1165.59
384.00	1020.47
384.19	1116.44
384.39	1095.37
384.58	1114.10
384.78	1177.29
384.97	1191.33
385.17	1186.65
385.36	1153.88
385.56	1179.63
385.75	1193.67
385.95	1256.87
386.14	1203.04
386.34	1200.69
386.53	1217.08
386.72	1184.31
386.92	1277.93
387.11	1282.61
387.31	1277.93
387.50	1156.22
387.70	1198.35
387.89	1268.57
388.09	1249.85
388.28	1303.68
388.48	1348.15
388.67	1348.15
388.86	1420.71
389.06	1306.02
389.25	1268.57
389.45	1322.40
389.64	1397.30
389.84	1401.98
390.03	1270.91
390.22	1320.06
390.42	1472.20
390.61	1495.60
390.81	1329.42
391.00	1430.07
391.19	1427.73
391.39	1528.37
391.58	1416.02
391.78	1441.77
391.97	1446.45
392.16	1528.37
392.36	1469.86
392.55	1500.28
392.75	1537.73
392.94	1607.95
393.13	1540.07
393.33	1474.54
393.52	1600.93
393.71	1612.63
393.91	1577.52
394.10	1600.93
394.29	1584.54
394.49	1640.72
394.68	1596.25
394.88	1638.38
395.07	1687.53
395.26	1673.48
395.46	1692.21
395.65	1734.34
395.84	1795.19
396.04	1708.59
396.23	1788.17
396.42	1645.40
396.62	1696.89
396.81	1715.61
397.00	1724.97
397.19	1769.44
397.39	1811.57
397.58	1849.02
397.77	1802.21
397.97	1867.75
398.16	1888.81
398.35	1912.22
398.55	1832.64
398.74	1928.60
398.93	1900.52
399.12	1891.15
399.32	1926.26
399.51	1909.88
399.70	2012.86
399.90	1966.05
400.09	2015.20
400.28	2066.69
400.47	1968.39
400.67	1996.48
400.86	1996.48
401.05	2069.03
401.24	2139.25
401.44	2101.80
401.63	2113.50
401.82	2162.66
402.01	2207.13
402.21	2113.50
402.40	2211.81
402.59	2148.61
402.78	2284.36
402.97	2120.53
403.17	2207.13
403.36	2239.89
403.55	2377.98
403.74	2394.37
403.93	2352.24
404.13	2277.34
404.32	2429.48
404.51	2373.30
404.70	2532.46
404.89	2455.22
405.09	2457.56
405.28	2349.90
405.47	2518.42
405.66	2490.33
405.85	2544.16
406.05	2471.61
406.24	2509.05
406.43	2574.59
406.62	2602.68
406.81	2640.12
407.00	2651.83
407.20	2661.19
407.39	2633.10
407.58	2703.32
407.77	2801.62
407.96	2729.06
408.15	2682.25
408.34	2754.81
408.54	2906.95
408.73	2813.32
408.92	2846.09
409.11	2867.16
409.30	3028.65
409.49	2789.92
409.68	2965.46
409.87	2958.44
410.07	2892.90
410.26	2998.23
410.45	2995.89
410.64	3045.04
410.83	3073.12
411.02	3091.85
411.21	3253.34
411.40	3213.56
411.59	3286.11
411.78	3183.13
411.98	3248.66
412.17	3243.98
412.36	3400.80
412.55	3379.73
412.74	3506.12
412.93	3393.78
413.12	3288.45
413.31	3485.06
413.50	3407.82
413.69	3515.48
413.88	3494.42
414.07	3590.38
414.26	3714.43
414.45	3625.49
414.64	3707.41
414.83	3822.09
415.02	3772.94
415.22	3866.56
415.41	3852.52
415.60	3791.67
415.79	4009.34
415.98	3962.53
416.17	3941.46
416.36	3899.33
416.55	4018.70
416.74	4007.00
416.93	4156.79
417.12	4060.83
417.31	4135.73
417.50	4294.88
417.69	4290.20
417.88	4404.89
418.07	4208.28
418.26	4241.05
418.45	4418.93
418.64	4486.81
418.83	4461.06
419.02	4631.92
419.21	4505.53
419.39	4599.15
419.58	4491.49
419.77	4505.53
419.96	4545.32
420.15	4503.19
420.34	4596.81
420.53	4683.41
420.72	4798.10
420.91	4671.71
421.10	4847.25
421.29	4828.53
421.48	4631.92
421.67	4856.61
421.86	4936.19
422.05	4882.36
422.24	4669.37
422.43	4910.44
422.61	5050.88
422.80	5078.96
422.99	4875.34
423.18	5121.09
423.37	5006.41
423.56	5034.49
423.75	4943.21
423.94	4978.32
424.13	4622.56
424.32	4880.02
424.50	4964.28
424.69	5184.29
424.88	5151.52
425.07	4975.98
425.26	4919.81
425.45	5036.83
425.64	4992.36
425.83	5062.58
426.01	4870.65
426.20	5069.60
426.39	5043.85
426.58	5172.58
426.77	5228.76
426.96	5048.54
427.15	5200.67
427.33	5231.10
427.52	5317.70
427.71	5275.57
427.90	5217.05
428.09	5338.76
428.28	5327.06
428.46	5401.96
428.65	5469.83
428.84	5554.09
429.03	5521.32
429.22	5376.21
429.40	5556.43
429.59	5518.98
429.78	5327.06
429.97	5181.95
430.16	5479.19
430.34	5624.31
430.53	5680.48
430.72	5755.38
430.91	5713.25
431.10	5657.07
431.28	5832.62
431.47	5856.02
431.66	5912.19
431.85	5598.56
432.03	5841.98
432.22	6061.99
432.41	6015.18
432.60	5870.06
432.79	5914.53
432.97	6087.73
433.16	5982.41
433.35	6031.56
433.54	6104.12
433.72	6310.08
433.91	6122.84
434.10	6225.82
434.28	6160.29
434.47	6303.06
434.66	6331.15
434.85	6296.04
435.03	6368.60
435.22	6300.72
435.41	6511.37
435.59	6431.79
435.78	6354.55
435.97	6450.52
436.16	6490.31
436.34	6511.37
436.53	6581.59
436.72	6686.91
436.90	6541.80
437.09	6651.80
437.28	6595.63
437.46	6670.53
437.65	6731.38
437.84	6724.36
438.02	6871.81
438.21	6722.02
438.40	6675.21
438.58	6970.12
438.77	7019.27
438.96	6991.18
439.14	7066.08
439.33	7105.87
439.52	7250.98
439.70	7309.49
439.89	7494.40
440.08	7616.10
440.26	7478.01
440.45	7410.14
440.63	7531.84
440.82	7625.47
441.01	7623.12
441.19	7578.65
441.38	7749.51
441.57	7630.15
441.75	7765.90
441.94	7941.44
442.12	8023.36
442.31	8196.56
442.50	8159.11
442.68	8107.62
442.87	8177.83
443.05	8114.64
443.24	8212.94
443.43	8189.53
443.61	8339.33
443.80	8753.60
443.98	8203.58
444.17	7765.90
444.35	8159.11
444.54	8402.52
444.73	8339.33
444.91	8379.12
445.10	8582.74
445.28	8379.12
445.47	8404.86
445.65	8439.97
445.84	8489.12
446.02	8667.00
446.21	8458.70
446.39	8304.22
446.58	8472.74
446.77	8409.54
446.95	8322.94
447.14	8381.46
447.32	8587.43
447.51	8624.87
447.69	8514.87
447.88	8709.13
448.06	8629.56
448.25	8659.98
448.43	8568.70
448.62	8835.52
448.80	8685.73
448.99	8690.41
449.17	8997.02
449.36	8755.94
449.54	8802.75
449.73	8908.08
449.91	9018.08
450.10	8994.68
450.28	9013.40
450.46	9345.76
450.65	9076.60
450.83	9053.19
451.02	9153.84
451.20	9179.58
451.39	9380.87
451.57	9341.08
451.76	9050.85
451.94	9259.16
452.13	9448.74
452.31	9245.12
452.49	9399.59
452.68	9373.85
452.86	9404.27
453.05	9399.59
453.23	9399.59
453.42	9533.00
453.60	9451.08
453.78	9596.20
453.97	9640.67
454.15	9734.29
454.34	9584.49
454.52	9778.76
454.70	9760.03
454.89	9741.31
455.07	9912.17
455.26	9905.15
455.44	9928.55
455.62	10106.43
455.81	10193.03
455.99	10071.33
456.17	10031.54
456.36	10132.18
456.54	10202.40
456.73	10504.32
456.91	10714.97
457.09	10506.66
457.28	10506.66
457.46	10494.96
457.64	10581.56
457.83	10649.44
458.01	10487.94
458.19	10839.02
458.38	10637.73
458.56	10843.70
458.74	10672.84
458.93	10799.23
459.11	10799.23
459.29	10822.64
459.48	10745.40
459.66	10892.85
459.84	10953.71
460.03	11110.52
460.21	10885.83
460.39	11117.54
460.57	10956.05
460.76	11236.91
460.94	11283.72
461.12	11365.64
461.31	11154.99
461.49	11344.58
461.67	11283.72
461.85	11534.16
462.04	11389.05
462.22	11772.89
462.40	11763.53
462.59	11580.97
462.77	11859.49
462.95	11681.61
463.13	11676.93
463.32	11648.85
463.50	11789.28
463.68	11850.13
463.86	12046.74
464.05	11716.72
464.23	11573.95
464.41	12154.40
464.59	11868.86
464.78	12236.32
464.96	12222.28
465.14	11777.58
465.32	12131.00
465.50	12348.67
465.69	12119.29
465.87	12292.49
466.05	12166.10
466.23	12348.67
466.41	12311.22
466.60	12482.08
466.78	12372.07
466.96	12442.29
467.14	12453.99
467.32	12292.49
467.51	12835.50
467.69	12173.13
467.87	12697.41
468.05	12746.56
468.23	12423.56
468.41	12723.15
468.60	12695.07
468.78	12961.89
468.96	12791.03
469.14	13001.68
469.32	13076.57
469.50	12865.92
469.69	13099.98
469.87	13312.97
470.05	13191.26
470.23	13334.03
470.41	13303.60
470.59	13301.26
470.77	13331.69
470.95	13345.73
471.14	13729.58
471.32	13284.88
471.50	13767.03
471.68	13858.31
471.86	13837.25
472.04	13582.13
472.22	14075.98
472.40	13891.08
472.58	13788.10
472.77	14073.64
472.95	14370.89
473.13	14670.48
473.31	14099.39
473.49	14443.45
473.67	14244.50
473.85	14518.34
474.03	14862.40
474.21	14644.73
474.39	14834.32
474.57	14738.35
474.75	15068.37
474.93	15288.38
475.12	15124.54
475.30	15267.31
475.48	15279.02
475.66	15398.38
475.84	15190.08
476.02	15323.49
476.20	15470.94
476.38	15878.19
476.56	16318.22
476.74	16250.34
476.92	16170.76
477.10	15779.89
477.28	16243.32
477.46	16460.99
477.64	16575.67
477.82	16812.07
478.00	17261.45
478.18	17238.05
478.36	17282.52
478.54	17277.83
478.72	17343.37
478.90	17577.42
479.08	17659.34
479.26	17994.04
479.44	17743.60
479.62	18082.98
479.80	18221.07
479.98	18408.31
480.16	18635.35
480.34	18443.42
480.52	18691.52
480.70	18902.17
480.88	18724.29
481.06	18991.11
481.24	19016.85
481.41	19271.97
481.59	19517.73
481.77	19866.47
481.95	20126.27
482.13	20128.61
482.31	19983.49
482.49	20308.83
482.67	20306.49
482.85	20865.88
483.03	20746.51
483.21	20823.75
483.39	21319.94
483.57	21160.78
483.74	21277.81
483.92	21678.04
484.10	21319.94
484.28	21998.70
484.46	21759.96
484.64	22558.08
484.82	22221.05
485.00	22670.43
485.18	23037.89
485.35	23030.87
485.53	23131.51
485.71	23117.47
485.89	23627.71
486.07	23594.94
486.25	23484.94
486.43	24187.10
486.61	24072.41
486.78	24687.97
486.96	24765.21
487.14	25006.28
487.32	24945.43
487.50	24851.81
487.68	24875.21
487.85	25752.91
488.03	25701.42
488.21	26122.72
488.39	25954.20
488.57	26384.86
488.75	26558.06
488.92	26796.79
489.10	26934.88
489.28	26834.24
489.46	27304.69
489.64	27185.32
489.81	27934.29
489.99	27835.99
490.17	28137.92
490.35	28456.23
490.53	28158.99
490.70	28774.55
490.88	28297.08
491.06	29270.74
491.24	29153.71
491.41	29120.95
491.59	29448.62
491.77	29853.53
491.95	29675.65
492.13	30122.69
492.30	30473.78
492.48	30630.59
492.66	30586.12
492.84	30258.45
493.01	31192.32
493.19	30881.03
493.37	31569.15
493.54	31431.05
493.72	31814.90
493.90	31611.28
494.08	31866.39
494.25	32610.68
494.43	32360.25
494.61	32938.36
494.79	32802.61
494.96	32439.82
495.14	33060.07
495.32	33584.35
495.49	33394.76
495.67	33322.21
495.85	33586.69
496.02	33979.90
496.20	34089.90
496.38	34525.24
496.55	34227.99
496.73	35180.59
496.91	34927.81
497.09	35414.65
497.26	35566.78
497.44	34857.60
497.62	35831.26
497.79	36266.60
497.97	36027.87
498.14	36400.01
498.32	36486.61
498.50	36154.26
498.67	37085.79
498.85	36519.38
499.03	37069.40
499.20	36753.43
499.38	36959.40
499.56	37336.23
499.73	37219.20
499.91	37605.39
500.08	38012.64
500.26	37460.27
500.44	38052.43
500.61	38103.92
500.79	38019.66
500.97	38017.32
501.14	39108.01
501.32	38944.17
501.49	38754.59
501.67	38916.09
501.84	39634.63
502.02	39150.14
502.20	39328.02
502.37	39442.71
502.55	39704.85
502.72	39711.87
502.90	40030.18
503.07	39517.60
503.25	40098.06
503.43	40460.84
503.60	40463.18
503.78	40399.99
503.95	40128.48
504.13	41034.27
504.30	40697.24
504.48	40865.75
504.65	41006.19
504.83	41708.35
505.01	41837.08
505.18	41790.27
505.36	42017.30
505.53	41263.64
505.71	42127.30
505.88	42117.94
506.06	42174.11
506.23	42316.89
506.41	42033.68
506.58	42586.05
506.76	42632.86
506.93	42721.80
507.11	42777.97
507.28	43508.22
507.46	43288.21
507.63	43351.40
507.81	43606.52
507.98	43072.88
508.16	43164.16
508.33	43882.70
508.50	44194.00
508.68	44268.89
508.85	43983.35
509.03	44257.19
509.20	44217.40
509.38	44912.54
509.55	44203.36
509.73	44584.86
509.90	45172.34
510.08	44940.63
510.25	44921.90
510.42	45312.77
510.60	45448.52
510.77	45621.72
510.95	45865.14
511.12	45382.99
511.30	45855.78
511.47	46038.34
511.64	45963.44
511.82	46204.52
511.99	45811.31
512.17	46476.02
512.34	46586.02
512.51	46635.17
512.69	46618.79
512.86	46358.99
513.04	47117.32
513.21	47033.07
513.38	46770.93
513.56	47547.98
513.73	47400.53
513.90	47489.47
514.08	47114.98
514.25	47739.91
514.43	47449.68
514.60	47922.47
514.77	48069.92
514.95	48243.12
515.12	48119.07
515.29	48128.44
515.47	48446.75
515.64	48336.74
515.81	48421.00
515.99	48690.16
516.16	48701.87
516.33	48837.62
516.51	48837.62
516.68	48816.55
516.85	49010.82
517.03	49275.30
517.20	49492.97
517.37	49155.93
517.54	49380.62
517.72	49509.35
517.89	49499.99
518.06	49455.52
518.24	49485.95
518.41	49366.58
518.58	49523.40
518.75	49720.00
518.93	49975.12
519.10	49495.31
519.27	49965.76
519.45	49879.16
519.62	50277.05
519.79	50326.20
519.96	50625.79
520.14	50426.84
520.31	50461.95
520.48	50600.04
520.65	50581.32
520.83	50784.94
521.00	51175.81
521.17	50876.22
521.34	51107.94
521.52	50946.44
521.69	51077.51
521.86	51496.47
522.03	51395.82
522.20	51810.10
522.38	51789.03
522.55	51805.42
522.72	51599.45
522.89	51536.26
523.07	52076.92
523.24	51845.21
523.41	52144.80
523.58	51763.29
523.75	52123.73
523.92	52186.92
524.10	52275.87
524.27	52530.98
524.44	52631.63
524.61	52343.74
524.78	52388.21
524.96	52397.57
525.13	52727.59
525.30	52729.93
525.47	52549.71
525.64	52673.76
525.81	52926.53
525.98	52987.39
526.16	52758.02
526.33	53233.14
526.50	53373.58
526.67	53244.85
526.84	53179.31
527.01	53022.50
527.18	53263.57
527.36	53202.72
527.53	53221.44
527.70	53602.95
527.87	53647.42
528.04	53535.07
528.21	53783.17
528.38	53439.11
528.55	53787.85
528.72	53778.49
528.89	53731.68
529.07	53408.68
529.24	53701.25
529.41	53958.71
529.58	53801.89
529.75	53942.33
529.92	53979.78
530.09	54174.04
530.26	54192.76
530.43	54241.92
530.60	53965.73
530.77	54021.90
530.94	54632.78
531.11	54024.25
531.28	54443.20
531.46	54590.66
531.63	54738.11
531.80	54459.58
531.97	54656.19
532.14	54815.35
532.31	54813.01
532.48	55274.09
532.65	54749.81
532.82	54726.41
532.99	54834.07
533.16	54831.73
533.33	55192.17
533.50	55185.15
533.67	55323.24
533.84	55196.85
534.01	55091.53
534.18	55234.30
534.35	55746.88
534.52	55238.98
534.69	55604.11
534.86	55538.57
535.03	55285.79
535.20	55576.02
535.37	55655.60
535.54	55728.16
535.71	55398.14
535.88	55690.71
536.05	55702.41
536.22	55791.35
536.38	55784.33
536.55	55756.24
536.72	55917.74
536.89	55845.18
537.06	55856.88
537.23	56222.01
537.40	55655.60
537.57	55976.25
537.74	55987.95
537.91	56350.74
538.08	56165.84
538.25	55915.40
538.42	56130.73
538.59	56362.44
538.75	56301.59
538.92	56259.46
539.09	56561.39
539.26	56528.62
539.43	56268.82
539.60	56458.40
539.77	56367.12
539.94	56626.92
540.11	56442.02
540.28	56456.06
540.44	56687.78
540.61	56678.41
540.78	56633.94
540.95	56804.80
541.12	56821.19
541.29	56699.48
541.46	56844.59
541.62	56891.40
541.79	56900.76
541.96	56442.02
542.13	56891.40
542.30	57003.75
542.47	56949.92
542.63	57167.58
542.80	56844.59
542.97	57272.91
543.14	57359.51
543.31	57499.94
543.48	57380.57
543.64	57703.57
543.81	57516.32
543.98	57846.34
544.15	57478.88
544.32	57485.90
544.48	57907.19
544.65	57633.35
544.82	57668.46
544.99	57352.49
545.16	57841.66
545.32	57521.01
545.49	57815.91
545.66	58012.52
545.83	57982.09
546.00	58045.29
546.16	57848.68
546.33	57729.31
546.50	57785.49
546.67	57897.83
546.83	57869.75
547.00	58134.23
547.17	58017.20
547.34	58064.01
547.50	58464.24
547.67	58555.52
547.84	58080.39
548.00	58274.66
548.17	58426.79
548.34	58394.03
548.51	58487.65
548.67	58403.39
548.84	58328.49
549.01	58295.72
549.18	58305.09
549.34	58328.49
549.51	58574.25
549.68	58529.78
549.84	58618.72
550.01	58590.63
550.18	58499.35
550.34	58482.97
550.51	58812.98
550.68	58890.22
550.84	58431.47
551.01	58766.17
551.18	58815.32
551.34	58890.22
551.51	58616.38
551.68	58822.34
551.84	58787.24
552.01	58817.66
552.18	59063.42
552.34	58770.85
552.51	59117.25
552.68	58824.68
552.84	59021.29
553.01	59121.93
553.18	59234.28
553.34	59084.48
553.51	58965.12
553.67	58976.82
553.84	59189.81
554.01	59154.70
554.17	59264.70
554.34	59334.92
554.51	59182.79
554.67	59482.37
554.84	59311.52
555.00	59290.45
555.17	59124.27
555.33	59442.59
555.50	59021.29
555.67	59117.25
555.83	59269.39
556.00	59267.05
556.16	59585.36
556.33	59576.00
556.50	59524.50
556.66	59721.11
556.83	59433.22
556.99	59625.15
557.16	59702.38
557.32	59756.22
557.49	59870.90
557.65	59566.63
557.82	59632.17
557.98	59763.24
558.15	59723.45
558.32	59777.28
558.48	59618.13
558.65	59550.25
558.81	59779.62
558.98	59700.04
559.14	59831.11
559.31	59882.61
559.47	59999.63
559.64	59992.61
559.80	59728.13
559.97	59910.69
560.13	59887.29
560.30	59779.62
560.46	59952.82
560.63	60058.15
560.79	59994.95
560.96	60341.35
561.12	59962.18
561.29	60133.04
561.45	60264.11
561.61	60051.12
561.78	59980.91
561.94	59985.59
562.11	60039.42
562.27	60238.37
562.44	60177.51
562.60	60404.55
562.77	60306.24
562.93	59992.61
563.10	60329.65
563.26	60212.62
563.42	60331.99
563.59	60016.02
563.75	60282.84
563.92	60292.20
564.08	60399.86
564.24	60488.80
564.41	60282.84
564.57	60214.96
564.74	60364.76
564.90	60247.73
565.07	60432.63
565.23	60339.01
565.39	60322.63
565.56	60451.36
565.72	60236.03
565.88	60757.97
566.05	60100.28
566.21	60460.72
566.38	60537.96
566.54	60341.35
566.70	60622.22
566.87	60601.15
567.03	60526.25
567.19	60612.85
567.36	60608.17
567.52	60568.38
567.68	60708.82
567.85	60575.40
568.01	60680.73
568.17	60502.85
568.34	60680.73
568.50	60715.84
568.66	60643.28
568.83	60420.93
568.99	60608.17
569.15	60488.80
569.32	60533.28
569.48	60753.29
569.64	60577.75
569.81	60662.00
569.97	60666.69
570.13	60580.09
570.30	60559.02
570.46	60633.92
570.62	60835.20
570.78	60697.11
570.95	60654.98
571.11	60781.37
571.27	60678.39
571.43	60750.94
571.60	60982.66
571.76	60891.38
571.92	60891.38
572.09	60898.40
572.25	60830.52
572.41	60882.02
572.57	60942.87
572.74	61001.38
572.90	60837.54
573.06	60900.74
573.22	60865.63
573.38	60980.32
573.55	60734.56
573.71	61015.43
573.87	60764.99
574.03	60865.63
574.20	60893.72
574.36	60788.39
574.52	60940.53
574.68	60926.49
574.84	61048.19
575.01	61085.64
575.17	60882.02
575.33	60877.33
575.49	60896.06
575.65	61092.66
575.82	61087.98
575.98	60980.32
576.14	61118.41
576.30	61216.71
576.46	60992.02
576.62	60832.86
576.79	61062.24
576.95	60879.67
577.11	60912.44
577.27	61146.50
577.43	61095.00
577.59	60886.70
577.75	60818.82
577.92	60938.19
578.08	61073.94
578.24	61151.18
578.40	61275.22
578.56	61109.05
578.72	61109.05
578.88	61118.41
579.04	60886.70
579.21	61104.37
579.37	61048.19
579.53	61279.91
579.69	60921.80
579.85	61169.90
580.01	61080.96
580.17	61071.60
580.33	61141.81
580.49	61127.77
580.65	61141.81
580.82	60928.83
580.98	61092.66
581.14	60935.85
581.30	61090.32
581.46	60982.66
581.62	61256.50
581.78	60940.53
581.94	61223.73
582.10	61176.92
582.26	61057.56
582.42	61041.17
582.58	61066.92
582.74	61137.13
582.90	61162.88
583.06	61003.72
583.22	60996.70
583.38	61329.06
583.54	61186.28
583.70	61256.50
583.86	61361.82
584.02	60968.61
584.18	61214.37
584.34	61457.79
584.50	61207.35
584.66	60912.44
584.82	60989.68
584.98	61291.61
585.14	61226.07
585.30	61188.63
585.46	61020.11
585.62	61188.63
585.78	61279.91
585.94	61085.64
586.10	61066.92
586.26	61263.52
586.42	61408.64
586.58	61258.84
586.74	61083.30
586.90	61127.77
587.06	61207.35
587.22	61282.25
587.38	61186.28
587.54	61485.87
587.70	61579.49
587.86	61132.45
588.02	61158.20
588.18	61497.58
588.34	61460.13
588.49	61209.69
