SpectraSuite Data File
++++++++++++++++++++++++++++++++++++
Date: Fri Oct 25 10:47:11 EDT 2013
User: price-jones
Dark Spectrum Present: No
Reference Spectrum Present: No
Number of Sampled Component Spectra: 1
Spectrometers: USB2+H05261
Integration Time (usec): 100000 (USB2+H05261)
Spectra Averaged: 1 (USB2+H05261)
Boxcar Smoothing: 0 (USB2+H05261)
Correct for Electrical Dark: No (USB2+H05261)
Strobe/Lamp Enabled: No (USB2+H05261)
Correct for Detector Non-linearity: No (USB2+H05261)
Correct for Stray Light: No (USB2+H05261)
Number of Pixels in Processed Spectrum: 2048
>>>>>Begin Processed Spectral Data<<<<<
365.73	201.29
365.92	201.29
366.12	201.29
366.32	49.15
366.52	63.19
366.72	60.85
366.91	0.00
367.11	0.00
367.31	11.70
367.51	0.00
367.70	35.11
367.90	32.77
368.10	32.77
368.30	4.68
368.49	21.06
368.69	18.72
368.89	46.81
369.09	21.06
369.28	112.35
369.48	21.06
369.68	110.01
369.87	84.26
370.07	95.96
370.27	147.45
370.47	196.60
370.66	454.06
370.86	311.29
371.06	423.64
371.25	514.92
371.45	465.77
371.65	486.83
371.84	437.68
372.04	393.21
372.24	482.15
372.44	468.11
372.63	461.09
372.83	470.45
373.03	510.24
373.22	512.58
373.42	463.43
373.62	491.51
373.81	500.87
374.01	606.20
374.21	573.43
374.40	524.28
374.60	578.11
374.79	517.26
374.99	606.20
375.19	568.75
375.38	582.79
375.58	554.71
375.78	557.05
375.97	594.50
376.17	653.01
376.37	547.69
376.56	566.41
376.76	596.84
376.95	486.83
377.15	559.39
377.35	526.62
377.54	568.75
377.74	573.43
377.93	571.09
378.13	564.07
378.33	667.05
378.52	610.88
378.72	578.11
378.91	662.37
379.11	575.77
379.31	538.32
379.50	631.94
379.70	601.52
379.89	676.41
380.09	653.01
380.28	559.39
380.48	617.90
380.68	690.46
380.87	706.84
381.07	692.80
381.26	664.71
381.46	599.18
381.65	723.23
381.85	704.50
382.04	636.63
382.24	671.73
382.43	681.10
382.63	617.90
382.83	653.01
383.02	645.99
383.22	816.85
383.41	711.52
383.61	653.01
383.80	734.93
384.00	638.97
384.19	753.65
384.39	671.73
384.58	716.20
384.78	716.20
384.97	697.48
385.17	678.76
385.36	770.04
385.56	697.48
385.75	648.33
385.95	713.86
386.14	781.74
386.34	746.63
386.53	861.32
386.72	746.63
386.92	851.96
387.11	849.61
387.31	826.21
387.50	748.97
387.70	758.33
387.89	713.86
388.09	828.55
388.28	847.27
388.48	755.99
388.67	826.21
388.86	840.25
389.06	823.87
389.25	861.32
389.45	889.40
389.64	866.00
389.84	861.32
390.03	943.24
390.22	814.51
390.42	866.00
390.61	887.06
390.81	922.17
391.00	938.55
391.19	968.98
391.39	910.47
391.58	915.15
391.78	1001.75
391.97	961.96
392.16	891.74
392.36	964.30
392.55	1036.86
392.75	1011.11
392.94	880.04
393.13	968.98
393.33	938.55
393.52	976.00
393.71	999.41
393.91	990.05
394.10	985.37
394.29	1015.79
394.49	1015.79
394.68	1029.84
394.88	1032.18
395.07	1132.82
395.26	1088.35
395.46	1046.22
395.65	1139.84
395.84	1097.71
396.04	1128.14
396.23	1069.62
396.42	1074.31
396.62	1088.35
396.81	1146.86
397.00	1100.05
397.19	1107.07
397.39	1252.19
397.58	1188.99
397.77	1266.23
397.97	1226.44
398.16	1165.59
398.35	1179.63
398.55	1179.63
398.74	1336.45
398.93	1336.45
399.12	1327.08
399.32	1359.85
399.51	1289.64
399.70	1378.58
399.90	1291.98
400.09	1420.71
400.28	1423.05
400.47	1329.42
400.67	1362.19
400.86	1418.36
401.05	1430.07
401.24	1378.58
401.44	1432.41
401.63	1441.77
401.82	1479.22
402.01	1444.11
402.21	1509.65
402.40	1432.41
402.59	1462.83
402.78	1586.88
402.97	1575.18
403.17	1444.11
403.36	1612.63
403.55	1556.46
403.74	1563.48
403.93	1593.90
404.13	1633.69
404.32	1575.18
404.51	1673.48
404.70	1584.54
404.89	1626.67
405.09	1703.91
405.28	1645.40
405.47	1710.93
405.66	1755.40
405.85	1722.63
406.05	1762.42
406.24	1696.89
406.43	1806.89
406.62	1764.76
406.81	1842.00
407.00	1727.32
407.20	1743.70
407.39	1673.48
407.58	1886.47
407.77	1844.34
407.96	1961.37
408.15	1877.11
408.34	1842.00
408.54	2019.88
408.73	1851.36
408.92	2052.65
409.11	1870.09
409.30	2005.84
409.49	1959.03
409.68	1987.11
409.87	1926.26
410.07	1926.26
410.26	1893.49
410.45	2019.88
410.64	2083.08
410.83	2172.02
411.02	2101.80
411.21	2331.17
411.40	2132.23
411.59	2340.54
411.78	2150.95
411.98	2335.85
412.17	2249.25
412.36	2242.23
412.55	2275.00
412.74	2401.39
412.93	2303.09
413.12	2270.32
413.31	2541.82
413.50	2317.13
413.69	2555.86
413.88	2614.38
414.07	2455.22
414.26	2534.80
414.45	2464.58
414.64	2560.55
414.83	2696.30
415.02	2626.08
415.22	2684.59
415.41	2597.99
415.60	2661.19
415.79	2750.13
415.98	2808.64
416.17	2719.70
416.36	2815.66
416.55	2612.04
416.74	2904.60
416.93	2822.69
417.12	2843.75
417.31	2897.58
417.50	2932.69
417.69	3019.29
417.88	3049.72
418.07	2920.99
418.26	3166.74
418.45	2925.67
418.64	3180.79
418.83	3103.55
419.02	3012.27
419.21	3033.33
419.39	3185.47
419.58	3159.72
419.77	3063.76
419.96	3323.56
420.15	3307.18
420.34	3197.17
420.53	3241.64
420.72	3082.49
420.91	3538.89
421.10	3314.20
421.29	3260.37
421.48	3281.43
421.67	3428.88
421.86	3370.37
422.05	3227.60
422.24	3274.41
422.43	3290.79
422.61	3328.24
422.80	3517.83
422.99	3335.26
423.18	3421.86
423.37	3585.70
423.56	3503.78
423.75	3489.74
423.94	3463.99
424.13	3152.70
424.32	3342.28
424.50	3611.45
424.69	3447.61
424.88	3438.25
425.07	3316.54
425.26	3372.71
425.45	3316.54
425.64	3471.01
425.83	3506.12
426.01	3440.59
426.20	3571.66
426.39	3541.23
426.58	3501.44
426.77	3396.12
426.96	3592.72
427.15	3599.74
427.33	3428.88
427.52	3576.34
427.71	3471.01
427.90	3630.17
428.09	3698.05
428.28	3693.37
428.46	3698.05
428.65	3665.28
428.84	3702.73
429.03	3824.44
429.22	3574.00
429.40	3728.47
429.59	3709.75
429.78	3634.85
429.97	3604.42
430.16	3555.27
430.34	3705.07
430.53	3824.44
430.72	3885.29
430.91	3880.61
431.10	3873.59
431.28	3925.08
431.47	4126.36
431.66	4121.68
431.85	3960.19
432.03	4077.21
432.22	4131.05
432.41	4180.20
432.60	4131.05
432.79	4105.30
432.97	4194.24
433.16	4383.82
433.35	4107.64
433.54	4255.09
433.72	4236.37
433.91	4133.39
434.10	4224.67
434.28	4325.31
434.47	4212.96
434.66	4358.08
434.85	4360.42
435.03	4447.02
435.22	4397.87
435.41	4451.70
435.59	4341.69
435.78	4432.97
435.97	4517.23
436.16	4397.87
436.34	4554.68
436.53	4524.26
436.72	4531.28
436.90	4339.35
437.09	4655.33
437.28	4498.51
437.46	4524.26
437.65	4514.89
437.84	4671.71
438.02	4692.77
438.21	4629.58
438.40	4594.47
438.58	4685.75
438.77	4734.90
438.96	4767.67
439.14	4966.62
439.33	4957.25
439.52	4896.40
439.70	4882.36
439.89	5027.47
440.08	4950.23
440.26	4894.06
440.45	4987.68
440.63	5118.75
440.82	5160.88
441.01	5219.39
441.19	5275.57
441.38	5329.40
441.57	5427.70
441.75	5472.17
441.94	5500.26
442.12	5427.70
442.31	5486.22
442.50	5542.39
442.68	5516.64
442.87	5610.26
443.05	5549.41
443.24	5633.67
443.43	5540.05
443.61	5636.01
443.80	5804.53
443.98	5617.29
444.17	5376.21
444.35	5713.25
444.54	5928.58
444.73	5708.57
444.91	5837.30
445.10	5612.60
445.28	5717.93
445.47	5678.14
445.65	5654.73
445.84	5619.63
446.02	5905.17
446.21	5727.29
446.39	5717.93
446.58	5863.04
446.77	5823.25
446.95	5727.29
447.14	5851.34
447.32	5970.71
447.51	5699.20
447.69	5785.80
447.88	5832.62
448.06	5839.64
448.25	5991.77
448.43	6008.16
448.62	5888.79
448.80	5874.74
448.99	5996.45
449.17	5914.53
449.36	5888.79
449.54	6193.06
449.73	6235.19
449.91	6286.68
450.10	6263.27
450.28	6284.34
450.46	6190.72
450.65	6197.74
450.83	6361.58
451.02	6377.96
451.20	6504.35
451.39	6349.87
451.57	6225.82
451.76	6092.41
451.94	6277.32
452.13	6532.44
452.31	6291.36
452.49	6296.04
452.68	6480.94
452.86	6420.09
453.05	6396.68
453.23	6319.45
453.42	6392.00
453.60	6473.92
453.78	6544.14
453.97	6331.15
454.15	6408.39
454.34	6422.43
454.52	6698.61
454.70	6740.74
454.89	6752.45
455.07	6635.42
455.26	6822.66
455.44	6658.82
455.62	6822.66
455.81	6785.21
455.99	6874.15
456.17	6822.66
456.36	6904.58
456.54	6829.68
456.73	7105.87
456.91	7080.12
457.09	7148.00
457.28	7115.23
457.46	7012.24
457.64	7119.91
457.83	7185.44
458.01	7148.00
458.19	7075.44
458.38	7424.18
458.56	7431.20
458.74	7356.30
458.93	7274.38
459.11	7300.13
459.29	7545.89
459.48	7370.35
459.66	7283.75
459.84	7337.58
460.03	7627.81
460.21	7368.01
460.39	7531.84
460.57	7473.33
460.76	7679.30
460.94	7648.87
461.12	7592.70
461.31	7915.69
461.49	7639.51
461.67	7592.70
461.85	7812.71
462.04	7695.68
462.22	8032.72
462.40	7946.12
462.59	7735.47
462.77	7742.49
462.95	7751.85
463.13	7880.58
463.32	7777.60
463.50	7789.30
463.68	7796.32
463.86	7866.54
464.05	7744.83
464.23	7775.26
464.41	8189.53
464.59	7824.41
464.78	7999.95
464.96	8191.88
465.14	7873.56
465.32	8004.63
465.50	8070.17
465.69	8210.60
465.87	8112.30
466.05	8084.21
466.23	8177.83
466.41	8119.32
466.60	8201.24
466.78	8217.62
466.96	8196.56
467.14	8402.52
467.32	8397.84
467.51	8446.99
467.69	8203.58
467.87	8339.33
468.05	8175.49
468.23	8336.99
468.41	8346.35
468.60	8482.10
468.78	8568.70
468.96	8301.88
469.14	8493.80
469.32	8566.36
469.50	8505.51
469.69	8748.92
469.87	8643.60
470.05	8685.73
470.23	8755.94
470.41	8744.24
470.59	8814.46
470.77	8692.75
470.95	9055.53
471.14	8868.29
471.32	8697.43
471.50	9081.28
471.68	9104.68
471.86	9224.05
472.04	9188.94
472.22	9446.40
472.40	9156.18
472.58	9055.53
472.77	9282.56
472.95	9575.13
473.13	9870.04
473.31	9336.40
473.49	9490.87
473.67	9638.33
473.85	9350.44
474.03	9666.41
474.21	9500.23
474.39	9736.63
474.57	9940.26
474.75	9942.60
474.93	9767.06
475.12	9905.15
475.30	10031.54
475.48	9919.19
475.66	10122.82
475.84	9858.34
476.02	10389.64
476.20	10146.22
476.38	10459.85
476.56	10501.98
476.74	10473.90
476.92	10485.60
477.10	10693.91
477.28	10752.42
477.46	10614.33
477.64	10820.30
477.82	10967.75
478.00	11112.86
478.18	11265.00
478.36	11330.53
478.54	11180.74
478.72	11515.44
478.90	11386.71
479.08	11660.55
479.26	11559.91
479.44	11662.89
479.62	11559.91
479.80	11660.55
479.98	11927.37
480.16	12105.25
480.34	12081.85
480.52	12063.12
480.70	12156.74
480.88	12067.80
481.06	12215.26
481.24	12444.63
481.41	12652.94
481.59	12718.47
481.77	12716.13
481.95	12929.12
482.13	13020.40
482.31	12994.65
482.49	13331.69
482.67	13256.79
482.85	13439.36
483.03	13544.68
483.21	13497.87
483.39	13727.24
483.57	13668.73
483.74	13951.93
483.92	14073.64
484.10	13970.66
484.28	14251.52
484.46	14466.85
484.64	14593.24
484.82	14476.21
485.00	14501.96
485.18	14752.40
485.35	14801.55
485.53	14813.25
485.71	14618.99
485.89	15000.49
486.07	14925.60
486.25	15190.08
486.43	15508.39
486.61	15438.17
486.78	15641.80
486.96	15700.31
487.14	15976.50
487.32	16074.80
487.50	16058.42
487.68	16369.71
487.85	16521.84
488.03	16783.98
488.21	16643.55
488.39	16411.84
488.57	17015.69
488.75	16971.22
488.92	17001.65
489.10	17415.93
489.28	17664.02
489.46	17444.01
489.64	17802.11
489.81	17994.04
489.99	18190.64
490.17	18197.67
490.35	18230.43
490.53	18317.03
490.70	18209.37
490.88	18087.66
491.06	18579.17
491.24	18436.40
491.41	18794.50
491.59	19023.87
491.77	18764.07
491.95	19194.73
492.13	18981.74
492.30	19545.81
492.48	19812.63
492.66	20023.28
492.84	19576.24
493.01	19962.43
493.19	19992.86
493.37	20229.25
493.54	20386.07
493.72	20425.86
493.90	20362.66
494.08	20706.72
494.25	21179.51
494.43	20875.24
494.61	21156.10
494.79	21245.04
494.96	21160.78
495.14	21268.45
495.32	21769.32
495.49	21668.68
495.67	21380.79
495.85	21844.22
496.02	21797.41
496.20	22092.32
496.38	21921.46
496.55	21830.18
496.73	22530.00
496.91	22155.51
497.09	22403.61
497.26	22480.85
497.44	22597.87
497.62	22508.93
497.79	23112.79
497.97	22752.35
498.14	23250.88
498.32	23398.34
498.50	23508.34
498.67	23480.25
498.85	23573.88
499.03	24025.60
499.20	23796.23
499.38	23875.80
499.56	23817.29
499.73	24287.74
499.91	24376.68
500.08	24161.35
500.26	24030.28
500.44	24320.51
500.61	24456.26
500.79	24149.65
500.97	24800.32
501.14	24531.15
501.32	24641.16
501.49	24809.68
501.67	25242.68
501.84	24828.40
502.02	25305.87
502.20	25369.07
502.37	25261.40
502.55	25291.83
502.72	25340.98
502.90	25287.15
503.07	25408.86
503.25	25663.97
503.43	25387.79
503.60	25982.29
503.78	25855.90
503.95	26019.74
504.13	26036.12
504.30	26162.51
504.48	26253.79
504.65	26389.54
504.83	26551.04
505.01	26548.70
505.18	26335.71
505.36	27154.90
505.53	26789.77
505.71	27094.04
505.88	27072.98
506.06	26834.24
506.23	27190.00
506.41	26834.24
506.58	27405.33
506.76	27316.39
506.93	27477.89
507.11	27639.39
507.28	28065.36
507.46	27613.64
507.63	27873.44
507.81	27892.16
507.98	27475.55
508.16	27864.08
508.33	28261.97
508.50	27967.06
508.68	28503.04
508.85	28266.65
509.03	27950.68
509.20	28407.08
509.38	28933.70
509.55	28800.29
509.73	28730.08
509.90	28620.07
510.08	28821.36
510.25	28954.77
510.42	28863.49
510.60	29142.01
510.77	29596.07
510.95	29324.57
511.12	28847.10
511.30	29544.58
511.47	29795.02
511.64	29771.61
511.82	29273.08
511.99	29373.72
512.17	29434.58
512.34	29364.36
512.51	29905.02
512.69	30022.05
512.86	30235.04
513.04	30333.34
513.21	30328.66
513.38	30260.79
513.56	30118.01
513.73	29876.94
513.90	30302.92
514.08	30473.78
514.25	30874.01
514.43	30834.22
514.60	30661.02
514.77	30862.30
514.95	30670.38
515.12	30822.51
515.29	31297.64
515.47	31449.78
515.64	31402.97
515.81	30747.62
515.99	31473.18
516.16	31494.25
516.33	31627.66
516.51	31206.36
516.68	31274.24
516.85	31377.22
517.03	31299.98
517.20	31426.37
517.37	31620.64
517.54	32065.34
517.72	31969.38
517.89	32109.81
518.06	31936.61
518.24	31686.17
518.41	32215.13
518.58	32252.58
518.75	31754.05
518.93	32416.42
519.10	32505.36
519.27	32514.72
519.45	32393.01
519.62	32503.02
519.79	32776.86
519.96	32788.56
520.14	33219.22
520.31	32917.29
520.48	33102.20
520.65	32872.82
520.83	33387.74
521.00	33256.67
521.17	33324.55
521.34	33179.43
521.52	33649.88
521.69	33354.97
521.86	33598.39
522.03	33879.25
522.20	33961.17
522.38	33642.86
522.55	33558.60
522.72	34054.79
522.89	33930.75
523.07	34005.64
523.24	34015.01
523.41	34110.97
523.58	34167.14
523.75	34501.84
523.92	34504.18
524.10	34841.21
524.27	34679.72
524.44	34534.60
524.61	34263.10
524.78	35140.80
524.96	35314.00
525.13	34995.69
525.30	34930.16
525.47	35115.06
525.64	35157.19
525.81	34869.30
525.98	35037.82
526.16	34630.57
526.33	34841.21
526.50	35215.70
526.67	34979.31
526.84	34988.67
527.01	35213.36
527.18	35480.18
527.36	35592.53
527.53	35402.94
527.70	35962.33
527.87	35608.91
528.04	35854.67
528.21	35857.01
528.38	35805.52
528.55	35587.85
528.72	35704.87
528.89	36294.69
529.07	36180.00
529.24	35971.69
529.41	35828.92
529.58	35789.13
529.75	36264.26
529.92	36004.46
530.09	36465.55
530.26	36421.08
530.43	36215.11
530.60	36332.14
530.77	36800.24
530.94	36865.78
531.11	36552.15
531.28	36753.43
531.46	36840.03
531.63	37268.35
531.80	37340.91
531.97	36659.81
532.14	36989.83
532.31	36753.43
532.48	37368.99
532.65	37392.40
532.82	36933.65
532.99	36921.95
533.16	36912.59
533.33	37308.14
533.50	37640.50
533.67	37514.11
533.84	36935.99
534.01	37628.79
534.18	37270.69
534.35	37560.92
534.52	37663.90
534.69	37558.58
534.86	37996.26
535.03	37694.33
535.20	37844.12
535.37	38279.46
535.54	38459.68
535.71	37928.38
535.88	38227.97
536.05	37865.19
536.22	38068.81
536.38	38293.50
536.55	38113.28
536.72	37958.81
536.89	38033.71
537.06	37961.15
537.23	38759.27
537.40	38333.29
537.57	38410.53
537.74	38368.40
537.91	38471.39
538.08	38471.39
538.25	37797.31
538.42	38770.97
538.59	38550.96
538.75	38307.55
538.92	38724.16
539.09	38733.53
539.26	38880.98
539.43	38993.32
539.60	38880.98
539.77	39075.24
539.94	39250.78
540.11	38473.73
540.28	39110.35
540.44	39236.74
540.61	39075.24
540.78	39185.25
540.95	38960.56
541.12	39185.25
541.29	39243.76
541.46	39129.08
541.62	39328.02
541.79	39283.55
541.96	38974.60
542.13	39374.83
542.30	39711.87
542.47	39545.69
542.63	39601.86
542.80	40292.32
542.97	39976.35
543.14	40020.82
543.31	39906.13
543.48	40194.02
543.64	40453.82
543.81	40346.15
543.98	40123.80
544.15	40081.67
544.32	40435.10
544.48	40917.25
544.65	40158.91
544.82	40645.74
544.99	40217.43
545.16	40407.01
545.32	40652.76
545.49	41116.19
545.66	41064.70
545.83	40971.08
546.00	40816.60
546.16	40793.20
546.33	40306.37
546.50	40498.29
546.67	40556.80
546.83	40598.93
547.00	40837.67
547.17	40828.30
547.34	40671.49
547.50	40580.21
547.67	41216.83
547.84	41116.19
548.00	41443.87
548.17	41596.00
548.34	41326.84
548.51	41469.61
548.67	41439.18
548.84	41502.38
549.01	41415.78
549.18	41588.98
549.34	41497.70
549.51	41713.03
549.68	42017.30
549.84	41354.93
550.01	41666.22
550.18	40994.48
550.34	41481.31
550.51	41766.86
550.68	41160.66
550.84	41291.73
551.01	41762.18
551.18	41713.03
551.34	41572.60
551.51	42099.22
551.68	42059.43
551.84	42249.01
552.01	41888.57
552.18	41771.54
552.34	41996.23
552.51	42206.88
552.68	42302.84
552.84	41991.55
553.01	41926.02
553.18	42082.83
553.34	42249.01
553.51	41893.25
553.67	42110.92
553.84	41818.35
554.01	42256.03
554.17	42665.63
554.34	42712.44
554.51	42405.83
554.67	42600.09
554.84	42419.87
555.00	42319.23
555.17	42408.17
555.33	42719.46
555.50	42368.38
555.67	42581.37
555.83	42438.59
556.00	42656.26
556.16	42740.52
556.33	42885.64
556.50	42349.65
556.66	42864.57
556.83	42499.45
556.99	42810.74
557.16	43152.46
557.32	42674.99
557.49	42862.23
557.65	42705.41
557.82	42499.45
557.98	42564.98
558.15	42960.53
558.32	43342.04
558.48	42705.41
558.65	42967.55
558.81	42600.09
558.98	43093.94
559.14	42960.53
559.31	42946.49
559.47	42937.13
559.64	43515.24
559.80	43377.15
559.97	43533.96
560.13	42953.51
560.30	43091.60
560.46	43299.91
560.63	42965.21
560.79	43360.76
560.96	43423.96
561.12	42916.06
561.29	43494.18
561.45	43213.31
561.61	43442.68
561.78	43447.36
561.94	43337.36
562.11	43433.32
562.27	43236.72
562.44	43447.36
562.60	43735.25
562.77	43597.16
562.93	43283.53
563.10	43540.99
563.26	43477.79
563.42	43627.59
563.59	43164.16
563.75	43217.99
563.92	43690.78
564.08	43608.86
564.24	43342.04
564.41	43955.26
564.57	43356.08
564.74	43433.32
564.90	44130.80
565.07	43971.64
565.23	43604.18
565.39	43337.36
565.56	43707.16
565.72	43512.90
565.88	43903.77
566.05	43845.26
566.21	43225.01
566.38	43859.30
566.54	43896.75
566.70	44011.43
566.87	44456.14
567.03	43821.85
567.19	43999.73
567.36	43810.15
567.52	43573.75
567.68	43709.50
567.85	44023.14
568.01	43669.72
568.17	44037.18
568.34	44112.08
568.50	43496.52
568.66	43756.32
568.83	43957.60
568.99	43978.67
569.15	44098.03
569.32	44105.06
569.48	43552.69
569.64	44086.33
569.81	43746.95
569.97	44060.58
570.13	44268.89
570.30	43838.23
570.46	43835.89
570.62	43768.02
570.78	43746.95
570.95	43498.86
571.11	44130.80
571.27	43863.98
571.43	43646.31
571.60	44128.46
571.76	43950.58
571.92	43751.63
572.09	43805.47
572.25	44161.23
572.41	44032.50
572.57	44451.45
572.74	44388.26
572.90	44154.21
573.06	44072.29
573.22	43906.11
573.38	44037.18
573.55	43791.42
573.71	44100.37
573.87	44243.15
574.03	43782.06
574.20	44161.23
574.36	43751.63
574.52	43948.24
574.68	44212.72
574.84	44231.44
575.01	44608.27
575.17	43882.70
575.33	44275.91
575.49	44074.63
575.65	44458.48
575.82	44783.81
575.98	44528.69
576.14	44587.21
576.30	44362.51
576.46	43929.51
576.62	44142.50
576.79	44477.20
576.95	43922.49
577.11	44362.51
577.27	44236.12
577.43	44767.43
577.59	44149.53
577.75	44151.87
577.92	44023.14
578.08	43995.05
578.24	44072.29
578.40	44130.80
578.56	44343.79
578.72	44535.71
578.88	44701.89
579.04	44327.41
579.21	44123.78
579.37	44626.99
579.53	44399.96
579.69	44222.08
579.85	44437.41
580.01	44257.19
580.17	44914.88
580.33	44395.28
580.49	44547.42
580.65	44570.82
580.82	44481.88
580.98	44435.07
581.14	44172.93
581.30	44493.58
581.46	44432.73
581.62	44233.78
581.78	44458.48
581.94	45083.40
582.10	44804.88
582.26	44666.78
582.42	44608.27
582.58	44624.65
582.74	44509.97
582.90	44161.23
583.06	44439.75
583.22	44669.12
583.38	44311.02
583.54	44376.56
583.70	44034.84
583.86	43861.64
584.02	43981.01
584.18	44608.27
584.34	44322.72
584.50	44699.55
584.66	44781.47
584.82	44048.88
584.98	44800.19
585.14	44360.17
585.30	44151.87
585.46	44332.09
585.62	44481.88
585.78	44383.58
585.94	44479.54
586.10	44460.82
586.26	44491.24
586.42	44292.30
586.58	44458.48
586.74	44739.34
586.90	44357.83
587.06	44201.02
587.22	44605.93
587.38	44348.47
587.54	44650.40
587.70	44516.99
587.86	44584.86
588.02	44676.15
588.18	44596.57
588.34	44545.08
588.49	44645.72
588.65	43821.85
588.81	44177.61
588.97	44261.87
589.13	44238.47
589.29	44308.68
589.45	44430.39
589.61	44968.71
589.77	44535.71
589.93	44540.39
590.08	44889.13
590.24	44900.84
590.40	45095.10
