SpectraSuite Data File
++++++++++++++++++++++++++++++++++++
Date: Fri Oct 25 11:23:03 EDT 2013
User: price-jones
Dark Spectrum Present: No
Reference Spectrum Present: No
Number of Sampled Component Spectra: 1
Spectrometers: USB2+H05261
Integration Time (usec): 100000 (USB2+H05261)
Spectra Averaged: 1 (USB2+H05261)
Boxcar Smoothing: 0 (USB2+H05261)
Correct for Electrical Dark: No (USB2+H05261)
Strobe/Lamp Enabled: No (USB2+H05261)
Correct for Detector Non-linearity: No (USB2+H05261)
Correct for Stray Light: No (USB2+H05261)
Number of Pixels in Processed Spectrum: 2048
>>>>>Begin Processed Spectral Data<<<<<
365.73	229.37
365.92	229.37
366.12	229.37
366.32	149.79
366.52	168.52
366.72	121.71
366.91	215.33
367.11	110.01
367.31	128.73
367.51	110.01
367.70	135.75
367.90	102.98
368.10	142.77
368.30	135.75
368.49	102.98
368.69	163.84
368.89	196.60
369.09	133.41
369.28	166.18
369.48	205.97
369.68	159.16
369.87	166.18
370.07	264.48
370.27	205.97
370.47	351.08
370.66	550.03
370.86	645.99
371.06	667.05
371.25	667.05
371.45	638.97
371.65	688.12
371.84	650.67
372.04	645.99
372.24	760.67
372.44	692.80
372.63	802.80
372.83	720.88
373.03	805.14
373.22	732.59
373.42	669.39
373.62	793.44
373.81	793.44
374.01	772.38
374.21	807.48
374.40	840.25
374.60	786.42
374.79	851.96
374.99	784.08
375.19	826.21
375.38	814.51
375.58	781.74
375.78	856.64
375.97	814.51
376.17	1018.13
376.37	882.38
376.56	924.51
376.76	863.66
376.95	903.45
377.15	945.58
377.35	854.30
377.54	854.30
377.74	861.32
377.93	875.36
378.13	912.81
378.33	901.11
378.52	959.62
378.72	968.98
378.91	950.26
379.11	950.26
379.31	952.60
379.50	1034.52
379.70	929.19
379.89	1090.69
380.09	999.41
380.28	997.07
380.48	1041.54
380.68	957.28
380.87	943.24
381.07	971.32
381.26	1064.94
381.46	1022.81
381.65	954.94
381.85	961.96
382.04	1013.45
382.24	1048.56
382.43	1043.88
382.63	994.73
382.83	1111.75
383.02	1081.33
383.22	1064.94
383.41	1022.81
383.61	1128.14
383.80	1088.35
384.00	1135.16
384.19	1212.40
384.39	1144.52
384.58	1100.05
384.78	1179.63
384.97	1170.27
385.17	1095.37
385.36	1153.88
385.56	1287.29
385.75	1093.03
385.95	1238.14
386.14	1165.59
386.34	1242.82
386.53	1240.48
386.72	1219.42
386.92	1235.80
387.11	1245.16
387.31	1214.74
387.50	1196.01
387.70	1256.87
387.89	1240.48
388.09	1163.25
388.28	1181.97
388.48	1296.66
388.67	1357.51
388.86	1277.93
389.06	1261.55
389.25	1235.80
389.45	1366.87
389.64	1294.32
389.84	1423.05
390.03	1385.60
390.22	1425.39
390.42	1420.71
390.61	1394.96
390.81	1394.96
391.00	1355.17
391.19	1476.88
391.39	1511.99
391.58	1427.73
391.78	1409.00
391.97	1509.65
392.16	1420.71
392.36	1519.01
392.55	1516.67
392.75	1593.90
392.94	1497.94
393.13	1575.18
393.33	1575.18
393.52	1596.25
393.71	1612.63
393.91	1631.35
394.10	1629.01
394.29	1636.03
394.49	1544.75
394.68	1657.10
394.88	1654.76
395.07	1668.80
395.26	1572.84
395.46	1652.42
395.65	1699.23
395.84	1713.27
396.04	1741.36
396.23	1790.51
396.42	1708.59
396.62	1776.47
396.81	1832.64
397.00	1790.51
397.19	1874.77
397.39	1769.44
397.58	1891.15
397.77	1863.07
397.97	1895.83
398.16	1952.01
398.35	1930.94
398.55	1933.28
398.74	1912.22
398.93	1900.52
399.12	1867.75
399.32	1902.86
399.51	1912.22
399.70	1982.43
399.90	1968.39
400.09	1994.14
400.28	2054.99
400.47	2078.40
400.67	2165.00
400.86	2057.33
401.05	2120.53
401.24	2054.99
401.44	2087.76
401.63	2080.74
401.82	2157.97
402.01	2134.57
402.21	2209.47
402.40	2218.83
402.59	2153.29
402.78	2232.87
402.97	2190.74
403.17	2286.70
403.36	2279.68
403.55	2380.32
403.74	2427.14
403.93	2441.18
404.13	2340.54
404.32	2342.88
404.51	2485.65
404.70	2450.54
404.89	2347.56
405.09	2581.61
405.28	2452.88
405.47	2490.33
405.66	2502.03
405.85	2459.90
406.05	2544.16
406.24	2506.71
406.43	2450.54
406.62	2710.34
406.81	2738.43
407.00	2658.85
407.20	2548.84
407.39	2583.95
407.58	2654.17
407.77	2808.64
407.96	2841.41
408.15	2759.49
408.34	2813.32
408.54	2890.56
408.73	2892.90
408.92	2829.71
409.11	2878.86
409.30	2855.45
409.49	2986.52
409.68	3014.61
409.87	2951.42
410.07	3026.31
410.26	3122.27
410.45	2878.86
410.64	3066.10
410.83	3176.11
411.02	3157.38
411.21	3110.57
411.40	3094.19
411.59	3295.47
411.78	3269.73
411.98	3213.56
412.17	3314.20
412.36	3265.05
412.55	3351.65
412.74	3431.23
412.93	3440.59
413.12	3393.78
413.31	3606.77
413.50	3541.23
413.69	3473.36
413.88	3709.75
414.07	3719.11
414.26	3646.55
414.45	3740.18
414.64	3616.13
414.83	3742.52
415.02	3845.50
415.22	3920.40
415.41	3887.63
415.60	3812.73
415.79	3861.88
415.98	4058.49
416.17	4011.68
416.36	4049.13
416.55	3948.48
416.74	4088.92
416.93	4044.45
417.12	4126.36
417.31	4219.99
417.50	4149.77
417.69	4266.80
417.88	4344.03
418.07	4379.14
418.26	4458.72
418.45	4273.82
418.64	4535.96
418.83	4447.02
419.02	4376.80
419.21	4514.89
419.39	4566.39
419.58	4470.42
419.77	4676.39
419.96	4767.67
420.15	4620.22
420.34	4648.30
420.53	4727.88
420.72	4814.48
420.91	4767.67
421.10	4865.97
421.29	4821.50
421.48	4770.01
421.67	4919.81
421.86	4877.68
422.05	4863.63
422.24	4877.68
422.43	4833.21
422.61	4964.28
422.80	5022.79
422.99	4964.28
423.18	5074.28
423.37	5043.85
423.56	4966.62
423.75	5090.67
423.94	4931.51
424.13	4601.49
424.32	4795.76
424.50	4961.94
424.69	5252.16
424.88	5006.41
425.07	5057.90
425.26	5006.41
425.45	5153.86
425.64	4968.96
425.83	4990.02
426.01	5167.90
426.20	5165.56
426.39	5100.03
426.58	5088.32
426.77	5167.90
426.96	5231.10
427.15	5085.98
427.33	5233.44
427.52	5221.74
427.71	5336.42
427.90	5221.74
428.09	5404.30
428.28	5322.38
428.46	5406.64
428.65	5579.84
428.84	5526.00
429.03	5549.41
429.22	5392.59
429.40	5469.83
429.59	5551.75
429.78	5294.29
429.97	5146.84
430.16	5472.17
430.34	5638.35
430.53	5788.14
430.72	5577.50
430.91	5696.86
431.10	5607.92
431.28	5811.55
431.47	5769.42
431.66	5858.36
431.85	5799.85
432.03	5797.51
432.22	6097.10
432.41	6071.35
432.60	5989.43
432.79	5973.05
432.97	6015.18
433.16	6080.71
433.35	5980.07
433.54	6113.48
433.72	6179.01
433.91	6033.90
434.10	6223.48
434.28	6157.95
434.47	6392.00
434.66	6146.25
434.85	6293.70
435.03	6303.06
435.22	6193.06
435.41	6518.39
435.59	6408.39
435.78	6420.09
435.97	6555.84
436.16	6651.80
436.34	6303.06
436.53	6637.76
436.72	6832.02
436.90	6464.56
437.09	6668.19
437.28	6544.14
437.46	6715.00
437.65	6733.72
437.84	6874.15
438.02	6764.15
438.21	6752.45
438.40	6754.79
438.58	7066.08
438.77	7290.77
438.96	7211.19
439.14	7056.72
439.33	7164.38
439.52	7295.45
439.70	7185.44
439.89	7323.54
440.08	7541.21
440.26	7307.15
440.45	7356.30
440.63	7756.54
440.82	7833.77
441.01	7623.12
441.19	7662.91
441.38	7798.66
441.57	7819.73
441.75	7864.20
441.94	7831.43
442.12	8088.89
442.31	8290.18
442.50	8051.44
442.68	7981.23
442.87	8189.53
443.05	8107.62
443.24	8128.68
443.43	8140.38
443.61	8248.05
443.80	8568.70
443.98	8168.47
444.17	7859.52
444.35	8308.90
444.54	8414.23
444.73	8390.82
444.91	8517.21
445.10	8559.34
445.28	8297.20
445.47	8397.84
445.65	8421.25
445.84	8528.91
446.02	8524.23
446.21	8578.06
446.39	8376.78
446.58	8533.59
446.77	8430.61
446.95	8322.94
447.14	8442.31
447.32	8777.01
447.51	8557.00
447.69	8727.86
447.88	8500.83
448.06	8596.79
448.25	8507.85
448.43	8751.26
448.62	8734.88
448.80	8667.00
448.99	8784.03
449.17	8891.70
449.36	8847.22
449.54	8943.19
449.73	9116.39
449.91	9104.68
450.10	9085.96
450.28	9252.14
450.46	9315.33
450.65	9378.53
450.83	9097.66
451.02	9025.11
451.20	9217.03
451.39	9263.84
451.57	9392.57
451.76	9006.38
451.94	9247.46
452.13	9624.28
452.31	9387.89
452.49	9394.91
452.68	9364.48
452.86	9547.05
453.05	9671.09
453.23	9462.79
453.42	9327.03
453.60	9460.45
453.78	9479.17
453.97	9394.91
454.15	9584.49
454.34	9469.81
454.52	9900.47
454.70	9788.12
454.89	9928.55
455.07	9820.89
455.26	10150.90
455.44	10153.24
455.62	10052.60
455.81	9846.63
455.99	10003.45
456.17	10162.61
456.36	10083.03
456.54	10263.25
456.73	10267.93
456.91	10581.56
457.09	10441.13
457.28	10471.56
457.46	10370.91
457.64	10593.26
457.83	10846.04
458.01	10572.20
458.19	10551.14
458.38	10768.80
458.56	10944.34
458.74	10712.63
458.93	10857.75
459.11	10773.49
459.29	10871.79
459.48	11030.94
459.66	10993.50
459.84	11115.20
460.03	11250.96
460.21	11115.20
460.39	10918.60
460.57	11129.25
460.76	11229.89
460.94	11246.27
461.12	11304.79
461.31	11232.23
461.49	11283.72
461.67	11293.08
461.85	11625.44
462.04	11485.01
462.22	11735.45
462.40	11679.27
462.59	11599.70
462.77	11578.63
462.95	11719.06
463.13	11660.55
463.32	11740.13
463.50	11833.75
463.68	11871.20
463.86	12079.50
464.05	11646.51
464.23	11672.25
464.41	11946.09
464.59	11756.51
464.78	12374.41
464.96	12020.99
465.14	12023.33
465.32	12320.58
465.50	12255.04
465.69	12346.33
465.87	12182.49
466.05	11899.28
466.23	12241.00
466.41	12198.87
466.60	12781.67
466.78	12358.03
466.96	12215.26
467.14	12510.16
467.32	12620.17
467.51	12610.81
467.69	12329.94
467.87	12491.44
468.05	12732.51
468.23	12578.04
468.41	12458.67
468.60	12863.58
468.78	13081.25
468.96	12638.89
469.14	12945.50
469.32	13069.55
469.50	12800.39
469.69	13224.03
469.87	13205.30
470.05	13177.22
470.23	13287.22
470.41	13359.78
470.59	13486.17
470.77	13467.44
470.95	13298.92
471.14	13919.17
471.32	13366.80
471.50	13717.88
471.68	13825.54
471.86	13668.73
472.04	13909.80
472.22	14235.14
472.40	13881.72
472.58	14003.43
472.77	14251.52
472.95	14267.91
473.13	14684.52
473.31	14347.48
473.49	14092.37
473.67	14043.21
473.85	14396.64
474.03	14827.29
474.21	14576.86
474.39	14841.34
474.57	14813.25
474.75	14974.75
474.93	15267.31
475.12	14967.73
475.30	15344.55
475.48	15379.66
475.66	15496.69
475.84	15351.57
476.02	15648.82
476.20	15611.37
476.38	15829.04
476.56	16149.70
476.74	16348.64
476.92	16084.16
477.10	15875.85
477.28	16056.08
477.46	16372.05
477.64	16599.08
477.82	16814.41
478.00	17111.66
478.18	16814.41
478.36	17076.55
478.54	17322.30
478.72	17572.74
478.90	17474.44
479.08	17965.95
479.26	17813.82
479.44	17865.31
479.62	17685.09
479.80	17905.10
479.98	18209.37
480.16	18602.58
480.34	18604.92
480.52	18422.36
480.70	19005.15
480.88	18494.91
481.06	18944.30
481.24	19236.86
481.41	19337.51
481.59	19496.66
481.77	19903.92
481.95	19946.05
482.13	19920.30
482.31	19983.49
482.49	20414.15
482.67	20322.87
482.85	20629.48
483.03	20837.79
483.21	21050.78
483.39	21202.91
483.57	20959.50
483.74	21757.62
483.92	21160.78
484.10	21694.43
484.28	21717.83
484.46	22080.61
484.64	22384.88
484.82	22120.40
485.00	22609.58
485.18	22974.70
485.35	23243.86
485.53	23150.24
485.71	23417.06
485.89	23674.52
486.07	23782.18
486.25	23864.10
486.43	23927.30
486.61	23859.42
486.78	24297.10
486.96	24374.34
487.14	24945.43
487.32	24931.39
487.50	25078.84
487.68	25418.22
487.85	25675.68
488.03	25638.23
488.21	25989.31
488.39	25797.38
488.57	26529.97
488.75	26602.53
488.92	26506.57
489.10	27325.75
489.28	26965.31
489.46	27440.44
489.64	27091.70
489.81	27962.38
489.99	27896.85
490.17	27821.95
490.35	28404.74
490.53	28662.20
490.70	28587.30
490.88	28505.38
491.06	29284.78
491.24	29509.47
491.41	29572.67
491.59	29535.22
491.77	29486.07
491.95	30057.16
492.13	29958.86
492.30	30181.21
492.48	30438.67
492.66	30492.50
492.84	30794.43
493.01	31281.26
493.19	30752.30
493.37	31175.94
493.54	31637.02
493.72	32105.13
493.90	31910.86
494.08	31828.95
494.25	32355.57
494.43	32512.38
494.61	32725.37
494.79	32734.73
494.96	32945.38
495.14	33216.88
495.32	33689.67
495.49	33441.57
495.67	33682.65
495.85	33720.10
496.02	34288.85
496.20	34307.57
496.38	34443.32
496.55	34445.66
496.73	35337.41
496.91	35157.19
497.09	35065.91
497.26	35564.44
497.44	35056.54
497.62	35400.60
497.79	35964.67
497.97	36065.31
498.14	36070.00
498.32	36821.31
498.50	36397.67
498.67	36856.42
498.85	36762.79
499.03	37291.76
499.20	37441.55
499.38	37158.34
499.56	37502.40
499.73	37699.01
499.91	37364.31
500.08	38061.79
500.26	37813.70
500.44	38244.35
500.61	38115.62
500.79	38078.18
500.97	38480.75
501.14	38918.43
501.32	38712.46
501.49	39241.42
501.67	39065.88
501.84	39363.13
502.02	39143.12
502.20	39283.55
502.37	39505.90
502.55	39761.02
502.72	40184.66
502.90	39728.25
503.07	40105.08
503.25	40224.45
503.43	39962.31
503.60	40720.64
503.78	40694.89
503.95	40762.77
504.13	40730.00
504.30	41151.30
504.48	40854.05
504.65	41408.76
504.83	41326.84
505.01	41457.91
505.18	41450.89
505.36	42052.41
505.53	41443.87
505.71	41844.10
505.88	42323.91
506.06	41867.50
506.23	42536.90
506.41	42122.62
506.58	42368.38
506.76	42295.82
506.93	42684.35
507.11	42754.57
507.28	43033.09
507.46	43377.15
507.63	43416.94
507.81	43966.96
507.98	43531.62
508.16	43257.78
508.33	43856.96
508.50	43966.96
508.68	44114.42
508.85	44264.21
509.03	44549.76
509.20	44507.63
509.38	44634.02
509.55	44662.10
509.73	44870.41
509.90	44589.55
510.08	44996.80
510.25	44781.47
510.42	44804.88
510.60	45497.67
510.77	45654.49
510.95	45708.32
511.12	45352.56
511.30	45799.60
511.47	45455.54
511.64	45724.71
511.82	46244.30
511.99	45935.35
512.17	46728.80
512.34	46419.84
512.51	46897.31
512.69	46897.31
512.86	46546.23
513.04	46871.57
513.21	47138.39
513.38	47332.65
513.56	47363.08
513.73	47313.93
513.90	47456.70
514.08	46953.49
514.25	48090.99
514.43	47648.63
514.60	47569.05
514.77	47779.70
514.95	48521.65
515.12	47772.67
515.29	47653.31
515.47	47920.13
515.64	48388.24
515.81	48215.04
515.99	48413.98
516.16	49029.54
516.33	48751.02
516.51	49242.53
516.68	48769.74
516.85	49048.27
517.03	49041.24
517.20	49282.32
517.37	48924.22
517.54	49331.47
517.72	49359.56
517.89	49631.06
518.06	49963.42
518.24	49787.88
518.41	49703.62
518.58	49244.87
518.75	49446.16
518.93	50113.21
519.10	49921.29
519.27	50066.40
519.45	50167.04
519.62	50113.21
519.79	50162.36
519.96	50300.45
520.14	50415.14
520.31	50314.50
520.48	50869.20
520.65	50550.89
520.83	50923.04
521.00	50930.06
521.17	50962.82
521.34	50997.93
521.52	51124.32
521.69	50993.25
521.86	51849.89
522.03	51487.10
522.20	51470.72
522.38	51723.50
522.55	51877.97
522.72	51550.30
522.89	51674.35
523.07	52128.41
523.24	51929.47
523.41	52030.11
523.58	51737.54
523.75	52044.15
523.92	52175.22
524.10	52107.35
524.27	52708.86
524.44	52563.75
524.61	52357.78
524.78	52828.23
524.96	52594.18
525.13	52369.49
525.30	52598.86
525.47	52999.09
525.64	52963.98
525.81	52968.66
525.98	53085.69
526.16	52898.45
526.33	53003.77
526.50	53502.31
526.67	53183.99
526.84	53434.43
527.01	53226.12
527.18	53141.86
527.36	53324.43
527.53	53228.46
527.70	53499.97
527.87	53298.68
528.04	53680.19
528.21	53357.19
528.38	53453.15
528.55	53984.46
528.72	53544.44
528.89	53750.40
529.07	53907.22
529.24	53605.29
529.41	54103.82
529.58	54038.29
529.75	54150.63
529.92	54152.97
530.09	54174.04
530.26	54064.03
530.43	54291.07
530.60	54057.01
530.77	54270.00
530.94	54375.33
531.11	54248.94
531.28	54197.44
531.46	54740.45
531.63	54653.85
531.80	54525.12
531.97	54782.58
532.14	54721.72
532.31	55049.40
532.48	54714.70
532.65	54871.52
532.82	54972.16
532.99	55096.21
533.16	54934.71
533.33	55196.85
533.50	55117.28
533.67	55178.13
533.84	55166.43
534.01	55105.57
534.18	55274.09
534.35	55419.20
534.52	55285.79
534.69	55620.49
534.86	55576.02
535.03	55395.80
535.20	55618.15
535.37	55613.47
535.54	55466.02
535.71	55779.65
535.88	55774.97
536.05	55634.53
536.22	56137.75
536.38	55714.11
536.55	56002.00
536.72	55669.64
536.89	55924.76
537.06	56112.00
537.23	55833.48
537.40	55756.24
537.57	55964.55
537.74	56034.77
537.91	56259.46
538.08	56165.84
538.25	55910.72
538.42	56130.73
538.59	56652.67
538.75	56266.48
538.92	56310.95
539.09	56481.81
539.26	56516.92
539.43	56374.14
539.60	56603.52
539.77	56442.02
539.94	56708.84
540.11	56666.71
540.28	56697.14
540.44	56807.14
540.61	56612.88
540.78	56765.01
540.95	56666.71
541.12	56706.50
541.29	56832.89
541.46	56601.18
541.62	56685.43
541.79	56910.13
541.96	56872.68
542.13	56666.71
542.30	56975.66
542.47	56961.62
542.63	57144.18
542.80	57104.39
542.97	57209.71
543.14	57364.19
543.31	57207.37
543.48	57537.39
543.64	57572.50
543.81	57593.56
543.98	57481.22
544.15	57504.62
544.32	57736.34
544.48	57949.32
544.65	57492.92
544.82	57588.88
544.99	57268.23
545.16	57675.48
545.32	57813.57
545.49	57963.37
545.66	58099.12
545.83	57888.47
546.00	57949.32
546.16	58115.50
546.33	57584.20
546.50	57778.46
546.67	57911.88
546.83	57591.22
547.00	58047.63
547.17	57977.41
547.34	57944.64
547.50	58244.23
547.67	58293.38
547.84	58115.50
548.00	58431.47
548.17	58553.18
548.34	58443.18
548.51	58555.52
548.67	58302.74
548.84	58520.41
549.01	58424.45
549.18	58440.84
549.34	58529.78
549.51	58625.74
549.68	58670.21
549.84	58937.03
550.01	58621.06
550.18	58447.86
550.34	58482.97
550.51	58805.96
550.68	58763.83
550.84	58576.59
551.01	58951.07
551.18	58876.18
551.34	58918.31
551.51	58670.21
551.68	58812.98
551.84	58784.90
552.01	58855.11
552.18	58937.03
552.34	58855.11
552.51	59011.93
552.68	58845.75
552.84	58660.85
553.01	59035.33
553.18	59114.91
553.34	59206.19
553.51	59072.78
553.67	59217.89
553.84	59124.27
554.01	59121.93
554.17	59180.45
554.34	59175.76
554.51	58983.84
554.67	59267.05
554.84	59365.35
555.00	59248.32
555.17	59222.58
555.33	59274.07
555.50	59206.19
555.67	59203.85
555.83	59405.14
556.00	59276.41
556.16	59606.42
556.33	59559.61
556.50	59580.68
556.66	59543.23
556.83	59199.17
556.99	59529.19
557.16	59777.28
557.32	59700.04
557.49	59948.14
557.65	59622.81
557.82	59840.48
557.98	59564.29
558.15	59976.23
558.32	59891.97
558.48	59508.12
558.65	59763.24
558.81	59583.02
558.98	59653.23
559.14	59877.93
559.31	59889.63
559.47	59957.50
559.64	60004.31
559.80	59779.62
559.97	60051.12
560.13	59735.15
560.30	60023.04
560.46	59915.37
560.63	60006.65
560.79	59887.29
560.96	60390.50
561.12	60041.76
561.29	59880.27
561.45	60121.34
561.61	60163.47
561.78	60037.08
561.94	60025.38
562.11	60264.11
562.27	60079.21
562.44	60142.41
562.60	60142.41
562.77	60324.97
562.93	59964.52
563.10	60320.29
563.26	60046.44
563.42	60327.31
563.59	60266.45
563.75	60158.79
563.92	60336.67
564.08	60402.21
564.24	60488.80
564.41	60439.65
564.57	60507.53
564.74	60273.48
564.90	60308.58
565.07	60346.03
565.23	60420.93
565.39	60252.41
565.56	60437.31
565.72	60301.56
565.88	60430.29
566.05	60252.41
566.21	60423.27
566.38	60441.99
566.54	60624.56
566.70	60748.60
566.87	60692.43
567.03	60203.26
567.19	60713.50
567.36	60568.38
567.52	60554.34
567.68	60757.97
567.85	60500.51
568.01	60680.73
568.17	60767.33
568.34	60825.84
568.50	60615.19
568.66	60530.93
568.83	60720.52
568.99	60533.28
569.15	60404.55
569.32	60657.32
569.48	60491.15
569.64	60804.78
569.81	60603.49
569.97	60610.51
570.13	60570.72
570.30	60491.15
570.46	60617.53
570.62	60790.73
570.78	60643.28
570.95	60669.03
571.11	60767.33
571.27	60884.36
571.43	60802.44
571.60	60832.86
571.76	60776.69
571.92	60893.72
572.09	60746.26
572.25	60886.70
572.41	60697.11
572.57	60764.99
572.74	61125.43
572.90	60914.78
573.06	60774.35
573.22	60872.65
573.38	60970.96
573.55	60795.42
573.71	60952.23
573.87	60900.74
574.03	60755.63
574.20	60970.96
574.36	60783.71
574.52	60884.36
574.68	60992.02
574.84	61127.77
575.01	61104.37
575.17	60924.14
575.33	60900.74
575.49	60907.76
575.65	61059.90
575.82	60999.04
575.98	60947.55
576.14	61268.20
576.30	61160.54
576.46	60968.61
576.62	60889.04
576.79	61123.09
576.95	60823.50
577.11	60903.08
577.27	61116.07
577.43	61139.47
577.59	60781.37
577.75	60954.57
577.92	61062.24
578.08	60996.70
578.24	61066.92
578.40	61272.88
578.56	61162.88
578.72	61102.03
578.88	61279.91
579.04	61305.65
579.21	61261.18
579.37	61134.79
579.53	61080.96
579.69	61017.77
579.85	61106.71
580.01	61048.19
580.17	61066.92
580.33	61347.78
580.49	61286.93
580.65	61109.05
580.82	61059.90
580.98	61193.31
581.14	60851.59
581.30	61179.26
581.46	60912.44
581.62	61083.30
581.78	61120.75
581.94	61071.60
582.10	61183.94
582.26	61172.24
582.42	61095.00
582.58	61137.13
582.74	61087.98
582.90	61097.34
583.06	61038.83
583.22	61073.94
583.38	61062.24
583.54	61333.74
583.70	61134.79
583.86	61073.94
584.02	61137.13
584.18	61254.16
584.34	61155.86
584.50	61242.46
584.66	61095.00
584.82	60828.18
584.98	61462.47
585.14	61146.50
585.30	61123.09
585.46	61209.69
585.62	61359.48
585.78	61429.70
585.94	61181.60
586.10	61263.52
586.26	61270.54
586.42	61406.30
586.58	61200.33
586.74	61087.98
586.90	61066.92
587.06	61307.99
587.22	61284.59
587.38	61303.31
587.54	61347.78
587.70	61509.28
587.86	61298.63
588.02	61373.53
588.18	61441.40
588.34	61406.30
