SpectraSuite Data File
++++++++++++++++++++++++++++++++++++
Date: Fri Oct 25 10:44:13 EDT 2013
User: price-jones
Dark Spectrum Present: No
Reference Spectrum Present: No
Number of Sampled Component Spectra: 1
Spectrometers: USB2+H05261
Integration Time (usec): 100000 (USB2+H05261)
Spectra Averaged: 1 (USB2+H05261)
Boxcar Smoothing: 0 (USB2+H05261)
Correct for Electrical Dark: No (USB2+H05261)
Strobe/Lamp Enabled: No (USB2+H05261)
Correct for Detector Non-linearity: No (USB2+H05261)
Correct for Stray Light: No (USB2+H05261)
Number of Pixels in Processed Spectrum: 2048
>>>>>Begin Processed Spectral Data<<<<<
365.73	128.73
365.92	128.73
366.12	128.73
366.32	0.00
366.52	79.58
366.72	79.58
366.91	51.49
367.11	0.00
367.31	2.34
367.51	0.00
367.70	28.09
367.90	0.00
368.10	0.00
368.30	32.77
368.49	79.58
368.69	107.66
368.89	117.03
369.09	32.77
369.28	49.15
369.48	23.41
369.68	37.45
369.87	112.35
370.07	63.19
370.27	112.35
370.47	128.73
370.66	390.87
370.86	376.83
371.06	463.43
371.25	491.51
371.45	414.27
371.65	510.24
371.84	400.23
372.04	454.06
372.24	498.53
372.44	533.64
372.63	484.49
372.83	589.82
373.03	566.41
373.22	470.45
373.42	500.87
373.62	547.69
373.81	557.05
374.01	631.94
374.21	491.51
374.40	493.85
374.60	580.45
374.79	510.24
374.99	580.45
375.19	552.37
375.38	594.50
375.58	627.26
375.78	606.20
375.97	596.84
376.17	664.71
376.37	627.26
376.56	543.00
376.76	521.94
376.95	592.16
377.15	587.47
377.35	624.92
377.54	678.76
377.74	657.69
377.93	664.71
378.13	631.94
378.33	732.59
378.52	573.43
378.72	641.31
378.91	564.07
379.11	690.46
379.31	585.13
379.50	594.50
379.70	709.18
379.89	662.37
380.09	643.65
380.28	685.78
380.48	746.63
380.68	681.10
380.87	681.10
381.07	723.23
381.26	718.54
381.46	748.97
381.65	739.61
381.85	688.12
382.04	650.67
382.24	671.73
382.43	624.92
382.63	664.71
382.83	760.67
383.02	704.50
383.22	753.65
383.41	732.59
383.61	814.51
383.80	781.74
384.00	716.20
384.19	720.88
384.39	901.11
384.58	709.18
384.78	807.48
384.97	894.08
385.17	739.61
385.36	786.42
385.56	849.61
385.75	716.20
385.95	763.01
386.14	891.74
386.34	875.36
386.53	868.34
386.72	816.85
386.92	926.85
387.11	840.25
387.31	873.02
387.50	880.04
387.70	863.66
387.89	901.11
388.09	929.19
388.28	861.32
388.48	835.57
388.67	880.04
388.86	973.66
389.06	964.30
389.25	954.94
389.45	994.73
389.64	968.98
389.84	1011.11
390.03	1001.75
390.22	990.05
390.42	1095.37
390.61	992.39
390.81	987.71
391.00	1041.54
391.19	1090.69
391.39	1020.47
391.58	1097.71
391.78	1015.79
391.97	1078.99
392.16	1006.43
392.36	1043.88
392.55	947.92
392.75	1001.75
392.94	999.41
393.13	1011.11
393.33	1067.28
393.52	1055.58
393.71	1015.79
393.91	1022.81
394.10	1167.93
394.29	1165.59
394.49	1121.12
394.68	1153.88
394.88	1165.59
395.07	1210.06
395.26	1156.22
395.46	1221.76
395.65	1247.51
395.84	1200.69
396.04	1193.67
396.23	1179.63
396.42	1114.10
396.62	1174.95
396.81	1137.50
397.00	1266.23
397.19	1268.57
397.39	1331.76
397.58	1441.77
397.77	1392.62
397.97	1446.45
398.16	1411.34
398.35	1439.43
398.55	1390.28
398.74	1455.81
398.93	1437.09
399.12	1568.16
399.32	1469.86
399.51	1383.26
399.70	1558.80
399.90	1551.78
400.09	1575.18
400.28	1586.88
400.47	1633.69
400.67	1624.33
400.86	1640.72
401.05	1717.95
401.24	1680.50
401.44	1799.87
401.63	1701.57
401.82	1764.76
402.01	1713.27
402.21	1652.42
402.40	1680.50
402.59	1816.26
402.78	1788.17
402.97	1685.19
403.17	1706.25
403.36	1804.55
403.55	1799.87
403.74	1900.52
403.93	1849.02
404.13	1867.75
404.32	1776.47
404.51	1792.85
404.70	1842.00
404.89	1914.56
405.09	1891.15
405.28	1942.64
405.47	1923.92
405.66	2024.56
405.85	1949.67
406.05	1944.99
406.24	1923.92
406.43	1989.46
406.62	2026.90
406.81	2080.74
407.00	2019.88
407.20	2003.50
407.39	1940.30
407.58	2106.48
407.77	2214.15
407.96	2246.91
408.15	2108.82
408.34	2115.84
408.54	2221.17
408.73	2209.47
408.92	2289.04
409.11	2246.91
409.30	2317.13
409.49	2296.07
409.68	2167.34
409.87	2286.70
410.07	2347.56
410.26	2349.90
410.45	2272.66
410.64	2401.39
410.83	2450.54
411.02	2544.16
411.21	2551.18
411.40	2569.91
411.59	2569.91
411.78	2537.14
411.98	2567.57
412.17	2576.93
412.36	2780.56
412.55	2712.68
412.74	2703.32
412.93	2684.59
413.12	2665.87
413.31	2785.24
413.50	2768.85
413.69	2808.64
413.88	2864.82
414.07	2897.58
414.26	2853.11
414.45	3073.12
414.64	3014.61
414.83	3000.57
415.02	2944.39
415.22	2951.42
415.41	3054.40
415.60	3131.64
415.79	3152.70
415.98	3253.34
416.17	3145.68
416.36	3213.56
416.55	3208.87
416.74	3286.11
416.93	3101.21
417.12	3314.20
417.31	3286.11
417.50	3365.69
417.69	3407.82
417.88	3555.27
418.07	3503.78
418.26	3391.44
418.45	3421.86
418.64	3531.87
418.83	3496.76
419.02	3538.89
419.21	3510.80
419.39	3667.62
419.58	3391.44
419.77	3524.85
419.96	3592.72
420.15	3604.42
420.34	3595.06
420.53	3719.11
420.72	3868.91
420.91	3784.65
421.10	3564.64
421.29	3840.82
421.48	3791.67
421.67	3749.54
421.86	3796.35
422.05	3845.50
422.24	3735.50
422.43	3688.68
422.61	3749.54
422.80	3801.03
422.99	3854.86
423.18	3850.18
423.37	3896.99
423.56	3922.74
423.75	3901.67
423.94	3990.61
424.13	3742.52
424.32	3768.26
424.50	3962.53
424.69	3983.59
424.88	3995.29
425.07	3831.46
425.26	3803.37
425.45	3918.06
425.64	3770.60
425.83	4025.72
426.01	4063.17
426.20	4065.51
426.39	3983.59
426.58	3805.71
426.77	3908.69
426.96	3985.93
427.15	3854.86
427.33	4091.26
427.52	3948.48
427.71	4030.40
427.90	4086.58
428.09	4166.15
428.28	4184.88
428.46	3962.53
428.65	4138.07
428.84	4173.18
429.03	4067.85
429.22	4067.85
429.40	4079.55
429.59	4152.11
429.78	3815.07
429.97	3812.73
430.16	3985.93
430.34	4025.72
430.53	4032.74
430.72	4227.01
430.91	4149.77
431.10	4341.69
431.28	4428.29
431.47	4428.29
431.66	4456.38
431.85	4561.70
432.03	4484.47
432.22	4648.30
432.41	4667.03
432.60	4748.95
432.79	4678.73
432.97	4641.28
433.16	4709.16
433.35	4568.73
433.54	4540.64
433.72	4664.69
433.91	4603.83
434.10	4786.40
434.28	4760.65
434.47	4809.80
434.66	4802.78
434.85	4919.81
435.03	5083.64
435.22	4954.91
435.41	5116.41
435.59	5093.01
435.78	5062.58
435.97	5083.64
436.16	5064.92
436.34	5067.26
436.53	5121.09
436.72	5280.25
436.90	4971.30
437.09	5109.39
437.28	5074.28
437.46	5128.11
437.65	5203.01
437.84	5167.90
438.02	5050.88
438.21	5116.41
438.40	5064.92
438.58	5331.74
438.77	5380.89
438.96	5324.72
439.14	5427.70
439.33	5488.56
439.52	5547.07
439.70	5526.00
439.89	5582.18
440.08	5628.99
440.26	5572.82
440.45	5837.30
440.63	5738.99
440.82	5757.72
441.01	5884.11
441.19	5944.96
441.38	6125.18
441.57	6122.84
441.75	6087.73
441.94	6317.11
442.12	6296.04
442.31	6296.04
442.50	6349.87
442.68	6214.12
442.87	6317.11
443.05	6431.79
443.24	6466.90
443.43	6204.76
443.61	6396.68
443.80	6502.01
443.98	6282.00
444.17	6251.57
444.35	6452.86
444.54	6525.41
444.73	6345.19
444.91	6324.13
445.10	6225.82
445.28	6317.11
445.47	6303.06
445.65	6509.03
445.84	6427.11
446.02	6499.67
446.21	6452.86
446.39	6380.30
446.58	6459.88
446.77	6586.27
446.95	6476.26
447.14	6604.99
447.32	6651.80
447.51	6607.33
447.69	6581.59
447.88	6707.98
448.06	6633.08
448.25	6686.91
448.43	6616.69
448.62	6719.68
448.80	6609.67
448.99	6576.91
449.17	6733.72
449.36	6764.15
449.54	6834.36
449.73	7087.14
449.91	7119.91
450.10	6944.37
450.28	7101.19
450.46	7332.90
450.65	7185.44
450.83	7258.00
451.02	7229.91
451.20	7173.74
451.39	7070.76
451.57	6986.50
451.76	7148.00
451.94	7059.06
452.13	7166.72
452.31	7227.57
452.49	7115.23
452.68	7157.36
452.86	7215.87
453.05	7190.13
453.23	7293.11
453.42	7183.10
453.60	7250.98
453.78	7435.88
453.97	7276.73
454.15	7391.41
454.34	7096.50
454.52	7433.54
454.70	7400.77
454.89	7321.20
455.07	7538.87
455.26	7494.40
455.44	7550.57
455.62	7756.54
455.81	7691.00
455.99	7765.90
456.17	7583.34
456.36	7815.05
456.54	7894.63
456.73	7903.99
456.91	8016.33
457.09	7981.23
457.28	7878.24
457.46	8166.13
457.64	8102.93
457.83	8035.06
458.01	8046.76
458.19	8060.80
458.38	7992.93
458.56	8086.55
458.74	8297.20
458.93	8280.82
459.11	8297.20
459.29	8145.06
459.48	8149.75
459.66	8449.33
459.84	8346.35
460.03	8475.08
460.21	8458.70
460.39	8482.10
460.57	8446.99
460.76	8339.33
460.94	8535.93
461.12	8528.91
461.31	8517.21
461.49	8531.25
461.67	8416.57
461.85	9104.68
462.04	8571.04
462.22	8835.52
462.40	8851.91
462.59	8821.48
462.77	8826.16
462.95	8922.12
463.13	8872.97
463.32	8777.01
463.50	8931.48
463.68	8994.68
463.86	8931.48
464.05	8865.95
464.23	8985.32
464.41	9001.70
464.59	8659.98
464.78	9195.96
464.96	8933.82
465.14	9135.11
465.32	9118.73
465.50	9130.43
465.69	9249.80
465.87	9226.39
466.05	9064.89
466.23	9060.21
466.41	8980.64
466.60	9170.22
466.78	9111.71
466.96	9217.03
467.14	9268.52
467.32	9268.52
467.51	9437.04
467.69	9092.98
467.87	9329.38
468.05	9481.51
468.23	9296.61
468.41	9394.91
468.60	9437.04
468.78	9476.83
468.96	9493.21
469.14	9455.76
469.32	9645.35
469.50	9448.74
469.69	9750.67
469.87	9778.76
470.05	9671.09
470.23	9973.02
470.41	9671.09
470.59	9804.50
470.77	9804.50
470.95	9778.76
471.14	10099.41
471.32	9797.48
471.50	10272.61
471.68	10171.97
471.86	10335.81
472.04	10420.06
472.22	10424.75
472.40	10068.98
472.58	10384.96
472.77	10141.54
472.95	10298.36
473.13	10796.89
473.31	10349.85
473.49	10534.75
473.67	10331.12
473.85	10721.99
474.03	10864.77
474.21	10860.09
474.39	10963.07
474.57	11136.27
474.75	11166.70
474.93	11042.65
475.12	11136.27
475.30	11206.48
475.48	11094.14
475.66	11400.75
475.84	11398.41
476.02	11412.45
476.20	11229.89
476.38	11559.91
476.56	11843.11
476.74	11669.91
476.92	11606.72
477.10	11747.15
477.28	11932.05
477.46	12140.36
477.64	12032.69
477.82	12276.11
478.00	12395.48
478.18	12210.57
478.36	12383.77
478.54	12652.94
478.72	12669.32
478.90	12720.81
479.08	12924.44
479.26	12936.14
479.44	12985.29
479.62	13214.66
479.80	13432.33
479.98	13167.85
480.16	13486.17
480.34	13338.71
480.52	13877.04
480.70	14087.68
480.88	13415.95
481.06	13837.25
481.24	13783.41
481.41	14005.77
481.59	14567.49
481.77	14391.95
481.95	14083.00
482.13	14663.46
482.31	14265.57
482.49	14824.95
482.67	15044.96
482.85	14670.48
483.03	14988.79
483.21	15342.21
483.39	15033.26
483.57	15206.46
483.74	15534.14
483.92	15496.69
484.10	15372.64
484.28	15501.37
484.46	15681.59
484.64	16395.45
484.82	16018.63
485.00	16142.67
485.18	16177.78
485.35	16161.40
485.53	16184.80
485.71	16402.47
485.89	16383.75
486.07	16397.79
486.25	16561.63
486.43	16915.05
486.61	16978.25
486.78	17032.08
486.96	17294.22
487.14	17528.27
487.32	17497.84
487.50	17905.10
487.68	18120.43
487.85	18071.28
488.03	18331.08
488.21	18555.77
488.39	18361.50
488.57	18427.04
488.75	18169.58
488.92	19028.56
489.10	19243.88
489.28	19454.53
489.46	19393.68
489.64	19421.77
489.81	20079.46
489.99	19866.47
490.17	19868.81
490.35	20304.15
490.53	20065.41
490.70	20318.19
490.88	20107.54
491.06	20772.25
491.24	20702.04
491.41	20692.68
491.59	20844.81
491.77	20460.96
491.95	20886.94
492.13	21191.21
492.30	21443.99
492.48	21839.54
492.66	21682.72
492.84	21565.70
493.01	21664.00
493.19	22015.08
493.37	22139.13
493.54	22104.02
493.72	22354.46
493.90	22480.85
494.08	22525.32
494.25	23026.19
494.43	22944.27
494.61	23145.56
494.79	23463.87
494.96	23161.94
495.14	23384.29
495.32	23262.58
495.49	23304.71
495.67	23733.03
495.85	23403.02
496.02	24198.80
496.20	24233.91
496.38	24357.96
496.55	24634.14
496.73	24844.79
496.91	24755.85
497.09	24774.57
497.26	25120.97
497.44	24643.50
497.62	25263.74
497.79	25308.21
497.97	24840.11
498.14	25319.92
498.32	25832.49
498.50	25462.69
498.67	25970.58
498.85	26031.44
499.03	26059.52
499.20	25956.54
499.38	26136.76
499.56	26225.70
499.73	26352.09
499.91	26527.63
500.08	26277.19
500.26	25895.69
500.44	26483.16
500.61	26483.16
500.79	26515.93
500.97	26436.35
501.14	26937.23
501.32	26698.49
501.49	26930.20
501.67	27192.34
501.84	27358.52
502.02	27559.81
502.20	27623.00
502.37	27761.09
502.55	27456.82
502.72	27438.10
502.90	28158.99
503.07	27845.35
503.25	28283.03
503.43	27927.27
503.60	27981.10
503.78	28144.94
503.95	27838.33
504.13	28294.74
504.30	28252.61
504.48	28512.41
504.65	28868.17
504.83	29027.32
505.01	29008.60
505.18	29188.82
505.36	29607.78
505.53	28919.66
505.71	29123.29
505.88	29467.34
506.06	28891.57
506.23	29567.99
506.41	29364.36
506.58	29713.10
506.76	29759.91
506.93	29993.97
507.11	30148.44
507.28	29748.21
507.46	29799.70
507.63	30026.73
507.81	29872.26
507.98	29989.28
508.16	30232.70
508.33	30244.40
508.50	30752.30
508.68	30869.33
508.85	31147.85
509.03	30986.35
509.20	30771.02
509.38	31213.38
509.55	31007.42
509.73	30995.71
509.90	30976.99
510.08	30934.86
510.25	30986.35
510.42	31276.58
510.60	31559.78
510.77	31915.54
510.95	31704.90
511.12	31796.18
511.30	32208.11
511.47	31913.20
511.64	32371.95
511.82	32582.60
511.99	32025.55
512.17	32299.39
512.34	32287.69
512.51	32582.60
512.69	32713.67
512.86	32779.20
513.04	32687.92
513.21	32402.38
513.38	32938.36
513.56	32517.06
513.73	32818.99
513.90	32947.72
514.08	33055.39
514.25	33113.90
514.43	32795.59
514.60	33141.99
514.77	33605.41
514.95	33249.65
515.12	33574.98
515.29	33310.50
515.47	33764.57
515.64	33806.70
515.81	33563.28
515.99	33593.71
516.16	33448.60
516.33	33261.35
516.51	33926.07
516.68	32854.10
516.85	33436.89
517.03	33310.50
517.20	33544.56
517.37	34373.11
517.54	34368.43
517.72	34274.80
517.89	33977.56
518.06	34010.32
518.24	33996.28
518.41	34370.77
518.58	34305.23
518.75	34473.75
518.93	34649.29
519.10	34602.48
519.27	35040.16
519.45	35129.10
519.62	34958.24
519.79	35016.75
519.96	35421.67
520.14	35620.61
520.31	34939.52
520.48	35143.14
520.65	35646.36
520.83	35695.51
521.00	35981.06
521.17	35662.74
521.34	35945.95
521.52	35798.49
521.69	35782.11
521.86	36137.87
522.03	36240.86
522.20	36488.95
522.38	36355.54
522.55	36339.16
522.72	36322.77
522.89	36278.30
523.07	36591.94
523.24	36591.94
523.41	36605.98
523.58	36580.23
523.75	37364.31
523.92	37036.64
524.10	37202.82
524.27	37343.25
524.44	37165.37
524.61	37450.91
524.78	37212.18
524.96	37148.98
525.13	37439.21
525.30	37483.68
525.47	37539.85
525.64	37647.52
525.81	37357.29
525.98	37612.41
526.16	37689.65
526.33	37090.47
526.50	37446.23
526.67	37340.91
526.84	37404.10
527.01	36730.03
527.18	37364.31
527.36	37792.63
527.53	37982.21
527.70	38216.27
527.87	38382.45
528.04	38696.08
528.21	38169.46
528.38	38394.15
528.55	38543.94
528.72	39061.20
528.89	39061.20
529.07	38410.53
529.24	38602.46
529.41	38593.09
529.58	38497.13
529.75	38518.20
529.92	39068.22
530.09	38890.34
530.26	38841.19
530.43	39110.35
530.60	38740.55
530.77	38618.84
530.94	39199.29
531.11	39580.80
531.28	39283.55
531.46	39545.69
531.63	39454.41
531.80	39321.00
531.97	39597.18
532.14	39393.56
532.31	39384.19
532.48	39119.71
532.65	38965.24
532.82	39856.98
532.99	39531.65
533.16	39328.02
533.33	39786.77
533.50	39641.65
533.67	39971.67
533.84	39629.95
534.01	40069.97
534.18	39597.18
534.35	40423.39
534.52	40322.75
534.69	40341.47
534.86	40460.84
535.03	40594.25
535.20	40931.29
535.37	40718.30
535.54	40863.41
535.71	40811.92
535.88	40910.22
536.05	40467.86
536.22	40570.85
536.38	40706.60
536.55	40191.68
536.72	40715.96
536.89	40528.72
537.06	40795.54
537.23	41155.98
537.40	40753.41
537.57	40800.22
537.74	40802.56
537.91	41560.89
538.08	40851.71
538.25	41230.88
538.42	41270.67
538.59	41308.11
538.75	41031.93
538.92	41434.50
539.09	41411.10
539.26	41642.81
539.43	41181.73
539.60	41305.77
539.77	41216.83
539.94	41385.35
540.11	41511.74
540.28	41310.46
540.44	41455.57
540.61	41226.20
540.78	41439.18
540.95	41467.27
541.12	41308.11
541.29	41841.76
541.46	41500.04
541.62	41579.62
541.79	42293.48
541.96	41921.34
542.13	41792.61
542.30	42080.49
542.47	41745.80
542.63	42520.51
542.80	41972.83
542.97	42340.29
543.14	42693.71
543.31	42490.09
543.48	42646.90
543.64	43091.60
543.81	42712.44
543.98	43037.77
544.15	42653.92
544.32	42550.94
544.48	43009.68
544.65	42220.92
544.82	42609.45
544.99	42618.81
545.16	42569.66
545.32	42845.85
545.49	43449.70
545.66	43171.18
545.83	43058.84
546.00	43154.80
546.16	43037.77
546.33	42576.69
546.50	42855.21
546.67	43093.94
546.83	43323.32
547.00	43227.35
547.17	43077.56
547.34	43309.27
547.50	43517.58
547.67	43084.58
547.84	43510.56
548.00	43402.89
548.17	43838.23
548.34	43646.31
548.51	43814.83
548.67	43746.95
548.84	43934.20
549.01	43686.10
549.18	43732.91
549.34	43498.86
549.51	43555.03
549.68	43688.44
549.84	43995.05
550.01	44612.95
550.18	43835.89
550.34	44011.43
550.51	43615.88
550.68	43622.90
550.84	43634.61
551.01	43655.67
551.18	44374.22
551.34	43487.15
551.51	44463.16
551.68	44074.63
551.84	44526.35
552.01	44081.65
552.18	44037.18
552.34	43952.92
552.51	44224.42
552.68	44137.82
552.84	44692.53
553.01	44172.93
553.18	44102.71
553.34	44474.86
553.51	43950.58
553.67	44266.55
553.84	44949.99
554.01	44172.93
554.17	44935.95
554.34	44886.79
554.51	44683.17
554.67	44994.46
554.84	44957.01
555.00	44542.74
555.17	44346.13
555.33	45132.55
555.50	44596.57
555.67	44790.83
555.83	44685.51
556.00	44889.13
556.16	45027.23
556.33	44769.77
556.50	45036.59
556.66	44949.99
556.83	44437.41
556.99	45024.89
557.16	44971.05
557.32	44837.64
557.49	45022.54
557.65	44694.87
557.82	45081.06
557.98	44755.72
558.15	44957.01
558.32	45317.45
558.48	44788.49
558.65	45015.52
558.81	45031.91
558.98	44868.07
559.14	45059.99
559.31	44987.44
559.47	45249.58
559.64	45415.76
559.80	45446.18
559.97	45338.52
560.13	45158.30
560.30	45099.78
560.46	45102.12
560.63	45460.23
560.79	45357.24
560.96	45902.59
561.12	45336.18
561.29	45308.09
561.45	45099.78
561.61	45595.98
561.78	45305.75
561.94	45195.74
562.11	45226.17
562.27	45132.55
562.44	45399.37
562.60	45888.54
562.77	45518.74
562.93	45411.07
563.10	45640.45
563.26	45134.89
563.42	45429.80
563.59	45167.66
563.75	45352.56
563.92	45897.91
564.08	45530.44
564.24	45762.15
564.41	45860.46
564.57	45584.27
564.74	45813.65
564.90	45418.10
565.07	45600.66
565.23	45837.05
565.39	45581.93
565.56	45516.40
565.72	45605.34
565.88	45773.86
566.05	45364.26
566.21	45708.32
566.38	45982.16
566.54	45244.90
566.70	45544.48
566.87	46410.48
567.03	45738.75
567.19	46131.96
567.36	45862.80
567.52	45443.84
567.68	46038.34
567.85	45881.52
568.01	45984.51
568.17	45724.71
568.34	45710.66
568.50	45165.32
568.66	45911.95
568.83	45687.26
568.99	45652.15
569.15	45663.85
569.32	45827.69
569.48	45804.28
569.64	45933.01
569.81	45769.18
569.97	45663.85
570.13	45979.82
570.30	45425.12
570.46	45603.00
570.62	45478.95
570.78	45633.42
570.95	45567.89
571.11	45462.57
571.27	45413.41
571.43	45785.56
571.60	45595.98
571.76	45638.11
571.92	45951.74
572.09	46337.93
572.25	45895.56
572.41	45815.99
572.57	45841.73
572.74	46518.15
572.90	45893.22
573.06	46124.94
573.22	46300.48
573.38	45895.56
573.55	45886.20
573.71	45729.39
573.87	45921.31
574.03	45762.15
574.20	46323.88
574.36	45731.73
574.52	45773.86
574.68	46138.98
574.84	45911.95
575.01	46129.62
575.17	46050.04
575.33	45949.40
575.49	45586.61
575.65	45890.88
575.82	46127.28
575.98	45921.31
576.14	45825.35
576.30	46028.98
576.46	45792.58
576.62	45776.20
576.79	46115.58
576.95	45815.99
577.11	46057.06
577.27	46122.60
577.43	46377.72
577.59	45911.95
577.75	45867.48
577.92	46052.38
578.08	45413.41
578.24	45715.34
578.40	45848.75
578.56	46323.88
578.72	45958.76
578.88	46628.15
579.04	46607.09
579.21	45895.56
579.37	45916.63
579.53	46429.21
579.69	46010.25
579.85	46026.63
580.01	46202.18
580.17	46368.35
580.33	46162.39
580.49	46314.52
580.65	46618.79
580.82	46443.25
580.98	45668.53
581.14	46436.23
581.30	46373.03
581.46	46461.97
581.62	46047.70
581.78	46319.20
581.94	46838.80
582.10	46071.10
582.26	46466.66
582.42	46375.37
582.58	46113.23
582.74	46263.03
582.90	46110.89
583.06	46735.82
583.22	46337.93
583.38	46120.26
583.54	46190.47
583.70	46684.33
583.86	46396.44
584.02	45785.56
584.18	46351.97
584.34	46230.26
584.50	45968.12
584.66	46263.03
584.82	45975.14
584.98	46080.47
585.14	46288.77
585.30	45993.87
585.46	46279.41
585.62	46185.79
585.78	46106.21
585.94	45446.18
586.10	46043.02
586.26	45780.88
586.42	46234.94
586.58	46028.98
586.74	46267.71
586.90	46305.16
587.06	46260.69
587.22	46316.86
587.38	46059.40
587.54	46281.75
587.70	46143.66
587.86	46007.91
588.02	46438.57
588.18	46181.11
588.34	46232.60
588.49	45937.69
588.65	45642.79
588.81	45661.51
588.97	45572.57
589.13	45717.68
589.29	46321.54
589.45	45848.75
589.61	45846.41
589.77	46410.48
589.93	46466.66
