SpectraSuite Data File
++++++++++++++++++++++++++++++++++++
Date: Fri Oct 25 11:25:48 EDT 2013
User: price-jones
Dark Spectrum Present: No
Reference Spectrum Present: No
Number of Sampled Component Spectra: 1
Spectrometers: USB2+H05261
Integration Time (usec): 100000 (USB2+H05261)
Spectra Averaged: 1 (USB2+H05261)
Boxcar Smoothing: 0 (USB2+H05261)
Correct for Electrical Dark: No (USB2+H05261)
Strobe/Lamp Enabled: No (USB2+H05261)
Correct for Detector Non-linearity: No (USB2+H05261)
Correct for Stray Light: No (USB2+H05261)
Number of Pixels in Processed Spectrum: 2048
>>>>>Begin Processed Spectral Data<<<<<
365.73	306.61
365.92	306.61
366.12	306.61
366.32	170.86
366.52	159.16
366.72	152.13
366.91	131.07
367.11	131.07
367.31	65.54
367.51	177.88
367.70	117.03
367.90	119.37
368.10	93.62
368.30	91.28
368.49	142.77
368.69	177.88
368.89	161.50
369.09	208.31
369.28	142.77
369.48	191.92
369.68	177.88
369.87	222.35
370.07	168.52
370.27	259.80
370.47	313.63
370.66	641.31
370.86	662.37
371.06	641.31
371.25	744.29
371.45	669.39
371.65	629.60
371.84	671.73
372.04	683.44
372.24	678.76
372.44	648.33
372.63	681.10
372.83	744.29
373.03	704.50
373.22	758.33
373.42	746.63
373.62	716.20
373.81	748.97
374.01	837.91
374.21	856.64
374.40	816.85
374.60	826.21
374.79	746.63
374.99	866.00
375.19	922.17
375.38	912.81
375.58	940.90
375.78	894.08
375.97	861.32
376.17	828.55
376.37	826.21
376.56	861.32
376.76	880.04
376.95	854.30
377.15	968.98
377.35	884.72
377.54	978.34
377.74	945.58
377.93	877.70
378.13	870.68
378.33	896.43
378.52	950.26
378.72	905.79
378.91	1013.45
379.11	922.17
379.31	903.45
379.50	903.45
379.70	992.39
379.89	1008.77
380.09	912.81
380.28	1008.77
380.48	983.02
380.68	926.85
380.87	990.05
381.07	966.64
381.26	1118.78
381.46	1025.15
381.65	978.34
381.85	1153.88
382.04	968.98
382.24	997.07
382.43	1109.41
382.63	1109.41
382.83	1025.15
383.02	983.02
383.22	1151.54
383.41	1069.62
383.61	1090.69
383.80	1111.75
384.00	1057.92
384.19	1125.80
384.39	1128.14
384.58	1097.71
384.78	1144.52
384.97	1123.46
385.17	1130.48
385.36	1160.91
385.56	1130.48
385.75	1235.80
385.95	1214.74
386.14	1179.63
386.34	1184.31
386.53	1142.18
386.72	1235.80
386.92	1259.21
387.11	1376.24
387.31	1273.25
387.50	1238.14
387.70	1235.80
387.89	1313.04
388.09	1303.68
388.28	1306.02
388.48	1277.93
388.67	1345.81
388.86	1439.43
389.06	1322.40
389.25	1425.39
389.45	1303.68
389.64	1376.24
389.84	1362.19
390.03	1455.81
390.22	1423.05
390.42	1366.87
390.61	1409.00
390.81	1383.26
391.00	1418.36
391.19	1437.09
391.39	1371.55
391.58	1486.24
391.78	1453.47
391.97	1423.05
392.16	1462.83
392.36	1451.13
392.55	1526.03
392.75	1584.54
392.94	1598.59
393.13	1519.01
393.33	1633.69
393.52	1591.56
393.71	1593.90
393.91	1631.35
394.10	1605.61
394.29	1586.88
394.49	1572.84
394.68	1645.40
394.88	1661.78
395.07	1629.01
395.26	1638.38
395.46	1673.48
395.65	1727.32
395.84	1720.29
396.04	1769.44
396.23	1778.81
396.42	1788.17
396.62	1741.36
396.81	1776.47
397.00	1713.27
397.19	1755.40
397.39	1795.19
397.58	1919.24
397.77	1858.39
397.97	1834.98
398.16	1930.94
398.35	1893.49
398.55	1802.21
398.74	2024.56
398.93	2005.84
399.12	1907.54
399.32	1844.34
399.51	1891.15
399.70	2038.61
399.90	1991.80
400.09	1912.22
400.28	2015.20
400.47	2104.14
400.67	2059.67
400.86	2150.95
401.05	2094.78
401.24	2057.33
401.44	2148.61
401.63	2090.10
401.82	2087.76
402.01	2115.84
402.21	2267.98
402.40	2200.10
402.59	2202.44
402.78	2204.78
402.97	2193.08
403.17	2244.57
403.36	2277.34
403.55	2267.98
403.74	2333.51
403.93	2420.11
404.13	2347.56
404.32	2434.16
404.51	2335.85
404.70	2511.39
404.89	2279.68
405.09	2495.01
405.28	2422.45
405.47	2476.29
405.66	2605.02
405.85	2513.74
406.05	2502.03
406.24	2518.42
406.43	2569.91
406.62	2649.49
406.81	2677.57
407.00	2597.99
407.20	2495.01
407.39	2469.27
407.58	2698.64
407.77	2743.11
407.96	2693.96
408.15	2768.85
408.34	2771.19
408.54	2712.68
408.73	2778.22
408.92	2757.15
409.11	2906.95
409.30	2895.24
409.49	2874.18
409.68	2956.10
409.87	2825.03
410.07	3002.91
410.26	2963.12
410.45	3038.02
410.64	3007.59
410.83	3082.49
411.02	3070.78
411.21	3197.17
411.40	3105.89
411.59	3204.19
411.78	3222.92
411.98	3328.24
412.17	3295.47
412.36	3253.34
412.55	3459.31
412.74	3400.80
412.93	3361.01
413.12	3321.22
413.31	3613.79
413.50	3522.51
413.69	3489.74
413.88	3538.89
414.07	3426.54
414.26	3726.13
414.45	3604.42
414.64	3672.30
414.83	3805.71
415.02	3875.93
415.22	3803.37
415.41	3859.54
415.60	3721.45
415.79	3843.16
415.98	3847.84
416.17	3918.06
416.36	3941.46
416.55	3960.19
416.74	4070.19
416.93	3974.23
417.12	4072.53
417.31	4018.70
417.50	4109.98
417.69	4454.04
417.88	4271.48
418.07	4191.90
418.26	4248.07
418.45	4334.67
418.64	4390.84
418.83	4386.16
419.02	4463.40
419.21	4557.02
419.39	4512.55
419.58	4470.42
419.77	4374.46
419.96	4479.79
420.15	4737.24
420.34	4486.81
420.53	4519.57
420.72	4685.75
420.91	4781.71
421.10	4690.43
421.29	4739.58
421.48	4678.73
421.67	4748.95
421.86	4709.16
422.05	4840.23
422.24	4737.24
422.43	4933.85
422.61	4880.02
422.80	4837.89
422.99	4933.85
423.18	5160.88
423.37	5011.09
423.56	4889.38
423.75	4903.42
423.94	4802.78
424.13	4561.70
424.32	4702.14
424.50	4994.70
424.69	5074.28
424.88	4980.66
425.07	4975.98
425.26	4926.83
425.45	4985.34
425.64	4908.10
425.83	4901.08
426.01	4957.25
426.20	5008.75
426.39	5008.75
426.58	4985.34
426.77	5015.77
426.96	5015.77
427.15	5081.30
427.33	5261.52
427.52	5203.01
427.71	5069.60
427.90	5085.98
428.09	5341.10
428.28	5284.93
428.46	5315.36
428.65	5294.29
428.84	5373.87
429.03	5509.62
429.22	5254.50
429.40	5518.98
429.59	5535.37
429.78	5352.81
429.97	5327.06
430.16	5359.83
430.34	5631.33
430.53	5755.38
430.72	5729.63
430.91	5596.22
431.10	5451.11
431.28	5778.78
431.47	5799.85
431.66	5813.89
431.85	5825.59
432.03	5996.45
432.22	5921.56
432.41	5877.09
432.60	5877.09
432.79	5874.74
432.97	5975.39
433.16	6083.05
433.35	5996.45
433.54	6015.18
433.72	6136.88
433.91	6066.67
434.10	5996.45
434.28	6050.28
434.47	6305.40
434.66	6300.72
434.85	6340.51
435.03	6375.62
435.22	6195.40
435.41	6487.96
435.59	6527.75
435.78	6354.55
435.97	6394.34
436.16	6314.77
436.34	6384.98
436.53	6581.59
436.72	6595.63
436.90	6450.52
437.09	6574.56
437.28	6541.80
437.46	6670.53
437.65	6684.57
437.84	6862.45
438.02	6677.55
438.21	6740.74
438.40	6717.34
438.58	7047.35
438.77	6923.30
438.96	6916.28
439.14	6942.03
439.33	7140.97
439.52	7183.10
439.70	7150.34
439.89	7159.70
440.08	7241.62
440.26	7316.51
440.45	7368.01
440.63	7588.02
440.82	7431.20
441.01	7541.21
441.19	7721.43
441.38	7693.34
441.57	7595.04
441.75	7665.25
441.94	7824.41
442.12	7925.05
442.31	7969.52
442.50	8287.84
442.68	7934.42
442.87	7943.78
443.05	8072.51
443.24	8257.41
443.43	8077.19
443.61	8147.40
443.80	8269.11
443.98	8107.62
444.17	7737.81
444.35	8126.34
444.54	8510.19
444.73	8329.97
444.91	8264.43
445.10	8444.65
445.28	8454.02
445.47	8259.75
445.65	8290.18
445.84	8500.83
446.02	8510.19
446.21	8245.71
446.39	8313.58
446.58	8748.92
446.77	8287.84
446.95	8166.13
447.14	8439.97
447.32	8542.96
447.51	8496.14
447.69	8383.80
447.88	8468.06
448.06	8664.66
448.25	8484.44
448.43	8655.30
448.62	8554.66
448.80	8526.57
448.99	8828.50
449.17	8772.33
449.36	8578.06
449.54	8931.48
449.73	8917.44
449.91	8929.14
450.10	8767.65
450.28	8950.21
450.46	8947.87
450.65	8919.78
450.83	8908.08
451.02	8882.33
451.20	9102.34
451.39	9158.52
451.57	8971.27
451.76	9092.98
451.94	9217.03
452.13	9249.80
452.31	9378.53
452.49	9231.07
452.68	9303.63
452.86	9385.55
453.05	9500.23
453.23	9432.36
453.42	9338.74
453.60	9397.25
453.78	9415.98
453.97	9312.99
454.15	9460.45
454.34	9245.12
454.52	9743.65
454.70	9673.43
454.89	9837.27
455.07	9668.75
455.26	9816.21
455.44	9685.14
455.62	9848.97
455.81	9881.74
455.99	10090.05
456.17	10005.79
456.36	10143.88
456.54	10183.67
456.73	10272.61
456.91	10284.31
457.09	10237.50
457.28	10380.28
457.46	10335.81
457.64	10478.58
457.83	10429.43
458.01	10413.04
458.19	10635.39
458.38	10511.35
458.56	10607.31
458.74	10778.17
458.93	10743.06
459.11	10927.96
459.29	10487.94
459.48	10853.06
459.66	10834.34
459.84	11005.20
460.03	11021.58
460.21	10883.49
460.39	10993.50
460.57	11002.86
460.76	11117.54
460.94	11021.58
461.12	11241.59
461.31	11129.25
461.49	11049.67
461.67	10899.87
461.85	11513.10
462.04	11213.51
462.22	11499.05
462.40	11604.38
462.59	11508.41
462.77	11365.64
462.95	11620.76
463.13	11473.31
463.32	11747.15
463.50	11681.61
463.68	11929.71
463.86	11674.59
464.05	11522.46
464.23	11587.99
464.41	12013.97
464.59	11712.04
464.78	12238.66
464.96	11908.65
465.14	11531.82
465.32	11939.07
465.50	12006.95
465.69	11819.71
465.87	12102.91
466.05	11990.56
466.23	12138.02
466.41	12386.12
466.60	12416.54
466.78	12091.21
466.96	12154.40
467.14	12248.02
467.32	12360.37
467.51	12671.66
467.69	12121.63
467.87	12369.73
468.05	12578.04
468.23	12173.13
468.41	12308.88
468.60	12645.91
468.78	12638.89
468.96	12510.16
469.14	12571.02
469.32	12978.27
469.50	12641.23
469.69	12917.42
469.87	13198.28
470.05	13041.46
470.23	13001.68
470.41	13043.81
470.59	13322.33
470.77	13111.68
470.95	13305.95
471.14	13394.89
471.32	13273.18
471.50	13472.12
471.68	13523.62
471.86	13441.70
472.04	13713.20
472.22	14073.64
472.40	13624.26
472.58	14085.34
472.77	13741.29
472.95	14333.44
473.13	14691.54
473.31	13975.34
473.49	14169.60
473.67	14225.78
473.85	14270.25
474.03	14361.53
474.21	14349.82
474.39	14719.63
474.57	14462.17
474.75	14794.53
474.93	14799.21
475.12	14916.23
475.30	14946.66
475.48	14934.96
475.66	15023.90
475.84	14970.07
476.02	15014.54
476.20	15407.75
476.38	15552.86
476.56	15822.02
476.74	15812.66
476.92	16046.71
477.10	15447.54
477.28	16011.60
477.46	16147.36
477.64	16334.60
477.82	16444.60
478.00	16858.88
478.18	16851.86
478.36	16676.32
478.54	17067.19
478.72	17018.04
478.90	17254.43
479.08	17561.04
479.26	17582.10
479.44	17905.10
479.62	17982.34
479.80	17968.29
479.98	17891.06
480.16	18696.20
480.34	18281.92
480.52	18347.46
480.70	18583.85
480.88	18466.83
481.06	18693.86
481.24	18754.71
481.41	19096.43
481.59	19307.08
481.77	19424.11
481.95	19578.58
482.13	19707.31
482.31	19667.52
482.49	20152.01
482.67	20219.89
482.85	20257.34
483.03	20561.61
483.21	20570.97
483.39	20720.76
483.57	20795.66
483.74	21060.14
483.92	21413.56
484.10	21139.72
484.28	21598.46
484.46	21802.09
484.64	22324.03
484.82	21891.03
485.00	21979.97
485.18	22960.66
485.35	22948.95
485.53	22848.31
485.71	23044.91
485.89	23463.87
486.07	22918.53
486.25	23248.54
486.43	23571.54
486.61	23777.50
486.78	23992.83
486.96	24149.65
487.14	24308.80
487.32	24554.56
487.50	24973.52
487.68	24765.21
487.85	25113.95
488.03	25275.45
488.21	26125.06
488.39	25689.72
488.57	25743.55
488.75	25996.33
488.92	26235.06
489.10	26555.72
489.28	26466.78
489.46	27096.38
489.64	26590.83
489.81	27604.28
489.99	27370.22
490.17	27400.65
490.35	28290.06
490.53	28208.14
490.70	28261.97
490.88	27983.44
491.06	28971.15
491.24	29064.77
491.41	28964.13
491.59	29097.54
491.77	29209.89
491.95	29530.54
492.13	29626.50
492.30	29773.95
492.48	29965.88
492.66	30459.73
492.84	30164.82
493.01	30866.98
493.19	30260.79
493.37	30562.72
493.54	31129.12
493.72	31463.82
493.90	31379.56
494.08	31857.03
494.25	31927.25
494.43	32144.92
494.61	32135.56
494.79	32060.66
494.96	32119.17
495.14	32388.33
495.32	33446.26
495.49	33427.53
495.67	32989.85
495.85	33448.60
496.02	33596.05
496.20	33905.00
496.38	34073.52
496.55	33790.31
496.73	34923.13
496.91	34089.90
497.09	34719.51
497.26	34721.85
497.44	35065.91
497.62	35346.77
497.79	35545.72
497.97	35445.07
498.14	35864.03
498.32	36105.10
498.50	35892.12
498.67	36659.81
498.85	36268.94
499.03	36772.16
499.20	36659.81
499.38	37104.51
499.56	37394.74
499.73	37174.73
499.91	37361.97
500.08	37275.37
500.26	37390.06
500.44	37481.34
500.61	37638.15
500.79	37539.85
500.97	37902.64
501.14	38717.14
501.32	38394.15
501.49	38462.02
501.67	38707.78
501.84	39117.37
502.02	38625.86
502.20	39180.57
502.37	39112.69
502.55	38913.75
502.72	39641.65
502.90	39477.82
503.07	39419.30
503.25	39803.15
503.43	39384.19
503.60	39817.19
503.78	39845.28
503.95	40575.53
504.13	40334.45
504.30	40865.75
504.48	40177.64
504.65	40437.44
504.83	40933.63
505.01	41675.58
505.18	40914.90
505.36	41193.43
505.53	41207.47
505.71	41371.31
505.88	41628.77
506.06	41331.52
506.23	41888.57
506.41	42014.96
506.58	41799.63
506.76	41986.87
506.93	42590.73
507.11	42220.92
507.28	42288.80
507.46	42534.56
507.63	42426.89
507.81	43070.54
507.98	42913.72
508.16	42841.17
508.33	43416.94
508.50	43487.15
508.68	43505.88
508.85	43559.71
509.03	43725.89
509.20	43786.74
509.38	44704.23
509.55	43934.20
509.73	44631.68
509.90	44275.91
510.08	44491.24
510.25	44374.22
510.42	44648.06
510.60	45027.23
510.77	44854.03
510.95	45523.42
511.12	44907.86
511.30	45001.48
511.47	45698.96
511.64	45226.17
511.82	45469.59
511.99	45504.70
512.17	46057.06
512.34	45930.67
512.51	46164.73
512.69	46424.53
512.86	46197.49
513.04	46567.30
513.21	46461.97
513.38	46782.63
513.56	46948.81
513.73	46684.33
513.90	47026.04
514.08	46501.76
514.25	47271.80
514.43	47639.26
514.60	47327.97
514.77	47143.07
514.95	47274.14
515.12	47250.74
515.29	47316.27
515.47	47796.08
515.64	47929.49
515.81	47597.13
515.99	47934.17
516.16	48196.31
516.33	48130.78
516.51	48559.09
516.68	48388.24
516.85	48247.80
517.03	48935.92
517.20	48891.45
517.37	48868.05
517.54	48886.77
517.72	48617.61
517.89	49420.41
518.06	49076.35
518.24	49031.88
518.41	49151.25
518.58	49024.86
518.75	49198.06
518.93	49378.28
519.10	49333.81
519.27	49851.07
519.45	49340.83
519.62	49825.32
519.79	49727.02
519.96	49808.94
520.14	50267.69
520.31	50082.78
520.48	50255.98
520.65	50178.75
520.83	50216.19
521.00	50433.86
521.17	50431.52
521.34	50642.17
521.52	50766.22
521.69	50644.51
521.86	50855.16
522.03	50810.69
522.20	51103.26
522.38	51114.96
522.55	51405.19
522.72	51529.23
522.89	50972.19
523.07	51840.53
523.24	51241.35
523.41	51669.67
523.58	51208.58
523.75	51812.44
523.92	51859.25
524.10	51728.18
524.27	52025.43
524.44	51990.32
524.61	52151.82
524.78	52002.02
524.96	52236.08
525.13	52147.14
525.30	52390.55
525.47	52729.93
525.64	51948.19
525.81	52519.28
525.98	52294.59
526.16	52746.31
526.33	52458.43
526.50	52968.66
526.67	52769.72
526.84	53034.20
527.01	52858.66
527.18	52624.60
527.36	52914.83
527.53	53099.73
527.70	53099.73
527.87	53322.08
528.04	53233.14
528.21	53270.59
528.38	53319.74
528.55	53303.36
528.72	53453.15
528.89	53396.98
529.07	53151.23
529.24	53233.14
529.41	53762.11
529.58	53598.27
529.75	53446.13
529.92	53743.38
530.09	53670.82
530.26	53619.33
530.43	53832.32
530.60	53581.88
530.77	53626.35
530.94	53853.39
531.11	54124.89
531.28	54092.12
531.46	54145.95
531.63	54003.18
531.80	53996.16
531.97	54342.56
532.14	54553.21
532.31	54300.43
532.48	54553.21
532.65	54614.06
532.82	54501.71
532.99	54585.97
533.16	54288.73
533.33	54817.69
533.50	54986.21
533.67	54831.73
533.84	54777.90
534.01	54773.22
534.18	54934.71
534.35	55105.57
534.52	54962.80
534.69	55051.74
534.86	55634.53
535.03	55044.72
535.20	55121.96
535.37	55100.89
535.54	55114.94
535.71	55037.70
535.88	55339.63
536.05	55402.82
536.22	55224.94
536.38	55238.98
536.55	55360.69
536.72	55262.39
536.89	55234.30
537.06	55524.53
537.23	55648.58
537.40	55426.23
537.57	55583.04
537.74	55679.00
537.91	55751.56
538.08	55913.06
538.25	55611.13
538.42	55798.37
538.59	56102.64
538.75	55931.78
538.92	56046.47
539.09	55962.21
539.26	56034.77
539.43	56200.94
539.60	56037.11
539.77	56364.78
539.94	56233.71
540.11	56231.37
540.28	56294.56
540.44	56397.55
540.61	56182.22
540.78	56315.63
540.95	56425.64
541.12	56542.66
541.29	56317.97
541.46	56444.36
541.62	56285.20
541.79	56685.43
541.96	56163.50
542.13	56355.42
542.30	56718.20
542.47	56814.16
542.63	56713.52
542.80	56917.15
542.97	56753.31
543.14	56985.02
543.31	56963.96
543.48	57097.37
543.64	57476.54
543.81	57165.24
543.98	57347.81
544.15	57382.91
544.32	57469.51
544.48	57717.61
544.65	57109.07
544.82	57228.44
544.99	57036.51
545.16	57537.39
545.32	57403.98
545.49	57867.40
545.66	57537.39
545.83	57769.10
546.00	57612.29
546.16	57495.26
546.33	57670.80
546.50	57209.71
546.67	57499.94
546.83	57420.36
547.00	57766.76
547.17	57750.38
547.34	57914.22
547.50	58000.82
547.67	57895.49
547.84	57783.15
548.00	58169.33
548.17	57979.75
548.34	57991.45
548.51	58113.16
548.67	58124.86
548.84	58094.44
549.01	58122.52
549.18	57986.77
549.34	58272.32
549.51	58258.27
549.68	58457.22
549.84	58269.98
550.01	58398.71
550.18	58190.40
550.34	58536.80
550.51	58403.39
550.68	58333.17
550.84	58239.55
551.01	58468.92
551.18	58379.98
551.34	58468.92
551.51	58368.28
551.68	58298.06
551.84	58370.62
552.01	58328.49
552.18	58628.08
552.34	58356.58
552.51	58731.06
552.68	58665.53
552.84	58614.04
553.01	58974.48
553.18	58635.10
553.34	58735.74
553.51	58604.67
553.67	58951.07
553.84	58965.12
554.01	58810.64
554.17	58773.19
554.34	59018.95
554.51	58915.96
554.67	59009.59
554.84	58871.49
555.00	58927.67
555.17	58810.64
555.33	58974.48
555.50	58967.46
555.67	58869.15
555.83	59192.15
556.00	59058.74
556.16	59384.07
556.33	59140.66
556.50	59201.51
556.66	59250.66
556.83	59068.10
556.99	59339.60
557.16	59405.14
557.32	59250.66
557.49	59568.97
557.65	59213.21
557.82	59377.05
557.98	59360.67
558.15	59475.35
558.32	59482.37
558.48	59327.90
558.65	59449.61
558.81	59428.54
558.98	59461.31
559.14	59487.06
559.31	59302.15
559.47	59695.36
559.64	59475.35
559.80	59646.21
559.97	59409.82
560.13	59498.76
560.30	59629.83
560.46	59660.26
560.63	59681.32
560.79	59721.11
560.96	59732.81
561.12	59910.69
561.29	59690.68
561.45	59833.46
561.61	59693.02
561.78	59716.43
561.94	59798.35
562.11	59791.33
562.27	59882.61
562.44	60016.02
562.60	59856.86
562.77	59793.67
562.93	59798.35
563.10	60009.00
563.26	60025.38
563.42	60252.41
563.59	60186.88
563.75	59784.30
563.92	60051.12
564.08	59873.24
564.24	60229.01
564.41	59924.74
564.57	60252.41
564.74	59896.65
564.90	60212.62
565.07	60093.25
565.23	60051.12
565.39	60081.55
565.56	60154.11
565.72	60060.49
565.88	60041.76
566.05	60039.42
566.21	60158.79
566.38	60259.43
566.54	59943.46
566.70	60280.50
566.87	60327.31
567.03	60182.19
567.19	60530.93
567.36	60243.05
567.52	59934.10
567.68	60463.06
567.85	60264.11
568.01	60420.93
568.17	60001.97
568.34	60322.63
568.50	60437.31
568.66	60179.85
568.83	60502.85
568.99	60217.30
569.15	60287.52
569.32	60210.28
569.48	60264.11
569.64	60388.16
569.81	60254.75
569.97	60374.12
570.13	60374.12
570.30	60308.58
570.46	60362.42
570.62	60404.55
570.78	60477.10
570.95	60472.42
571.11	60575.40
571.27	60395.18
571.43	60500.51
571.60	60498.17
571.76	60420.93
571.92	60488.80
572.09	60533.28
572.25	60633.92
572.41	60367.10
572.57	60549.66
572.74	60626.90
572.90	60451.36
573.06	60589.45
573.22	60615.19
573.38	60638.60
573.55	60603.49
573.71	60474.76
573.87	60629.24
574.03	60537.96
574.20	60573.06
574.36	60624.56
574.52	60743.92
574.68	60711.16
574.84	60828.18
575.01	60652.64
575.17	60608.17
575.33	60757.97
575.49	60324.97
575.65	60640.94
575.82	60671.37
575.98	60514.55
576.14	60952.23
576.30	60748.60
576.46	60582.43
576.62	60640.94
576.79	60692.43
576.95	60598.81
577.11	60636.26
577.27	60750.94
577.43	60746.26
577.59	60516.89
577.75	60718.18
577.92	60650.30
578.08	60732.22
578.24	60582.43
578.40	60830.52
578.56	60856.27
578.72	60858.61
578.88	60884.36
579.04	60860.95
579.21	60800.10
579.37	60846.91
579.53	61109.05
579.69	60528.59
579.85	60816.48
580.01	60718.18
580.17	60582.43
580.33	60678.39
580.49	60889.04
580.65	60842.23
580.82	60669.03
580.98	60727.54
581.14	61027.13
581.30	61099.68
581.46	60764.99
581.62	60837.54
581.78	60657.32
581.94	60994.36
582.10	60886.70
582.26	60940.53
582.42	60961.59
582.58	60746.26
582.74	60907.76
582.90	60783.71
583.06	60851.59
583.22	60935.85
583.38	60701.79
583.54	61008.40
583.70	61036.49
583.86	60910.10
584.02	60743.92
584.18	60931.17
584.34	60961.59
584.50	60842.23
584.66	60786.05
584.82	60708.82
584.98	60884.36
585.14	61008.40
585.30	60786.05
585.46	60931.17
585.62	60921.80
585.78	61102.03
585.94	60874.99
586.10	60985.00
586.26	60879.67
586.42	61237.78
586.58	60867.97
586.74	61085.64
586.90	60987.34
587.06	61073.94
587.22	61130.11
587.38	61059.90
587.54	61022.45
587.70	61216.71
587.86	60879.67
588.02	60977.98
588.18	61118.41
588.34	61104.37
588.49	61034.15
