SpectraSuite Data File
++++++++++++++++++++++++++++++++++++
Date: Fri Oct 25 11:23:57 EDT 2013
User: price-jones
Dark Spectrum Present: No
Reference Spectrum Present: No
Number of Sampled Component Spectra: 1
Spectrometers: USB2+H05261
Integration Time (usec): 100000 (USB2+H05261)
Spectra Averaged: 1 (USB2+H05261)
Boxcar Smoothing: 0 (USB2+H05261)
Correct for Electrical Dark: No (USB2+H05261)
Strobe/Lamp Enabled: No (USB2+H05261)
Correct for Detector Non-linearity: No (USB2+H05261)
Correct for Stray Light: No (USB2+H05261)
Number of Pixels in Processed Spectrum: 2048
>>>>>Begin Processed Spectral Data<<<<<
365.73	243.42
365.92	243.42
366.12	243.42
366.32	138.09
366.52	189.58
366.72	121.71
366.91	110.01
367.11	91.28
367.31	91.28
367.51	149.79
367.70	56.17
367.90	189.58
368.10	86.60
368.30	161.50
368.49	114.69
368.69	107.66
368.89	205.97
369.09	117.03
369.28	166.18
369.48	119.37
369.68	163.84
369.87	215.33
370.07	128.73
370.27	255.12
370.47	304.27
370.66	545.34
370.86	653.01
371.06	645.99
371.25	702.16
371.45	648.33
371.65	683.44
371.84	713.86
372.04	608.54
372.24	695.14
372.44	711.52
372.63	746.63
372.83	706.84
373.03	725.57
373.22	685.78
373.42	847.27
373.62	816.85
373.81	830.89
374.01	772.38
374.21	770.04
374.40	791.10
374.60	807.48
374.79	826.21
374.99	858.98
375.19	781.74
375.38	802.80
375.58	830.89
375.78	915.15
375.97	819.19
376.17	812.17
376.37	882.38
376.56	863.66
376.76	908.13
376.95	847.27
377.15	910.47
377.35	858.98
377.54	875.36
377.74	753.65
377.93	866.00
378.13	894.08
378.33	943.24
378.52	912.81
378.72	947.92
378.91	887.06
379.11	912.81
379.31	1008.77
379.50	957.28
379.70	994.73
379.89	976.00
380.09	952.60
380.28	1025.15
380.48	936.21
380.68	917.49
380.87	1004.09
381.07	1015.79
381.26	1039.20
381.46	1128.14
381.65	1123.46
381.85	1001.75
382.04	1036.86
382.24	1090.69
382.43	1027.50
382.63	1142.18
382.83	1020.47
383.02	1104.73
383.22	1139.84
383.41	1039.20
383.61	1055.58
383.80	1177.29
384.00	1174.95
384.19	1102.39
384.39	1196.01
384.58	1118.78
384.78	1104.73
384.97	1170.27
385.17	1181.97
385.36	1174.95
385.56	1181.97
385.75	1228.78
385.95	1172.61
386.14	1184.31
386.34	1212.40
386.53	1214.74
386.72	1144.52
386.92	1296.66
387.11	1329.42
387.31	1224.10
387.50	1338.79
387.70	1203.04
387.89	1282.61
388.09	1310.70
388.28	1296.66
388.48	1313.04
388.67	1270.91
388.86	1338.79
389.06	1364.53
389.25	1348.15
389.45	1282.61
389.64	1343.47
389.84	1385.60
390.03	1394.96
390.22	1451.13
390.42	1296.66
390.61	1327.08
390.81	1401.98
391.00	1385.60
391.19	1490.92
391.39	1380.92
391.58	1479.22
391.78	1479.22
391.97	1413.68
392.16	1528.37
392.36	1523.69
392.55	1519.01
392.75	1483.90
392.94	1511.99
393.13	1523.69
393.33	1547.09
393.52	1455.81
393.71	1565.82
393.91	1558.80
394.10	1582.20
394.29	1631.35
394.49	1626.67
394.68	1612.63
394.88	1647.74
395.07	1636.03
395.26	1540.07
395.46	1703.91
395.65	1720.29
395.84	1809.23
396.04	1811.57
396.23	1666.46
396.42	1724.97
396.62	1834.98
396.81	1884.13
397.00	1736.68
397.19	1734.34
397.39	1844.34
397.58	1764.76
397.77	1825.62
397.97	1944.99
398.16	1916.90
398.35	1952.01
398.55	1809.23
398.74	1987.11
398.93	1919.24
399.12	1877.11
399.32	1891.15
399.51	2005.84
399.70	2073.71
399.90	2019.88
400.09	2087.76
400.28	2015.20
400.47	2057.33
400.67	2026.90
400.86	2101.80
401.05	2064.35
401.24	2127.55
401.44	2136.91
401.63	2179.04
401.82	2064.35
402.01	2064.35
402.21	2143.93
402.40	2108.82
402.59	2256.28
402.78	2296.07
402.97	2289.04
403.17	2160.31
403.36	2218.83
403.55	2223.51
403.74	2445.86
403.93	2436.50
404.13	2319.47
404.32	2342.88
404.51	2385.01
404.70	2377.98
404.89	2310.11
405.09	2443.52
405.28	2502.03
405.47	2438.84
405.66	2415.43
405.85	2471.61
406.05	2480.97
406.24	2541.82
406.43	2518.42
406.62	2621.40
406.81	2677.57
407.00	2553.52
407.20	2532.46
407.39	2597.99
407.58	2715.02
407.77	2761.83
407.96	2827.37
408.15	2689.28
408.34	2663.53
408.54	2813.32
408.73	2843.75
408.92	2834.39
409.11	2953.76
409.30	2899.92
409.49	2871.84
409.68	2963.12
409.87	2895.24
410.07	2885.88
410.26	2995.89
410.45	2899.92
410.64	2972.48
410.83	3070.78
411.02	3136.32
411.21	3176.11
411.40	3068.44
411.59	3229.94
411.78	3148.02
411.98	3117.59
412.17	3215.90
412.36	3258.03
412.55	3414.84
412.74	3487.40
412.93	3386.76
413.12	3403.14
413.31	3562.30
413.50	3300.16
413.69	3564.64
413.88	3543.57
414.07	3562.30
414.26	3721.45
414.45	3691.02
414.64	3616.13
414.83	3691.02
415.02	3667.62
415.22	3754.22
415.41	3754.22
415.60	3824.44
415.79	3831.46
415.98	4035.08
416.17	3992.95
416.36	3866.56
416.55	3878.27
416.74	4161.47
416.93	4095.94
417.12	4114.66
417.31	4016.36
417.50	4203.60
417.69	4208.28
417.88	4297.22
418.07	4264.46
418.26	4365.10
418.45	4175.52
418.64	4447.02
418.83	4437.66
419.02	4561.70
419.21	4430.63
419.39	4519.57
419.58	4465.74
419.77	4428.29
419.96	4596.81
420.15	4681.07
420.34	4575.75
420.53	4571.07
420.72	4669.37
420.91	4732.56
421.10	4903.42
421.29	4739.58
421.48	4660.01
421.67	4917.47
421.86	4798.10
422.05	4725.54
422.24	4835.55
422.43	4821.50
422.61	5029.81
422.80	4985.34
422.99	4835.55
423.18	4910.44
423.37	5067.26
423.56	4816.82
423.75	5013.43
423.94	4622.56
424.13	4674.05
424.32	4772.35
424.50	4915.12
424.69	5135.14
424.88	5165.56
425.07	4975.98
425.26	4924.49
425.45	5067.26
425.64	4952.57
425.83	4975.98
426.01	5128.11
426.20	5207.69
426.39	5036.83
426.58	5121.09
426.77	5214.71
426.96	5254.50
427.15	5043.85
427.33	5135.14
427.52	5259.18
427.71	5188.97
427.90	5212.37
428.09	5212.37
428.28	5371.53
428.46	5366.85
428.65	5390.25
428.84	5528.35
429.03	5668.78
429.22	5338.76
429.40	5530.69
429.59	5514.30
429.78	5423.02
429.97	5198.33
430.16	5406.64
430.34	5556.43
430.53	5612.60
430.72	5720.27
430.91	5579.84
431.10	5554.09
431.28	5579.84
431.47	5701.54
431.66	5947.30
431.85	5813.89
432.03	5933.26
432.22	5973.05
432.41	5905.17
432.60	5818.57
432.79	5966.03
432.97	6005.81
433.16	6061.99
433.35	5928.58
433.54	6043.26
433.72	6076.03
433.91	6239.87
434.10	6211.78
434.28	6106.46
434.47	6218.80
434.66	6274.98
434.85	6324.13
435.03	6331.15
435.22	6307.74
435.41	6413.07
435.59	6333.49
435.78	6347.53
435.97	6399.02
436.16	6387.32
436.34	6415.41
436.53	6487.96
436.72	6796.92
436.90	6478.60
437.09	6593.29
437.28	6384.98
437.46	6593.29
437.65	6792.23
437.84	6710.32
438.02	6810.96
438.21	6576.91
438.40	6803.94
438.58	7068.42
438.77	7112.89
438.96	6949.05
439.14	7204.17
439.33	7148.00
439.52	7190.13
439.70	7232.26
439.89	7421.84
440.08	7421.84
440.26	7283.75
440.45	7538.87
440.63	7506.10
440.82	7627.81
441.01	7403.11
441.19	7691.00
441.38	7641.85
441.57	7747.17
441.75	7822.07
441.94	7950.80
442.12	7920.37
442.31	8205.92
442.50	7911.01
442.68	7922.71
442.87	8081.87
443.05	8109.96
443.24	8201.24
443.43	8091.23
443.61	8107.62
443.80	8341.67
443.98	8072.51
444.17	7777.60
444.35	8379.12
444.54	8393.16
444.73	8201.24
444.91	8163.79
445.10	8294.86
445.28	8304.22
445.47	8131.02
445.65	8222.30
445.84	8475.08
446.02	8601.47
446.21	8421.25
446.39	8311.24
446.58	8599.13
446.77	8535.93
446.95	8334.65
447.14	8547.64
447.32	8489.12
447.51	8432.95
447.69	8468.06
447.88	8671.68
448.06	8503.17
448.25	8461.04
448.43	8617.85
448.62	8613.17
448.80	8430.61
448.99	8678.71
449.17	8720.84
449.36	8510.19
449.54	8889.35
449.73	8917.44
449.91	8870.63
450.10	9156.18
450.28	9165.54
450.46	9266.18
450.65	9193.62
450.83	9053.19
451.02	9273.20
451.20	9242.78
451.39	9282.56
451.57	8982.98
451.76	9174.90
451.94	9280.22
452.13	9301.29
452.31	9132.77
452.49	9270.86
452.68	9334.06
452.86	9423.00
453.05	9420.66
453.23	9633.64
453.42	9441.72
453.60	9437.04
453.78	9455.76
453.97	9331.72
454.15	9483.85
454.34	9584.49
454.52	9699.18
454.70	9610.24
454.89	9645.35
455.07	9743.65
455.26	9951.96
455.44	9877.06
455.62	9839.61
455.81	10066.64
455.99	10155.58
456.17	10232.82
456.36	10361.55
456.54	9973.02
456.73	10176.65
456.91	10511.35
457.09	10335.81
457.28	10534.75
457.46	10230.48
457.64	10492.62
457.83	10457.51
458.01	10345.17
458.19	10846.04
458.38	10572.20
458.56	10614.33
458.74	10820.30
458.93	10869.45
459.11	10611.99
459.29	10628.37
459.48	10920.94
459.66	10888.17
459.84	11019.24
460.03	11101.16
460.21	11204.14
460.39	11288.40
460.57	11023.92
460.76	11173.72
460.94	11274.36
461.12	11290.74
461.31	10932.64
461.49	11073.07
461.67	11162.01
461.85	11426.50
462.04	11267.34
462.22	11489.69
462.40	11403.09
462.59	11445.22
462.77	11470.97
462.95	11728.42
463.13	11899.28
463.32	11552.88
463.50	11805.66
463.68	11784.60
463.86	11761.19
464.05	11400.75
464.23	11634.80
464.41	12002.27
464.59	11805.66
464.78	12037.38
464.96	11985.88
465.14	12105.25
465.32	12252.70
465.50	11953.12
465.69	12210.57
465.87	12245.68
466.05	12212.92
466.23	11957.80
466.41	12409.52
466.60	12418.88
466.78	12079.50
466.96	12128.66
467.14	12395.48
467.32	12325.26
467.51	12514.84
467.69	12301.86
467.87	12362.71
468.05	12659.96
468.23	12348.67
468.41	12507.82
468.60	12578.04
468.78	12762.94
468.96	12559.31
469.14	12624.85
469.32	12945.50
469.50	12800.39
469.69	13130.41
469.87	13373.82
470.05	13142.11
470.23	13401.91
470.41	13172.54
470.59	13130.41
470.77	13160.83
470.95	13322.33
471.14	13504.89
471.32	13369.14
471.50	13584.47
471.68	13612.56
471.86	13387.86
472.04	13603.19
472.22	13965.98
472.40	13666.39
472.58	13767.03
472.77	13872.36
472.95	14104.07
473.13	14572.18
473.31	14272.59
473.49	14150.88
473.67	14274.93
473.85	14286.63
474.03	14761.76
474.21	14574.52
474.39	14785.16
474.57	14518.34
474.75	15040.28
474.93	15075.39
475.12	14916.23
475.30	14869.42
475.48	15166.67
475.66	15272.00
475.84	15314.13
476.02	15225.18
476.20	15316.47
476.38	15737.76
476.56	15943.73
476.74	16013.95
476.92	15941.39
477.10	16112.25
477.28	16259.70
477.46	16350.98
477.64	16528.86
477.82	16575.67
478.00	17020.38
478.18	16924.41
478.36	17081.23
478.54	17205.28
478.72	17153.79
478.90	17504.87
479.08	17469.76
479.26	17778.71
479.44	17453.37
479.62	18090.00
479.80	17919.14
479.98	18331.08
480.16	18728.97
480.34	18214.05
480.52	18518.32
480.70	18476.19
480.88	18221.07
481.06	18464.49
481.24	18820.25
481.41	19264.95
481.59	19527.09
481.77	19590.28
481.95	19644.12
482.13	19822.00
482.31	19761.14
482.49	20407.13
482.67	20196.48
482.85	20762.89
483.03	20575.65
483.21	20716.08
483.39	21146.74
483.57	20753.53
483.74	21352.71
483.92	21462.71
484.10	21092.91
484.28	21949.54
484.46	22242.11
484.64	22349.78
484.82	21792.73
485.00	22321.69
485.18	22986.40
485.35	22899.80
485.53	22824.90
485.71	23300.03
485.89	23690.90
486.07	23328.12
486.25	23566.85
486.43	23728.35
486.61	24004.53
486.78	24390.72
486.96	24423.49
487.14	24456.26
487.32	24697.33
487.50	24687.97
487.68	24641.16
487.85	25584.40
488.03	25766.96
488.21	25930.80
488.39	25998.67
488.57	26038.46
488.75	26375.50
488.92	26043.14
489.10	26466.78
489.28	26836.58
489.46	27030.85
489.64	27360.86
489.81	27370.22
489.99	28020.89
490.17	27660.45
490.35	28374.31
490.53	28273.67
490.70	28547.51
490.88	28393.04
491.06	28470.28
491.24	28933.70
491.41	29083.50
491.59	28854.12
491.77	28966.47
491.95	29448.62
492.13	29839.49
492.30	30029.07
492.48	30059.50
492.66	30328.66
492.84	30274.83
493.01	30178.87
493.19	30848.26
493.37	31140.83
493.54	31028.48
493.72	31807.88
493.90	31122.10
494.08	31732.98
494.25	32198.75
494.43	31962.36
494.61	32587.28
494.79	32631.75
494.96	32425.78
495.14	32872.82
495.32	33303.48
495.49	33268.37
495.67	33212.20
495.85	33750.52
496.02	34089.90
496.20	33834.78
496.38	34066.50
496.55	34160.12
496.73	34939.52
496.91	34508.86
497.09	34696.10
497.26	35311.66
497.44	35496.56
497.62	35115.06
497.79	36098.08
497.97	35632.32
498.14	36219.79
498.32	36428.10
498.50	36254.90
498.67	36905.57
498.85	36435.12
499.03	36510.02
499.20	36559.17
499.38	37242.60
499.56	37284.73
499.73	37371.33
499.91	37542.19
500.08	37806.67
500.26	37542.19
500.44	37869.87
500.61	37986.89
500.79	38082.86
500.97	38525.22
501.14	38714.80
501.32	38717.14
501.49	38616.50
501.67	38981.62
501.84	38792.04
502.02	38869.28
502.20	39054.18
502.37	39339.72
502.55	39196.95
502.72	39288.23
502.90	39686.12
503.07	39503.56
503.25	39955.29
503.43	40189.34
503.60	40341.47
503.78	40264.24
503.95	40397.65
504.13	40851.71
504.30	40811.92
504.48	40891.50
504.65	40818.94
504.83	41336.20
505.01	41050.66
505.18	41031.93
505.36	41691.96
505.53	41329.18
505.71	41310.46
505.88	41830.05
506.06	41317.48
506.23	42024.32
506.41	41890.91
506.58	42211.56
506.76	42195.18
506.93	42178.79
507.11	42279.44
507.28	42763.93
507.46	42822.44
507.63	42892.66
507.81	43681.42
507.98	43316.29
508.16	43068.20
508.33	43353.74
508.50	43835.89
508.68	43716.53
508.85	44055.90
509.03	44072.29
509.20	44374.22
509.38	44315.70
509.55	44552.10
509.73	44823.60
509.90	44786.15
510.08	44917.22
510.25	44877.43
510.42	45167.66
510.60	45198.09
510.77	44971.05
510.95	45226.17
511.12	45251.92
511.30	45247.24
511.47	45808.96
511.64	45748.11
511.82	46054.72
511.99	45492.99
512.17	46106.21
512.34	45986.85
512.51	46295.80
512.69	46632.83
512.86	46440.91
513.04	46681.98
513.21	47103.28
513.38	46623.47
513.56	47276.48
513.73	46513.47
513.90	47435.64
514.08	46958.17
514.25	47290.52
514.43	47358.40
514.60	47051.79
514.77	47412.23
514.95	47639.26
515.12	47927.15
515.29	47580.75
515.47	47737.57
515.64	48261.85
515.81	47767.99
515.99	48392.92
516.16	48460.79
516.33	48610.59
516.51	48975.71
516.68	48523.99
516.85	48828.26
517.03	48697.19
517.20	49153.59
517.37	48863.36
517.54	48711.23
517.72	49003.80
517.89	49132.53
518.06	49270.62
518.24	49331.47
518.41	49471.90
518.58	49670.85
518.75	49223.81
518.93	49848.73
519.10	49294.02
519.27	50012.57
519.45	49783.19
519.62	49890.86
519.79	49883.84
519.96	49979.80
520.14	50251.30
520.31	50270.03
520.48	50396.42
520.65	50438.54
520.83	50712.39
521.00	50766.22
521.17	50181.09
521.34	50471.31
521.52	51114.96
521.69	50672.60
521.86	51257.73
522.03	51494.13
522.20	51433.27
522.38	51627.54
522.55	51629.88
522.72	51487.10
522.89	51306.88
523.07	51730.52
523.24	51545.62
523.41	51952.87
523.58	51271.78
523.75	51821.80
523.92	51835.84
524.10	51852.23
524.27	51964.57
524.44	52095.64
524.61	52121.39
524.78	52495.88
524.96	52528.64
525.13	52435.02
525.30	52362.46
525.47	52821.21
525.64	52320.34
525.81	52835.25
525.98	52662.05
526.16	52420.98
526.33	52837.59
526.50	53038.88
526.67	52865.68
526.84	52601.20
527.01	52912.49
527.18	53052.92
527.36	52917.17
527.53	52910.15
527.70	53329.11
527.87	53237.83
528.04	53322.08
528.21	53609.97
528.38	53366.55
528.55	53734.02
528.72	53286.98
528.89	53614.65
529.07	53263.57
529.24	53570.18
529.41	53581.88
529.58	53588.91
529.75	53626.35
529.92	54059.35
530.09	54113.19
530.26	54003.18
530.43	53797.21
530.60	54047.65
530.77	53970.41
530.94	54326.17
531.11	53890.83
531.28	54457.24
531.46	54349.58
531.63	54433.84
531.80	54609.38
531.97	54368.30
532.14	54681.94
532.31	54468.95
532.48	54461.93
532.65	54808.32
532.82	54403.41
532.99	54906.63
533.16	54686.62
533.33	54761.51
533.50	54979.18
533.67	54908.97
533.84	54937.05
534.01	54904.29
534.18	55100.89
534.35	55257.71
534.52	54955.78
534.69	55255.37
534.86	55236.64
535.03	55140.68
535.20	55068.12
535.37	55304.52
535.54	55599.43
535.71	55327.92
535.88	55498.78
536.05	55559.64
536.22	55700.07
536.38	55927.10
536.55	55655.60
536.72	55721.13
536.89	55374.73
537.06	55519.85
537.23	55730.50
537.40	55599.43
537.57	55908.38
537.74	55999.66
537.91	56144.77
538.08	56060.51
538.25	56067.53
538.42	55934.12
538.59	56016.04
538.75	55875.61
538.92	55969.23
539.09	56226.69
539.26	56081.58
539.43	56418.61
539.60	56406.91
539.77	56229.03
539.94	56521.60
540.11	56282.86
540.28	56659.69
540.44	56423.29
540.61	56636.28
540.78	56612.88
540.95	56718.20
541.12	56643.30
541.29	56725.22
541.46	56439.68
541.62	56900.76
541.79	56491.17
541.96	56296.91
542.13	56666.71
542.30	56725.22
542.47	56860.97
542.63	56933.53
542.80	56931.19
542.97	56999.07
543.14	57403.98
543.31	57181.63
543.48	57415.68
543.64	57382.91
543.81	57478.88
543.98	57247.16
544.15	57336.10
544.32	57340.78
544.48	57614.63
544.65	57490.58
544.82	57478.88
544.99	57345.47
545.16	57661.44
545.32	57719.95
545.49	57844.00
545.66	57654.42
545.83	57656.76
546.00	57942.30
546.16	57668.46
546.33	57570.16
546.50	57595.90
546.67	57741.02
546.83	57406.32
547.00	57937.62
547.17	57918.90
547.34	57902.51
547.50	58045.29
547.67	57998.48
547.84	58103.80
548.00	58230.19
548.17	58391.68
548.34	58155.29
548.51	58192.74
548.67	58096.78
548.84	58047.63
549.01	58108.48
549.18	58183.38
549.34	58255.93
549.51	58192.74
549.68	58281.68
549.84	58255.93
550.01	58555.52
550.18	58337.85
550.34	58438.50
550.51	58670.21
550.68	58244.23
550.84	58340.19
551.01	58794.26
551.18	58312.11
551.34	58717.02
551.51	58618.72
551.68	58815.32
551.84	58581.27
552.01	58501.69
552.18	58637.44
552.34	58560.20
552.51	58660.85
552.68	58592.97
552.84	58588.29
553.01	59042.35
553.18	58766.17
553.34	58953.41
553.51	58576.59
553.67	58997.88
553.84	58976.82
554.01	59082.14
554.17	59199.17
554.34	59168.74
554.51	59187.47
554.67	58922.99
554.84	59044.69
555.00	59131.29
555.17	58857.45
555.33	59119.59
555.50	58960.44
555.67	59021.29
555.83	59075.12
556.00	59133.63
556.16	59484.72
556.33	59365.35
556.50	59318.54
556.66	59276.41
556.83	59255.34
556.99	59451.95
557.16	59522.16
557.32	59384.07
557.49	59421.52
557.65	59339.60
557.82	59524.50
557.98	59402.80
558.15	59360.67
558.32	59512.80
558.48	59533.87
558.65	59475.35
558.81	59510.46
558.98	59599.40
559.14	59524.50
559.31	59639.19
559.47	59739.83
559.64	59866.22
559.80	59763.24
559.97	59833.46
560.13	59583.02
560.30	59753.88
560.46	59784.30
560.63	59922.40
560.79	59751.54
560.96	59793.67
561.12	59728.13
561.29	59807.71
561.45	60018.36
561.61	59737.49
561.78	59903.67
561.94	59882.61
562.11	59875.58
562.27	59987.93
562.44	59920.05
562.60	60231.35
562.77	60067.51
562.93	59927.08
563.10	60236.03
563.26	60086.23
563.42	60296.88
563.59	60142.41
563.75	59931.76
563.92	59889.63
564.08	60271.14
564.24	60226.66
564.41	60081.55
564.57	60126.02
564.74	60266.45
564.90	60259.43
565.07	60111.98
565.23	60161.13
565.39	60140.07
565.56	60357.74
565.72	60364.76
565.88	60247.73
566.05	60123.68
566.21	60264.11
566.38	60381.14
566.54	60123.68
566.70	60357.74
566.87	60430.29
567.03	60205.60
567.19	60615.19
567.36	60617.53
567.52	60355.39
567.68	60453.70
567.85	60397.52
568.01	60463.06
568.17	60268.79
568.34	60437.31
568.50	60507.53
568.66	60418.59
568.83	60671.37
568.99	60444.33
569.15	60577.75
569.32	60542.64
569.48	60336.67
569.64	60566.04
569.81	60240.71
569.97	60306.24
570.13	60474.76
570.30	60561.36
570.46	60495.83
570.62	60664.35
570.78	60589.45
570.95	60547.32
571.11	60598.81
571.27	60640.94
571.43	60580.09
571.60	60685.41
571.76	60514.55
571.92	60739.24
572.09	60814.14
572.25	60629.24
572.41	60575.40
572.57	60631.58
572.74	60769.67
572.90	60640.94
573.06	60589.45
573.22	60764.99
573.38	60830.52
573.55	60842.23
573.71	60940.53
573.87	60786.05
574.03	60488.80
574.20	60591.79
574.36	60804.78
574.52	60825.84
574.68	60807.12
574.84	60795.42
575.01	60774.35
575.17	60718.18
575.33	60683.07
575.49	60580.09
575.65	60647.96
575.82	60757.97
575.98	60867.97
576.14	60975.64
576.30	61020.11
576.46	60718.18
576.62	60750.94
576.79	60830.52
576.95	60631.58
577.11	60846.91
577.27	61055.21
577.43	60959.25
577.59	60697.11
577.75	60926.49
577.92	60589.45
578.08	60715.84
578.24	60879.67
578.40	61006.06
578.56	60968.61
578.72	60907.76
578.88	61043.51
579.04	61041.17
579.21	60963.93
579.37	60849.25
579.53	60975.64
579.69	60708.82
579.85	60753.29
580.01	60821.16
580.17	60804.78
580.33	60956.91
580.49	61123.09
580.65	60853.93
580.82	60961.59
580.98	61003.72
581.14	60846.91
581.30	61087.98
581.46	61045.85
581.62	61020.11
581.78	60907.76
581.94	61022.45
582.10	61022.45
582.26	60924.14
582.42	60877.33
582.58	60977.98
582.74	60739.24
582.90	60851.59
583.06	61139.47
583.22	60727.54
583.38	60968.61
583.54	61050.53
583.70	60921.80
583.86	60985.00
584.02	60926.49
584.18	61188.63
584.34	61197.99
584.50	61066.92
584.66	60889.04
584.82	60774.35
584.98	61361.82
585.14	61160.54
585.30	60678.39
585.46	61111.39
585.62	61087.98
585.78	61134.79
585.94	61104.37
586.10	60797.76
586.26	61226.07
586.42	61132.45
586.58	61312.67
586.74	61139.47
586.90	61102.03
587.06	61169.90
587.22	61270.54
587.38	61118.41
587.54	61345.44
587.70	61394.59
587.86	61123.09
588.02	61071.60
588.18	61200.33
588.34	60968.61
588.49	61188.63
