SpectraSuite Data File
++++++++++++++++++++++++++++++++++++
Date: Fri Oct 25 11:23:55 EDT 2013
User: price-jones
Dark Spectrum Present: No
Reference Spectrum Present: No
Number of Sampled Component Spectra: 1
Spectrometers: USB2+H05261
Integration Time (usec): 100000 (USB2+H05261)
Spectra Averaged: 1 (USB2+H05261)
Boxcar Smoothing: 0 (USB2+H05261)
Correct for Electrical Dark: No (USB2+H05261)
Strobe/Lamp Enabled: No (USB2+H05261)
Correct for Detector Non-linearity: No (USB2+H05261)
Correct for Stray Light: No (USB2+H05261)
Number of Pixels in Processed Spectrum: 2048
>>>>>Begin Processed Spectral Data<<<<<
365.73	222.35
365.92	222.35
366.12	222.35
366.32	140.43
366.52	175.54
366.72	145.11
366.91	84.26
367.11	49.15
367.31	189.58
367.51	121.71
367.70	168.52
367.90	159.16
368.10	126.39
368.30	191.92
368.49	131.07
368.69	124.05
368.89	74.90
369.09	149.79
369.28	184.90
369.48	175.54
369.68	147.45
369.87	187.24
370.07	227.03
370.27	168.52
370.47	306.61
370.66	554.71
370.86	648.33
371.06	648.33
371.25	674.07
371.45	634.29
371.65	695.14
371.84	711.52
372.04	704.50
372.24	739.61
372.44	840.25
372.63	657.69
372.83	720.88
373.03	772.38
373.22	786.42
373.42	774.72
373.62	709.18
373.81	840.25
374.01	814.51
374.21	788.76
374.40	880.04
374.60	826.21
374.79	844.93
374.99	823.87
375.19	826.21
375.38	861.32
375.58	830.89
375.78	877.70
375.97	858.98
376.17	868.34
376.37	877.70
376.56	809.83
376.76	854.30
376.95	908.13
377.15	908.13
377.35	924.51
377.54	903.45
377.74	903.45
377.93	922.17
378.13	903.45
378.33	950.26
378.52	861.32
378.72	936.21
378.91	889.40
379.11	901.11
379.31	929.19
379.50	894.08
379.70	1032.18
379.89	1004.09
380.09	931.53
380.28	901.11
380.48	1071.97
380.68	978.34
380.87	1027.50
381.07	971.32
381.26	1022.81
381.46	1048.56
381.65	980.68
381.85	1039.20
382.04	1053.24
382.24	1071.97
382.43	1034.52
382.63	1041.54
382.83	1076.65
383.02	1076.65
383.22	1074.31
383.41	1109.41
383.61	1156.22
383.80	1121.12
384.00	1083.67
384.19	1036.86
384.39	1060.26
384.58	1235.80
384.78	1200.69
384.97	1156.22
385.17	1116.44
385.36	1132.82
385.56	1186.65
385.75	1114.10
385.95	1130.48
386.14	1191.33
386.34	1191.33
386.53	1242.82
386.72	1174.95
386.92	1238.14
387.11	1240.48
387.31	1200.69
387.50	1235.80
387.70	1275.59
387.89	1315.38
388.09	1235.80
388.28	1235.80
388.48	1284.95
388.67	1366.87
388.86	1320.06
389.06	1296.66
389.25	1343.47
389.45	1327.08
389.64	1212.40
389.84	1352.83
390.03	1423.05
390.22	1299.00
390.42	1366.87
390.61	1366.87
390.81	1315.38
391.00	1448.79
391.19	1486.24
391.39	1451.13
391.58	1359.85
391.78	1420.71
391.97	1591.56
392.16	1455.81
392.36	1577.52
392.55	1481.56
392.75	1495.60
392.94	1416.02
393.13	1474.54
393.33	1448.79
393.52	1586.88
393.71	1584.54
393.91	1561.14
394.10	1612.63
394.29	1629.01
394.49	1666.46
394.68	1661.78
394.88	1577.52
395.07	1666.46
395.26	1612.63
395.46	1713.27
395.65	1694.55
395.84	1771.79
396.04	1844.34
396.23	1746.04
396.42	1673.48
396.62	1750.72
396.81	1755.40
397.00	1741.36
397.19	1816.26
397.39	1813.92
397.58	1851.36
397.77	1842.00
397.97	1809.23
398.16	1785.83
398.35	1797.53
398.55	1877.11
398.74	1877.11
398.93	1842.00
399.12	1872.43
399.32	1860.73
399.51	2005.84
399.70	2008.18
399.90	1963.71
400.09	1961.37
400.28	2078.40
400.47	1984.77
400.67	2045.63
400.86	2108.82
401.05	1973.07
401.24	2036.27
401.44	2036.27
401.63	2054.99
401.82	2172.02
402.01	2136.91
402.21	2113.50
402.40	2200.10
402.59	2181.38
402.78	2188.40
402.97	2232.87
403.17	2307.77
403.36	2181.38
403.55	2225.85
403.74	2495.01
403.93	2413.09
404.13	2380.32
404.32	2434.16
404.51	2406.07
404.70	2429.48
404.89	2443.52
405.09	2448.20
405.28	2410.75
405.47	2436.50
405.66	2424.80
405.85	2537.14
406.05	2548.84
406.24	2602.68
406.43	2612.04
406.62	2689.28
406.81	2731.41
407.00	2565.23
407.20	2693.96
407.39	2703.32
407.58	2597.99
407.77	2750.13
407.96	2778.22
408.15	2822.69
408.34	2794.60
408.54	2764.17
408.73	2834.39
408.92	2738.43
409.11	2745.45
409.30	2897.58
409.49	2965.46
409.68	2960.78
409.87	2958.44
410.07	2972.48
410.26	2988.86
410.45	3023.97
410.64	3150.36
410.83	2923.33
411.02	3094.19
411.21	3243.98
411.40	3066.10
411.59	3133.98
411.78	3183.13
411.98	3187.81
412.17	3428.88
412.36	3272.07
412.55	3328.24
412.74	3398.46
412.93	3459.31
413.12	3421.86
413.31	3599.74
413.50	3524.85
413.69	3506.12
413.88	3613.79
414.07	3592.72
414.26	3695.71
414.45	3810.39
414.64	3749.54
414.83	3794.01
415.02	3749.54
415.22	3744.86
415.41	3971.89
415.60	3889.97
415.79	3857.20
415.98	3934.44
416.17	3922.74
416.36	3962.53
416.55	4042.11
416.74	4042.11
416.93	4095.94
417.12	4170.83
417.31	4161.47
417.50	4147.43
417.69	4287.86
417.88	4231.69
418.07	4229.35
418.26	4283.18
418.45	4311.27
418.64	4437.66
418.83	4435.32
419.02	4484.47
419.21	4503.19
419.39	4528.94
419.58	4407.23
419.77	4554.68
419.96	4554.68
420.15	4533.62
420.34	4751.29
420.53	4573.41
420.72	4786.40
420.91	4561.70
421.10	4486.81
421.29	4695.11
421.48	4732.56
421.67	4734.90
421.86	4582.77
422.05	4847.25
422.24	4720.86
422.43	4898.74
422.61	5006.41
422.80	5001.72
422.99	4924.49
423.18	4985.34
423.37	4912.78
423.56	4784.06
423.75	4692.77
423.94	4805.12
424.13	4709.16
424.32	4870.65
424.50	5128.11
424.69	5071.94
424.88	5214.71
425.07	4943.21
425.26	4915.12
425.45	4938.53
425.64	4905.76
425.83	5004.07
426.01	5100.03
426.20	5071.94
426.39	5137.48
426.58	5177.26
426.77	5170.24
426.96	5118.75
427.15	5165.56
427.33	5114.07
427.52	5057.90
427.71	5268.55
427.90	5235.78
428.09	5563.45
428.28	5334.08
428.46	5275.57
428.65	5331.74
428.84	5596.22
429.03	5570.48
429.22	5376.21
429.40	5516.64
429.59	5645.37
429.78	5387.91
429.97	5132.79
430.16	5476.85
430.34	5544.73
430.53	5540.05
430.72	5537.71
430.91	5680.48
431.10	5659.42
431.28	5853.68
431.47	5816.23
431.66	5771.76
431.85	5813.89
432.03	5888.79
432.22	6012.84
432.41	5998.79
432.60	5762.40
432.79	5933.26
432.97	5930.92
433.16	5916.87
433.35	5851.34
433.54	6069.01
433.72	6129.86
433.91	6186.04
434.10	6195.40
434.28	6284.34
434.47	6129.86
434.66	6197.74
434.85	6307.74
435.03	6424.77
435.22	6207.10
435.41	6485.62
435.59	6375.62
435.78	6466.90
435.97	6487.96
436.16	6349.87
436.34	6410.73
436.53	6429.45
436.72	6572.22
436.90	6455.20
437.09	6689.25
437.28	6494.99
437.46	6586.27
437.65	6675.21
437.84	6850.75
438.02	6626.06
438.21	6853.09
438.40	6862.45
438.58	7056.72
438.77	7007.56
438.96	6970.12
439.14	7115.23
439.33	7346.94
439.52	7314.17
439.70	7248.64
439.89	7351.62
440.08	7318.86
440.26	7419.50
440.45	7520.14
440.63	7637.17
440.82	7529.50
441.01	7531.84
441.19	7552.91
441.38	7688.66
441.57	7700.36
441.75	7763.56
441.94	8039.74
442.12	8016.33
442.31	8084.21
442.50	8009.31
442.68	7934.42
442.87	7843.14
443.05	8032.72
443.24	8315.92
443.43	8004.63
443.61	8191.88
443.80	8367.42
443.98	8053.78
444.17	7840.79
444.35	8208.26
444.54	8388.48
444.73	8290.18
444.91	8329.97
445.10	8269.11
445.28	8418.91
445.47	8442.31
445.65	8348.69
445.84	8477.42
446.02	8465.72
446.21	8449.33
446.39	8339.33
446.58	8620.19
446.77	8613.17
446.95	8304.22
447.14	8662.32
447.32	8608.49
447.51	8224.64
447.69	8432.95
447.88	8386.14
448.06	8613.17
448.25	8571.04
448.43	8641.26
448.62	8610.83
448.80	8608.49
448.99	8676.37
449.17	8795.73
449.36	8835.52
449.54	8681.05
449.73	8985.32
449.91	8879.99
450.10	9041.49
450.28	9111.71
450.46	9053.19
450.65	9252.14
450.83	9270.86
451.02	9121.07
451.20	9266.18
451.39	9062.55
451.57	9109.36
451.76	8947.87
451.94	9125.75
452.13	9320.01
452.31	9298.95
452.49	9132.77
452.68	9350.44
452.86	9394.91
453.05	9537.68
453.23	9530.66
453.42	9373.85
453.60	9303.63
453.78	9605.56
453.97	9528.32
454.15	9554.07
454.34	9568.11
454.52	9689.82
454.70	9544.70
454.89	9743.65
455.07	9652.37
455.26	9841.95
455.44	10026.86
455.62	10061.96
455.81	9928.55
455.99	10073.67
456.17	10087.71
456.36	10005.79
456.54	10216.44
456.73	10157.92
456.91	10452.83
457.09	10420.06
457.28	10518.37
457.46	10361.55
457.64	10494.96
457.83	10597.95
458.01	10462.19
458.19	10768.80
458.38	10562.84
458.56	10773.49
458.74	10630.71
458.93	10523.05
459.11	10609.65
459.29	10803.91
459.48	10803.91
459.66	10923.28
459.84	10991.16
460.03	11042.65
460.21	10899.87
460.39	10998.18
460.57	11269.68
460.76	11260.32
460.94	11344.58
461.12	11213.51
461.31	11204.14
461.49	11126.91
461.67	11272.02
461.85	11459.26
462.04	11489.69
462.22	11503.73
462.40	11590.33
462.59	11297.77
462.77	11283.72
462.95	11641.82
463.13	11789.28
463.32	11604.38
463.50	11878.22
463.68	11950.78
463.86	11943.75
464.05	11899.28
464.23	11824.39
464.41	11880.56
464.59	11625.44
464.78	12098.23
464.96	12084.19
465.14	11953.12
465.32	12060.78
465.50	12292.49
465.69	12425.90
465.87	12224.62
466.05	12248.02
466.23	12435.27
466.41	12245.68
466.60	12561.66
466.78	12287.81
466.96	12278.45
467.14	12215.26
467.32	12470.37
467.51	12549.95
467.69	12306.54
467.87	12451.65
468.05	12442.29
468.23	12133.34
468.41	12545.27
468.60	12774.64
468.78	12601.44
468.96	12538.25
469.14	12842.52
469.32	13170.19
469.50	12861.24
469.69	13153.81
469.87	13092.96
470.05	13181.90
470.23	13135.09
470.41	12982.95
470.59	13383.18
470.77	13289.56
470.95	13549.36
471.14	13425.31
471.32	13343.39
471.50	13549.36
471.68	13605.53
471.86	13558.72
472.04	13654.69
472.22	14190.67
472.40	13731.92
472.58	13956.61
472.77	14183.65
472.95	14108.75
473.13	14736.01
473.31	14125.13
473.49	14111.09
473.67	14209.39
473.85	14361.53
474.03	14506.64
474.21	14930.28
474.39	14647.07
474.57	14899.85
474.75	14986.45
474.93	15110.50
475.12	14836.66
475.30	15014.54
475.48	15023.90
475.66	15227.53
475.84	15161.99
476.02	15442.85
476.20	15393.70
476.38	15506.05
476.56	16004.58
476.74	16255.02
476.92	15995.22
477.10	15660.52
477.28	16121.61
477.46	16325.24
477.64	16383.75
477.82	16833.13
478.00	17177.19
478.18	16795.68
478.36	17039.10
478.54	17167.83
478.72	17373.80
478.90	17462.74
479.08	17532.95
479.26	17598.49
479.44	17806.80
479.62	17914.46
479.80	18061.91
479.98	18242.14
480.16	18665.77
480.34	18253.84
480.52	18366.18
480.70	18483.21
480.88	18415.34
481.06	18745.35
481.24	18672.79
481.41	19012.17
481.59	19482.62
481.77	19421.77
481.95	19550.49
482.13	19805.61
482.31	19765.82
482.49	20009.24
482.67	20418.83
482.85	20629.48
483.03	20652.89
483.21	20713.74
483.39	20812.04
483.57	20861.19
483.74	21191.21
483.92	21277.81
484.10	21312.92
484.28	21907.41
484.46	21998.70
484.64	22132.11
484.82	22214.02
485.00	22324.03
485.18	22911.50
485.35	23077.68
485.53	22911.50
485.71	22909.16
485.89	23253.22
486.07	23466.21
486.25	23227.48
486.43	23686.22
486.61	23992.83
486.78	23974.11
486.96	24379.02
487.14	24746.48
487.32	24482.00
487.50	24779.25
487.68	25275.45
487.85	25483.75
488.03	25659.29
488.21	25560.99
488.39	25785.68
488.57	26239.75
488.75	26197.62
488.92	26419.97
489.10	26551.04
489.28	26843.60
489.46	27166.60
489.64	27136.17
489.81	27800.88
489.99	27866.42
490.17	27601.94
490.35	28250.27
490.53	27931.95
490.70	28350.91
490.88	28524.11
491.06	28914.98
491.24	29055.41
491.41	29163.08
491.59	29352.66
491.77	29326.91
491.95	29745.87
492.13	29825.45
492.30	30033.75
492.48	30096.95
492.66	30415.26
492.84	30597.82
493.01	30885.71
493.19	30740.60
493.37	31110.40
493.54	31271.90
493.72	31817.24
493.90	30995.71
494.08	31721.28
494.25	32383.65
494.43	31756.39
494.61	32584.94
494.79	32559.19
494.96	32514.72
495.14	32992.19
495.32	33188.80
495.49	33450.94
495.67	33244.97
495.85	33474.34
496.02	33823.08
496.20	34263.10
496.38	34370.77
496.55	34328.64
496.73	34785.04
496.91	34651.63
497.09	34998.03
497.26	34981.65
497.44	35192.30
497.62	35419.33
497.79	35962.33
497.97	35878.07
498.14	35835.94
498.32	36308.73
498.50	36460.87
498.67	37008.55
498.85	36903.23
499.03	36809.61
499.20	36914.93
499.38	36847.05
499.56	37251.97
499.73	37385.38
499.91	37181.75
500.08	37867.53
500.26	37584.32
500.44	37727.10
500.61	38022.00
500.79	37818.38
500.97	38459.68
501.14	38471.39
501.32	38583.73
501.49	38738.21
501.67	38848.21
501.84	39070.56
502.02	38976.94
502.20	39229.72
502.37	39849.96
502.55	39000.35
502.72	39590.16
502.90	39606.55
503.07	39601.86
503.25	39746.98
503.43	39592.50
503.60	40297.00
503.78	40505.31
503.95	40697.24
504.13	40271.26
504.30	40376.58
504.48	40795.54
504.65	40875.12
504.83	41181.73
505.01	41490.68
505.18	41350.24
505.36	41731.75
505.53	41471.95
505.71	41544.51
505.88	41940.06
506.06	41158.32
506.23	42082.83
506.41	41502.38
506.58	41965.81
506.76	42309.86
506.93	42628.18
507.11	42806.06
507.28	42658.60
507.46	42981.60
507.63	43147.78
507.81	43344.38
507.98	42976.92
508.16	43342.04
508.33	43491.83
508.50	43264.80
508.68	43672.06
508.85	43690.78
509.03	43852.28
509.20	44182.29
509.38	44552.10
509.55	44538.05
509.73	44938.29
509.90	44898.50
510.08	44376.56
510.25	44725.30
510.42	44987.44
510.60	44823.60
510.77	45429.80
510.95	45982.16
511.12	44999.14
511.30	45340.86
511.47	45872.16
511.64	45549.17
511.82	46337.93
511.99	45808.96
512.17	45815.99
512.34	45752.79
512.51	46686.67
512.69	46185.79
512.86	46768.58
513.04	46564.96
513.21	46450.27
513.38	46721.77
513.56	47239.03
513.73	46761.56
513.90	46972.21
514.08	46841.14
514.25	47402.87
514.43	47323.29
514.60	47758.63
514.77	47386.49
514.95	47620.54
515.12	47964.60
515.29	47721.18
515.47	47782.04
515.64	47878.00
515.81	48147.16
515.99	48102.69
516.16	48472.49
516.33	48505.26
516.51	48779.10
516.68	48540.37
516.85	48872.73
517.03	48720.59
517.20	49181.68
517.37	49184.02
517.54	48825.92
517.72	49200.40
517.89	48949.96
518.06	49553.82
518.24	49586.59
518.41	49235.51
518.58	49518.71
518.75	49127.84
518.93	49502.33
519.10	49668.51
519.27	49914.26
519.45	50096.83
519.62	50234.92
519.79	49769.15
519.96	50005.55
520.14	50347.26
520.31	50080.44
520.48	50202.15
520.65	50305.13
520.83	50703.03
521.00	50934.74
521.17	50684.30
521.34	50880.91
521.52	50946.44
521.69	51147.73
521.86	51248.37
522.03	51110.28
522.20	51557.32
522.38	51735.20
522.55	51466.04
522.72	51320.93
522.89	51735.20
523.07	51840.53
523.24	51543.28
523.41	51920.10
523.58	51648.60
523.75	52128.41
523.92	51767.97
524.10	52135.43
524.27	52065.22
524.44	52105.01
524.61	52144.80
524.78	52280.55
524.96	52444.38
525.13	52486.51
525.30	52509.92
525.47	52418.64
525.64	52374.17
525.81	52594.18
525.98	52753.33
526.16	52755.68
526.33	52846.96
526.50	53078.67
526.67	53125.48
526.84	53183.99
527.01	52853.98
527.18	53404.00
527.36	53022.50
527.53	53099.73
527.70	53509.33
527.87	53518.69
528.04	53345.49
528.21	53181.65
528.38	53411.02
528.55	53504.65
528.72	53481.24
528.89	53663.80
529.07	53666.14
529.24	53368.90
529.41	53858.07
529.58	53881.47
529.75	53649.76
529.92	54000.84
530.09	53923.60
530.26	54190.42
530.43	54028.93
530.60	53757.42
530.77	54059.35
530.94	54309.79
531.11	54042.97
531.28	54408.09
531.46	54274.68
531.63	54155.32
531.80	54335.54
531.97	54536.82
532.14	54719.38
532.31	54775.56
532.48	54562.57
532.65	54813.01
532.82	54375.33
532.99	54920.67
533.16	54794.28
533.33	54871.52
533.50	54885.56
533.67	55112.59
533.84	54995.57
534.01	55011.95
534.18	54880.88
534.35	55412.18
534.52	55051.74
534.69	55391.12
534.86	55428.57
535.03	55072.81
535.20	55103.23
535.37	55337.29
535.54	55234.30
535.71	55332.60
535.88	55632.19
536.05	55634.53
536.22	55669.64
536.38	55807.73
536.55	55660.28
536.72	55639.22
536.89	55604.11
537.06	55618.15
537.23	55714.11
537.40	55751.56
537.57	55763.26
537.74	56072.21
537.91	55962.21
538.08	56027.74
538.25	55824.12
538.42	56093.28
538.59	56418.61
538.75	56034.77
538.92	56175.20
539.09	56142.43
539.26	56360.10
539.43	56367.12
539.60	56196.26
539.77	56264.14
539.94	56355.42
540.11	56500.53
540.28	56636.28
540.44	56526.28
540.61	56563.73
540.78	56374.14
540.95	56472.45
541.12	56322.65
541.29	56652.67
541.46	56498.19
541.62	56626.92
541.79	56683.09
541.96	56500.53
542.13	56692.46
542.30	56736.93
542.47	56863.32
542.63	56755.65
542.80	56917.15
542.97	57167.58
543.14	57345.47
543.31	57130.14
543.48	57272.91
543.64	57588.88
543.81	57502.28
543.98	57525.69
544.15	57389.94
544.32	57563.14
544.48	57787.83
544.65	57434.41
544.82	57441.43
544.99	57504.62
545.16	57757.40
545.32	57380.57
545.49	57780.81
545.66	57710.59
545.83	57684.84
546.00	57827.62
546.16	57591.22
546.33	57558.45
546.50	57602.92
546.67	57719.95
546.83	57359.51
547.00	57710.59
547.17	57804.21
547.34	58031.24
547.50	58068.69
547.67	58028.90
547.84	58087.42
548.00	58120.18
548.17	58351.90
548.34	58248.91
548.51	58450.20
548.67	58274.66
548.84	58192.74
549.01	58230.19
549.18	58335.51
549.34	58494.67
549.51	58314.45
549.68	58536.80
549.84	58499.35
550.01	58422.11
550.18	58482.97
550.34	58391.68
550.51	58457.22
550.68	58492.33
550.84	58269.98
551.01	58550.84
551.18	58614.04
551.34	58585.95
551.51	58578.93
551.68	58656.17
551.84	58553.18
552.01	58443.18
552.18	58710.00
552.34	58569.57
552.51	59070.44
552.68	58468.92
552.84	58876.18
553.01	59051.72
553.18	58798.94
553.34	59119.59
553.51	58876.18
553.67	59040.01
553.84	58829.37
554.01	58883.20
554.17	59182.79
554.34	58930.01
554.51	59105.55
554.67	59133.63
554.84	59285.77
555.00	59110.23
555.17	59182.79
555.33	59119.59
555.50	58899.58
555.67	58930.01
555.83	59044.69
556.00	59049.38
556.16	59580.68
556.33	59494.08
556.50	59161.72
556.66	59400.46
556.83	59086.82
556.99	59461.31
557.16	59655.57
557.32	59561.95
557.49	59636.85
557.65	59217.89
557.82	59433.22
557.98	59374.71
558.15	59384.07
558.32	59475.35
558.48	59458.97
558.65	59456.63
558.81	59533.87
558.98	59746.86
559.14	59627.49
559.31	59686.00
559.47	59636.85
559.64	59700.04
559.80	59690.68
559.97	59683.66
560.13	59669.62
560.30	59835.80
560.46	59760.90
560.63	60055.81
560.79	59660.26
560.96	59957.50
561.12	59950.48
561.29	59835.80
561.45	59969.21
561.61	59791.33
561.78	59760.90
561.94	59774.94
562.11	59863.88
562.27	59924.74
562.44	60116.66
562.60	60001.97
562.77	59990.27
562.93	59767.92
563.10	60025.38
563.26	59751.54
563.42	60133.04
563.59	59983.25
563.75	60069.85
563.92	60076.87
564.08	60046.44
564.24	60491.15
564.41	60238.37
564.57	60083.89
564.74	60044.10
564.90	60165.81
565.07	60093.25
565.23	60184.54
565.39	60090.91
565.56	60083.89
565.72	60505.19
565.88	60186.88
566.05	60289.86
566.21	60303.90
566.38	60231.35
566.54	60177.51
566.70	60430.29
566.87	60346.03
567.03	60250.07
567.19	60420.93
567.36	60402.21
567.52	60221.98
567.68	60669.03
567.85	60509.87
568.01	60282.84
568.17	60521.57
568.34	60622.22
568.50	60505.19
568.66	60343.69
568.83	60474.76
568.99	60430.29
569.15	60500.51
569.32	60446.68
569.48	60750.94
569.64	60467.74
569.81	60474.76
569.97	60441.99
570.13	60521.57
570.30	60362.42
570.46	60498.17
570.62	60587.11
570.78	60722.86
570.95	60486.46
571.11	60732.22
571.27	60645.62
571.43	60533.28
571.60	60736.90
571.76	60793.07
571.92	60654.98
572.09	60615.19
572.25	60725.20
572.41	60456.04
572.57	60727.54
572.74	60999.04
572.90	60814.14
573.06	60692.43
573.22	60750.94
573.38	60739.24
573.55	60701.79
573.71	60912.44
573.87	60743.92
574.03	60533.28
574.20	60842.23
574.36	60654.98
574.52	60748.60
574.68	60783.71
574.84	60849.25
575.01	60860.95
575.17	60767.33
575.33	60842.23
575.49	60685.41
575.65	60849.25
575.82	60687.75
575.98	60652.64
576.14	60926.49
576.30	60921.80
576.46	60809.46
576.62	60884.36
576.79	60921.80
576.95	60919.46
577.11	60954.57
577.27	60924.14
577.43	61006.06
577.59	60678.39
577.75	60858.61
577.92	60573.06
578.08	61001.38
578.24	60849.25
578.40	61078.62
578.56	61146.50
578.72	60860.95
578.88	61172.24
579.04	61010.74
579.21	60832.86
579.37	61031.81
579.53	61097.34
579.69	60786.05
579.85	60891.38
580.01	60921.80
580.17	60865.63
580.33	60989.68
580.49	61029.47
580.65	61024.79
580.82	60963.93
580.98	61066.92
581.14	60814.14
581.30	60987.34
581.46	60982.66
581.62	60970.96
581.78	61048.19
581.94	60942.87
582.10	61045.85
582.26	60999.04
582.42	60863.29
582.58	61087.98
582.74	60837.54
582.90	60828.18
583.06	61031.81
583.22	60741.58
583.38	60743.92
583.54	60919.46
583.70	60945.21
583.86	61085.64
584.02	60928.83
584.18	61008.40
584.34	61080.96
584.50	60949.89
584.66	60905.42
584.82	60851.59
584.98	61183.94
585.14	61132.45
585.30	60996.70
585.46	60980.32
585.62	61057.56
585.78	61172.24
585.94	60999.04
586.10	61050.53
586.26	61176.92
586.42	61076.28
586.58	61282.25
586.74	61179.26
586.90	61123.09
587.06	61092.66
587.22	61123.09
587.38	61181.60
587.54	61118.41
587.70	61202.67
587.86	61263.52
588.02	61336.08
588.18	61249.48
588.34	61024.79
588.49	61055.21
