SpectraSuite Data File
++++++++++++++++++++++++++++++++++++
Date: Fri Oct 25 11:23:57 EDT 2013
User: price-jones
Dark Spectrum Present: No
Reference Spectrum Present: No
Number of Sampled Component Spectra: 1
Spectrometers: USB2+H05261
Integration Time (usec): 100000 (USB2+H05261)
Spectra Averaged: 1 (USB2+H05261)
Boxcar Smoothing: 0 (USB2+H05261)
Correct for Electrical Dark: No (USB2+H05261)
Strobe/Lamp Enabled: No (USB2+H05261)
Correct for Detector Non-linearity: No (USB2+H05261)
Correct for Stray Light: No (USB2+H05261)
Number of Pixels in Processed Spectrum: 2048
>>>>>Begin Processed Spectral Data<<<<<
365.73	234.05
365.92	234.05
366.12	234.05
366.32	133.41
366.52	140.43
366.72	154.48
366.91	128.73
367.11	145.11
367.31	140.43
367.51	110.01
367.70	154.48
367.90	135.75
368.10	114.69
368.30	208.31
368.49	135.75
368.69	110.01
368.89	168.52
369.09	189.58
369.28	205.97
369.48	173.20
369.68	196.60
369.87	198.95
370.07	248.10
370.27	248.10
370.47	266.82
370.66	543.00
370.86	627.26
371.06	638.97
371.25	599.18
371.45	676.41
371.65	650.67
371.84	662.37
372.04	718.54
372.24	732.59
372.44	692.80
372.63	692.80
372.83	751.31
373.03	695.14
373.22	723.23
373.42	748.97
373.62	802.80
373.81	807.48
374.01	807.48
374.21	873.02
374.40	791.10
374.60	753.65
374.79	802.80
374.99	851.96
375.19	779.40
375.38	936.21
375.58	856.64
375.78	812.17
375.97	779.40
376.17	788.76
376.37	793.44
376.56	905.79
376.76	894.08
376.95	889.40
377.15	809.83
377.35	882.38
377.54	891.74
377.74	894.08
377.93	856.64
378.13	971.32
378.33	950.26
378.52	873.02
378.72	917.49
378.91	961.96
379.11	952.60
379.31	966.64
379.50	1015.79
379.70	940.90
379.89	961.96
380.09	987.71
380.28	1013.45
380.48	922.17
380.68	926.85
380.87	1013.45
381.07	1062.60
381.26	1064.94
381.46	1022.81
381.65	1076.65
381.85	1027.50
382.04	1041.54
382.24	1046.22
382.43	1081.33
382.63	1053.24
382.83	1020.47
383.02	1097.71
383.22	1158.57
383.41	1125.80
383.61	1121.12
383.80	1123.46
384.00	1184.31
384.19	1041.54
384.39	1121.12
384.58	1118.78
384.78	1153.88
384.97	1151.54
385.17	1160.91
385.36	1086.01
385.56	1153.88
385.75	1156.22
385.95	1308.36
386.14	1165.59
386.34	1179.63
386.53	1167.93
386.72	1268.57
386.92	1221.76
387.11	1186.65
387.31	1247.51
387.50	1221.76
387.70	1188.99
387.89	1270.91
388.09	1245.16
388.28	1259.21
388.48	1357.51
388.67	1345.81
388.86	1369.21
389.06	1357.51
389.25	1308.36
389.45	1320.06
389.64	1322.40
389.84	1348.15
390.03	1460.49
390.22	1394.96
390.42	1357.51
390.61	1373.89
390.81	1439.43
391.00	1479.22
391.19	1535.39
391.39	1432.41
391.58	1462.83
391.78	1448.79
391.97	1495.60
392.16	1486.24
392.36	1544.75
392.55	1521.35
392.75	1511.99
392.94	1523.69
393.13	1575.18
393.33	1458.15
393.52	1476.88
393.71	1561.14
393.91	1600.93
394.10	1607.95
394.29	1629.01
394.49	1621.99
394.68	1603.27
394.88	1652.42
395.07	1706.25
395.26	1696.89
395.46	1645.40
395.65	1682.85
395.84	1689.87
396.04	1776.47
396.23	1727.32
396.42	1694.55
396.62	1727.32
396.81	1842.00
397.00	1769.44
397.19	1748.38
397.39	1818.60
397.58	1816.26
397.77	1778.81
397.97	1811.57
398.16	1860.73
398.35	1966.05
398.55	1874.77
398.74	1846.68
398.93	1916.90
399.12	1970.73
399.32	1895.83
399.51	1944.99
399.70	1905.20
399.90	1923.92
400.09	2085.42
400.28	2090.10
400.47	2047.97
400.67	2047.97
400.86	2022.22
401.05	2148.61
401.24	1996.48
401.44	2172.02
401.63	2139.25
401.82	2099.46
402.01	2083.08
402.21	2050.31
402.40	2300.75
402.59	2179.04
402.78	2202.44
402.97	2193.08
403.17	2143.93
403.36	2223.51
403.55	2312.45
403.74	2380.32
403.93	2324.15
404.13	2363.94
404.32	2370.96
404.51	2326.49
404.70	2429.48
404.89	2445.86
405.09	2483.31
405.28	2579.27
405.47	2509.05
405.66	2499.69
405.85	2523.10
406.05	2597.99
406.24	2490.33
406.43	2551.18
406.62	2595.65
406.81	2626.08
407.00	2520.76
407.20	2705.66
407.39	2630.76
407.58	2843.75
407.77	2712.68
407.96	2703.32
408.15	2799.28
408.34	2764.17
408.54	2761.83
408.73	2853.11
408.92	2792.26
409.11	2869.50
409.30	2958.44
409.49	2876.52
409.68	2909.29
409.87	2944.39
410.07	2916.31
410.26	3047.38
410.45	2960.78
410.64	3178.45
410.83	3016.95
411.02	3187.81
411.21	3131.64
411.40	3178.45
411.59	3185.47
411.78	3131.64
411.98	3213.56
412.17	3396.12
412.36	3258.03
412.55	3454.63
412.74	3391.44
412.93	3414.84
413.12	3382.07
413.31	3461.65
413.50	3478.04
413.69	3421.86
413.88	3538.89
414.07	3527.19
414.26	3698.05
414.45	3770.60
414.64	3623.15
414.83	3794.01
415.02	3758.90
415.22	3796.35
415.41	3901.67
415.60	3789.33
415.79	3983.59
415.98	4021.04
416.17	4058.49
416.36	4002.32
416.55	4070.19
416.74	4037.42
416.93	4154.45
417.12	4203.60
417.31	4262.12
417.50	4098.28
417.69	4318.29
417.88	4128.70
418.07	4355.74
418.26	4283.18
418.45	4456.38
418.64	4608.51
418.83	4498.51
419.02	4421.27
419.21	4404.89
419.39	4580.43
419.58	4505.53
419.77	4491.49
419.96	4685.75
420.15	4781.71
420.34	4615.54
420.53	4667.03
420.72	4648.30
420.91	4741.93
421.10	4627.24
421.29	4690.43
421.48	4706.82
421.67	4767.67
421.86	4760.65
422.05	4739.58
422.24	4849.59
422.43	5001.72
422.61	4889.38
422.80	4891.72
422.99	4915.12
423.18	4912.78
423.37	4997.04
423.56	4854.27
423.75	4802.78
423.94	4835.55
424.13	4671.71
424.32	4652.98
424.50	4940.87
424.69	5184.29
424.88	5083.64
425.07	4978.32
425.26	4938.53
425.45	4922.15
425.64	4842.57
425.83	5015.77
426.01	5013.43
426.20	5149.18
426.39	5151.52
426.58	4954.91
426.77	5153.86
426.96	5282.59
427.15	5062.58
427.33	5193.65
427.52	5247.48
427.71	5188.97
427.90	5153.86
428.09	5317.70
428.28	5432.38
428.46	5210.03
428.65	5432.38
428.84	5570.48
429.03	5577.50
429.22	5284.93
429.40	5448.77
429.59	5294.29
429.78	5266.21
429.97	5287.27
430.16	5575.16
430.34	5621.97
430.53	5617.29
430.72	5603.24
430.91	5647.71
431.10	5694.52
431.28	5797.51
431.47	5853.68
431.66	5994.11
431.85	5645.37
432.03	6024.54
432.22	5844.32
432.41	5916.87
432.60	5926.24
432.79	5982.41
432.97	5956.66
433.16	5951.98
433.35	5949.64
433.54	6134.54
433.72	6085.39
433.91	6008.16
434.10	6263.27
434.28	6073.69
434.47	6008.16
434.66	6338.17
434.85	6459.88
435.03	6326.47
435.22	6289.02
435.41	6452.86
435.59	6485.62
435.78	6394.34
435.97	6485.62
436.16	6427.11
436.34	6384.98
436.53	6560.52
436.72	6593.29
436.90	6490.31
437.09	6743.08
437.28	6457.54
437.46	6626.06
437.65	6480.94
437.84	6827.34
438.02	6862.45
438.21	6689.25
438.40	6502.01
438.58	7105.87
438.77	6932.67
438.96	6916.28
439.14	7194.81
439.33	7229.91
439.52	7176.08
439.70	7148.00
439.89	7463.97
440.08	7391.41
440.26	7538.87
440.45	7396.09
440.63	7527.16
440.82	7698.02
441.01	7417.16
441.19	7702.70
441.38	7875.90
441.57	7651.21
441.75	7894.63
441.94	7836.11
442.12	8098.25
442.31	7981.23
442.50	8119.32
442.68	8030.38
442.87	8161.45
443.05	8093.57
443.24	8322.94
443.43	8189.53
443.61	8201.24
443.80	8353.37
443.98	8142.72
444.17	7815.05
444.35	8035.06
444.54	8397.84
444.73	8280.82
444.91	8278.47
445.10	8290.18
445.28	8514.87
445.47	8182.51
445.65	8351.03
445.84	8458.70
446.02	8531.25
446.21	8463.38
446.39	8454.02
446.58	8601.47
446.77	8566.36
446.95	8294.86
447.14	8388.48
447.32	8643.60
447.51	8461.04
447.69	8578.06
447.88	8725.52
448.06	8430.61
448.25	8468.06
448.43	8575.72
448.62	8695.09
448.80	8564.02
448.99	8667.00
449.17	8631.90
449.36	8730.20
449.54	8915.10
449.73	8870.63
449.91	9261.50
450.10	8950.21
450.28	8954.89
450.46	9011.06
450.65	8919.78
450.83	9057.87
451.02	9074.26
451.20	9188.94
451.39	9160.86
451.57	9266.18
451.76	9116.39
451.94	9191.28
452.13	9465.13
452.31	9298.95
452.49	9153.84
452.68	9385.55
452.86	9408.95
453.05	9568.11
453.23	9593.86
453.42	9673.43
453.60	9390.23
453.78	9467.47
453.97	9565.77
454.15	9661.73
454.34	9584.49
454.52	9881.74
454.70	9863.02
454.89	9785.78
455.07	9675.77
455.26	9902.81
455.44	10017.49
455.62	9926.21
455.81	9947.28
455.99	9989.41
456.17	10050.26
456.36	9977.70
456.54	10171.97
456.73	10298.36
456.91	10445.81
457.09	10434.11
457.28	10693.91
457.46	10382.62
457.64	10499.64
457.83	10658.80
458.01	10424.75
458.19	10616.67
458.38	10593.26
458.56	10658.80
458.74	10640.08
458.93	10733.70
459.11	10707.95
459.29	10703.27
459.48	10923.28
459.66	10963.07
459.84	10747.74
460.03	11094.14
460.21	10995.84
460.39	11033.29
460.57	11012.22
460.76	11166.70
460.94	11332.87
461.12	11197.12
461.31	11054.35
461.49	11211.17
461.67	11159.67
461.85	11454.58
462.04	11297.77
462.22	11492.03
462.40	11573.95
462.59	11709.70
462.77	11609.06
462.95	11580.97
463.13	11669.91
463.32	11662.89
463.50	11810.34
463.68	11894.60
463.86	11859.49
464.05	11566.93
464.23	11918.01
464.41	11782.26
464.59	11552.88
464.78	11976.52
464.96	12046.74
465.14	11918.01
465.32	12189.51
465.50	12219.94
465.69	12226.96
465.87	12224.62
466.05	11941.41
466.23	11964.82
466.41	12390.80
466.60	12606.13
466.78	12243.34
466.96	12170.79
467.14	12320.58
467.32	12465.69
467.51	12793.37
467.69	12184.83
467.87	12451.65
468.05	12484.42
468.23	12475.06
468.41	12676.34
468.60	12688.04
468.78	12896.35
468.96	12793.37
469.14	12599.10
469.32	12915.08
469.50	12620.17
469.69	12952.52
469.87	12919.76
470.05	12975.93
470.23	13135.09
470.41	13146.79
470.59	13544.68
470.77	13348.08
470.95	13366.80
471.14	13404.25
471.32	13331.69
471.50	13642.98
471.68	13600.85
471.86	13902.78
472.04	13619.58
472.22	13919.17
472.40	13813.84
472.58	13839.59
472.77	14157.90
472.95	14164.92
473.13	14614.30
473.31	14113.43
473.49	14183.65
473.67	13994.06
473.85	14258.54
474.03	14588.56
474.21	14478.55
474.39	15002.83
474.57	14787.50
474.75	14991.13
474.93	14974.75
475.12	15119.86
475.30	15157.31
475.48	15169.01
475.66	15300.08
475.84	15012.20
476.02	15501.37
476.20	15264.97
476.38	15861.81
476.56	16065.44
476.74	16046.71
476.92	15824.36
477.10	15812.66
477.28	16191.83
477.46	16145.02
477.64	16304.17
477.82	16226.93
478.00	17034.42
478.18	16706.74
478.36	16901.01
478.54	17273.15
478.72	17069.53
478.90	17336.35
479.08	17811.48
479.26	17802.11
479.44	17572.74
479.62	17977.65
479.80	18443.42
479.98	18321.71
480.16	18546.40
480.34	18464.49
480.52	18724.29
480.70	18464.49
480.88	18511.30
481.06	18532.36
481.24	18820.25
481.41	18857.70
481.59	19386.66
481.77	19489.64
481.95	19796.25
482.13	19822.00
482.31	19543.47
482.49	20053.71
482.67	20414.15
482.85	20402.45
483.03	20547.56
483.21	20779.28
483.39	20748.85
483.57	21231.00
483.74	21362.07
483.92	21741.24
484.10	20919.71
484.28	21788.05
484.46	22216.36
484.64	22532.34
484.82	22061.89
485.00	22295.94
485.18	22574.47
485.35	23253.22
485.53	22899.80
485.71	22995.76
485.89	23562.17
486.07	23065.98
486.25	23506.00
486.43	23765.80
486.61	23674.52
486.78	23964.75
486.96	24336.89
487.14	24379.02
487.32	24718.40
487.50	24662.22
487.68	25078.84
487.85	25294.17
488.03	25380.77
488.21	25750.57
488.39	25788.02
488.57	26080.59
488.75	26288.90
488.92	26457.42
489.10	26869.35
489.28	26969.99
489.46	27110.43
489.64	26932.54
489.81	28254.95
489.99	27541.08
490.17	27967.06
490.35	28114.52
490.53	28444.53
490.70	28371.97
490.88	27995.15
491.06	28964.13
491.24	28966.47
491.41	28914.98
491.59	29233.29
491.77	29535.22
491.95	29898.00
492.13	29893.32
492.30	29923.75
492.48	30293.55
492.66	30394.20
492.84	30333.34
493.01	30946.56
493.19	30979.33
493.37	30885.71
493.54	31606.59
493.72	31630.00
493.90	31470.84
494.08	31981.08
494.25	32063.00
494.43	32170.66
494.61	32283.01
494.79	32325.14
494.96	32666.86
495.14	32931.34
495.32	33343.27
495.49	33528.17
495.67	33345.61
495.85	33551.58
496.02	33790.31
496.20	34019.69
496.38	34323.96
496.55	34298.21
496.73	34906.75
496.91	34487.79
497.09	35510.61
497.26	35072.93
497.44	34745.25
497.62	35124.42
497.79	35775.09
497.97	35171.23
498.14	35578.48
498.32	36165.96
498.50	36795.56
498.67	36975.78
498.85	36290.01
499.03	36804.92
499.20	36730.03
499.38	36821.31
499.56	37228.56
499.73	36884.50
499.91	37701.35
500.08	37647.52
500.26	37443.89
500.44	37886.25
500.61	38277.12
500.79	37684.97
500.97	38108.60
501.14	38707.78
501.32	38562.67
501.49	38569.69
501.67	38529.90
501.84	39297.59
502.02	39236.74
502.20	39353.77
502.37	39519.95
502.55	39613.57
502.72	39945.92
502.90	39117.37
503.07	39655.70
503.25	39793.79
503.43	39639.31
503.60	40500.63
503.78	39974.01
503.95	40371.90
504.13	40561.48
504.30	40608.29
504.48	40474.88
504.65	41034.27
504.83	41137.26
505.01	41525.78
505.18	41567.91
505.36	41727.07
505.53	41268.33
505.71	41626.43
505.88	41794.95
506.06	41432.16
506.23	42110.92
506.41	42024.32
506.58	42359.02
506.76	42131.98
506.93	42211.56
507.11	42401.14
507.28	42497.11
507.46	42850.53
507.63	42658.60
507.81	42974.58
507.98	43131.39
508.16	43126.71
508.33	43676.74
508.50	43416.94
508.68	44240.81
508.85	44006.75
509.03	44020.80
509.20	44037.18
509.38	44238.47
509.55	44713.59
509.73	44605.93
509.90	44610.61
510.08	44893.82
510.25	44626.99
510.42	45172.34
510.60	44903.18
510.77	45195.74
510.95	45408.73
511.12	45191.06
511.30	45165.32
511.47	45839.39
511.64	45462.57
511.82	45937.69
511.99	45635.77
512.17	45881.52
512.34	45827.69
512.51	46614.11
512.69	46562.62
512.86	46894.97
513.04	47117.32
513.21	46883.27
513.38	46976.89
513.56	46703.05
513.73	46548.57
513.90	47037.75
514.08	47323.29
514.25	47320.95
514.43	47594.79
514.60	47903.74
514.77	47512.88
514.95	47597.13
515.12	47648.63
515.29	47779.70
515.47	47908.43
515.64	48208.01
515.81	47988.00
515.99	48196.31
516.16	48608.25
516.33	48542.71
516.51	48872.73
516.68	48397.60
516.85	48570.80
517.03	49085.72
517.20	48964.01
517.37	48978.05
517.54	49020.18
517.72	49074.01
517.89	49202.74
518.06	49600.63
518.24	49399.35
518.41	49155.93
518.58	49675.53
518.75	49237.85
518.93	49352.54
519.10	49492.97
519.27	50038.31
519.45	49925.97
519.62	50150.66
519.79	49888.52
519.96	50131.93
520.14	49968.10
520.31	49886.18
520.48	50677.28
520.65	50342.58
520.83	50756.86
521.00	50698.34
521.17	50480.67
521.34	50600.04
521.52	50820.05
521.69	51054.11
521.86	51035.38
522.03	51274.12
522.20	51536.26
522.38	51569.02
522.55	51283.48
522.72	51250.71
522.89	51311.56
523.07	51847.55
523.24	51669.67
523.41	51576.04
523.58	51686.05
523.75	52245.44
523.92	51854.57
524.10	51985.64
524.27	51786.69
524.44	52261.82
524.61	52449.06
524.78	52353.10
524.96	52633.97
525.13	52479.49
525.30	52692.48
525.47	52507.58
525.64	52580.13
525.81	52643.33
525.98	52659.71
526.16	52931.22
526.33	52732.27
526.50	52823.55
526.67	52861.00
526.84	52921.85
527.01	52891.43
527.18	53336.13
527.36	52896.11
527.53	53052.92
527.70	53497.62
527.87	53631.04
528.04	53326.77
528.21	53429.75
528.38	53549.12
528.55	53511.67
528.72	53408.68
528.89	53696.57
529.07	53549.12
529.24	53602.95
529.41	53764.45
529.58	53886.15
529.75	53727.00
529.92	53670.82
530.09	53813.60
530.26	54160.00
530.43	54277.02
530.60	53729.34
530.77	53907.22
530.94	54160.00
531.11	54220.85
531.28	54288.73
531.46	54253.62
531.63	54377.67
531.80	54293.41
531.97	54686.62
532.14	54415.11
532.31	54628.10
532.48	54824.71
532.65	54567.25
532.82	54813.01
532.99	54883.22
533.16	54653.85
533.33	55035.36
533.50	55033.02
533.67	55051.74
533.84	54843.43
534.01	54740.45
534.18	55112.59
534.35	55269.41
534.52	55224.94
534.69	55208.56
534.86	55494.10
535.03	55344.31
535.20	55215.58
535.37	55517.51
535.54	55388.78
535.71	55320.90
535.88	55718.79
536.05	55667.30
536.22	55561.98
536.38	55664.96
536.55	55931.78
536.72	55667.30
536.89	55421.55
537.06	55725.81
537.23	56004.34
537.40	55814.76
537.57	55819.44
537.74	55753.90
537.91	56074.55
538.08	56006.68
538.25	55847.52
538.42	55735.18
538.59	56034.77
538.75	56044.13
538.92	56446.70
539.09	56479.47
539.26	56268.82
539.43	56210.31
539.60	56268.82
539.77	56259.46
539.94	56655.01
540.11	56535.64
540.28	56449.04
540.44	56465.42
540.61	56568.41
540.78	56296.91
540.95	56633.94
541.12	56514.58
541.29	56575.43
541.46	56636.28
541.62	56491.17
541.79	56680.75
541.96	56395.21
542.13	56587.13
542.30	56800.12
542.47	56821.19
542.63	56889.06
542.80	57073.96
542.97	57228.44
543.14	57249.50
543.31	57123.11
543.48	57371.21
543.64	57525.69
543.81	57382.91
543.98	57420.36
544.15	57492.92
544.32	57574.84
544.48	57602.92
544.65	57277.59
544.82	57375.89
544.99	57427.38
545.16	57673.14
545.32	57436.75
545.49	57909.53
545.66	57731.65
545.83	57696.55
546.00	58045.29
546.16	57715.27
546.33	57642.71
546.50	57483.56
546.67	57968.05
546.83	57443.77
547.00	57954.00
547.17	57968.05
547.34	57918.90
547.50	57989.11
547.67	58258.27
547.84	58190.40
548.00	57925.92
548.17	58305.09
548.34	58190.40
548.51	58155.29
548.67	58375.30
548.84	58206.78
549.01	58066.35
549.18	58209.12
549.34	58241.89
549.51	58351.90
549.68	58506.37
549.84	58347.21
550.01	58618.72
550.18	58272.32
550.34	58611.70
550.51	58489.99
550.68	58571.91
550.84	58241.89
551.01	58686.59
551.18	58688.93
551.34	58546.16
551.51	58578.93
551.68	58656.17
551.84	58759.15
552.01	58492.33
552.18	58707.66
552.34	58518.07
552.51	58906.60
552.68	58763.83
552.84	58679.57
553.01	58988.52
553.18	58770.85
553.34	59124.27
553.51	58850.43
553.67	58918.31
553.84	58927.67
554.01	59128.95
554.17	58993.20
554.34	59178.10
554.51	58946.39
554.67	59175.76
554.84	59096.19
555.00	59128.95
555.17	59011.93
555.33	59187.47
555.50	59234.28
555.67	59220.23
555.83	59028.31
556.00	59175.76
556.16	59531.53
556.33	59409.82
556.50	59217.89
556.66	59533.87
556.83	59175.76
556.99	59568.97
557.16	59470.67
557.32	59561.95
557.49	59739.83
557.65	59470.67
557.82	59416.84
557.98	59599.40
558.15	59634.51
558.32	59796.01
558.48	59465.99
558.65	59540.89
558.81	59540.89
558.98	59554.93
559.14	59903.67
559.31	59686.00
559.47	59576.00
559.64	59767.92
559.80	59831.11
559.97	59845.16
560.13	59749.20
560.30	59690.68
560.46	59746.86
560.63	59566.63
560.79	59760.90
560.96	60210.28
561.12	59856.86
561.29	59973.89
561.45	59903.67
561.61	59941.12
561.78	59852.18
561.94	59732.81
562.11	60067.51
562.27	59969.21
562.44	60219.64
562.60	60156.45
562.77	60060.49
562.93	59817.07
563.10	59873.24
563.26	59971.55
563.42	60336.67
563.59	60111.98
563.75	60135.38
563.92	60397.52
564.08	60156.45
564.24	60119.00
564.41	60172.83
564.57	60224.32
564.74	60346.03
564.90	60282.84
565.07	60219.64
565.23	60271.14
565.39	60095.60
565.56	60212.62
565.72	60247.73
565.88	60161.13
566.05	60065.17
566.21	60200.92
566.38	60437.31
566.54	60205.60
566.70	60285.18
566.87	60514.55
567.03	60254.75
567.19	60601.15
567.36	60458.38
567.52	60355.39
567.68	60697.11
567.85	60399.86
568.01	60575.40
568.17	60420.93
568.34	60402.21
568.50	60467.74
568.66	60313.26
568.83	60467.74
568.99	60418.59
569.15	60608.17
569.32	60493.49
569.48	60275.82
569.64	60676.05
569.81	60547.32
569.97	60418.59
570.13	60596.47
570.30	60411.57
570.46	60659.66
570.62	60636.26
570.78	60594.13
570.95	60537.96
571.11	60650.30
571.27	60851.59
571.43	60474.76
571.60	60821.16
571.76	60666.69
571.92	60828.18
572.09	60624.56
572.25	60559.02
572.41	60676.05
572.57	60729.88
572.74	60896.06
572.90	60790.73
573.06	60727.54
573.22	60779.03
573.38	60814.14
573.55	60638.60
573.71	60954.57
573.87	60657.32
574.03	60573.06
574.20	60755.63
574.36	60746.26
574.52	60837.54
574.68	60907.76
574.84	60807.12
575.01	60821.16
575.17	60683.07
575.33	60769.67
575.49	60477.10
575.65	60762.65
575.82	60970.96
575.98	60952.23
576.14	60992.02
576.30	61003.72
576.46	60690.09
576.62	60729.88
576.79	60844.57
576.95	60727.54
577.11	60669.03
577.27	61020.11
577.43	61001.38
577.59	60896.06
577.75	60690.09
577.92	60746.26
578.08	60701.79
578.24	60893.72
578.40	61057.56
578.56	61097.34
578.72	60968.61
578.88	61151.18
579.04	61071.60
579.21	60907.76
579.37	61174.58
579.53	61181.60
579.69	60835.20
579.85	61013.08
580.01	61069.26
580.17	60914.78
580.33	60973.30
580.49	61029.47
580.65	60966.27
580.82	61104.37
580.98	60856.27
581.14	60975.64
581.30	61027.13
581.46	61048.19
581.62	61003.72
581.78	60956.91
581.94	61116.07
582.10	61064.58
582.26	61076.28
582.42	61078.62
582.58	60940.53
582.74	60928.83
582.90	60889.04
583.06	61132.45
583.22	60949.89
583.38	60860.95
583.54	61209.69
583.70	61186.28
583.86	61050.53
584.02	60912.44
584.18	61057.56
584.34	61095.00
584.50	61235.44
584.66	60872.65
584.82	60830.52
584.98	61137.13
585.14	61172.24
585.30	60795.42
585.46	61212.03
585.62	60966.27
585.78	61263.52
585.94	60992.02
586.10	61247.14
586.26	60985.00
586.42	61034.15
586.58	61219.05
586.74	60985.00
586.90	60989.68
587.06	60919.46
587.22	61315.01
587.38	61167.56
587.54	61186.28
587.70	61453.11
587.86	60905.42
588.02	61223.73
588.18	61380.55
588.34	61205.01
