SpectraSuite Data File
++++++++++++++++++++++++++++++++++++
Date: Fri Oct 25 11:33:29 EDT 2013
User: price-jones
Dark Spectrum Present: No
Reference Spectrum Present: No
Number of Sampled Component Spectra: 1
Spectrometers: USB2+H05261
Integration Time (usec): 100000 (USB2+H05261)
Spectra Averaged: 1 (USB2+H05261)
Boxcar Smoothing: 0 (USB2+H05261)
Correct for Electrical Dark: No (USB2+H05261)
Strobe/Lamp Enabled: No (USB2+H05261)
Correct for Detector Non-linearity: No (USB2+H05261)
Correct for Stray Light: No (USB2+H05261)
Number of Pixels in Processed Spectrum: 2048
>>>>>Begin Processed Spectral Data<<<<<
365.73	266.82
365.92	266.82
366.12	266.82
366.32	208.31
366.52	191.92
366.72	124.05
366.91	128.73
367.11	168.52
367.31	266.82
367.51	208.31
367.70	175.54
367.90	182.56
368.10	184.90
368.30	177.88
368.49	177.88
368.69	229.37
368.89	187.24
369.09	194.26
369.28	224.69
369.48	212.99
369.68	243.42
369.87	245.76
370.07	276.18
370.27	271.50
370.47	388.53
370.66	479.81
370.86	526.62
371.06	496.19
371.25	599.18
371.45	531.30
371.65	545.34
371.84	566.41
372.04	540.66
372.24	564.07
372.44	566.41
372.63	641.31
372.83	517.26
373.03	592.16
373.22	578.11
373.42	617.90
373.62	622.58
373.81	669.39
374.01	699.82
374.21	674.07
374.40	627.26
374.60	629.60
374.79	667.05
374.99	657.69
375.19	631.94
375.38	669.39
375.58	645.99
375.78	683.44
375.97	664.71
376.17	720.88
376.37	645.99
376.56	638.97
376.76	683.44
376.95	603.86
377.15	718.54
377.35	732.59
377.54	727.91
377.74	734.93
377.93	697.48
378.13	723.23
378.33	723.23
378.52	711.52
378.72	711.52
378.91	734.93
379.11	650.67
379.31	718.54
379.50	678.76
379.70	723.23
379.89	779.40
380.09	716.20
380.28	657.69
380.48	779.40
380.68	711.52
380.87	674.07
381.07	660.03
381.26	812.17
381.46	788.76
381.65	660.03
381.85	732.59
382.04	763.01
382.24	744.29
382.43	741.95
382.63	788.76
382.83	814.51
383.02	779.40
383.22	821.53
383.41	791.10
383.61	692.80
383.80	856.64
384.00	730.25
384.19	851.96
384.39	800.46
384.58	802.80
384.78	905.79
384.97	915.15
385.17	863.66
385.36	807.48
385.56	833.23
385.75	873.02
385.95	772.38
386.14	882.38
386.34	795.78
386.53	901.11
386.72	854.30
386.92	873.02
387.11	926.85
387.31	840.25
387.50	840.25
387.70	851.96
387.89	945.58
388.09	910.47
388.28	854.30
388.48	847.27
388.67	910.47
388.86	896.43
389.06	997.07
389.25	985.37
389.45	884.72
389.64	976.00
389.84	966.64
390.03	1008.77
390.22	966.64
390.42	1025.15
390.61	1004.09
390.81	1046.22
391.00	971.32
391.19	976.00
391.39	1050.90
391.58	971.32
391.78	1015.79
391.97	1074.31
392.16	1022.81
392.36	1039.20
392.55	1064.94
392.75	1015.79
392.94	1074.31
393.13	1069.62
393.33	1067.28
393.52	1102.39
393.71	1109.41
393.91	1128.14
394.10	1008.77
394.29	1064.94
394.49	1158.57
394.68	1121.12
394.88	1123.46
395.07	1090.69
395.26	1132.82
395.46	1146.86
395.65	1142.18
395.84	1188.99
396.04	1242.82
396.23	1259.21
396.42	1214.74
396.62	1163.25
396.81	1294.32
397.00	1174.95
397.19	1198.35
397.39	1233.46
397.58	1280.27
397.77	1212.40
397.97	1287.29
398.16	1266.23
398.35	1228.78
398.55	1231.12
398.74	1207.72
398.93	1341.13
399.12	1252.19
399.32	1280.27
399.51	1331.76
399.70	1366.87
399.90	1341.13
400.09	1425.39
400.28	1462.83
400.47	1352.83
400.67	1373.89
400.86	1521.35
401.05	1394.96
401.24	1416.02
401.44	1371.55
401.63	1479.22
401.82	1392.62
402.01	1444.11
402.21	1495.60
402.40	1509.65
402.59	1500.28
402.78	1554.12
402.97	1614.97
403.17	1554.12
403.36	1472.20
403.55	1530.71
403.74	1610.29
403.93	1493.26
404.13	1502.62
404.32	1647.74
404.51	1682.85
404.70	1645.40
404.89	1626.67
405.09	1652.42
405.28	1638.38
405.47	1626.67
405.66	1650.08
405.85	1645.40
406.05	1664.12
406.24	1715.61
406.43	1769.44
406.62	1760.08
406.81	1720.29
407.00	1755.40
407.20	1818.60
407.39	1811.57
407.58	1792.85
407.77	1834.98
407.96	1891.15
408.15	1853.70
408.34	1771.79
408.54	1870.09
408.73	1856.04
408.92	1905.20
409.11	1940.30
409.30	1954.35
409.49	1893.49
409.68	2019.88
409.87	2015.20
410.07	1970.73
410.26	1977.75
410.45	2076.06
410.64	2094.78
410.83	1991.80
411.02	2146.27
411.21	2054.99
411.40	2129.89
411.59	2125.21
411.78	2221.17
411.98	2200.10
412.17	2249.25
412.36	2169.68
412.55	2286.70
412.74	2324.15
412.93	2345.22
413.12	2340.54
413.31	2340.54
413.50	2445.86
413.69	2452.88
413.88	2448.20
414.07	2497.35
414.26	2551.18
414.45	2530.12
414.64	2455.22
414.83	2478.63
415.02	2602.68
415.22	2567.57
415.41	2588.63
415.60	2605.02
415.79	2658.85
415.98	2656.51
416.17	2726.72
416.36	2682.25
416.55	2722.04
416.74	2743.11
416.93	2832.05
417.12	2794.60
417.31	2801.62
417.50	2862.48
417.69	2958.44
417.88	2902.26
418.07	2787.58
418.26	2885.88
418.45	2862.48
418.64	3101.21
418.83	3094.19
419.02	3061.42
419.21	2993.55
419.39	3159.72
419.58	2991.20
419.77	3021.63
419.96	3152.70
420.15	3246.32
420.34	3159.72
420.53	3206.53
420.72	3246.32
420.91	3337.60
421.10	3084.83
421.29	3269.73
421.48	3232.28
421.67	3138.66
421.86	3332.92
422.05	3328.24
422.24	3353.99
422.43	3351.65
422.61	3370.37
422.80	3365.69
422.99	3349.31
423.18	3290.79
423.37	3531.87
423.56	3361.01
423.75	3417.18
423.94	3272.07
424.13	3155.04
424.32	3307.18
424.50	3485.06
424.69	3463.99
424.88	3592.72
425.07	3482.72
425.26	3550.59
425.45	3307.18
425.64	3410.16
425.83	3297.81
426.01	3543.57
426.20	3417.18
426.39	3412.50
426.58	3492.08
426.77	3468.67
426.96	3492.08
427.15	3618.47
427.33	3606.77
427.52	3557.61
427.71	3496.76
427.90	3648.90
428.09	3627.83
428.28	3655.92
428.46	3684.00
428.65	3658.26
428.84	3859.54
429.03	3737.84
429.22	3639.53
429.40	3763.58
429.59	3768.26
429.78	3630.17
429.97	3623.15
430.16	3819.75
430.34	3801.03
430.53	3915.72
430.72	3810.39
430.91	3913.38
431.10	3831.46
431.28	4021.04
431.47	3988.27
431.66	4086.58
431.85	3829.12
432.03	3983.59
432.22	4056.15
432.41	4067.85
432.60	4011.68
432.79	4021.04
432.97	4021.04
433.16	4098.28
433.35	4114.66
433.54	4149.77
433.72	4081.89
433.91	4166.15
434.10	4077.21
434.28	4088.92
434.47	4177.86
434.66	4262.12
434.85	4273.82
435.03	4234.03
435.22	4245.73
435.41	4407.23
435.59	4306.59
435.78	4315.95
435.97	4318.29
436.16	4397.87
436.34	4283.18
436.53	4411.91
436.72	4603.83
436.90	4531.28
437.09	4624.90
437.28	4339.35
437.46	4571.07
437.65	4447.02
437.84	4734.90
438.02	4786.40
438.21	4645.96
438.40	4643.62
438.58	4767.67
438.77	4734.90
438.96	4690.43
439.14	4957.25
439.33	4795.76
439.52	4947.89
439.70	5064.92
439.89	5060.24
440.08	4966.62
440.26	5074.28
440.45	4985.34
440.63	4994.70
440.82	5057.90
441.01	5135.14
441.19	5121.09
441.38	5184.29
441.57	5245.14
441.75	5350.46
441.94	5359.83
442.12	5460.47
442.31	5423.02
442.50	5263.86
442.68	5448.77
442.87	5301.31
443.05	5621.97
443.24	5558.77
443.43	5542.39
443.61	5678.14
443.80	5797.51
443.98	5458.13
444.17	5284.93
444.35	5483.88
444.54	5722.61
444.73	5788.14
444.91	5558.77
445.10	5614.95
445.28	5600.90
445.47	5579.84
445.65	5692.18
445.84	5762.40
446.02	5731.97
446.21	5621.97
446.39	5640.69
446.58	5678.14
446.77	5959.00
446.95	5638.35
447.14	5769.42
447.32	5781.12
447.51	5767.08
447.69	5830.27
447.88	5909.85
448.06	5753.04
448.25	5799.85
448.43	5809.21
448.62	5785.80
448.80	5825.59
448.99	5820.91
449.17	5973.05
449.36	5774.10
449.54	5916.87
449.73	6071.35
449.91	6054.97
450.10	6061.99
450.28	6242.21
450.46	6066.67
450.65	6225.82
450.83	6045.60
451.02	6101.78
451.20	6270.30
451.39	6204.76
451.57	6092.41
451.76	6221.14
451.94	6045.60
452.13	6174.33
452.31	6338.17
452.49	6223.48
452.68	6225.82
452.86	6497.33
453.05	6237.53
453.23	6445.84
453.42	6319.45
453.60	6347.53
453.78	6415.41
453.97	6431.79
454.15	6384.98
454.34	6509.03
454.52	6574.56
454.70	6558.18
454.89	6614.35
455.07	6640.10
455.26	6602.65
455.44	6710.32
455.62	6637.76
455.81	6684.57
455.99	6782.87
456.17	6843.73
456.36	6949.05
456.54	6843.73
456.73	6881.18
456.91	6946.71
457.09	7000.54
457.28	7042.67
457.46	6965.43
457.64	7138.63
457.83	7014.59
458.01	6927.99
458.19	7302.47
458.38	7227.57
458.56	7087.14
458.74	7255.66
458.93	7241.62
459.11	7321.20
459.29	7243.96
459.48	7295.45
459.66	7468.65
459.84	7213.53
460.03	7375.03
460.21	7442.90
460.39	7356.30
460.57	7279.07
460.76	7342.26
460.94	7520.14
461.12	7494.40
461.31	7417.16
461.49	7414.82
461.67	7302.47
461.85	7744.83
462.04	7763.56
462.22	8149.75
462.40	7777.60
462.59	7772.92
462.77	7576.31
462.95	7889.95
463.13	7826.75
463.32	7555.25
463.50	7892.29
463.68	7889.95
463.86	7824.41
464.05	7634.83
464.23	7847.82
464.41	7992.93
464.59	7756.54
464.78	8121.66
464.96	8039.74
465.14	7967.18
465.32	8058.46
465.50	8152.09
465.69	8067.83
465.87	8187.19
466.05	8109.96
466.23	8189.53
466.41	8187.19
466.60	8418.91
466.78	8231.66
466.96	8053.78
467.14	8416.57
467.32	8280.82
467.51	8196.56
467.69	8313.58
467.87	8409.54
468.05	8362.73
468.23	8285.50
468.41	8299.54
468.60	8442.31
468.78	8489.12
468.96	8336.99
469.14	8767.65
469.32	8725.52
469.50	8325.29
469.69	8573.38
469.87	8769.99
470.05	8769.99
470.23	8744.24
470.41	8908.08
470.59	8784.03
470.77	8807.44
470.95	9006.38
471.14	8973.61
471.32	8865.95
471.50	9071.92
471.68	9130.43
471.86	8961.91
472.04	9055.53
472.22	9413.63
472.40	9062.55
472.58	9205.33
472.77	9514.28
472.95	9430.02
473.13	9682.80
473.31	9259.16
473.49	9219.37
473.67	9359.80
473.85	9582.15
474.03	9893.44
474.21	9912.17
474.39	9802.16
474.57	9841.95
474.75	9706.20
474.93	10057.28
475.12	9956.64
475.30	10001.11
475.48	9973.02
475.66	10141.54
475.84	9977.70
476.02	10312.40
476.20	10153.24
476.38	10464.54
476.56	10457.51
476.74	10588.58
476.92	10349.85
477.10	10719.65
477.28	10843.70
477.46	10684.55
477.64	10857.75
477.82	10806.25
478.00	11000.52
478.18	10944.34
478.36	11204.14
478.54	11194.78
478.72	11508.41
478.90	11552.88
479.08	11583.31
479.26	11637.14
479.44	11522.46
479.62	11555.22
479.80	11723.74
479.98	11758.85
480.16	12437.61
480.34	11999.93
480.52	12264.41
480.70	12198.87
480.88	12189.51
481.06	12439.95
481.24	12421.22
481.41	12716.13
481.59	12613.15
481.77	12947.84
481.95	13022.74
482.13	13107.00
482.31	12856.56
482.49	13163.17
482.67	13350.42
482.85	13362.12
483.03	13455.74
483.21	13783.41
483.39	13790.44
483.57	13635.96
483.74	13926.19
483.92	13991.72
484.10	14066.62
484.28	14391.95
484.46	14766.44
484.64	14796.87
484.82	14462.17
485.00	14796.87
485.18	14721.97
485.35	15236.89
485.53	14911.55
485.71	15068.37
485.89	15695.63
486.07	15419.45
486.25	15463.92
486.43	15426.47
486.61	15571.58
486.78	15765.85
486.96	15899.26
487.14	16432.90
487.32	16079.48
487.50	16156.72
487.68	16327.58
487.85	16627.17
488.03	16552.27
488.21	17048.46
488.39	16753.55
488.57	17137.40
488.75	17345.71
488.92	17479.12
489.10	17675.73
489.28	17434.65
489.46	17874.67
489.64	17844.24
489.81	17989.36
489.99	18054.89
490.17	18321.71
490.35	18333.42
490.53	18288.95
490.70	18670.45
490.88	18757.05
491.06	19183.03
491.24	18693.86
491.41	19133.88
491.59	19234.52
491.77	19241.54
491.95	19592.62
492.13	19510.71
492.30	19569.22
492.48	19840.72
492.66	19707.31
492.84	20147.33
493.01	20095.84
493.19	20128.61
493.37	20395.43
493.54	20552.24
493.72	20863.54
493.90	20746.51
494.08	20765.23
494.25	20943.11
494.43	20844.81
494.61	21078.86
494.79	21015.67
494.96	21120.99
495.14	21532.93
495.32	21490.80
495.49	21766.98
495.67	21593.78
495.85	21994.01
496.02	22417.65
496.20	22436.38
496.38	22291.26
496.55	22398.93
496.73	22750.01
496.91	22569.79
497.09	22963.00
497.26	22757.03
497.44	22665.75
497.62	23255.56
497.79	23400.68
497.97	23239.18
498.14	23283.65
498.32	23648.77
498.50	23913.25
498.67	23676.86
498.85	23929.64
499.03	24088.79
499.20	23903.89
499.38	24203.48
499.56	24329.87
499.73	24446.90
499.91	24425.83
500.08	24594.35
500.26	24367.32
500.44	24510.09
500.61	24936.07
500.79	24755.85
500.97	25135.01
501.14	25291.83
501.32	25429.92
501.49	25249.70
501.67	25207.57
501.84	25479.07
502.02	25495.46
502.20	25207.57
502.37	25759.94
502.55	25500.14
502.72	26019.74
502.90	25984.63
503.07	26375.50
503.25	26375.50
503.43	26459.76
503.60	26218.68
503.78	26494.86
503.95	26288.90
504.13	26534.65
504.30	26867.01
504.48	26661.04
504.65	26817.86
504.83	27292.99
505.01	27166.60
505.18	26920.84
505.36	27103.40
505.53	27234.47
505.71	27379.59
505.88	27077.66
506.06	27384.27
506.23	27571.51
506.41	27344.48
506.58	27791.52
506.76	27578.53
506.93	28142.60
507.11	28407.08
507.28	28140.26
507.46	28060.68
507.63	28613.05
507.81	28538.15
507.98	28486.66
508.16	28294.74
508.33	28503.04
508.50	28622.41
508.68	29041.37
508.85	28912.64
509.03	28863.49
509.20	29132.65
509.38	29312.87
509.55	29319.89
509.73	29294.14
509.90	29418.19
510.08	29301.17
510.25	29495.43
510.42	29425.22
510.60	29876.94
510.77	29427.56
510.95	30309.94
511.12	29682.67
511.30	30211.64
511.47	29926.09
511.64	30101.63
511.82	30242.06
511.99	30033.75
512.17	30340.36
512.34	30225.68
512.51	30991.03
512.69	30923.16
512.86	30672.72
513.04	30979.33
513.21	31101.04
513.38	30979.33
513.56	31044.87
513.73	31028.48
513.90	31311.69
514.08	31370.20
514.25	31356.16
514.43	31220.41
514.60	31412.33
514.77	31634.68
514.95	31702.56
515.12	31784.48
515.29	31765.75
515.47	32182.37
515.64	32053.64
515.81	31899.16
515.99	31992.78
516.16	32730.05
516.33	32238.54
516.51	32926.66
516.68	32233.86
516.85	32294.71
517.03	32877.51
517.20	32620.05
517.37	32563.87
517.54	32552.17
517.72	33223.90
517.89	33160.71
518.06	33333.91
518.24	33240.29
518.41	33053.05
518.58	32903.25
518.75	33156.03
518.93	33312.84
519.10	33476.68
519.27	33795.00
519.45	33081.13
519.62	33940.11
519.79	33752.87
519.96	33867.55
520.14	34040.75
520.31	33404.13
520.48	34185.86
520.65	34223.31
520.83	34487.79
521.00	34480.77
521.17	34607.16
521.34	34373.11
521.52	34611.84
521.69	34361.40
521.86	34206.93
522.03	34555.67
522.20	34902.07
522.38	34937.18
522.55	35325.71
522.72	35028.46
522.89	35049.52
523.07	34976.97
523.24	35213.36
523.41	35316.34
523.58	35260.17
523.75	35433.37
523.92	35232.08
524.10	35428.69
524.27	35695.51
524.44	35611.25
524.61	35835.94
524.78	35681.47
524.96	36016.16
525.13	35842.96
525.30	36147.23
525.47	36421.08
525.64	36222.13
525.81	36554.49
525.98	36453.84
526.16	36554.49
526.33	36315.75
526.50	36847.05
526.67	36739.39
526.84	36627.04
527.01	36620.02
527.18	36830.67
527.36	36870.46
527.53	36996.85
527.70	37256.65
527.87	36830.67
528.04	37282.39
528.21	36910.25
528.38	37095.15
528.55	37139.62
528.72	37565.60
528.89	37516.45
529.07	37361.97
529.24	37160.69
529.41	37823.06
529.58	37619.43
529.75	37762.20
529.92	37656.88
530.09	37881.57
530.26	37907.32
530.43	37874.55
530.60	37392.40
530.77	37846.46
530.94	37928.38
531.11	37912.00
531.28	38059.45
531.46	37970.51
531.63	38323.93
531.80	38237.33
531.97	38419.89
532.14	38808.42
532.31	38223.29
532.48	38815.44
532.65	38384.79
532.82	38550.96
532.99	38731.18
533.16	38660.97
533.33	38522.88
533.50	38553.30
533.67	38731.18
533.84	38616.50
534.01	39316.32
534.18	38967.58
534.35	39634.63
534.52	38927.79
534.69	39791.45
534.86	39335.04
535.03	38965.24
535.20	39625.27
535.37	40156.57
535.54	39679.10
535.71	39065.88
535.88	39742.30
536.05	39742.30
536.22	39892.09
536.38	39629.95
536.55	39999.76
536.72	39828.90
536.89	39583.14
537.06	39566.76
537.23	40280.62
537.40	39653.36
537.57	39983.37
537.74	40226.79
537.91	40254.87
538.08	39992.73
538.25	39681.44
538.42	40025.50
538.59	40514.67
538.75	40271.26
538.92	40502.97
539.09	40781.49
539.26	40601.27
539.43	40472.54
539.60	40856.39
539.77	40840.01
539.94	40931.29
540.11	41027.25
540.28	40968.74
540.44	40968.74
540.61	41017.89
540.78	40612.98
540.95	40830.65
541.12	40643.40
541.29	41153.64
541.46	41120.87
541.62	40776.81
541.79	41469.61
541.96	40828.30
542.13	41024.91
542.30	41102.15
542.47	41476.63
542.63	41476.63
542.80	41457.91
542.97	41743.45
543.14	42347.31
543.31	41596.00
543.48	41551.53
543.64	42136.66
543.81	42174.11
543.98	42014.96
544.15	42031.34
544.32	42410.51
544.48	42281.78
544.65	42113.26
544.82	42408.17
544.99	41963.46
545.16	42796.70
545.32	41949.42
545.49	42604.77
545.66	42705.41
545.83	42504.13
546.00	42773.29
546.16	42583.71
546.33	42150.71
546.50	42380.08
546.67	42642.22
546.83	42227.95
547.00	42838.83
547.17	43047.13
547.34	42913.72
547.50	42742.86
547.67	42909.04
547.84	42869.25
548.00	43005.00
548.17	43693.12
548.34	43157.14
548.51	43552.69
548.67	43126.71
548.84	43229.69
549.01	43325.66
549.18	43304.59
549.34	43744.61
549.51	43643.97
549.68	43587.80
549.84	43386.51
550.01	43608.86
550.18	43152.46
550.34	43391.19
550.51	43821.85
550.68	43945.90
550.84	43288.21
551.01	44032.50
551.18	43770.36
551.34	43419.28
551.51	44081.65
551.68	43922.49
551.84	43711.84
552.01	43805.47
552.18	43976.33
552.34	43824.19
552.51	44067.61
552.68	44018.46
552.84	43983.35
553.01	44437.41
553.18	44067.61
553.34	44203.36
553.51	44362.51
553.67	44547.42
553.84	44231.44
554.01	44762.75
554.17	43978.67
554.34	44414.01
554.51	44545.08
554.67	45034.25
554.84	44975.73
555.00	44205.70
555.17	44467.84
555.33	44701.89
555.50	44247.83
555.67	44765.09
555.83	44821.26
556.00	44720.62
556.16	45141.91
556.33	45167.66
556.50	45074.04
556.66	45078.72
556.83	44636.36
556.99	44971.05
557.16	45282.34
557.32	45338.52
557.49	44966.37
557.65	45324.47
557.82	44919.56
557.98	44760.40
558.15	44912.54
558.32	45457.88
558.48	44935.95
558.65	45160.64
558.81	44903.18
558.98	45427.46
559.14	45181.70
559.31	45593.64
559.47	45207.45
559.64	45228.51
559.80	45081.06
559.97	45390.01
560.13	45738.75
560.30	45366.60
560.46	45656.83
560.63	45743.43
560.79	45865.14
560.96	45748.11
561.12	45429.80
561.29	45954.08
561.45	45624.06
561.61	45291.71
561.78	45455.54
561.94	45563.21
562.11	45450.86
562.27	45464.91
562.44	45586.61
562.60	45752.79
562.77	45839.39
562.93	45757.47
563.10	46106.21
563.26	46265.37
563.42	46155.36
563.59	45483.63
563.75	45907.27
563.92	46089.83
564.08	46031.32
564.24	46258.35
564.41	46291.12
564.57	46256.01
564.74	46120.26
564.90	45930.67
565.07	45675.55
565.23	46054.72
565.39	46258.35
565.56	46319.20
565.72	46270.05
565.88	46167.07
566.05	46232.60
566.21	46337.93
566.38	46141.32
566.54	46328.56
566.70	46052.38
566.87	45862.80
567.03	46286.43
567.19	46691.35
567.36	46267.71
567.52	45998.55
567.68	46635.17
567.85	46532.19
568.01	46340.27
568.17	46127.28
568.34	46630.49
568.50	46445.59
568.66	46419.84
568.83	46667.94
568.99	46653.90
569.15	46625.81
569.32	46471.34
569.48	46576.66
569.64	46827.10
569.81	46761.56
569.97	47021.36
570.13	46838.80
570.30	46574.32
570.46	46611.77
570.62	46595.38
570.78	46820.08
570.95	46480.70
571.11	46724.11
571.27	46705.39
571.43	46658.58
571.60	46789.65
571.76	46848.16
571.92	46569.64
572.09	46436.23
572.25	46871.57
572.41	46553.26
572.57	46265.37
572.74	47166.48
572.90	46768.58
573.06	46927.74
573.22	47168.82
573.38	47061.15
573.55	47056.47
573.71	47215.63
573.87	47093.92
574.03	46850.50
574.20	47058.81
574.36	46710.07
574.52	47105.62
574.68	46972.21
574.84	47152.43
575.01	47452.02
575.17	47405.21
575.33	47058.81
575.49	46625.81
575.65	46909.02
575.82	47100.94
575.98	46763.90
576.14	47206.26
576.30	46997.96
576.46	47318.61
576.62	47030.72
576.79	47187.54
576.95	46911.36
577.11	46873.91
577.27	47157.11
577.43	47484.79
577.59	46852.84
577.75	46693.69
577.92	47288.18
578.08	47122.01
578.24	47243.71
578.40	47227.33
578.56	47213.29
578.72	47316.27
578.88	47384.15
579.04	47372.44
579.21	46869.23
579.37	47028.38
579.53	47344.36
579.69	46958.17
579.85	47070.51
580.01	46948.81
580.17	47180.52
580.33	47463.72
580.49	47332.65
580.65	47248.39
580.82	47159.45
580.98	46965.19
581.14	47119.66
581.30	47463.72
581.46	46930.08
581.62	46892.63
581.78	46763.90
581.94	47250.74
582.10	47569.05
582.26	47674.37
582.42	47016.68
582.58	47150.09
582.74	47332.65
582.90	47276.48
583.06	47309.25
583.22	47199.24
583.38	47538.62
583.54	47353.72
583.70	47065.83
583.86	47405.21
584.02	46726.46
584.18	47618.20
584.34	47239.03
584.50	47494.15
584.66	47412.23
584.82	47510.53
584.98	48058.22
585.14	47330.31
585.30	47660.33
585.46	47281.16
585.62	47206.26
585.78	47735.23
585.94	46988.60
586.10	47405.21
586.26	47257.76
586.42	47484.79
586.58	47716.50
586.74	47175.84
586.90	47454.36
587.06	47449.68
587.22	48039.50
587.38	47463.72
587.54	47938.85
587.70	47922.47
587.86	47828.85
588.02	47501.17
588.18	47082.22
588.34	47480.11
588.49	47351.38
588.65	47391.17
588.81	47473.09
588.97	47517.56
589.13	47437.98
589.29	47473.09
589.45	47882.68
589.61	47611.18
589.77	47592.45
589.93	47569.05
