SpectraSuite Data File
++++++++++++++++++++++++++++++++++++
Date: Fri Oct 25 10:44:30 EDT 2013
User: price-jones
Dark Spectrum Present: No
Reference Spectrum Present: No
Number of Sampled Component Spectra: 1
Spectrometers: USB2+H05261
Integration Time (usec): 100000 (USB2+H05261)
Spectra Averaged: 1 (USB2+H05261)
Boxcar Smoothing: 0 (USB2+H05261)
Correct for Electrical Dark: No (USB2+H05261)
Strobe/Lamp Enabled: No (USB2+H05261)
Correct for Detector Non-linearity: No (USB2+H05261)
Correct for Stray Light: No (USB2+H05261)
Number of Pixels in Processed Spectrum: 2048
>>>>>Begin Processed Spectral Data<<<<<
365.73	142.77
365.92	142.77
366.12	142.77
366.32	77.24
366.52	0.00
366.72	58.51
366.91	30.43
367.11	32.77
367.31	63.19
367.51	0.00
367.70	32.77
367.90	9.36
368.10	2.34
368.30	49.15
368.49	56.17
368.69	53.83
368.89	63.19
369.09	70.22
369.28	42.13
369.48	30.43
369.68	14.04
369.87	117.03
370.07	51.49
370.27	187.24
370.47	170.86
370.66	390.87
370.86	416.62
371.06	433.00
371.25	397.89
371.45	416.62
371.65	470.45
371.84	449.38
372.04	470.45
372.24	465.77
372.44	423.64
372.63	449.38
372.83	507.90
373.03	496.19
373.22	568.75
373.42	472.79
373.62	489.17
373.81	475.13
374.01	547.69
374.21	533.64
374.40	540.66
374.60	519.60
374.79	559.39
374.99	655.35
375.19	554.71
375.38	660.03
375.58	592.16
375.78	552.37
375.97	622.58
376.17	510.24
376.37	547.69
376.56	622.58
376.76	526.62
376.95	566.41
377.15	552.37
377.35	610.88
377.54	613.22
377.74	662.37
377.93	657.69
378.13	636.63
378.33	641.31
378.52	690.46
378.72	664.71
378.91	622.58
379.11	641.31
379.31	622.58
379.50	557.05
379.70	681.10
379.89	760.67
380.09	706.84
380.28	624.92
380.48	678.76
380.68	697.48
380.87	641.31
381.07	674.07
381.26	671.73
381.46	662.37
381.65	711.52
381.85	660.03
382.04	746.63
382.24	620.24
382.43	667.05
382.63	695.14
382.83	657.69
383.02	716.20
383.22	662.37
383.41	744.29
383.61	669.39
383.80	840.25
384.00	681.10
384.19	681.10
384.39	697.48
384.58	765.36
384.78	702.16
384.97	723.23
385.17	812.17
385.36	760.67
385.56	748.97
385.75	814.51
385.95	830.89
386.14	847.27
386.34	814.51
386.53	730.25
386.72	753.65
386.92	786.42
387.11	699.82
387.31	816.85
387.50	849.61
387.70	861.32
387.89	837.91
388.09	901.11
388.28	828.55
388.48	868.34
388.67	873.02
388.86	844.93
389.06	877.70
389.25	898.77
389.45	997.07
389.64	915.15
389.84	926.85
390.03	828.55
390.22	1050.90
390.42	931.53
390.61	905.79
390.81	863.66
391.00	910.47
391.19	994.73
391.39	901.11
391.58	1057.92
391.78	1011.11
391.97	952.60
392.16	940.90
392.36	971.32
392.55	973.66
392.75	882.38
392.94	978.34
393.13	987.71
393.33	999.41
393.52	1013.45
393.71	968.98
393.91	1076.65
394.10	1057.92
394.29	1170.27
394.49	1097.71
394.68	1163.25
394.88	1205.38
395.07	1228.78
395.26	1170.27
395.46	1132.82
395.65	1104.73
395.84	1149.20
396.04	1118.78
396.23	1121.12
396.42	1139.84
396.62	1036.86
396.81	1121.12
397.00	1186.65
397.19	1188.99
397.39	1252.19
397.58	1282.61
397.77	1254.53
397.97	1327.08
398.16	1235.80
398.35	1329.42
398.55	1320.06
398.74	1315.38
398.93	1334.11
399.12	1369.21
399.32	1310.70
399.51	1373.89
399.70	1458.15
399.90	1390.28
400.09	1394.96
400.28	1465.18
400.47	1432.41
400.67	1533.05
400.86	1617.31
401.05	1526.03
401.24	1401.98
401.44	1530.71
401.63	1605.61
401.82	1458.15
402.01	1554.12
402.21	1614.97
402.40	1565.82
402.59	1650.08
402.78	1603.27
402.97	1502.62
403.17	1631.35
403.36	1650.08
403.55	1661.78
403.74	1668.80
403.93	1661.78
404.13	1736.68
404.32	1799.87
404.51	1809.23
404.70	1905.20
404.89	1790.51
405.09	1771.79
405.28	1837.32
405.47	1792.85
405.66	1769.44
405.85	1849.02
406.05	1865.41
406.24	1909.88
406.43	1902.86
406.62	2026.90
406.81	1926.26
407.00	1893.49
407.20	1867.75
407.39	1912.22
407.58	1982.43
407.77	2069.03
407.96	2010.52
408.15	1973.07
408.34	2157.97
408.54	2064.35
408.73	2115.84
408.92	2200.10
409.11	2167.34
409.30	2155.63
409.49	1982.43
409.68	2071.37
409.87	2094.78
410.07	2160.31
410.26	2211.81
410.45	2282.02
410.64	2223.51
410.83	2242.23
411.02	2256.28
411.21	2443.52
411.40	2429.48
411.59	2399.05
411.78	2333.51
411.98	2417.77
412.17	2506.71
412.36	2305.43
412.55	2513.74
412.74	2429.48
412.93	2602.68
413.12	2527.78
413.31	2527.78
413.50	2548.84
413.69	2485.65
413.88	2630.76
414.07	2743.11
414.26	2771.19
414.45	2799.28
414.64	2750.13
414.83	2658.85
415.02	2883.54
415.22	2920.99
415.41	2881.20
415.60	2988.86
415.79	2829.71
415.98	3033.33
416.17	3028.65
416.36	2972.48
416.55	2935.03
416.74	2998.23
416.93	3021.63
417.12	3021.63
417.31	2972.48
417.50	3124.62
417.69	3311.86
417.88	3276.75
418.07	3101.21
418.26	3213.56
418.45	3187.81
418.64	3421.86
418.83	3382.07
419.02	3361.01
419.21	3265.05
419.39	3232.28
419.58	3241.64
419.77	3295.47
419.96	3435.91
420.15	3426.54
420.34	3522.51
420.53	3407.82
420.72	3721.45
420.91	3534.21
421.10	3604.42
421.29	3548.25
421.48	3557.61
421.67	3583.36
421.86	3475.70
422.05	3536.55
422.24	3494.42
422.43	3557.61
422.61	3564.64
422.80	3508.46
422.99	3681.66
423.18	3630.17
423.37	3747.20
423.56	3660.60
423.75	3674.64
423.94	3653.58
424.13	3379.73
424.32	3574.00
424.50	3719.11
424.69	3817.41
424.88	3794.01
425.07	3702.73
425.26	3658.26
425.45	3716.77
425.64	3665.28
425.83	3639.53
426.01	3805.71
426.20	3786.99
426.39	3747.20
426.58	3595.06
426.77	3775.28
426.96	3758.90
427.15	3798.69
427.33	3770.60
427.52	3840.82
427.71	3756.56
427.90	3794.01
428.09	3878.27
428.28	3943.80
428.46	4011.68
428.65	3899.33
428.84	4009.34
429.03	3878.27
429.22	3742.52
429.40	3992.95
429.59	3819.75
429.78	3801.03
429.97	3742.52
430.16	3934.44
430.34	3981.25
430.53	3934.44
430.72	4032.74
430.91	4049.13
431.10	4049.13
431.28	4222.33
431.47	4353.40
431.66	4416.59
431.85	4325.31
432.03	4299.56
432.22	4566.39
432.41	4423.61
432.60	4402.55
432.79	4372.12
432.97	4477.44
433.16	4315.95
433.35	4332.33
433.54	4470.42
433.72	4395.53
433.91	4308.93
434.10	4432.97
434.28	4468.08
434.47	4669.37
434.66	4528.94
434.85	4409.57
435.03	4615.54
435.22	4781.71
435.41	4779.37
435.59	4718.52
435.78	4807.46
435.97	4849.59
436.16	4793.42
436.34	4739.58
436.53	4814.48
436.72	5060.24
436.90	4861.29
437.09	4751.29
437.28	4737.24
437.46	4863.63
437.65	4798.10
437.84	5022.79
438.02	4823.84
438.21	4882.36
438.40	4898.74
438.58	5001.72
438.77	4940.87
438.96	5100.03
439.14	5235.78
439.33	5097.69
439.52	5303.65
439.70	5247.48
439.89	5320.04
440.08	5427.70
440.26	5497.92
440.45	5247.48
440.63	5404.30
440.82	5518.98
441.01	5373.87
441.19	5537.71
441.38	5633.67
441.57	5624.31
441.75	5743.67
441.94	5827.93
442.12	5914.53
442.31	5851.34
442.50	5818.57
442.68	5973.05
442.87	5933.26
443.05	5870.06
443.24	6054.97
443.43	6066.67
443.61	6033.90
443.80	6293.70
443.98	5884.11
444.17	5881.77
444.35	6061.99
444.54	6171.99
444.73	6244.55
444.91	6108.80
445.10	5963.68
445.28	6120.50
445.47	6059.65
445.65	5994.11
445.84	6033.90
446.02	6162.63
446.21	6183.70
446.39	6258.59
446.58	6108.80
446.77	6228.17
446.95	6108.80
447.14	6403.71
447.32	6286.68
447.51	6382.64
447.69	6359.24
447.88	6293.70
448.06	6232.85
448.25	6293.70
448.43	6317.11
448.62	6139.23
448.80	6394.34
448.99	6492.65
449.17	6424.77
449.36	6356.90
449.54	6602.65
449.73	6530.09
449.91	6658.82
450.10	6574.56
450.28	6766.49
450.46	6801.60
450.65	6719.68
450.83	6829.68
451.02	6698.61
451.20	6729.04
451.39	6808.62
451.57	6836.70
451.76	6778.19
451.94	6780.53
452.13	6803.94
452.31	6792.23
452.49	6729.04
452.68	6848.41
452.86	6736.06
453.05	6715.00
453.23	6867.13
453.42	6794.58
453.60	6862.45
453.78	6946.71
453.97	6839.05
454.15	6935.01
454.34	6911.60
454.52	7077.78
454.70	6956.07
454.89	6977.14
455.07	6981.82
455.26	7129.27
455.44	7089.48
455.62	7332.90
455.81	7096.50
455.99	7246.30
456.17	7297.79
456.36	7382.05
456.54	7372.69
456.73	7440.56
456.91	7585.68
457.09	7468.65
457.28	7655.89
457.46	7428.86
457.64	7793.98
457.83	7763.56
458.01	7485.03
458.19	7775.26
458.38	7653.55
458.56	7613.76
458.74	7843.14
458.93	7932.08
459.11	7676.96
459.29	7705.04
459.48	7632.49
459.66	7817.39
459.84	7906.33
460.03	8025.70
460.21	8116.98
460.39	7824.41
460.57	7882.92
460.76	8009.31
460.94	8002.29
461.12	8023.36
461.31	7894.63
461.49	8255.07
461.67	8114.64
461.85	8381.46
462.04	8224.64
462.22	8341.67
462.40	8456.36
462.59	8542.96
462.77	8444.65
462.95	8299.54
463.13	8402.52
463.32	8500.83
463.50	8344.01
463.68	8549.98
463.86	8517.21
464.05	8287.84
464.23	8074.85
464.41	8798.07
464.59	8299.54
464.78	8608.49
464.96	8498.49
465.14	8465.72
465.32	8688.07
465.50	8690.41
465.69	8760.63
465.87	8589.77
466.05	8631.90
466.23	8617.85
466.41	8702.11
466.60	8798.07
466.78	8559.34
466.96	8662.32
467.14	8762.97
467.32	8861.27
467.51	8982.98
467.69	8814.46
467.87	8945.53
468.05	9004.04
468.23	8713.81
468.41	8964.25
468.60	8889.35
468.78	9018.08
468.96	8990.00
469.14	9078.94
469.32	9261.50
469.50	9018.08
469.69	8971.27
469.87	9184.26
470.05	9193.62
470.23	9057.87
470.41	9298.95
470.59	9214.69
470.77	9341.08
470.95	9462.79
471.14	9675.77
471.32	9537.68
471.50	9678.12
471.68	9626.62
471.86	9832.59
472.04	9741.31
472.22	9914.51
472.40	9715.56
472.58	9832.59
472.77	9877.06
472.95	9956.64
473.13	10284.31
473.31	9856.00
473.49	9944.94
473.67	9949.62
473.85	10017.49
474.03	10207.08
474.21	10328.78
474.39	10516.03
474.57	10483.26
474.75	10401.34
474.93	10691.57
475.12	10396.66
475.30	10579.22
475.48	10616.67
475.66	10834.34
475.84	10534.75
476.02	10630.71
476.20	10766.46
476.38	11126.91
476.56	11290.74
476.74	10956.05
476.92	11019.24
477.10	11215.85
477.28	11595.01
477.46	11492.03
477.64	11611.40
477.82	11805.66
478.00	11812.68
478.18	11761.19
478.36	11824.39
478.54	12030.35
478.72	11967.16
478.90	12250.36
479.08	12182.49
479.26	12404.84
479.44	12500.80
479.62	12269.09
479.80	12629.53
479.98	12826.14
480.16	12753.58
480.34	12858.90
480.52	12975.93
480.70	12971.25
480.88	12982.95
481.06	13048.49
481.24	13081.25
481.41	13336.37
481.59	13752.99
481.77	13504.89
481.95	13429.99
482.13	13757.67
482.31	13696.82
482.49	14003.43
482.67	14113.43
482.85	14197.69
483.03	14394.29
483.21	14747.72
483.39	14539.41
483.57	14494.94
483.74	14579.20
483.92	14918.57
484.10	14647.07
484.28	15070.71
484.46	15323.49
484.64	15344.55
484.82	15321.15
485.00	15492.01
485.18	15770.53
485.35	15742.44
485.53	15276.68
485.71	15630.10
485.89	15662.86
486.07	15807.98
486.25	15976.50
486.43	16161.40
486.61	16198.85
486.78	16507.80
486.96	16617.80
487.14	16788.66
487.32	16798.02
487.50	16945.48
487.68	17160.81
487.85	17135.06
488.03	17537.63
488.21	17757.64
488.39	17752.96
488.57	17869.99
488.75	17977.65
488.92	18359.16
489.10	18310.01
489.28	18370.86
489.46	18714.92
489.64	18686.84
489.81	18874.08
489.99	19075.37
490.17	18991.11
490.35	19250.91
490.53	19236.86
490.70	19077.71
490.88	19236.86
491.06	19922.64
491.24	19814.98
491.41	19517.73
491.59	19875.83
491.77	19852.42
491.95	20130.95
492.13	20299.47
492.30	20339.26
492.48	20545.22
492.66	20587.35
492.84	20690.34
493.01	20683.31
493.19	20903.32
493.37	21231.00
493.54	21383.13
493.72	21472.07
493.90	21296.53
494.08	21865.28
494.25	21893.37
494.43	21811.45
494.61	22012.74
494.79	21944.86
494.96	22094.66
495.14	22251.47
495.32	21977.63
495.49	22464.46
495.67	22494.89
495.85	22988.74
496.02	22838.95
496.20	23026.19
496.38	23381.95
496.55	23026.19
496.73	23953.04
496.91	23396.00
497.09	23819.63
497.26	23601.96
497.44	23850.06
497.62	23969.43
497.79	23896.87
497.97	23880.49
498.14	24081.77
498.32	24390.72
498.50	24491.37
498.67	25120.97
498.85	24882.24
499.03	24781.59
499.20	24959.47
499.38	25336.30
499.56	25043.73
499.73	24905.64
499.91	25331.62
500.08	25240.34
500.26	25022.67
500.44	25139.69
500.61	25345.66
500.79	25235.66
500.97	25493.12
501.14	25963.56
501.32	26094.63
501.49	25776.32
501.67	26043.14
501.84	26284.22
502.02	26293.58
502.20	26661.04
502.37	26616.57
502.55	26401.24
502.72	26590.83
502.90	26548.70
503.07	26703.17
503.25	26958.29
503.43	26934.88
503.60	27084.68
503.78	26944.25
503.95	26984.04
504.13	27044.89
504.30	27550.45
504.48	27440.44
504.65	27440.44
504.83	27938.97
505.01	27964.72
505.18	27873.44
505.36	27967.06
505.53	27754.07
505.71	28156.64
505.88	28166.01
506.06	28187.07
506.23	28315.80
506.41	27934.29
506.58	28226.86
506.76	28823.70
506.93	28723.05
507.11	28638.80
507.28	28835.40
507.46	28591.98
507.63	28687.95
507.81	28872.85
507.98	28620.07
508.16	29123.29
508.33	29315.21
508.50	29401.81
508.68	29312.87
508.85	29699.06
509.03	29834.81
509.20	30024.39
509.38	29703.74
509.55	30164.82
509.73	30202.27
509.90	29844.17
510.08	29979.92
510.25	30078.22
510.42	30064.18
510.60	30506.54
510.77	30508.88
510.95	30604.84
511.12	30576.76
511.30	30316.96
511.47	31381.90
511.64	30960.61
511.82	30909.11
511.99	30684.42
512.17	31438.08
512.34	30719.53
512.51	31356.16
512.69	31583.19
512.86	31267.22
513.04	31714.26
513.21	31449.78
513.38	31255.51
513.56	31353.82
513.73	31758.73
513.90	31564.46
514.08	31578.51
514.25	31913.20
514.43	31847.67
514.60	31704.90
514.77	32187.05
514.95	32573.24
515.12	32229.18
515.29	32397.70
515.47	32549.83
515.64	32734.73
515.81	32463.23
515.99	32800.27
516.16	32851.76
516.33	32444.51
516.51	32245.56
516.68	32311.10
516.85	32013.85
517.03	32278.33
517.20	32634.09
517.37	33104.54
517.54	32987.51
517.72	32807.29
517.89	32631.75
518.06	33003.89
518.24	33186.46
518.41	32907.93
518.58	33191.14
518.75	33392.42
518.93	33497.75
519.10	33280.08
519.27	33947.13
519.45	33582.01
519.62	33656.90
519.79	33764.57
519.96	33783.29
520.14	33984.58
520.31	34099.26
520.48	34223.31
520.65	33890.96
520.83	34213.95
521.00	34342.68
521.17	34239.70
521.34	34642.27
521.52	34415.24
521.69	35016.75
521.86	35246.13
522.03	34976.97
522.20	35325.71
522.38	34909.09
522.55	34876.32
522.72	35138.46
522.89	34993.35
523.07	35182.93
523.24	34892.71
523.41	35192.30
523.58	35461.46
523.75	35498.91
523.92	35505.93
524.10	35723.60
524.27	35927.22
524.44	35665.08
524.61	36114.47
524.78	36245.54
524.96	36048.93
525.13	36285.33
525.30	36308.73
525.47	36428.10
525.64	36282.98
525.81	36285.33
525.98	36285.33
526.16	36194.04
526.33	36084.04
526.50	36545.12
526.67	36041.91
526.84	36484.27
527.01	36568.53
527.18	36250.22
527.36	36837.69
527.53	36830.67
527.70	37544.53
527.87	36678.54
528.04	36830.67
528.21	37109.19
528.38	36947.70
528.55	37364.31
528.72	37715.39
528.89	37734.12
529.07	37078.77
529.24	37153.66
529.41	37373.67
529.58	37357.29
529.75	37530.49
529.92	37677.94
530.09	37579.64
530.26	37926.04
530.43	37846.46
530.60	37675.60
530.77	37776.25
530.94	37818.38
531.11	38143.71
531.28	38146.05
531.46	37949.45
531.63	38593.09
531.80	38337.98
531.97	37790.29
532.14	38216.27
532.31	37830.08
532.48	37893.27
532.65	38382.45
532.82	38534.58
532.99	38686.71
533.16	38277.12
533.33	38799.06
533.50	38988.64
533.67	38305.21
533.84	38234.99
534.01	38855.23
534.18	38836.51
534.35	38330.95
534.52	38916.09
534.69	38754.59
534.86	39281.21
535.03	38841.19
535.20	39864.00
535.37	39019.07
535.54	39639.31
535.71	39147.80
535.88	39288.23
536.05	39292.91
536.22	39117.37
536.38	39597.18
536.55	39660.38
536.72	39438.03
536.89	39538.67
537.06	39482.50
537.23	39627.61
537.40	39793.79
537.57	39833.58
537.74	39508.24
537.91	39768.04
538.08	39871.03
538.25	39536.33
538.42	39608.89
538.59	40491.27
538.75	39232.06
538.92	39938.90
539.09	40053.59
539.26	39964.65
539.43	40126.14
539.60	40161.25
539.77	39754.00
539.94	40399.99
540.11	40217.43
540.28	40308.71
540.44	40086.36
540.61	39917.84
540.78	40360.20
540.95	40460.84
541.12	39641.65
541.29	40011.46
541.46	40430.41
541.62	40484.25
541.79	40982.78
541.96	40463.18
542.13	40086.36
542.30	40666.81
542.47	40362.54
542.63	40793.20
542.80	40671.49
542.97	41289.39
543.14	41394.71
543.31	41209.81
543.48	41694.30
543.64	41724.73
543.81	41818.35
543.98	41652.17
544.15	41460.25
544.32	41874.52
544.48	41668.56
544.65	41769.20
544.82	41460.25
544.99	41425.14
545.16	41425.14
545.32	41495.36
545.49	42059.43
545.66	41996.23
545.83	41893.25
546.00	42457.32
546.16	41965.81
546.33	41645.15
546.50	41893.25
546.67	41818.35
546.83	41457.91
547.00	41996.23
547.17	41911.97
547.34	42160.07
547.50	42047.72
547.67	42101.56
547.84	42174.11
548.00	42738.18
548.17	42831.80
548.34	42326.25
548.51	42911.38
548.67	42948.83
548.84	42955.85
549.01	42291.14
549.18	42218.58
549.34	42501.79
549.51	43058.84
549.68	42880.95
549.84	42602.43
550.01	43285.87
550.18	42810.74
550.34	43012.02
550.51	42925.42
550.68	43145.44
550.84	42143.69
551.01	42934.79
551.18	42969.90
551.34	43166.50
551.51	42904.36
551.68	43131.39
551.84	43447.36
552.01	42834.14
552.18	43129.05
552.34	42890.32
552.51	43002.66
552.68	43330.34
552.84	43248.42
553.01	43269.48
553.18	43014.37
553.34	42780.31
553.51	42707.76
553.67	43009.68
553.84	43695.46
554.01	43255.44
554.17	43416.94
554.34	43992.71
554.51	43662.69
554.67	43489.49
554.84	43297.57
555.00	43613.54
555.17	43250.76
555.33	43407.58
555.50	43103.31
555.67	43154.80
555.83	43728.23
556.00	43856.96
556.16	44165.91
556.33	43494.18
556.50	43555.03
556.66	43770.36
556.83	43297.57
556.99	43906.11
557.16	43791.42
557.32	43686.10
557.49	44184.63
557.65	43866.32
557.82	44238.47
557.98	43751.63
558.15	44350.81
558.32	43992.71
558.48	43508.22
558.65	43824.19
558.81	43887.39
558.98	43746.95
559.14	43566.73
559.31	43779.72
559.47	44219.74
559.64	44238.47
559.80	44151.87
559.97	44367.20
560.13	43997.39
560.30	43828.87
560.46	44460.82
560.63	44226.76
560.79	44418.69
560.96	44119.10
561.12	44680.83
561.29	44339.11
561.45	44147.18
561.61	44201.02
561.78	44079.31
561.94	44332.09
562.11	44353.15
562.27	44072.29
562.44	44210.38
562.60	44259.53
562.77	44467.84
562.93	44360.17
563.10	44566.14
563.26	44060.58
563.42	44594.23
563.59	44456.14
563.75	44203.36
563.92	44451.45
564.08	44722.96
564.24	45230.85
564.41	44636.36
564.57	44615.29
564.74	44395.28
564.90	44659.76
565.07	44390.60
565.23	44921.90
565.39	44687.85
565.56	44704.23
565.72	44318.04
565.88	44477.20
566.05	44264.21
566.21	44800.19
566.38	44678.49
566.54	44678.49
566.70	44662.10
566.87	45155.96
567.03	44994.46
567.19	45235.53
567.36	44807.22
567.52	44718.28
567.68	44720.62
567.85	44744.02
568.01	44641.04
568.17	44678.49
568.34	45282.34
568.50	44811.90
568.66	44605.93
568.83	45155.96
568.99	44418.69
569.15	45132.55
569.32	44516.99
569.48	44442.09
569.64	45118.51
569.81	45010.84
569.97	44800.19
570.13	44896.16
570.30	44650.40
570.46	44488.90
570.62	44769.77
570.78	44336.77
570.95	44521.67
571.11	45078.72
571.27	44582.52
571.43	44500.61
571.60	44980.42
571.76	44781.47
571.92	44825.94
572.09	45113.83
572.25	44793.17
572.41	44734.66
572.57	44809.56
572.74	45535.12
572.90	44875.09
573.06	44847.00
573.22	44893.82
573.38	44580.18
573.55	44856.37
573.71	44872.75
573.87	45446.18
574.03	44910.20
574.20	45130.21
574.36	44851.69
574.52	45420.44
574.68	45172.34
574.84	45034.25
575.01	44898.50
575.17	45017.86
575.33	44790.83
575.49	44933.60
575.65	44952.33
575.82	44971.05
575.98	45202.77
576.14	45312.77
576.30	45326.81
576.46	45134.89
576.62	45106.80
576.79	45347.88
576.95	44985.10
577.11	45298.73
577.27	45050.63
577.43	45272.98
577.59	45148.93
577.75	44999.14
577.92	44638.70
578.08	45118.51
578.24	44715.93
578.40	45024.89
578.56	44987.44
578.72	45055.31
578.88	44952.33
579.04	45560.87
579.21	45181.70
579.37	45092.76
579.53	44971.05
579.69	44762.75
579.85	44650.40
580.01	45010.84
580.17	44940.63
580.33	45404.05
580.49	45366.60
580.65	45771.52
580.82	45361.92
580.98	45153.62
581.14	45392.35
581.30	45228.51
581.46	45523.42
581.62	45153.62
581.78	44856.37
581.94	45237.87
582.10	45324.47
582.26	45235.53
582.42	45132.55
582.58	45434.48
582.74	44790.83
582.90	45490.65
583.06	45413.41
583.22	45375.97
583.38	45530.44
583.54	45282.34
583.70	45603.00
583.86	45280.00
584.02	44734.66
584.18	45394.69
584.34	44935.95
584.50	45523.42
584.66	45277.66
584.82	44907.86
584.98	45780.88
585.14	45525.76
585.30	45125.53
585.46	45083.40
585.62	45034.25
585.78	45050.63
585.94	44851.69
586.10	45188.72
586.26	45228.51
586.42	45684.92
586.58	45361.92
586.74	45495.33
586.90	45123.19
587.06	45036.59
587.22	45045.95
587.38	44612.95
587.54	44978.07
587.70	45284.68
587.86	45214.47
588.02	45099.78
588.18	45474.27
588.34	45212.13
588.49	44725.30
588.65	44741.68
588.81	44891.48
588.97	45153.62
589.13	44851.69
589.29	45200.43
589.45	45408.73
589.61	44964.03
589.77	45425.12
589.93	45675.55
590.08	45228.51
590.24	45727.05
