SpectraSuite Data File
++++++++++++++++++++++++++++++++++++
Date: Fri Oct 25 11:23:55 EDT 2013
User: price-jones
Dark Spectrum Present: No
Reference Spectrum Present: No
Number of Sampled Component Spectra: 1
Spectrometers: USB2+H05261
Integration Time (usec): 100000 (USB2+H05261)
Spectra Averaged: 1 (USB2+H05261)
Boxcar Smoothing: 0 (USB2+H05261)
Correct for Electrical Dark: No (USB2+H05261)
Strobe/Lamp Enabled: No (USB2+H05261)
Correct for Detector Non-linearity: No (USB2+H05261)
Correct for Stray Light: No (USB2+H05261)
Number of Pixels in Processed Spectrum: 2048
>>>>>Begin Processed Spectral Data<<<<<
365.73	203.63
365.92	203.63
366.12	203.63
366.32	187.24
366.52	86.60
366.72	105.32
366.91	91.28
367.11	163.84
367.31	149.79
367.51	35.11
367.70	133.41
367.90	84.26
368.10	70.22
368.30	149.79
368.49	145.11
368.69	194.26
368.89	140.43
369.09	100.64
369.28	159.16
369.48	187.24
369.68	147.45
369.87	201.29
370.07	147.45
370.27	227.03
370.47	337.04
370.66	580.45
370.86	631.94
371.06	601.52
371.25	685.78
371.45	669.39
371.65	697.48
371.84	709.18
372.04	709.18
372.24	760.67
372.44	704.50
372.63	727.91
372.83	770.04
373.03	713.86
373.22	699.82
373.42	795.78
373.62	809.83
373.81	814.51
374.01	821.53
374.21	842.59
374.40	755.99
374.60	786.42
374.79	837.91
374.99	880.04
375.19	772.38
375.38	870.68
375.58	875.36
375.78	795.78
375.97	875.36
376.17	847.27
376.37	889.40
376.56	814.51
376.76	844.93
376.95	854.30
377.15	912.81
377.35	891.74
377.54	919.83
377.74	954.94
377.93	882.38
378.13	908.13
378.33	912.81
378.52	945.58
378.72	903.45
378.91	1020.47
379.11	964.30
379.31	926.85
379.50	917.49
379.70	940.90
379.89	1027.50
380.09	945.58
380.28	964.30
380.48	1050.90
380.68	983.02
380.87	1006.43
381.07	1057.92
381.26	1109.41
381.46	1015.79
381.65	1060.26
381.85	1004.09
382.04	1062.60
382.24	1081.33
382.43	1055.58
382.63	1057.92
382.83	1123.46
383.02	1057.92
383.22	1067.28
383.41	1116.44
383.61	1018.13
383.80	1184.31
384.00	1008.77
384.19	1116.44
384.39	1128.14
384.58	1102.39
384.78	1078.99
384.97	1130.48
385.17	1160.91
385.36	1151.54
385.56	1163.25
385.75	1109.41
385.95	1151.54
386.14	1123.46
386.34	1160.91
386.53	1172.61
386.72	1198.35
386.92	1259.21
387.11	1212.40
387.31	1146.86
387.50	1249.85
387.70	1090.69
387.89	1212.40
388.09	1294.32
388.28	1252.19
388.48	1259.21
388.67	1249.85
388.86	1275.59
389.06	1280.27
389.25	1310.70
389.45	1301.34
389.64	1409.00
389.84	1444.11
390.03	1376.24
390.22	1394.96
390.42	1399.64
390.61	1313.04
390.81	1451.13
391.00	1430.07
391.19	1481.56
391.39	1383.26
391.58	1519.01
391.78	1453.47
391.97	1467.52
392.16	1413.68
392.36	1439.43
392.55	1437.09
392.75	1472.20
392.94	1521.35
393.13	1554.12
393.33	1404.32
393.52	1533.05
393.71	1577.52
393.91	1633.69
394.10	1652.42
394.29	1640.72
394.49	1596.25
394.68	1603.27
394.88	1502.62
395.07	1708.59
395.26	1694.55
395.46	1645.40
395.65	1610.29
395.84	1647.74
396.04	1778.81
396.23	1715.61
396.42	1689.87
396.62	1750.72
396.81	1837.32
397.00	1654.76
397.19	1842.00
397.39	1837.32
397.58	1750.72
397.77	1820.94
397.97	1888.81
398.16	1820.94
398.35	1954.35
398.55	1980.09
398.74	1816.26
398.93	2012.86
399.12	1860.73
399.32	1923.92
399.51	1930.94
399.70	2045.63
399.90	1975.41
400.09	2024.56
400.28	1980.09
400.47	2054.99
400.67	1996.48
400.86	2099.46
401.05	2139.25
401.24	2054.99
401.44	2129.89
401.63	2207.13
401.82	2143.93
402.01	2120.53
402.21	2188.40
402.40	2209.47
402.59	2179.04
402.78	2104.14
402.97	2305.43
403.17	2272.66
403.36	2183.72
403.55	2230.53
403.74	2354.58
403.93	2303.09
404.13	2319.47
404.32	2399.05
404.51	2480.97
404.70	2354.58
404.89	2349.90
405.09	2424.80
405.28	2464.58
405.47	2513.74
405.66	2530.12
405.85	2607.36
406.05	2422.45
406.24	2534.80
406.43	2586.29
406.62	2703.32
406.81	2626.08
407.00	2605.02
407.20	2537.14
407.39	2530.12
407.58	2630.76
407.77	2724.38
407.96	2715.02
408.15	2705.66
408.34	2801.62
408.54	2785.24
408.73	2647.15
408.92	2918.65
409.11	2736.09
409.30	2834.39
409.49	2988.86
409.68	2993.55
409.87	2878.86
410.07	2986.52
410.26	3007.59
410.45	3007.59
410.64	3009.93
410.83	3077.80
411.02	2998.23
411.21	3227.60
411.40	3199.51
411.59	3321.22
411.78	3232.28
411.98	3243.98
412.17	3218.24
412.36	3356.33
412.55	3398.46
412.74	3295.47
412.93	3358.67
413.12	3456.97
413.31	3452.29
413.50	3400.80
413.69	3487.40
413.88	3534.21
414.07	3503.78
414.26	3583.36
414.45	3665.28
414.64	3609.11
414.83	3817.41
415.02	3599.74
415.22	3932.10
415.41	3730.81
415.60	3826.78
415.79	3943.80
415.98	3946.14
416.17	3906.35
416.36	3936.78
416.55	4021.04
416.74	4002.32
416.93	4035.08
417.12	4159.13
417.31	4234.03
417.50	4259.78
417.69	4299.56
417.88	4187.22
418.07	4126.36
418.26	4308.93
418.45	4440.00
418.64	4484.47
418.83	4315.95
419.02	4301.90
419.21	4442.34
419.39	4489.15
419.58	4521.92
419.77	4421.27
419.96	4486.81
420.15	4486.81
420.34	4533.62
420.53	4554.68
420.72	4615.54
420.91	4688.09
421.10	4840.23
421.29	4851.93
421.48	4650.64
421.67	4664.69
421.86	4858.95
422.05	4924.49
422.24	4851.93
422.43	4798.10
422.61	4924.49
422.80	4973.64
422.99	4999.38
423.18	4877.68
423.37	4971.30
423.56	4933.85
423.75	4908.10
423.94	4889.38
424.13	4601.49
424.32	4823.84
424.50	5055.56
424.69	5186.63
424.88	5085.98
425.07	4980.66
425.26	4940.87
425.45	4983.00
425.64	4926.83
425.83	4882.36
426.01	5090.67
426.20	5256.84
426.39	5055.56
426.58	5039.17
426.77	5085.98
426.96	5064.92
427.15	5137.48
427.33	5263.86
427.52	5034.49
427.71	5287.27
427.90	5270.89
428.09	5343.44
428.28	5345.78
428.46	5413.66
428.65	5317.70
428.84	5497.92
429.03	5493.24
429.22	5179.61
429.40	5441.75
429.59	5657.07
429.78	5327.06
429.97	5324.72
430.16	5467.49
430.34	5668.78
430.53	5600.90
430.72	5825.59
430.91	5577.50
431.10	5767.08
431.28	5881.77
431.47	5804.53
431.66	5722.61
431.85	5722.61
432.03	5928.58
432.22	5959.00
432.41	5982.41
432.60	6024.54
432.79	5973.05
432.97	6022.20
433.16	6150.93
433.35	6045.60
433.54	6078.37
433.72	6043.26
433.91	6155.61
434.10	6024.54
434.28	6127.52
434.47	6207.10
434.66	6127.52
434.85	6282.00
435.03	6459.88
435.22	6326.47
435.41	6452.86
435.59	6293.70
435.78	6633.08
435.97	6537.12
436.16	6359.24
436.34	6485.62
436.53	6595.63
436.72	6684.57
436.90	6387.32
437.09	6548.82
437.28	6363.92
437.46	6513.71
437.65	6661.16
437.84	6715.00
438.02	6691.59
438.21	6754.79
438.40	6661.16
438.58	6970.12
438.77	7143.32
438.96	6906.92
439.14	7061.40
439.33	7063.74
439.52	7115.23
439.70	7295.45
439.89	7377.37
440.08	7311.83
440.26	7550.57
440.45	7353.96
440.63	7302.47
440.82	7506.10
441.01	7454.61
441.19	7573.97
441.38	7660.57
441.57	7655.89
441.75	7747.17
441.94	7908.67
442.12	7943.78
442.31	7920.37
442.50	8149.75
442.68	8121.66
442.87	8030.38
443.05	8231.66
443.24	8255.07
443.43	8119.32
443.61	8322.94
443.80	8411.89
443.98	8006.97
444.17	7943.78
444.35	8325.29
444.54	8435.29
444.73	8379.12
444.91	8198.90
445.10	8269.11
445.28	8332.31
445.47	8416.57
445.65	8334.65
445.84	8533.59
446.02	8493.80
446.21	8435.29
446.39	8334.65
446.58	8489.12
446.77	8334.65
446.95	8308.90
447.14	8526.57
447.32	8526.57
447.51	8334.65
447.69	8479.76
447.88	8514.87
448.06	8652.96
448.25	8451.67
448.43	8648.28
448.62	8685.73
448.80	8662.32
448.99	8629.56
449.17	8746.58
449.36	8568.70
449.54	9102.34
449.73	9076.60
449.91	9132.77
450.10	9181.92
450.28	9025.11
450.46	8994.68
450.65	8997.02
450.83	9081.28
451.02	9074.26
451.20	9025.11
451.39	9228.73
451.57	9224.05
451.76	8954.89
451.94	9259.16
452.13	9362.14
452.31	9348.10
452.49	9359.80
452.68	9273.20
452.86	9376.19
453.05	9423.00
453.23	9427.68
453.42	9383.21
453.60	9242.78
453.78	9563.43
453.97	9387.89
454.15	9769.40
454.34	9647.69
454.52	9792.80
454.70	9537.68
454.89	9764.72
455.07	9563.43
455.26	9837.27
455.44	9923.87
455.62	10211.76
455.81	9832.59
455.99	9923.87
456.17	9902.81
456.36	9975.36
456.54	10188.35
456.73	10235.16
456.91	10408.36
457.09	10469.22
457.28	10665.82
457.46	10258.57
457.64	10541.77
457.83	10623.69
458.01	10459.85
458.19	10745.40
458.38	10656.46
458.56	10633.05
458.74	10698.59
458.93	10593.26
459.11	10883.49
459.29	10949.03
459.48	10878.81
459.66	10827.32
459.84	11019.24
460.03	11166.70
460.21	10876.47
460.39	10923.28
460.57	10949.03
460.76	11103.50
460.94	11112.86
461.12	11311.81
461.31	11105.84
461.49	11227.55
461.67	11190.10
461.85	11726.08
462.04	11353.94
462.22	11489.69
462.40	11482.67
462.59	11234.57
462.77	11475.65
462.95	11585.65
463.13	11733.11
463.32	11770.55
463.50	11864.18
463.68	11908.65
463.86	11756.51
464.05	11630.12
464.23	11749.49
464.41	11676.93
464.59	11679.27
464.78	12189.51
464.96	12025.67
465.14	11929.71
465.32	12095.89
465.50	11978.86
465.69	12079.50
465.87	12212.92
466.05	12004.61
466.23	11976.52
466.41	11997.59
466.60	12430.59
466.78	12468.03
466.96	12142.70
467.14	12222.28
467.32	12470.37
467.51	12589.74
467.69	11985.88
467.87	12320.58
468.05	12561.66
468.23	12404.84
468.41	12393.14
468.60	12748.90
468.78	12882.31
468.96	13004.02
469.14	12933.80
469.32	13334.03
469.50	12645.91
469.69	13102.32
469.87	13095.30
470.05	13048.49
470.23	13348.08
470.41	13022.74
470.59	13359.78
470.77	13270.84
470.95	13186.58
471.14	13593.83
471.32	13319.99
471.50	13689.79
471.68	13422.97
471.86	13666.39
472.04	13886.40
472.22	13832.57
472.40	13671.07
472.58	13664.05
472.77	13963.64
472.95	14019.81
473.13	14633.03
473.31	14017.47
473.49	14183.65
473.67	14195.35
473.85	14197.69
474.03	14593.24
474.21	14733.67
474.39	14626.01
474.57	14897.51
474.75	14834.32
474.93	14902.19
475.12	15255.61
475.30	15246.25
475.48	14827.29
475.66	15180.71
475.84	15260.29
476.02	15398.38
476.20	15552.86
476.38	15716.70
476.56	16018.63
476.74	16023.31
476.92	15995.22
477.10	15697.97
477.28	16348.64
477.46	16531.20
477.64	16519.50
477.82	16622.48
478.00	16926.75
478.18	16936.12
478.36	17193.58
478.54	17273.15
478.72	17053.14
478.90	17434.65
479.08	17476.78
479.26	17867.65
479.44	17532.95
479.62	17891.06
479.80	17806.80
479.98	18263.20
480.16	18590.88
480.34	18106.38
480.52	18815.57
480.70	18546.40
480.88	18436.40
481.06	18651.73
481.24	19056.64
481.41	19506.02
481.59	19168.99
481.77	19686.25
481.95	19576.24
482.13	19709.65
482.31	19866.47
482.49	20166.06
482.67	20121.59
482.85	20350.96
483.03	20695.02
483.21	20737.15
483.39	20702.04
483.57	20854.17
483.74	21228.66
483.92	21413.56
484.10	21153.76
484.28	22008.06
484.46	22169.55
484.64	22345.09
484.82	21919.12
485.00	22317.01
485.18	22913.84
485.35	23227.48
485.53	22918.53
485.71	23054.28
485.89	23744.73
486.07	23077.68
486.25	23337.48
486.43	23599.62
486.61	24006.87
486.78	24180.07
486.96	23861.76
487.14	24652.86
487.32	24615.41
487.50	24697.33
487.68	24938.41
487.85	25420.56
488.03	25282.47
488.21	26225.70
488.39	25867.60
488.57	26246.77
488.75	26192.94
488.92	26705.51
489.10	26558.06
489.28	26408.26
489.46	27185.32
489.64	26958.29
489.81	27768.12
489.99	27725.99
490.17	27733.01
490.35	28236.22
490.53	28184.73
490.70	28671.56
490.88	28191.75
491.06	28849.44
491.24	28786.25
491.41	29184.14
491.59	29441.60
491.77	29289.46
491.95	29834.81
492.13	30071.20
492.30	30085.25
492.48	29778.64
492.66	30572.08
492.84	30490.16
493.01	30394.20
493.19	30726.55
493.37	31030.82
493.54	31229.77
493.72	31512.97
493.90	31463.82
494.08	31828.95
494.25	32175.34
494.43	31878.10
494.61	32706.65
494.79	32390.67
494.96	32613.02
495.14	32844.74
495.32	33338.59
495.49	33144.33
495.67	33429.87
495.85	33240.29
496.02	33539.88
496.20	33780.95
496.38	34164.80
496.55	34340.34
496.73	35068.25
496.91	34693.76
497.09	34836.53
497.26	34745.25
497.44	35082.29
497.62	35267.19
497.79	35723.60
497.97	35566.78
498.14	35833.60
498.32	36402.35
498.50	36023.19
498.67	36713.64
498.85	36416.40
499.03	37160.69
499.20	36818.97
499.38	37247.29
499.56	37106.85
499.73	36896.20
499.91	37605.39
500.08	37638.15
500.26	37347.93
500.44	37785.61
500.61	37722.41
500.79	37479.00
500.97	38150.73
501.14	38085.20
501.32	38632.88
501.49	39019.07
501.67	38595.43
501.84	38796.72
502.02	39108.01
502.20	39014.39
502.37	39337.38
502.55	39264.83
502.72	39548.03
502.90	39332.70
503.07	39454.41
503.25	39974.01
503.43	39646.33
503.60	40109.76
503.78	40655.11
503.95	40460.84
504.13	40498.29
504.30	40638.72
504.48	40381.26
504.65	40975.76
504.83	40811.92
505.01	41495.36
505.18	41319.82
505.36	41818.35
505.53	41071.72
505.71	41666.22
505.88	41605.36
506.06	41998.57
506.23	42232.63
506.41	42293.48
506.58	42167.09
506.76	42349.65
506.93	42660.94
507.11	42188.16
507.28	42600.09
507.46	42635.20
507.63	43206.29
507.81	43182.88
507.98	42995.64
508.16	43540.99
508.33	43765.68
508.50	43765.68
508.68	43718.87
508.85	43562.05
509.03	44069.95
509.20	44032.50
509.38	44371.88
509.55	44678.49
509.73	44521.67
509.90	44697.21
510.08	44570.82
510.25	44854.03
510.42	44933.60
510.60	45205.11
510.77	45375.97
510.95	45420.44
511.12	45109.14
511.30	45343.20
511.47	45397.03
511.64	45638.11
511.82	46181.11
511.99	45815.99
512.17	46361.33
512.34	46213.88
512.51	46115.58
512.69	46363.67
512.86	46204.52
513.04	46869.23
513.21	46270.05
513.38	46894.97
513.56	46717.09
513.73	46904.34
513.90	46894.97
514.08	46625.81
514.25	47587.77
514.43	47592.45
514.60	47306.91
514.77	47044.77
514.95	47449.68
515.12	47515.22
515.29	47393.51
515.47	47978.64
515.64	48100.35
515.81	47828.85
515.99	48280.57
516.16	48505.26
516.33	48240.78
516.51	48800.17
516.68	48531.01
516.85	48652.72
517.03	48903.15
517.20	49006.14
517.37	48959.33
517.54	48849.32
517.72	49003.80
517.89	49418.07
518.06	49680.21
518.24	49174.66
518.41	49277.64
518.58	49223.81
518.75	49212.10
518.93	49624.04
519.10	49483.61
519.27	49844.05
519.45	49881.50
519.62	50045.33
519.79	49647.44
519.96	50305.13
520.14	50295.77
520.31	50113.21
520.48	50436.20
520.65	50478.33
520.83	50651.53
521.00	50602.38
521.17	50567.27
521.34	50731.11
521.52	50756.86
521.69	50726.43
521.86	51016.66
522.03	51145.39
522.20	51201.56
522.38	51508.17
522.55	51164.11
522.72	51341.99
522.89	51229.65
523.07	51767.97
523.24	51632.22
523.41	51826.48
523.58	51433.27
523.75	51938.83
523.92	51868.61
524.10	52100.32
524.27	52460.77
524.44	52095.64
524.61	52243.10
524.78	52119.05
524.96	52165.86
525.13	52428.00
525.30	52439.70
525.47	52743.97
525.64	52526.30
525.81	52451.41
525.98	52708.86
526.16	52762.70
526.33	52570.77
526.50	53153.57
526.67	52849.30
526.84	52959.30
527.01	53029.52
527.18	52793.12
527.36	53008.45
527.53	53064.63
527.70	53191.01
527.87	53207.40
528.04	53095.05
528.21	52982.71
528.38	53165.27
528.55	53734.02
528.72	53392.30
528.89	53317.40
529.07	53675.51
529.24	53380.60
529.41	53612.31
529.58	53804.24
529.75	53579.54
529.92	53982.12
530.09	53862.75
530.26	54019.56
530.43	53881.47
530.60	53841.68
530.77	53855.73
530.94	54202.13
531.11	53991.48
531.28	54110.85
531.46	54014.88
531.63	54255.96
531.80	54445.54
531.97	54302.77
532.14	54351.92
532.31	54527.46
532.48	54567.25
532.65	54504.06
532.82	54635.13
532.99	54761.51
533.16	54576.61
533.33	54754.49
533.50	54960.46
533.67	54768.54
533.84	54794.28
534.01	54693.64
534.18	55021.31
534.35	55306.86
534.52	55168.77
534.69	55098.55
534.86	55377.08
535.03	55196.85
535.20	55243.66
535.37	55323.24
535.54	55325.58
535.71	55297.50
535.88	55449.63
536.05	55573.68
536.22	55868.59
536.38	55711.77
536.55	55538.57
536.72	55880.29
536.89	55543.25
537.06	55620.49
537.23	55936.46
537.40	55821.78
537.57	55814.76
537.74	55840.50
537.91	56133.07
538.08	55983.27
538.25	55805.39
538.42	55889.65
538.59	56093.28
538.75	55934.12
538.92	55997.32
539.09	56498.19
539.26	56294.56
539.43	56147.11
539.60	56020.72
539.77	56343.72
539.94	56563.73
540.11	56647.99
540.28	56409.25
540.44	56552.02
540.61	56512.23
540.78	56573.09
540.95	56549.68
541.12	56324.99
541.29	56310.95
541.46	56676.07
541.62	56343.72
541.79	56664.37
541.96	56341.38
542.13	56577.77
542.30	56882.04
542.47	56863.32
542.63	56954.60
542.80	56844.59
542.97	57041.20
543.14	57153.54
543.31	57146.52
543.48	57359.51
543.64	57635.69
543.81	57609.95
543.98	57242.48
544.15	57059.92
544.32	57598.24
544.48	57425.04
544.65	57378.23
544.82	57422.70
544.99	57312.70
545.16	57701.23
545.32	57485.90
545.49	57778.46
545.66	57949.32
545.83	57485.90
546.00	57907.19
546.16	57694.21
546.33	57598.24
546.50	57235.46
546.67	57970.39
546.83	57804.21
547.00	57836.98
547.17	57715.27
547.34	57759.74
547.50	58061.67
547.67	58284.02
547.84	58068.69
548.00	58305.09
548.17	58190.40
548.34	58047.63
548.51	58398.71
548.67	58159.97
548.84	58206.78
549.01	58277.00
549.18	58000.82
549.34	58480.63
549.51	58337.85
549.68	58384.66
549.84	58450.20
550.01	58478.28
550.18	58342.53
550.34	58677.23
550.51	58534.46
550.68	58443.18
550.84	58232.53
551.01	58686.59
551.18	58459.56
551.34	58632.76
551.51	58546.16
551.68	58365.94
551.84	58473.60
552.01	58489.99
552.18	58784.90
552.34	58401.05
552.51	58974.48
552.68	58377.64
552.84	58609.35
553.01	58864.47
553.18	58707.66
553.34	58927.67
553.51	58770.85
553.67	58939.37
553.84	59164.06
554.01	58922.99
554.17	59150.02
554.34	59119.59
554.51	59061.08
554.67	59114.91
554.84	59107.89
555.00	59082.14
555.17	58981.50
555.33	59044.69
555.50	59044.69
555.67	58880.86
555.83	59018.95
556.00	59463.65
556.16	59461.31
556.33	59477.69
556.50	59355.99
556.66	59405.14
556.83	59159.38
556.99	59377.05
557.16	59484.72
557.32	59484.72
557.49	59456.63
557.65	59510.46
557.82	59440.24
557.98	59480.03
558.15	59583.02
558.32	59526.84
558.48	59465.99
558.65	59442.59
558.81	59489.40
558.98	59585.36
559.14	59810.05
559.31	59742.17
559.47	59564.29
559.64	59826.43
559.80	59688.34
559.97	59913.03
560.13	59723.45
560.30	59777.28
560.46	59814.73
560.63	59686.00
560.79	59941.12
560.96	59760.90
561.12	59880.27
561.29	60044.10
561.45	60016.02
561.61	59997.29
561.78	59847.50
561.94	59870.90
562.11	59807.71
562.27	59901.33
562.44	59859.20
562.60	60030.06
562.77	59994.95
562.93	59578.34
563.10	59931.76
563.26	59936.44
563.42	60301.56
563.59	60060.49
563.75	60027.72
563.92	60264.11
564.08	60191.56
564.24	60212.62
564.41	60086.23
564.57	60217.30
564.74	60048.78
564.90	60229.01
565.07	60037.08
565.23	60378.80
565.39	60238.37
565.56	60243.05
565.72	60027.72
565.88	60339.01
566.05	60163.47
566.21	60158.79
566.38	60355.39
566.54	60296.88
566.70	60364.76
566.87	60348.37
567.03	60353.05
567.19	60577.75
567.36	60299.22
567.52	60252.41
567.68	60631.58
567.85	60348.37
568.01	60589.45
568.17	60306.24
568.34	60533.28
568.50	60552.00
568.66	60280.50
568.83	60423.27
568.99	60416.25
569.15	60423.27
569.32	60594.13
569.48	60458.38
569.64	60463.06
569.81	60397.52
569.97	60200.92
570.13	60498.17
570.30	60467.74
570.46	60708.82
570.62	60603.49
570.78	60594.13
570.95	60633.92
571.11	60793.07
571.27	60589.45
571.43	60669.03
571.60	60739.24
571.76	60636.26
571.92	60654.98
572.09	60601.15
572.25	60580.09
572.41	60669.03
572.57	60743.92
572.74	60772.01
572.90	60631.58
573.06	60797.76
573.22	60512.21
573.38	60596.47
573.55	60762.65
573.71	60741.58
573.87	60617.53
574.03	60612.85
574.20	60622.22
574.36	60456.04
574.52	60795.42
574.68	60727.54
574.84	60968.61
575.01	60779.03
575.17	60921.80
575.33	60694.77
575.49	60622.22
575.65	60811.80
575.82	60959.25
575.98	60706.47
576.14	60945.21
576.30	60938.19
576.46	60664.35
576.62	60846.91
576.79	60755.63
576.95	60706.47
577.11	60882.02
577.27	60797.76
577.43	60921.80
577.59	60818.82
577.75	60853.93
577.92	60526.25
578.08	60624.56
578.24	60858.61
578.40	60842.23
578.56	60970.96
578.72	60879.67
578.88	61076.28
579.04	61127.77
579.21	60839.89
579.37	60980.32
579.53	60917.12
579.69	60818.82
579.85	60757.97
580.01	60828.18
580.17	60872.65
580.33	61205.01
580.49	61066.92
580.65	61104.37
580.82	61001.38
580.98	60870.31
581.14	60884.36
581.30	60999.04
581.46	60828.18
581.62	60884.36
581.78	60872.65
581.94	60874.99
582.10	60853.93
582.26	60896.06
582.42	60914.78
582.58	60982.66
582.74	60853.93
582.90	60933.51
583.06	60905.42
583.22	60818.82
583.38	61139.47
583.54	60865.63
583.70	61003.72
583.86	61020.11
584.02	61010.74
584.18	61076.28
584.34	61010.74
584.50	60823.50
584.66	61027.13
584.82	60928.83
584.98	61319.70
585.14	61165.22
585.30	60851.59
585.46	61043.51
585.62	61087.98
585.78	61324.38
585.94	60938.19
586.10	61038.83
586.26	61165.22
586.42	61202.67
586.58	61202.67
586.74	60973.30
586.90	61102.03
587.06	60832.86
587.22	61010.74
587.38	60832.86
587.54	61123.09
587.70	61165.22
587.86	61041.17
588.02	61090.32
588.18	61270.54
588.34	60999.04
588.49	61202.67
