SpectraSuite Data File
++++++++++++++++++++++++++++++++++++
Date: Fri Oct 25 10:47:54 EDT 2013
User: price-jones
Dark Spectrum Present: No
Reference Spectrum Present: No
Number of Sampled Component Spectra: 1
Spectrometers: USB2+H05261
Integration Time (usec): 100000 (USB2+H05261)
Spectra Averaged: 1 (USB2+H05261)
Boxcar Smoothing: 0 (USB2+H05261)
Correct for Electrical Dark: No (USB2+H05261)
Strobe/Lamp Enabled: No (USB2+H05261)
Correct for Detector Non-linearity: No (USB2+H05261)
Correct for Stray Light: No (USB2+H05261)
Number of Pixels in Processed Spectrum: 2048
>>>>>Begin Processed Spectral Data<<<<<
365.73	217.67
365.92	217.67
366.12	217.67
366.32	37.45
366.52	39.79
366.72	93.62
366.91	21.06
367.11	16.38
367.31	18.72
367.51	23.41
367.70	46.81
367.90	37.45
368.10	0.00
368.30	53.83
368.49	11.70
368.69	105.32
368.89	72.56
369.09	49.15
369.28	30.43
369.48	63.19
369.68	88.94
369.87	121.71
370.07	100.64
370.27	147.45
370.47	273.84
370.66	306.61
370.86	318.31
371.06	433.00
371.25	458.74
371.45	510.24
371.65	524.28
371.84	482.15
372.04	425.98
372.24	514.92
372.44	421.30
372.63	503.22
372.83	444.70
373.03	550.03
373.22	528.96
373.42	510.24
373.62	463.43
373.81	491.51
374.01	552.37
374.21	521.94
374.40	582.79
374.60	550.03
374.79	498.53
374.99	547.69
375.19	582.79
375.38	608.54
375.58	573.43
375.78	622.58
375.97	571.09
376.17	514.92
376.37	510.24
376.56	589.82
376.76	573.43
376.95	566.41
377.15	545.34
377.35	594.50
377.54	615.56
377.74	683.44
377.93	603.86
378.13	657.69
378.33	706.84
378.52	582.79
378.72	601.52
378.91	603.86
379.11	599.18
379.31	620.24
379.50	613.22
379.70	622.58
379.89	718.54
380.09	573.43
380.28	629.60
380.48	699.82
380.68	676.41
380.87	664.71
381.07	657.69
381.26	678.76
381.46	634.29
381.65	671.73
381.85	610.88
382.04	755.99
382.24	732.59
382.43	697.48
382.63	667.05
382.83	739.61
383.02	760.67
383.22	781.74
383.41	730.25
383.61	739.61
383.80	793.44
384.00	720.88
384.19	753.65
384.39	732.59
384.58	636.63
384.78	758.33
384.97	767.70
385.17	706.84
385.36	667.05
385.56	763.01
385.75	699.82
385.95	816.85
386.14	746.63
386.34	814.51
386.53	819.19
386.72	758.33
386.92	807.48
387.11	802.80
387.31	844.93
387.50	844.93
387.70	781.74
387.89	795.78
388.09	770.04
388.28	833.23
388.48	786.42
388.67	891.74
388.86	816.85
389.06	908.13
389.25	898.77
389.45	858.98
389.64	847.27
389.84	905.79
390.03	931.53
390.22	873.02
390.42	933.87
390.61	912.81
390.81	950.26
391.00	933.87
391.19	889.40
391.39	1053.24
391.58	950.26
391.78	961.96
391.97	966.64
392.16	877.70
392.36	1008.77
392.55	1046.22
392.75	1060.26
392.94	1048.56
393.13	922.17
393.33	929.19
393.52	983.02
393.71	999.41
393.91	915.15
394.10	1118.78
394.29	1022.81
394.49	987.71
394.68	1205.38
394.88	1153.88
395.07	1130.48
395.26	1090.69
395.46	1231.12
395.65	1207.72
395.84	1083.67
396.04	1144.52
396.23	1156.22
396.42	1174.95
396.62	1057.92
396.81	1121.12
397.00	1186.65
397.19	1111.75
397.39	1184.31
397.58	1200.69
397.77	1207.72
397.97	1247.51
398.16	1245.16
398.35	1320.06
398.55	1242.82
398.74	1385.60
398.93	1366.87
399.12	1263.89
399.32	1327.08
399.51	1336.45
399.70	1282.61
399.90	1371.55
400.09	1390.28
400.28	1383.26
400.47	1329.42
400.67	1427.73
400.86	1401.98
401.05	1420.71
401.24	1521.35
401.44	1394.96
401.63	1551.78
401.82	1549.43
402.01	1413.68
402.21	1540.07
402.40	1497.94
402.59	1511.99
402.78	1565.82
402.97	1497.94
403.17	1537.73
403.36	1671.14
403.55	1556.46
403.74	1638.38
403.93	1610.29
404.13	1614.97
404.32	1570.50
404.51	1671.14
404.70	1645.40
404.89	1664.12
405.09	1813.92
405.28	1797.53
405.47	1668.80
405.66	1657.10
405.85	1746.04
406.05	1701.57
406.24	1685.19
406.43	1830.30
406.62	1748.38
406.81	1860.73
407.00	1867.75
407.20	1823.28
407.39	1849.02
407.58	1926.26
407.77	2008.18
407.96	1987.11
408.15	2022.22
408.34	1900.52
408.54	1930.94
408.73	2001.16
408.92	1987.11
409.11	2069.03
409.30	2076.06
409.49	2043.29
409.68	2001.16
409.87	2085.42
410.07	2029.24
410.26	2104.14
410.45	2012.86
410.64	2094.78
410.83	2172.02
411.02	2146.27
411.21	2242.23
411.40	2237.55
411.59	2225.85
411.78	2305.43
411.98	2246.91
412.17	2277.34
412.36	2385.01
412.55	2249.25
412.74	2417.77
412.93	2497.35
413.12	2492.67
413.31	2511.39
413.50	2534.80
413.69	2471.61
413.88	2520.76
414.07	2534.80
414.26	2609.70
414.45	2684.59
414.64	2562.89
414.83	2757.15
415.02	2726.72
415.22	2661.19
415.41	2698.64
415.60	2754.81
415.79	2759.49
415.98	2810.98
416.17	2820.35
416.36	2750.13
416.55	2813.32
416.74	2864.82
416.93	2857.79
417.12	3002.91
417.31	2878.86
417.50	2986.52
417.69	3194.83
417.88	3030.99
418.07	3042.70
418.26	3103.55
418.45	3080.14
418.64	3337.60
418.83	3187.81
419.02	3152.70
419.21	3164.40
419.39	3117.59
419.58	3122.27
419.77	3091.85
419.96	3234.62
420.15	3213.56
420.34	3185.47
420.53	3346.97
420.72	3370.37
420.91	3382.07
421.10	3353.99
421.29	3524.85
421.48	3318.88
421.67	3482.72
421.86	3419.52
422.05	3473.36
422.24	3393.78
422.43	3393.78
422.61	3452.29
422.80	3459.31
422.99	3658.26
423.18	3428.88
423.37	3552.93
423.56	3569.32
423.75	3426.54
423.94	3449.95
424.13	3281.43
424.32	3304.84
424.50	3545.91
424.69	3637.19
424.88	3655.92
425.07	3597.40
425.26	3485.06
425.45	3648.90
425.64	3400.80
425.83	3501.44
426.01	3712.09
426.20	3548.25
426.39	3578.68
426.58	3588.04
426.77	3585.70
426.96	3578.68
427.15	3522.51
427.33	3665.28
427.52	3698.05
427.71	3658.26
427.90	3679.32
428.09	3712.09
428.28	3714.43
428.46	3784.65
428.65	3751.88
428.84	3784.65
429.03	3852.52
429.22	3740.18
429.40	3686.34
429.59	3955.51
429.78	3503.78
429.97	3644.21
430.16	3686.34
430.34	3803.37
430.53	3829.12
430.72	3847.84
430.91	3873.59
431.10	3896.99
431.28	4025.72
431.47	4152.11
431.66	4121.68
431.85	4053.81
432.03	4138.07
432.22	4381.48
432.41	4112.32
432.60	4074.87
432.79	4203.60
432.97	4140.41
433.16	4182.54
433.35	4259.78
433.54	4208.28
433.72	4170.83
433.91	4334.67
434.10	4229.35
434.28	4198.92
434.47	4234.03
434.66	4411.91
434.85	4475.10
435.03	4402.55
435.22	4353.40
435.41	4589.79
435.59	4578.09
435.78	4458.72
435.97	4557.02
436.16	4580.43
436.34	4540.64
436.53	4620.22
436.72	4795.76
436.90	4540.64
437.09	4641.28
437.28	4594.47
437.46	4816.82
437.65	4631.92
437.84	4592.13
438.02	4720.86
438.21	4744.27
438.40	4746.61
438.58	4760.65
438.77	4718.52
438.96	4931.51
439.14	4957.25
439.33	4873.00
439.52	4959.60
439.70	5081.30
439.89	5158.54
440.08	5174.92
440.26	5123.43
440.45	5085.98
440.63	5252.16
440.82	5364.51
441.01	5327.06
441.19	5355.15
441.38	5172.58
441.57	5453.45
441.75	5458.13
441.94	5563.45
442.12	5577.50
442.31	5628.99
442.50	5619.63
442.68	5593.88
442.87	5762.40
443.05	5748.36
443.24	5806.87
443.43	5717.93
443.61	5809.21
443.80	5881.77
443.98	5825.59
444.17	5687.50
444.35	5813.89
444.54	5942.62
444.73	5832.62
444.91	5804.53
445.10	5893.47
445.28	5823.25
445.47	5776.44
445.65	5708.57
445.84	5818.57
446.02	6001.13
446.21	5825.59
446.39	5963.68
446.58	5884.11
446.77	5851.34
446.95	5736.65
447.14	6024.54
447.32	6080.71
447.51	5809.21
447.69	5870.06
447.88	5816.23
448.06	6064.33
448.25	6061.99
448.43	6022.20
448.62	5874.74
448.80	5841.98
448.99	6214.12
449.17	6101.78
449.36	6094.76
449.54	6090.07
449.73	6127.52
449.91	6352.21
450.10	6483.28
450.28	6424.77
450.46	6380.30
450.65	6356.90
450.83	6340.51
451.02	6448.18
451.20	6502.01
451.39	6518.39
451.57	6417.75
451.76	6497.33
451.94	6406.05
452.13	6583.93
452.31	6541.80
452.49	6263.27
452.68	6558.18
452.86	6656.48
453.05	6452.86
453.23	6644.78
453.42	6602.65
453.60	6478.60
453.78	6590.95
453.97	6401.37
454.15	6612.01
454.34	6633.08
454.52	6558.18
454.70	6663.51
454.89	6803.94
455.07	6970.12
455.26	6853.09
455.44	6803.94
455.62	7035.65
455.81	7035.65
455.99	6986.50
456.17	7073.10
456.36	7103.53
456.54	6988.84
456.73	6977.14
456.91	7248.64
457.09	7208.85
457.28	7288.43
457.46	7136.29
457.64	7328.22
457.83	7183.10
458.01	7045.01
458.19	7316.51
458.38	7309.49
458.56	7478.01
458.74	7258.00
458.93	7522.48
459.11	7335.24
459.29	7325.88
459.48	7456.95
459.66	7578.65
459.84	7531.84
460.03	7588.02
460.21	7655.89
460.39	7644.19
460.57	7695.68
460.76	7786.96
460.94	7751.85
461.12	7578.65
461.31	7808.03
461.49	7691.00
461.67	7840.79
461.85	7932.08
462.04	8102.93
462.22	8191.88
462.40	8238.69
462.59	7850.16
462.77	7983.57
462.95	7948.46
463.13	7960.16
463.32	8032.72
463.50	8098.25
463.68	8243.37
463.86	8159.11
464.05	7978.89
464.23	8102.93
464.41	8468.06
464.59	8009.31
464.78	8135.70
464.96	8285.50
465.14	8159.11
465.32	8278.47
465.50	8194.22
465.69	8409.54
465.87	8294.86
466.05	8285.50
466.23	8484.44
466.41	8336.99
466.60	8482.10
466.78	8374.44
466.96	8189.53
467.14	8383.80
467.32	8400.18
467.51	8603.81
467.69	8168.47
467.87	8425.93
468.05	8610.83
468.23	8451.67
468.41	8578.06
468.60	8566.36
468.78	8608.49
468.96	8652.96
469.14	8791.05
469.32	8648.28
469.50	8620.19
469.69	8814.46
469.87	9242.78
470.05	9001.70
470.23	8896.38
470.41	8828.50
470.59	9018.08
470.77	8781.69
470.95	8800.41
471.14	9008.72
471.32	9069.58
471.50	9341.08
471.68	9275.54
471.86	9268.52
472.04	9114.05
472.22	9540.02
472.40	9259.16
472.58	9158.52
472.77	9334.06
472.95	9507.26
473.13	9879.40
473.31	9406.61
473.49	9502.58
473.67	9624.28
473.85	9748.33
474.03	9753.01
474.21	9729.61
474.39	10171.97
474.57	9942.60
474.75	9905.15
474.93	10178.99
475.12	10066.64
475.30	10296.02
475.48	9919.19
475.66	10153.24
475.84	10274.95
476.02	10221.12
476.20	10457.51
476.38	10686.89
476.56	10689.23
476.74	11042.65
476.92	10794.55
477.10	10698.59
477.28	11014.56
477.46	10789.87
477.64	11063.71
477.82	11084.78
478.00	11393.73
478.18	11328.19
478.36	11302.45
478.54	11449.90
478.72	11386.71
478.90	11536.50
479.08	11716.72
479.26	11763.53
479.44	11800.98
479.62	11934.39
479.80	11976.52
479.98	12292.49
480.16	12449.31
480.34	12262.07
480.52	12510.16
480.70	12554.63
480.88	12505.48
481.06	12482.08
481.24	12613.15
481.41	13046.15
481.59	12835.50
481.77	13027.42
481.95	12758.26
482.13	13078.91
482.31	13308.29
482.49	13242.75
482.67	13348.08
482.85	13378.50
483.03	13621.92
483.21	13942.57
483.39	13991.72
483.57	13760.01
483.74	14218.75
483.92	14176.62
484.10	14097.05
484.28	14141.52
484.46	14576.86
484.64	14871.76
484.82	14686.86
485.00	14752.40
485.18	15143.27
485.35	15138.58
485.53	14743.03
485.71	15035.60
485.89	15428.81
486.07	15154.97
486.25	15318.81
486.43	15620.74
486.61	15580.95
486.78	15758.83
486.96	16051.39
487.14	16215.23
487.32	16482.05
487.50	16332.26
487.68	16610.78
487.85	16901.01
488.03	16868.24
488.21	17060.16
488.39	17242.73
488.57	16800.37
488.75	17158.47
488.92	17453.37
489.10	17497.84
489.28	17561.04
489.46	18029.15
489.64	17975.31
489.81	18490.23
489.99	18506.62
490.17	18590.88
490.35	18539.38
490.53	18534.70
490.70	18958.34
490.88	18497.25
491.06	19145.58
491.24	18845.99
491.41	18939.62
491.59	18944.30
491.77	18951.32
491.95	19419.42
492.13	19913.28
492.30	19786.89
492.48	19941.36
492.66	19461.55
492.84	19974.13
493.01	20299.47
493.19	20025.62
493.37	20465.64
493.54	20500.75
493.72	20767.57
493.90	20940.77
494.08	20945.45
494.25	20711.40
494.43	21055.46
494.61	21177.17
494.79	21326.96
494.96	21460.37
495.14	21528.25
495.32	21621.87
495.49	21937.84
495.67	22010.40
495.85	22024.44
496.02	22101.68
496.20	22199.98
496.38	22197.64
496.55	22478.50
496.73	22974.70
496.91	22586.17
497.09	22661.07
497.26	22958.31
497.44	22951.29
497.62	23222.80
497.79	23206.41
497.97	23185.35
498.14	23190.03
498.32	23583.24
498.50	23468.55
498.67	23843.04
498.85	23814.95
499.03	24044.32
499.20	23915.59
499.38	24107.52
499.56	24404.77
499.73	24372.00
499.91	24409.45
500.08	24559.24
500.26	24519.45
500.44	24786.27
500.61	24535.84
500.79	24648.18
500.97	24718.40
501.14	25078.84
501.32	24840.11
501.49	25130.33
501.67	25261.40
501.84	25322.26
502.02	25614.82
502.20	25663.97
502.37	25813.77
502.55	25666.31
502.72	25916.75
502.90	25694.40
503.07	25888.67
503.25	25848.88
503.43	25921.43
503.60	26457.42
503.78	25764.62
503.95	26249.11
504.13	26700.83
504.30	26691.47
504.48	26544.02
504.65	26471.46
504.83	26527.63
505.01	26827.22
505.18	26958.29
505.36	27147.87
505.53	27082.34
505.71	27063.61
505.88	27358.52
506.06	27300.01
506.23	27316.39
506.41	27122.13
506.58	27791.52
506.76	27733.01
506.93	27702.58
507.11	27632.36
507.28	28065.36
507.46	27817.27
507.63	27725.99
507.81	27934.29
507.98	27971.74
508.16	28247.93
508.33	28418.78
508.50	28063.02
508.68	28472.62
508.85	28945.41
509.03	28662.20
509.20	28870.51
509.38	28933.70
509.55	28940.72
509.73	28978.17
509.90	28804.97
510.08	28720.71
510.25	29156.05
510.42	29387.77
510.60	29455.64
510.77	29556.28
510.95	29834.81
511.12	29460.32
511.30	29905.02
511.47	30246.74
511.64	29855.87
511.82	29862.90
511.99	29853.53
512.17	29905.02
512.34	29816.08
512.51	30073.54
512.69	30178.87
512.86	30464.41
513.04	30412.92
513.21	30834.22
513.38	30747.62
513.56	30611.87
513.73	30728.89
513.90	30862.30
514.08	30693.79
514.25	30885.71
514.43	31089.34
514.60	31466.16
514.77	31005.08
514.95	31119.76
515.12	31295.30
515.29	31049.55
515.47	31941.29
515.64	31510.63
515.81	31557.44
515.99	31505.95
516.16	31599.57
516.33	31484.89
516.51	31775.11
516.68	31651.06
516.85	31243.81
517.03	31805.54
517.20	31611.28
517.37	31887.46
517.54	31835.97
517.72	32027.89
517.89	32009.17
518.06	32418.76
518.24	31812.56
518.41	32638.77
518.58	32290.03
518.75	32528.77
518.93	32407.06
519.10	32863.46
519.27	32645.79
519.45	32938.36
519.62	32900.91
519.79	32814.31
519.96	33027.30
520.14	33315.19
520.31	32861.12
520.48	33394.76
520.65	33476.68
520.83	33242.63
521.00	33479.02
521.17	33633.50
521.34	33771.59
521.52	33968.19
521.69	33895.64
521.86	33736.48
522.03	34150.76
522.20	34267.78
522.38	34052.45
522.55	34197.57
522.72	34251.40
522.89	34277.15
523.07	34293.53
523.24	34066.50
523.41	34515.88
523.58	34464.39
523.75	34618.86
523.92	34717.17
524.10	34801.43
524.27	34726.53
524.44	34689.08
524.61	34789.72
524.78	34775.68
524.96	35218.04
525.13	35468.48
525.30	35566.78
525.47	35676.79
525.64	35351.45
525.81	35489.54
525.98	35236.77
526.16	35030.80
526.33	35353.79
526.50	35487.20
526.67	35285.92
526.84	35644.02
527.01	35346.77
527.18	35758.70
527.36	35615.93
527.53	35674.45
527.70	35840.62
527.87	35889.77
528.04	36009.14
528.21	36360.22
528.38	36062.97
528.55	36315.75
528.72	36369.58
528.89	36720.66
529.07	36161.28
529.24	36500.65
529.41	36442.14
529.58	36332.14
529.75	36395.33
529.92	36697.26
530.09	36524.06
530.26	36617.68
530.43	36961.74
530.60	36299.37
530.77	36720.66
530.94	36847.05
531.11	36851.73
531.28	37053.02
531.46	37310.48
531.63	37165.37
531.80	37263.67
531.97	37612.41
532.14	36910.25
532.31	37291.76
532.48	37095.15
532.65	37357.29
532.82	37652.20
532.99	37579.64
533.16	37137.28
533.33	37617.09
533.50	37666.24
533.67	37373.67
533.84	37167.71
534.01	37530.49
534.18	37720.07
534.35	38129.67
534.52	37879.23
534.69	38143.71
534.86	38155.41
535.03	37811.35
535.20	38433.94
535.37	38291.16
535.54	38340.32
535.71	38368.40
535.88	38312.23
536.05	38232.65
536.22	38618.84
536.38	38810.76
536.55	38204.56
536.72	38295.85
536.89	38052.43
537.06	38455.00
537.23	38745.23
537.40	38445.64
537.57	38637.56
537.74	39065.88
537.91	38995.67
538.08	39161.84
538.25	38548.62
538.42	38792.04
538.59	39215.68
538.75	38658.63
538.92	38845.87
539.09	38871.62
539.26	39353.77
539.43	39187.59
539.60	39267.17
539.77	38983.96
539.94	39203.97
540.11	39412.28
540.28	39423.98
540.44	39147.80
540.61	39278.87
540.78	39206.31
540.95	39625.27
541.12	39393.56
541.29	39737.62
541.46	39871.03
541.62	39426.32
541.79	40079.33
541.96	39150.14
542.13	39732.93
542.30	39512.92
542.47	40369.56
542.63	40037.20
542.80	40170.61
542.97	40713.62
543.14	40243.17
543.31	40622.34
543.48	40341.47
543.64	40524.04
543.81	40282.96
543.98	40514.67
544.15	40140.19
544.32	41228.54
544.48	40622.34
544.65	40594.25
544.82	40526.38
544.99	40673.83
545.16	40643.40
545.32	40861.07
545.49	40816.60
545.66	41270.67
545.83	41020.23
546.00	41024.91
546.16	40612.98
546.33	40542.76
546.50	40694.89
546.67	40648.08
546.83	40734.68
547.00	41074.06
547.17	41092.79
547.34	41127.89
547.50	41394.71
547.67	41392.37
547.84	41366.63
548.00	41827.71
548.17	41588.98
548.34	41556.21
548.51	41549.19
548.67	41759.84
548.84	41806.65
549.01	41661.54
549.18	41516.42
549.34	41324.50
549.51	41963.46
549.68	41523.44
549.84	41518.76
550.01	41855.80
550.18	42066.45
550.34	41677.92
550.51	41902.61
550.68	41787.92
550.84	41567.91
551.01	41951.76
551.18	42026.66
551.34	42094.53
551.51	41825.37
551.68	41916.65
551.84	42059.43
552.01	41949.42
552.18	42101.56
552.34	41778.56
552.51	42515.83
552.68	42085.17
552.84	42527.53
553.01	42904.36
553.18	42557.96
553.34	42305.18
553.51	41996.23
553.67	42267.73
553.84	42656.26
554.01	42784.99
554.17	42880.95
554.34	43002.66
554.51	42600.09
554.67	42834.14
554.84	42780.31
555.00	42658.60
555.17	42941.81
555.33	42511.15
555.50	42976.92
555.67	43019.05
555.83	43115.01
556.00	42906.70
556.16	43227.35
556.33	43210.97
556.50	43185.22
556.66	42845.85
556.83	42665.63
556.99	43470.77
557.16	42920.74
557.32	43473.11
557.49	43077.56
557.65	42642.22
557.82	42679.67
557.98	43037.77
558.15	42684.35
558.32	42939.47
558.48	43185.22
558.65	42909.04
558.81	43133.73
558.98	42941.81
559.14	43000.32
559.31	43290.55
559.47	43356.08
559.64	43831.21
559.80	43473.11
559.97	43201.61
560.13	43545.67
560.30	43140.75
560.46	43363.11
560.63	43297.57
560.79	43573.75
560.96	43756.32
561.12	43494.18
561.29	43491.83
561.45	44006.75
561.61	43573.75
561.78	43765.68
561.94	43276.51
562.11	43824.19
562.27	43342.04
562.44	43653.33
562.60	43791.42
562.77	43945.90
562.93	43812.49
563.10	43992.71
563.26	43533.96
563.42	43985.69
563.59	43536.30
563.75	43707.16
563.92	43831.21
564.08	43545.67
564.24	44074.63
564.41	43931.86
564.57	43433.32
564.74	43643.97
564.90	43842.92
565.07	44147.18
565.23	43646.31
565.39	43856.96
565.56	44067.61
565.72	43892.07
565.88	43426.30
566.05	44133.14
566.21	43793.76
566.38	44123.78
566.54	44105.06
566.70	44318.04
566.87	44488.90
567.03	44229.10
567.19	44423.37
567.36	44023.14
567.52	44025.48
567.68	44559.12
567.85	44364.85
568.01	44341.45
568.17	43835.89
568.34	44016.11
568.50	44353.15
568.66	43887.39
568.83	44254.85
568.99	43871.00
569.15	43744.61
569.32	43941.22
569.48	43887.39
569.64	44058.24
569.81	44282.94
569.97	44201.02
570.13	43819.51
570.30	44018.46
570.46	44196.34
570.62	43861.64
570.78	43751.63
570.95	43683.76
571.11	44156.55
571.27	43983.35
571.43	44041.86
571.60	44603.59
571.76	44161.23
571.92	44470.18
572.09	43995.05
572.25	44233.78
572.41	44215.06
572.57	44004.41
572.74	44818.92
572.90	44463.16
573.06	44236.12
573.22	44732.32
573.38	44718.28
573.55	43985.69
573.71	44540.39
573.87	44212.72
574.03	43964.62
574.20	44273.57
574.36	44172.93
574.52	44371.88
574.68	44463.16
574.84	44378.90
575.01	43805.47
575.17	44371.88
575.33	43976.33
575.49	44044.20
575.65	44582.52
575.82	44685.51
575.98	44842.32
576.14	44706.57
576.30	44570.82
576.46	44444.43
576.62	44252.51
576.79	44341.45
576.95	44577.84
577.11	44299.32
577.27	44299.32
577.43	44355.49
577.59	44350.81
577.75	44196.34
577.92	43819.51
578.08	44271.23
578.24	44107.40
578.40	44720.62
578.56	44280.60
578.72	44278.25
578.88	44507.63
579.04	44624.65
579.21	44570.82
579.37	44091.01
579.53	44467.84
579.69	43966.96
579.85	44236.12
580.01	44266.55
580.17	44107.40
580.33	44994.46
580.49	44755.72
580.65	44753.38
580.82	44701.89
580.98	44615.29
581.14	44425.71
581.30	44451.45
581.46	44168.25
581.62	45212.13
581.78	44760.40
581.94	44996.80
582.10	44449.11
582.26	44751.04
582.42	44622.31
582.58	44547.42
582.74	44598.91
582.90	44343.79
583.06	44751.04
583.22	44952.33
583.38	44502.95
583.54	44697.21
583.70	44428.05
583.86	44580.18
584.02	44666.78
584.18	44428.05
584.34	44381.24
584.50	44657.42
584.66	44556.78
584.82	44385.92
584.98	44552.10
585.14	44825.94
585.30	44355.49
585.46	44563.80
585.62	44751.04
585.78	44266.55
585.94	44336.77
586.10	44296.98
586.26	44734.66
586.42	44706.57
586.58	44818.92
586.74	44406.98
586.90	44804.88
587.06	44397.62
587.22	44582.52
587.38	44313.36
587.54	45052.97
587.70	44793.17
587.86	44910.20
588.02	44594.23
588.18	45081.06
588.34	44271.23
588.49	44254.85
588.65	44287.62
588.81	44470.18
588.97	44739.34
589.13	44619.97
589.29	44678.49
589.45	45141.91
589.61	44910.20
589.77	44931.26
589.93	44996.80
590.08	44795.51
590.24	44877.43
