SpectraSuite Data File
++++++++++++++++++++++++++++++++++++
Date: Fri Oct 25 11:33:30 EDT 2013
User: price-jones
Dark Spectrum Present: No
Reference Spectrum Present: No
Number of Sampled Component Spectra: 1
Spectrometers: USB2+H05261
Integration Time (usec): 100000 (USB2+H05261)
Spectra Averaged: 1 (USB2+H05261)
Boxcar Smoothing: 0 (USB2+H05261)
Correct for Electrical Dark: No (USB2+H05261)
Strobe/Lamp Enabled: No (USB2+H05261)
Correct for Detector Non-linearity: No (USB2+H05261)
Correct for Stray Light: No (USB2+H05261)
Number of Pixels in Processed Spectrum: 2048
>>>>>Begin Processed Spectral Data<<<<<
365.73	215.33
365.92	215.33
366.12	215.33
366.32	220.01
366.52	217.67
366.72	210.65
366.91	182.56
367.11	196.60
367.31	161.50
367.51	163.84
367.70	163.84
367.90	128.73
368.10	245.76
368.30	161.50
368.49	266.82
368.69	140.43
368.89	205.97
369.09	173.20
369.28	276.18
369.48	208.31
369.68	201.29
369.87	245.76
370.07	280.86
370.27	287.89
370.47	234.05
370.66	505.56
370.86	475.13
371.06	540.66
371.25	615.56
371.45	545.34
371.65	552.37
371.84	543.00
372.04	550.03
372.24	564.07
372.44	559.39
372.63	610.88
372.83	615.56
373.03	643.65
373.22	599.18
373.42	610.88
373.62	620.24
373.81	594.50
374.01	669.39
374.21	627.26
374.40	695.14
374.60	638.97
374.79	657.69
374.99	617.90
375.19	638.97
375.38	660.03
375.58	620.24
375.78	580.45
375.97	681.10
376.17	772.38
376.37	655.35
376.56	662.37
376.76	660.03
376.95	767.70
377.15	615.56
377.35	718.54
377.54	685.78
377.74	695.14
377.93	720.88
378.13	727.91
378.33	674.07
378.52	643.65
378.72	734.93
378.91	648.33
379.11	695.14
379.31	678.76
379.50	695.14
379.70	688.12
379.89	692.80
380.09	706.84
380.28	777.06
380.48	739.61
380.68	676.41
380.87	770.04
381.07	774.72
381.26	784.08
381.46	779.40
381.65	746.63
381.85	828.55
382.04	784.08
382.24	779.40
382.43	697.48
382.63	812.17
382.83	732.59
383.02	772.38
383.22	898.77
383.41	784.08
383.61	781.74
383.80	830.89
384.00	751.31
384.19	816.85
384.39	779.40
384.58	772.38
384.78	727.91
384.97	774.72
385.17	868.34
385.36	861.32
385.56	896.43
385.75	891.74
385.95	863.66
386.14	830.89
386.34	858.98
386.53	812.17
386.72	826.21
386.92	919.83
387.11	908.13
387.31	926.85
387.50	891.74
387.70	851.96
387.89	861.32
388.09	917.49
388.28	894.08
388.48	947.92
388.67	910.47
388.86	908.13
389.06	971.32
389.25	950.26
389.45	943.24
389.64	837.91
389.84	968.98
390.03	980.68
390.22	847.27
390.42	992.39
390.61	983.02
390.81	1006.43
391.00	968.98
391.19	1004.09
391.39	1064.94
391.58	954.94
391.78	933.87
391.97	947.92
392.16	1004.09
392.36	1104.73
392.55	1043.88
392.75	1046.22
392.94	1053.24
393.13	1086.01
393.33	1053.24
393.52	1053.24
393.71	1093.03
393.91	1172.61
394.10	1219.42
394.29	1015.79
394.49	1095.37
394.68	1137.50
394.88	1132.82
395.07	1060.26
395.26	1196.01
395.46	1156.22
395.65	1135.16
395.84	1095.37
396.04	1116.44
396.23	1149.20
396.42	1174.95
396.62	1252.19
396.81	1233.46
397.00	1177.29
397.19	1238.14
397.39	1212.40
397.58	1196.01
397.77	1252.19
397.97	1249.85
398.16	1261.55
398.35	1310.70
398.55	1366.87
398.74	1256.87
398.93	1299.00
399.12	1306.02
399.32	1294.32
399.51	1275.59
399.70	1306.02
399.90	1362.19
400.09	1390.28
400.28	1474.54
400.47	1376.24
400.67	1392.62
400.86	1366.87
401.05	1416.02
401.24	1373.89
401.44	1385.60
401.63	1481.56
401.82	1423.05
402.01	1455.81
402.21	1472.20
402.40	1467.52
402.59	1455.81
402.78	1427.73
402.97	1530.71
403.17	1460.49
403.36	1582.20
403.55	1570.50
403.74	1636.03
403.93	1542.41
404.13	1596.25
404.32	1643.06
404.51	1664.12
404.70	1715.61
404.89	1603.27
405.09	1732.00
405.28	1746.04
405.47	1626.67
405.66	1682.85
405.85	1696.89
406.05	1788.17
406.24	1783.49
406.43	1762.42
406.62	1764.76
406.81	1816.26
407.00	1856.04
407.20	1694.55
407.39	1802.21
407.58	1799.87
407.77	1893.49
407.96	1921.58
408.15	1933.28
408.34	1881.79
408.54	1919.24
408.73	1872.43
408.92	1996.48
409.11	2076.06
409.30	1987.11
409.49	1987.11
409.68	2036.27
409.87	2115.84
410.07	2045.63
410.26	2073.71
410.45	1984.77
410.64	2062.01
410.83	2059.67
411.02	2186.06
411.21	2113.50
411.40	2066.69
411.59	2225.85
411.78	2176.70
411.98	2207.13
412.17	2244.57
412.36	2291.38
412.55	2272.66
412.74	2263.30
412.93	2256.28
413.12	2352.24
413.31	2373.30
413.50	2399.05
413.69	2530.12
413.88	2553.52
414.07	2380.32
414.26	2466.92
414.45	2464.58
414.64	2635.44
414.83	2532.46
415.02	2597.99
415.22	2682.25
415.41	2745.45
415.60	2656.51
415.79	2640.12
415.98	2757.15
416.17	2759.49
416.36	2698.64
416.55	2722.04
416.74	2717.36
416.93	2796.94
417.12	2810.98
417.31	2775.88
417.50	2918.65
417.69	3094.19
417.88	2977.16
418.07	2953.76
418.26	2932.69
418.45	3009.93
418.64	3112.91
418.83	3002.91
419.02	3014.61
419.21	3098.87
419.39	3122.27
419.58	3101.21
419.77	2925.67
419.96	3239.30
420.15	3108.23
420.34	3169.09
420.53	3136.32
420.72	3110.57
420.91	3159.72
421.10	3248.66
421.29	3386.76
421.48	3227.60
421.67	3330.58
421.86	3363.35
422.05	3321.22
422.24	3251.00
422.43	3274.41
422.61	3349.31
422.80	3286.11
422.99	3485.06
423.18	3403.14
423.37	3496.76
423.56	3428.88
423.75	3382.07
423.94	3307.18
424.13	3211.22
424.32	3169.09
424.50	3414.84
424.69	3517.83
424.88	3524.85
425.07	3461.65
425.26	3300.16
425.45	3431.23
425.64	3419.52
425.83	3407.82
426.01	3471.01
426.20	3440.59
426.39	3410.16
426.58	3431.23
426.77	3506.12
426.96	3611.45
427.15	3630.17
427.33	3726.13
427.52	3543.57
427.71	3597.40
427.90	3555.27
428.09	3716.77
428.28	3669.96
428.46	3630.17
428.65	3756.56
428.84	3772.94
429.03	3866.56
429.22	3578.68
429.40	3709.75
429.59	3693.37
429.78	3590.38
429.97	3693.37
430.16	3791.67
430.34	3796.35
430.53	3873.59
430.72	3894.65
430.91	3894.65
431.10	3920.40
431.28	3829.12
431.47	3929.76
431.66	3936.78
431.85	4011.68
432.03	4007.00
432.22	4145.09
432.41	4154.45
432.60	4086.58
432.79	4131.05
432.97	4117.00
433.16	4161.47
433.35	4088.92
433.54	4135.73
433.72	4109.98
433.91	4257.43
434.10	4234.03
434.28	4114.66
434.47	4245.73
434.66	4329.99
434.85	4318.29
435.03	4348.72
435.22	4538.30
435.41	4407.23
435.59	4297.22
435.78	4360.42
435.97	4287.86
436.16	4440.00
436.34	4386.16
436.53	4568.73
436.72	4683.41
436.90	4365.10
437.09	4571.07
437.28	4517.23
437.46	4524.26
437.65	4585.11
437.84	4704.48
438.02	4554.68
438.21	4566.39
438.40	4650.64
438.58	4741.93
438.77	4805.12
438.96	4746.61
439.14	4910.44
439.33	4819.16
439.52	4985.34
439.70	4933.85
439.89	4952.57
440.08	5060.24
440.26	5085.98
440.45	4938.53
440.63	5107.05
440.82	5062.58
441.01	4994.70
441.19	5371.53
441.38	5284.93
441.57	5252.16
441.75	5315.36
441.94	5404.30
442.12	5394.93
442.31	5465.15
442.50	5380.89
442.68	5385.57
442.87	5535.37
443.05	5509.62
443.24	5643.03
443.43	5549.41
443.61	5654.73
443.80	5720.27
443.98	5446.43
444.17	5277.91
444.35	5535.37
444.54	5610.26
444.73	5731.97
444.91	5741.33
445.10	5666.44
445.28	5771.76
445.47	5565.79
445.65	5696.86
445.84	5802.19
446.02	5753.04
446.21	5659.42
446.39	5570.48
446.58	5776.44
446.77	5804.53
446.95	5713.25
447.14	5682.82
447.32	5898.15
447.51	5870.06
447.69	5619.63
447.88	5729.63
448.06	5790.49
448.25	5767.08
448.43	5703.89
448.62	5832.62
448.80	5776.44
448.99	5830.27
449.17	5949.64
449.36	5898.15
449.54	5949.64
449.73	6017.52
449.91	6104.12
450.10	5872.40
450.28	6076.03
450.46	6214.12
450.65	6092.41
450.83	6029.22
451.02	6127.52
451.20	6186.04
451.39	6221.14
451.57	6094.76
451.76	6038.58
451.94	6174.33
452.13	6396.68
452.31	6422.43
452.49	6181.35
452.68	6307.74
452.86	6382.64
453.05	6436.47
453.23	6319.45
453.42	6450.52
453.60	6403.71
453.78	6654.14
453.97	6497.33
454.15	6363.92
454.34	6225.82
454.52	6525.41
454.70	6324.13
454.89	6497.33
455.07	6717.34
455.26	6569.88
455.44	6623.72
455.62	6527.75
455.81	6656.48
455.99	6794.58
456.17	6829.68
456.36	6628.40
456.54	6691.59
456.73	6927.99
456.91	6927.99
457.09	7082.46
457.28	7082.46
457.46	6932.67
457.64	7054.37
457.83	7162.04
458.01	7105.87
458.19	7159.70
458.38	7087.14
458.56	7297.79
458.74	7234.60
458.93	7286.09
459.11	7194.81
459.29	7112.89
459.48	7314.17
459.66	7468.65
459.84	7290.77
460.03	7396.09
460.21	7489.71
460.39	7351.62
460.57	7372.69
460.76	7508.44
460.94	7569.29
461.12	7576.31
461.31	7524.82
461.49	7400.77
461.67	7489.71
461.85	7665.25
462.04	7550.57
462.22	7843.14
462.40	7676.96
462.59	7719.09
462.77	7777.60
462.95	7812.71
463.13	7721.43
463.32	7789.30
463.50	7906.33
463.68	7875.90
463.86	8091.23
464.05	7791.64
464.23	8046.76
464.41	7950.80
464.59	7920.37
464.78	8121.66
464.96	7978.89
465.14	7967.18
465.32	7946.12
465.50	8067.83
465.69	8156.77
465.87	8030.38
466.05	8245.71
466.23	8224.64
466.41	8159.11
466.60	8238.69
466.78	8201.24
466.96	8257.41
467.14	8217.62
467.32	8416.57
467.51	8351.03
467.69	8063.15
467.87	8346.35
468.05	8582.74
468.23	8409.54
468.41	8461.04
468.60	8437.63
468.78	8573.38
468.96	8465.72
469.14	8456.36
469.32	8727.86
469.50	8575.72
469.69	8608.49
469.87	8667.00
470.05	8774.67
470.23	8924.46
470.41	8994.68
470.59	8924.46
470.77	8917.44
470.95	8826.16
471.14	8835.52
471.32	8868.29
471.50	8936.17
471.68	9008.72
471.86	9090.64
472.04	9043.83
472.22	9224.05
472.40	9022.77
472.58	9303.63
472.77	9172.56
472.95	9350.44
473.13	9528.32
473.31	9174.90
473.49	9439.38
473.67	9324.69
473.85	9577.47
474.03	9710.88
474.21	9652.37
474.39	9530.66
474.57	9708.54
474.75	9858.34
474.93	10120.48
475.12	9984.73
475.30	9781.10
475.48	9860.68
475.66	10244.52
475.84	10153.24
476.02	10127.50
476.20	10186.01
476.38	10218.78
476.56	10539.43
476.74	10420.06
476.92	10567.52
477.10	10637.73
477.28	10523.05
477.46	10878.81
477.64	10604.97
477.82	10860.09
478.00	11073.07
478.18	11243.93
478.36	11246.27
478.54	11246.27
478.72	11265.00
478.90	11597.35
479.08	11599.70
479.26	11653.53
479.44	11686.29
479.62	11962.48
479.80	11866.52
479.98	12116.95
480.16	12257.39
480.34	12063.12
480.52	12100.57
480.70	12182.49
480.88	12177.81
481.06	12341.64
481.24	12472.71
481.41	12868.27
481.59	12847.20
481.77	12898.69
481.95	12891.67
482.13	12919.76
482.31	12786.35
482.49	13317.65
482.67	13322.33
482.85	13650.00
483.03	13809.16
483.21	13685.11
483.39	13947.25
483.57	13561.06
483.74	13884.06
483.92	14169.60
484.10	14031.51
484.28	14333.44
484.46	14635.37
484.64	14789.85
484.82	14228.12
485.00	14661.12
485.18	14899.85
485.35	14902.19
485.53	14965.39
485.71	15021.56
485.89	15208.80
486.07	15201.78
486.25	15566.90
486.43	15552.86
486.61	15777.55
486.78	15697.97
486.96	16208.21
487.14	15854.79
487.32	16217.57
487.50	16465.67
487.68	16306.51
487.85	16540.57
488.03	17034.42
488.21	16847.18
488.39	17055.48
488.57	17394.86
488.75	17338.69
488.92	17298.90
489.10	17612.53
489.28	17666.36
489.46	17980.00
489.64	17853.61
489.81	18300.65
489.99	18146.17
490.17	18080.64
490.35	18146.17
490.53	18473.85
490.70	18700.88
490.88	18661.09
491.06	18963.02
491.24	19129.20
491.41	19112.81
491.59	19016.85
491.77	19108.13
491.95	19400.70
492.13	19585.60
492.30	19496.66
492.48	19573.90
492.66	19829.02
492.84	19971.79
493.01	19875.83
493.19	19962.43
493.37	20608.42
493.54	20526.50
493.72	20788.64
493.90	20257.34
494.08	21341.00
494.25	21027.37
494.43	20861.19
494.61	21039.08
494.79	21116.31
494.96	21249.72
495.14	21345.69
495.32	21862.94
495.49	21411.22
495.67	22125.08
495.85	22302.96
496.02	22115.72
496.20	22293.60
496.38	22335.73
496.55	22450.42
496.73	22937.25
496.91	22848.31
497.09	22661.07
497.26	22686.81
497.44	22632.98
497.62	23096.41
497.79	23370.25
497.97	23080.02
498.14	23452.17
498.32	23634.73
498.50	23758.78
498.67	24140.29
498.85	23658.14
499.03	24060.71
499.20	24259.65
499.38	24372.00
499.56	24603.71
499.73	24636.48
499.91	24582.65
500.08	24577.97
500.26	24582.65
500.44	24926.71
500.61	25050.75
500.79	24725.42
500.97	25139.69
501.14	25605.46
501.32	25383.11
501.49	25397.15
501.67	25338.64
501.84	25577.37
502.02	25617.16
502.20	26033.78
502.37	25879.30
502.55	25490.77
502.72	25954.20
502.90	25951.86
503.07	25736.53
503.25	26450.39
503.43	26071.23
503.60	26459.76
503.78	26359.11
503.95	26230.38
504.13	26679.77
504.30	26848.29
504.48	26759.34
504.65	26705.51
504.83	27264.90
505.01	27206.39
505.18	26735.94
505.36	27281.28
505.53	26991.06
505.71	27168.94
505.88	27517.68
506.06	26848.29
506.23	27653.43
506.41	27414.69
506.58	27627.68
506.76	27601.94
506.93	28060.68
507.11	27817.27
507.28	28027.92
507.46	28144.94
507.63	28460.91
507.81	28156.64
507.98	27917.91
508.16	28479.64
508.33	28507.72
508.50	28652.84
508.68	28680.92
508.85	28931.36
509.03	28669.22
509.20	29488.41
509.38	29385.43
509.55	29589.05
509.73	29479.05
509.90	29570.33
510.08	29350.32
510.25	29214.57
510.42	29687.36
510.60	29745.87
510.77	29743.53
510.95	29919.07
511.12	30424.62
511.30	29860.55
511.47	30160.14
511.64	30293.55
511.82	30721.87
511.99	30422.28
512.17	30532.29
512.34	30431.65
512.51	30621.23
512.69	30651.66
512.86	31236.79
513.04	30934.86
513.21	31054.23
513.38	31075.29
513.56	30918.48
513.73	31021.46
513.90	31360.84
514.08	31154.87
514.25	31651.06
514.43	31630.00
514.60	31604.25
514.77	31695.53
514.95	32133.21
515.12	31447.44
515.29	31772.77
515.47	31665.11
515.64	32278.33
515.81	31878.10
515.99	32278.33
516.16	32622.39
516.33	32336.84
516.51	32364.93
516.68	32393.01
516.85	32613.02
517.03	32865.80
517.20	32341.52
517.37	32542.81
517.54	32652.81
517.72	32650.47
517.89	32854.10
518.06	33186.46
518.24	33085.81
518.41	33242.63
518.58	33273.06
518.75	33036.66
518.93	33282.42
519.10	33600.73
519.27	33446.26
519.45	33804.36
519.62	33766.91
519.79	33783.29
519.96	33855.85
520.14	33979.90
520.31	33696.69
520.48	34150.76
520.65	34218.63
520.83	34588.44
521.00	34300.55
521.17	34333.32
521.34	33879.25
521.52	34333.32
521.69	34412.90
521.86	34656.31
522.03	34813.13
522.20	35070.59
522.38	34752.27
522.55	35136.12
522.72	34906.75
522.89	34759.30
523.07	35550.40
523.24	35510.61
523.41	35402.94
523.58	35374.86
523.75	35234.42
523.92	35400.60
524.10	35220.38
524.27	36009.14
524.44	35725.94
524.61	35559.76
524.78	35646.36
524.96	36144.89
525.13	36088.72
525.30	36088.72
525.47	36306.39
525.64	36088.72
525.81	36376.61
525.98	36215.11
526.16	36418.74
526.33	36556.83
526.50	36718.32
526.67	36329.80
526.84	36439.80
527.01	36369.58
527.18	36563.85
527.36	36840.03
527.53	36910.25
527.70	37366.65
527.87	37500.06
528.04	36912.59
528.21	37277.71
528.38	36931.31
528.55	37043.66
528.72	37261.33
528.89	37642.84
529.07	37202.82
529.24	36924.29
529.41	37497.72
529.58	37237.92
529.75	37350.27
529.92	37727.10
530.09	37628.79
530.26	38082.86
530.43	37893.27
530.60	37825.40
530.77	37668.58
530.94	38183.50
531.11	37986.89
531.28	38387.13
531.46	38232.65
531.63	37926.04
531.80	38265.42
531.97	38548.62
532.14	38412.87
532.31	38155.41
532.48	38497.13
532.65	39419.30
532.82	38574.37
532.99	38862.26
533.16	38431.60
533.33	38562.67
533.50	38859.91
533.67	38911.41
533.84	38593.09
534.01	39178.23
534.18	38824.81
534.35	39229.72
534.52	39428.66
534.69	38983.96
534.86	39400.58
535.03	39187.59
535.20	39501.22
535.37	39374.83
535.54	39419.30
535.71	39271.85
535.88	39833.58
536.05	39723.57
536.22	39557.39
536.38	39969.33
536.55	39934.22
536.72	40051.25
536.89	40196.36
537.06	39957.63
537.23	39988.05
537.40	39690.80
537.57	39856.98
537.74	39880.39
537.91	40362.54
538.08	39683.78
538.25	39931.88
538.42	40179.98
538.59	40215.08
538.75	40135.51
538.92	40266.58
539.09	40666.81
539.26	40142.53
539.43	40385.94
539.60	40362.54
539.77	40404.67
539.94	40460.84
540.11	40641.06
540.28	40935.97
540.44	40643.40
540.61	40919.59
540.78	40779.15
540.95	41172.36
541.12	40877.46
541.29	40863.41
541.46	41045.97
541.62	41439.18
541.79	41003.85
541.96	40935.97
542.13	40884.48
542.30	41333.86
542.47	41549.19
542.63	41642.81
542.80	41308.11
542.97	41298.75
543.14	41851.12
543.31	41289.39
543.48	41610.04
543.64	41961.12
543.81	42181.13
543.98	42068.79
544.15	41961.12
544.32	42323.91
544.48	42646.90
544.65	42094.53
544.82	42457.32
544.99	41495.36
545.16	42733.50
545.32	42153.05
545.49	42852.87
545.66	42923.08
545.83	42501.79
546.00	42686.69
546.16	42216.24
546.33	42426.89
546.50	42155.39
546.67	42609.45
546.83	42281.78
547.00	42644.56
547.17	42438.59
547.34	42939.47
547.50	42859.89
547.67	43690.78
547.84	43070.54
548.00	43007.34
548.17	43442.68
548.34	43133.73
548.51	43356.08
548.67	43477.79
548.84	43044.79
549.01	43306.93
549.18	43473.11
549.34	43477.79
549.51	43597.16
549.68	44020.80
549.84	43559.71
550.01	43976.33
550.18	43594.82
550.34	43620.56
550.51	43901.43
550.68	43793.76
550.84	43562.05
551.01	43592.48
551.18	43255.44
551.34	43775.04
551.51	43784.40
551.68	43845.26
551.84	43765.68
552.01	43749.29
552.18	43915.47
552.34	43772.70
552.51	43922.49
552.68	43775.04
552.84	44039.52
553.01	44287.62
553.18	43746.95
553.34	44526.35
553.51	44041.86
553.67	44154.21
553.84	44425.71
554.01	44261.87
554.17	44381.24
554.34	44788.49
554.51	44402.30
554.67	44809.56
554.84	44299.32
555.00	44739.34
555.17	44493.58
555.33	45078.72
555.50	44954.67
555.67	44793.17
555.83	44509.97
556.00	45022.54
556.16	45184.04
556.33	45251.92
556.50	44863.39
556.66	45144.25
556.83	44589.55
556.99	45102.12
557.16	45064.67
557.32	45085.74
557.49	45542.14
557.65	44891.48
557.82	45179.36
557.98	45233.19
558.15	44982.76
558.32	45310.43
558.48	45179.36
558.65	45425.12
558.81	45151.27
558.98	45209.79
559.14	45380.65
559.31	45141.91
559.47	45631.08
559.64	45263.62
559.80	45715.34
559.97	45827.69
560.13	45268.30
560.30	45275.32
560.46	45780.88
560.63	45469.59
560.79	46157.70
560.96	45649.81
561.12	45799.60
561.29	45830.03
561.45	45794.92
561.61	45923.65
561.78	45780.88
561.94	45558.53
562.11	45729.39
562.27	45612.36
562.44	45776.20
562.60	46138.98
562.77	46028.98
562.93	45624.06
563.10	45593.64
563.26	45787.90
563.42	46129.62
563.59	46068.76
563.75	46162.39
563.92	45698.96
564.08	45867.48
564.24	46150.68
564.41	46155.36
564.57	45951.74
564.74	46204.52
564.90	45972.80
565.07	46012.59
565.23	46082.81
565.39	46169.41
565.56	45996.21
565.72	45839.39
565.88	46354.31
566.05	46653.90
566.21	46213.88
566.38	46265.37
566.54	46162.39
566.70	46328.56
566.87	46611.77
567.03	45797.26
567.19	46162.39
567.36	46178.77
567.52	46148.34
567.68	46820.08
567.85	46653.90
568.01	46614.11
568.17	46461.97
568.34	46670.28
568.50	47091.58
568.66	46241.96
568.83	46471.34
568.99	46293.46
569.15	46791.99
569.32	46576.66
569.48	46211.54
569.64	46646.88
569.81	46623.47
569.97	46534.53
570.13	46747.52
570.30	46574.32
570.46	46637.51
570.62	46920.72
570.78	46829.44
570.95	46717.09
571.11	46653.90
571.27	46490.06
571.43	46483.04
571.60	46836.46
571.76	46639.86
571.92	46539.21
572.09	46522.83
572.25	46967.53
572.41	46248.99
572.57	47262.44
572.74	47201.58
572.90	47213.29
573.06	47276.48
573.22	46953.49
573.38	46927.74
573.55	46791.99
573.71	47512.88
573.87	47281.16
574.03	46911.36
574.20	47337.33
574.36	47173.50
574.52	47217.97
574.68	46909.02
574.84	47386.49
575.01	47173.50
575.17	47138.39
575.33	47250.74
575.49	46607.09
575.65	47150.09
575.82	47026.04
575.98	46731.14
576.14	47075.19
576.30	46850.50
576.46	47213.29
576.62	47021.36
576.79	47159.45
576.95	46761.56
577.11	46869.23
577.27	47283.50
577.43	47133.71
577.59	47086.90
577.75	46927.74
577.92	46770.93
578.08	46852.84
578.24	47112.64
578.40	47122.01
578.56	47140.73
578.72	47103.28
578.88	47318.61
579.04	47047.11
579.21	46841.14
579.37	47388.83
579.53	47239.03
579.69	46726.46
579.85	47435.64
580.01	47264.78
580.17	47084.56
580.33	47145.41
580.49	47374.78
580.65	47365.42
580.82	47459.04
580.98	47271.80
581.14	47253.08
581.30	47061.15
581.46	47012.00
581.62	46960.51
581.78	46906.68
581.94	47498.83
582.10	47000.30
582.26	47363.08
582.42	47325.63
582.58	47531.60
582.74	47409.89
582.90	47187.54
583.06	47646.29
583.22	47004.98
583.38	47597.13
583.54	47323.29
583.70	47407.55
583.86	47590.11
584.02	46955.83
584.18	47758.63
584.34	47700.12
584.50	47370.10
584.66	47779.70
584.82	48011.41
584.98	47889.70
585.14	47838.21
585.30	47346.70
585.46	47400.53
585.62	47351.38
585.78	47433.30
585.94	47206.26
586.10	47330.31
586.26	47468.40
586.42	47114.98
586.58	47405.21
586.74	47285.84
586.90	47587.77
587.06	47393.51
587.22	47363.08
587.38	47414.57
587.54	47718.84
587.70	47667.35
587.86	47414.57
588.02	47360.74
588.18	47442.66
588.34	47412.23
588.49	47213.29
588.65	47508.19
588.81	47693.10
588.97	47782.04
589.13	47370.10
589.29	47627.56
589.45	48128.44
589.61	47730.54
589.77	47639.26
589.93	47337.33
590.08	47831.19
