SpectraSuite Data File
++++++++++++++++++++++++++++++++++++
Date: Fri Oct 25 11:23:37 EDT 2013
User: price-jones
Dark Spectrum Present: No
Reference Spectrum Present: No
Number of Sampled Component Spectra: 1
Spectrometers: USB2+H05261
Integration Time (usec): 100000 (USB2+H05261)
Spectra Averaged: 1 (USB2+H05261)
Boxcar Smoothing: 0 (USB2+H05261)
Correct for Electrical Dark: No (USB2+H05261)
Strobe/Lamp Enabled: No (USB2+H05261)
Correct for Detector Non-linearity: No (USB2+H05261)
Correct for Stray Light: No (USB2+H05261)
Number of Pixels in Processed Spectrum: 2048
>>>>>Begin Processed Spectral Data<<<<<
365.73	194.26
365.92	194.26
366.12	194.26
366.32	140.43
366.52	91.28
366.72	142.77
366.91	88.94
367.11	152.13
367.31	91.28
367.51	63.19
367.70	133.41
367.90	175.54
368.10	95.96
368.30	128.73
368.49	131.07
368.69	135.75
368.89	110.01
369.09	140.43
369.28	203.63
369.48	184.90
369.68	208.31
369.87	187.24
370.07	180.22
370.27	182.56
370.47	332.36
370.66	547.69
370.86	547.69
371.06	683.44
371.25	734.93
371.45	657.69
371.65	653.01
371.84	631.94
372.04	683.44
372.24	751.31
372.44	725.57
372.63	660.03
372.83	770.04
373.03	751.31
373.22	730.25
373.42	748.97
373.62	770.04
373.81	844.93
374.01	807.48
374.21	819.19
374.40	737.27
374.60	784.08
374.79	748.97
374.99	837.91
375.19	835.57
375.38	903.45
375.58	856.64
375.78	842.59
375.97	856.64
376.17	903.45
376.37	856.64
376.56	912.81
376.76	861.32
376.95	858.98
377.15	856.64
377.35	952.60
377.54	926.85
377.74	851.96
377.93	891.74
378.13	894.08
378.33	903.45
378.52	938.55
378.72	957.28
378.91	950.26
379.11	961.96
379.31	964.30
379.50	968.98
379.70	983.02
379.89	938.55
380.09	924.51
380.28	971.32
380.48	1046.22
380.68	917.49
380.87	957.28
381.07	1004.09
381.26	1071.97
381.46	1053.24
381.65	931.53
381.85	1032.18
382.04	997.07
382.24	1076.65
382.43	1060.26
382.63	954.94
382.83	1081.33
383.02	1097.71
383.22	1069.62
383.41	1015.79
383.61	1163.25
383.80	1203.04
384.00	1128.14
384.19	1123.46
384.39	1188.99
384.58	1093.03
384.78	1139.84
384.97	1102.39
385.17	1151.54
385.36	1186.65
385.56	1240.48
385.75	1128.14
385.95	1149.20
386.14	1238.14
386.34	1203.04
386.53	1238.14
386.72	1149.20
386.92	1128.14
387.11	1226.44
387.31	1266.23
387.50	1170.27
387.70	1200.69
387.89	1306.02
388.09	1228.78
388.28	1303.68
388.48	1291.98
388.67	1235.80
388.86	1313.04
389.06	1273.25
389.25	1350.49
389.45	1446.45
389.64	1404.32
389.84	1369.21
390.03	1378.58
390.22	1301.34
390.42	1418.36
390.61	1289.64
390.81	1411.34
391.00	1401.98
391.19	1413.68
391.39	1502.62
391.58	1411.34
391.78	1453.47
391.97	1528.37
392.16	1437.09
392.36	1582.20
392.55	1521.35
392.75	1540.07
392.94	1540.07
393.13	1521.35
393.33	1551.78
393.52	1568.16
393.71	1626.67
393.91	1547.09
394.10	1689.87
394.29	1591.56
394.49	1600.93
394.68	1579.86
394.88	1593.90
395.07	1591.56
395.26	1654.76
395.46	1783.49
395.65	1732.00
395.84	1650.08
396.04	1746.04
396.23	1722.63
396.42	1790.51
396.62	1771.79
396.81	1795.19
397.00	1844.34
397.19	1771.79
397.39	1860.73
397.58	1839.66
397.77	1760.08
397.97	1888.81
398.16	1870.09
398.35	1949.67
398.55	1893.49
398.74	1916.90
398.93	1973.07
399.12	1898.17
399.32	1912.22
399.51	1916.90
399.70	1914.56
399.90	1968.39
400.09	1959.03
400.28	1954.35
400.47	2059.67
400.67	2040.95
400.86	2012.86
401.05	2040.95
401.24	2008.18
401.44	2172.02
401.63	2115.84
401.82	2113.50
402.01	2115.84
402.21	2125.21
402.40	2174.36
402.59	2150.95
402.78	2225.85
402.97	2263.30
403.17	2265.64
403.36	2235.21
403.55	2368.62
403.74	2267.98
403.93	2354.58
404.13	2406.07
404.32	2392.03
404.51	2399.05
404.70	2380.32
404.89	2387.35
405.09	2452.88
405.28	2490.33
405.47	2509.05
405.66	2495.01
405.85	2537.14
406.05	2530.12
406.24	2520.76
406.43	2609.70
406.62	2518.42
406.81	2633.10
407.00	2483.31
407.20	2621.40
407.39	2609.70
407.58	2605.02
407.77	2717.36
407.96	2708.00
408.15	2792.26
408.34	2675.23
408.54	2827.37
408.73	2799.28
408.92	2906.95
409.11	2792.26
409.30	2895.24
409.49	2909.29
409.68	2846.09
409.87	3045.04
410.07	3035.67
410.26	2869.50
410.45	2993.55
410.64	2993.55
410.83	3054.40
411.02	3087.17
411.21	3030.99
411.40	3117.59
411.59	3272.07
411.78	3297.81
411.98	3262.71
412.17	3248.66
412.36	3363.35
412.55	3496.76
412.74	3442.93
412.93	3353.99
413.12	3405.48
413.31	3426.54
413.50	3599.74
413.69	3480.38
413.88	3655.92
414.07	3716.77
414.26	3611.45
414.45	3513.14
414.64	3672.30
414.83	3716.77
415.02	3798.69
415.22	3737.84
415.41	3915.72
415.60	3950.82
415.79	3943.80
415.98	3999.98
416.17	3995.29
416.36	3889.97
416.55	3988.27
416.74	4042.11
416.93	3967.21
417.12	4152.11
417.31	4046.79
417.50	4133.39
417.69	4369.78
417.88	4299.56
418.07	4287.86
418.26	4432.97
418.45	4325.31
418.64	4407.23
418.83	4482.13
419.02	4477.44
419.21	4580.43
419.39	4489.15
419.58	4489.15
419.77	4477.44
419.96	4510.21
420.15	4533.62
420.34	4514.89
420.53	4641.28
420.72	4615.54
420.91	4676.39
421.10	4744.27
421.29	4784.06
421.48	4767.67
421.67	4870.65
421.86	4748.95
422.05	4884.70
422.24	4854.27
422.43	4903.42
422.61	4947.89
422.80	5104.71
422.99	4957.25
423.18	4983.00
423.37	5046.20
423.56	4833.21
423.75	4856.61
423.94	4873.00
424.13	4648.30
424.32	4674.05
424.50	4980.66
424.69	5200.67
424.88	5083.64
425.07	4936.19
425.26	4896.40
425.45	5200.67
425.64	4957.25
425.83	5123.43
426.01	5144.50
426.20	4919.81
426.39	5125.77
426.58	5111.73
426.77	5046.20
426.96	5093.01
427.15	5181.95
427.33	5217.05
427.52	5043.85
427.71	5313.02
427.90	5219.39
428.09	5233.44
428.28	5277.91
428.46	5357.49
428.65	5423.02
428.84	5661.76
429.03	5476.85
429.22	5341.10
429.40	5474.51
429.59	5373.87
429.78	5242.80
429.97	5217.05
430.16	5371.53
430.34	5591.54
430.53	5724.95
430.72	5834.96
430.91	5561.11
431.10	5528.35
431.28	5607.92
431.47	5748.36
431.66	5884.11
431.85	5820.91
432.03	6045.60
432.22	5980.07
432.41	5799.85
432.60	5975.39
432.79	6090.07
432.97	6097.10
433.16	6031.56
433.35	5982.41
433.54	6090.07
433.72	6272.64
433.91	6106.46
434.10	6171.99
434.28	6160.29
434.47	6101.78
434.66	6387.32
434.85	6218.80
435.03	6338.17
435.22	6293.70
435.41	6553.50
435.59	6417.75
435.78	6382.64
435.97	6523.07
436.16	6473.92
436.34	6410.73
436.53	6612.01
436.72	6754.79
436.90	6443.49
437.09	6644.78
437.28	6693.93
437.46	6658.82
437.65	6719.68
437.84	6876.49
438.02	6846.07
438.21	6822.66
438.40	6651.80
438.58	7012.24
438.77	7035.65
438.96	6939.69
439.14	7122.25
439.33	7077.78
439.52	7187.79
439.70	7250.98
439.89	7213.53
440.08	7389.07
440.26	7246.30
440.45	7353.96
440.63	7548.23
440.82	7562.27
441.01	7604.40
441.19	7595.04
441.38	7831.43
441.57	7768.24
441.75	7726.11
441.94	7882.92
442.12	7985.91
442.31	8051.44
442.50	8128.68
442.68	8081.87
442.87	8056.12
443.05	7978.89
443.24	7962.50
443.43	8205.92
443.61	8241.03
443.80	8388.48
443.98	8093.57
444.17	7922.71
444.35	8248.05
444.54	8498.49
444.73	8306.56
444.91	8198.90
445.10	8425.93
445.28	8196.56
445.47	8423.59
445.65	8325.29
445.84	8329.97
446.02	8383.80
446.21	8402.52
446.39	8367.42
446.58	8524.23
446.77	8484.44
446.95	8311.24
447.14	8496.14
447.32	8688.07
447.51	8688.07
447.69	8409.54
447.88	8285.50
448.06	8388.48
448.25	8531.25
448.43	8514.87
448.62	8615.51
448.80	8582.74
448.99	8674.03
449.17	8753.60
449.36	8643.60
449.54	8683.39
449.73	9076.60
449.91	9001.70
450.10	9015.74
450.28	9043.83
450.46	9170.22
450.65	8945.53
450.83	9118.73
451.02	8950.21
451.20	8947.87
451.39	9036.81
451.57	9043.83
451.76	9036.81
451.94	9338.74
452.13	9490.87
452.31	9420.66
452.49	9172.56
452.68	9474.49
452.86	9357.46
453.05	9425.34
453.23	9563.43
453.42	9551.73
453.60	9315.33
453.78	9455.76
453.97	9586.83
454.15	9217.03
454.34	9474.49
454.52	9755.35
454.70	9671.09
454.89	9853.66
455.07	9685.14
455.26	9724.93
455.44	9795.14
455.62	9956.64
455.81	10174.31
455.99	9933.23
456.17	9865.36
456.36	10050.26
456.54	10235.16
456.73	10200.05
456.91	10452.83
457.09	10244.52
457.28	10527.73
457.46	10520.71
457.64	10520.71
457.83	10551.14
458.01	10562.84
458.19	10705.61
458.38	10516.03
458.56	10738.38
458.74	10621.35
458.93	10761.78
459.11	10743.06
459.29	10757.10
459.48	10981.79
459.66	10909.24
459.84	11033.29
460.03	11005.20
460.21	10881.15
460.39	11239.25
460.57	11014.56
460.76	11080.10
460.94	11276.70
461.12	11154.99
461.31	11152.65
461.49	11180.74
461.67	11183.08
461.85	11674.59
462.04	11384.37
462.22	11311.81
462.40	11735.45
462.59	11386.71
462.77	11709.70
462.95	11477.99
463.13	11578.63
463.32	11747.15
463.50	11644.17
463.68	11772.89
463.86	11815.02
464.05	11805.66
464.23	11749.49
464.41	11819.71
464.59	11726.08
464.78	12219.94
464.96	12114.61
465.14	11829.07
465.32	11913.33
465.50	12138.02
465.69	12304.20
465.87	12294.83
466.05	12388.46
466.23	12177.81
466.41	12343.99
466.60	12629.53
466.78	12201.21
466.96	12407.18
467.14	12325.26
467.32	12257.39
467.51	12601.44
467.69	12278.45
467.87	12587.40
468.05	12503.14
468.23	12322.92
468.41	12325.26
468.60	12383.77
468.78	12669.32
468.96	12683.36
469.14	12571.02
469.32	12727.83
469.50	12664.64
469.69	13025.08
469.87	13341.05
470.05	13282.54
470.23	13319.99
470.41	13312.97
470.59	13146.79
470.77	13434.68
470.95	13259.13
471.14	13502.55
471.32	13287.22
471.50	13514.25
471.68	13584.47
471.86	13462.76
472.04	13755.33
472.22	13973.00
472.40	13701.50
472.58	13898.10
472.77	13844.27
472.95	14270.25
473.13	14757.08
473.31	13989.38
473.49	14230.46
473.67	14101.73
473.85	14160.24
474.03	14728.99
474.21	14761.76
474.39	14750.06
474.57	14717.29
474.75	15101.14
474.93	15059.01
475.12	15192.42
475.30	15176.03
475.48	15227.53
475.66	15384.34
475.84	15192.42
476.02	15438.17
476.20	15405.41
476.38	15737.76
476.56	16030.33
476.74	16032.67
476.92	16137.99
477.10	16149.70
477.28	16086.50
477.46	16177.78
477.64	16456.31
477.82	16610.78
478.00	17048.46
478.18	16922.07
478.36	17018.04
478.54	17207.62
478.72	17310.60
478.90	17376.14
479.08	17748.28
479.26	17727.22
479.44	17818.50
479.62	17696.79
479.80	18111.07
479.98	18005.74
480.16	18590.88
480.34	18253.84
480.52	18588.53
480.70	18789.82
480.88	18452.78
481.06	18499.59
481.24	18850.67
481.41	19152.60
481.59	19255.59
481.77	19480.28
481.95	19501.34
482.13	20065.41
482.31	19623.05
482.49	20306.49
482.67	20313.51
482.85	20659.91
483.03	20758.21
483.21	20563.95
483.39	20891.62
483.57	20891.62
483.74	21502.50
483.92	21455.69
484.10	21317.60
484.28	21827.84
484.46	22012.74
484.64	22441.06
484.82	22008.06
485.00	22284.24
485.18	22719.58
485.35	22963.00
485.53	22548.72
485.71	23199.39
485.89	23400.68
486.07	23339.82
486.25	23611.32
486.43	23693.24
486.61	23833.68
486.78	24320.51
486.96	24442.21
487.14	24620.10
487.32	24919.68
487.50	25120.97
487.68	24931.39
487.85	25600.78
488.03	25343.32
488.21	25872.28
488.39	25893.35
488.57	26139.10
488.75	26419.97
488.92	26630.62
489.10	26806.16
489.28	27040.21
489.46	27131.49
489.64	27019.14
489.81	27929.61
489.99	27662.79
490.17	27725.99
490.35	28051.32
490.53	28601.35
490.70	28306.44
490.88	28442.19
491.06	28826.04
491.24	29198.18
491.41	29053.07
491.59	29127.97
491.77	29521.18
491.95	29390.11
492.13	29736.51
492.30	30501.86
492.48	30340.36
492.66	30352.07
492.84	30508.88
493.01	30859.96
493.19	30567.40
493.37	31379.56
493.54	31035.50
493.72	31840.65
493.90	31449.78
494.08	31653.40
494.25	31999.80
494.43	32112.15
494.61	32568.55
494.79	32680.90
494.96	32290.03
495.14	32893.89
495.32	33149.01
495.49	33017.94
495.67	33406.47
495.85	33558.60
496.02	34064.16
496.20	33818.40
496.38	34185.86
496.55	34176.50
496.73	34796.74
496.91	35112.72
497.09	35264.85
497.26	35042.50
497.44	34675.04
497.62	35419.33
497.79	35959.99
497.97	35770.41
498.14	35964.67
498.32	36411.71
498.50	36229.15
498.67	36987.49
498.85	36568.53
499.03	36872.80
499.20	37209.84
499.38	36825.99
499.56	37127.92
499.73	37425.17
499.91	37212.18
500.08	37926.04
500.26	37551.56
500.44	38157.75
500.61	38232.65
500.79	38225.63
500.97	38286.48
501.14	38518.20
501.32	38829.49
501.49	38340.32
501.67	38801.40
501.84	39105.67
502.02	38703.10
502.20	39346.75
502.37	39393.56
502.55	39531.65
502.72	39697.83
502.90	39452.07
503.07	39768.04
503.25	39697.83
503.43	39952.94
503.60	40203.38
503.78	40437.44
503.95	40418.71
504.13	40809.58
504.30	41050.66
504.48	40748.73
504.65	40891.50
504.83	40776.81
505.01	41268.33
505.18	41605.36
505.36	41436.84
505.53	41331.52
505.71	41474.29
505.88	42176.45
506.06	41816.01
506.23	42099.22
506.41	42157.73
506.58	42368.38
506.76	42562.64
506.93	42597.75
507.11	42536.90
507.28	42820.10
507.46	42986.28
507.63	43236.72
507.81	43466.09
507.98	43061.18
508.16	43269.48
508.33	43540.99
508.50	43810.15
508.68	43973.98
508.85	44074.63
509.03	43892.07
509.20	44308.68
509.38	44304.00
509.55	44664.44
509.73	44329.75
509.90	44582.52
510.08	44554.44
510.25	44886.79
510.42	44584.86
510.60	45219.15
510.77	45144.25
510.95	46064.08
511.12	45193.40
511.30	45198.09
511.47	45565.55
511.64	45399.37
511.82	46071.10
511.99	45663.85
512.17	45888.54
512.34	46232.60
512.51	46417.50
512.69	46419.84
512.86	46316.86
513.04	46813.05
513.21	46586.02
513.38	46813.05
513.56	47072.85
513.73	47000.30
513.90	46960.51
514.08	47037.75
514.25	47512.88
514.43	47538.62
514.60	47557.35
514.77	47667.35
514.95	47714.16
515.12	47779.70
515.29	47583.09
515.47	48079.28
515.64	48172.91
515.81	48465.47
515.99	48367.17
516.16	48725.27
516.33	48538.03
516.51	48760.38
516.68	48692.50
516.85	48566.12
517.03	49193.38
517.20	48690.16
517.37	49118.48
517.54	48790.81
517.72	49228.49
517.89	49090.40
518.06	49528.08
518.24	49610.00
518.41	49478.92
518.58	49457.86
518.75	49312.75
518.93	49617.02
519.10	49258.91
519.27	49911.92
519.45	49771.49
519.62	49909.58
519.79	50127.25
519.96	49750.43
520.14	50295.77
520.31	50199.81
520.48	50745.15
520.65	50349.60
520.83	50557.91
521.00	50920.70
521.17	50564.93
521.34	50536.85
521.52	50864.52
521.69	50904.31
521.86	51126.66
522.03	51318.59
522.20	51615.83
522.38	51735.20
522.55	51604.13
522.72	51442.63
522.89	51533.92
523.07	51547.96
523.24	51777.33
523.41	51929.47
523.58	51419.23
523.75	52154.16
523.92	51798.40
524.10	51938.83
524.27	52051.17
524.44	52268.84
524.61	51945.85
524.78	52205.65
524.96	52133.09
525.13	52121.39
525.30	52498.22
525.47	52809.51
525.64	52575.45
525.81	52594.18
525.98	52795.46
526.16	52676.10
526.33	52879.72
526.50	53251.87
526.67	52966.32
526.84	53254.21
527.01	52760.36
527.18	53013.13
527.36	53212.08
527.53	53324.43
527.70	53745.72
527.87	53591.25
528.04	53272.93
528.21	53448.47
528.38	53244.85
528.55	53642.74
528.72	53448.47
528.89	53521.03
529.07	53464.86
529.24	53492.94
529.41	53855.73
529.58	53757.42
529.75	53968.07
529.92	53719.98
530.09	53581.88
530.26	53900.20
530.43	54082.76
530.60	53839.34
530.77	54117.87
530.94	53951.69
531.11	54021.90
531.28	54328.52
531.46	54375.33
531.63	54316.81
531.80	54192.76
531.97	54522.78
532.14	54745.13
532.31	54703.00
532.48	54841.09
532.65	54351.92
532.82	54590.66
532.99	54892.58
533.16	54578.95
533.33	54934.71
533.50	55140.68
533.67	54866.84
533.84	54632.78
534.01	54908.97
534.18	55070.46
534.35	55337.29
534.52	55234.30
534.69	55363.03
534.86	55140.68
535.03	55236.64
535.20	55334.95
535.37	55557.30
535.54	55543.25
535.71	55456.65
535.88	55578.36
536.05	55622.83
536.22	55676.66
536.38	55798.37
536.55	55547.93
536.72	55789.01
536.89	55760.92
537.06	55896.67
537.23	55945.83
537.40	55587.72
537.57	55749.22
537.74	56093.28
537.91	56081.58
538.08	56030.08
538.25	55936.46
538.42	55709.43
538.59	56273.50
538.75	56109.66
538.92	56055.83
539.09	56259.46
539.26	56203.28
539.43	56182.22
539.60	56320.31
539.77	56214.99
539.94	56320.31
540.11	56381.16
540.28	56463.08
540.44	56601.18
540.61	56514.58
540.78	56542.66
540.95	56523.94
541.12	56563.73
541.29	56596.49
541.46	56636.28
541.62	56629.26
541.79	56912.47
541.96	56608.20
542.13	56615.22
542.30	56807.14
542.47	56793.10
542.63	56935.87
542.80	56975.66
542.97	57073.96
543.14	57401.64
543.31	57298.65
543.48	57120.77
543.64	57509.30
543.81	57497.60
543.98	57411.00
544.15	57485.90
544.32	57546.75
544.48	57839.32
544.65	57450.79
544.82	57535.05
544.99	57394.62
545.16	57497.60
545.32	57556.11
545.49	57670.80
545.66	57715.27
545.83	57675.48
546.00	57794.85
546.16	57675.48
546.33	57888.47
546.50	57759.74
546.67	57731.65
546.83	57357.17
547.00	58085.07
547.17	57729.31
547.34	57855.70
547.50	58059.33
547.67	58136.57
547.84	58075.71
548.00	58199.76
548.17	58340.19
548.34	58145.93
548.51	58284.02
548.67	58337.85
548.84	58033.58
549.01	58255.93
549.18	58557.86
549.34	58298.06
549.51	58335.51
549.68	58782.55
549.84	58461.90
550.01	58314.45
550.18	58417.43
550.34	58658.51
550.51	58461.90
550.68	58412.75
550.84	58412.75
551.01	58550.84
551.18	58574.25
551.34	58602.33
551.51	58707.66
551.68	58712.34
551.84	58492.33
552.01	58614.04
552.18	58763.83
552.34	58571.91
552.51	58719.36
552.68	58621.06
552.84	58733.40
553.01	58829.37
553.18	58749.79
553.34	58864.47
553.51	58906.60
553.67	58845.75
553.84	58904.26
554.01	58873.84
554.17	58859.79
554.34	59110.23
554.51	59023.63
554.67	59131.29
554.84	59150.02
555.00	59084.48
555.17	59110.23
555.33	59166.40
555.50	59128.95
555.67	59173.42
555.83	59068.10
556.00	59157.04
556.16	59625.15
556.33	59433.22
556.50	59178.10
556.66	59447.27
556.83	59423.86
556.99	59348.96
557.16	59657.91
557.32	59435.56
557.49	59779.62
557.65	59477.69
557.82	59494.08
557.98	59442.59
558.15	59688.34
558.32	59559.61
558.48	59306.83
558.65	59442.59
558.81	59344.28
558.98	59529.19
559.14	59814.73
559.31	59643.87
559.47	59723.45
559.64	59920.05
559.80	59950.48
559.97	59910.69
560.13	59641.53
560.30	59840.48
560.46	59786.64
560.63	59746.86
560.79	59852.18
560.96	60032.40
561.12	59760.90
561.29	60041.76
561.45	59800.69
561.61	59774.94
561.78	59957.50
561.94	59980.91
562.11	59898.99
562.27	60102.62
562.44	60079.21
562.60	60254.75
562.77	60001.97
562.93	59819.41
563.10	60053.47
563.26	60130.70
563.42	60048.78
563.59	60046.44
563.75	59936.44
563.92	60107.30
564.08	60168.15
564.24	60315.61
564.41	60097.94
564.57	60360.08
564.74	60203.26
564.90	60219.64
565.07	60196.24
565.23	60397.52
565.39	60137.72
565.56	60385.82
565.72	60355.39
565.88	60336.67
566.05	60308.58
566.21	60378.80
566.38	60303.90
566.54	60259.43
566.70	60477.10
566.87	60481.78
567.03	60219.64
567.19	60310.92
567.36	60437.31
567.52	60179.85
567.68	60573.06
567.85	60552.00
568.01	60252.41
568.17	60310.92
568.34	60533.28
568.50	60477.10
568.66	60467.74
568.83	60409.23
568.99	60530.93
569.15	60416.25
569.32	60350.71
569.48	60573.06
569.64	60502.85
569.81	60624.56
569.97	60477.10
570.13	60741.58
570.30	60268.79
570.46	60509.87
570.62	60701.79
570.78	60425.61
570.95	60680.73
571.11	60863.29
571.27	60484.12
571.43	60729.88
571.60	60734.56
571.76	60732.22
571.92	60584.77
572.09	60549.66
572.25	60769.67
572.41	60603.49
572.57	60423.27
572.74	60783.71
572.90	60872.65
573.06	60851.59
573.22	60774.35
573.38	60669.03
573.55	60788.39
573.71	60882.02
573.87	60587.11
574.03	60748.60
574.20	60856.27
574.36	60612.85
574.52	60867.97
574.68	60786.05
574.84	60924.14
575.01	60811.80
575.17	60566.04
575.33	60858.61
575.49	60732.22
575.65	60924.14
575.82	60835.20
575.98	60870.31
576.14	61230.75
576.30	60818.82
576.46	60837.54
576.62	60891.38
576.79	60860.95
576.95	60662.00
577.11	60774.35
577.27	60891.38
577.43	60987.34
577.59	60938.19
577.75	60790.73
577.92	60809.46
578.08	60772.01
578.24	60975.64
578.40	61027.13
578.56	61059.90
578.72	60999.04
578.88	61151.18
579.04	61041.17
579.21	60982.66
579.37	61057.56
579.53	60912.44
579.69	60825.84
579.85	60940.53
580.01	60851.59
580.17	60947.55
580.33	60985.00
580.49	61153.52
580.65	61038.83
580.82	60926.49
580.98	60863.29
581.14	60867.97
581.30	61123.09
581.46	60879.67
581.62	61069.26
581.78	60928.83
581.94	60980.32
582.10	60975.64
582.26	60849.25
582.42	60893.72
582.58	60935.85
582.74	61013.08
582.90	60956.91
583.06	61151.18
583.22	61041.17
583.38	61095.00
583.54	61230.75
583.70	61034.15
583.86	61134.79
584.02	60882.02
584.18	61169.90
584.34	61146.50
584.50	61200.33
584.66	61008.40
584.82	61148.84
584.98	61186.28
585.14	61235.44
585.30	61034.15
585.46	61099.68
585.62	61104.37
585.78	61146.50
585.94	60779.03
586.10	61041.17
586.26	61249.48
586.42	60963.93
586.58	61169.90
586.74	61125.43
586.90	61116.07
587.06	60914.78
587.22	61146.50
587.38	61329.06
587.54	61221.39
587.70	61015.43
587.86	61092.66
588.02	60942.87
588.18	61282.25
588.34	61300.97
588.49	61188.63
