SpectraSuite Data File
++++++++++++++++++++++++++++++++++++
Date: Fri Oct 25 11:26:20 EDT 2013
User: price-jones
Dark Spectrum Present: No
Reference Spectrum Present: No
Number of Sampled Component Spectra: 1
Spectrometers: USB2+H05261
Integration Time (usec): 100000 (USB2+H05261)
Spectra Averaged: 1 (USB2+H05261)
Boxcar Smoothing: 0 (USB2+H05261)
Correct for Electrical Dark: No (USB2+H05261)
Strobe/Lamp Enabled: No (USB2+H05261)
Correct for Detector Non-linearity: No (USB2+H05261)
Correct for Stray Light: No (USB2+H05261)
Number of Pixels in Processed Spectrum: 2048
>>>>>Begin Processed Spectral Data<<<<<
365.73	264.48
365.92	264.48
366.12	264.48
366.32	114.69
366.52	131.07
366.72	241.08
366.91	189.58
367.11	168.52
367.31	194.26
367.51	133.41
367.70	147.45
367.90	203.63
368.10	124.05
368.30	128.73
368.49	117.03
368.69	198.95
368.89	135.75
369.09	126.39
369.28	154.48
369.48	163.84
369.68	191.92
369.87	159.16
370.07	147.45
370.27	278.52
370.47	374.49
370.66	606.20
370.86	671.73
371.06	706.84
371.25	739.61
371.45	615.56
371.65	725.57
371.84	671.73
372.04	709.18
372.24	753.65
372.44	709.18
372.63	636.63
372.83	793.44
373.03	732.59
373.22	681.10
373.42	772.38
373.62	772.38
373.81	837.91
374.01	774.72
374.21	786.42
374.40	802.80
374.60	812.17
374.79	814.51
374.99	870.68
375.19	770.04
375.38	959.62
375.58	842.59
375.78	880.04
375.97	919.83
376.17	844.93
376.37	945.58
376.56	891.74
376.76	915.15
376.95	849.61
377.15	915.15
377.35	931.53
377.54	891.74
377.74	943.24
377.93	863.66
378.13	961.96
378.33	968.98
378.52	894.08
378.72	905.79
378.91	1036.86
379.11	983.02
379.31	877.70
379.50	964.30
379.70	898.77
379.89	1062.60
380.09	1006.43
380.28	990.05
380.48	957.28
380.68	1008.77
380.87	959.62
381.07	947.92
381.26	1057.92
381.46	1048.56
381.65	978.34
381.85	1090.69
382.04	992.39
382.24	1078.99
382.43	1093.03
382.63	1069.62
382.83	1060.26
383.02	1074.31
383.22	1015.79
383.41	1125.80
383.61	1137.50
383.80	1160.91
384.00	1146.86
384.19	1149.20
384.39	1121.12
384.58	1205.38
384.78	1163.25
384.97	1181.97
385.17	1198.35
385.36	1142.18
385.56	1233.46
385.75	1156.22
385.95	1146.86
386.14	1240.48
386.34	1118.78
386.53	1219.42
386.72	1235.80
386.92	1296.66
387.11	1132.82
387.31	1235.80
387.50	1203.04
387.70	1165.59
387.89	1254.53
388.09	1322.40
388.28	1268.57
388.48	1245.16
388.67	1315.38
388.86	1313.04
389.06	1336.45
389.25	1322.40
389.45	1352.83
389.64	1352.83
389.84	1385.60
390.03	1390.28
390.22	1327.08
390.42	1329.42
390.61	1359.85
390.81	1392.62
391.00	1479.22
391.19	1439.43
391.39	1411.34
391.58	1462.83
391.78	1504.96
391.97	1579.86
392.16	1439.43
392.36	1507.30
392.55	1495.60
392.75	1479.22
392.94	1462.83
393.13	1549.43
393.33	1530.71
393.52	1619.65
393.71	1638.38
393.91	1542.41
394.10	1497.94
394.29	1584.54
394.49	1612.63
394.68	1652.42
394.88	1603.27
395.07	1629.01
395.26	1696.89
395.46	1825.62
395.65	1696.89
395.84	1689.87
396.04	1778.81
396.23	1823.28
396.42	1764.76
396.62	1816.26
396.81	1778.81
397.00	1764.76
397.19	1750.72
397.39	1767.10
397.58	1769.44
397.77	1818.60
397.97	1909.88
398.16	1849.02
398.35	1851.36
398.55	1813.92
398.74	1867.75
398.93	1893.49
399.12	1961.37
399.32	1905.20
399.51	1933.28
399.70	1916.90
399.90	1975.41
400.09	1989.46
400.28	2036.27
400.47	2003.50
400.67	2069.03
400.86	2120.53
401.05	2019.88
401.24	2106.48
401.44	2083.08
401.63	2090.10
401.82	2111.16
402.01	2052.65
402.21	2134.57
402.40	2265.64
402.59	2242.23
402.78	2193.08
402.97	2179.04
403.17	2230.53
403.36	2228.19
403.55	2258.62
403.74	2242.23
403.93	2275.00
404.13	2342.88
404.32	2417.77
404.51	2214.15
404.70	2464.58
404.89	2303.09
405.09	2478.63
405.28	2445.86
405.47	2471.61
405.66	2551.18
405.85	2436.50
406.05	2483.31
406.24	2588.63
406.43	2523.10
406.62	2516.08
406.81	2635.44
407.00	2509.05
407.20	2513.74
407.39	2649.49
407.58	2740.77
407.77	2700.98
407.96	2736.09
408.15	2829.71
408.34	2738.43
408.54	2764.17
408.73	2822.69
408.92	2836.73
409.11	2892.90
409.30	2939.71
409.49	2885.88
409.68	2918.65
409.87	2892.90
410.07	2981.84
410.26	3101.21
410.45	2984.18
410.64	2981.84
410.83	2986.52
411.02	3197.17
411.21	3075.46
411.40	3141.00
411.59	3115.25
411.78	3171.43
411.98	3206.53
412.17	3361.01
412.36	3274.41
412.55	3361.01
412.74	3375.05
412.93	3536.55
413.12	3393.78
413.31	3480.38
413.50	3522.51
413.69	3480.38
413.88	3641.87
414.07	3616.13
414.26	3641.87
414.45	3702.73
414.64	3709.75
414.83	3721.45
415.02	3758.90
415.22	3740.18
415.41	3904.01
415.60	3791.67
415.79	3920.40
415.98	3995.29
416.17	3911.04
416.36	3906.35
416.55	4063.17
416.74	4124.02
416.93	4070.19
417.12	4173.18
417.31	4098.28
417.50	4149.77
417.69	4229.35
417.88	4126.36
418.07	4304.25
418.26	4304.25
418.45	4332.33
418.64	4458.72
418.83	4531.28
419.02	4594.47
419.21	4437.66
419.39	4571.07
419.58	4440.00
419.77	4430.63
419.96	4486.81
420.15	4702.14
420.34	4531.28
420.53	4575.75
420.72	4589.79
420.91	4493.83
421.10	4650.64
421.29	4858.95
421.48	4718.52
421.67	4608.51
421.86	4739.58
422.05	4746.61
422.24	4678.73
422.43	4884.70
422.61	4877.68
422.80	5020.45
422.99	4826.18
423.18	4849.59
423.37	4985.34
423.56	4887.04
423.75	5011.09
423.94	4751.29
424.13	4599.15
424.32	4641.28
424.50	4896.40
424.69	5104.71
424.88	5057.90
425.07	4971.30
425.26	4882.36
425.45	4938.53
425.64	4971.30
425.83	5036.83
426.01	5004.07
426.20	5039.17
426.39	4959.60
426.58	5025.13
426.77	5149.18
426.96	5160.88
427.15	4966.62
427.33	5153.86
427.52	5170.24
427.71	5231.10
427.90	5371.53
428.09	5455.79
428.28	5270.89
428.46	5198.33
428.65	5336.42
428.84	5434.72
429.03	5434.72
429.22	5320.04
429.40	5479.19
429.59	5359.83
429.78	5423.02
429.97	5102.37
430.16	5401.96
430.34	5497.92
430.53	5617.29
430.72	5647.71
430.91	5591.54
431.10	5528.35
431.28	5717.93
431.47	5640.69
431.66	5806.87
431.85	5706.23
432.03	5877.09
432.22	5830.27
432.41	5860.70
432.60	5799.85
432.79	5874.74
432.97	5867.72
433.16	5895.81
433.35	5970.71
433.54	6015.18
433.72	6108.80
433.91	6125.18
434.10	6073.69
434.28	6019.86
434.47	6244.55
434.66	6162.63
434.85	6242.21
435.03	6253.91
435.22	6286.68
435.41	6298.38
435.59	6452.86
435.78	6476.26
435.97	6429.45
436.16	6246.89
436.34	6443.49
436.53	6354.55
436.72	6548.82
436.90	6541.80
437.09	6462.22
437.28	6352.21
437.46	6539.46
437.65	6703.29
437.84	6630.74
438.02	6867.13
438.21	6698.61
438.40	6644.78
438.58	6881.18
438.77	7037.99
438.96	6913.94
439.14	7096.50
439.33	7199.49
439.52	7082.46
439.70	7033.31
439.89	7206.51
440.08	7225.23
440.26	7463.97
440.45	7274.38
440.63	7316.51
440.82	7583.34
441.01	7262.68
441.19	7473.33
441.38	7719.09
441.57	7709.72
441.75	7719.09
441.94	8009.31
442.12	7892.29
442.31	7850.16
442.50	7763.56
442.68	7707.38
442.87	8002.29
443.05	8126.34
443.24	8149.75
443.43	8025.70
443.61	8353.37
443.80	8344.01
443.98	7903.99
444.17	7932.08
444.35	8053.78
444.54	8182.51
444.73	8315.92
444.91	8327.63
445.10	8264.43
445.28	8320.60
445.47	8269.11
445.65	8374.44
445.84	8402.52
446.02	8411.89
446.21	8446.99
446.39	8542.96
446.58	8355.71
446.77	8266.77
446.95	8241.03
447.14	8439.97
447.32	8458.70
447.51	8409.54
447.69	8484.44
447.88	8610.83
448.06	8535.93
448.25	8561.68
448.43	8564.02
448.62	8367.42
448.80	8463.38
448.99	8496.14
449.17	8713.81
449.36	8676.37
449.54	8711.47
449.73	8711.47
449.91	8952.55
450.10	8847.22
450.28	8929.14
450.46	8966.59
450.65	8933.82
450.83	8964.25
451.02	9078.94
451.20	9165.54
451.39	8807.44
451.57	9118.73
451.76	9116.39
451.94	9034.47
452.13	9275.54
452.31	9104.68
452.49	9057.87
452.68	9207.67
452.86	9212.35
453.05	9317.67
453.23	9282.56
453.42	9434.70
453.60	9296.61
453.78	9430.02
453.97	9385.55
454.15	9500.23
454.34	9411.29
454.52	9727.27
454.70	9451.08
454.89	9722.59
455.07	9635.99
455.26	9722.59
455.44	9926.21
455.62	9816.21
455.81	9664.07
455.99	9811.53
456.17	10010.47
456.36	10078.35
456.54	10010.47
456.73	10204.74
456.91	10305.38
457.09	10520.71
457.28	10682.20
457.46	10225.80
457.64	10342.83
457.83	10420.06
458.01	10331.12
458.19	10623.69
458.38	10396.66
458.56	10511.35
458.74	10698.59
458.93	10626.03
459.11	10754.76
459.29	10644.76
459.48	10546.45
459.66	10682.20
459.84	10913.92
460.03	11026.26
460.21	10920.94
460.39	10773.49
460.57	10956.05
460.76	10946.69
460.94	11091.80
461.12	11000.52
461.31	11150.31
461.49	11178.40
461.67	10913.92
461.85	11377.34
462.04	11176.06
462.22	11878.22
462.40	11377.34
462.59	11276.70
462.77	11492.03
462.95	11580.97
463.13	11386.71
463.32	11672.25
463.50	11859.49
463.68	11833.75
463.86	11955.46
464.05	11398.41
464.23	11829.07
464.41	11646.51
464.59	11655.87
464.78	12053.76
464.96	11899.28
465.14	11927.37
465.32	11936.73
465.50	12102.91
465.69	12088.87
465.87	12053.76
466.05	11810.34
466.23	11929.71
466.41	12208.23
466.60	12465.69
466.78	12203.55
466.96	12084.19
467.14	12187.17
467.32	12285.47
467.51	12564.00
467.69	12046.74
467.87	12568.68
468.05	12552.29
468.23	12379.09
468.41	12484.42
468.60	12369.73
468.78	12802.73
468.96	12542.93
469.14	12830.82
469.32	12943.16
469.50	12468.03
469.69	12898.69
469.87	13008.70
470.05	12889.33
470.23	13432.33
470.41	13137.43
470.59	13165.51
470.77	13090.62
470.95	12840.18
471.14	13261.48
471.32	13240.41
471.50	13380.84
471.68	13495.53
471.86	13687.45
472.04	13343.39
472.22	14040.87
472.40	13572.77
472.58	13816.18
472.77	13804.48
472.95	14075.98
473.13	14656.43
473.31	13951.93
473.49	13879.38
473.67	13937.89
473.85	14211.73
474.03	14569.83
474.21	14480.89
474.39	14574.52
474.57	14431.74
474.75	14890.49
474.93	14855.38
475.12	14822.61
475.30	15169.01
475.48	14780.48
475.66	15136.24
475.84	14930.28
476.02	15150.29
476.20	15187.74
476.38	15534.14
476.56	15765.85
476.74	15693.29
476.92	15836.06
477.10	15398.38
477.28	16126.29
477.46	15988.20
477.64	16453.97
477.82	16519.50
478.00	16601.42
478.18	16692.70
478.36	16599.08
478.54	17055.48
478.72	16973.56
478.90	17317.62
479.08	17600.83
479.26	17867.65
479.44	17598.49
479.62	17706.15
479.80	17820.84
479.98	18061.91
480.16	18490.23
480.34	18476.19
480.52	18324.05
480.70	18647.05
480.88	18457.46
481.06	18588.53
481.24	18649.39
481.41	19206.44
481.59	19054.30
481.77	18958.34
481.95	19161.97
482.13	19316.44
482.31	19651.14
482.49	20339.26
482.67	20025.62
482.85	20123.93
483.03	20739.49
483.21	20533.52
483.39	20910.35
483.57	20526.50
483.74	21200.57
483.92	21326.96
484.10	20898.64
484.28	21633.57
484.46	21542.29
484.64	22218.71
484.82	21755.28
485.00	22422.33
485.18	22565.10
485.35	22705.54
485.53	22951.29
485.71	23075.34
485.89	23566.85
486.07	23396.00
486.25	23042.57
486.43	23550.47
486.61	23707.29
486.78	23953.04
486.96	23789.20
487.14	24250.29
487.32	24666.91
487.50	24400.08
487.68	24945.43
487.85	25048.41
488.03	25404.17
488.21	25460.35
488.39	25633.55
488.57	25776.32
488.75	26075.91
488.92	26302.94
489.10	26532.31
489.28	26607.21
489.46	26869.35
489.64	26827.22
489.81	27484.91
489.99	27534.06
490.17	27515.34
490.35	27777.48
490.53	28285.37
490.70	28166.01
490.88	28346.23
491.06	28898.59
491.24	28542.83
491.41	28559.22
491.59	29139.67
491.77	29184.14
491.95	29200.52
492.13	29408.83
492.30	29448.62
492.48	29888.64
492.66	29942.47
492.84	30120.35
493.01	30279.51
493.19	30298.23
493.37	30962.95
493.54	31175.94
493.72	31660.43
493.90	30857.62
494.08	31234.45
494.25	31803.20
494.43	31798.52
494.61	32077.04
494.79	32390.67
494.96	32343.86
495.14	32830.69
495.32	33069.43
495.49	32854.10
495.67	33149.01
495.85	32926.66
496.02	33577.33
496.20	33488.38
496.38	33965.85
496.55	34005.64
496.73	34515.88
496.91	34600.14
497.09	34401.19
497.26	34763.98
497.44	34260.76
497.62	35440.39
497.79	35239.11
497.97	35110.38
498.14	35786.79
498.32	36210.43
498.50	35910.84
498.67	36463.21
498.85	36172.98
499.03	36463.21
499.20	36304.05
499.38	36701.94
499.56	37188.77
499.73	36980.46
499.91	36814.29
500.08	37223.88
500.26	37350.27
500.44	37457.93
500.61	37476.66
500.79	37832.42
500.97	38066.47
501.14	38579.05
501.32	38469.04
501.49	38190.52
501.67	38817.78
501.84	38770.97
502.02	38429.26
502.20	38890.34
502.37	39110.35
502.55	38899.70
502.72	39115.03
502.90	39115.03
503.07	39281.21
503.25	39470.79
503.43	39538.67
503.60	39487.18
503.78	39934.22
503.95	40144.87
504.13	40554.46
504.30	40294.66
504.48	40247.85
504.65	40332.11
504.83	40715.96
505.01	41085.76
505.18	40734.68
505.36	41184.07
505.53	41193.43
505.71	41617.07
505.88	41698.98
506.06	41226.20
506.23	41748.14
506.41	41738.77
506.58	41713.03
506.76	41689.62
506.93	42284.12
507.11	41743.45
507.28	42492.43
507.46	42073.47
507.63	42167.09
507.81	42801.38
507.98	42918.40
508.16	42536.90
508.33	42855.21
508.50	43625.25
508.68	43330.34
508.85	43669.72
509.03	43735.25
509.20	44025.48
509.38	43662.69
509.55	44079.31
509.73	44430.39
509.90	44446.77
510.08	44472.52
510.25	44025.48
510.42	44624.65
510.60	45055.31
510.77	45036.59
510.95	45184.04
511.12	44926.58
511.30	45287.03
511.47	45333.84
511.64	45153.62
511.82	45514.06
511.99	45413.41
512.17	45771.52
512.34	45603.00
512.51	46248.99
512.69	46211.54
512.86	45982.16
513.04	46733.48
513.21	46239.62
513.38	46279.41
513.56	46644.54
513.73	46726.46
513.90	46745.18
514.08	46710.07
514.25	47019.02
514.43	47344.36
514.60	47316.27
514.77	47234.35
514.95	47236.69
515.12	47440.32
515.29	47337.33
515.47	47793.74
515.64	48144.82
515.81	47466.06
515.99	47927.15
516.16	48460.79
516.33	47952.90
516.51	48655.06
516.68	48406.96
516.85	48439.73
517.03	48589.52
517.20	48278.23
517.37	48545.05
517.54	48673.78
517.72	48790.81
517.89	48790.81
518.06	48856.34
518.24	48926.56
518.41	49184.02
518.58	49226.15
518.75	49074.01
518.93	49331.47
519.10	49078.69
519.27	49654.47
519.45	49588.93
519.62	49675.53
519.79	50092.15
519.96	49776.17
520.14	49844.05
520.31	50000.86
520.48	50103.85
520.65	50408.12
520.83	50464.29
521.00	50838.78
521.17	50438.54
521.34	50480.67
521.52	50370.67
521.69	50894.95
521.86	51058.79
522.03	50908.99
522.20	51110.28
522.38	51096.24
522.55	51143.05
522.72	50925.38
522.89	51337.31
523.07	51210.92
523.24	51604.13
523.41	51702.43
523.58	51412.21
523.75	51899.04
523.92	51604.13
524.10	51863.93
524.27	51718.82
524.44	51840.53
524.61	51971.60
524.78	52114.37
524.96	51962.23
525.13	52119.05
525.30	52346.08
525.47	52158.84
525.64	52259.48
525.81	52360.12
525.98	52453.75
526.16	52404.59
526.33	52332.04
526.50	52699.50
526.67	52528.64
526.84	52727.59
527.01	52308.63
527.18	52699.50
527.36	52795.46
527.53	52678.44
527.70	53326.77
527.87	53195.70
528.04	52821.21
528.21	53022.50
528.38	52992.07
528.55	53359.53
528.72	52870.36
528.89	53483.58
529.07	53244.85
529.24	53354.85
529.41	53741.04
529.58	53371.24
529.75	53521.03
529.92	53741.04
530.09	53787.85
530.26	53935.30
530.43	53518.69
530.60	53631.04
530.77	53649.76
530.94	53956.37
531.11	53750.40
531.28	53727.00
531.46	53935.30
531.63	54003.18
531.80	54061.69
531.97	54131.91
532.14	54422.14
532.31	54183.40
532.48	54288.73
532.65	54475.97
532.82	54209.15
532.99	54665.55
533.16	54248.94
533.33	54585.97
533.50	54543.84
533.67	54569.59
533.84	54616.40
534.01	54831.73
534.18	54848.11
534.35	55121.96
534.52	54990.89
534.69	55014.29
534.86	54969.82
535.03	54775.56
535.20	55009.61
535.37	55072.81
535.54	55044.72
535.71	55075.15
535.88	55487.08
536.05	55248.35
536.22	55449.63
536.38	55248.35
536.55	55505.80
536.72	55526.87
536.89	55526.87
537.06	55498.78
537.23	55487.08
537.40	55407.50
537.57	55337.29
537.74	55545.59
537.91	55992.64
538.08	55796.03
538.25	55540.91
538.42	55756.24
538.59	55908.38
538.75	55899.01
538.92	55751.56
539.09	56053.49
539.26	55983.27
539.43	56182.22
539.60	55997.32
539.77	56189.24
539.94	56425.64
540.11	56268.82
540.28	56182.22
540.44	56315.63
540.61	56147.11
540.78	56142.43
540.95	56374.14
541.12	56238.39
541.29	56219.67
541.46	56488.83
541.62	56301.59
541.79	56568.41
541.96	56030.08
542.13	56385.85
542.30	56320.31
542.47	56762.67
542.63	56767.35
542.80	56765.01
542.97	56900.76
543.14	57106.73
543.31	56823.53
543.48	57071.62
543.64	57308.02
543.81	57247.16
543.98	57071.62
544.15	57190.99
544.32	57179.29
544.48	57205.03
544.65	57312.70
544.82	57116.09
544.99	57125.46
545.16	57298.65
545.32	57106.73
545.49	57670.80
545.66	57600.58
545.83	57467.17
546.00	57499.94
546.16	57385.25
546.33	57392.28
546.50	57319.72
546.67	57551.43
546.83	57221.42
547.00	57668.46
547.17	57612.29
547.34	57556.11
547.50	57581.86
547.67	57829.96
547.84	58035.92
548.00	57937.62
548.17	58080.39
548.34	57820.59
548.51	58007.84
548.67	58145.93
548.84	57886.13
549.01	57914.22
549.18	57975.07
549.34	57989.11
549.51	58007.84
549.68	58269.98
549.84	58260.62
550.01	58405.73
550.18	58150.61
550.34	58202.10
550.51	58555.52
550.68	58309.77
550.84	58035.92
551.01	58244.23
551.18	58508.71
551.34	58302.74
551.51	58251.25
551.68	58553.18
551.84	58564.88
552.01	58185.72
552.18	58438.50
552.34	58216.14
552.51	58841.07
552.68	58372.96
552.84	58588.29
553.01	58824.68
553.18	58609.35
553.34	58672.55
553.51	58857.45
553.67	58578.93
553.84	58869.15
554.01	58969.80
554.17	58911.28
554.34	58820.00
554.51	58864.47
554.67	58986.18
554.84	58728.72
555.00	58988.52
555.17	58649.14
555.33	59044.69
555.50	58693.61
555.67	58969.80
555.83	58822.34
556.00	59093.85
556.16	59346.62
556.33	59161.72
556.50	58946.39
556.66	59220.23
556.83	58918.31
556.99	59281.09
557.16	59278.75
557.32	59526.84
557.49	59421.52
557.65	59002.56
557.82	59388.75
557.98	59278.75
558.15	59400.46
558.32	59531.53
558.48	59159.38
558.65	59400.46
558.81	59437.90
558.98	59316.20
559.14	59302.15
559.31	59355.99
559.47	59580.68
559.64	59489.40
559.80	59578.34
559.97	59777.28
560.13	59473.01
560.30	59583.02
560.46	59599.40
560.63	59622.81
560.79	59639.19
560.96	59796.01
561.12	59744.51
561.29	59824.09
561.45	59618.13
561.61	59664.94
561.78	59599.40
561.94	59760.90
562.11	59632.17
562.27	59725.79
562.44	59999.63
562.60	59861.54
562.77	59934.10
562.93	59655.57
563.10	60200.92
563.26	59854.52
563.42	60172.83
563.59	60018.36
563.75	59831.11
563.92	59817.07
564.08	59847.50
564.24	60133.04
564.41	60016.02
564.57	60076.87
564.74	59781.96
564.90	59781.96
565.07	59810.05
565.23	59756.22
565.39	60100.28
565.56	60090.91
565.72	60018.36
565.88	60032.40
566.05	59873.24
566.21	59980.91
566.38	59999.63
566.54	60109.64
566.70	60266.45
566.87	60086.23
567.03	59800.69
567.19	60191.56
567.36	60252.41
567.52	60133.04
567.68	60566.04
567.85	60198.58
568.01	60327.31
568.17	59903.67
568.34	60427.95
568.50	60121.34
568.66	60214.96
568.83	60343.69
568.99	60062.83
569.15	60355.39
569.32	60236.03
569.48	60191.56
569.64	60449.02
569.81	60261.77
569.97	60018.36
570.13	60364.76
570.30	60158.79
570.46	60161.13
570.62	60376.46
570.78	60287.52
570.95	60512.21
571.11	60420.93
571.27	60264.11
571.43	60451.36
571.60	60444.33
571.76	60540.30
571.92	60430.29
572.09	60505.19
572.25	60535.62
572.41	60477.10
572.57	60477.10
572.74	60474.76
572.90	60327.31
573.06	60521.57
573.22	60229.01
573.38	60465.40
573.55	60355.39
573.71	60669.03
573.87	60463.06
574.03	60392.84
574.20	60776.69
574.36	60685.41
574.52	60582.43
574.68	60528.59
574.84	60645.62
575.01	60722.86
575.17	60594.13
575.33	60615.19
575.49	60434.97
575.65	60612.85
575.82	60844.57
575.98	60556.68
576.14	60945.21
576.30	60594.13
576.46	60509.87
576.62	60722.86
576.79	60697.11
576.95	60612.85
577.11	60851.59
577.27	60678.39
577.43	60643.28
577.59	60582.43
577.75	60584.77
577.92	60526.25
578.08	60664.35
578.24	60704.13
578.40	60795.42
578.56	60683.07
578.72	60624.56
578.88	60973.30
579.04	60851.59
579.21	60732.22
579.37	60860.95
579.53	60816.48
579.69	60507.53
579.85	60722.86
580.01	60711.16
580.17	60680.73
580.33	61048.19
580.49	60769.67
580.65	60697.11
580.82	60938.19
580.98	60795.42
581.14	60591.79
581.30	60795.42
581.46	60622.22
581.62	60823.50
581.78	60547.32
581.94	60856.27
582.10	60631.58
582.26	60645.62
582.42	60879.67
582.58	60903.08
582.74	60650.30
582.90	60739.24
583.06	60903.08
583.22	60687.75
583.38	60823.50
583.54	60931.17
583.70	60842.23
583.86	60828.18
584.02	60732.22
584.18	60879.67
584.34	60963.93
584.50	60608.17
584.66	60823.50
584.82	60722.86
584.98	60928.83
585.14	61024.79
585.30	60713.50
585.46	60963.93
585.62	60903.08
585.78	61097.34
585.94	60694.77
586.10	60743.92
586.26	61010.74
586.42	61116.07
586.58	61048.19
586.74	60905.42
586.90	60893.72
587.06	60757.97
587.22	60884.36
587.38	60790.73
587.54	60884.36
587.70	60917.12
587.86	61083.30
588.02	60919.46
588.18	61165.22
588.34	60874.99
588.49	60849.25
