SpectraSuite Data File
++++++++++++++++++++++++++++++++++++
Date: Fri Oct 25 11:23:59 EDT 2013
User: price-jones
Dark Spectrum Present: No
Reference Spectrum Present: No
Number of Sampled Component Spectra: 1
Spectrometers: USB2+H05261
Integration Time (usec): 100000 (USB2+H05261)
Spectra Averaged: 1 (USB2+H05261)
Boxcar Smoothing: 0 (USB2+H05261)
Correct for Electrical Dark: No (USB2+H05261)
Strobe/Lamp Enabled: No (USB2+H05261)
Correct for Detector Non-linearity: No (USB2+H05261)
Correct for Stray Light: No (USB2+H05261)
Number of Pixels in Processed Spectrum: 2048
>>>>>Begin Processed Spectral Data<<<<<
365.73	250.44
365.92	250.44
366.12	250.44
366.32	198.95
366.52	114.69
366.72	182.56
366.91	138.09
367.11	121.71
367.31	93.62
367.51	102.98
367.70	86.60
367.90	133.41
368.10	152.13
368.30	117.03
368.49	131.07
368.69	203.63
368.89	142.77
369.09	98.30
369.28	191.92
369.48	210.65
369.68	227.03
369.87	212.99
370.07	236.39
370.27	154.48
370.47	306.61
370.66	620.24
370.86	540.66
371.06	594.50
371.25	638.97
371.45	678.76
371.65	702.16
371.84	706.84
372.04	681.10
372.24	645.99
372.44	716.20
372.63	664.71
372.83	777.06
373.03	704.50
373.22	751.31
373.42	720.88
373.62	718.54
373.81	763.01
374.01	805.14
374.21	809.83
374.40	851.96
374.60	823.87
374.79	837.91
374.99	748.97
375.19	863.66
375.38	791.10
375.58	936.21
375.78	940.90
375.97	875.36
376.17	854.30
376.37	830.89
376.56	919.83
376.76	858.98
376.95	823.87
377.15	940.90
377.35	873.02
377.54	912.81
377.74	922.17
377.93	828.55
378.13	887.06
378.33	917.49
378.52	908.13
378.72	952.60
378.91	940.90
379.11	880.04
379.31	854.30
379.50	957.28
379.70	968.98
379.89	938.55
380.09	1057.92
380.28	994.73
380.48	908.13
380.68	999.41
380.87	952.60
381.07	929.19
381.26	1060.26
381.46	999.41
381.65	1060.26
381.85	992.39
382.04	1015.79
382.24	1097.71
382.43	1006.43
382.63	994.73
382.83	1011.11
383.02	1078.99
383.22	1062.60
383.41	1149.20
383.61	1064.94
383.80	1146.86
384.00	1135.16
384.19	1186.65
384.39	1088.35
384.58	1128.14
384.78	1149.20
384.97	1233.46
385.17	1137.50
385.36	1142.18
385.56	1207.72
385.75	1114.10
385.95	1158.57
386.14	1149.20
386.34	1226.44
386.53	1198.35
386.72	1214.74
386.92	1270.91
387.11	1259.21
387.31	1275.59
387.50	1254.53
387.70	1224.10
387.89	1256.87
388.09	1287.29
388.28	1320.06
388.48	1282.61
388.67	1310.70
388.86	1259.21
389.06	1331.76
389.25	1315.38
389.45	1350.49
389.64	1336.45
389.84	1418.36
390.03	1437.09
390.22	1357.51
390.42	1423.05
390.61	1387.94
390.81	1453.47
391.00	1401.98
391.19	1432.41
391.39	1404.32
391.58	1504.96
391.78	1458.15
391.97	1401.98
392.16	1418.36
392.36	1427.73
392.55	1483.90
392.75	1568.16
392.94	1572.84
393.13	1570.50
393.33	1537.73
393.52	1526.03
393.71	1708.59
393.91	1509.65
394.10	1640.72
394.29	1607.95
394.49	1563.48
394.68	1685.19
394.88	1640.72
395.07	1607.95
395.26	1769.44
395.46	1675.82
395.65	1776.47
395.84	1675.82
396.04	1818.60
396.23	1746.04
396.42	1703.91
396.62	1774.13
396.81	1741.36
397.00	1753.06
397.19	1767.10
397.39	1874.77
397.58	1839.66
397.77	1827.96
397.97	1823.28
398.16	1879.45
398.35	1930.94
398.55	1858.39
398.74	1804.55
398.93	1961.37
399.12	1886.47
399.32	1935.62
399.51	1926.26
399.70	2024.56
399.90	2024.56
400.09	2127.55
400.28	1975.41
400.47	1947.33
400.67	2071.37
400.86	2045.63
401.05	2052.65
401.24	2200.10
401.44	2132.23
401.63	2155.63
401.82	2150.95
402.01	2125.21
402.21	2125.21
402.40	2230.53
402.59	2251.60
402.78	2244.57
402.97	2228.19
403.17	2136.91
403.36	2420.11
403.55	2300.75
403.74	2267.98
403.93	2253.94
404.13	2267.98
404.32	2394.37
404.51	2359.26
404.70	2499.69
404.89	2424.80
405.09	2366.28
405.28	2389.69
405.47	2513.74
405.66	2431.82
405.85	2509.05
406.05	2422.45
406.24	2466.92
406.43	2588.63
406.62	2675.23
406.81	2717.36
407.00	2581.61
407.20	2548.84
407.39	2612.04
407.58	2708.00
407.77	2705.66
407.96	2703.32
408.15	2733.75
408.34	2813.32
408.54	2785.24
408.73	2766.51
408.92	2813.32
409.11	2789.92
409.30	2965.46
409.49	2834.39
409.68	2897.58
409.87	2911.63
410.07	3091.85
410.26	3035.67
410.45	2928.01
410.64	3164.40
410.83	3098.87
411.02	3096.53
411.21	3232.28
411.40	3178.45
411.59	3089.51
411.78	3229.94
411.98	3288.45
412.17	3311.86
412.36	3328.24
412.55	3321.22
412.74	3428.88
412.93	3447.61
413.12	3471.01
413.31	3527.19
413.50	3494.42
413.69	3562.30
413.88	3529.53
414.07	3524.85
414.26	3681.66
414.45	3625.49
414.64	3684.00
414.83	3801.03
415.02	3747.20
415.22	3894.65
415.41	3786.99
415.60	3812.73
415.79	3843.16
415.98	4079.55
416.17	4100.62
416.36	4065.51
416.55	4053.81
416.74	4126.36
416.93	4205.94
417.12	4154.45
417.31	4196.58
417.50	4273.82
417.69	4358.08
417.88	4329.99
418.07	4311.27
418.26	4411.91
418.45	4416.59
418.64	4454.04
418.83	4266.80
419.02	4320.63
419.21	4578.09
419.39	4592.13
419.58	4484.47
419.77	4578.09
419.96	4615.54
420.15	4641.28
420.34	4732.56
420.53	4547.66
420.72	4622.56
420.91	4734.90
421.10	4807.46
421.29	4685.75
421.48	4713.84
421.67	4915.12
421.86	4592.13
422.05	4678.73
422.24	4842.57
422.43	4905.76
422.61	4933.85
422.80	4933.85
422.99	4952.57
423.18	4952.57
423.37	5029.81
423.56	4896.40
423.75	4990.02
423.94	4929.17
424.13	4753.63
424.32	4807.46
424.50	4917.47
424.69	5327.06
424.88	4971.30
425.07	4917.47
425.26	4917.47
425.45	4847.25
425.64	5025.13
425.83	5046.20
426.01	5188.97
426.20	5060.24
426.39	5130.45
426.58	5118.75
426.77	4994.70
426.96	5022.79
427.15	5022.79
427.33	5172.58
427.52	5366.85
427.71	5259.18
427.90	5331.74
428.09	5387.91
428.28	5298.97
428.46	5437.06
428.65	5320.04
428.84	5476.85
429.03	5582.18
429.22	5303.65
429.40	5507.28
429.59	5659.42
429.78	5366.85
429.97	5383.23
430.16	5593.88
430.34	5710.91
430.53	5792.83
430.72	5804.53
430.91	5472.17
431.10	5542.39
431.28	5959.00
431.47	5724.95
431.66	5860.70
431.85	5820.91
432.03	6005.81
432.22	6155.61
432.41	5940.28
432.60	6029.22
432.79	5841.98
432.97	5998.79
433.16	6083.05
433.35	6033.90
433.54	6026.88
433.72	6265.61
433.91	6207.10
434.10	6101.78
434.28	6099.44
434.47	6333.49
434.66	6216.46
434.85	6340.51
435.03	6427.11
435.22	6349.87
435.41	6562.86
435.59	6352.21
435.78	6384.98
435.97	6520.73
436.16	6420.09
436.34	6511.37
436.53	6487.96
436.72	6665.85
436.90	6609.67
437.09	6752.45
437.28	6506.69
437.46	6586.27
437.65	6740.74
437.84	6689.25
438.02	6806.28
438.21	6899.90
438.40	6810.96
438.58	7148.00
438.77	7049.69
438.96	6981.82
439.14	7077.78
439.33	7162.04
439.52	7070.76
439.70	7262.68
439.89	7473.33
440.08	7208.85
440.26	7480.35
440.45	7470.99
440.63	7475.67
440.82	7517.80
441.01	7304.81
441.19	7515.46
441.38	7716.75
441.57	7763.56
441.75	7829.09
441.94	7969.52
442.12	8091.23
442.31	8018.68
442.50	8189.53
442.68	7899.31
442.87	8138.04
443.05	8175.49
443.24	8159.11
443.43	8077.19
443.61	8276.13
443.80	8463.38
443.98	8002.29
444.17	8093.57
444.35	8325.29
444.54	8498.49
444.73	8524.23
444.91	8465.72
445.10	8439.97
445.28	8320.60
445.47	8376.78
445.65	8463.38
445.84	8514.87
446.02	8475.08
446.21	8411.89
446.39	8493.80
446.58	8720.84
446.77	8629.56
446.95	8374.44
447.14	8383.80
447.32	8627.21
447.51	8468.06
447.69	8461.04
447.88	8849.57
448.06	8566.36
448.25	8765.31
448.43	8652.96
448.62	8624.87
448.80	8606.15
448.99	8720.84
449.17	8814.46
449.36	8952.55
449.54	9004.04
449.73	8898.72
449.91	8919.78
450.10	9142.13
450.28	9004.04
450.46	9128.09
450.65	8992.34
450.83	9294.27
451.02	9034.47
451.20	9062.55
451.39	9015.74
451.57	9205.33
451.76	9088.30
451.94	9383.21
452.13	9160.86
452.31	9378.53
452.49	9376.19
452.68	9355.12
452.86	9380.87
453.05	9736.63
453.23	9675.77
453.42	9369.16
453.60	9453.42
453.78	9633.64
453.97	9568.11
454.15	9540.02
454.34	9514.28
454.52	9748.33
454.70	9678.12
454.89	9774.08
455.07	9830.25
455.26	9907.49
455.44	10038.56
455.62	9900.47
455.81	9832.59
455.99	9954.30
456.17	9923.87
456.36	10190.69
456.54	10340.49
456.73	10413.04
456.91	10541.77
457.09	10427.09
457.28	10593.26
457.46	10427.09
457.64	10579.22
457.83	10441.13
458.01	10509.01
458.19	10668.16
458.38	10562.84
458.56	10810.93
458.74	10813.28
458.93	10909.24
459.11	10810.93
459.29	10621.35
459.48	10874.13
459.66	10808.59
459.84	10885.83
460.03	11145.63
460.21	10967.75
460.39	11002.86
460.57	11089.46
460.76	10991.16
460.94	11304.79
461.12	11236.91
461.31	11145.63
461.49	11410.11
461.67	11316.49
461.85	11396.07
462.04	11300.11
462.22	11351.60
462.40	11693.32
462.59	11410.11
462.77	11707.36
462.95	11875.88
463.13	11529.48
463.32	11613.74
463.50	11962.48
463.68	11896.94
463.86	11866.52
464.05	11564.59
464.23	11878.22
464.41	11756.51
464.59	11735.45
464.78	12299.52
464.96	12131.00
465.14	12152.06
465.32	12306.54
465.50	12388.46
465.69	12241.00
465.87	12217.60
466.05	12379.09
466.23	12269.09
466.41	12411.86
466.60	12828.48
466.78	12196.53
466.96	12362.71
467.14	12067.80
467.32	12252.70
467.51	12821.45
467.69	12098.23
467.87	12468.03
468.05	12484.42
468.23	12444.63
468.41	12624.85
468.60	12561.66
468.78	12767.62
468.96	12599.10
469.14	12753.58
469.32	13228.71
469.50	12599.10
469.69	12954.87
469.87	13303.60
470.05	13099.98
470.23	13114.02
470.41	13142.11
470.59	13483.83
470.77	13209.98
470.95	13523.62
471.14	13745.97
471.32	13198.28
471.50	13841.93
471.68	13839.59
471.86	13881.72
472.04	13631.28
472.22	14022.15
472.40	13905.12
472.58	14230.46
472.77	13991.72
472.95	14246.84
473.13	14764.10
473.31	14094.71
473.49	14228.12
473.67	14202.37
473.85	14672.82
474.03	14696.22
474.21	14630.69
474.39	14700.90
474.57	14839.00
474.75	15110.50
474.93	15080.07
475.12	15084.75
475.30	15246.25
475.48	15190.08
475.66	15290.72
475.84	15344.55
476.02	15480.30
476.20	15508.39
476.38	15880.53
476.56	15948.41
476.74	15950.75
476.92	15587.97
477.10	16023.31
477.28	16367.37
477.46	16212.89
477.64	16575.67
477.82	16566.31
478.00	17282.52
478.18	16758.24
478.36	17270.81
478.54	17373.80
478.72	17195.92
478.90	17635.94
479.08	17827.86
479.26	17769.35
479.44	17551.68
479.62	18033.83
479.80	18157.88
479.98	18136.81
480.16	18677.48
480.34	18457.46
480.52	18780.46
480.70	18572.15
480.88	18515.98
481.06	19066.00
481.24	18956.00
481.41	19459.21
481.59	19213.46
481.77	19747.10
481.95	19585.60
482.13	19730.72
482.31	19831.36
482.49	20327.55
482.67	20257.34
482.85	20790.98
483.03	20402.45
483.21	20739.49
483.39	21280.15
483.57	21088.23
483.74	21656.98
483.92	21458.03
484.10	21511.86
484.28	21701.45
484.46	22164.87
484.64	22487.87
484.82	22085.30
485.00	22506.59
485.18	22904.48
485.35	22946.61
485.53	22668.09
485.71	22953.63
485.89	23314.08
486.07	23611.32
486.25	23665.16
486.43	23793.89
486.61	24037.30
486.78	23831.33
486.96	24353.27
487.14	24802.66
487.32	24669.25
487.50	25310.55
487.68	24950.11
487.85	25345.66
488.03	25446.30
488.21	25727.17
488.39	25993.99
488.57	26199.96
488.75	26391.88
488.92	26824.88
489.10	27166.60
489.28	26899.78
489.46	27468.53
489.64	27459.16
489.81	28079.41
489.99	27835.99
490.17	27768.12
490.35	28400.06
490.53	28018.55
490.70	28463.25
490.88	28858.81
491.06	28877.53
491.24	29109.24
491.41	29453.30
491.59	29720.12
491.77	29123.29
491.95	29752.89
492.13	30174.19
492.30	30387.18
492.48	30188.23
492.66	30419.94
492.84	30340.36
493.01	30925.50
493.19	30841.24
493.37	31461.48
493.54	31381.90
493.72	31608.93
493.90	31644.04
494.08	31938.95
494.25	32456.21
494.43	32257.26
494.61	32858.78
494.79	32737.07
494.96	32402.38
495.14	33319.87
495.32	33322.21
495.49	33504.77
495.67	33464.98
495.85	33619.46
496.02	34120.33
496.20	34319.28
496.38	34677.38
496.55	34387.15
496.73	34806.11
496.91	34462.05
497.09	34653.97
497.26	35262.51
497.44	35264.85
497.62	35246.13
497.79	35990.42
497.97	35562.10
498.14	35747.00
498.32	36287.67
498.50	36896.20
498.67	37008.55
498.85	36423.42
499.03	37273.03
499.20	37188.77
499.38	36891.52
499.56	37043.66
499.73	37057.70
499.91	37544.53
500.08	37673.26
500.26	37464.96
500.44	37589.00
500.61	37879.23
500.79	37961.15
500.97	38377.76
501.14	38735.87
501.32	38733.53
501.49	38916.09
501.67	38918.43
501.84	38932.47
502.02	38768.63
502.20	39555.05
502.37	39622.93
502.55	39456.75
502.72	39768.04
502.90	40112.10
503.07	39683.78
503.25	39466.11
503.43	39807.83
503.60	40011.46
503.78	40580.21
503.95	40554.46
504.13	40882.14
504.30	40416.37
504.48	40950.01
504.65	41006.19
504.83	41532.81
505.01	41120.87
505.18	41509.40
505.36	42003.25
505.53	41336.20
505.71	41682.60
505.88	42457.32
506.06	41467.27
506.23	41996.23
506.41	41797.29
506.58	42473.70
506.76	42403.49
506.93	42995.64
507.11	42782.65
507.28	42731.16
507.46	42607.11
507.63	43306.93
507.81	43480.13
507.98	43243.74
508.16	43103.31
508.33	43924.83
508.50	43269.48
508.68	43945.90
508.85	44339.11
509.03	44072.29
509.20	44343.79
509.38	44680.83
509.55	44594.23
509.73	45097.44
509.90	44662.10
510.08	44706.57
510.25	44725.30
510.42	45303.41
510.60	45289.37
510.77	45448.52
510.95	45734.07
511.12	45378.31
511.30	45497.67
511.47	45717.68
511.64	45808.96
511.82	45975.14
511.99	45958.76
512.17	46227.92
512.34	45874.50
512.51	46569.64
512.69	46597.73
512.86	46567.30
513.04	46766.24
513.21	47201.58
513.38	46981.57
513.56	47199.24
513.73	47103.28
513.90	47084.56
514.08	47077.54
514.25	47428.62
514.43	47650.97
514.60	47421.59
514.77	47866.30
514.95	47988.00
515.12	47957.58
515.29	47826.51
515.47	48336.74
515.64	48336.74
515.81	47969.28
515.99	48535.69
516.16	48561.44
516.33	48648.03
516.51	48917.20
516.68	48638.67
516.85	48830.60
517.03	48685.48
517.20	49275.30
517.37	49130.19
517.54	49003.80
517.72	49186.36
517.89	49162.95
518.06	49492.97
518.24	49762.13
518.41	49488.29
518.58	49425.09
518.75	49242.53
518.93	49647.44
519.10	49577.23
519.27	49993.84
519.45	49799.58
519.62	49998.52
519.79	50234.92
519.96	50106.19
520.14	50518.12
520.31	50375.35
520.48	50569.61
520.65	50754.52
520.83	50415.14
521.00	51051.76
521.17	50483.01
521.34	50843.46
521.52	50953.46
521.69	50901.97
521.86	51063.47
522.03	51302.20
522.20	51482.42
522.38	51608.81
522.55	51412.21
522.72	51477.74
522.89	51625.20
523.07	51882.66
523.24	51868.61
523.41	51938.83
523.58	51856.91
523.75	52130.75
523.92	51985.64
524.10	52144.80
524.27	52360.12
524.44	52308.63
524.61	52341.40
524.78	52439.70
524.96	52444.38
525.13	52374.17
525.30	52811.85
525.47	52779.08
525.64	52851.64
525.81	53048.24
525.98	52790.78
526.16	52823.55
526.33	52856.32
526.50	53169.95
526.67	53031.86
526.84	53169.95
527.01	53294.00
527.18	52786.10
527.36	53228.46
527.53	53015.47
527.70	53652.10
527.87	53411.02
528.04	53539.75
528.21	53511.67
528.38	53605.29
528.55	53755.08
528.72	53474.22
528.89	53588.91
529.07	53485.92
529.24	53738.70
529.41	53904.88
529.58	53930.62
529.75	53951.69
529.92	54061.69
530.09	53818.28
530.26	54078.08
530.43	54241.92
530.60	53984.46
530.77	54096.80
530.94	54349.58
531.11	54192.76
531.28	54401.07
531.46	54391.71
531.63	54262.98
531.80	54321.49
531.97	54536.82
532.14	54829.39
532.31	54408.09
532.48	54775.56
532.65	54953.44
532.82	54475.97
532.99	55014.29
533.16	54693.64
533.33	55042.38
533.50	55124.30
533.67	55077.49
533.84	54883.22
534.01	55180.47
534.18	55124.30
534.35	55473.04
534.52	55409.84
534.69	55414.52
534.86	55320.90
535.03	55388.78
535.20	55201.53
535.37	55449.63
535.54	55395.80
535.71	55168.77
535.88	55454.31
536.05	55650.92
536.22	55753.90
536.38	55824.12
536.55	55845.18
536.72	55655.60
536.89	55655.60
537.06	55632.19
537.23	55838.16
537.40	55725.81
537.57	56058.17
537.74	55870.93
537.91	56004.34
538.08	56341.38
538.25	55800.71
538.42	56119.02
538.59	56392.87
538.75	55948.17
538.92	56313.29
539.09	56296.91
539.26	56275.84
539.43	56261.80
539.60	56357.76
539.77	56252.44
539.94	56753.31
540.11	56575.43
540.28	56493.51
540.44	56573.09
540.61	56425.64
540.78	56292.22
540.95	56516.92
541.12	56495.85
541.29	56638.62
541.46	56598.83
541.62	56697.14
541.79	56779.06
541.96	56657.35
542.13	56591.81
542.30	56755.65
542.47	56856.29
542.63	56992.04
542.80	57141.84
542.97	57158.22
543.14	57380.57
543.31	57399.30
543.48	57474.20
543.64	57556.11
543.81	57439.09
543.98	57422.70
544.15	57609.95
544.32	57471.85
544.48	57623.99
544.65	57478.88
544.82	57530.37
544.99	57521.01
545.16	57673.14
545.32	57387.60
545.49	57666.12
545.66	57729.31
545.83	57815.91
546.00	57841.66
546.16	57705.91
546.33	57954.00
546.50	57785.49
546.67	57918.90
546.83	57577.18
547.00	58054.65
547.17	58014.86
547.34	57841.66
547.50	57968.05
547.67	58176.36
547.84	58185.72
548.00	58190.40
548.17	58415.09
548.34	58185.72
548.51	58433.81
548.67	58438.50
548.84	58344.87
549.01	58248.91
549.18	58302.74
549.34	58342.53
549.51	58581.27
549.68	58588.29
549.84	58712.34
550.01	58576.59
550.18	58618.72
550.34	58585.95
550.51	58489.99
550.68	58564.88
550.84	58520.41
551.01	58796.60
551.18	58763.83
551.34	58784.90
551.51	58686.59
551.68	58742.77
551.84	58728.72
552.01	58382.32
552.18	58780.21
552.34	58869.15
552.51	59021.29
552.68	58700.64
552.84	58805.96
553.01	59138.32
553.18	58915.96
553.34	58946.39
553.51	58927.67
553.67	59030.65
553.84	59292.79
554.01	59070.44
554.17	59419.18
554.34	59283.43
554.51	59135.98
554.67	59140.66
554.84	59098.53
555.00	59245.98
555.17	58960.44
555.33	59014.27
555.50	59093.85
555.67	59093.85
555.83	59302.15
556.00	59306.83
556.16	59568.97
556.33	59295.13
556.50	59465.99
556.66	59419.18
556.83	59257.68
556.99	59662.60
557.16	59381.73
557.32	59433.22
557.49	59702.38
557.65	59451.95
557.82	59391.09
557.98	59686.00
558.15	59690.68
558.32	59636.85
558.48	59543.23
558.65	59660.26
558.81	59693.02
558.98	59774.94
559.14	59688.34
559.31	59992.61
559.47	59845.16
559.64	59856.86
559.80	59840.48
559.97	59866.22
560.13	59632.17
560.30	59774.94
560.46	59901.33
560.63	60016.02
560.79	59999.63
560.96	59934.10
561.12	60039.42
561.29	59999.63
561.45	60065.17
561.61	59807.71
561.78	59842.82
561.94	59938.78
562.11	60006.65
562.27	60030.06
562.44	60193.90
562.60	60184.54
562.77	60079.21
562.93	59980.91
563.10	60020.70
563.26	59877.93
563.42	60374.12
563.59	60210.28
563.75	60243.05
563.92	60055.81
564.08	60371.78
564.24	60219.64
564.41	60324.97
564.57	60371.78
564.74	60299.22
564.90	60425.61
565.07	60226.66
565.23	60231.35
565.39	60196.24
565.56	60402.21
565.72	60310.92
565.88	60346.03
566.05	60301.56
566.21	60254.75
566.38	60371.78
566.54	60425.61
566.70	60346.03
566.87	60577.75
567.03	60481.78
567.19	60605.83
567.36	60650.30
567.52	60491.15
567.68	60547.32
567.85	60537.96
568.01	60561.36
568.17	60493.49
568.34	60739.24
568.50	60371.78
568.66	60516.89
568.83	60519.23
568.99	60594.13
569.15	60577.75
569.32	60420.93
569.48	60411.57
569.64	60664.35
569.81	60500.51
569.97	60507.53
570.13	60376.46
570.30	60573.06
570.46	60376.46
570.62	60537.96
570.78	60573.06
570.95	60640.94
571.11	60811.80
571.27	60568.38
571.43	60734.56
571.60	60811.80
571.76	60830.52
571.92	60786.05
572.09	60933.51
572.25	60739.24
572.41	60573.06
572.57	60769.67
572.74	60882.02
572.90	60680.73
573.06	60666.69
573.22	60783.71
573.38	60755.63
573.55	60795.42
573.71	61144.16
573.87	60816.48
574.03	60889.04
574.20	60886.70
574.36	60853.93
574.52	60767.33
574.68	60954.57
574.84	60898.40
575.01	60959.25
575.17	60898.40
575.33	60743.92
575.49	60767.33
575.65	60779.03
575.82	60846.91
575.98	60933.51
576.14	61113.73
576.30	61003.72
576.46	60807.12
576.62	60872.65
576.79	61029.47
576.95	60818.82
577.11	60891.38
577.27	60985.00
577.43	60910.10
577.59	60872.65
577.75	61045.85
577.92	60851.59
578.08	60786.05
578.24	61010.74
578.40	60919.46
578.56	61055.21
578.72	61001.38
578.88	61106.71
579.04	60977.98
579.21	61144.16
579.37	61059.90
579.53	61118.41
579.69	60741.58
579.85	60898.40
580.01	61120.75
580.17	61020.11
580.33	60940.53
580.49	61048.19
580.65	61048.19
580.82	60947.55
580.98	60905.42
581.14	60767.33
581.30	61186.28
581.46	61197.99
581.62	60931.17
581.78	60842.23
581.94	61148.84
582.10	60933.51
582.26	61209.69
582.42	60959.25
582.58	60954.57
582.74	60992.02
582.90	61022.45
583.06	60985.00
583.22	60968.61
583.38	61186.28
583.54	60994.36
583.70	61195.65
583.86	61146.50
584.02	61036.49
584.18	61165.22
584.34	61130.11
584.50	60996.70
584.66	61228.41
584.82	61006.06
584.98	61233.10
585.14	61237.78
585.30	60952.23
585.46	61130.11
585.62	61120.75
585.78	61357.14
585.94	60968.61
586.10	61106.71
586.26	61113.73
586.42	61038.83
586.58	61317.35
586.74	61148.84
586.90	61249.48
587.06	61186.28
587.22	61207.35
587.38	61235.44
587.54	61223.73
587.70	61385.23
587.86	61085.64
588.02	61008.40
588.18	61396.93
588.34	61141.81
588.49	61123.09
