SpectraSuite Data File
++++++++++++++++++++++++++++++++++++
Date: Fri Oct 25 11:26:16 EDT 2013
User: price-jones
Dark Spectrum Present: No
Reference Spectrum Present: No
Number of Sampled Component Spectra: 1
Spectrometers: USB2+H05261
Integration Time (usec): 100000 (USB2+H05261)
Spectra Averaged: 1 (USB2+H05261)
Boxcar Smoothing: 0 (USB2+H05261)
Correct for Electrical Dark: No (USB2+H05261)
Strobe/Lamp Enabled: No (USB2+H05261)
Correct for Detector Non-linearity: No (USB2+H05261)
Correct for Stray Light: No (USB2+H05261)
Number of Pixels in Processed Spectrum: 2048
>>>>>Begin Processed Spectral Data<<<<<
365.73	177.88
365.92	177.88
366.12	177.88
366.32	189.58
366.52	145.11
366.72	163.84
366.91	128.73
367.11	133.41
367.31	74.90
367.51	154.48
367.70	161.50
367.90	114.69
368.10	100.64
368.30	161.50
368.49	154.48
368.69	161.50
368.89	124.05
369.09	182.56
369.28	121.71
369.48	159.16
369.68	168.52
369.87	145.11
370.07	245.76
370.27	276.18
370.47	337.04
370.66	610.88
370.86	667.05
371.06	620.24
371.25	688.12
371.45	704.50
371.65	695.14
371.84	650.67
372.04	702.16
372.24	706.84
372.44	702.16
372.63	774.72
372.83	760.67
373.03	676.41
373.22	725.57
373.42	763.01
373.62	807.48
373.81	844.93
374.01	748.97
374.21	800.46
374.40	800.46
374.60	849.61
374.79	781.74
374.99	915.15
375.19	854.30
375.38	858.98
375.58	807.48
375.78	866.00
375.97	763.01
376.17	908.13
376.37	816.85
376.56	968.98
376.76	884.72
376.95	774.72
377.15	929.19
377.35	898.77
377.54	947.92
377.74	924.51
377.93	840.25
378.13	985.37
378.33	990.05
378.52	926.85
378.72	947.92
378.91	978.34
379.11	983.02
379.31	882.38
379.50	1011.11
379.70	980.68
379.89	957.28
380.09	943.24
380.28	980.68
380.48	987.71
380.68	947.92
380.87	943.24
381.07	1043.88
381.26	1013.45
381.46	1018.13
381.65	1041.54
381.85	1020.47
382.04	976.00
382.24	1032.18
382.43	1086.01
382.63	1020.47
382.83	1090.69
383.02	1121.12
383.22	1123.46
383.41	1074.31
383.61	1123.46
383.80	1118.78
384.00	1053.24
384.19	1153.88
384.39	1090.69
384.58	1062.60
384.78	1135.16
384.97	1200.69
385.17	1205.38
385.36	1121.12
385.56	1165.59
385.75	1156.22
385.95	1170.27
386.14	1245.16
386.34	1256.87
386.53	1125.80
386.72	1137.50
386.92	1282.61
387.11	1320.06
387.31	1247.51
387.50	1270.91
387.70	1259.21
387.89	1196.01
388.09	1294.32
388.28	1306.02
388.48	1268.57
388.67	1315.38
388.86	1315.38
389.06	1280.27
389.25	1289.64
389.45	1310.70
389.64	1348.15
389.84	1397.30
390.03	1437.09
390.22	1331.76
390.42	1357.51
390.61	1324.74
390.81	1301.34
391.00	1504.96
391.19	1497.94
391.39	1306.02
391.58	1444.11
391.78	1483.90
391.97	1448.79
392.16	1460.49
392.36	1437.09
392.55	1481.56
392.75	1607.95
392.94	1481.56
393.13	1577.52
393.33	1537.73
393.52	1598.59
393.71	1563.48
393.91	1483.90
394.10	1624.33
394.29	1621.99
394.49	1605.61
394.68	1568.16
394.88	1668.80
395.07	1631.35
395.26	1619.65
395.46	1558.80
395.65	1715.61
395.84	1741.36
396.04	1804.55
396.23	1764.76
396.42	1736.68
396.62	1818.60
396.81	1736.68
397.00	1699.23
397.19	1771.79
397.39	1743.70
397.58	1788.17
397.77	1776.47
397.97	1832.64
398.16	1856.04
398.35	1928.60
398.55	1923.92
398.74	1891.15
398.93	1916.90
399.12	1961.37
399.32	1926.26
399.51	1909.88
399.70	1900.52
399.90	1973.07
400.09	1994.14
400.28	1914.56
400.47	1991.80
400.67	2022.22
400.86	1961.37
401.05	2195.42
401.24	2097.12
401.44	2087.76
401.63	2143.93
401.82	2193.08
402.01	2169.68
402.21	2104.14
402.40	2162.66
402.59	2209.47
402.78	2094.78
402.97	2160.31
403.17	2303.09
403.36	2235.21
403.55	2239.89
403.74	2286.70
403.93	2420.11
404.13	2452.88
404.32	2296.07
404.51	2296.07
404.70	2373.30
404.89	2385.01
405.09	2480.97
405.28	2387.35
405.47	2459.90
405.66	2392.03
405.85	2502.03
406.05	2572.25
406.24	2635.44
406.43	2441.18
406.62	2621.40
406.81	2548.84
407.00	2600.34
407.20	2576.93
407.39	2616.72
407.58	2752.47
407.77	2724.38
407.96	2829.71
408.15	2745.45
408.34	2808.64
408.54	2789.92
408.73	2897.58
408.92	2843.75
409.11	2967.80
409.30	2810.98
409.49	2841.41
409.68	2965.46
409.87	2862.48
410.07	2949.08
410.26	2981.84
410.45	2998.23
410.64	3056.74
410.83	3087.17
411.02	3197.17
411.21	3211.22
411.40	3180.79
411.59	3169.09
411.78	3246.32
411.98	3157.38
412.17	3248.66
412.36	3272.07
412.55	3251.00
412.74	3330.58
412.93	3445.27
413.12	3309.52
413.31	3545.91
413.50	3522.51
413.69	3442.93
413.88	3641.87
414.07	3574.00
414.26	3548.25
414.45	3667.62
414.64	3578.68
414.83	3740.18
415.02	3726.13
415.22	3693.37
415.41	3812.73
415.60	3791.67
415.79	3988.27
415.98	3955.51
416.17	4023.38
416.36	3922.74
416.55	4065.51
416.74	4142.75
416.93	4011.68
417.12	4198.92
417.31	4100.62
417.50	4161.47
417.69	4126.36
417.88	4198.92
418.07	4299.56
418.26	4376.80
418.45	4416.59
418.64	4355.74
418.83	4514.89
419.02	4341.69
419.21	4383.82
419.39	4505.53
419.58	4376.80
419.77	4510.21
419.96	4603.83
420.15	4568.73
420.34	4557.02
420.53	4447.02
420.72	4662.35
420.91	4723.20
421.10	4695.11
421.29	4695.11
421.48	4781.71
421.67	4770.01
421.86	4671.71
422.05	4706.82
422.24	4671.71
422.43	4858.95
422.61	4875.34
422.80	4952.57
422.99	4875.34
423.18	4922.15
423.37	4807.46
423.56	4882.36
423.75	4999.38
423.94	4844.91
424.13	4547.66
424.32	4760.65
424.50	5071.94
424.69	5123.43
424.88	5156.20
425.07	5022.79
425.26	4919.81
425.45	4812.14
425.64	4975.98
425.83	5036.83
426.01	4898.74
426.20	5135.14
426.39	5188.97
426.58	4933.85
426.77	5090.67
426.96	5139.82
427.15	5116.41
427.33	5109.39
427.52	5109.39
427.71	5238.12
427.90	5336.42
428.09	5195.99
428.28	5376.21
428.46	5214.71
428.65	5205.35
428.84	5577.50
429.03	5516.64
429.22	5252.16
429.40	5460.47
429.59	5497.92
429.78	5188.97
429.97	5289.61
430.16	5380.89
430.34	5518.98
430.53	5577.50
430.72	5561.11
430.91	5575.16
431.10	5540.05
431.28	5720.27
431.47	5804.53
431.66	5750.70
431.85	5626.65
432.03	5816.23
432.22	5881.77
432.41	5839.64
432.60	5837.30
432.79	5753.04
432.97	5951.98
433.16	5973.05
433.35	5849.00
433.54	6017.52
433.72	6272.64
433.91	5994.11
434.10	6078.37
434.28	6080.71
434.47	6106.46
434.66	6277.32
434.85	6321.79
435.03	6181.35
435.22	6221.14
435.41	6406.05
435.59	6307.74
435.78	6469.24
435.97	6464.56
436.16	6399.02
436.34	6375.62
436.53	6490.31
436.72	6630.74
436.90	6452.86
437.09	6623.72
437.28	6436.47
437.46	6546.48
437.65	6841.39
437.84	6848.41
438.02	6670.53
438.21	6562.86
438.40	6637.76
438.58	6853.09
438.77	7148.00
438.96	6911.60
439.14	7124.59
439.33	7068.42
439.52	7075.44
439.70	7063.74
439.89	7351.62
440.08	7393.75
440.26	7309.49
440.45	7332.90
440.63	7527.16
440.82	7529.50
441.01	7520.14
441.19	7588.02
441.38	7730.79
441.57	7595.04
441.75	7723.77
441.94	7793.98
442.12	7819.73
442.31	8049.10
442.50	8196.56
442.68	7953.14
442.87	8025.70
443.05	7913.35
443.24	8269.11
443.43	8170.81
443.61	8114.64
443.80	8549.98
443.98	7896.97
444.17	7728.45
444.35	8163.79
444.54	8442.31
444.73	8262.09
444.91	8311.24
445.10	8397.84
445.28	8264.43
445.47	8138.04
445.65	8250.39
445.84	8500.83
446.02	8390.82
446.21	8432.95
446.39	8222.30
446.58	8549.98
446.77	8313.58
446.95	8023.36
447.14	8369.76
447.32	8585.08
447.51	8514.87
447.69	8428.27
447.88	8334.65
448.06	8678.71
448.25	8327.63
448.43	8482.10
448.62	8454.02
448.80	8287.84
448.99	8493.80
449.17	8636.58
449.36	8692.75
449.54	8713.81
449.73	8891.70
449.91	9001.70
450.10	8833.18
450.28	9020.42
450.46	8961.91
450.65	9064.89
450.83	8830.84
451.02	8964.25
451.20	8994.68
451.39	9100.00
451.57	9020.42
451.76	9111.71
451.94	9245.12
452.13	9406.61
452.31	9242.78
452.49	9165.54
452.68	9439.38
452.86	9205.33
453.05	9212.35
453.23	9446.40
453.42	9359.80
453.60	9366.82
453.78	9453.42
453.97	9427.68
454.15	9479.17
454.34	9619.60
454.52	9652.37
454.70	9771.74
454.89	9703.86
455.07	9760.03
455.26	9921.53
455.44	10024.51
455.62	9743.65
455.81	9844.29
455.99	9902.81
456.17	10003.45
456.36	9898.13
456.54	10068.98
456.73	10340.49
456.91	10338.15
457.09	10436.45
457.28	10424.75
457.46	10134.52
457.64	10501.98
457.83	10298.36
458.01	10115.80
458.19	10834.34
458.38	10452.83
458.56	10672.84
458.74	10565.18
458.93	10548.79
459.11	10717.31
459.29	10642.42
459.48	10630.71
459.66	10539.43
459.84	10836.68
460.03	11033.29
460.21	10918.60
460.39	10778.17
460.57	10876.47
460.76	11257.98
460.94	11089.46
461.12	11171.38
461.31	11047.33
461.49	10944.34
461.67	11183.08
461.85	11325.85
462.04	11206.48
462.22	11763.53
462.40	11676.93
462.59	11367.98
462.77	11269.68
462.95	11545.86
463.13	11555.22
463.32	11520.12
463.50	11674.59
463.68	11700.34
463.86	11889.92
464.05	11527.14
464.23	11438.20
464.41	11887.58
464.59	11449.90
464.78	12180.15
464.96	11847.79
465.14	11941.41
465.32	11861.84
465.50	11992.90
465.69	11946.09
465.87	12025.67
466.05	12006.95
466.23	12095.89
466.41	12126.32
466.60	12456.33
466.78	12236.32
466.96	12095.89
467.14	12283.13
467.32	12217.60
467.51	12594.42
467.69	12411.86
467.87	12423.56
468.05	12446.97
468.23	12325.26
468.41	12432.93
468.60	12372.07
468.78	12657.62
468.96	12470.37
469.14	12650.60
469.32	12751.24
469.50	12549.95
469.69	12901.03
469.87	13221.69
470.05	12898.69
470.23	13217.01
470.41	12931.46
470.59	13188.92
470.77	13090.62
470.95	13142.11
471.14	13420.63
471.32	13088.28
471.50	13460.42
471.68	13394.89
471.86	13650.00
472.04	13547.02
472.22	14218.75
472.40	13703.84
472.58	13781.07
472.77	13762.35
472.95	13912.14
473.13	14427.06
473.31	13994.06
473.49	13710.86
473.67	14174.28
473.85	14293.65
474.03	14721.97
474.21	14478.55
474.39	14525.36
474.57	14621.33
474.75	14766.44
474.93	14752.40
475.12	14794.53
475.30	15220.50
475.48	14909.21
475.66	15033.26
475.84	15129.22
476.02	15356.25
476.20	15171.35
476.38	15726.06
476.56	15754.15
476.74	15824.36
476.92	15627.76
477.10	15456.90
477.28	16109.91
477.46	16203.53
477.64	15960.11
477.82	16259.70
478.00	17135.06
478.18	16627.17
478.36	16865.90
478.54	16966.54
478.72	17008.67
478.90	17336.35
479.08	17572.74
479.26	17561.04
479.44	17554.02
479.62	17675.73
479.80	17767.01
479.98	18054.89
480.16	18160.22
480.34	18408.31
480.52	18541.72
480.70	18483.21
480.88	18155.54
481.06	18373.21
481.24	18499.59
481.41	19023.87
481.59	19187.71
481.77	19386.66
481.95	19300.06
482.13	19597.31
482.31	19538.79
482.49	19999.88
482.67	20334.57
482.85	20210.53
483.03	20460.96
483.21	20737.15
483.39	20996.95
483.57	20669.27
483.74	20957.16
483.92	21436.97
484.10	21245.04
484.28	21788.05
484.46	21741.24
484.64	22019.76
484.82	21884.01
485.00	22298.28
485.18	22513.61
485.35	22843.63
485.53	22644.68
485.71	22677.45
485.89	23487.28
486.07	23302.37
486.25	23103.43
486.43	23283.65
486.61	23625.37
486.78	23967.09
486.96	24194.12
487.14	24596.69
487.32	24620.10
487.50	24568.60
487.68	24858.83
487.85	24947.77
488.03	25240.34
488.21	25584.40
488.39	25862.92
488.57	25954.20
488.75	25818.45
488.92	26031.44
489.10	26707.85
489.28	26909.14
489.46	26644.66
489.64	26913.82
489.81	27201.71
489.99	27466.19
490.17	27843.01
490.35	27735.35
490.53	27915.57
490.70	28119.20
490.88	27889.82
491.06	28793.27
491.24	28753.48
491.41	29003.92
491.59	29010.94
491.77	29261.38
491.95	29535.22
492.13	29825.45
492.30	30045.46
492.48	29979.92
492.66	29853.53
492.84	30274.83
493.01	30522.93
493.19	30356.75
493.37	30857.62
493.54	30995.71
493.72	31505.95
493.90	31281.26
494.08	31770.43
494.25	31798.52
494.43	32086.40
494.61	32041.93
494.79	32400.04
494.96	32315.78
495.14	32636.43
495.32	32486.64
495.49	33088.15
495.67	33046.02
495.85	33249.65
496.02	33684.99
496.20	34019.69
496.38	33979.90
496.55	33963.51
496.73	34569.71
496.91	34078.20
497.09	34391.83
497.26	34927.81
497.44	34916.11
497.62	35021.44
497.79	35613.59
497.97	35040.16
498.14	35754.02
498.32	35828.92
498.50	35833.60
498.67	36350.86
498.85	35971.69
499.03	36753.43
499.20	36648.11
499.38	36671.51
499.56	36917.27
499.73	36931.31
499.91	37308.14
500.08	37373.67
500.26	36917.27
500.44	37551.56
500.61	37376.01
500.79	37303.46
500.97	37961.15
501.14	38300.53
501.32	38550.96
501.49	38433.94
501.67	38773.31
501.84	38759.27
502.02	38646.93
502.20	38937.15
502.37	38916.09
502.55	38782.68
502.72	39388.88
502.90	39178.23
503.07	39271.85
503.25	39503.56
503.43	39325.68
503.60	39817.19
503.78	39702.51
503.95	39765.70
504.13	40065.29
504.30	40399.99
504.48	40030.18
504.65	40573.19
504.83	40439.78
505.01	41055.34
505.18	41130.23
505.36	41453.23
505.53	41188.75
505.71	41734.09
505.88	41319.82
506.06	41525.78
506.23	41518.76
506.41	41654.51
506.58	42284.12
506.76	41996.23
506.93	42300.50
507.11	41923.68
507.28	42337.95
507.46	42373.06
507.63	42700.73
507.81	43068.20
507.98	42618.81
508.16	43047.13
508.33	43096.28
508.50	43349.06
508.68	43227.35
508.85	43761.00
509.03	43435.66
509.20	44018.46
509.38	43775.04
509.55	44116.76
509.73	44315.70
509.90	44470.18
510.08	44395.28
510.25	44690.19
510.42	44718.28
510.60	44601.25
510.77	44673.81
510.95	45333.84
511.12	45083.40
511.30	45059.99
511.47	45492.99
511.64	45287.03
511.82	45741.09
511.99	45071.70
512.17	45551.51
512.34	45729.39
512.51	45886.20
512.69	45745.77
512.86	46146.00
513.04	46635.17
513.21	46667.94
513.38	46429.21
513.56	46677.30
513.73	46527.51
513.90	46878.59
514.08	46536.87
514.25	47021.36
514.43	47323.29
514.60	47206.26
514.77	47019.02
514.95	47395.85
515.12	47613.52
515.29	47426.28
515.47	47786.72
515.64	47849.91
515.81	47555.00
515.99	48217.38
516.16	48109.71
516.33	48257.17
516.51	48453.77
516.68	48083.97
516.85	48058.22
517.03	48493.56
517.20	48631.65
517.37	48865.70
517.54	48332.06
517.72	48594.20
517.89	48825.92
518.06	49352.54
518.24	48767.40
518.41	49144.23
518.58	49099.76
518.75	49127.84
518.93	49179.34
519.10	48835.28
519.27	49579.57
519.45	49462.54
519.62	49434.45
519.79	49689.57
519.96	49504.67
520.14	50185.77
520.31	49918.95
520.48	50061.72
520.65	49916.61
520.83	50260.66
521.00	50349.60
521.17	50564.93
521.34	50342.58
521.52	50707.71
521.69	50487.70
521.86	50820.05
522.03	50738.13
522.20	51306.88
522.38	50995.59
522.55	51021.34
522.72	50883.25
522.89	51203.90
523.07	51379.44
523.24	51288.16
523.41	51688.39
523.58	51119.64
523.75	51554.98
523.92	51597.11
524.10	51629.88
524.27	51772.65
524.44	51817.12
524.61	51744.56
524.78	52048.83
524.96	52123.73
525.13	52067.56
525.30	52200.97
525.47	52282.89
525.64	52493.54
525.81	52486.51
525.98	52399.91
526.16	52236.08
526.33	52334.38
526.50	52570.77
526.67	52622.26
526.84	52697.16
527.01	52505.24
527.18	52722.91
527.36	52896.11
527.53	52961.64
527.70	53270.59
527.87	53069.31
528.04	52942.92
528.21	53205.06
528.38	53226.12
528.55	53392.30
528.72	53352.51
528.89	53118.46
529.07	53050.58
529.24	53202.72
529.41	53401.66
529.58	53291.66
529.75	53766.79
529.92	53385.28
530.09	53661.46
530.26	53787.85
530.43	53811.26
530.60	53708.27
530.77	53680.19
530.94	53893.18
531.11	53820.62
531.28	53918.92
531.46	54101.48
531.63	54337.88
531.80	53937.65
531.97	54307.45
532.14	54190.42
532.31	54035.95
532.48	54361.28
532.65	54447.88
532.82	54349.58
532.99	54454.90
533.16	54548.53
533.33	54590.66
533.50	54740.45
533.67	54827.05
533.84	54604.70
534.01	54539.16
534.18	54555.55
534.35	54958.12
534.52	55089.19
534.69	55196.85
534.86	55416.86
535.03	54733.43
535.20	54923.01
535.37	55255.37
535.54	55402.82
535.71	54976.84
535.88	55077.49
536.05	55344.31
536.22	55220.26
536.38	55449.63
536.55	55578.36
536.72	55407.50
536.89	55323.24
537.06	55468.36
537.23	55751.56
537.40	55377.08
537.57	55454.31
537.74	55653.26
537.91	55690.71
538.08	55908.38
538.25	55416.86
538.42	55697.73
538.59	55899.01
538.75	55611.13
538.92	55922.42
539.09	56023.06
539.26	55774.97
539.43	56004.34
539.60	56210.31
539.77	56203.28
539.94	56376.48
540.11	55971.57
540.28	56247.75
540.44	56273.50
540.61	56257.12
540.78	56236.05
540.95	56175.20
541.12	56203.28
541.29	56268.82
541.46	56303.93
541.62	56437.34
541.79	56715.86
541.96	56444.36
542.13	56521.60
542.30	56306.27
542.47	56678.41
542.63	56882.04
542.80	56790.76
542.97	56879.70
543.14	57015.45
543.31	56931.19
543.48	57083.33
543.64	57310.36
543.81	57233.12
543.98	56970.98
544.15	57073.96
544.32	57183.97
544.48	57403.98
544.65	57291.63
544.82	57340.78
544.99	57158.22
545.16	57186.31
545.32	57258.87
545.49	57422.70
545.66	57528.03
545.83	57471.85
546.00	57605.26
546.16	57221.42
546.33	57481.22
546.50	57502.28
546.67	57453.13
546.83	57169.93
547.00	57598.24
547.17	57558.45
547.34	57553.77
547.50	57722.29
547.67	57996.13
547.84	57930.60
548.00	57984.43
548.17	58010.18
548.34	57935.28
548.51	58129.54
548.67	57965.71
548.84	58007.84
549.01	57855.70
549.18	57916.56
549.34	57930.60
549.51	58108.48
549.68	58284.02
549.84	58218.49
550.01	58335.51
550.18	58075.71
550.34	58216.14
550.51	58239.55
550.68	58312.11
550.84	58099.12
551.01	58312.11
551.18	58321.47
551.34	58419.77
551.51	58497.01
551.68	58431.47
551.84	58408.07
552.01	58255.93
552.18	58387.00
552.34	58251.25
552.51	58590.63
552.68	58305.09
552.84	58592.97
553.01	58852.77
553.18	58585.95
553.34	58862.13
553.51	58599.99
553.67	58674.89
553.84	58812.98
554.01	58808.30
554.17	58951.07
554.34	59002.56
554.51	58958.09
554.67	58836.39
554.84	58773.19
555.00	59000.22
555.17	58754.47
555.33	59030.65
555.50	58731.06
555.67	58939.37
555.83	58930.01
556.00	58773.19
556.16	59018.95
556.33	59079.80
556.50	58946.39
556.66	59339.60
556.83	59025.97
556.99	59199.17
557.16	59189.81
557.32	59327.90
557.49	59470.67
557.65	59241.30
557.82	59147.68
557.98	59334.92
558.15	59229.60
558.32	59444.93
558.48	59121.93
558.65	59288.11
558.81	59409.82
558.98	59159.38
559.14	59421.52
559.31	59414.50
559.47	59437.90
559.64	59564.29
559.80	59465.99
559.97	59494.08
560.13	59454.29
560.30	59473.01
560.46	59522.16
560.63	59707.07
560.79	59702.38
560.96	59620.47
561.12	59592.38
561.29	59700.04
561.45	59678.98
561.61	59842.82
561.78	59639.19
561.94	59756.22
562.11	59704.73
562.27	59585.36
562.44	59765.58
562.60	59985.59
562.77	59884.95
562.93	60006.65
563.10	59955.16
563.26	59592.38
563.42	60072.19
563.59	59887.29
563.75	59842.82
563.92	59772.60
564.08	59978.57
564.24	60037.08
564.41	60006.65
564.57	59875.58
564.74	60032.40
564.90	59973.89
565.07	60058.15
565.23	59856.86
565.39	59971.55
565.56	60193.90
565.72	59994.95
565.88	60147.09
566.05	59957.50
566.21	60083.89
566.38	60020.70
566.54	60121.34
566.70	60247.73
566.87	60123.68
567.03	59880.27
567.19	60252.41
567.36	60081.55
567.52	60062.83
567.68	60240.71
567.85	60343.69
568.01	60259.43
568.17	59994.95
568.34	60397.52
568.50	60250.07
568.66	60016.02
568.83	60179.85
568.99	60240.71
569.15	60303.90
569.32	60317.95
569.48	60250.07
569.64	60334.33
569.81	60200.92
569.97	60121.34
570.13	60278.16
570.30	60416.25
570.46	60563.70
570.62	60360.08
570.78	60430.29
570.95	60221.98
571.11	60568.38
571.27	60317.95
571.43	60397.52
571.60	60512.21
571.76	60399.86
571.92	60570.72
572.09	60458.38
572.25	60418.59
572.41	60336.67
572.57	60275.82
572.74	60750.94
572.90	60257.09
573.06	60495.83
573.22	60430.29
573.38	60596.47
573.55	60441.99
573.71	60823.50
573.87	60460.72
574.03	60341.35
574.20	60584.77
574.36	60460.72
574.52	60601.15
574.68	60631.58
574.84	60809.46
575.01	60772.01
575.17	60659.66
575.33	60418.59
575.49	60470.08
575.65	60570.72
575.82	60748.60
575.98	60631.58
576.14	60776.69
576.30	60718.18
576.46	60587.11
576.62	60463.06
576.79	60601.15
576.95	60397.52
577.11	60631.58
577.27	60701.79
577.43	60814.14
577.59	60636.26
577.75	60570.72
577.92	60633.92
578.08	60619.88
578.24	60800.10
578.40	60863.29
578.56	60896.06
578.72	60701.79
578.88	60914.78
579.04	60879.67
579.21	60783.71
579.37	60999.04
579.53	60788.39
579.69	60697.11
579.85	60404.55
580.01	60631.58
580.17	60657.32
580.33	60924.14
580.49	60645.62
580.65	60638.60
580.82	60708.82
580.98	60657.32
581.14	60706.47
581.30	60781.37
581.46	60755.63
581.62	60788.39
581.78	60601.15
581.94	60645.62
582.10	60762.65
582.26	60788.39
582.42	60739.24
582.58	60830.52
582.74	60772.01
582.90	60638.60
583.06	60767.33
583.22	60568.38
583.38	60952.23
583.54	60853.93
583.70	60678.39
583.86	60837.54
584.02	60821.16
584.18	61059.90
584.34	60968.61
584.50	60816.48
584.66	60713.50
584.82	60713.50
584.98	60690.09
585.14	61052.87
585.30	60846.91
585.46	61041.17
585.62	60638.60
585.78	60884.36
585.94	60624.56
586.10	60886.70
586.26	60903.08
586.42	60851.59
586.58	61001.38
586.74	60874.99
586.90	60917.12
587.06	60882.02
587.22	60992.02
587.38	60697.11
587.54	60905.42
587.70	60968.61
587.86	60879.67
588.02	60659.66
588.18	61036.49
588.34	60722.86
588.49	60795.42
