SpectraSuite Data File
++++++++++++++++++++++++++++++++++++
Date: Fri Oct 25 11:23:05 EDT 2013
User: price-jones
Dark Spectrum Present: No
Reference Spectrum Present: No
Number of Sampled Component Spectra: 1
Spectrometers: USB2+H05261
Integration Time (usec): 100000 (USB2+H05261)
Spectra Averaged: 1 (USB2+H05261)
Boxcar Smoothing: 0 (USB2+H05261)
Correct for Electrical Dark: No (USB2+H05261)
Strobe/Lamp Enabled: No (USB2+H05261)
Correct for Detector Non-linearity: No (USB2+H05261)
Correct for Stray Light: No (USB2+H05261)
Number of Pixels in Processed Spectrum: 2048
>>>>>Begin Processed Spectral Data<<<<<
365.73	205.97
365.92	205.97
366.12	205.97
366.32	187.24
366.52	37.45
366.72	159.16
366.91	91.28
367.11	161.50
367.31	88.94
367.51	67.88
367.70	147.45
367.90	142.77
368.10	81.92
368.30	140.43
368.49	133.41
368.69	168.52
368.89	180.22
369.09	175.54
369.28	220.01
369.48	133.41
369.68	159.16
369.87	161.50
370.07	131.07
370.27	220.01
370.47	311.29
370.66	573.43
370.86	617.90
371.06	706.84
371.25	681.10
371.45	594.50
371.65	699.82
371.84	713.86
372.04	692.80
372.24	690.46
372.44	702.16
372.63	786.42
372.83	720.88
373.03	688.12
373.22	678.76
373.42	823.87
373.62	830.89
373.81	840.25
374.01	821.53
374.21	765.36
374.40	833.23
374.60	866.00
374.79	837.91
374.99	734.93
375.19	791.10
375.38	821.53
375.58	739.61
375.78	826.21
375.97	800.46
376.17	950.26
376.37	844.93
376.56	840.25
376.76	889.40
376.95	875.36
377.15	926.85
377.35	875.36
377.54	828.55
377.74	926.85
377.93	910.47
378.13	901.11
378.33	856.64
378.52	889.40
378.72	964.30
378.91	931.53
379.11	959.62
379.31	926.85
379.50	912.81
379.70	1013.45
379.89	1001.75
380.09	1032.18
380.28	1055.58
380.48	1013.45
380.68	983.02
380.87	961.96
381.07	1032.18
381.26	1020.47
381.46	964.30
381.65	943.24
381.85	990.05
382.04	1039.20
382.24	1057.92
382.43	1055.58
382.63	1041.54
382.83	1022.81
383.02	1153.88
383.22	1107.07
383.41	1118.78
383.61	1090.69
383.80	1158.57
384.00	1200.69
384.19	1151.54
384.39	1104.73
384.58	1046.22
384.78	1186.65
384.97	1191.33
385.17	1238.14
385.36	1233.46
385.56	1231.12
385.75	1179.63
385.95	1146.86
386.14	1177.29
386.34	1212.40
386.53	1238.14
386.72	1259.21
386.92	1313.04
387.11	1207.72
387.31	1210.06
387.50	1224.10
387.70	1135.16
387.89	1210.06
388.09	1242.82
388.28	1247.51
388.48	1270.91
388.67	1270.91
388.86	1263.89
389.06	1355.17
389.25	1392.62
389.45	1313.04
389.64	1317.72
389.84	1315.38
390.03	1394.96
390.22	1474.54
390.42	1373.89
390.61	1324.74
390.81	1460.49
391.00	1306.02
391.19	1460.49
391.39	1385.60
391.58	1406.66
391.78	1481.56
391.97	1547.09
392.16	1437.09
392.36	1516.67
392.55	1535.39
392.75	1556.46
392.94	1526.03
393.13	1495.60
393.33	1469.86
393.52	1600.93
393.71	1607.95
393.91	1572.84
394.10	1610.29
394.29	1575.18
394.49	1535.39
394.68	1624.33
394.88	1633.69
395.07	1687.53
395.26	1640.72
395.46	1664.12
395.65	1739.02
395.84	1678.16
396.04	1762.42
396.23	1734.34
396.42	1753.06
396.62	1739.02
396.81	1830.30
397.00	1764.76
397.19	1881.79
397.39	1692.21
397.58	1827.96
397.77	1785.83
397.97	1933.28
398.16	1809.23
398.35	1846.68
398.55	1947.33
398.74	1907.54
398.93	2087.76
399.12	1952.01
399.32	1984.77
399.51	1893.49
399.70	2036.27
399.90	1987.11
400.09	2026.90
400.28	2047.97
400.47	1977.75
400.67	2038.61
400.86	2085.42
401.05	2094.78
401.24	2099.46
401.44	2132.23
401.63	2148.61
401.82	2146.27
402.01	2165.00
402.21	2111.16
402.40	2232.87
402.59	2202.44
402.78	2232.87
402.97	2202.44
403.17	2296.07
403.36	2389.69
403.55	2399.05
403.74	2314.79
403.93	2349.90
404.13	2424.80
404.32	2370.96
404.51	2413.09
404.70	2380.32
404.89	2539.48
405.09	2504.37
405.28	2438.84
405.47	2597.99
405.66	2462.24
405.85	2569.91
406.05	2523.10
406.24	2605.02
406.43	2600.34
406.62	2696.30
406.81	2686.94
407.00	2726.72
407.20	2588.63
407.39	2642.46
407.58	2670.55
407.77	2801.62
407.96	2822.69
408.15	2757.15
408.34	2691.62
408.54	2876.52
408.73	2693.96
408.92	2839.07
409.11	2890.56
409.30	2974.82
409.49	2928.01
409.68	3005.25
409.87	2956.10
410.07	3002.91
410.26	3016.95
410.45	2967.80
410.64	3066.10
410.83	3124.62
411.02	3187.81
411.21	3183.13
411.40	3187.81
411.59	3248.66
411.78	3325.90
411.98	3129.30
412.17	3321.22
412.36	3279.09
412.55	3318.88
412.74	3445.27
412.93	3515.48
413.12	3414.84
413.31	3707.41
413.50	3431.23
413.69	3588.04
413.88	3843.16
414.07	3581.02
414.26	3721.45
414.45	3604.42
414.64	3686.34
414.83	3859.54
415.02	3810.39
415.22	3985.93
415.41	3836.14
415.60	4046.79
415.79	4028.06
415.98	4042.11
416.17	3960.19
416.36	4063.17
416.55	4056.15
416.74	4023.38
416.93	4128.70
417.12	4231.69
417.31	4126.36
417.50	4212.96
417.69	4301.90
417.88	4205.94
418.07	4297.22
418.26	4339.35
418.45	4395.53
418.64	4559.36
418.83	4367.44
419.02	4514.89
419.21	4606.17
419.39	4620.22
419.58	4517.23
419.77	4397.87
419.96	4561.70
420.15	4777.03
420.34	4634.26
420.53	4662.35
420.72	4678.73
420.91	4798.10
421.10	4873.00
421.29	4662.35
421.48	4755.97
421.67	4795.76
421.86	4741.93
422.05	4915.12
422.24	4819.16
422.43	4915.12
422.61	5006.41
422.80	4922.15
422.99	4903.42
423.18	5043.85
423.37	5032.15
423.56	4975.98
423.75	5060.24
423.94	4851.93
424.13	4657.67
424.32	4938.53
424.50	5160.88
424.69	5294.29
424.88	5130.45
425.07	5128.11
425.26	5013.43
425.45	5114.07
425.64	5006.41
425.83	5107.05
426.01	5008.75
426.20	5167.90
426.39	5163.22
426.58	4997.04
426.77	5144.50
426.96	5217.05
427.15	5280.25
427.33	5305.99
427.52	5064.92
427.71	5334.08
427.90	5320.04
428.09	5289.61
428.28	5380.89
428.46	5467.49
428.65	5308.34
428.84	5582.18
429.03	5479.19
429.22	5343.44
429.40	5540.05
429.59	5568.13
429.78	5371.53
429.97	5287.27
430.16	5563.45
430.34	5554.09
430.53	5781.12
430.72	5668.78
430.91	5699.20
431.10	5664.10
431.28	5900.49
431.47	5940.28
431.66	5928.58
431.85	5968.37
432.03	6052.63
432.22	5834.96
432.41	6015.18
432.60	6106.46
432.79	6015.18
432.97	5968.37
433.16	6015.18
433.35	6052.63
433.54	6249.23
433.72	6300.72
433.91	6073.69
434.10	6174.33
434.28	6186.04
434.47	6099.44
434.66	6480.94
434.85	6466.90
435.03	6174.33
435.22	6253.91
435.41	6349.87
435.59	6377.96
435.78	6452.86
435.97	6527.75
436.16	6314.77
436.34	6403.71
436.53	6707.98
436.72	6743.08
436.90	6719.68
437.09	6733.72
437.28	6555.84
437.46	6637.76
437.65	6740.74
437.84	6705.63
438.02	6998.20
438.21	6867.13
438.40	6853.09
438.58	7063.74
438.77	7145.66
438.96	7056.72
439.14	7248.64
439.33	7236.94
439.52	7281.41
439.70	7222.89
439.89	7499.08
440.08	7496.74
440.26	7527.16
440.45	7311.83
440.63	7599.72
440.82	7648.87
441.01	7658.23
441.19	7770.58
441.38	8009.31
441.57	7693.34
441.75	7962.50
441.94	7988.25
442.12	8109.96
442.31	8203.58
442.50	8163.79
442.68	8145.06
442.87	8081.87
443.05	8238.69
443.24	8505.51
443.43	8273.79
443.61	8180.17
443.80	8397.84
443.98	8135.70
444.17	7964.84
444.35	8257.41
444.54	8400.18
444.73	8250.39
444.91	8259.75
445.10	8561.68
445.28	8390.82
445.47	8365.07
445.65	8355.71
445.84	8290.18
446.02	8416.57
446.21	8491.46
446.39	8631.90
446.58	8734.88
446.77	8594.45
446.95	8266.77
447.14	8491.46
447.32	8596.79
447.51	8575.72
447.69	8313.58
447.88	8690.41
448.06	8517.21
448.25	8472.74
448.43	8751.26
448.62	8706.79
448.80	8540.61
448.99	8807.44
449.17	9008.72
449.36	8557.00
449.54	8842.54
449.73	8968.93
449.91	9125.75
450.10	9109.36
450.28	9092.98
450.46	9116.39
450.65	8952.55
450.83	8933.82
451.02	9132.77
451.20	9444.06
451.39	9231.07
451.57	9085.96
451.76	9184.26
451.94	9156.18
452.13	9469.81
452.31	9423.00
452.49	9444.06
452.68	9474.49
452.86	9525.98
453.05	9666.41
453.23	9540.02
453.42	9635.99
453.60	9561.09
453.78	9565.77
453.97	9568.11
454.15	9731.95
454.34	9647.69
454.52	9706.20
454.70	9797.48
454.89	9745.99
455.07	9776.42
455.26	10031.54
455.44	10092.39
455.62	9895.78
455.81	9944.94
455.99	10094.73
456.17	10267.93
456.36	10293.68
456.54	10256.23
456.73	10389.64
456.91	10621.35
457.09	10630.71
457.28	10759.44
457.46	10387.30
457.64	10640.08
457.83	10520.71
458.01	10511.35
458.19	10946.69
458.38	10752.42
458.56	10867.11
458.74	10785.19
458.93	10736.04
459.11	10810.93
459.29	10738.38
459.48	10899.87
459.66	10822.64
459.84	10920.94
460.03	11269.68
460.21	11164.36
460.39	11243.93
460.57	11159.67
460.76	11370.32
460.94	11351.60
461.12	11187.76
461.31	11250.96
461.49	11192.44
461.67	11140.95
461.85	11489.69
462.04	11466.28
462.22	11503.73
462.40	11887.58
462.59	11679.27
462.77	11496.71
462.95	11606.72
463.13	11740.13
463.32	11639.48
463.50	12056.10
463.68	11751.83
463.86	11962.48
464.05	11772.89
464.23	11822.05
464.41	12051.42
464.59	11583.31
464.78	12393.14
464.96	11868.86
465.14	12016.31
465.32	12114.61
465.50	12271.43
465.69	12372.07
465.87	12320.58
466.05	12123.98
466.23	12327.60
466.41	12414.20
466.60	12510.16
466.78	12133.34
466.96	12507.82
467.14	12294.83
467.32	12318.24
467.51	12788.69
467.69	12191.85
467.87	12542.93
468.05	12578.04
468.23	12582.72
468.41	12613.15
468.60	12919.76
468.78	12968.91
468.96	12587.40
469.14	13043.81
469.32	13163.17
469.50	12795.71
469.69	13193.60
469.87	13345.73
470.05	13268.50
470.23	13359.78
470.41	13483.83
470.59	13270.84
470.77	13530.64
470.95	13535.32
471.14	13591.49
471.32	13378.50
471.50	13891.08
471.68	13584.47
471.86	13867.67
472.04	13778.73
472.22	13907.46
472.40	13811.50
472.58	14015.13
472.77	14279.61
472.95	14178.97
473.13	14911.55
473.31	14331.10
473.49	14324.08
473.67	14310.04
473.85	14274.93
474.03	14801.55
474.21	14876.44
474.39	14841.34
474.57	14806.23
474.75	15197.10
474.93	15152.63
475.12	15115.18
475.30	15510.73
475.48	15019.22
475.66	15344.55
475.84	15356.25
476.02	15428.81
476.20	15555.20
476.38	15625.42
476.56	16156.72
476.74	15967.13
476.92	16020.97
477.10	15885.22
477.28	16231.62
477.46	16430.56
477.64	16821.43
477.82	16669.30
478.00	17261.45
478.18	17170.17
478.36	17202.94
478.54	17282.52
478.72	17649.98
478.90	17502.53
479.08	17830.20
479.26	18071.28
479.44	17881.69
479.62	18008.08
479.80	18120.43
479.98	18333.42
480.16	19154.94
480.34	18640.03
480.52	18803.86
480.70	19075.37
480.88	18679.82
481.06	19358.57
481.24	19049.62
481.41	19431.13
481.59	19658.16
481.77	19812.63
481.95	19840.72
482.13	19716.67
482.31	19847.74
482.49	20411.81
482.67	20395.43
482.85	20489.05
483.03	21067.16
483.21	21151.42
483.39	21350.37
483.57	21083.55
483.74	21247.38
483.92	21315.26
484.10	21525.91
484.28	22134.45
484.46	22094.66
484.64	22677.45
484.82	21986.99
485.00	22600.21
485.18	22827.24
485.35	23073.00
485.53	23349.18
485.71	23381.95
485.89	23613.66
486.07	23590.26
486.25	23487.28
486.43	24208.16
486.61	23962.40
486.78	24379.02
486.96	24259.65
487.14	24861.17
487.32	24896.28
487.50	25502.48
487.68	25291.83
487.85	25671.00
488.03	26052.50
488.21	25972.92
488.39	26457.42
488.57	26670.40
488.75	26817.86
488.92	26923.18
489.10	27328.10
489.28	26981.70
489.46	27365.54
489.64	27283.62
489.81	27740.03
489.99	28016.21
490.17	28016.21
490.35	28252.61
490.53	28416.44
490.70	28486.66
490.88	28563.90
491.06	29060.09
491.24	29071.79
491.41	29806.72
491.59	29542.24
491.77	29631.18
491.95	29673.31
492.13	30188.23
492.30	30515.90
492.48	30494.84
492.66	30644.63
492.84	30918.48
493.01	31314.03
493.19	30857.62
493.37	31330.41
493.54	31693.19
493.72	31709.58
493.90	31985.76
494.08	32217.47
494.25	32381.31
494.43	32348.54
494.61	32552.17
494.79	32938.36
494.96	33062.41
495.14	33364.34
495.32	33617.11
495.49	33713.08
495.67	33680.31
495.85	34029.05
496.02	34164.80
496.20	34345.02
496.38	34328.64
496.55	34649.29
496.73	35442.73
496.91	34852.92
497.09	35302.30
497.26	35440.39
497.44	35566.78
497.62	35608.91
497.79	36381.29
497.97	35814.88
498.14	36708.96
498.32	36130.85
498.50	36643.43
498.67	37163.03
498.85	37008.55
499.03	37090.47
499.20	37280.05
499.38	37338.57
499.56	37567.94
499.73	37528.15
499.91	37619.43
500.08	38122.65
500.26	38153.07
500.44	37944.76
500.61	38314.57
500.79	37935.40
500.97	38417.55
501.14	39000.35
501.32	39201.63
501.49	39049.50
501.67	38918.43
501.84	39529.31
502.02	39328.02
502.20	39269.51
502.37	40161.25
502.55	39461.43
502.72	39995.07
502.90	40268.92
503.07	40081.67
503.25	40271.26
503.43	40055.93
503.60	40767.45
503.78	40854.05
503.95	40348.50
504.13	41205.13
504.30	41319.82
504.48	41099.81
504.65	41247.26
504.83	41486.00
505.01	41633.45
505.18	42183.48
505.36	42073.47
505.53	41528.13
505.71	41979.85
505.88	42274.76
506.06	41961.12
506.23	42567.32
506.41	42218.58
506.58	42892.66
506.76	42429.23
506.93	42733.50
507.11	42749.88
507.28	42993.30
507.46	42960.53
507.63	43515.24
507.81	43632.27
507.98	43395.87
508.16	43798.44
508.33	44058.24
508.50	44098.03
508.68	43997.39
508.85	44409.32
509.03	44488.90
509.20	44765.09
509.38	44926.58
509.55	44952.33
509.73	45029.57
509.90	44994.46
510.08	44694.87
510.25	45420.44
510.42	45305.75
510.60	45368.94
510.77	45584.27
510.95	45881.52
511.12	45411.07
511.30	45584.27
511.47	45834.71
511.64	46000.89
511.82	46370.69
511.99	46326.22
512.17	46506.44
512.34	46143.66
512.51	47112.64
512.69	46916.04
512.86	46747.52
513.04	47480.11
513.21	46817.74
513.38	47105.62
513.56	47313.93
513.73	47367.76
513.90	47569.05
514.08	47292.86
514.25	47667.35
514.43	47875.66
514.60	48168.22
514.77	48011.41
514.95	48526.33
515.12	48151.84
515.29	47920.13
515.47	48189.29
515.64	48215.04
515.81	48657.40
515.99	48769.74
516.16	48825.92
516.33	48678.46
516.51	49106.78
516.68	48921.88
516.85	48559.09
517.03	49162.95
517.20	49287.00
517.37	49027.20
517.54	49177.00
517.72	49322.11
517.89	49488.29
518.06	49605.31
518.24	49680.21
518.41	49696.59
518.58	49961.08
518.75	49661.49
518.93	49975.12
519.10	49986.82
519.27	50143.64
519.45	50040.65
519.62	50050.02
519.79	50321.52
519.96	50433.86
520.14	50768.56
520.31	50319.18
520.48	50698.34
520.65	50836.44
520.83	50944.10
521.00	51213.26
521.17	50908.99
521.34	51093.89
521.52	51117.30
521.69	51253.05
521.86	51185.18
522.03	51664.99
522.20	51777.33
522.38	51744.56
522.55	52149.48
522.72	51629.88
522.89	51700.09
523.07	52399.91
523.24	52175.22
523.41	52313.31
523.58	51936.49
523.75	52257.14
523.92	52294.59
524.10	52350.76
524.27	52310.97
524.44	52626.95
524.61	52402.25
524.78	52715.89
524.96	52374.17
525.13	52823.55
525.30	52774.40
525.47	52985.05
525.64	52966.32
525.81	52999.09
525.98	53015.47
526.16	52697.16
526.33	52926.53
526.50	53455.50
526.67	53052.92
526.84	53017.82
527.01	53352.51
527.18	53247.19
527.36	53771.47
527.53	53408.68
527.70	53563.16
527.87	53549.12
528.04	53382.94
528.21	53734.02
528.38	53635.72
528.55	53897.86
528.72	53825.30
528.89	53837.00
529.07	53771.47
529.24	53696.57
529.41	53907.22
529.58	53921.26
529.75	53935.30
529.92	53890.83
530.09	54326.17
530.26	54412.77
530.43	54314.47
530.60	54059.35
530.77	54314.47
530.94	54351.92
531.11	54471.29
531.28	54604.70
531.46	54464.27
531.63	54578.95
531.80	54782.58
531.97	54752.15
532.14	54674.91
532.31	54707.68
532.48	54864.50
532.65	54894.92
532.82	54796.62
532.99	54728.75
533.16	54890.24
533.33	54845.77
533.50	55079.83
533.67	55281.11
533.84	55023.65
534.01	55274.09
534.18	55112.59
534.35	55643.90
534.52	55622.83
534.69	55557.30
534.86	55559.64
535.03	55557.30
535.20	55676.66
535.37	55632.19
535.54	55891.99
535.71	55526.87
535.88	55945.83
536.05	55835.82
536.22	55889.65
536.38	56044.13
536.55	55950.51
536.72	56062.85
536.89	55789.01
537.06	56027.74
537.23	55943.48
537.40	55875.61
537.57	55992.64
537.74	56086.26
537.91	56301.59
538.08	56224.35
538.25	56030.08
538.42	56140.09
538.59	56355.42
538.75	56133.07
538.92	56203.28
539.09	56629.26
539.26	56442.02
539.43	56004.34
539.60	56392.87
539.77	56589.47
539.94	56666.71
540.11	56619.90
540.28	56547.34
540.44	56722.88
540.61	56779.06
540.78	56743.95
540.95	56743.95
541.12	56938.21
541.29	56800.12
541.46	56933.53
541.62	56966.30
541.79	56947.57
541.96	56650.33
542.13	57076.30
542.30	57008.43
542.47	57223.76
542.63	57277.59
542.80	57382.91
542.97	57249.50
543.14	57518.67
543.31	57371.21
543.48	57448.45
543.64	57712.93
543.81	57619.31
543.98	57659.10
544.15	57640.37
544.32	57764.42
544.48	57991.45
544.65	57462.49
544.82	57794.85
544.99	57420.36
545.16	57836.98
545.32	57659.10
545.49	58010.18
545.66	57834.64
545.83	57827.62
546.00	58108.48
546.16	57986.77
546.33	57844.00
546.50	57708.25
546.67	57846.34
546.83	57719.95
547.00	57972.73
547.17	58197.42
547.34	58143.59
547.50	58232.53
547.67	58387.00
547.84	58284.02
548.00	58541.48
548.17	58574.25
548.34	58401.05
548.51	58443.18
548.67	58307.43
548.84	58351.90
549.01	58300.40
549.18	58382.32
549.34	58288.70
549.51	58752.13
549.68	58791.92
549.84	58803.62
550.01	58607.01
550.18	58592.97
550.34	58834.05
550.51	58784.90
550.68	58885.54
550.84	58454.88
551.01	58780.21
551.18	58777.87
551.34	58808.30
551.51	58871.49
551.68	58965.12
551.84	58710.00
552.01	58761.49
552.18	59002.56
552.34	58742.77
552.51	58962.78
552.68	58915.96
552.84	58876.18
553.01	59091.51
553.18	59161.72
553.34	59241.30
553.51	59040.01
553.67	59157.04
553.84	59231.94
554.01	59128.95
554.17	59398.12
554.34	59264.70
554.51	59245.98
554.67	59325.56
554.84	59288.11
555.00	59339.60
555.17	59297.47
555.33	59358.33
555.50	59271.73
555.67	59426.20
555.83	59164.06
556.00	59299.81
556.16	59718.77
556.33	59533.87
556.50	59547.91
556.66	59648.55
556.83	59412.16
556.99	59655.57
557.16	59987.93
557.32	59643.87
557.49	59800.69
557.65	59573.66
557.82	59547.91
557.98	59833.46
558.15	59686.00
558.32	59746.86
558.48	59615.79
558.65	59742.17
558.81	59749.20
558.98	59793.67
559.14	60034.74
559.31	59955.16
559.47	59955.16
559.64	60102.62
559.80	60119.00
559.97	59760.90
560.13	59950.48
560.30	59976.23
560.46	60111.98
560.63	59959.84
560.79	59964.52
560.96	60140.07
561.12	60095.60
561.29	60261.77
561.45	59985.59
561.61	60011.34
561.78	60158.79
561.94	60259.43
562.11	59854.52
562.27	60116.66
562.44	60289.86
562.60	60289.86
562.77	60163.47
562.93	60090.91
563.10	60257.09
563.26	60140.07
563.42	60406.89
563.59	60474.76
563.75	60432.63
563.92	60261.77
564.08	60217.30
564.24	60397.52
564.41	60313.26
564.57	60327.31
564.74	60589.45
564.90	60374.12
565.07	60397.52
565.23	60580.09
565.39	60395.18
565.56	60390.50
565.72	60528.59
565.88	60561.36
566.05	60500.51
566.21	60339.01
566.38	60383.48
566.54	60493.49
566.70	60544.98
566.87	60622.22
567.03	60374.12
567.19	60694.77
567.36	60720.52
567.52	60514.55
567.68	60825.84
567.85	60654.98
568.01	60498.17
568.17	60570.72
568.34	60460.72
568.50	60603.49
568.66	60685.41
568.83	60692.43
568.99	60493.49
569.15	60657.32
569.32	60566.04
569.48	60764.99
569.64	60811.80
569.81	60509.87
569.97	60704.13
570.13	60692.43
570.30	60666.69
570.46	60762.65
570.62	60905.42
570.78	60874.99
570.95	60949.89
571.11	60713.50
571.27	60671.37
571.43	60729.88
571.60	60935.85
571.76	61048.19
571.92	61125.43
572.09	60814.14
572.25	61059.90
572.41	60837.54
572.57	60823.50
572.74	61010.74
572.90	60746.26
573.06	60924.14
573.22	60697.11
573.38	60994.36
573.55	60795.42
573.71	61038.83
573.87	60982.66
574.03	60718.18
574.20	60853.93
574.36	60858.61
574.52	61118.41
574.68	61111.39
574.84	61146.50
575.01	61113.73
575.17	60987.34
575.33	60907.76
575.49	61078.62
575.65	61045.85
575.82	61001.38
575.98	61090.32
576.14	61144.16
576.30	61212.03
576.46	61027.13
576.62	61020.11
576.79	61111.39
576.95	60865.63
577.11	61162.88
577.27	61052.87
577.43	61216.71
577.59	60961.59
577.75	60989.68
577.92	60882.02
578.08	60938.19
578.24	61022.45
578.40	61144.16
578.56	61202.67
578.72	61106.71
578.88	61132.45
579.04	61137.13
579.21	61137.13
579.37	61097.34
579.53	61209.69
579.69	61109.05
579.85	61104.37
580.01	61247.14
580.17	61219.05
580.33	61249.48
580.49	61289.27
580.65	61329.06
580.82	61015.43
580.98	60973.30
581.14	60924.14
581.30	60987.34
581.46	61127.77
581.62	61263.52
581.78	61357.14
581.94	61263.52
582.10	61207.35
582.26	61197.99
582.42	61010.74
582.58	61120.75
582.74	61223.73
582.90	61209.69
583.06	61090.32
583.22	61125.43
583.38	61200.33
583.54	61549.07
583.70	61385.23
583.86	61193.31
584.02	61172.24
584.18	61446.08
584.34	61338.42
584.50	61373.53
584.66	61186.28
584.82	60963.93
584.98	61502.26
585.14	61453.11
585.30	61244.80
585.46	61219.05
585.62	61315.01
585.78	61336.08
585.94	61251.82
586.10	61256.50
586.26	61230.75
586.42	61495.24
586.58	61396.93
586.74	61506.94
586.90	61219.05
587.06	61373.53
587.22	61516.30
587.38	61298.63
587.54	61375.87
587.70	61460.13
587.86	61399.27
588.02	61354.80
588.18	61483.53
588.34	61403.95
588.49	61216.71
