SpectraSuite Data File
++++++++++++++++++++++++++++++++++++
Date: Fri Oct 25 10:43:31 EDT 2013
User: price-jones
Dark Spectrum Present: No
Reference Spectrum Present: No
Number of Sampled Component Spectra: 1
Spectrometers: USB2+H05261
Integration Time (usec): 100000 (USB2+H05261)
Spectra Averaged: 1 (USB2+H05261)
Boxcar Smoothing: 0 (USB2+H05261)
Correct for Electrical Dark: No (USB2+H05261)
Strobe/Lamp Enabled: No (USB2+H05261)
Correct for Detector Non-linearity: No (USB2+H05261)
Correct for Stray Light: No (USB2+H05261)
Number of Pixels in Processed Spectrum: 2048
>>>>>Begin Processed Spectral Data<<<<<
365.73	93.62
365.92	93.62
366.12	93.62
366.32	77.24
366.52	28.09
366.72	56.17
366.91	9.36
367.11	35.11
367.31	0.00
367.51	21.06
367.70	30.43
367.90	37.45
368.10	53.83
368.30	42.13
368.49	4.68
368.69	30.43
368.89	35.11
369.09	0.00
369.28	98.30
369.48	28.09
369.68	93.62
369.87	100.64
370.07	93.62
370.27	138.09
370.47	301.93
370.66	332.36
370.86	376.83
371.06	475.13
371.25	486.83
371.45	407.25
371.65	489.17
371.84	479.81
372.04	449.38
372.24	489.17
372.44	475.13
372.63	477.47
372.83	528.96
373.03	482.15
373.22	528.96
373.42	500.87
373.62	519.60
373.81	575.77
374.01	479.81
374.21	463.43
374.40	554.71
374.60	599.18
374.79	526.62
374.99	535.98
375.19	559.39
375.38	610.88
375.58	559.39
375.78	573.43
375.97	517.26
376.17	592.16
376.37	589.82
376.56	599.18
376.76	603.86
376.95	608.54
377.15	559.39
377.35	596.84
377.54	737.27
377.74	627.26
377.93	627.26
378.13	643.65
378.33	655.35
378.52	662.37
378.72	554.71
378.91	669.39
379.11	589.82
379.31	660.03
379.50	660.03
379.70	662.37
379.89	720.88
380.09	685.78
380.28	664.71
380.48	713.86
380.68	645.99
380.87	678.76
381.07	685.78
381.26	770.04
381.46	699.82
381.65	645.99
381.85	739.61
382.04	688.12
382.24	760.67
382.43	697.48
382.63	634.29
382.83	678.76
383.02	734.93
383.22	713.86
383.41	763.01
383.61	699.82
383.80	770.04
384.00	725.57
384.19	760.67
384.39	896.43
384.58	765.36
384.78	772.38
384.97	798.12
385.17	758.33
385.36	805.14
385.56	751.31
385.75	898.77
385.95	863.66
386.14	875.36
386.34	821.53
386.53	786.42
386.72	891.74
386.92	936.21
387.11	854.30
387.31	816.85
387.50	894.08
387.70	828.55
387.89	821.53
388.09	802.80
388.28	912.81
388.48	901.11
388.67	1015.79
388.86	847.27
389.06	952.60
389.25	915.15
389.45	950.26
389.64	966.64
389.84	898.77
390.03	976.00
390.22	1001.75
390.42	976.00
390.61	961.96
390.81	1039.20
391.00	1078.99
391.19	1060.26
391.39	1064.94
391.58	1050.90
391.78	1184.31
391.97	1015.79
392.16	1036.86
392.36	1074.31
392.55	1064.94
392.75	987.71
392.94	952.60
393.13	940.90
393.33	1067.28
393.52	1053.24
393.71	1130.48
393.91	1071.97
394.10	1067.28
394.29	1188.99
394.49	1128.14
394.68	1238.14
394.88	1177.29
395.07	1228.78
395.26	1212.40
395.46	1196.01
395.65	1224.10
395.84	1210.06
396.04	1233.46
396.23	1181.97
396.42	1130.48
396.62	1247.51
396.81	1184.31
397.00	1165.59
397.19	1315.38
397.39	1362.19
397.58	1404.32
397.77	1308.36
397.97	1306.02
398.16	1401.98
398.35	1425.39
398.55	1448.79
398.74	1493.26
398.93	1460.49
399.12	1600.93
399.32	1479.22
399.51	1570.50
399.70	1584.54
399.90	1378.58
400.09	1516.67
400.28	1570.50
400.47	1500.28
400.67	1619.65
400.86	1575.18
401.05	1666.46
401.24	1736.68
401.44	1666.46
401.63	1727.32
401.82	1713.27
402.01	1692.21
402.21	1884.13
402.40	1764.76
402.59	1682.85
402.78	1729.66
402.97	1689.87
403.17	1778.81
403.36	1912.22
403.55	1830.30
403.74	1867.75
403.93	1879.45
404.13	1867.75
404.32	1839.66
404.51	1928.60
404.70	1879.45
404.89	1865.41
405.09	1987.11
405.28	1989.46
405.47	1891.15
405.66	1966.05
405.85	2015.20
406.05	1961.37
406.24	1989.46
406.43	1970.73
406.62	2071.37
406.81	2036.27
407.00	2043.29
407.20	2015.20
407.39	1944.99
407.58	2122.87
407.77	2139.25
407.96	2193.08
408.15	2270.32
408.34	2183.72
408.54	2317.13
408.73	2153.29
408.92	2277.34
409.11	2401.39
409.30	2314.79
409.49	2204.78
409.68	2314.79
409.87	2277.34
410.07	2305.43
410.26	2289.04
410.45	2377.98
410.64	2373.30
410.83	2504.37
411.02	2495.01
411.21	2607.36
411.40	2532.46
411.59	2633.10
411.78	2600.34
411.98	2581.61
412.17	2607.36
412.36	2612.04
412.55	2635.44
412.74	2719.70
412.93	2686.94
413.12	2726.72
413.31	2780.56
413.50	2787.58
413.69	2764.17
413.88	2876.52
414.07	2839.07
414.26	2986.52
414.45	2843.75
414.64	2937.37
414.83	2918.65
415.02	2939.71
415.22	3075.46
415.41	3126.96
415.60	3052.06
415.79	3208.87
415.98	3239.30
416.17	3136.32
416.36	3225.26
416.55	3176.11
416.74	3246.32
416.93	3267.39
417.12	3253.34
417.31	3251.00
417.50	3335.26
417.69	3442.93
417.88	3403.14
418.07	3323.56
418.26	3407.82
418.45	3482.72
418.64	3592.72
418.83	3545.91
419.02	3426.54
419.21	3581.02
419.39	3412.50
419.58	3569.32
419.77	3538.89
419.96	3545.91
420.15	3693.37
420.34	3655.92
420.53	3770.60
420.72	3796.35
420.91	3805.71
421.10	3796.35
421.29	3794.01
421.48	3786.99
421.67	3817.41
421.86	3676.98
422.05	3815.07
422.24	3772.94
422.43	3681.66
422.61	3911.04
422.80	3754.22
422.99	3822.09
423.18	3880.61
423.37	3878.27
423.56	3730.81
423.75	3887.63
423.94	3782.31
424.13	3651.24
424.32	3756.56
424.50	4060.83
424.69	4021.04
424.88	3983.59
425.07	3817.41
425.26	3889.97
425.45	3899.33
425.64	3817.41
425.83	3955.51
426.01	4018.70
426.20	3861.88
426.39	3754.22
426.58	3866.56
426.77	3794.01
426.96	4004.66
427.15	3953.16
427.33	3971.89
427.52	4084.23
427.71	4170.83
427.90	4109.98
428.09	4147.43
428.28	4095.94
428.46	3983.59
428.65	4049.13
428.84	4243.39
429.03	4234.03
429.22	4025.72
429.40	4182.54
429.59	4173.18
429.78	3859.54
429.97	3880.61
430.16	4011.68
430.34	4210.62
430.53	4173.18
430.72	4231.69
430.91	4250.41
431.10	4376.80
431.28	4435.32
431.47	4608.51
431.66	4582.77
431.85	4447.02
432.03	4627.24
432.22	4519.57
432.41	4493.83
432.60	4655.33
432.79	4732.56
432.97	4732.56
433.16	4751.29
433.35	4559.36
433.54	4655.33
433.72	4667.03
433.91	4709.16
434.10	4770.01
434.28	4706.82
434.47	4840.23
434.66	4835.55
434.85	4835.55
435.03	4873.00
435.22	5008.75
435.41	5093.01
435.59	5109.39
435.78	4966.62
435.97	5231.10
436.16	5165.56
436.34	5008.75
436.53	5259.18
436.72	5273.23
436.90	5153.86
437.09	5214.71
437.28	5195.99
437.46	5093.01
437.65	5121.09
437.84	5172.58
438.02	5149.18
438.21	5046.20
438.40	5081.30
438.58	5289.61
438.77	5317.70
438.96	5378.55
439.14	5530.69
439.33	5486.22
439.52	5600.90
439.70	5371.53
439.89	5509.62
440.08	5673.46
440.26	5769.42
440.45	5652.39
440.63	5851.34
440.82	5987.09
441.01	5888.79
441.19	5767.08
441.38	6003.47
441.57	6108.80
441.75	6174.33
441.94	6134.54
442.12	6335.83
442.31	6225.82
442.50	6284.34
442.68	6230.51
442.87	6403.71
443.05	6333.49
443.24	6396.68
443.43	6380.30
443.61	6363.92
443.80	6380.30
443.98	6471.58
444.17	6370.94
444.35	6523.07
444.54	6544.14
444.73	6565.20
444.91	6413.07
445.10	6497.33
445.28	6345.19
445.47	6436.47
445.65	6291.36
445.84	6506.69
446.02	6574.56
446.21	6504.35
446.39	6506.69
446.58	6565.20
446.77	6780.53
446.95	6548.82
447.14	6548.82
447.32	6715.00
447.51	6686.91
447.69	6651.80
447.88	6642.44
448.06	6635.42
448.25	6710.32
448.43	6700.95
448.62	6609.67
448.80	6614.35
448.99	6656.48
449.17	6825.00
449.36	6715.00
449.54	6913.94
449.73	6890.54
449.91	7103.53
450.10	7016.93
450.28	7255.66
450.46	7112.89
450.65	7281.41
450.83	7073.10
451.02	7201.83
451.20	7229.91
451.39	7297.79
451.57	7042.67
451.76	7122.25
451.94	7180.76
452.13	7250.98
452.31	7073.10
452.49	7045.01
452.68	7258.00
452.86	7012.24
453.05	7262.68
453.23	7276.73
453.42	7166.72
453.60	7414.82
453.78	7342.26
453.97	7190.13
454.15	7379.71
454.34	7243.96
454.52	7309.49
454.70	7185.44
454.89	7524.82
455.07	7463.97
455.26	7590.36
455.44	7688.66
455.62	7588.02
455.81	7545.89
455.99	7651.21
456.17	7836.11
456.36	7761.22
456.54	7838.45
456.73	7850.16
456.91	8084.21
457.09	8046.76
457.28	8126.34
457.46	7992.93
457.64	8091.23
457.83	7964.84
458.01	7817.39
458.19	8149.75
458.38	8219.96
458.56	8208.26
458.74	8084.21
458.93	8365.07
459.11	8100.59
459.29	8116.98
459.48	8416.57
459.66	8262.09
459.84	8332.31
460.03	8444.65
460.21	8517.21
460.39	8512.53
460.57	8304.22
460.76	8446.99
460.94	8395.50
461.12	8484.44
461.31	8517.21
461.49	8730.20
461.67	8774.67
461.85	8596.79
462.04	8571.04
462.22	9240.44
462.40	8821.48
462.59	8849.57
462.77	8645.94
462.95	9008.72
463.13	8819.14
463.32	8975.95
463.50	8828.50
463.68	8910.42
463.86	8980.64
464.05	8847.22
464.23	8835.52
464.41	8961.91
464.59	8669.34
464.78	9071.92
464.96	9043.83
465.14	9006.38
465.32	9282.56
465.50	9315.33
465.69	9114.05
465.87	9284.91
466.05	9282.56
466.23	9163.20
466.41	9158.52
466.60	9383.21
466.78	9139.79
466.96	8980.64
467.14	9151.49
467.32	9418.32
467.51	9338.74
467.69	9266.18
467.87	9453.42
468.05	9563.43
468.23	9214.69
468.41	9387.89
468.60	9533.00
468.78	9582.15
468.96	9577.47
469.14	9530.66
469.32	9722.59
469.50	9500.23
469.69	9689.82
469.87	9778.76
470.05	9694.50
470.23	9703.86
470.41	9628.96
470.59	9753.01
470.77	9973.02
470.95	9640.67
471.14	10108.77
471.32	9816.21
471.50	10183.67
471.68	10483.26
471.86	10253.89
472.04	10211.76
472.22	10387.30
472.40	10415.38
472.58	10291.34
472.77	10363.89
472.95	10509.01
473.13	10956.05
473.31	10480.92
473.49	10324.10
473.67	10434.11
473.85	10647.10
474.03	10649.44
474.21	10703.27
474.39	11059.03
474.57	11023.92
474.75	11143.29
474.93	11215.85
475.12	10892.85
475.30	11176.06
475.48	11253.30
475.66	11169.04
475.84	11152.65
476.02	11286.06
476.20	11255.64
476.38	11580.97
476.56	12049.08
476.74	11716.72
476.92	11791.62
477.10	11449.90
477.28	11932.05
477.46	11756.51
477.64	12079.50
477.82	12128.66
478.00	12571.02
478.18	12608.47
478.36	12461.01
478.54	12592.08
478.72	12638.89
478.90	12870.61
479.08	12959.55
479.26	13013.38
479.44	12968.91
479.62	13032.10
479.80	13081.25
479.98	13277.86
480.16	13371.48
480.34	13664.05
480.52	13877.04
480.70	13722.56
480.88	13444.04
481.06	13748.31
481.24	13783.41
481.41	14143.86
481.59	14094.71
481.77	14157.90
481.95	14171.94
482.13	14476.21
482.31	14232.80
482.49	14682.18
482.67	14651.75
482.85	15061.35
483.03	15073.05
483.21	15176.03
483.39	15211.14
483.57	15414.77
483.74	15124.54
483.92	15702.65
484.10	15616.05
484.28	15613.71
484.46	15976.50
484.64	16205.87
484.82	16035.01
485.00	16187.14
485.18	16322.90
485.35	16430.56
485.53	16126.29
485.71	15939.05
485.89	16133.31
486.07	16446.94
486.25	16725.47
486.43	16463.33
486.61	16746.53
486.78	17362.09
486.96	16987.61
487.14	17898.08
487.32	17383.16
487.50	18090.00
487.68	17956.59
487.85	18031.49
488.03	18307.67
488.21	18324.05
488.39	18141.49
488.57	18490.23
488.75	18644.71
488.92	18691.52
489.10	19417.08
489.28	19159.63
489.46	19452.19
489.64	19316.44
489.81	20023.28
489.99	20049.03
490.17	20194.14
490.35	20023.28
490.53	20107.54
490.70	20383.73
490.88	20294.79
491.06	20842.47
491.24	20329.89
491.41	20645.87
491.59	20940.77
491.77	20900.98
491.95	20751.19
492.13	21097.59
492.30	21535.27
492.48	21493.14
492.66	21584.42
492.84	21649.96
493.01	21333.98
493.19	21755.28
493.37	22101.68
493.54	22043.17
493.72	22352.12
493.90	22331.05
494.08	22710.22
494.25	22860.01
494.43	22782.77
494.61	23541.11
494.79	23112.79
494.96	23229.82
495.14	23246.20
495.32	23681.54
495.49	23374.93
495.67	23892.19
495.85	23667.50
496.02	24116.88
496.20	24318.17
496.38	24170.71
496.55	24479.66
496.73	24807.34
496.91	24325.19
497.09	24900.96
497.26	24898.62
497.44	25053.09
497.62	25261.40
497.79	25195.87
497.97	24922.02
498.14	25413.54
498.32	25245.02
498.50	25544.61
498.67	25830.15
498.85	25790.36
499.03	25930.80
499.20	26150.81
499.38	26319.32
499.56	26258.47
499.73	26185.91
499.91	26274.85
500.08	26476.14
500.26	26143.78
500.44	26759.34
500.61	26260.81
500.79	26324.01
500.97	26668.06
501.14	26960.63
501.32	26876.37
501.49	26700.83
501.67	26780.41
501.84	27393.63
502.02	27421.72
502.20	27281.28
502.37	27601.94
502.55	27700.24
502.72	27744.71
502.90	27604.28
503.07	27707.26
503.25	27910.89
503.43	27700.24
503.60	27845.35
503.78	27892.16
503.95	27854.72
504.13	27889.82
504.30	28367.29
504.48	28542.83
504.65	28587.30
504.83	28788.59
505.01	29020.30
505.18	28795.61
505.36	29549.26
505.53	29074.13
505.71	29598.41
505.88	29769.27
506.06	29282.44
506.23	29694.38
506.41	29034.35
506.58	29661.61
506.76	29605.44
506.93	29888.64
507.11	29853.53
507.28	29914.39
507.46	29820.77
507.63	29549.26
507.81	29991.62
507.98	30120.35
508.16	30277.17
508.33	30541.65
508.50	30717.19
508.68	30302.92
508.85	30878.69
509.03	30668.04
509.20	30820.17
509.38	31108.06
509.55	31091.68
509.73	30981.67
509.90	30969.97
510.08	31208.70
510.25	30836.56
510.42	31400.63
510.60	31374.88
510.77	31807.88
510.95	32184.71
511.12	31543.40
511.30	31545.74
511.47	31854.69
511.64	32278.33
511.82	32456.21
511.99	31955.33
512.17	32077.04
512.34	31992.78
512.51	32205.77
512.69	32264.28
512.86	32198.75
513.04	32711.33
513.21	32484.30
513.38	32416.42
513.56	32409.40
513.73	32629.41
513.90	32898.57
514.08	32514.72
514.25	33010.92
514.43	33041.34
514.60	33134.96
514.77	33282.42
514.95	33289.44
515.12	33111.56
515.29	33179.43
515.47	33549.24
515.64	33778.61
515.81	33579.67
515.99	33298.80
516.16	33460.30
516.33	33415.83
516.51	33509.45
516.68	33024.96
516.85	33151.35
517.03	33280.08
517.20	33584.35
517.37	33912.02
517.54	34354.38
517.72	33853.51
517.89	33750.52
518.06	33488.38
518.24	33832.44
518.41	33834.78
518.58	34169.48
518.75	34291.19
518.93	34609.50
519.10	34609.50
519.27	34520.56
519.45	34895.05
519.62	35129.10
519.79	35030.80
519.96	35159.53
520.14	34944.20
520.31	34824.83
520.48	35632.32
520.65	34588.44
520.83	35199.32
521.00	36114.47
521.17	35185.27
521.34	35782.11
521.52	35735.30
521.69	35967.01
521.86	35599.55
522.03	35854.67
522.20	35845.30
522.38	36114.47
522.55	35723.60
522.72	35857.01
522.89	36346.18
523.07	36088.72
523.24	36311.07
523.41	36369.58
523.58	36718.32
523.75	36648.11
523.92	37212.18
524.10	36774.50
524.27	36921.95
524.44	36891.52
524.61	37394.74
524.78	37277.71
524.96	37266.01
525.13	36830.67
525.30	37666.24
525.47	37787.95
525.64	37680.28
525.81	37411.12
525.98	36980.46
526.16	37050.68
526.33	37193.45
526.50	37181.75
526.67	37090.47
526.84	37352.61
527.01	37209.84
527.18	37682.62
527.36	37722.41
527.53	37916.68
527.70	38417.55
527.87	38387.13
528.04	37677.94
528.21	38185.84
528.38	37930.72
528.55	38466.70
528.72	38380.10
528.89	38412.87
529.07	38569.69
529.24	38345.00
529.41	38443.30
529.58	38543.94
529.75	38995.67
529.92	38536.92
530.09	38998.01
530.26	38586.07
530.43	38920.77
530.60	38866.94
530.77	38974.60
530.94	39269.51
531.11	39276.53
531.28	39409.94
531.46	39541.01
531.63	39704.85
531.80	39346.75
531.97	38925.45
532.14	39339.72
532.31	39012.05
532.48	39166.52
532.65	39461.43
532.82	39147.80
532.99	39365.47
533.16	39318.66
533.33	39683.78
533.50	39323.34
533.67	39693.15
533.84	39564.42
534.01	39555.05
534.18	40084.01
534.35	40009.12
534.52	39494.20
534.69	40006.78
534.86	40313.39
535.03	39800.81
535.20	40205.72
535.37	40664.47
535.54	40942.99
535.71	40383.60
535.88	40121.46
536.05	40311.05
536.22	40105.08
536.38	40861.07
536.55	40219.77
536.72	40669.15
536.89	40165.93
537.06	40201.04
537.23	40327.43
537.40	40832.99
537.57	40634.04
537.74	40910.22
537.91	41085.76
538.08	40945.33
538.25	40364.88
538.42	40622.34
538.59	41296.41
538.75	40685.53
538.92	40905.54
539.09	41282.37
539.26	41277.69
539.43	41366.63
539.60	41284.71
539.77	40973.42
539.94	40605.95
540.11	41188.75
540.28	41090.44
540.44	41160.66
540.61	41200.45
540.78	40842.35
540.95	40835.33
541.12	41471.95
541.29	41565.57
541.46	41478.97
541.62	41462.59
541.79	41598.34
541.96	41270.67
542.13	41673.24
542.30	41647.49
542.47	41904.95
542.63	41897.93
542.80	42033.68
542.97	41904.95
543.14	42295.82
543.31	42672.65
543.48	42141.35
543.64	42656.26
543.81	42691.37
543.98	42993.30
544.15	42513.49
544.32	42820.10
544.48	42909.04
544.65	42913.72
544.82	42740.52
544.99	42717.12
545.16	42731.16
545.32	42113.26
545.49	43035.43
545.66	42993.30
545.83	42939.47
546.00	43030.75
546.16	42899.68
546.33	43180.54
546.50	42827.12
546.67	43012.02
546.83	42288.80
547.00	43026.07
547.17	43014.37
547.34	42597.75
547.50	42869.25
547.67	42887.98
547.84	43344.38
548.00	43194.59
548.17	43281.19
548.34	43229.69
548.51	43426.30
548.67	43372.47
548.84	42946.49
549.01	43594.82
549.18	43707.16
549.34	43281.19
549.51	43562.05
549.68	43548.01
549.84	43819.51
550.01	43681.42
550.18	43629.93
550.34	43875.68
550.51	43580.78
550.68	43753.97
550.84	43470.77
551.01	43597.16
551.18	43365.45
551.34	43714.19
551.51	43941.22
551.68	43957.60
551.84	44107.40
552.01	43847.60
552.18	43840.57
552.34	43445.02
552.51	44135.48
552.68	44086.33
552.84	44135.48
553.01	44414.01
553.18	44037.18
553.34	44168.25
553.51	44067.61
553.67	44184.63
553.84	44774.45
554.01	44514.65
554.17	44065.27
554.34	44224.42
554.51	44425.71
554.67	44357.83
554.84	44666.78
555.00	44292.30
555.17	44121.44
555.33	44631.68
555.50	44364.85
555.67	44701.89
555.83	44729.98
556.00	44608.27
556.16	45071.70
556.33	44404.64
556.50	44472.52
556.66	44762.75
556.83	44179.95
556.99	44603.59
557.16	44734.66
557.32	44882.11
557.49	44886.79
557.65	44898.50
557.82	44828.28
557.98	44790.83
558.15	44924.24
558.32	44800.19
558.48	44554.44
558.65	44678.49
558.81	44610.61
558.98	44734.66
559.14	45045.95
559.31	44980.42
559.47	44683.17
559.64	44683.17
559.80	45095.10
559.97	44783.81
560.13	44725.30
560.30	44900.84
560.46	45155.96
560.63	45067.02
560.79	45521.08
560.96	45542.14
561.12	45261.28
561.29	44870.41
561.45	44727.64
561.61	45008.50
561.78	44854.03
561.94	44947.65
562.11	45106.80
562.27	44868.07
562.44	44762.75
562.60	45483.63
562.77	45492.99
562.93	45446.18
563.10	45291.71
563.26	45277.66
563.42	45425.12
563.59	45263.62
563.75	45441.50
563.92	45212.13
564.08	45357.24
564.24	45567.89
564.41	44821.26
564.57	45354.90
564.74	45289.37
564.90	45750.45
565.07	45375.97
565.23	45230.85
565.39	45029.57
565.56	45333.84
565.72	45102.12
565.88	45221.49
566.05	44917.22
566.21	45027.23
566.38	45179.36
566.54	45237.87
566.70	45614.70
566.87	46185.79
567.03	45652.15
567.19	45895.56
567.36	46003.23
567.52	45586.61
567.68	45507.04
567.85	45474.27
568.01	45558.53
568.17	45502.35
568.34	45572.57
568.50	45364.26
568.66	45123.19
568.83	45425.12
568.99	45614.70
569.15	45162.98
569.32	45813.65
569.48	45584.27
569.64	45727.05
569.81	45591.30
569.97	45532.78
570.13	45544.48
570.30	45230.85
570.46	45595.98
570.62	45036.59
570.78	45071.70
570.95	45268.30
571.11	45532.78
571.27	44966.37
571.43	45230.85
571.60	45502.35
571.76	45471.93
571.92	45834.71
572.09	45682.58
572.25	45715.34
572.41	45652.15
572.57	45455.54
572.74	46054.72
572.90	45923.65
573.06	45764.49
573.22	45586.61
573.38	45612.36
573.55	45624.06
573.71	45813.65
573.87	46061.74
574.03	45881.52
574.20	45996.21
574.36	45752.79
574.52	45518.74
574.68	45518.74
574.84	45918.97
575.01	45418.10
575.17	45738.75
575.33	45495.33
575.49	45469.59
575.65	46136.64
575.82	45577.25
575.98	45507.04
576.14	45815.99
576.30	46328.56
576.46	45469.59
576.62	45680.24
576.79	45483.63
576.95	45633.42
577.11	45841.73
577.27	45485.97
577.43	45769.18
577.59	45352.56
577.75	45390.01
577.92	45272.98
578.08	45368.94
578.24	45338.52
578.40	45806.62
578.56	45649.81
578.72	46000.89
578.88	45879.18
579.04	45998.55
579.21	45221.49
579.37	45317.45
579.53	45743.43
579.69	45326.81
579.85	45804.28
580.01	45900.25
580.17	45998.55
580.33	45731.73
580.49	45827.69
580.65	45666.19
580.82	45710.66
580.98	45715.34
581.14	45312.77
581.30	45715.34
581.46	45804.28
581.62	46085.15
581.78	45834.71
581.94	46160.05
582.10	45787.90
582.26	45743.43
582.42	45741.09
582.58	45841.73
582.74	45722.37
582.90	45963.44
583.06	46326.22
583.22	46120.26
583.38	46045.36
583.54	46569.64
583.70	46052.38
583.86	46323.88
584.02	45909.61
584.18	45851.09
584.34	46078.13
584.50	46017.27
584.66	45801.94
584.82	45577.25
584.98	45823.01
585.14	46012.59
585.30	45455.54
585.46	45771.52
585.62	45436.82
585.78	45684.92
585.94	45940.04
586.10	45794.92
586.26	45570.23
586.42	46223.24
586.58	45921.31
586.74	45991.53
586.90	45844.07
587.06	45954.08
587.22	46176.43
587.38	45869.82
587.54	46185.79
587.70	45881.52
587.86	45879.18
588.02	45944.72
588.18	46080.47
588.34	45738.75
588.49	45354.90
588.65	45357.24
588.81	45045.95
588.97	45485.97
589.13	45392.35
589.29	45846.41
589.45	45958.76
589.61	45572.57
589.77	46131.96
589.93	45876.84
590.08	46108.55
