SpectraSuite Data File
++++++++++++++++++++++++++++++++++++
Date: Fri Oct 25 10:47:37 EDT 2013
User: price-jones
Dark Spectrum Present: No
Reference Spectrum Present: No
Number of Sampled Component Spectra: 1
Spectrometers: USB2+H05261
Integration Time (usec): 100000 (USB2+H05261)
Spectra Averaged: 1 (USB2+H05261)
Boxcar Smoothing: 0 (USB2+H05261)
Correct for Electrical Dark: No (USB2+H05261)
Strobe/Lamp Enabled: No (USB2+H05261)
Correct for Detector Non-linearity: No (USB2+H05261)
Correct for Stray Light: No (USB2+H05261)
Number of Pixels in Processed Spectrum: 2048
>>>>>Begin Processed Spectral Data<<<<<
365.73	81.92
365.92	81.92
366.12	81.92
366.32	67.88
366.52	117.03
366.72	51.49
366.91	2.34
367.11	51.49
367.31	0.00
367.51	70.22
367.70	11.70
367.90	91.28
368.10	30.43
368.30	46.81
368.49	16.38
368.69	91.28
368.89	74.90
369.09	79.58
369.28	51.49
369.48	53.83
369.68	56.17
369.87	121.71
370.07	98.30
370.27	163.84
370.47	203.63
370.66	407.25
370.86	341.72
371.06	418.96
371.25	435.34
371.45	379.17
371.65	428.32
371.84	418.96
372.04	507.90
372.24	425.98
372.44	503.22
372.63	482.15
372.83	526.62
373.03	503.22
373.22	500.87
373.42	545.34
373.62	543.00
373.81	524.28
374.01	528.96
374.21	514.92
374.40	540.66
374.60	521.94
374.79	564.07
374.99	493.85
375.19	585.13
375.38	552.37
375.58	559.39
375.78	540.66
375.97	573.43
376.17	634.29
376.37	564.07
376.56	543.00
376.76	624.92
376.95	559.39
377.15	627.26
377.35	589.82
377.54	629.60
377.74	608.54
377.93	540.66
378.13	685.78
378.33	638.97
378.52	650.67
378.72	667.05
378.91	723.23
379.11	664.71
379.31	695.14
379.50	631.94
379.70	697.48
379.89	629.60
380.09	683.44
380.28	627.26
380.48	589.82
380.68	575.77
380.87	547.69
381.07	713.86
381.26	641.31
381.46	634.29
381.65	781.74
381.85	655.35
382.04	636.63
382.24	713.86
382.43	692.80
382.63	674.07
382.83	636.63
383.02	690.46
383.22	739.61
383.41	674.07
383.61	655.35
383.80	730.25
384.00	725.57
384.19	744.29
384.39	725.57
384.58	767.70
384.78	760.67
384.97	758.33
385.17	711.52
385.36	746.63
385.56	723.23
385.75	779.40
385.95	802.80
386.14	819.19
386.34	828.55
386.53	767.70
386.72	814.51
386.92	791.10
387.11	896.43
387.31	821.53
387.50	779.40
387.70	844.93
387.89	884.72
388.09	830.89
388.28	868.34
388.48	807.48
388.67	966.64
388.86	926.85
389.06	943.24
389.25	915.15
389.45	919.83
389.64	828.55
389.84	994.73
390.03	976.00
390.22	926.85
390.42	954.94
390.61	926.85
390.81	924.51
391.00	940.90
391.19	896.43
391.39	940.90
391.58	978.34
391.78	1032.18
391.97	1020.47
392.16	999.41
392.36	952.60
392.55	1050.90
392.75	957.28
392.94	976.00
393.13	992.39
393.33	868.34
393.52	990.05
393.71	1114.10
393.91	997.07
394.10	1032.18
394.29	1048.56
394.49	1107.07
394.68	1158.57
394.88	1123.46
395.07	1153.88
395.26	1118.78
395.46	1109.41
395.65	1160.91
395.84	1172.61
396.04	1193.67
396.23	1179.63
396.42	1071.97
396.62	1151.54
396.81	1102.39
397.00	1240.48
397.19	1207.72
397.39	1308.36
397.58	1207.72
397.77	1196.01
397.97	1242.82
398.16	1366.87
398.35	1376.24
398.55	1301.34
398.74	1289.64
398.93	1336.45
399.12	1362.19
399.32	1364.53
399.51	1338.79
399.70	1394.96
399.90	1455.81
400.09	1476.88
400.28	1439.43
400.47	1544.75
400.67	1380.92
400.86	1348.15
401.05	1483.90
401.24	1439.43
401.44	1469.86
401.63	1537.73
401.82	1502.62
402.01	1593.90
402.21	1549.43
402.40	1554.12
402.59	1523.69
402.78	1675.82
402.97	1600.93
403.17	1619.65
403.36	1591.56
403.55	1680.50
403.74	1715.61
403.93	1706.25
404.13	1591.56
404.32	1643.06
404.51	1647.74
404.70	1717.95
404.89	1776.47
405.09	1727.32
405.28	1750.72
405.47	1673.48
405.66	1895.83
405.85	1694.55
406.05	1818.60
406.24	1886.47
406.43	1720.29
406.62	1860.73
406.81	1956.69
407.00	1783.49
407.20	1696.89
407.39	1944.99
407.58	2024.56
407.77	1977.75
407.96	2038.61
408.15	2059.67
408.34	1980.09
408.54	1975.41
408.73	2052.65
408.92	1994.14
409.11	2036.27
409.30	2050.31
409.49	2012.86
409.68	2090.10
409.87	2094.78
410.07	1984.77
410.26	2132.23
410.45	2104.14
410.64	2246.91
410.83	2289.04
411.02	2246.91
411.21	2242.23
411.40	2361.60
411.59	2387.35
411.78	2335.85
411.98	2310.11
412.17	2406.07
412.36	2436.50
412.55	2459.90
412.74	2459.90
412.93	2469.27
413.12	2452.88
413.31	2616.72
413.50	2626.08
413.69	2452.88
413.88	2590.97
414.07	2551.18
414.26	2602.68
414.45	2649.49
414.64	2612.04
414.83	2766.51
415.02	2663.53
415.22	2836.73
415.41	2834.39
415.60	2867.16
415.79	2829.71
415.98	2913.97
416.17	2984.18
416.36	2995.89
416.55	3023.97
416.74	2991.20
416.93	2780.56
417.12	2944.39
417.31	3028.65
417.50	3052.06
417.69	3115.25
417.88	3063.76
418.07	3075.46
418.26	3190.15
418.45	3028.65
418.64	3323.56
418.83	3297.81
419.02	3201.85
419.21	3117.59
419.39	3269.73
419.58	3297.81
419.77	3236.96
419.96	3297.81
420.15	3368.03
420.34	3396.12
420.53	3421.86
420.72	3435.91
420.91	3398.46
421.10	3492.08
421.29	3485.06
421.48	3363.35
421.67	3550.59
421.86	3468.67
422.05	3424.20
422.24	3489.74
422.43	3506.12
422.61	3520.17
422.80	3623.15
422.99	3602.08
423.18	3524.85
423.37	3552.93
423.56	3522.51
423.75	3630.17
423.94	3524.85
424.13	3344.63
424.32	3552.93
424.50	3613.79
424.69	3681.66
424.88	3557.61
425.07	3543.57
425.26	3578.68
425.45	3557.61
425.64	3679.32
425.83	3627.83
426.01	3819.75
426.20	3660.60
426.39	3721.45
426.58	3606.77
426.77	3637.19
426.96	3728.47
427.15	3742.52
427.33	3943.80
427.52	3801.03
427.71	3791.67
427.90	3847.84
428.09	3812.73
428.28	3751.88
428.46	3815.07
428.65	3822.09
428.84	3964.87
429.03	3847.84
429.22	3983.59
429.40	3782.31
429.59	3761.24
429.78	3817.41
429.97	3716.77
430.16	3817.41
430.34	3878.27
430.53	3913.38
430.72	3920.40
430.91	4030.40
431.10	4060.83
431.28	4093.60
431.47	4100.62
431.66	4217.65
431.85	4051.47
432.03	4215.30
432.22	4292.54
432.41	4276.16
432.60	4217.65
432.79	4154.45
432.97	4292.54
433.16	4313.61
433.35	4383.82
433.54	4273.82
433.72	4348.72
433.91	4463.40
434.10	4390.84
434.28	4315.95
434.47	4505.53
434.66	4634.26
434.85	4535.96
435.03	4561.70
435.22	4458.72
435.41	4723.20
435.59	4564.04
435.78	4608.51
435.97	4732.56
436.16	4617.88
436.34	4559.36
436.53	4774.69
436.72	4786.40
436.90	4531.28
437.09	4709.16
437.28	4662.35
437.46	4690.43
437.65	4674.05
437.84	4704.48
438.02	4667.03
438.21	4723.20
438.40	4730.22
438.58	4926.83
438.77	4947.89
438.96	4887.04
439.14	5203.01
439.33	5078.96
439.52	5214.71
439.70	5210.03
439.89	5252.16
440.08	5310.68
440.26	5163.22
440.45	5345.78
440.63	5315.36
440.82	5518.98
441.01	5514.30
441.19	5570.48
441.38	5467.49
441.57	5568.13
441.75	5689.84
441.94	5657.07
442.12	5654.73
442.31	5870.06
442.50	5846.66
442.68	5736.65
442.87	5729.63
443.05	5827.93
443.24	5884.11
443.43	5980.07
443.61	5867.72
443.80	5989.43
443.98	5783.46
444.17	5561.11
444.35	5926.24
444.54	6115.82
444.73	5912.19
444.91	5912.19
445.10	5837.30
445.28	5987.09
445.47	5909.85
445.65	5781.12
445.84	5947.30
446.02	6078.37
446.21	6024.54
446.39	5975.39
446.58	6176.67
446.77	6146.25
446.95	5963.68
447.14	6066.67
447.32	6122.84
447.51	6012.84
447.69	6129.86
447.88	5963.68
448.06	5928.58
448.25	5940.28
448.43	6197.74
448.62	6083.05
448.80	5970.71
448.99	6317.11
449.17	6338.17
449.36	6101.78
449.54	6270.30
449.73	6354.55
449.91	6562.86
450.10	6471.58
450.28	6445.84
450.46	6431.79
450.65	6389.66
450.83	6590.95
451.02	6497.33
451.20	6642.44
451.39	6579.25
451.57	6499.67
451.76	6555.84
451.94	6736.06
452.13	6754.79
452.31	6848.41
452.49	6469.24
452.68	6506.69
452.86	6654.14
453.05	6633.08
453.23	6750.10
453.42	6609.67
453.60	6773.51
453.78	6850.75
453.97	6834.36
454.15	6946.71
454.34	6806.28
454.52	6825.00
454.70	6890.54
454.89	6974.80
455.07	6771.17
455.26	7077.78
455.44	7035.65
455.62	7019.27
455.81	7019.27
455.99	7019.27
456.17	7176.08
456.36	7108.21
456.54	7295.45
456.73	7117.57
456.91	7447.58
457.09	7393.75
457.28	7440.56
457.46	7272.04
457.64	7410.14
457.83	7346.94
458.01	7396.09
458.19	7637.17
458.38	7421.84
458.56	7573.97
458.74	7569.29
458.93	7529.50
459.11	7667.60
459.29	7597.38
459.48	7719.09
459.66	7566.95
459.84	7681.64
460.03	7936.76
460.21	7756.54
460.39	7875.90
460.57	7658.23
460.76	7894.63
460.94	7845.48
461.12	8002.29
461.31	7955.48
461.49	7999.95
461.67	7840.79
461.85	8077.19
462.04	8013.99
462.22	8587.43
462.40	8091.23
462.59	8067.83
462.77	8124.00
462.95	8119.32
463.13	8100.59
463.32	8238.69
463.50	8147.40
463.68	8332.31
463.86	8294.86
464.05	8184.85
464.23	8194.22
464.41	8301.88
464.59	8252.73
464.78	8318.26
464.96	8336.99
465.14	8241.03
465.32	8336.99
465.50	8505.51
465.69	8592.11
465.87	8507.85
466.05	8531.25
466.23	8468.06
466.41	8585.08
466.60	8638.92
466.78	8517.21
466.96	8557.00
467.14	8514.87
467.32	8594.45
467.51	8697.43
467.69	8353.37
467.87	8596.79
468.05	8699.77
468.23	8561.68
468.41	8681.05
468.60	8882.33
468.78	9004.04
468.96	8767.65
469.14	9034.47
469.32	9048.51
469.50	8915.10
469.69	8875.31
469.87	8917.44
470.05	9050.85
470.23	9062.55
470.41	9219.37
470.59	9219.37
470.77	9076.60
470.95	9263.84
471.14	9420.66
471.32	9156.18
471.50	9441.72
471.68	9437.04
471.86	9610.24
472.04	9528.32
472.22	9764.72
472.40	9188.94
472.58	9586.83
472.77	9799.82
472.95	9916.85
473.13	10003.45
473.31	9542.36
473.49	9750.67
473.67	9832.59
473.85	9856.00
474.03	10052.60
474.21	10059.62
474.39	10146.22
474.57	10209.42
474.75	10178.99
474.93	10382.62
475.12	10284.31
475.30	10298.36
475.48	10586.24
475.66	10469.22
475.84	10427.09
476.02	10420.06
476.20	10621.35
476.38	10588.58
476.56	10869.45
476.74	10789.87
476.92	10902.22
477.10	10965.41
477.28	11218.19
477.46	11162.01
477.64	11246.27
477.82	11421.81
478.00	11644.17
478.18	11475.65
478.36	11674.59
478.54	11627.78
478.72	11742.47
478.90	11941.41
479.08	12042.06
479.26	11957.80
479.44	12262.07
479.62	12311.22
479.80	12145.04
479.98	12339.30
480.16	12760.60
480.34	12512.50
480.52	13053.17
480.70	12720.81
480.88	12662.30
481.06	12631.87
481.24	12807.41
481.41	13074.23
481.59	13121.04
481.77	13338.71
481.95	13160.83
482.13	13582.13
482.31	13425.31
482.49	13872.36
482.67	13886.40
482.85	14094.71
483.03	14038.53
483.21	14001.08
483.39	14141.52
483.57	13928.53
483.74	14256.20
483.92	14349.82
484.10	14394.29
484.28	14637.71
484.46	14785.16
484.64	15080.07
484.82	14733.67
485.00	15110.50
485.18	15382.00
485.35	15262.63
485.53	15286.04
485.71	15201.78
485.89	15428.81
486.07	15049.64
486.25	15765.85
486.43	15733.08
486.61	15901.60
486.78	15971.82
486.96	16318.22
487.14	16596.74
487.32	16343.96
487.50	16673.98
487.68	16755.90
487.85	17184.21
488.03	17343.37
488.21	17345.71
488.39	17486.14
488.57	17322.30
488.75	17422.95
488.92	17724.88
489.10	18090.00
489.28	18263.20
489.46	18256.18
489.64	18054.89
489.81	18878.76
489.99	18424.70
490.17	18546.40
490.35	18909.19
490.53	19136.22
490.70	19171.33
490.88	19414.74
491.06	19775.19
491.24	19082.39
491.41	19033.24
491.59	19377.30
491.77	19503.68
491.95	19733.06
492.13	19962.43
492.30	19836.04
492.48	20016.26
492.66	20407.13
492.84	20425.86
493.01	20416.49
493.19	20517.14
493.37	21018.01
493.54	20919.71
493.72	20821.41
493.90	21287.17
494.08	21319.94
494.25	21624.21
494.43	21514.20
494.61	21685.06
494.79	22068.91
494.96	21633.57
495.14	21937.84
495.32	22136.79
495.49	22199.98
495.67	22300.62
495.85	22396.59
496.02	22263.18
496.20	22735.96
496.38	22412.97
496.55	23002.78
496.73	23372.59
496.91	23281.31
497.09	23222.80
497.26	23276.63
497.44	23646.43
497.62	23281.31
497.79	23709.63
497.97	23466.21
498.14	23824.31
498.32	23908.57
498.50	23793.89
498.67	24273.70
498.85	24159.01
499.03	24666.91
499.20	24552.22
499.38	24659.88
499.56	24704.35
499.73	25060.12
499.91	24484.34
500.08	25006.28
500.26	24589.67
500.44	25001.60
500.61	25069.48
500.79	24694.99
500.97	25163.10
501.14	25614.82
501.32	25458.01
501.49	25542.27
501.67	25806.75
501.84	25720.15
502.02	25549.29
502.20	25802.07
502.37	26457.42
502.55	26230.38
502.72	26476.14
502.90	26199.96
503.07	26155.49
503.25	26565.08
503.43	26286.56
503.60	26373.16
503.78	26485.50
503.95	26242.09
504.13	26864.67
504.30	26930.20
504.48	26888.07
504.65	27035.53
504.83	27182.98
505.01	27442.78
505.18	27044.89
505.36	27597.26
505.53	27658.11
505.71	27599.60
505.88	28058.34
506.06	27681.52
506.23	27835.99
506.41	27438.10
506.58	28051.32
506.76	28226.86
506.93	27981.10
507.11	28051.32
507.28	28259.63
507.46	28287.71
507.63	28114.52
507.81	28673.90
507.98	28364.95
508.16	28755.82
508.33	28531.13
508.50	28950.09
508.68	28975.83
508.85	29404.15
509.03	29160.73
509.20	29113.92
509.38	29055.41
509.55	29429.90
509.73	29790.34
509.90	29261.38
510.08	29329.25
510.25	29727.14
510.42	29771.61
510.60	29666.29
510.77	29811.40
510.95	30195.25
511.12	29919.07
511.30	30340.36
511.47	30345.05
511.64	30607.19
511.82	30705.49
511.99	30136.74
512.17	30782.73
512.34	30635.27
512.51	30972.31
512.69	30960.61
512.86	31126.78
513.04	31229.77
513.21	31152.53
513.38	30888.05
513.56	30677.40
513.73	30733.57
513.90	31374.88
514.08	31180.62
514.25	31690.85
514.43	31550.42
514.60	31487.23
514.77	32016.19
514.95	32006.83
515.12	31597.23
515.29	31599.57
515.47	32280.67
515.64	32095.77
515.81	32285.35
515.99	31772.77
516.16	32540.47
516.33	32236.20
516.51	32058.32
516.68	31793.84
516.85	31431.05
517.03	31929.59
517.20	32416.42
517.37	32725.37
517.54	32659.84
517.72	32554.51
517.89	32421.10
518.06	32762.82
518.24	32175.34
518.41	32744.09
518.58	32769.84
518.75	32591.96
518.93	33268.37
519.10	33259.01
519.27	33359.66
519.45	33228.59
519.62	33567.96
519.79	33411.15
519.96	33408.81
520.14	33900.32
520.31	33479.02
520.48	34012.66
520.65	33659.24
520.83	34223.31
521.00	33961.17
521.17	34244.38
521.34	34157.78
521.52	34480.77
521.69	34209.27
521.86	34328.64
522.03	34345.02
522.20	34497.16
522.38	34588.44
522.55	34466.73
522.72	34340.34
522.89	34824.83
523.07	35068.25
523.24	34490.13
523.41	34815.47
523.58	34932.50
523.75	35318.68
523.92	35564.44
524.10	35204.00
524.27	35405.28
524.44	35211.02
524.61	35356.13
524.78	35728.28
524.96	35358.47
525.13	35555.08
525.30	35782.11
525.47	35793.81
525.64	35637.00
525.81	36009.14
525.98	35957.65
526.16	35442.73
526.33	35304.64
526.50	35990.42
526.67	35531.67
526.84	35768.07
527.01	36039.57
527.18	36062.97
527.36	36332.14
527.53	36329.80
527.70	36662.15
527.87	36414.05
528.04	36503.00
528.21	36498.31
528.38	36481.93
528.55	36861.10
528.72	36694.92
528.89	36905.57
529.07	36680.88
529.24	36407.03
529.41	36732.37
529.58	36697.26
529.75	36975.78
529.92	37177.07
530.09	37027.28
530.26	37251.97
530.43	37240.26
530.60	37003.87
530.77	37701.35
530.94	37811.35
531.11	37464.96
531.28	37841.78
531.46	37998.60
531.63	37837.10
531.80	37797.31
531.97	37677.94
532.14	37699.01
532.31	37741.14
532.48	37488.36
532.65	37912.00
532.82	37258.99
532.99	37998.60
533.16	37638.15
533.33	37755.18
533.50	38478.41
533.67	38653.95
533.84	37874.55
534.01	37823.06
534.18	37996.26
534.35	38401.17
534.52	38199.88
534.69	38635.22
534.86	38600.12
535.03	38527.56
535.20	38672.67
535.37	39077.58
535.54	39213.34
535.71	38836.51
535.88	38890.34
536.05	38768.63
536.22	38817.78
536.38	38930.13
536.55	38841.19
536.72	39126.74
536.89	38880.98
537.06	38824.81
537.23	39175.89
537.40	39108.01
537.57	38979.28
537.74	39426.32
537.91	39758.68
538.08	39833.58
538.25	39215.68
538.42	39374.83
538.59	39716.55
538.75	39119.71
538.92	39597.18
539.09	39852.30
539.26	39702.51
539.43	39583.14
539.60	39629.95
539.77	39519.95
539.94	40123.80
540.11	39903.79
540.28	39302.28
540.44	39665.06
540.61	40009.12
540.78	39651.02
540.95	40081.67
541.12	39878.05
541.29	39789.11
541.46	40079.33
541.62	40355.52
541.79	40671.49
541.96	39608.89
542.13	39894.43
542.30	40240.83
542.47	40268.92
542.63	40673.83
542.80	40783.83
542.97	40680.85
543.14	41167.68
543.31	40631.70
543.48	41031.93
543.64	41457.91
543.81	40992.14
543.98	40655.11
544.15	41125.55
544.32	40959.38
544.48	41654.51
544.65	41273.01
544.82	41258.96
544.99	41013.21
545.16	41261.30
545.32	41251.94
545.49	41078.74
545.66	41581.96
545.83	41614.72
546.00	41734.09
546.16	41368.97
546.33	41394.71
546.50	40954.69
546.67	41525.78
546.83	40907.88
547.00	41759.84
547.17	41233.22
547.34	41570.25
547.50	41935.38
547.67	41607.70
547.84	41900.27
548.00	41724.73
548.17	41441.53
548.34	41715.37
548.51	42007.94
548.67	41954.10
548.84	42288.80
549.01	42036.02
549.18	41851.12
549.34	42377.74
549.51	42066.45
549.68	42305.18
549.84	42323.91
550.01	42354.33
550.18	42064.11
550.34	42227.95
550.51	42253.69
550.68	42099.22
550.84	41603.02
551.01	42567.32
551.18	42232.63
551.34	42307.52
551.51	42555.62
551.68	42756.91
551.84	42600.09
552.01	42527.53
552.18	42572.00
552.34	42258.37
552.51	42906.70
552.68	42752.23
552.84	42941.81
553.01	42951.17
553.18	42838.83
553.34	42731.16
553.51	42567.32
553.67	42869.25
553.84	42742.86
554.01	43189.91
554.17	43363.11
554.34	43056.50
554.51	43693.12
554.67	43353.74
554.84	43037.77
555.00	43037.77
555.17	42983.94
555.33	43583.12
555.50	43313.95
555.67	43309.27
555.83	43320.98
556.00	43318.64
556.16	43756.32
556.33	43526.94
556.50	43131.39
556.66	43847.60
556.83	43187.56
556.99	43648.65
557.16	43503.54
557.32	43344.38
557.49	43503.54
557.65	43433.32
557.82	43882.70
557.98	43187.56
558.15	43459.07
558.32	43487.15
558.48	43728.23
558.65	43538.65
558.81	43753.97
558.98	43744.61
559.14	43826.53
559.31	43250.76
559.47	43889.73
559.64	44058.24
559.80	44325.07
559.97	43903.77
560.13	43875.68
560.30	43847.60
560.46	43852.28
560.63	43718.87
560.79	43971.64
560.96	44332.09
561.12	43901.43
561.29	43653.33
561.45	43686.10
561.61	44182.29
561.78	43990.37
561.94	43833.55
562.11	44107.40
562.27	44098.03
562.44	43569.07
562.60	44538.05
562.77	44418.69
562.93	44074.63
563.10	44531.03
563.26	43693.12
563.42	44060.58
563.59	43938.88
563.75	43952.92
563.92	44055.90
564.08	44432.73
564.24	44755.72
564.41	44360.17
564.57	44318.04
564.74	45010.84
564.90	44491.24
565.07	44828.28
565.23	44140.16
565.39	44130.80
565.56	44458.48
565.72	44198.68
565.88	44406.98
566.05	44528.69
566.21	44102.71
566.38	44500.61
566.54	44570.82
566.70	44629.34
566.87	45125.53
567.03	44289.96
567.19	44884.45
567.36	44650.40
567.52	44416.35
567.68	44598.91
567.85	44605.93
568.01	44182.29
568.17	44715.93
568.34	44924.24
568.50	44402.30
568.66	44512.31
568.83	44779.13
568.99	44610.61
569.15	44479.54
569.32	44161.23
569.48	44083.99
569.64	44807.22
569.81	44779.13
569.97	44722.96
570.13	44467.84
570.30	44025.48
570.46	44294.64
570.62	44320.38
570.78	44767.43
570.95	44371.88
571.11	44734.66
571.27	44477.20
571.43	45165.32
571.60	45102.12
571.76	44741.68
571.92	44814.24
572.09	44851.69
572.25	44533.37
572.41	44390.60
572.57	44509.97
572.74	45303.41
572.90	44374.22
573.06	44727.64
573.22	44804.88
573.38	44800.19
573.55	44425.71
573.71	44938.29
573.87	45184.04
574.03	44711.25
574.20	44605.93
574.36	44540.39
574.52	45111.49
574.68	45020.20
574.84	44807.22
575.01	44729.98
575.17	45031.91
575.33	44512.31
575.49	44549.76
575.65	44935.95
575.82	45130.21
575.98	44722.96
576.14	45425.12
576.30	45069.36
576.46	45165.32
576.62	44439.75
576.79	44734.66
576.95	44404.64
577.11	45052.97
577.27	44856.37
577.43	44608.27
577.59	45141.91
577.75	44839.98
577.92	44804.88
578.08	44217.40
578.24	44378.90
578.40	44587.21
578.56	45092.76
578.72	45006.16
578.88	44999.14
579.04	44800.19
579.21	44877.43
579.37	44645.72
579.53	44760.40
579.69	44573.16
579.85	44421.03
580.01	45160.64
580.17	44992.12
580.33	45324.47
580.49	45268.30
580.65	44811.90
580.82	44966.37
580.98	44795.51
581.14	45034.25
581.30	45181.70
581.46	44854.03
581.62	44919.56
581.78	44900.84
581.94	45361.92
582.10	45242.56
582.26	45052.97
582.42	45045.95
582.58	45230.85
582.74	45024.89
582.90	45291.71
583.06	44631.68
583.22	45172.34
583.38	45184.04
583.54	45359.58
583.70	45020.20
583.86	44662.10
584.02	44573.16
584.18	44968.71
584.34	44687.85
584.50	45322.13
584.66	44987.44
584.82	45268.30
584.98	45045.95
585.14	45284.68
585.30	44900.84
585.46	44692.53
585.62	44999.14
585.78	44868.07
585.94	44886.79
586.10	44879.77
586.26	44760.40
586.42	44856.37
586.58	45219.15
586.74	45045.95
586.90	44903.18
587.06	44928.92
587.22	45357.24
587.38	44664.44
587.54	45083.40
587.70	45017.86
587.86	45209.79
588.02	44755.72
588.18	45226.17
588.34	44914.88
588.49	45179.36
588.65	44481.88
588.81	45057.65
588.97	45015.52
589.13	44828.28
589.29	44900.84
589.45	45134.89
589.61	45404.05
589.77	45282.34
589.93	45277.66
590.08	45146.59
590.24	45329.16
