SpectraSuite Data File
++++++++++++++++++++++++++++++++++++
Date: Fri Oct 25 11:23:48 EDT 2013
User: price-jones
Dark Spectrum Present: No
Reference Spectrum Present: No
Number of Sampled Component Spectra: 1
Spectrometers: USB2+H05261
Integration Time (usec): 100000 (USB2+H05261)
Spectra Averaged: 1 (USB2+H05261)
Boxcar Smoothing: 0 (USB2+H05261)
Correct for Electrical Dark: No (USB2+H05261)
Strobe/Lamp Enabled: No (USB2+H05261)
Correct for Detector Non-linearity: No (USB2+H05261)
Correct for Stray Light: No (USB2+H05261)
Number of Pixels in Processed Spectrum: 2048
>>>>>Begin Processed Spectral Data<<<<<
365.73	259.80
365.92	259.80
366.12	259.80
366.32	175.54
366.52	159.16
366.72	168.52
366.91	119.37
367.11	140.43
367.31	138.09
367.51	65.54
367.70	152.13
367.90	177.88
368.10	142.77
368.30	60.85
368.49	145.11
368.69	152.13
368.89	110.01
369.09	154.48
369.28	154.48
369.48	203.63
369.68	168.52
369.87	220.01
370.07	142.77
370.27	243.42
370.47	344.06
370.66	568.75
370.86	575.77
371.06	638.97
371.25	702.16
371.45	697.48
371.65	676.41
371.84	697.48
372.04	620.24
372.24	711.52
372.44	730.25
372.63	669.39
372.83	732.59
373.03	844.93
373.22	648.33
373.42	774.72
373.62	713.86
373.81	788.76
374.01	802.80
374.21	819.19
374.40	816.85
374.60	875.36
374.79	819.19
374.99	807.48
375.19	777.06
375.38	830.89
375.58	835.57
375.78	877.70
375.97	816.85
376.17	910.47
376.37	884.72
376.56	884.72
376.76	924.51
376.95	830.89
377.15	961.96
377.35	863.66
377.54	924.51
377.74	837.91
377.93	912.81
378.13	919.83
378.33	922.17
378.52	966.64
378.72	954.94
378.91	971.32
379.11	891.74
379.31	964.30
379.50	940.90
379.70	943.24
379.89	971.32
380.09	863.66
380.28	997.07
380.48	978.34
380.68	978.34
380.87	966.64
381.07	1057.92
381.26	1067.28
381.46	964.30
381.65	983.02
381.85	1055.58
382.04	1041.54
382.24	1039.20
382.43	1004.09
382.63	1060.26
382.83	1095.37
383.02	1055.58
383.22	1144.52
383.41	1125.80
383.61	1116.44
383.80	1121.12
384.00	1123.46
384.19	1121.12
384.39	1116.44
384.58	1144.52
384.78	1125.80
384.97	1165.59
385.17	1205.38
385.36	1102.39
385.56	1167.93
385.75	1172.61
385.95	1254.53
386.14	1158.57
386.34	1090.69
386.53	1284.95
386.72	1188.99
386.92	1273.25
387.11	1296.66
387.31	1294.32
387.50	1247.51
387.70	1128.14
387.89	1249.85
388.09	1228.78
388.28	1273.25
388.48	1233.46
388.67	1226.44
388.86	1221.76
389.06	1289.64
389.25	1341.13
389.45	1310.70
389.64	1369.21
389.84	1397.30
390.03	1334.11
390.22	1394.96
390.42	1331.76
390.61	1310.70
390.81	1467.52
391.00	1432.41
391.19	1371.55
391.39	1401.98
391.58	1474.54
391.78	1486.24
391.97	1472.20
392.16	1490.92
392.36	1483.90
392.55	1565.82
392.75	1544.75
392.94	1572.84
393.13	1495.60
393.33	1549.43
393.52	1572.84
393.71	1570.50
393.91	1579.86
394.10	1596.25
394.29	1668.80
394.49	1584.54
394.68	1671.14
394.88	1668.80
395.07	1724.97
395.26	1727.32
395.46	1743.70
395.65	1685.19
395.84	1678.16
396.04	1736.68
396.23	1750.72
396.42	1769.44
396.62	1783.49
396.81	1849.02
397.00	1797.53
397.19	1783.49
397.39	1720.29
397.58	1837.32
397.77	1689.87
397.97	1790.51
398.16	1837.32
398.35	1973.07
398.55	1895.83
398.74	1909.88
398.93	1909.88
399.12	1970.73
399.32	1863.07
399.51	1996.48
399.70	1912.22
399.90	2022.22
400.09	1996.48
400.28	1954.35
400.47	2052.65
400.67	2012.86
400.86	2087.76
401.05	2076.06
401.24	2031.58
401.44	2127.55
401.63	2134.57
401.82	2099.46
402.01	2057.33
402.21	2202.44
402.40	2162.66
402.59	2155.63
402.78	2253.94
402.97	2296.07
403.17	2263.30
403.36	2174.36
403.55	2267.98
403.74	2331.17
403.93	2352.24
404.13	2401.39
404.32	2275.00
404.51	2277.34
404.70	2450.54
404.89	2424.80
405.09	2326.49
405.28	2413.09
405.47	2427.14
405.66	2520.76
405.85	2455.22
406.05	2502.03
406.24	2497.35
406.43	2562.89
406.62	2658.85
406.81	2551.18
407.00	2569.91
407.20	2588.63
407.39	2698.64
407.58	2799.28
407.77	2719.70
407.96	2860.13
408.15	2726.72
408.34	2724.38
408.54	2825.03
408.73	2773.53
408.92	2874.18
409.11	2822.69
409.30	2785.24
409.49	2846.09
409.68	2892.90
409.87	2902.26
410.07	2956.10
410.26	3021.63
410.45	3033.33
410.64	3052.06
410.83	3009.93
411.02	3164.40
411.21	3236.96
411.40	3164.40
411.59	3211.22
411.78	3145.68
411.98	3066.10
412.17	3218.24
412.36	3302.50
412.55	3454.63
412.74	3431.23
412.93	3468.67
413.12	3398.46
413.31	3482.72
413.50	3480.38
413.69	3426.54
413.88	3588.04
414.07	3459.31
414.26	3691.02
414.45	3838.48
414.64	3852.52
414.83	3672.30
415.02	3838.48
415.22	3852.52
415.41	3798.69
415.60	3803.37
415.79	3859.54
415.98	4004.66
416.17	3962.53
416.36	3995.29
416.55	3885.29
416.74	4021.04
416.93	4131.05
417.12	4077.21
417.31	4177.86
417.50	4159.13
417.69	4430.63
417.88	4437.66
418.07	4318.29
418.26	4276.16
418.45	4327.65
418.64	4493.83
418.83	4386.16
419.02	4360.42
419.21	4552.34
419.39	4575.75
419.58	4519.57
419.77	4313.61
419.96	4564.04
420.15	4535.96
420.34	4493.83
420.53	4386.16
420.72	4692.77
420.91	4655.33
421.10	4746.61
421.29	4802.78
421.48	4592.13
421.67	4793.42
421.86	4741.93
422.05	4823.84
422.24	4779.37
422.43	4767.67
422.61	4959.60
422.80	4910.44
422.99	4959.60
423.18	5046.20
423.37	5111.73
423.56	5139.82
423.75	4868.31
423.94	4905.76
424.13	4676.39
424.32	4709.16
424.50	4957.25
424.69	5125.77
424.88	5107.05
425.07	5001.72
425.26	4912.78
425.45	5013.43
425.64	5027.47
425.83	4964.28
426.01	5025.13
426.20	5074.28
426.39	5055.56
426.58	5076.62
426.77	5050.88
426.96	5123.43
427.15	5050.88
427.33	5277.91
427.52	5123.43
427.71	5179.61
427.90	5280.25
428.09	5341.10
428.28	5441.75
428.46	5289.61
428.65	5266.21
428.84	5458.13
429.03	5523.66
429.22	5294.29
429.40	5547.07
429.59	5514.30
429.78	5305.99
429.97	5221.74
430.16	5563.45
430.34	5514.30
430.53	5650.05
430.72	5600.90
430.91	5558.77
431.10	5467.49
431.28	5699.20
431.47	5884.11
431.66	5809.21
431.85	5661.76
432.03	6003.47
432.22	5963.68
432.41	6069.01
432.60	5975.39
432.79	6064.33
432.97	6087.73
433.16	6008.16
433.35	6029.22
433.54	6019.86
433.72	6090.07
433.91	6174.33
434.10	6129.86
434.28	6129.86
434.47	6296.04
434.66	6209.44
434.85	6272.64
435.03	6300.72
435.22	6307.74
435.41	6473.92
435.59	6427.11
435.78	6396.68
435.97	6492.65
436.16	6333.49
436.34	6485.62
436.53	6516.05
436.72	6722.02
436.90	6511.37
437.09	6616.69
437.28	6504.35
437.46	6649.46
437.65	6689.25
437.84	6820.32
438.02	6684.57
438.21	6726.70
438.40	6668.19
438.58	6956.07
438.77	7143.32
438.96	6981.82
439.14	7021.61
439.33	7145.66
439.52	7197.15
439.70	7300.13
439.89	7485.03
440.08	7398.43
440.26	7368.01
440.45	7545.89
440.63	7515.46
440.82	7691.00
441.01	7632.49
441.19	7655.89
441.38	7627.81
441.57	7756.54
441.75	7786.96
441.94	8030.38
442.12	7875.90
442.31	7878.24
442.50	7978.89
442.68	8140.38
442.87	8105.28
443.05	8128.68
443.24	8259.75
443.43	8402.52
443.61	8124.00
443.80	8369.76
443.98	8229.32
444.17	8016.33
444.35	8219.96
444.54	8486.78
444.73	8428.27
444.91	8311.24
445.10	8369.76
445.28	8313.58
445.47	8327.63
445.65	8432.95
445.84	8489.12
446.02	8428.27
446.21	8423.59
446.39	8327.63
446.58	8557.00
446.77	8456.36
446.95	8374.44
447.14	8573.38
447.32	8657.64
447.51	8477.42
447.69	8470.40
447.88	8479.76
448.06	8594.45
448.25	8559.34
448.43	8477.42
448.62	8683.39
448.80	8755.94
448.99	8669.34
449.17	8875.31
449.36	8732.54
449.54	8870.63
449.73	9004.04
449.91	8950.21
450.10	9090.64
450.28	8959.57
450.46	9081.28
450.65	8973.61
450.83	9104.68
451.02	9029.79
451.20	9198.31
451.39	9291.93
451.57	9219.37
451.76	9069.58
451.94	9165.54
452.13	9366.82
452.31	9373.85
452.49	9167.88
452.68	9448.74
452.86	9509.60
453.05	9483.85
453.23	9666.41
453.42	9624.28
453.60	9582.15
453.78	9446.40
453.97	9408.95
454.15	9729.61
454.34	9483.85
454.52	9804.50
454.70	9802.16
454.89	9977.70
455.07	9994.09
455.26	9797.48
455.44	9998.77
455.62	9900.47
455.81	9930.89
455.99	10162.61
456.17	10331.12
456.36	10094.73
456.54	10235.16
456.73	10258.57
456.91	10560.50
457.09	10401.34
457.28	10724.33
457.46	10478.58
457.64	10499.64
457.83	10525.39
458.01	10562.84
458.19	10792.21
458.38	10427.09
458.56	10516.03
458.74	10796.89
458.93	10656.46
459.11	10633.05
459.29	10841.36
459.48	10993.50
459.66	10736.04
459.84	10846.04
460.03	11082.44
460.21	11098.82
460.39	10923.28
460.57	11140.95
460.76	11143.29
460.94	11225.21
461.12	11260.32
461.31	11272.02
461.49	11339.90
461.67	11246.27
461.85	11267.34
462.04	11419.47
462.22	11864.18
462.40	11648.85
462.59	11562.25
462.77	11564.59
462.95	11770.55
463.13	11391.39
463.32	11646.51
463.50	11812.68
463.68	11868.86
463.86	11789.28
464.05	11796.30
464.23	11597.35
464.41	12013.97
464.59	11651.19
464.78	12248.02
464.96	12028.01
465.14	12109.93
465.32	12152.06
465.50	12039.72
465.69	12264.41
465.87	12154.40
466.05	12133.34
466.23	12346.33
466.41	12236.32
466.60	12465.69
466.78	12161.42
466.96	12327.60
467.14	12596.76
467.32	12390.80
467.51	12788.69
467.69	12409.52
467.87	12528.89
468.05	12781.67
468.23	12390.80
468.41	12596.76
468.60	12538.25
468.78	12669.32
468.96	12641.23
469.14	12999.34
469.32	13362.12
469.50	12662.30
469.69	13064.87
469.87	13151.47
470.05	13116.36
470.23	13205.30
470.41	13298.92
470.59	13378.50
470.77	13247.43
470.95	13420.63
471.14	13706.18
471.32	13170.19
471.50	13518.93
471.68	13591.49
471.86	13846.61
472.04	13755.33
472.22	14143.86
472.40	13902.78
472.58	13834.91
472.77	14026.83
472.95	14078.32
473.13	14609.62
473.31	13963.64
473.49	14057.26
473.67	14305.35
473.85	14324.08
474.03	14534.73
474.21	14665.80
474.39	14541.75
474.57	14719.63
474.75	14728.99
474.93	15147.95
475.12	14836.66
475.30	15213.48
475.48	15183.06
475.66	15215.82
475.84	15311.78
476.02	15637.12
476.20	15218.16
476.38	15793.94
476.56	16077.14
476.74	16250.34
476.92	16137.99
477.10	15840.75
477.28	16285.45
477.46	16233.96
477.64	16521.84
477.82	16468.01
478.00	17252.09
478.18	16999.31
478.36	16884.62
478.54	17092.93
478.72	17184.21
478.90	17338.69
479.08	17781.05
479.26	17717.86
479.44	17834.88
479.62	17710.83
479.80	18225.75
479.98	18490.23
480.16	18693.86
480.34	18576.83
480.52	18682.16
480.70	18785.14
480.88	18623.64
481.06	18923.23
481.24	18855.36
481.41	19281.33
481.59	19276.65
481.77	19515.39
481.95	19559.86
482.13	19775.19
482.31	19716.67
482.49	20538.20
482.67	20655.23
482.85	20446.92
483.03	20915.03
483.21	21067.16
483.39	20978.22
483.57	21064.82
483.74	21144.40
483.92	21303.56
484.10	21465.05
484.28	22071.25
484.46	22136.79
484.64	22520.63
484.82	22125.08
485.00	22565.10
485.18	22808.52
485.35	23091.73
485.53	23234.50
485.71	22988.74
485.89	23468.55
486.07	23374.93
486.25	23477.91
486.43	23733.03
486.61	24009.22
486.78	24254.97
486.96	24219.86
487.14	24687.97
487.32	24889.26
487.50	24940.75
487.68	24987.56
487.85	25296.51
488.03	25862.92
488.21	25926.11
488.39	25909.73
488.57	26064.21
488.75	26398.90
488.92	26951.27
489.10	27068.30
489.28	26890.41
489.46	27447.46
489.64	27246.18
489.81	27725.99
489.99	27688.54
490.17	28156.64
490.35	28187.07
490.53	28449.21
490.70	28362.61
490.88	28374.31
491.06	29095.20
491.24	28826.04
491.41	29462.66
491.59	29460.32
491.77	29488.41
491.95	29935.45
492.13	29839.49
492.30	30321.64
492.48	30543.99
492.66	30047.80
492.84	30513.56
493.01	30630.59
493.19	30745.28
493.37	31276.58
493.54	31552.76
493.72	31683.83
493.90	31372.54
494.08	31929.59
494.25	32446.85
494.43	32018.53
494.61	32149.60
494.79	32659.84
494.96	32795.59
495.14	32989.85
495.32	33090.49
495.49	33383.06
495.67	33418.17
495.85	33296.46
496.02	33708.40
496.20	34506.52
496.38	34094.58
496.55	34635.25
496.73	34948.88
496.91	34913.77
497.09	34923.13
497.26	35250.81
497.44	34824.83
497.62	35353.79
497.79	36105.10
497.97	35875.73
498.14	35938.93
498.32	36285.33
498.50	36453.84
498.67	36793.22
498.85	36603.64
499.03	36786.20
499.20	36835.35
499.38	37022.59
499.56	37371.33
499.73	37354.95
499.91	37497.72
500.08	37717.73
500.26	37764.54
500.44	37745.82
500.61	37956.47
500.79	37677.94
500.97	38796.72
501.14	38939.49
501.32	38820.13
501.49	38752.25
501.67	38693.74
501.84	39402.92
502.02	38930.13
502.20	39159.50
502.37	39316.32
502.55	39571.44
502.72	39363.13
502.90	39782.09
503.07	39814.85
503.25	40072.31
503.43	39615.91
503.60	40708.94
503.78	40240.83
503.95	40758.09
504.13	41062.36
504.30	41020.23
504.48	40861.07
504.65	41104.49
504.83	41205.13
505.01	41200.45
505.18	41329.18
505.36	41677.92
505.53	41635.79
505.71	41659.20
505.88	42337.95
506.06	41280.03
506.23	42263.05
506.41	42036.02
506.58	42354.33
506.76	42749.88
506.93	42799.04
507.11	42513.49
507.28	42644.56
507.46	43014.37
507.63	42763.93
507.81	43393.53
507.98	43438.00
508.16	43480.13
508.33	43964.62
508.50	43913.13
508.68	43985.69
508.85	44233.78
509.03	43924.83
509.20	44086.33
509.38	44481.88
509.55	44554.44
509.73	44669.12
509.90	44765.09
510.08	44112.08
510.25	44596.57
510.42	45268.30
510.60	45347.88
510.77	45280.00
510.95	45649.81
511.12	44821.26
511.30	45029.57
511.47	46012.59
511.64	45989.19
511.82	46169.41
511.99	46014.93
512.17	46183.45
512.34	45986.85
512.51	46604.75
512.69	46822.42
512.86	46686.67
513.04	47070.51
513.21	46981.57
513.38	46752.20
513.56	46852.84
513.73	47168.82
513.90	47129.03
514.08	46855.18
514.25	47393.51
514.43	47524.58
514.60	48018.43
514.77	47576.07
514.95	48142.48
515.12	47522.24
515.29	47679.05
515.47	48451.43
515.64	48076.94
515.81	47515.22
515.99	48519.31
516.16	48617.61
516.33	48229.08
516.51	49375.94
516.68	48533.35
516.85	48493.56
517.03	48999.12
517.20	49132.53
517.37	49158.27
517.54	49308.07
517.72	48945.28
517.89	49600.63
518.06	49207.42
518.24	49263.60
518.41	49418.07
518.58	49830.01
518.75	49837.03
518.93	50157.68
519.10	49502.33
519.27	49909.58
519.45	49972.78
519.62	50305.13
519.79	49801.92
519.96	49942.35
520.14	50576.64
520.31	50195.13
520.48	50808.35
520.65	50333.22
520.83	50410.46
521.00	50857.50
521.17	50770.90
521.34	50859.84
521.52	51292.84
521.69	50883.25
521.86	51086.87
522.03	51215.60
522.20	51529.23
522.38	51728.18
522.55	51353.69
522.72	51636.90
522.89	51421.57
523.07	52016.07
523.24	52151.82
523.41	51700.09
523.58	51388.80
523.75	51992.66
523.92	52088.62
524.10	52212.67
524.27	52404.59
524.44	52451.41
524.61	52217.35
524.78	52273.52
524.96	52442.04
525.13	52224.37
525.30	52535.66
525.47	52505.24
525.64	52765.04
525.81	52804.83
525.98	52844.62
526.16	52631.63
526.33	52870.36
526.50	53172.29
526.67	52849.30
526.84	53118.46
527.01	52842.27
527.18	52877.38
527.36	53090.37
527.53	53301.02
527.70	53336.13
527.87	53385.28
528.04	53450.81
528.21	53602.95
528.38	53418.05
528.55	53577.20
528.72	53425.07
528.89	53633.38
529.07	53490.60
529.24	53457.84
529.41	53984.46
529.58	53640.40
529.75	53668.48
529.92	53914.24
530.09	54080.42
530.26	54082.76
530.43	54080.42
530.60	54185.74
530.77	54068.72
530.94	54185.74
531.11	54136.59
531.28	54394.05
531.46	54143.61
531.63	54820.03
531.80	54525.12
531.97	54656.19
532.14	54571.93
532.31	54663.21
532.48	55037.70
532.65	54656.19
532.82	54344.90
532.99	54906.63
533.16	54791.94
533.33	55070.46
533.50	55257.71
533.67	54824.71
533.84	54892.58
534.01	55011.95
534.18	54848.11
534.35	55416.86
534.52	55091.53
534.69	55334.95
534.86	55210.90
535.03	55313.88
535.20	55238.98
535.37	55402.82
535.54	55702.41
535.71	55393.46
535.88	55491.76
536.05	55620.49
536.22	55732.84
536.38	55833.48
536.55	55866.25
536.72	55791.35
536.89	55643.90
537.06	55636.87
537.23	55810.07
537.40	55739.86
537.57	55796.03
537.74	55910.72
537.91	56020.72
538.08	56097.96
538.25	55826.46
538.42	55978.59
538.59	56254.78
538.75	56018.38
538.92	56252.44
539.09	56280.52
539.26	56170.52
539.43	56430.32
539.60	56282.86
539.77	56343.72
539.94	56699.48
540.11	56582.45
540.28	56577.77
540.44	56484.15
540.61	56437.34
540.78	56362.44
540.95	56563.73
541.12	56566.07
541.29	56666.71
541.46	56715.86
541.62	56797.78
541.79	56753.31
541.96	56676.07
542.13	56582.45
542.30	56928.85
542.47	56968.64
542.63	57176.95
542.80	56793.10
542.97	57200.35
543.14	57420.36
543.31	57425.04
543.48	57340.78
543.64	57471.85
543.81	57401.64
543.98	57467.17
544.15	57565.48
544.32	57542.07
544.48	57787.83
544.65	57546.75
544.82	57623.99
544.99	57322.06
545.16	57436.75
545.32	57434.41
545.49	57752.72
545.66	57930.60
545.83	57790.17
546.00	57918.90
546.16	57839.32
546.33	57949.32
546.50	57602.92
546.67	57755.06
546.83	57612.29
547.00	57897.83
547.17	57972.73
547.34	58117.84
547.50	58019.54
547.67	58211.46
547.84	58089.76
548.00	58223.17
548.17	58375.30
548.34	58274.66
548.51	58321.47
548.67	58305.09
548.84	58166.99
549.01	58038.26
549.18	58258.27
549.34	58398.71
549.51	58433.81
549.68	58670.21
549.84	58834.05
550.01	58560.20
550.18	58295.72
550.34	58590.63
550.51	58475.94
550.68	58688.93
550.84	58482.97
551.01	58763.83
551.18	58777.87
551.34	58609.35
551.51	58698.30
551.68	58742.77
551.84	58735.74
552.01	58728.72
552.18	58824.68
552.34	58754.47
552.51	58817.66
552.68	58670.21
552.84	58773.19
553.01	59313.86
553.18	58958.09
553.34	59124.27
553.51	58777.87
553.67	59049.38
553.84	59323.22
554.01	59152.36
554.17	59119.59
554.34	59103.21
554.51	59138.32
554.67	59250.66
554.84	59208.53
555.00	59150.02
555.17	59283.43
555.33	59145.34
555.50	59103.21
555.67	59131.29
555.83	59084.48
556.00	59168.74
556.16	59662.60
556.33	59465.99
556.50	59430.88
556.66	59381.73
556.83	59131.29
556.99	59681.32
557.16	59664.94
557.32	59664.94
557.49	59870.90
557.65	59440.24
557.82	59531.53
557.98	59639.19
558.15	59583.02
558.32	59671.96
558.48	59531.53
558.65	59374.71
558.81	59564.29
558.98	59796.01
559.14	59697.70
559.31	59608.76
559.47	59781.96
559.64	59966.87
559.80	59877.93
559.97	60006.65
560.13	59786.64
560.30	59889.63
560.46	59978.57
560.63	59728.13
560.79	60055.81
560.96	60137.72
561.12	59856.86
561.29	59966.87
561.45	60058.15
561.61	59927.08
561.78	59976.23
561.94	60004.31
562.11	59990.27
562.27	59920.05
562.44	60090.91
562.60	60004.31
562.77	60069.85
562.93	60053.47
563.10	60158.79
563.26	59903.67
563.42	60313.26
563.59	60121.34
563.75	60104.96
563.92	59913.03
564.08	60151.77
564.24	60369.44
564.41	60240.71
564.57	60383.48
564.74	60243.05
564.90	60451.36
565.07	60123.68
565.23	60376.46
565.39	60292.20
565.56	60238.37
565.72	60427.95
565.88	60374.12
566.05	60491.15
566.21	60341.35
566.38	60343.69
566.54	60310.92
566.70	60446.68
566.87	60381.14
567.03	60168.15
567.19	60699.45
567.36	60317.95
567.52	60079.21
567.68	60610.51
567.85	60484.12
568.01	60584.77
568.17	60434.97
568.34	60575.40
568.50	60427.95
568.66	60378.80
568.83	60652.64
568.99	60493.49
569.15	60769.67
569.32	60477.10
569.48	60432.63
569.64	60523.91
569.81	60591.79
569.97	60404.55
570.13	60575.40
570.30	60535.62
570.46	60577.75
570.62	60652.64
570.78	60537.96
570.95	60575.40
571.11	60835.20
571.27	60420.93
571.43	60736.90
571.60	60818.82
571.76	60673.71
571.92	60912.44
572.09	60762.65
572.25	60701.79
572.41	60746.26
572.57	60638.60
572.74	61043.51
572.90	60720.52
573.06	60736.90
573.22	60814.14
573.38	60767.33
573.55	60706.47
573.71	60872.65
573.87	60835.20
574.03	60598.81
574.20	60874.99
574.36	60779.03
574.52	60816.48
574.68	60830.52
574.84	60992.02
575.01	60832.86
575.17	60856.27
575.33	60966.27
575.49	60821.16
575.65	61052.87
575.82	60963.93
575.98	61003.72
576.14	61132.45
576.30	60842.23
576.46	60746.26
576.62	60865.63
576.79	60982.66
576.95	60842.23
577.11	61050.53
577.27	61137.13
577.43	61006.06
577.59	61034.15
577.75	60809.46
577.92	60807.12
578.08	60940.53
578.24	61043.51
578.40	60940.53
578.56	60996.70
578.72	60872.65
578.88	60977.98
579.04	61062.24
579.21	61036.49
579.37	61071.60
579.53	61048.19
579.69	60874.99
579.85	61087.98
580.01	61169.90
580.17	60933.51
580.33	61216.71
580.49	60973.30
580.65	61031.81
580.82	60928.83
580.98	60830.52
581.14	60999.04
581.30	61202.67
581.46	60907.76
581.62	61230.75
581.78	60865.63
581.94	60945.21
582.10	61029.47
582.26	61097.34
582.42	60856.27
582.58	61052.87
582.74	61097.34
582.90	61176.92
583.06	61155.86
583.22	60739.24
583.38	60928.83
583.54	61055.21
583.70	61235.44
583.86	61242.46
584.02	60879.67
584.18	61090.32
584.34	61090.32
584.50	61043.51
584.66	60874.99
584.82	60776.69
584.98	61202.67
585.14	61137.13
585.30	60856.27
585.46	61083.30
585.62	61214.37
585.78	61359.48
585.94	60966.27
586.10	61064.58
586.26	61174.58
586.42	61134.79
586.58	61326.72
586.74	61205.01
586.90	61286.93
587.06	61109.05
587.22	61240.12
587.38	61003.72
587.54	61366.51
587.70	61392.25
587.86	61144.16
588.02	61317.35
588.18	61216.71
588.34	61315.01
588.49	61209.69
