SpectraSuite Data File
++++++++++++++++++++++++++++++++++++
Date: Fri Oct 25 11:25:25 EDT 2013
User: price-jones
Dark Spectrum Present: No
Reference Spectrum Present: No
Number of Sampled Component Spectra: 1
Spectrometers: USB2+H05261
Integration Time (usec): 100000 (USB2+H05261)
Spectra Averaged: 1 (USB2+H05261)
Boxcar Smoothing: 0 (USB2+H05261)
Correct for Electrical Dark: No (USB2+H05261)
Strobe/Lamp Enabled: No (USB2+H05261)
Correct for Detector Non-linearity: No (USB2+H05261)
Correct for Stray Light: No (USB2+H05261)
Number of Pixels in Processed Spectrum: 2048
>>>>>Begin Processed Spectral Data<<<<<
365.73	194.26
365.92	194.26
366.12	194.26
366.32	180.22
366.52	154.48
366.72	131.07
366.91	163.84
367.11	208.31
367.31	53.83
367.51	107.66
367.70	117.03
367.90	98.30
368.10	98.30
368.30	135.75
368.49	187.24
368.69	152.13
368.89	201.29
369.09	131.07
369.28	198.95
369.48	196.60
369.68	257.46
369.87	121.71
370.07	133.41
370.27	264.48
370.47	297.25
370.66	610.88
370.86	643.65
371.06	702.16
371.25	734.93
371.45	657.69
371.65	671.73
371.84	716.20
372.04	667.05
372.24	718.54
372.44	713.86
372.63	709.18
372.83	744.29
373.03	800.46
373.22	730.25
373.42	786.42
373.62	833.23
373.81	849.61
374.01	844.93
374.21	786.42
374.40	760.67
374.60	837.91
374.79	826.21
374.99	805.14
375.19	819.19
375.38	800.46
375.58	856.64
375.78	863.66
375.97	774.72
376.17	954.94
376.37	919.83
376.56	926.85
376.76	894.08
376.95	861.32
377.15	908.13
377.35	898.77
377.54	877.70
377.74	877.70
377.93	880.04
378.13	833.23
378.33	952.60
378.52	978.34
378.72	912.81
378.91	940.90
379.11	917.49
379.31	950.26
379.50	940.90
379.70	950.26
379.89	987.71
380.09	936.21
380.28	922.17
380.48	891.74
380.68	947.92
380.87	1008.77
381.07	1001.75
381.26	992.39
381.46	1034.52
381.65	1090.69
381.85	1046.22
382.04	1100.05
382.24	1053.24
382.43	1025.15
382.63	1015.79
382.83	1060.26
383.02	1139.84
383.22	1081.33
383.41	1071.97
383.61	1090.69
383.80	1118.78
384.00	1177.29
384.19	1107.07
384.39	1132.82
384.58	1081.33
384.78	1132.82
384.97	1181.97
385.17	1139.84
385.36	1165.59
385.56	1179.63
385.75	1181.97
385.95	1142.18
386.14	1219.42
386.34	1263.89
386.53	1156.22
386.72	1233.46
386.92	1207.72
387.11	1235.80
387.31	1238.14
387.50	1268.57
387.70	1193.67
387.89	1289.64
388.09	1284.95
388.28	1221.76
388.48	1291.98
388.67	1289.64
388.86	1291.98
389.06	1287.29
389.25	1371.55
389.45	1371.55
389.64	1299.00
389.84	1401.98
390.03	1343.47
390.22	1444.11
390.42	1352.83
390.61	1317.72
390.81	1409.00
391.00	1394.96
391.19	1495.60
391.39	1425.39
391.58	1369.21
391.78	1462.83
391.97	1523.69
392.16	1350.49
392.36	1441.77
392.55	1533.05
392.75	1462.83
392.94	1526.03
393.13	1476.88
393.33	1483.90
393.52	1528.37
393.71	1593.90
393.91	1603.27
394.10	1556.46
394.29	1596.25
394.49	1526.03
394.68	1650.08
394.88	1612.63
395.07	1668.80
395.26	1636.03
395.46	1685.19
395.65	1694.55
395.84	1713.27
396.04	1774.13
396.23	1743.70
396.42	1717.95
396.62	1657.10
396.81	1715.61
397.00	1739.02
397.19	1753.06
397.39	1832.64
397.58	1809.23
397.77	1856.04
397.97	1797.53
398.16	1760.08
398.35	1905.20
398.55	1870.09
398.74	1900.52
398.93	1944.99
399.12	1940.30
399.32	1935.62
399.51	1937.96
399.70	1923.92
399.90	1881.79
400.09	2064.35
400.28	1937.96
400.47	1954.35
400.67	2015.20
400.86	2008.18
401.05	2139.25
401.24	2005.84
401.44	2099.46
401.63	2101.80
401.82	2211.81
402.01	2097.12
402.21	2167.34
402.40	2139.25
402.59	2062.01
402.78	2129.89
402.97	2120.53
403.17	2300.75
403.36	2256.28
403.55	2300.75
403.74	2310.11
403.93	2260.96
404.13	2338.20
404.32	2242.23
404.51	2387.35
404.70	2466.92
404.89	2473.95
405.09	2452.88
405.28	2520.76
405.47	2457.56
405.66	2581.61
405.85	2497.35
406.05	2427.14
406.24	2579.27
406.43	2427.14
406.62	2518.42
406.81	2668.21
407.00	2619.06
407.20	2574.59
407.39	2733.75
407.58	2736.09
407.77	2700.98
407.96	2724.38
408.15	2733.75
408.34	2787.58
408.54	2759.49
408.73	2785.24
408.92	2773.53
409.11	2904.60
409.30	2925.67
409.49	2799.28
409.68	2951.42
409.87	2862.48
410.07	2956.10
410.26	2956.10
410.45	2930.35
410.64	3077.80
410.83	3021.63
411.02	3075.46
411.21	3187.81
411.40	3206.53
411.59	3208.87
411.78	3157.38
411.98	3115.25
412.17	3274.41
412.36	3208.87
412.55	3330.58
412.74	3377.39
412.93	3456.97
413.12	3365.69
413.31	3520.17
413.50	3515.48
413.69	3389.10
413.88	3583.36
414.07	3571.66
414.26	3517.83
414.45	3592.72
414.64	3756.56
414.83	3730.81
415.02	3707.41
415.22	3854.86
415.41	3824.44
415.60	3838.48
415.79	3971.89
415.98	4009.34
416.17	3953.16
416.36	3941.46
416.55	4051.47
416.74	4051.47
416.93	3953.16
417.12	4102.96
417.31	4117.00
417.50	4126.36
417.69	4257.43
417.88	4142.75
418.07	4182.54
418.26	4264.46
418.45	4308.93
418.64	4596.81
418.83	4308.93
419.02	4470.42
419.21	4545.32
419.39	4496.17
419.58	4613.20
419.77	4430.63
419.96	4484.47
420.15	4545.32
420.34	4482.13
420.53	4571.07
420.72	4624.90
420.91	4613.20
421.10	4674.05
421.29	4777.03
421.48	4620.22
421.67	4751.29
421.86	4645.96
422.05	4734.90
422.24	4809.80
422.43	4774.69
422.61	4915.12
422.80	4784.06
422.99	4784.06
423.18	5013.43
423.37	4842.57
423.56	4917.47
423.75	4929.17
423.94	4730.22
424.13	4472.76
424.32	4706.82
424.50	4915.12
424.69	5039.17
424.88	4929.17
425.07	4908.10
425.26	4861.29
425.45	4999.38
425.64	4891.72
425.83	4985.34
426.01	5064.92
426.20	4931.51
426.39	5055.56
426.58	4903.42
426.77	4880.02
426.96	5062.58
427.15	5170.24
427.33	5198.33
427.52	4975.98
427.71	5163.22
427.90	5256.84
428.09	5254.50
428.28	5247.48
428.46	5142.16
428.65	5240.46
428.84	5607.92
429.03	5544.73
429.22	5324.72
429.40	5399.62
429.59	5441.75
429.78	5416.00
429.97	5263.86
430.16	5366.85
430.34	5612.60
430.53	5650.05
430.72	5673.46
430.91	5715.59
431.10	5500.26
431.28	5734.31
431.47	5827.93
431.66	5692.18
431.85	5694.52
432.03	5788.14
432.22	5928.58
432.41	5841.98
432.60	5790.49
432.79	5851.34
432.97	5797.51
433.16	5877.09
433.35	5851.34
433.54	5996.45
433.72	6193.06
433.91	6017.52
434.10	6120.50
434.28	5994.11
434.47	6146.25
434.66	6111.14
434.85	6223.48
435.03	6328.81
435.22	6052.63
435.41	6380.30
435.59	6312.42
435.78	6438.81
435.97	6473.92
436.16	6345.19
436.34	6361.58
436.53	6415.41
436.72	6651.80
436.90	6487.96
437.09	6499.67
437.28	6443.49
437.46	6537.12
437.65	6530.09
437.84	6698.61
438.02	6761.81
438.21	6684.57
438.40	6567.54
438.58	6871.81
438.77	6979.48
438.96	6911.60
439.14	6911.60
439.33	7194.81
439.52	7201.83
439.70	7302.47
439.89	7384.39
440.08	7267.36
440.26	7302.47
440.45	7222.89
440.63	7470.99
440.82	7473.33
441.01	7627.81
441.19	7585.68
441.38	7595.04
441.57	7632.49
441.75	7810.37
441.94	7793.98
442.12	7801.01
442.31	7903.99
442.50	8070.17
442.68	7911.01
442.87	8093.57
443.05	7936.76
443.24	8070.17
443.43	8039.74
443.61	8175.49
443.80	8325.29
443.98	8114.64
444.17	7988.25
444.35	8229.32
444.54	8187.19
444.73	8250.39
444.91	8353.37
445.10	8341.67
445.28	8404.86
445.47	8116.98
445.65	8126.34
445.84	8442.31
446.02	8507.85
446.21	8273.79
446.39	8285.50
446.58	8212.94
446.77	8477.42
446.95	8196.56
447.14	8409.54
447.32	8720.84
447.51	8552.32
447.69	8458.70
447.88	8458.70
448.06	8446.99
448.25	8358.05
448.43	8425.93
448.62	8505.51
448.80	8671.68
448.99	8835.52
449.17	8585.08
449.36	8737.22
449.54	8800.41
449.73	8849.57
449.91	8823.82
450.10	8863.61
450.28	9018.08
450.46	8905.74
450.65	9076.60
450.83	8922.12
451.02	8945.53
451.20	8940.85
451.39	9076.60
451.57	9128.09
451.76	9121.07
451.94	8987.66
452.13	9036.81
452.31	9259.16
452.49	9149.15
452.68	9221.71
452.86	9270.86
453.05	9476.83
453.23	9413.63
453.42	9146.81
453.60	9357.46
453.78	9516.62
453.97	9366.82
454.15	9359.80
454.34	9252.14
454.52	9556.41
454.70	9544.70
454.89	9760.03
455.07	9727.27
455.26	9624.28
455.44	10141.54
455.62	9797.48
455.81	9743.65
455.99	9806.84
456.17	10012.81
456.36	9909.83
456.54	10097.07
456.73	10197.71
456.91	10277.29
457.09	10270.27
457.28	10469.22
457.46	10312.40
457.64	10186.01
457.83	10532.41
458.01	10235.16
458.19	10523.05
458.38	10480.92
458.56	10562.84
458.74	10527.73
458.93	10471.56
459.11	10682.20
459.29	10588.58
459.48	10850.72
459.66	10576.88
459.84	10593.26
460.03	10895.19
460.21	11126.91
460.39	10707.95
460.57	10794.55
460.76	10895.19
460.94	11304.79
461.12	11152.65
461.31	10888.17
461.49	10853.06
461.67	11140.95
461.85	11194.78
462.04	11283.72
462.22	11777.58
462.40	11499.05
462.59	11449.90
462.77	11417.13
462.95	11377.34
463.13	11414.79
463.32	11576.29
463.50	11527.14
463.68	11662.89
463.86	11538.84
464.05	11658.21
464.23	11585.65
464.41	11742.47
464.59	11623.10
464.78	12044.40
464.96	11768.21
465.14	11632.46
465.32	12175.47
465.50	12044.40
465.69	12081.85
465.87	12236.32
466.05	12037.38
466.23	12063.12
466.41	12091.21
466.60	12442.29
466.78	12116.95
466.96	12241.00
467.14	12002.27
467.32	12208.23
467.51	12414.20
467.69	11999.93
467.87	12442.29
468.05	12503.14
468.23	12231.64
468.41	12381.43
468.60	12442.29
468.78	12610.81
468.96	12533.57
469.14	12631.87
469.32	12774.64
469.50	12615.49
469.69	12739.54
469.87	13053.17
470.05	12936.14
470.23	13069.55
470.41	12835.50
470.59	13312.97
470.77	13032.10
470.95	12980.61
471.14	13603.19
471.32	13085.94
471.50	13263.82
471.68	13490.85
471.86	13516.59
472.04	13617.24
472.22	13818.52
472.40	13572.77
472.58	13654.69
472.77	13858.31
472.95	14071.30
473.13	14246.84
473.31	14066.62
473.49	14059.60
473.67	14146.20
473.85	13912.14
474.03	14375.57
474.21	14604.94
474.39	14551.11
474.57	14693.88
474.75	14764.10
474.93	14848.36
475.12	14951.34
475.30	14824.95
475.48	15150.29
475.66	15241.57
475.84	14883.47
476.02	15218.16
476.20	15016.88
476.38	15513.07
476.56	15803.30
476.74	16051.39
476.92	15580.95
477.10	15449.88
477.28	15941.39
477.46	15777.55
477.64	15932.03
477.82	16439.92
478.00	17067.19
478.18	16601.42
478.36	16484.39
478.54	16886.97
478.72	16875.26
478.90	17308.26
479.08	17446.35
479.26	17329.33
479.44	17289.54
479.62	17792.75
479.80	17872.33
479.98	17947.23
480.16	18370.86
480.34	18258.52
480.52	18054.89
480.70	18544.06
480.88	18043.19
481.06	18515.98
481.24	18649.39
481.41	18724.29
481.59	19178.35
481.77	19494.32
481.95	19466.24
482.13	19660.50
482.31	19346.87
482.49	19791.57
482.67	19990.52
482.85	20203.50
483.03	20304.15
483.21	20580.33
483.39	20947.79
483.57	20847.15
483.74	20929.07
483.92	21043.76
484.10	21158.44
484.28	21362.07
484.46	21994.01
484.64	22298.28
484.82	21895.71
485.00	21954.22
485.18	22326.37
485.35	22576.81
485.53	22513.61
485.71	22913.84
485.89	23241.52
486.07	23218.11
486.25	23197.05
486.43	23112.79
486.61	23618.35
486.78	23962.40
486.96	23899.21
487.14	24491.37
487.32	24423.49
487.50	24685.63
487.68	24788.61
487.85	24863.51
488.03	25135.01
488.21	25663.97
488.39	25694.40
488.57	25659.29
488.75	26066.55
488.92	25970.58
489.10	26380.18
489.28	26501.89
489.46	26590.83
489.64	26726.58
489.81	27447.46
489.99	27241.50
490.17	27744.71
490.35	28058.34
490.53	27807.90
490.70	28582.62
490.88	27845.35
491.06	28641.14
491.24	28683.27
491.41	28563.90
491.59	28900.94
491.77	29237.97
491.95	29626.50
492.13	29436.92
492.30	29617.14
492.48	29500.11
492.66	29909.71
492.84	30230.36
493.01	30686.76
493.19	30209.29
493.37	30829.54
493.54	30621.23
493.72	30974.65
493.90	30934.86
494.08	31861.71
494.25	31358.50
494.43	31599.57
494.61	31924.91
494.79	32559.19
494.96	32128.53
495.14	32444.51
495.32	32898.57
495.49	33017.94
495.67	32985.17
495.85	33326.89
496.02	33219.22
496.20	33572.64
496.38	33612.43
496.55	33717.76
496.73	34260.76
496.91	33965.85
497.09	34845.90
497.26	34242.04
497.44	34267.78
497.62	34976.97
497.79	35400.60
497.97	34967.60
498.14	35756.36
498.32	35826.58
498.50	36032.55
498.67	35955.31
498.85	36062.97
499.03	36292.35
499.20	36437.46
499.38	36884.50
499.56	36900.89
499.73	36980.46
499.91	37195.79
500.08	37102.17
500.26	37092.81
500.44	37399.42
500.61	37408.78
500.79	37347.93
500.97	37240.26
501.14	38110.94
501.32	38204.56
501.49	38141.37
501.67	38267.76
501.84	38724.16
502.02	38880.98
502.20	39054.18
502.37	38321.59
502.55	38967.58
502.72	38904.38
502.90	39063.54
503.07	39225.04
503.25	39337.38
503.43	39309.30
503.60	39927.20
503.78	40105.08
503.95	39969.33
504.13	40095.72
504.30	40081.67
504.48	40130.83
504.65	40435.10
504.83	40825.96
505.01	41205.13
505.18	40589.57
505.36	40971.08
505.53	40795.54
505.71	41170.02
505.88	41427.48
506.06	41766.86
506.23	41626.43
506.41	41825.37
506.58	41652.17
506.76	41645.15
506.93	42232.63
507.11	42047.72
507.28	42122.62
507.46	42377.74
507.63	42909.04
507.81	42689.03
507.98	42302.84
508.16	42733.50
508.33	43084.58
508.50	43175.86
508.68	42932.45
508.85	43175.86
509.03	43363.11
509.20	43552.69
509.38	43852.28
509.55	43913.13
509.73	44201.02
509.90	44533.37
510.08	44041.86
510.25	44549.76
510.42	44250.17
510.60	44802.53
510.77	44781.47
510.95	45254.26
511.12	44690.19
511.30	44877.43
511.47	45324.47
511.64	45055.31
511.82	45624.06
511.99	45378.31
512.17	45872.16
512.34	45654.49
512.51	46068.76
512.69	46141.32
512.86	46146.00
513.04	46101.53
513.21	46171.75
513.38	46204.52
513.56	46274.73
513.73	46534.53
513.90	46581.34
514.08	46541.55
514.25	46801.35
514.43	47150.09
514.60	46773.27
514.77	47009.66
514.95	47482.45
515.12	47391.17
515.29	47079.88
515.47	47519.90
515.64	47332.65
515.81	47445.00
515.99	47597.13
516.16	48191.63
516.33	48116.73
516.51	48428.02
516.68	48013.75
516.85	48257.17
517.03	48619.95
517.20	48322.70
517.37	48676.12
517.54	48484.20
517.72	48755.70
517.89	48762.72
518.06	48952.30
518.24	48549.73
518.41	48854.00
518.58	49127.84
518.75	48926.56
518.93	49233.17
519.10	49111.46
519.27	49146.57
519.45	49228.49
519.62	49277.64
519.79	49813.62
519.96	49666.17
520.14	49478.92
520.31	49476.58
520.48	50335.56
520.65	49872.14
520.83	50050.02
521.00	50337.90
521.17	50024.27
521.34	50483.01
521.52	50569.61
521.69	50710.05
521.86	50445.57
522.03	50997.93
522.20	51119.64
522.38	51274.12
522.55	50997.93
522.72	50965.17
522.89	51035.38
523.07	51334.97
523.24	51147.73
523.41	51229.65
523.58	50848.14
523.75	51494.13
523.92	51543.28
524.10	51756.27
524.27	51742.22
524.44	52027.77
524.61	51629.88
524.78	51955.21
524.96	51999.68
525.13	51737.54
525.30	52203.31
525.47	52334.38
525.64	52301.61
525.81	52435.02
525.98	52568.43
526.16	52189.27
526.33	52374.17
526.50	52963.98
526.67	52582.48
526.84	52772.06
527.01	52753.33
527.18	52610.56
527.36	52697.16
527.53	52722.91
527.70	52856.32
527.87	53015.47
528.04	52832.91
528.21	53221.44
528.38	53195.70
528.55	53333.79
528.72	53289.32
528.89	53359.53
529.07	52942.92
529.24	53504.65
529.41	53696.57
529.58	53535.07
529.75	53738.70
529.92	53460.18
530.09	53497.62
530.26	53429.75
530.43	53640.40
530.60	53432.09
530.77	53640.40
530.94	53897.86
531.11	53876.79
531.28	53862.75
531.46	53773.81
531.63	54101.48
531.80	53668.48
531.97	54190.42
532.14	54017.22
532.31	54272.34
532.48	54419.80
532.65	54150.63
532.82	54167.02
532.99	54417.46
533.16	54164.68
533.33	54705.34
533.50	54541.50
533.67	54621.08
533.84	54436.18
534.01	54827.05
534.18	54513.42
534.35	54845.77
534.52	54920.67
534.69	55121.96
534.86	54958.12
535.03	54866.84
535.20	55161.75
535.37	54951.10
535.54	55133.66
535.71	55131.32
535.88	55423.89
536.05	55569.00
536.22	55241.32
536.38	55393.46
536.55	55281.11
536.72	55482.40
536.89	55224.94
537.06	55409.84
537.23	55622.83
537.40	55320.90
537.57	55224.94
537.74	55435.59
537.91	55676.66
538.08	55552.62
538.25	55517.51
538.42	55660.28
538.59	55910.72
538.75	55508.14
538.92	55842.84
539.09	56009.02
539.26	55852.20
539.43	55920.08
539.60	55955.19
539.77	55924.76
539.94	56264.14
540.11	56278.18
540.28	56072.21
540.44	56013.70
540.61	56210.31
540.78	56083.92
540.95	56271.16
541.12	55927.10
541.29	56158.81
541.46	56254.78
541.62	56273.50
541.79	56526.28
541.96	56268.82
542.13	56254.78
542.30	56341.38
542.47	56676.07
542.63	56762.67
542.80	56809.48
542.97	56865.66
543.14	57076.30
543.31	56879.70
543.48	57085.67
543.64	57282.27
543.81	57090.35
543.98	57078.64
544.15	57120.77
544.32	57015.45
544.48	57303.34
544.65	57176.95
544.82	57059.92
544.99	57146.52
545.16	57352.49
545.32	57322.06
545.49	57368.87
545.66	57509.30
545.83	57247.16
546.00	57502.28
546.16	57343.12
546.33	57205.03
546.50	57176.95
546.67	57504.62
546.83	57279.93
547.00	57563.14
547.17	57233.12
547.34	57586.54
547.50	57748.04
547.67	57792.51
547.84	57961.03
548.00	57834.64
548.17	58045.29
548.34	57961.03
548.51	58061.67
548.67	57841.66
548.84	58052.31
549.01	57762.08
549.18	57851.02
549.34	57991.45
549.51	58113.16
549.68	58190.40
549.84	58005.50
550.01	58253.59
550.18	57989.11
550.34	58092.10
550.51	58255.93
550.68	58117.84
550.84	58014.86
551.01	58211.46
551.18	58305.09
551.34	58148.27
551.51	58340.19
551.68	58410.41
551.84	58277.00
552.01	58246.57
552.18	58333.17
552.34	58171.67
552.51	58436.16
552.68	58410.41
552.84	58391.68
553.01	58663.19
553.18	58438.50
553.34	58642.12
553.51	58588.29
553.67	58599.99
553.84	58597.65
554.01	58834.05
554.17	58908.94
554.34	58798.94
554.51	58759.15
554.67	58944.05
554.84	58728.72
555.00	58665.53
555.17	58930.01
555.33	58780.21
555.50	58571.91
555.67	58637.44
555.83	58702.98
556.00	58904.26
556.16	59121.93
556.33	58941.71
556.50	59091.51
556.66	59236.62
556.83	58901.92
556.99	59166.40
557.16	59309.18
557.32	59157.04
557.49	59477.69
557.65	59007.25
557.82	59042.35
557.98	59178.10
558.15	59187.47
558.32	59264.70
558.48	59161.72
558.65	59173.42
558.81	59250.66
558.98	59128.95
559.14	59416.84
559.31	59475.35
559.47	59395.77
559.64	59552.59
559.80	59426.20
559.97	59618.13
560.13	59426.20
560.30	59477.69
560.46	59405.14
560.63	59615.79
560.79	59559.61
560.96	59716.43
561.12	59515.14
561.29	59674.30
561.45	59707.07
561.61	59540.89
561.78	59564.29
561.94	59625.15
562.11	59576.00
562.27	59739.83
562.44	59739.83
562.60	59730.47
562.77	59784.30
562.93	59606.42
563.10	59793.67
563.26	59580.68
563.42	59891.97
563.59	59700.04
563.75	59604.08
563.92	59891.97
564.08	59571.32
564.24	59856.86
564.41	59880.27
564.57	60041.76
564.74	59884.95
564.90	60034.74
565.07	60207.94
565.23	59969.21
565.39	59810.05
565.56	60074.53
565.72	59985.59
565.88	60039.42
566.05	59936.44
566.21	59833.46
566.38	60013.68
566.54	60062.83
566.70	60048.78
566.87	60133.04
567.03	60058.15
567.19	60327.31
567.36	60004.31
567.52	60100.28
567.68	60315.61
567.85	60198.58
568.01	60226.66
568.17	60320.29
568.34	60163.47
568.50	60177.51
568.66	60207.94
568.83	60339.01
568.99	59938.78
569.15	60058.15
569.32	60100.28
569.48	60114.32
569.64	60233.69
569.81	60252.41
569.97	60114.32
570.13	60158.79
570.30	59969.21
570.46	60200.92
570.62	60212.62
570.78	60123.68
570.95	60090.91
571.11	60247.73
571.27	60378.80
571.43	60315.61
571.60	60516.89
571.76	60147.09
571.92	60189.22
572.09	60308.58
572.25	60378.80
572.41	60126.02
572.57	60341.35
572.74	60708.82
572.90	60427.95
573.06	60404.55
573.22	60339.01
573.38	60502.85
573.55	60413.91
573.71	60638.60
573.87	60528.59
574.03	60182.19
574.20	60498.17
574.36	60339.01
574.52	60456.04
574.68	60725.20
574.84	60547.32
575.01	60680.73
575.17	60516.89
575.33	60341.35
575.49	60154.11
575.65	60556.68
575.82	60652.64
575.98	60388.16
576.14	60807.12
576.30	60692.43
576.46	60570.72
576.62	60636.26
576.79	60526.25
576.95	60266.45
577.11	60781.37
577.27	60760.31
577.43	60619.88
577.59	60477.10
577.75	60427.95
577.92	60544.98
578.08	60376.46
578.24	60652.64
578.40	60884.36
578.56	60903.08
578.72	60638.60
578.88	60793.07
579.04	60631.58
579.21	60619.88
579.37	60846.91
579.53	60678.39
579.69	60867.97
579.85	60446.68
580.01	60718.18
580.17	60458.38
580.33	60706.47
580.49	60601.15
580.65	60554.34
580.82	60451.36
580.98	60683.07
581.14	60598.81
581.30	60949.89
581.46	60678.39
581.62	60603.49
581.78	60797.76
581.94	60736.90
582.10	60694.77
582.26	60636.26
582.42	60549.66
582.58	60741.58
582.74	60598.81
582.90	60657.32
583.06	60631.58
583.22	60552.00
583.38	60776.69
583.54	60832.86
583.70	60835.20
583.86	60650.30
584.02	60706.47
584.18	60872.65
584.34	60743.92
584.50	60772.01
584.66	60631.58
584.82	60718.18
584.98	60891.38
585.14	61041.17
585.30	60577.75
585.46	60860.95
585.62	60823.50
585.78	60935.85
585.94	60619.88
586.10	60828.18
586.26	61027.13
586.42	60947.55
586.58	60952.23
586.74	60860.95
586.90	60727.54
587.06	60673.71
587.22	60961.59
587.38	60762.65
587.54	61111.39
587.70	61146.50
587.86	60877.33
588.02	60900.74
588.18	60975.64
588.34	60882.02
588.49	60762.65
