SpectraSuite Data File
++++++++++++++++++++++++++++++++++++
Date: Fri Oct 25 10:43:50 EDT 2013
User: price-jones
Dark Spectrum Present: No
Reference Spectrum Present: No
Number of Sampled Component Spectra: 1
Spectrometers: USB2+H05261
Integration Time (usec): 100000 (USB2+H05261)
Spectra Averaged: 1 (USB2+H05261)
Boxcar Smoothing: 0 (USB2+H05261)
Correct for Electrical Dark: No (USB2+H05261)
Strobe/Lamp Enabled: No (USB2+H05261)
Correct for Detector Non-linearity: No (USB2+H05261)
Correct for Stray Light: No (USB2+H05261)
Number of Pixels in Processed Spectrum: 2048
>>>>>Begin Processed Spectral Data<<<<<
365.73	93.62
365.92	93.62
366.12	93.62
366.32	98.30
366.52	23.41
366.72	79.58
366.91	49.15
367.11	74.90
367.31	46.81
367.51	0.00
367.70	0.00
367.90	74.90
368.10	37.45
368.30	70.22
368.49	0.00
368.69	70.22
368.89	42.13
369.09	70.22
369.28	84.26
369.48	56.17
369.68	63.19
369.87	117.03
370.07	112.35
370.27	119.37
370.47	217.67
370.66	397.89
370.86	468.11
371.06	465.77
371.25	545.34
371.45	482.15
371.65	449.38
371.84	458.74
372.04	486.83
372.24	486.83
372.44	512.58
372.63	538.32
372.83	461.09
373.03	465.77
373.22	472.79
373.42	484.49
373.62	634.29
373.81	573.43
374.01	566.41
374.21	500.87
374.40	498.53
374.60	557.05
374.79	550.03
374.99	566.41
375.19	585.13
375.38	514.92
375.58	547.69
375.78	587.47
375.97	610.88
376.17	615.56
376.37	507.90
376.56	564.07
376.76	606.20
376.95	606.20
377.15	601.52
377.35	669.39
377.54	566.41
377.74	692.80
377.93	599.18
378.13	683.44
378.33	725.57
378.52	653.01
378.72	627.26
378.91	737.27
379.11	589.82
379.31	650.67
379.50	641.31
379.70	678.76
379.89	704.50
380.09	657.69
380.28	683.44
380.48	683.44
380.68	634.29
380.87	645.99
381.07	667.05
381.26	753.65
381.46	690.46
381.65	711.52
381.85	669.39
382.04	720.88
382.24	641.31
382.43	695.14
382.63	681.10
382.83	716.20
383.02	699.82
383.22	770.04
383.41	725.57
383.61	732.59
383.80	781.74
384.00	727.91
384.19	755.99
384.39	830.89
384.58	784.08
384.78	863.66
384.97	770.04
385.17	791.10
385.36	739.61
385.56	770.04
385.75	760.67
385.95	840.25
386.14	816.85
386.34	798.12
386.53	898.77
386.72	755.99
386.92	840.25
387.11	870.68
387.31	875.36
387.50	753.65
387.70	849.61
387.89	828.55
388.09	880.04
388.28	957.28
388.48	978.34
388.67	964.30
388.86	931.53
389.06	938.55
389.25	903.45
389.45	938.55
389.64	910.47
389.84	945.58
390.03	985.37
390.22	1046.22
390.42	950.26
390.61	917.49
390.81	1046.22
391.00	1086.01
391.19	1123.46
391.39	1130.48
391.58	1081.33
391.78	1104.73
391.97	1090.69
392.16	945.58
392.36	1039.20
392.55	1011.11
392.75	952.60
392.94	936.21
393.13	1018.13
393.33	1064.94
393.52	1179.63
393.71	1149.20
393.91	1034.52
394.10	1121.12
394.29	1224.10
394.49	1207.72
394.68	1221.76
394.88	1172.61
395.07	1263.89
395.26	1203.04
395.46	1238.14
395.65	1259.21
395.84	1179.63
396.04	1256.87
396.23	1217.08
396.42	1172.61
396.62	1212.40
396.81	1196.01
397.00	1240.48
397.19	1240.48
397.39	1366.87
397.58	1296.66
397.77	1481.56
397.97	1313.04
398.16	1359.85
398.35	1502.62
398.55	1420.71
398.74	1439.43
398.93	1458.15
399.12	1497.94
399.32	1507.30
399.51	1519.01
399.70	1582.20
399.90	1472.20
400.09	1717.95
400.28	1629.01
400.47	1659.44
400.67	1633.69
400.86	1645.40
401.05	1650.08
401.24	1673.48
401.44	1673.48
401.63	1750.72
401.82	1739.02
402.01	1717.95
402.21	1720.29
402.40	1778.81
402.59	1657.10
402.78	1799.87
402.97	1734.34
403.17	1792.85
403.36	1860.73
403.55	1776.47
403.74	1872.43
403.93	1942.64
404.13	1849.02
404.32	1790.51
404.51	1893.49
404.70	1998.82
404.89	1834.98
405.09	2012.86
405.28	1909.88
405.47	1919.24
405.66	2015.20
405.85	1982.43
406.05	1898.17
406.24	2033.93
406.43	2005.84
406.62	2181.38
406.81	2195.42
407.00	2029.24
407.20	2080.74
407.39	2012.86
407.58	2148.61
407.77	2132.23
407.96	2181.38
408.15	2284.36
408.34	2270.32
408.54	2150.95
408.73	2275.00
408.92	2377.98
409.11	2256.28
409.30	2314.79
409.49	2230.53
409.68	2275.00
409.87	2275.00
410.07	2380.32
410.26	2431.82
410.45	2340.54
410.64	2427.14
410.83	2525.44
411.02	2544.16
411.21	2628.42
411.40	2597.99
411.59	2546.50
411.78	2593.31
411.98	2562.89
412.17	2621.40
412.36	2712.68
412.55	2771.19
412.74	2761.83
412.93	2691.62
413.12	2700.98
413.31	2808.64
413.50	2869.50
413.69	2874.18
413.88	2888.22
414.07	2928.01
414.26	2939.71
414.45	3000.57
414.64	3096.53
414.83	3047.38
415.02	3173.77
415.22	3089.51
415.41	3091.85
415.60	3091.85
415.79	3208.87
415.98	3302.50
416.17	3337.60
416.36	3276.75
416.55	3225.26
416.74	3391.44
416.93	3192.49
417.12	3211.22
417.31	3309.52
417.50	3332.92
417.69	3370.37
417.88	3428.88
418.07	3400.80
418.26	3506.12
418.45	3485.06
418.64	3616.13
418.83	3616.13
419.02	3559.95
419.21	3651.24
419.39	3583.36
419.58	3613.79
419.77	3576.34
419.96	3758.90
420.15	3667.62
420.34	3576.34
420.53	3758.90
420.72	3861.88
420.91	3712.09
421.10	3822.09
421.29	3953.16
421.48	3733.15
421.67	3824.44
421.86	3887.63
422.05	3789.33
422.24	3728.47
422.43	3833.80
422.61	3777.62
422.80	3852.52
422.99	3978.91
423.18	3829.12
423.37	4030.40
423.56	3908.69
423.75	3929.76
423.94	3761.24
424.13	3707.41
424.32	3705.07
424.50	3999.98
424.69	3976.57
424.88	3967.21
425.07	3932.10
425.26	3932.10
425.45	3932.10
425.64	4009.34
425.83	3892.31
426.01	4056.15
426.20	3999.98
426.39	4002.32
426.58	3971.89
426.77	3913.38
426.96	3943.80
427.15	3964.87
427.33	4117.00
427.52	4133.39
427.71	4081.89
427.90	4072.53
428.09	4189.56
428.28	4184.88
428.46	4133.39
428.65	4117.00
428.84	4334.67
429.03	4329.99
429.22	4119.34
429.40	4060.83
429.59	4222.33
429.78	3892.31
429.97	3976.57
430.16	3971.89
430.34	4182.54
430.53	4182.54
430.72	4276.16
430.91	4290.20
431.10	4315.95
431.28	4524.26
431.47	4582.77
431.66	4596.81
431.85	4505.53
432.03	4643.62
432.22	4645.96
432.41	4699.80
432.60	4795.76
432.79	4617.88
432.97	4795.76
433.16	4873.00
433.35	4692.77
433.54	4695.11
433.72	4650.64
433.91	4695.11
434.10	4781.71
434.28	4816.82
434.47	4877.68
434.66	4844.91
434.85	4985.34
435.03	4884.70
435.22	4826.18
435.41	5095.35
435.59	5163.22
435.78	5018.11
435.97	5219.39
436.16	5284.93
436.34	5184.29
436.53	5069.60
436.72	5224.08
436.90	5088.32
437.09	5149.18
437.28	5046.20
437.46	5151.52
437.65	5167.90
437.84	5284.93
438.02	5081.30
438.21	5268.55
438.40	5172.58
438.58	5509.62
438.77	5451.11
438.96	5397.28
439.14	5579.84
439.33	5600.90
439.52	5738.99
439.70	5600.90
439.89	5593.88
440.08	5785.80
440.26	5650.05
440.45	5591.54
440.63	5720.27
440.82	5820.91
441.01	5987.09
441.19	5989.43
441.38	6235.19
441.57	5991.77
441.75	6174.33
441.94	6338.17
442.12	6164.97
442.31	6171.99
442.50	6228.17
442.68	6258.59
442.87	6441.15
443.05	6338.17
443.24	6469.24
443.43	6422.43
443.61	6401.37
443.80	6693.93
443.98	6380.30
444.17	6146.25
444.35	6331.15
444.54	6637.76
444.73	6476.26
444.91	6443.49
445.10	6438.81
445.28	6541.80
445.47	6396.68
445.65	6235.19
445.84	6562.86
446.02	6499.67
446.21	6602.65
446.39	6696.27
446.58	6595.63
446.77	6595.63
446.95	6602.65
447.14	6590.95
447.32	6780.53
447.51	6796.92
447.69	6640.10
447.88	6682.23
448.06	6691.59
448.25	6689.25
448.43	6675.21
448.62	6773.51
448.80	6628.40
448.99	6686.91
449.17	6829.68
449.36	6670.53
449.54	6890.54
449.73	7066.08
449.91	6963.09
450.10	7269.70
450.28	7222.89
450.46	7218.21
450.65	7187.79
450.83	7199.49
451.02	7309.49
451.20	7187.79
451.39	7028.63
451.57	7281.41
451.76	7180.76
451.94	7206.51
452.13	7356.30
452.31	7145.66
452.49	6965.43
452.68	7089.48
452.86	7410.14
453.05	7260.34
453.23	7283.75
453.42	7218.21
453.60	7419.50
453.78	7435.88
453.97	7297.79
454.15	7468.65
454.34	7438.22
454.52	7506.10
454.70	7499.08
454.89	7597.38
455.07	7499.08
455.26	7721.43
455.44	7822.07
455.62	7571.63
455.81	7634.83
455.99	7854.84
456.17	7817.39
456.36	7742.49
456.54	8065.49
456.73	7927.39
456.91	8138.04
457.09	7962.50
457.28	8142.72
457.46	7957.82
457.64	8252.73
457.83	8100.59
458.01	8109.96
458.19	8198.90
458.38	8049.10
458.56	8369.76
458.74	8299.54
458.93	8212.94
459.11	8173.15
459.29	8133.36
459.48	8397.84
459.66	8442.31
459.84	8374.44
460.03	8517.21
460.21	8407.20
460.39	8566.36
460.57	8589.77
460.76	8374.44
460.94	8510.19
461.12	8819.14
461.31	8692.75
461.49	8760.63
461.67	8683.39
461.85	8898.72
462.04	8643.60
462.22	8947.87
462.40	8826.16
462.59	8683.39
462.77	8961.91
462.95	8851.91
463.13	8830.84
463.32	8898.72
463.50	8840.20
463.68	8816.80
463.86	8964.25
464.05	8858.93
464.23	8968.93
464.41	9308.31
464.59	8922.12
464.78	9214.69
464.96	9296.61
465.14	9179.58
465.32	9142.13
465.50	9317.67
465.69	9249.80
465.87	9177.24
466.05	9394.91
466.23	9184.26
466.41	9210.01
466.60	9338.74
466.78	9029.79
466.96	9284.91
467.14	9158.52
467.32	9558.75
467.51	9371.50
467.69	9160.86
467.87	9387.89
468.05	9364.48
468.23	9320.01
468.41	9458.10
468.60	9479.17
468.78	9556.41
468.96	9343.42
469.14	9657.05
469.32	9764.72
469.50	9390.23
469.69	9694.50
469.87	9958.98
470.05	9731.95
470.23	9954.30
470.41	9561.09
470.59	10050.26
470.77	9905.15
470.95	10218.78
471.14	9863.02
471.32	9837.27
471.50	10258.57
471.68	10380.28
471.86	10230.48
472.04	10303.04
472.22	10501.98
472.40	10246.87
472.58	10335.81
472.77	10401.34
472.95	10544.11
473.13	10958.39
473.31	10490.28
473.49	10682.20
473.67	10740.72
473.85	10764.12
474.03	10841.36
474.21	11000.52
474.39	10799.23
474.57	11117.54
474.75	11157.33
474.93	11314.15
475.12	11009.88
475.30	11257.98
475.48	11014.56
475.66	11255.64
475.84	11297.77
476.02	11241.59
476.20	11211.17
476.38	11611.40
476.56	11908.65
476.74	11721.40
476.92	11906.31
477.10	11754.17
477.28	12020.99
477.46	11925.03
477.64	12168.45
477.82	12489.10
478.00	12552.29
478.18	12379.09
478.36	12533.57
478.54	12681.02
478.72	12533.57
478.90	12711.45
479.08	12765.28
479.26	13029.76
479.44	13151.47
479.62	13418.29
479.80	13341.05
479.98	13582.13
480.16	14052.58
480.34	13568.09
480.52	13720.22
480.70	13664.05
480.88	13542.34
481.06	13851.29
481.24	14221.10
481.41	14190.67
481.59	14253.86
481.77	14104.07
481.95	14370.89
482.13	14380.25
482.31	14279.61
482.49	15049.64
482.67	14785.16
482.85	14904.53
483.03	15047.30
483.21	15124.54
483.39	15194.76
483.57	15339.87
483.74	15648.82
483.92	15756.49
484.10	15541.16
484.28	15903.94
484.46	16173.10
484.64	16271.40
484.82	16224.59
485.00	16156.72
485.18	16060.76
485.35	16386.09
485.53	15887.56
485.71	16308.85
485.89	16491.41
486.07	16472.69
486.25	16552.27
486.43	17001.65
486.61	16931.44
486.78	17055.48
486.96	17476.78
487.14	17715.51
487.32	17584.44
487.50	17949.57
487.68	17984.68
487.85	18106.38
488.03	18651.73
488.21	18345.12
488.39	18207.03
488.57	18448.10
488.75	18981.74
488.92	18913.87
489.10	19239.20
489.28	19323.46
489.46	19833.70
489.64	19679.22
489.81	20056.05
489.99	20484.37
490.17	20222.23
490.35	20603.74
490.53	20128.61
490.70	20545.22
490.88	20196.48
491.06	21010.99
491.24	20821.41
491.41	20875.24
491.59	20498.41
491.77	20767.57
491.95	20847.15
492.13	21032.05
492.30	21731.87
492.48	21502.50
492.66	21642.93
492.84	21605.49
493.01	22001.04
493.19	21909.75
493.37	22588.51
493.54	22373.18
493.72	22904.48
493.90	22597.87
494.08	22733.62
494.25	23019.17
494.43	23082.36
494.61	23325.78
494.79	23304.71
494.96	23475.57
495.14	23353.87
495.32	23566.85
495.49	23438.12
495.67	23775.16
495.85	24322.85
496.02	24168.37
496.20	23899.21
496.38	24095.82
496.55	24238.59
496.73	25015.65
496.91	24973.52
497.09	24945.43
497.26	24737.12
497.44	25092.88
497.62	24875.21
497.79	25041.39
497.97	25228.63
498.14	25422.90
498.32	25273.10
498.50	25773.98
498.67	25902.71
498.85	25759.94
499.03	26244.43
499.20	25930.80
499.38	26036.12
499.56	26356.77
499.73	26457.42
499.91	26384.86
500.08	26649.34
500.26	26389.54
500.44	26595.51
500.61	26705.51
500.79	26375.50
500.97	26464.44
501.14	27065.96
501.32	26878.71
501.49	26951.27
501.67	27398.31
501.84	27412.35
502.02	27435.76
502.20	27618.32
502.37	27676.83
502.55	27704.92
502.72	28041.96
502.90	27899.19
503.07	27765.78
503.25	28135.58
503.43	28025.57
503.60	27840.67
503.78	28004.51
503.95	28194.09
504.13	28608.37
504.30	28919.66
504.48	28545.17
504.65	29008.60
504.83	28987.53
505.01	28842.42
505.18	28804.97
505.36	29364.36
505.53	29610.12
505.71	29727.14
505.88	29736.51
506.06	29780.98
506.23	29876.94
506.41	29209.89
506.58	29956.52
506.76	29778.64
506.93	29923.75
507.11	29785.66
507.28	29933.11
507.46	29982.26
507.63	30122.69
507.81	30249.08
507.98	30160.14
508.16	30438.67
508.33	30534.63
508.50	30670.38
508.68	31079.97
508.85	31419.35
509.03	30527.61
509.20	31173.60
509.38	30899.75
509.55	31079.97
509.73	31054.23
509.90	31604.25
510.08	30941.88
510.25	31344.45
510.42	31618.30
510.60	31529.36
510.77	31384.24
510.95	31990.44
511.12	31608.93
511.30	32093.43
511.47	32610.68
511.64	32416.42
511.82	32339.18
511.99	32233.86
512.17	32339.18
512.34	32264.28
512.51	32425.78
512.69	32556.85
512.86	32481.95
513.04	32753.46
513.21	33120.92
513.38	32582.60
513.56	32886.87
513.73	33130.28
513.90	33017.94
514.08	33095.18
514.25	33251.99
514.43	33109.22
514.60	33120.92
514.77	33137.30
514.95	33584.35
515.12	33434.55
515.29	33429.87
515.47	33928.41
515.64	33933.09
515.81	33759.89
515.99	33546.90
516.16	33839.47
516.33	33530.51
516.51	33844.15
516.68	33259.01
516.85	33282.42
517.03	33560.94
517.20	34110.97
517.37	34438.64
517.54	34448.00
517.72	34206.93
517.89	34146.08
518.06	33851.17
518.24	34368.43
518.41	33954.15
518.58	34707.80
518.75	34370.77
518.93	34766.32
519.10	34930.16
519.27	34738.23
519.45	35178.25
519.62	35218.04
519.79	35175.91
519.96	35201.66
520.14	35227.40
520.31	35054.20
520.48	35409.96
520.65	35110.38
520.83	35871.05
521.00	35903.82
521.17	35768.07
521.34	36428.10
521.52	36163.62
521.69	35501.25
521.86	36472.57
522.03	36290.01
522.20	36423.42
522.38	36376.61
522.55	36582.57
522.72	36739.39
522.89	36168.30
523.07	36573.21
523.24	36430.44
523.41	37130.26
523.58	36678.54
523.75	36760.45
523.92	36978.12
524.10	37069.40
524.27	37205.16
524.44	37078.77
524.61	37429.85
524.78	37493.04
524.96	37479.00
525.13	37347.93
525.30	37855.82
525.47	37174.73
525.64	37425.17
525.81	37556.24
525.98	37020.25
526.16	37467.30
526.33	37619.43
526.50	37422.83
526.67	37097.49
526.84	36584.91
527.01	37727.10
527.18	37481.34
527.36	38242.01
527.53	38043.07
527.70	38209.25
527.87	38677.35
528.04	38621.18
528.21	38518.20
528.38	38579.05
528.55	38740.55
528.72	38803.74
528.89	38700.76
529.07	38761.61
529.24	38621.18
529.41	39021.41
529.58	38639.90
529.75	39447.39
529.92	38738.21
530.09	38536.92
530.26	39098.65
530.43	39426.32
530.60	38878.64
530.77	39159.50
530.94	39335.04
531.11	39035.45
531.28	39318.66
531.46	39728.25
531.63	39047.16
531.80	39339.72
531.97	39346.75
532.14	39157.16
532.31	39009.71
532.48	38998.01
532.65	39971.67
532.82	39215.68
532.99	39988.05
533.16	39496.54
533.33	39934.22
533.50	40109.76
533.67	39812.51
533.84	39707.19
534.01	39739.96
534.18	40203.38
534.35	39847.62
534.52	40179.98
534.69	40608.29
534.86	40371.90
535.03	40259.55
535.20	40954.69
535.37	40861.07
535.54	40795.54
535.71	40339.13
535.88	40421.05
536.05	40376.58
536.22	40505.31
536.38	40980.44
536.55	40591.91
536.72	40638.72
536.89	40535.74
537.06	40758.09
537.23	40975.76
537.40	40825.96
537.57	41163.00
537.74	41233.22
537.91	41443.87
538.08	40959.38
538.25	40872.78
538.42	40964.06
538.59	41600.68
538.75	41193.43
538.92	40917.25
539.09	41303.43
539.26	41317.48
539.43	41010.87
539.60	41221.52
539.77	41280.03
539.94	41343.22
540.11	41188.75
540.28	41605.36
540.44	41511.74
540.61	41378.33
540.78	41532.81
540.95	41160.66
541.12	41401.74
541.29	41816.01
541.46	42003.25
541.62	41717.71
541.79	42029.00
541.96	41832.39
542.13	42003.25
542.30	41764.52
542.47	42122.62
542.63	41977.51
542.80	41780.90
542.97	42431.57
543.14	42674.99
543.31	42361.36
543.48	42653.92
543.64	43166.50
543.81	42920.74
543.98	42834.14
544.15	42773.29
544.32	42710.10
544.48	42934.79
544.65	42796.70
544.82	42810.74
544.99	42859.89
545.16	42817.76
545.32	42700.73
545.49	43047.13
545.66	43122.03
545.83	43100.97
546.00	43524.60
546.16	43480.13
546.33	42974.58
546.50	43122.03
546.67	43438.00
546.83	42557.96
547.00	43381.83
547.17	42857.55
547.34	42862.23
547.50	43180.54
547.67	43377.15
547.84	43789.08
548.00	43302.25
548.17	44130.80
548.34	43796.10
548.51	43735.25
548.67	43650.99
548.84	43583.12
549.01	43557.37
549.18	43559.71
549.34	43428.64
549.51	43583.12
549.68	43957.60
549.84	44046.54
550.01	43711.84
550.18	43653.33
550.34	43800.79
550.51	43590.14
550.68	43737.59
550.84	43744.61
551.01	44376.56
551.18	44065.27
551.34	44163.57
551.51	44161.23
551.68	44224.42
551.84	44711.25
552.01	43810.15
552.18	44474.86
552.34	43922.49
552.51	44119.10
552.68	44123.78
552.84	44404.64
553.01	44142.50
553.18	44325.07
553.34	44629.34
553.51	44444.43
553.67	44694.87
553.84	44715.93
554.01	44830.62
554.17	44678.49
554.34	44959.35
554.51	45055.31
554.67	44697.21
554.84	44165.91
555.00	44531.03
555.17	44414.01
555.33	44783.81
555.50	44795.51
555.67	44580.18
555.83	44610.61
556.00	45069.36
556.16	45214.47
556.33	44514.65
556.50	44566.14
556.66	45008.50
556.83	44680.83
556.99	44966.37
557.16	45305.75
557.32	45085.74
557.49	45254.26
557.65	44980.42
557.82	45134.89
557.98	45258.94
558.15	45106.80
558.32	44741.68
558.48	44861.05
558.65	44776.79
558.81	44552.10
558.98	44893.82
559.14	44879.77
559.31	44898.50
559.47	45256.60
559.64	45593.64
559.80	45170.00
559.97	45251.92
560.13	44870.41
560.30	45586.61
560.46	45450.86
560.63	45448.52
560.79	45607.68
560.96	45528.10
561.12	44989.78
561.29	45083.40
561.45	45495.33
561.61	45017.86
561.78	45085.74
561.94	45088.08
562.11	45298.73
562.27	45392.35
562.44	45228.51
562.60	45467.25
562.77	45841.73
562.93	45755.13
563.10	45748.11
563.26	45048.29
563.42	45490.65
563.59	45097.44
563.75	45539.80
563.92	45450.86
564.08	45612.36
564.24	45682.58
564.41	45434.48
564.57	45633.42
564.74	45598.32
564.90	45338.52
565.07	45743.43
565.23	45911.95
565.39	45631.08
565.56	45502.35
565.72	45179.36
565.88	45858.12
566.05	45617.04
566.21	45607.68
566.38	45900.25
566.54	45691.94
566.70	45677.90
566.87	46305.16
567.03	46010.25
567.19	46160.05
567.36	45834.71
567.52	45900.25
567.68	45940.04
567.85	45287.03
568.01	46089.83
568.17	45546.82
568.34	46162.39
568.50	45755.13
568.66	45895.56
568.83	45942.38
568.99	45275.32
569.15	45778.54
569.32	45755.13
569.48	45694.28
569.64	46026.63
569.81	45448.52
569.97	45689.60
570.13	46155.36
570.30	45572.57
570.46	45881.52
570.62	45387.67
570.78	45209.79
570.95	45265.96
571.11	45755.13
571.27	45773.86
571.43	45970.46
571.60	46050.04
571.76	45666.19
571.92	45659.17
572.09	45930.67
572.25	45839.39
572.41	45764.49
572.57	45371.28
572.74	46461.97
572.90	46028.98
573.06	46321.54
573.22	45640.45
573.38	45720.02
573.55	45476.61
573.71	46251.33
573.87	45682.58
574.03	46014.93
574.20	46244.30
574.36	45858.12
574.52	46052.38
574.68	46064.08
574.84	45951.74
575.01	45710.66
575.17	46267.71
575.33	45998.55
575.49	45820.67
575.65	45893.22
575.82	46487.72
575.98	45560.87
576.14	46178.77
576.30	45834.71
576.46	45923.65
576.62	45879.18
576.79	46028.98
576.95	45677.90
577.11	45806.62
577.27	45741.09
577.43	45888.54
577.59	45846.41
577.75	45996.21
577.92	45495.33
578.08	45947.06
578.24	45933.01
578.40	45635.77
578.56	45851.09
578.72	45799.60
578.88	46073.45
579.04	46036.00
579.21	45584.27
579.37	45818.33
579.53	46239.62
579.69	45834.71
579.85	45954.08
580.01	46344.95
580.17	46026.63
580.33	45855.78
580.49	46176.43
580.65	45982.16
580.82	46108.55
580.98	45799.60
581.14	45977.48
581.30	46096.85
581.46	45918.97
581.62	46382.40
581.78	46052.38
581.94	46141.32
582.10	45705.98
582.26	46047.70
582.42	46522.83
582.58	46057.06
582.74	45902.59
582.90	46321.54
583.06	46366.01
583.22	46476.02
583.38	46424.53
583.54	46363.67
583.70	46202.18
583.86	46471.34
584.02	46211.54
584.18	46183.45
584.34	46036.00
584.50	46316.86
584.66	46071.10
584.82	46007.91
584.98	46387.08
585.14	46366.01
585.30	45968.12
585.46	46099.19
585.62	45668.53
585.78	46138.98
585.94	45776.20
586.10	46333.24
586.26	46134.30
586.42	46476.02
586.58	46445.59
586.74	46302.82
586.90	45848.75
587.06	46260.69
587.22	46014.93
587.38	46028.98
587.54	45872.16
587.70	46403.46
587.86	45970.46
588.02	46169.41
588.18	45979.82
588.34	46146.00
588.49	45535.12
588.65	45483.63
588.81	45415.76
588.97	45858.12
589.13	45268.30
589.29	46150.68
589.45	46045.36
589.61	45911.95
589.77	45933.01
589.93	46232.60
590.08	46248.99
