SpectraSuite Data File
++++++++++++++++++++++++++++++++++++
Date: Fri Oct 25 10:48:13 EDT 2013
User: price-jones
Dark Spectrum Present: No
Reference Spectrum Present: No
Number of Sampled Component Spectra: 1
Spectrometers: USB2+H05261
Integration Time (usec): 100000 (USB2+H05261)
Spectra Averaged: 1 (USB2+H05261)
Boxcar Smoothing: 0 (USB2+H05261)
Correct for Electrical Dark: No (USB2+H05261)
Strobe/Lamp Enabled: No (USB2+H05261)
Correct for Detector Non-linearity: No (USB2+H05261)
Correct for Stray Light: No (USB2+H05261)
Number of Pixels in Processed Spectrum: 2048
>>>>>Begin Processed Spectral Data<<<<<
365.73	140.43
365.92	140.43
366.12	140.43
366.32	77.24
366.52	30.43
366.72	37.45
366.91	46.81
367.11	37.45
367.31	39.79
367.51	0.00
367.70	56.17
367.90	77.24
368.10	0.00
368.30	9.36
368.49	18.72
368.69	93.62
368.89	105.32
369.09	102.98
369.28	67.88
369.48	74.90
369.68	128.73
369.87	58.51
370.07	110.01
370.27	147.45
370.47	220.01
370.66	468.11
370.86	454.06
371.06	428.32
371.25	454.06
371.45	505.56
371.65	404.91
371.84	489.17
372.04	444.70
372.24	449.38
372.44	465.77
372.63	451.72
372.83	465.77
373.03	468.11
373.22	503.22
373.42	568.75
373.62	521.94
373.81	568.75
374.01	585.13
374.21	594.50
374.40	580.45
374.60	599.18
374.79	559.39
374.99	575.77
375.19	596.84
375.38	594.50
375.58	657.69
375.78	587.47
375.97	617.90
376.17	620.24
376.37	468.11
376.56	603.86
376.76	624.92
376.95	575.77
377.15	744.29
377.35	655.35
377.54	566.41
377.74	599.18
377.93	617.90
378.13	692.80
378.33	699.82
378.52	638.97
378.72	706.84
378.91	594.50
379.11	547.69
379.31	587.47
379.50	615.56
379.70	667.05
379.89	760.67
380.09	638.97
380.28	702.16
380.48	683.44
380.68	627.26
380.87	702.16
381.07	624.92
381.26	674.07
381.46	624.92
381.65	664.71
381.85	655.35
382.04	645.99
382.24	720.88
382.43	697.48
382.63	688.12
382.83	711.52
383.02	737.27
383.22	779.40
383.41	641.31
383.61	772.38
383.80	772.38
384.00	772.38
384.19	751.31
384.39	732.59
384.58	784.08
384.78	805.14
384.97	816.85
385.17	779.40
385.36	767.70
385.56	805.14
385.75	744.29
385.95	720.88
386.14	847.27
386.34	763.01
386.53	840.25
386.72	758.33
386.92	772.38
387.11	849.61
387.31	866.00
387.50	844.93
387.70	826.21
387.89	861.32
388.09	819.19
388.28	833.23
388.48	842.59
388.67	823.87
388.86	842.59
389.06	894.08
389.25	849.61
389.45	929.19
389.64	889.40
389.84	938.55
390.03	968.98
390.22	940.90
390.42	968.98
390.61	1015.79
390.81	919.83
391.00	1008.77
391.19	954.94
391.39	926.85
391.58	1027.50
391.78	1055.58
391.97	1069.62
392.16	940.90
392.36	1060.26
392.55	945.58
392.75	983.02
392.94	1001.75
393.13	943.24
393.33	1015.79
393.52	976.00
393.71	1008.77
393.91	1090.69
394.10	1039.20
394.29	968.98
394.49	1071.97
394.68	1088.35
394.88	1071.97
395.07	1118.78
395.26	1163.25
395.46	1228.78
395.65	1160.91
395.84	1146.86
396.04	1144.52
396.23	1100.05
396.42	1060.26
396.62	1142.18
396.81	1231.12
397.00	1226.44
397.19	1214.74
397.39	1231.12
397.58	1277.93
397.77	1160.91
397.97	1364.53
398.16	1310.70
398.35	1334.11
398.55	1249.85
398.74	1268.57
398.93	1380.92
399.12	1359.85
399.32	1324.74
399.51	1427.73
399.70	1474.54
399.90	1390.28
400.09	1451.13
400.28	1514.33
400.47	1432.41
400.67	1502.62
400.86	1526.03
401.05	1547.09
401.24	1582.20
401.44	1507.30
401.63	1486.24
401.82	1563.48
402.01	1593.90
402.21	1570.50
402.40	1547.09
402.59	1554.12
402.78	1558.80
402.97	1507.30
403.17	1537.73
403.36	1692.21
403.55	1619.65
403.74	1743.70
403.93	1755.40
404.13	1762.42
404.32	1750.72
404.51	1645.40
404.70	1666.46
404.89	1750.72
405.09	1764.76
405.28	1739.02
405.47	1675.82
405.66	1853.70
405.85	1734.34
406.05	1708.59
406.24	1750.72
406.43	1778.81
406.62	1888.81
406.81	1930.94
407.00	1970.73
407.20	1790.51
407.39	1877.11
407.58	1909.88
407.77	1952.01
407.96	2038.61
408.15	2050.31
408.34	2029.24
408.54	2099.46
408.73	1980.09
408.92	2050.31
409.11	2167.34
409.30	2122.87
409.49	2026.90
409.68	2136.91
409.87	2127.55
410.07	2120.53
410.26	2087.76
410.45	2146.27
410.64	2125.21
410.83	2197.76
411.02	2246.91
411.21	2275.00
411.40	2324.15
411.59	2298.41
411.78	2218.83
411.98	2221.17
412.17	2450.54
412.36	2363.94
412.55	2462.24
412.74	2555.86
412.93	2399.05
413.12	2464.58
413.31	2574.59
413.50	2597.99
413.69	2443.52
413.88	2684.59
414.07	2523.10
414.26	2593.31
414.45	2569.91
414.64	2689.28
414.83	2696.30
415.02	2628.42
415.22	2717.36
415.41	2787.58
415.60	2867.16
415.79	2810.98
415.98	2967.80
416.17	2995.89
416.36	2913.97
416.55	2899.92
416.74	2853.11
416.93	2871.84
417.12	2944.39
417.31	3019.29
417.50	2981.84
417.69	3056.74
417.88	3115.25
418.07	3005.25
418.26	3166.74
418.45	3141.00
418.64	3178.45
418.83	3152.70
419.02	3255.69
419.21	3246.32
419.39	3239.30
419.58	3286.11
419.77	3178.45
419.96	3323.56
420.15	3274.41
420.34	3353.99
420.53	3365.69
420.72	3445.27
420.91	3447.61
421.10	3548.25
421.29	3403.14
421.48	3389.10
421.67	3452.29
421.86	3412.50
422.05	3559.95
422.24	3321.22
422.43	3496.76
422.61	3496.76
422.80	3559.95
422.99	3506.12
423.18	3552.93
423.37	3583.36
423.56	3653.58
423.75	3595.06
423.94	3478.04
424.13	3349.31
424.32	3431.23
424.50	3566.98
424.69	3529.53
424.88	3719.11
425.07	3412.50
425.26	3531.87
425.45	3655.92
425.64	3520.17
425.83	3583.36
426.01	3630.17
426.20	3618.47
426.39	3613.79
426.58	3541.23
426.77	3735.50
426.96	3693.37
427.15	3674.64
427.33	3754.22
427.52	3747.20
427.71	3779.97
427.90	3667.62
428.09	3896.99
428.28	3763.58
428.46	3922.74
428.65	4093.60
428.84	3847.84
429.03	3964.87
429.22	3801.03
429.40	3831.46
429.59	3859.54
429.78	3754.22
429.97	3695.71
430.16	3763.58
430.34	3990.61
430.53	3981.25
430.72	3882.95
430.91	3946.14
431.10	4074.87
431.28	4208.28
431.47	4248.07
431.66	4201.26
431.85	4032.74
432.03	4189.56
432.22	4252.75
432.41	4196.58
432.60	4163.81
432.79	4177.86
432.97	4269.14
433.16	4367.44
433.35	4273.82
433.54	4308.93
433.72	4273.82
433.91	4409.57
434.10	4304.25
434.28	4264.46
434.47	4397.87
434.66	4589.79
434.85	4449.36
435.03	4507.87
435.22	4521.92
435.41	4880.02
435.59	4545.32
435.78	4491.49
435.97	4486.81
436.16	4671.71
436.34	4571.07
436.53	4725.54
436.72	4711.50
436.90	4657.67
437.09	4751.29
437.28	4498.51
437.46	4678.73
437.65	4720.86
437.84	4706.82
438.02	4650.64
438.21	4821.50
438.40	4758.31
438.58	4882.36
438.77	4908.10
438.96	4908.10
439.14	5064.92
439.33	5118.75
439.52	5074.28
439.70	5109.39
439.89	5109.39
440.08	5128.11
440.26	5123.43
440.45	5359.83
440.63	5324.72
440.82	5530.69
441.01	5289.61
441.19	5387.91
441.38	5469.83
441.57	5453.45
441.75	5589.20
441.94	5696.86
442.12	5696.86
442.31	5785.80
442.50	5753.04
442.68	5657.07
442.87	5727.29
443.05	5694.52
443.24	5930.92
443.43	5870.06
443.61	5874.74
443.80	6012.84
443.98	5795.17
444.17	5565.79
444.35	6059.65
444.54	6015.18
444.73	5994.11
444.91	5961.34
445.10	5984.75
445.28	5891.13
445.47	5856.02
445.65	5888.79
445.84	6033.90
446.02	5963.68
446.21	5926.24
446.39	5863.04
446.58	6073.69
446.77	6150.93
446.95	5809.21
447.14	6153.27
447.32	6097.10
447.51	6052.63
447.69	5778.78
447.88	6024.54
448.06	6279.66
448.25	6104.12
448.43	6106.46
448.62	6146.25
448.80	5942.62
448.99	6263.27
449.17	6310.08
449.36	6291.36
449.54	6265.61
449.73	6387.32
449.91	6427.11
450.10	6492.65
450.28	6317.11
450.46	6476.26
450.65	6480.94
450.83	6551.16
451.02	6387.32
451.20	6642.44
451.39	6743.08
451.57	6450.52
451.76	6541.80
451.94	6541.80
452.13	6656.48
452.31	6602.65
452.49	6483.28
452.68	6607.33
452.86	6644.78
453.05	6654.14
453.23	6686.91
453.42	6619.04
453.60	6640.10
453.78	6691.59
453.97	6567.54
454.15	6703.29
454.34	6649.46
454.52	6867.13
454.70	6839.05
454.89	6855.43
455.07	6935.01
455.26	7087.14
455.44	7094.16
455.62	7037.99
455.81	6927.99
455.99	7101.19
456.17	7091.82
456.36	7143.32
456.54	7073.10
456.73	7140.97
456.91	7349.28
457.09	7459.29
457.28	7515.46
457.46	7332.90
457.64	7503.76
457.83	7492.05
458.01	7363.33
458.19	7346.94
458.38	7426.52
458.56	7529.50
458.74	7569.29
458.93	7417.16
459.11	7522.48
459.29	7349.28
459.48	7550.57
459.66	7634.83
459.84	7646.53
460.03	7815.05
460.21	7803.35
460.39	7782.28
460.57	7950.80
460.76	7864.20
460.94	7805.69
461.12	7779.94
461.31	8063.15
461.49	8046.76
461.67	7943.78
461.85	7943.78
462.04	8046.76
462.22	8470.40
462.40	8107.62
462.59	8100.59
462.77	8067.83
462.95	8184.85
463.13	8133.36
463.32	8245.71
463.50	8121.66
463.68	8252.73
463.86	8292.52
464.05	8018.68
464.23	8152.09
464.41	8311.24
464.59	8077.19
464.78	8458.70
464.96	8339.33
465.14	8248.05
465.32	8542.96
465.50	8376.78
465.69	8423.59
465.87	8500.83
466.05	8421.25
466.23	8414.23
466.41	8336.99
466.60	8524.23
466.78	8454.02
466.96	8454.02
467.14	8409.54
467.32	8610.83
467.51	8650.62
467.69	8402.52
467.87	8781.69
468.05	8737.22
468.23	8503.17
468.41	8587.43
468.60	8678.71
468.78	8755.94
468.96	8901.06
469.14	8692.75
469.32	8943.19
469.50	8753.60
469.69	9097.66
469.87	8985.32
470.05	9069.58
470.23	9020.42
470.41	9144.47
470.59	8889.35
470.77	9067.24
470.95	9184.26
471.14	9425.34
471.32	9163.20
471.50	9397.25
471.68	9401.93
471.86	9507.26
472.04	9525.98
472.22	9317.67
472.40	9343.42
472.58	9542.36
472.77	9441.72
472.95	9774.08
473.13	9930.89
473.31	9647.69
473.49	9434.70
473.67	9811.53
473.85	9778.76
474.03	9867.70
474.21	10050.26
474.39	10186.01
474.57	10246.87
474.75	10249.21
474.93	10157.92
475.12	10312.40
475.30	10366.23
475.48	10338.15
475.66	10459.85
475.84	10352.19
476.02	10373.25
476.20	10494.96
476.38	10537.09
476.56	10913.92
476.74	10792.21
476.92	10757.10
477.10	10806.25
477.28	11150.31
477.46	11049.67
477.64	11136.27
477.82	11433.52
478.00	11604.38
478.18	11332.87
478.36	11672.25
478.54	11552.88
478.72	11566.93
478.90	11798.64
479.08	11829.07
479.26	12112.27
479.44	12128.66
479.62	12269.09
479.80	11995.25
479.98	12514.84
480.16	12596.76
480.34	12423.56
480.52	12603.78
480.70	12437.61
480.88	12585.06
481.06	12596.76
481.24	12814.43
481.41	12910.40
481.59	13193.60
481.77	13207.64
481.95	13362.12
482.13	13390.20
482.31	13378.50
482.49	13427.65
482.67	13556.38
482.85	13673.41
483.03	13912.14
483.21	13902.78
483.39	14104.07
483.57	14225.78
483.74	14366.21
483.92	14600.26
484.10	14328.76
484.28	14602.60
484.46	14714.95
484.64	14857.72
484.82	14831.97
485.00	14960.70
485.18	15194.76
485.35	15431.15
485.53	15201.78
485.71	14897.51
485.89	15562.22
486.07	15260.29
486.25	15372.64
486.43	15688.61
486.61	15953.09
486.78	16203.53
486.96	16175.44
487.14	16379.07
487.32	16430.56
487.50	16774.62
487.68	16638.87
487.85	16952.50
488.03	17184.21
488.21	16973.56
488.39	17479.12
488.57	17324.65
488.75	17678.07
488.92	17610.19
489.10	17701.47
489.28	17736.58
489.46	18192.98
489.64	18061.91
489.81	18881.10
489.99	18630.66
490.17	18998.13
490.35	18979.40
490.53	18750.03
490.70	19112.81
490.88	18796.84
491.06	19421.77
491.24	19206.44
491.41	19288.35
491.59	19515.39
491.77	19311.76
491.95	19538.79
492.13	19805.61
492.30	20100.52
492.48	20528.84
492.66	20250.32
492.84	20058.39
493.01	20477.35
493.19	20259.68
493.37	20877.58
493.54	20709.06
493.72	21151.42
493.90	21039.08
494.08	21247.38
494.25	21443.99
494.43	21713.15
494.61	21654.64
494.79	21439.31
494.96	21287.17
495.14	21642.93
495.32	21928.48
495.49	22017.42
495.67	22181.26
495.85	22185.94
496.02	22714.90
496.20	22251.47
496.38	22703.20
496.55	22742.99
496.73	22974.70
496.91	22923.21
497.09	23056.62
497.26	23208.75
497.44	23510.68
497.62	23098.75
497.79	23513.02
497.97	23353.87
498.14	23843.04
498.32	23882.83
498.50	23613.66
498.67	24095.82
498.85	24334.55
499.03	24418.81
499.20	24456.26
499.38	24467.96
499.56	24702.01
499.73	24575.62
499.91	24713.72
500.08	24854.15
500.26	24521.79
500.44	24627.12
500.61	25085.86
500.79	24849.47
500.97	25350.34
501.14	25593.76
501.32	25366.73
501.49	25507.16
501.67	25539.93
501.84	25701.42
502.02	25752.91
502.20	25614.82
502.37	26171.87
502.55	26054.84
502.72	26024.42
502.90	26291.24
503.07	26026.76
503.25	26221.02
503.43	26335.71
503.60	26426.99
503.78	26506.57
503.95	26251.45
504.13	26749.98
504.30	26974.67
504.48	26792.11
504.65	27051.91
504.83	27000.42
505.01	26960.63
505.18	27002.76
505.36	28060.68
505.53	27379.59
505.71	27835.99
505.88	27835.99
506.06	27548.11
506.23	27946.00
506.41	27468.53
506.58	27838.33
506.76	28091.11
506.93	27866.42
507.11	28044.30
507.28	28158.99
507.46	27964.72
507.63	28526.45
507.81	28456.23
507.98	28280.69
508.16	28739.44
508.33	28694.97
508.50	28596.67
508.68	28788.59
508.85	29113.92
509.03	28833.06
509.20	29027.32
509.38	29378.40
509.55	29254.36
509.73	29528.20
509.90	29322.23
510.08	29567.99
510.25	29443.94
510.42	29544.58
510.60	29759.91
510.77	29841.83
510.95	29942.47
511.12	29710.76
511.30	30328.66
511.47	30429.30
511.64	30450.37
511.82	30555.69
511.99	30356.75
512.17	30778.04
512.34	30188.23
512.51	30820.17
512.69	31108.06
512.86	30899.75
513.04	31007.42
513.21	30792.09
513.38	30710.17
513.56	31215.72
513.73	30801.45
513.90	30906.77
514.08	30906.77
514.25	31187.64
514.43	31281.26
514.60	31302.32
514.77	30838.90
514.95	31903.84
515.12	31758.73
515.29	31669.79
515.47	31957.67
515.64	31969.38
515.81	31967.04
515.99	31627.66
516.16	31835.97
516.33	31999.80
516.51	32165.98
516.68	31632.34
516.85	31555.10
517.03	32105.13
517.20	32306.41
517.37	32343.86
517.54	32474.93
517.72	32608.34
517.89	32844.74
518.06	32460.89
518.24	32367.27
518.41	32517.06
518.58	32498.34
518.75	32606.00
518.93	32823.67
519.10	32744.09
519.27	32985.17
519.45	33362.00
519.62	33668.61
519.79	33453.28
519.96	33504.77
520.14	33802.02
520.31	33528.17
520.48	33722.44
520.65	33841.81
520.83	34176.50
521.00	34190.55
521.17	34136.71
521.34	33851.17
521.52	34286.51
521.69	34237.36
521.86	34246.72
522.03	33811.38
522.20	34866.96
522.38	34305.23
522.55	34780.36
522.72	34553.33
522.89	34558.01
523.07	34761.64
523.24	34625.89
523.41	34906.75
523.58	34916.11
523.75	35475.50
523.92	35325.71
524.10	35323.36
524.27	35103.35
524.44	35166.55
524.61	35292.94
524.78	35831.26
524.96	35812.54
525.13	35697.85
525.30	36165.96
525.47	35849.99
525.64	35585.50
525.81	35653.38
525.98	35716.58
526.16	35297.62
526.33	35229.74
526.50	36034.89
526.67	35342.09
526.84	35814.88
527.01	35599.55
527.18	35997.44
527.36	36184.68
527.53	36130.85
527.70	37130.26
527.87	36226.81
528.04	36470.23
528.21	36151.91
528.38	36308.73
528.55	36933.65
528.72	36439.80
528.89	36926.63
529.07	36617.68
529.24	36940.68
529.41	36891.52
529.58	36828.33
529.75	36945.36
529.92	37167.71
530.09	37212.18
530.26	36872.80
530.43	37380.70
530.60	36797.90
530.77	37008.55
530.94	37483.68
531.11	37055.36
531.28	37404.10
531.46	37497.72
531.63	37642.84
531.80	37504.74
531.97	37713.05
532.14	37799.65
532.31	37801.99
532.48	37731.78
532.65	37916.68
532.82	37287.07
532.99	37818.38
533.16	37699.01
533.33	37851.14
533.50	38052.43
533.67	38068.81
533.84	37748.16
534.01	37909.66
534.18	38389.47
534.35	38766.29
534.52	38361.38
534.69	38366.06
534.86	38089.88
535.03	38398.83
535.20	38967.58
535.37	38759.27
535.54	38799.06
535.71	38337.98
535.88	38974.60
536.05	38707.78
536.22	39220.36
536.38	38972.26
536.55	39082.27
536.72	38899.70
536.89	39056.52
537.06	38988.64
537.23	38937.15
537.40	38721.82
537.57	38742.89
537.74	39196.95
537.91	39655.70
538.08	39470.79
538.25	38892.68
538.42	39042.48
538.59	39473.13
538.75	39182.91
538.92	39119.71
539.09	39866.34
539.26	39484.84
539.43	39711.87
539.60	39835.92
539.77	39278.87
539.94	39674.42
540.11	39332.70
540.28	39459.09
540.44	39679.10
540.61	39772.72
540.78	39761.02
540.95	39681.44
541.12	39480.16
541.29	39814.85
541.46	39550.37
541.62	40105.08
541.79	40353.18
541.96	40189.34
542.13	40006.78
542.30	40371.90
542.47	40620.00
542.63	40137.85
542.80	40198.70
542.97	40762.77
543.14	41074.06
543.31	40800.22
543.48	40882.14
543.64	41528.13
543.81	40591.91
543.98	41067.04
544.15	40615.32
544.32	41111.51
544.48	41331.52
544.65	41462.59
544.82	41263.64
544.99	40718.30
545.16	41216.83
545.32	41310.46
545.49	41275.35
545.66	41457.91
545.83	41291.73
546.00	41654.51
546.16	41457.91
546.33	41219.17
546.50	41188.75
546.67	41280.03
546.83	41331.52
547.00	41539.83
547.17	41565.57
547.34	41570.25
547.50	41596.00
547.67	41818.35
547.84	41769.20
548.00	41741.11
548.17	41804.31
548.34	41972.83
548.51	42026.66
548.67	42220.92
548.84	42305.18
549.01	41897.93
549.18	41521.10
549.34	42284.12
549.51	42064.11
549.68	42319.23
549.84	42382.42
550.01	42384.76
550.18	42190.50
550.34	42122.62
550.51	42241.99
550.68	42258.37
550.84	41851.12
551.01	42178.79
551.18	42225.60
551.34	42525.19
551.51	42583.71
551.68	42480.72
551.84	42438.59
552.01	42621.16
552.18	42866.91
552.34	42359.02
552.51	42756.91
552.68	42663.28
552.84	42363.70
553.01	42981.60
553.18	42857.55
553.34	42639.88
553.51	42546.26
553.67	42583.71
553.84	42895.00
554.01	43061.18
554.17	43168.84
554.34	43276.51
554.51	43257.78
554.67	42946.49
554.84	43182.88
555.00	43007.34
555.17	42784.99
555.33	42986.28
555.50	42756.91
555.67	42836.48
555.83	43405.23
556.00	42918.40
556.16	43667.37
556.33	43175.86
556.50	43306.93
556.66	43480.13
556.83	42939.47
556.99	43517.58
557.16	43552.69
557.32	43559.71
557.49	43482.47
557.65	43379.49
557.82	43473.11
557.98	43367.79
558.15	43863.98
558.32	43405.23
558.48	43697.80
558.65	43962.28
558.81	43899.09
558.98	43608.86
559.14	43550.35
559.31	43751.63
559.47	43833.55
559.64	43859.30
559.80	43964.62
559.97	43768.02
560.13	43491.83
560.30	43934.20
560.46	43812.49
560.63	43686.10
560.79	44201.02
560.96	43999.73
561.12	44105.06
561.29	43875.68
561.45	43758.66
561.61	44296.98
561.78	43934.20
561.94	43962.28
562.11	44030.16
562.27	43859.30
562.44	44243.15
562.60	44325.07
562.77	44285.28
562.93	43856.96
563.10	44051.22
563.26	43789.08
563.42	44332.09
563.59	44126.12
563.75	44198.68
563.92	44460.82
564.08	44540.39
564.24	44261.87
564.41	44105.06
564.57	44215.06
564.74	44376.56
564.90	44397.62
565.07	44444.43
565.23	44044.20
565.39	44467.84
565.56	44222.08
565.72	44060.58
565.88	44268.89
566.05	44362.51
566.21	44594.23
566.38	44093.35
566.54	44793.17
566.70	44690.19
566.87	44933.60
567.03	44418.69
567.19	45001.48
567.36	44662.10
567.52	44421.03
567.68	44762.75
567.85	44381.24
568.01	44236.12
568.17	44346.13
568.34	44608.27
568.50	44341.45
568.66	44662.10
568.83	44294.64
568.99	44364.85
569.15	44645.72
569.32	44346.13
569.48	44311.02
569.64	44924.24
569.81	44629.34
569.97	44849.35
570.13	44519.33
570.30	44355.49
570.46	44402.30
570.62	44105.06
570.78	44299.32
570.95	44437.41
571.11	44208.04
571.27	44516.99
571.43	44601.25
571.60	45081.06
571.76	44320.38
571.92	44622.31
572.09	44814.24
572.25	44900.84
572.41	44779.13
572.57	45127.87
572.74	45251.92
572.90	45146.59
573.06	44528.69
573.22	45298.73
573.38	44690.19
573.55	44442.09
573.71	44678.49
573.87	44664.44
574.03	44343.79
574.20	44685.51
574.36	44821.26
574.52	45045.95
574.68	44931.26
574.84	45071.70
575.01	44638.70
575.17	44697.21
575.33	44837.64
575.49	44734.66
575.65	44877.43
575.82	44910.20
575.98	44622.31
576.14	45221.49
576.30	45102.12
576.46	44598.91
576.62	44601.25
576.79	44521.67
576.95	44261.87
577.11	44488.90
577.27	44844.66
577.43	44933.60
577.59	44463.16
577.75	44474.86
577.92	44446.77
578.08	44655.08
578.24	44545.08
578.40	44746.36
578.56	44612.95
578.72	45067.02
578.88	45006.16
579.04	44891.48
579.21	44584.86
579.37	44580.18
579.53	44626.99
579.69	44933.60
579.85	45186.38
580.01	44917.22
580.17	45123.19
580.33	45322.13
580.49	45034.25
580.65	45560.87
580.82	44870.41
580.98	44594.23
581.14	44818.92
581.30	44858.71
581.46	45191.06
581.62	45270.64
581.78	44914.88
581.94	45113.83
582.10	45067.02
582.26	44641.04
582.42	44786.15
582.58	45090.42
582.74	45111.49
582.90	44741.68
583.06	44935.95
583.22	45118.51
583.38	45565.55
583.54	45254.26
583.70	44861.05
583.86	44994.46
584.02	44287.62
584.18	45160.64
584.34	44889.13
584.50	44921.90
584.66	44992.12
584.82	45130.21
584.98	45420.44
585.14	44837.64
585.30	45277.66
585.46	45265.96
585.62	44505.29
585.78	44903.18
585.94	44903.18
586.10	44947.65
586.26	44589.55
586.42	45198.09
586.58	45427.46
586.74	45209.79
586.90	45010.84
587.06	44383.58
587.22	45090.42
587.38	44802.53
587.54	45308.09
587.70	45509.38
587.86	44957.01
588.02	44753.38
588.18	45109.14
588.34	45200.43
588.49	44863.39
588.65	44818.92
588.81	44839.98
588.97	44643.38
589.13	44652.74
589.29	44729.98
589.45	45198.09
589.61	45272.98
589.77	45471.93
589.93	44645.72
590.08	45329.16
590.24	45319.79
