SpectraSuite Data File
++++++++++++++++++++++++++++++++++++
Date: Fri Oct 25 11:24:00 EDT 2013
User: price-jones
Dark Spectrum Present: No
Reference Spectrum Present: No
Number of Sampled Component Spectra: 1
Spectrometers: USB2+H05261
Integration Time (usec): 100000 (USB2+H05261)
Spectra Averaged: 1 (USB2+H05261)
Boxcar Smoothing: 0 (USB2+H05261)
Correct for Electrical Dark: No (USB2+H05261)
Strobe/Lamp Enabled: No (USB2+H05261)
Correct for Detector Non-linearity: No (USB2+H05261)
Correct for Stray Light: No (USB2+H05261)
Number of Pixels in Processed Spectrum: 2048
>>>>>Begin Processed Spectral Data<<<<<
365.73	245.76
365.92	245.76
366.12	245.76
366.32	175.54
366.52	154.48
366.72	173.20
366.91	117.03
367.11	140.43
367.31	81.92
367.51	124.05
367.70	133.41
367.90	110.01
368.10	191.92
368.30	79.58
368.49	180.22
368.69	163.84
368.89	175.54
369.09	72.56
369.28	147.45
369.48	196.60
369.68	102.98
369.87	173.20
370.07	229.37
370.27	243.42
370.47	304.27
370.66	580.45
370.86	638.97
371.06	741.95
371.25	716.20
371.45	662.37
371.65	676.41
371.84	767.70
372.04	674.07
372.24	702.16
372.44	732.59
372.63	727.91
372.83	744.29
373.03	753.65
373.22	718.54
373.42	849.61
373.62	770.04
373.81	882.38
374.01	795.78
374.21	840.25
374.40	819.19
374.60	805.14
374.79	858.98
374.99	744.29
375.19	844.93
375.38	830.89
375.58	802.80
375.78	847.27
375.97	805.14
376.17	898.77
376.37	821.53
376.56	835.57
376.76	828.55
376.95	861.32
377.15	912.81
377.35	847.27
377.54	851.96
377.74	973.66
377.93	826.21
378.13	931.53
378.33	931.53
378.52	978.34
378.72	889.40
378.91	964.30
379.11	938.55
379.31	915.15
379.50	889.40
379.70	1074.31
379.89	961.96
380.09	1015.79
380.28	978.34
380.48	910.47
380.68	959.62
380.87	971.32
381.07	954.94
381.26	945.58
381.46	1025.15
381.65	945.58
381.85	947.92
382.04	1093.03
382.24	1081.33
382.43	1050.90
382.63	1090.69
382.83	1055.58
383.02	1025.15
383.22	1069.62
383.41	1114.10
383.61	1025.15
383.80	1128.14
384.00	1130.48
384.19	1146.86
384.39	1121.12
384.58	1151.54
384.78	1109.41
384.97	1160.91
385.17	1163.25
385.36	1170.27
385.56	1193.67
385.75	1114.10
385.95	1170.27
386.14	1198.35
386.34	1167.93
386.53	1226.44
386.72	1193.67
386.92	1322.40
387.11	1193.67
387.31	1282.61
387.50	1261.55
387.70	1291.98
387.89	1308.36
388.09	1263.89
388.28	1249.85
388.48	1315.38
388.67	1263.89
388.86	1324.74
389.06	1284.95
389.25	1322.40
389.45	1392.62
389.64	1446.45
389.84	1348.15
390.03	1441.77
390.22	1397.30
390.42	1324.74
390.61	1441.77
390.81	1277.93
391.00	1444.11
391.19	1533.05
391.39	1474.54
391.58	1507.30
391.78	1465.18
391.97	1483.90
392.16	1469.86
392.36	1502.62
392.55	1561.14
392.75	1509.65
392.94	1514.33
393.13	1458.15
393.33	1535.39
393.52	1537.73
393.71	1612.63
393.91	1561.14
394.10	1610.29
394.29	1603.27
394.49	1624.33
394.68	1652.42
394.88	1661.78
395.07	1724.97
395.26	1732.00
395.46	1652.42
395.65	1682.85
395.84	1624.33
396.04	1921.58
396.23	1902.86
396.42	1722.63
396.62	1795.19
396.81	1849.02
397.00	1748.38
397.19	1741.36
397.39	1769.44
397.58	1874.77
397.77	1741.36
397.97	1851.36
398.16	1790.51
398.35	1919.24
398.55	1895.83
398.74	1963.71
398.93	1834.98
399.12	1923.92
399.32	2003.50
399.51	1977.75
399.70	1921.58
399.90	1966.05
400.09	2012.86
400.28	2106.48
400.47	2064.35
400.67	2172.02
400.86	2214.15
401.05	2050.31
401.24	2071.37
401.44	2122.87
401.63	2176.70
401.82	2179.04
402.01	2169.68
402.21	2120.53
402.40	2286.70
402.59	2150.95
402.78	2225.85
402.97	2172.02
403.17	2321.81
403.36	2160.31
403.55	2211.81
403.74	2307.77
403.93	2422.45
404.13	2377.98
404.32	2471.61
404.51	2420.11
404.70	2373.30
404.89	2385.01
405.09	2527.78
405.28	2443.52
405.47	2572.25
405.66	2537.14
405.85	2698.64
406.05	2480.97
406.24	2487.99
406.43	2588.63
406.62	2672.89
406.81	2691.62
407.00	2588.63
407.20	2668.21
407.39	2628.42
407.58	2686.94
407.77	2785.24
407.96	2808.64
408.15	2773.53
408.34	2663.53
408.54	2747.79
408.73	2799.28
408.92	2813.32
409.11	2906.95
409.30	2895.24
409.49	2878.86
409.68	2995.89
409.87	2939.71
410.07	3033.33
410.26	2963.12
410.45	2977.16
410.64	3014.61
410.83	3052.06
411.02	3169.09
411.21	3068.44
411.40	3105.89
411.59	3183.13
411.78	3213.56
411.98	3159.72
412.17	3382.07
412.36	3241.64
412.55	3297.81
412.74	3524.85
412.93	3543.57
413.12	3449.95
413.31	3506.12
413.50	3611.45
413.69	3412.50
413.88	3478.04
414.07	3641.87
414.26	3618.47
414.45	3712.09
414.64	3669.96
414.83	3761.24
415.02	3751.88
415.22	4028.06
415.41	3838.48
415.60	3714.43
415.79	3913.38
415.98	4037.42
416.17	4060.83
416.36	4060.83
416.55	3896.99
416.74	4201.26
416.93	4058.49
417.12	4070.19
417.31	4367.44
417.50	4212.96
417.69	4475.10
417.88	4252.75
418.07	4367.44
418.26	4222.33
418.45	4250.41
418.64	4344.03
418.83	4498.51
419.02	4327.65
419.21	4582.77
419.39	4540.64
419.58	4512.55
419.77	4655.33
419.96	4535.96
420.15	4589.79
420.34	4517.23
420.53	4713.84
420.72	4767.67
420.91	4615.54
421.10	4842.57
421.29	4793.42
421.48	4631.92
421.67	4784.06
421.86	4781.71
422.05	4908.10
422.24	4784.06
422.43	4936.19
422.61	4758.31
422.80	4905.76
422.99	4978.32
423.18	4987.68
423.37	5029.81
423.56	5013.43
423.75	5039.17
423.94	4873.00
424.13	4641.28
424.32	4723.20
424.50	4922.15
424.69	5170.24
424.88	5191.31
425.07	4990.02
425.26	4926.83
425.45	4990.02
425.64	4943.21
425.83	4938.53
426.01	5123.43
426.20	4950.23
426.39	4926.83
426.58	5198.33
426.77	5048.54
426.96	5249.82
427.15	5174.92
427.33	5305.99
427.52	5210.03
427.71	5284.93
427.90	5242.80
428.09	5186.63
428.28	5495.58
428.46	5448.77
428.65	5474.51
428.84	5577.50
429.03	5628.99
429.22	5350.46
429.40	5502.60
429.59	5612.60
429.78	5460.47
429.97	5277.91
430.16	5476.85
430.34	5657.07
430.53	5659.42
430.72	5729.63
430.91	5584.52
431.10	5526.00
431.28	5792.83
431.47	5872.40
431.66	5851.34
431.85	5860.70
432.03	5933.26
432.22	6071.35
432.41	5959.00
432.60	5872.40
432.79	5912.19
432.97	6139.23
433.16	6078.37
433.35	5933.26
433.54	6118.16
433.72	6225.82
433.91	6052.63
434.10	6291.36
434.28	6129.86
434.47	6190.72
434.66	6380.30
434.85	6307.74
435.03	6286.68
435.22	6270.30
435.41	6441.15
435.59	6490.31
435.78	6539.46
435.97	6502.01
436.16	6445.84
436.34	6525.41
436.53	6558.18
436.72	6649.46
436.90	6487.96
437.09	6773.51
437.28	6392.00
437.46	6647.12
437.65	6869.47
437.84	6876.49
438.02	6822.66
438.21	6740.74
438.40	6675.21
438.58	6904.58
438.77	7091.82
438.96	6932.67
439.14	7026.29
439.33	7314.17
439.52	7365.67
439.70	7150.34
439.89	7496.74
440.08	7239.28
440.26	7370.35
440.45	7260.34
440.63	7557.59
440.82	7648.87
441.01	7522.48
441.19	7524.82
441.38	7754.19
441.57	7981.23
441.75	7964.84
441.94	7955.48
442.12	7971.86
442.31	8011.65
442.50	8018.68
442.68	8131.02
442.87	8060.80
443.05	8442.31
443.24	8269.11
443.43	8177.83
443.61	8147.40
443.80	8554.66
443.98	8095.91
444.17	7887.61
444.35	8353.37
444.54	8257.41
444.73	8395.50
444.91	8283.16
445.10	8475.08
445.28	8259.75
445.47	8219.96
445.65	8432.95
445.84	8603.81
446.02	8386.14
446.21	8451.67
446.39	8341.67
446.58	8489.12
446.77	8336.99
446.95	8341.67
447.14	8477.42
447.32	8500.83
447.51	8711.47
447.69	8542.96
447.88	8587.43
448.06	8425.93
448.25	8641.26
448.43	8713.81
448.62	8730.20
448.80	8695.09
448.99	8685.73
449.17	8990.00
449.36	8631.90
449.54	8903.40
449.73	9132.77
449.91	9100.00
450.10	9029.79
450.28	9186.60
450.46	8968.93
450.65	9006.38
450.83	9149.15
451.02	9135.11
451.20	9231.07
451.39	9284.91
451.57	9186.60
451.76	9090.64
451.94	9254.48
452.13	9427.68
452.31	9275.54
452.49	9357.46
452.68	9399.59
452.86	9516.62
453.05	9451.08
453.23	9483.85
453.42	9301.29
453.60	9668.75
453.78	9598.54
453.97	9455.76
454.15	9671.09
454.34	9521.30
454.52	9755.35
454.70	9851.31
454.89	9659.39
455.07	9825.57
455.26	9881.74
455.44	9940.26
455.62	10008.13
455.81	9963.66
455.99	10022.17
456.17	10026.86
456.36	10127.50
456.54	10211.76
456.73	10274.95
456.91	10356.87
457.09	10427.09
457.28	10628.37
457.46	10403.68
457.64	10855.40
457.83	10647.10
458.01	10441.13
458.19	10808.59
458.38	10789.87
458.56	10855.40
458.74	10752.42
458.93	10675.18
459.11	10934.98
459.29	10958.39
459.48	10801.57
459.66	10972.43
459.84	10970.09
460.03	11068.39
460.21	11185.42
460.39	10995.84
460.57	11061.37
460.76	11243.93
460.94	11318.83
461.12	11220.53
461.31	11328.19
461.49	11171.38
461.67	11325.85
461.85	11634.80
462.04	11318.83
462.22	11349.26
462.40	11595.01
462.59	11651.19
462.77	11758.85
462.95	11639.48
463.13	11702.68
463.32	11971.84
463.50	11754.17
463.68	11899.28
463.86	11812.68
464.05	11616.08
464.23	11770.55
464.41	11988.22
464.59	11742.47
464.78	12189.51
464.96	12056.10
465.14	12081.85
465.32	12393.14
465.50	12109.93
465.69	12131.00
465.87	12163.76
466.05	12276.11
466.23	12145.04
466.41	12304.20
466.60	12535.91
466.78	12505.48
466.96	12308.88
467.14	12348.67
467.32	12201.21
467.51	12627.19
467.69	12283.13
467.87	12573.36
468.05	12521.87
468.23	12615.49
468.41	12430.59
468.60	12692.73
468.78	13055.51
468.96	12819.11
469.14	12901.03
469.32	13114.02
469.50	12688.04
469.69	13123.38
469.87	13128.06
470.05	13139.77
470.23	13209.98
470.41	13198.28
470.59	13275.52
470.77	13193.60
470.95	13310.63
471.14	13820.86
471.32	13247.43
471.50	13207.64
471.68	13905.12
471.86	13785.76
472.04	13792.78
472.22	14045.55
472.40	13774.05
472.58	13958.96
472.77	14258.54
472.95	14333.44
473.13	14850.70
473.31	14171.94
473.49	14443.45
473.67	14251.52
473.85	14583.88
474.03	14689.20
474.21	14630.69
474.39	14602.60
474.57	14780.48
474.75	14934.96
474.93	14956.02
475.12	15154.97
475.30	15239.23
475.48	15199.44
475.66	15332.85
475.84	15063.69
476.02	15494.35
476.20	15419.45
476.38	15700.31
476.56	16088.84
476.74	16074.80
476.92	15721.38
477.10	16187.14
477.28	16259.70
477.46	16130.97
477.64	16432.90
477.82	16521.84
478.00	17242.73
478.18	16751.21
478.36	16877.60
478.54	17287.20
478.72	17123.36
478.90	17624.23
479.08	17448.69
479.26	17830.20
479.44	17715.51
479.62	18251.50
479.80	18373.21
479.98	18293.63
480.16	18867.06
480.34	18721.95
480.52	18948.98
480.70	18712.58
480.88	18574.49
481.06	18785.14
481.24	18991.11
481.41	19058.98
481.59	19484.96
481.77	19847.74
481.95	19510.71
482.13	19936.68
482.31	19751.78
482.49	20723.10
482.67	20563.95
482.85	20386.07
483.03	20702.04
483.21	21102.27
483.39	21060.14
483.57	20819.07
483.74	21090.57
483.92	21598.46
484.10	21607.83
484.28	21404.20
484.46	22120.40
484.64	22235.09
484.82	22195.30
485.00	22764.05
485.18	22686.81
485.35	22981.72
485.53	23087.04
485.71	23274.29
485.89	23981.13
486.07	23456.85
486.25	23730.69
486.43	23433.44
486.61	24056.03
486.78	24182.42
486.96	24327.53
487.14	24519.45
487.32	24755.85
487.50	24877.55
487.68	24732.44
487.85	25490.77
488.03	25668.66
488.21	25912.07
488.39	25942.50
488.57	26263.15
488.75	26408.26
488.92	26539.33
489.10	26969.99
489.28	27026.17
489.46	27421.72
489.64	27861.74
489.81	27721.30
489.99	27943.66
490.17	27395.97
490.35	28266.65
490.53	28222.18
490.70	28582.62
490.88	28503.04
491.06	29226.27
491.24	28694.97
491.41	29703.74
491.59	29380.74
491.77	29551.60
491.95	29972.90
492.13	30022.05
492.30	30230.36
492.48	30092.27
492.66	30464.41
492.84	30436.33
493.01	30906.77
493.19	30941.88
493.37	31096.36
493.54	31381.90
493.72	31702.56
493.90	31494.25
494.08	32027.89
494.25	32570.90
494.43	32357.91
494.61	32748.78
494.79	32397.70
494.96	32701.96
495.14	32849.42
495.32	33666.27
495.49	33647.54
495.67	33488.38
495.85	33446.26
496.02	33844.15
496.20	34068.84
496.38	34438.64
496.55	34368.43
496.73	34953.56
496.91	34565.03
497.09	34958.24
497.26	35140.80
497.44	35391.24
497.62	35075.27
497.79	36025.53
497.97	35534.01
498.14	36299.37
498.32	36243.20
498.50	36161.28
498.67	36575.55
498.85	36601.30
499.03	36905.57
499.20	37261.33
499.38	37041.32
499.56	37380.70
499.73	37729.44
499.91	37266.01
500.08	37862.85
500.26	37977.53
500.44	38148.39
500.61	38120.31
500.79	38440.96
500.97	38328.61
501.14	38710.12
501.32	38464.36
501.49	38485.43
501.67	39241.42
501.84	39463.77
502.02	39133.76
502.20	39051.84
502.37	39360.79
502.55	39370.15
502.72	39864.00
502.90	39971.67
503.07	39763.36
503.25	39601.86
503.43	39648.68
503.60	40275.94
503.78	40671.49
503.95	40545.10
504.13	40275.94
504.30	41069.38
504.48	40701.92
504.65	41146.62
504.83	41284.71
505.01	41420.46
505.18	41333.86
505.36	41958.78
505.53	41862.82
505.71	41493.02
505.88	42124.96
506.06	41792.61
506.23	42408.17
506.41	42066.45
506.58	42651.58
506.76	42415.19
506.93	42794.36
507.11	42333.27
507.28	42927.77
507.46	43107.99
507.63	43178.20
507.81	43365.45
507.98	43110.33
508.16	43702.48
508.33	43931.86
508.50	43753.97
508.68	43852.28
508.85	43852.28
509.03	44102.71
509.20	44411.67
509.38	44701.89
509.55	44292.30
509.73	44645.72
509.90	44727.64
510.08	44680.83
510.25	44304.00
510.42	44809.56
510.60	45188.72
510.77	44898.50
510.95	45485.97
511.12	45628.74
511.30	45031.91
511.47	45656.83
511.64	45942.38
511.82	46190.47
511.99	45979.82
512.17	45825.35
512.34	46054.72
512.51	46543.89
512.69	46768.58
512.86	46923.06
513.04	46747.52
513.21	46775.61
513.38	47388.83
513.56	46887.95
513.73	47079.88
513.90	47512.88
514.08	47274.14
514.25	47550.32
514.43	47868.64
514.60	47634.58
514.77	47800.76
514.95	47927.15
515.12	48083.97
515.29	47543.30
515.47	48198.65
515.64	48175.25
515.81	48217.38
515.99	48126.10
516.16	48662.08
516.33	49081.03
516.51	48704.21
516.68	48797.83
516.85	48811.87
517.03	48996.77
517.20	49160.61
517.37	48914.86
517.54	49034.22
517.72	49113.80
517.89	49144.23
518.06	49525.74
518.24	49406.37
518.41	49668.51
518.58	49750.43
518.75	49799.58
518.93	49624.04
519.10	49696.59
519.27	49977.46
519.45	49993.84
519.62	50316.84
519.79	50169.38
519.96	50010.23
520.14	50578.98
520.31	50354.29
520.48	50225.56
520.65	50188.11
520.83	50862.18
521.00	50979.21
521.17	50497.06
521.34	51164.11
521.52	51014.32
521.69	51119.64
521.86	51075.17
522.03	51430.93
522.20	51810.10
522.38	51810.10
522.55	51428.59
522.72	51426.25
522.89	51510.51
523.07	51679.03
523.24	51566.68
523.41	51885.00
523.58	51723.50
523.75	52292.25
523.92	52175.22
524.10	52105.01
524.27	52112.03
524.44	52486.51
524.61	52222.03
524.78	52378.85
524.96	52573.11
525.13	52538.01
525.30	52704.18
525.47	52734.61
525.64	52488.85
525.81	52561.41
525.98	53024.84
526.16	52907.81
526.33	52692.48
526.50	53425.07
526.67	53130.16
526.84	53132.50
527.01	53055.26
527.18	53099.73
527.36	53083.35
527.53	53469.54
527.70	53888.49
527.87	53654.44
528.04	53200.38
528.21	53574.86
528.38	53729.34
528.55	53647.42
528.72	53418.05
528.89	53659.12
529.07	53696.57
529.24	53223.78
529.41	53769.13
529.58	53757.42
529.75	53773.81
529.92	53965.73
530.09	54003.18
530.26	54068.72
530.43	54113.19
530.60	53872.11
530.77	54047.65
530.94	54340.22
531.11	54272.34
531.28	54286.39
531.46	54068.72
531.63	54431.50
531.80	54237.23
531.97	54752.15
532.14	54646.83
532.31	54564.91
532.48	54719.38
532.65	54857.48
532.82	54380.01
532.99	54951.10
533.16	54808.32
533.33	55047.06
533.50	55199.19
533.67	55124.30
533.84	54728.75
534.01	55206.22
534.18	55386.44
534.35	55199.19
534.52	55260.05
534.69	55391.12
534.86	55351.33
535.03	55276.43
535.20	55292.82
535.37	55510.49
535.54	55625.17
535.71	55496.44
535.88	55721.13
536.05	55721.13
536.22	55606.45
536.38	55955.19
536.55	55695.39
536.72	55711.77
536.89	55671.98
537.06	55997.32
537.23	56093.28
537.40	55681.34
537.57	55789.01
537.74	56140.09
537.91	56299.25
538.08	56257.12
538.25	55955.19
538.42	56069.87
538.59	56493.51
538.75	56104.98
538.92	56081.58
539.09	56554.36
539.26	56432.66
539.43	56231.37
539.60	56390.53
539.77	56451.38
539.94	56559.05
540.11	56416.27
540.28	56491.17
540.44	56493.51
540.61	56680.75
540.78	56350.74
540.95	56612.88
541.12	56491.17
541.29	56537.98
541.46	56629.26
541.62	56657.35
541.79	56811.82
541.96	56802.46
542.13	56624.58
542.30	56882.04
542.47	56989.70
542.63	57146.52
542.80	57099.71
542.97	57350.15
543.14	57448.45
543.31	57312.70
543.48	57195.67
543.64	57399.30
543.81	57766.76
543.98	57462.49
544.15	57612.29
544.32	57712.93
544.48	57631.01
544.65	57502.28
544.82	57556.11
544.99	57560.79
545.16	57687.18
545.32	57616.97
545.49	57825.28
545.66	57726.97
545.83	57670.80
546.00	57799.53
546.16	57715.27
546.33	57757.40
546.50	57584.20
546.67	57834.64
546.83	57476.54
547.00	58047.63
547.17	57954.00
547.34	57982.09
547.50	58059.33
547.67	58204.44
547.84	58199.76
548.00	58300.40
548.17	58410.41
548.34	58370.62
548.51	58295.72
548.67	58265.30
548.84	58389.34
549.01	58188.06
549.18	58333.17
549.34	58188.06
549.51	58450.20
549.68	58506.37
549.84	58508.71
550.01	58717.02
550.18	58494.67
550.34	58852.77
550.51	58681.91
550.68	58679.57
550.84	58548.50
551.01	58904.26
551.18	58691.27
551.34	58658.51
551.51	58445.52
551.68	58644.46
551.84	58749.79
552.01	58679.57
552.18	58693.61
552.34	58887.88
552.51	58946.39
552.68	58656.17
552.84	58646.80
553.01	59222.58
553.18	58878.52
553.34	59049.38
553.51	59040.01
553.67	58988.52
553.84	59056.40
554.01	59208.53
554.17	59124.27
554.34	59264.70
554.51	59128.95
554.67	59150.02
554.84	59007.25
555.00	59302.15
555.17	59145.34
555.33	59365.35
555.50	58990.86
555.67	59433.22
555.83	59035.33
556.00	59084.48
556.16	59561.95
556.33	59154.70
556.50	59505.78
556.66	59561.95
556.83	59320.88
556.99	59386.41
557.16	59606.42
557.32	59552.59
557.49	59737.49
557.65	59613.44
557.82	59648.55
557.98	59519.82
558.15	59592.38
558.32	59484.72
558.48	59477.69
558.65	59538.55
558.81	59510.46
558.98	59721.11
559.14	59803.03
559.31	59753.88
559.47	59494.08
559.64	59742.17
559.80	59856.86
559.97	59803.03
560.13	59826.43
560.30	59852.18
560.46	59924.74
560.63	59969.21
560.79	59824.09
560.96	59985.59
561.12	60013.68
561.29	60062.83
561.45	59966.87
561.61	59798.35
561.78	59868.56
561.94	59910.69
562.11	59922.40
562.27	60245.39
562.44	60004.31
562.60	60250.07
562.77	60203.26
562.93	59763.24
563.10	60090.91
563.26	60048.78
563.42	60420.93
563.59	60116.66
563.75	60189.22
563.92	60240.71
564.08	60254.75
564.24	60381.14
564.41	60236.03
564.57	60271.14
564.74	60219.64
564.90	60271.14
565.07	60285.18
565.23	60341.35
565.39	60247.73
565.56	60254.75
565.72	60264.11
565.88	60390.50
566.05	60163.47
566.21	60175.17
566.38	60203.26
566.54	60381.14
566.70	60598.81
566.87	60341.35
567.03	60306.24
567.19	60542.64
567.36	60434.97
567.52	60399.86
567.68	60725.20
567.85	60439.65
568.01	60509.87
568.17	60594.13
568.34	60427.95
568.50	60453.70
568.66	60425.61
568.83	60441.99
568.99	60434.97
569.15	60364.76
569.32	60715.84
569.48	60636.26
569.64	60673.71
569.81	60619.88
569.97	60584.77
570.13	60554.34
570.30	60544.98
570.46	60610.51
570.62	60788.39
570.78	60786.05
570.95	60631.58
571.11	60720.52
571.27	60636.26
571.43	60713.50
571.60	60846.91
571.76	60750.94
571.92	60713.50
572.09	60680.73
572.25	60788.39
572.41	60643.28
572.57	60694.77
572.74	60753.29
572.90	60589.45
573.06	60886.70
573.22	60615.19
573.38	60643.28
573.55	60732.22
573.71	61010.74
573.87	60919.46
574.03	60662.00
574.20	60687.75
574.36	60694.77
574.52	60788.39
574.68	60821.16
574.84	60772.01
575.01	61083.30
575.17	60753.29
575.33	60942.87
575.49	60858.61
575.65	60802.44
575.82	60999.04
575.98	60910.10
576.14	61127.77
576.30	60853.93
576.46	60874.99
576.62	60935.85
576.79	60987.34
576.95	60898.40
577.11	60985.00
577.27	60980.32
577.43	61226.07
577.59	60896.06
577.75	60968.61
577.92	60750.94
578.08	61085.64
578.24	60935.85
578.40	61197.99
578.56	61102.03
578.72	60938.19
578.88	61186.28
579.04	61151.18
579.21	61118.41
579.37	61031.81
579.53	61247.14
579.69	60886.70
579.85	61083.30
580.01	60893.72
580.17	60839.89
580.33	61048.19
580.49	60996.70
580.65	61010.74
580.82	61048.19
580.98	60989.68
581.14	60846.91
581.30	61242.46
581.46	60919.46
581.62	61176.92
581.78	61073.94
581.94	60982.66
582.10	61139.47
582.26	61216.71
582.42	60956.91
582.58	61165.22
582.74	61087.98
582.90	60874.99
583.06	61031.81
583.22	60699.45
583.38	61087.98
583.54	60959.25
583.70	61134.79
583.86	61179.26
584.02	60975.64
584.18	61214.37
584.34	61048.19
584.50	61139.47
584.66	61179.26
584.82	61031.81
584.98	61380.55
585.14	61221.39
585.30	61162.88
585.46	61326.72
585.62	61275.22
585.78	61490.55
585.94	60935.85
586.10	61237.78
586.26	61293.95
586.42	61242.46
586.58	61001.38
586.74	61228.41
586.90	61331.40
587.06	61099.68
587.22	61258.84
587.38	61134.79
587.54	61303.31
587.70	61233.10
587.86	61345.44
588.02	61410.98
588.18	61312.67
588.34	61097.34
588.49	61296.29
