SpectraSuite Data File
++++++++++++++++++++++++++++++++++++
Date: Fri Oct 25 10:43:36 EDT 2013
User: price-jones
Dark Spectrum Present: No
Reference Spectrum Present: No
Number of Sampled Component Spectra: 1
Spectrometers: USB2+H05261
Integration Time (usec): 100000 (USB2+H05261)
Spectra Averaged: 1 (USB2+H05261)
Boxcar Smoothing: 0 (USB2+H05261)
Correct for Electrical Dark: No (USB2+H05261)
Strobe/Lamp Enabled: No (USB2+H05261)
Correct for Detector Non-linearity: No (USB2+H05261)
Correct for Stray Light: No (USB2+H05261)
Number of Pixels in Processed Spectrum: 2048
>>>>>Begin Processed Spectral Data<<<<<
365.73	152.13
365.92	152.13
366.12	152.13
366.32	16.38
366.52	0.00
366.72	91.28
366.91	0.00
367.11	37.45
367.31	11.70
367.51	28.09
367.70	0.00
367.90	28.09
368.10	7.02
368.30	53.83
368.49	0.00
368.69	100.64
368.89	7.02
369.09	4.68
369.28	42.13
369.48	74.90
369.68	126.39
369.87	121.71
370.07	51.49
370.27	131.07
370.47	152.13
370.66	395.55
370.86	442.36
371.06	425.98
371.25	538.32
371.45	404.91
371.65	503.22
371.84	430.66
372.04	470.45
372.24	538.32
372.44	519.60
372.63	465.77
372.83	472.79
373.03	461.09
373.22	496.19
373.42	540.66
373.62	510.24
373.81	526.62
374.01	573.43
374.21	543.00
374.40	573.43
374.60	603.86
374.79	660.03
374.99	594.50
375.19	547.69
375.38	732.59
375.58	601.52
375.78	601.52
375.97	568.75
376.17	662.37
376.37	585.13
376.56	641.31
376.76	629.60
376.95	587.47
377.15	620.24
377.35	653.01
377.54	650.67
377.74	622.58
377.93	641.31
378.13	655.35
378.33	681.10
378.52	627.26
378.72	690.46
378.91	727.91
379.11	669.39
379.31	676.41
379.50	692.80
379.70	744.29
379.89	650.67
380.09	718.54
380.28	676.41
380.48	711.52
380.68	709.18
380.87	620.24
381.07	697.48
381.26	692.80
381.46	777.06
381.65	767.70
381.85	678.76
382.04	732.59
382.24	709.18
382.43	751.31
382.63	683.44
382.83	660.03
383.02	751.31
383.22	716.20
383.41	695.14
383.61	744.29
383.80	751.31
384.00	816.85
384.19	709.18
384.39	781.74
384.58	873.02
384.78	809.83
384.97	854.30
385.17	737.27
385.36	795.78
385.56	830.89
385.75	861.32
385.95	819.19
386.14	814.51
386.34	891.74
386.53	791.10
386.72	828.55
386.92	887.06
387.11	978.34
387.31	873.02
387.50	894.08
387.70	931.53
387.89	968.98
388.09	924.51
388.28	912.81
388.48	884.72
388.67	945.58
388.86	940.90
389.06	952.60
389.25	938.55
389.45	940.90
389.64	924.51
389.84	973.66
390.03	987.71
390.22	922.17
390.42	933.87
390.61	994.73
390.81	1057.92
391.00	1057.92
391.19	1076.65
391.39	1083.67
391.58	1146.86
391.78	1060.26
391.97	1060.26
392.16	1074.31
392.36	1057.92
392.55	1055.58
392.75	1015.79
392.94	947.92
393.13	1043.88
393.33	1001.75
393.52	961.96
393.71	1069.62
393.91	1057.92
394.10	1100.05
394.29	1062.60
394.49	1172.61
394.68	1219.42
394.88	1268.57
395.07	1261.55
395.26	1289.64
395.46	1203.04
395.65	1324.74
395.84	1203.04
396.04	1259.21
396.23	1172.61
396.42	1240.48
396.62	1196.01
396.81	1203.04
397.00	1268.57
397.19	1263.89
397.39	1343.47
397.58	1434.75
397.77	1423.05
397.97	1465.18
398.16	1448.79
398.35	1481.56
398.55	1575.18
398.74	1488.58
398.93	1547.09
399.12	1500.28
399.32	1540.07
399.51	1598.59
399.70	1673.48
399.90	1577.52
400.09	1554.12
400.28	1629.01
400.47	1673.48
400.67	1652.42
400.86	1734.34
401.05	1551.78
401.24	1771.79
401.44	1727.32
401.63	1816.26
401.82	1753.06
402.01	1736.68
402.21	1811.57
402.40	1792.85
402.59	1778.81
402.78	1799.87
402.97	1769.44
403.17	1806.89
403.36	1853.70
403.55	1820.94
403.74	1947.33
403.93	1914.56
404.13	1799.87
404.32	1898.17
404.51	1900.52
404.70	1963.71
404.89	1919.24
405.09	2038.61
405.28	1975.41
405.47	2019.88
405.66	2026.90
405.85	2064.35
406.05	1987.11
406.24	2064.35
406.43	2087.76
406.62	2115.84
406.81	2153.29
407.00	2062.01
407.20	2165.00
407.39	2129.89
407.58	2169.68
407.77	2202.44
407.96	2312.45
408.15	2188.40
408.34	2279.68
408.54	2394.37
408.73	2319.47
408.92	2394.37
409.11	2282.02
409.30	2452.88
409.49	2382.67
409.68	2312.45
409.87	2296.07
410.07	2448.20
410.26	2464.58
410.45	2462.24
410.64	2399.05
410.83	2525.44
411.02	2539.48
411.21	2513.74
411.40	2605.02
411.59	2715.02
411.78	2665.87
411.98	2654.17
412.17	2771.19
412.36	2703.32
412.55	2785.24
412.74	2822.69
412.93	2796.94
413.12	2771.19
413.31	3026.31
413.50	3005.25
413.69	2979.50
413.88	3141.00
414.07	2949.08
414.26	3016.95
414.45	2920.99
414.64	3021.63
414.83	3002.91
415.02	3192.49
415.22	3164.40
415.41	3143.34
415.60	3171.43
415.79	3178.45
415.98	3241.64
416.17	3339.94
416.36	3316.54
416.55	3410.16
416.74	3321.22
416.93	3272.07
417.12	3361.01
417.31	3403.14
417.50	3379.73
417.69	3520.17
417.88	3492.08
418.07	3435.91
418.26	3585.70
418.45	3538.89
418.64	3688.68
418.83	3681.66
419.02	3531.87
419.21	3707.41
419.39	3583.36
419.58	3646.55
419.77	3562.30
419.96	3681.66
420.15	3798.69
420.34	3709.75
420.53	3850.18
420.72	3920.40
420.91	3850.18
421.10	3957.85
421.29	3908.69
421.48	3920.40
421.67	3918.06
421.86	3850.18
422.05	3646.55
422.24	3702.73
422.43	3932.10
422.61	3913.38
422.80	3852.52
422.99	3913.38
423.18	3995.29
423.37	4095.94
423.56	4070.19
423.75	3999.98
423.94	3929.76
424.13	3852.52
424.32	3768.26
424.50	4042.11
424.69	4173.18
424.88	4117.00
425.07	3948.48
425.26	3882.95
425.45	4102.96
425.64	4030.40
425.83	4011.68
426.01	4098.28
426.20	3943.80
426.39	4079.55
426.58	4004.66
426.77	4112.32
426.96	4018.70
427.15	3971.89
427.33	4095.94
427.52	3981.25
427.71	4180.20
427.90	4269.14
428.09	4224.67
428.28	4219.99
428.46	4149.77
428.65	4320.63
428.84	4238.71
429.03	4374.46
429.22	4205.94
429.40	4325.31
429.59	4212.96
429.78	3934.44
429.97	3997.64
430.16	4119.34
430.34	4091.26
430.53	4224.67
430.72	4264.46
430.91	4381.48
431.10	4355.74
431.28	4526.60
431.47	4699.80
431.66	4636.60
431.85	4667.03
432.03	4762.99
432.22	4840.23
432.41	4737.24
432.60	4662.35
432.79	4917.47
432.97	4762.99
433.16	4847.25
433.35	4720.86
433.54	4741.93
433.72	4723.20
433.91	4681.07
434.10	4774.69
434.28	4781.71
434.47	4971.30
434.66	5018.11
434.85	4992.36
435.03	5013.43
435.22	5181.95
435.41	5235.78
435.59	5034.49
435.78	5121.09
435.97	5329.40
436.16	5294.29
436.34	5132.79
436.53	5116.41
436.72	5261.52
436.90	5060.24
437.09	5413.66
437.28	5144.50
437.46	5273.23
437.65	5313.02
437.84	5348.12
438.02	5249.82
438.21	5275.57
438.40	5263.86
438.58	5507.28
438.77	5521.32
438.96	5462.81
439.14	5671.12
439.33	5701.54
439.52	5753.04
439.70	5757.72
439.89	5692.18
440.08	5935.60
440.26	5809.21
440.45	5996.45
440.63	5959.00
440.82	6045.60
441.01	6001.13
441.19	6078.37
441.38	6387.32
441.57	6253.91
441.75	6338.17
441.94	6586.27
442.12	6361.58
442.31	6422.43
442.50	6415.41
442.68	6324.13
442.87	6516.05
443.05	6574.56
443.24	6401.37
443.43	6651.80
443.61	6689.25
443.80	6686.91
443.98	6492.65
444.17	6366.26
444.35	6619.04
444.54	6700.95
444.73	6726.70
444.91	6581.59
445.10	6546.48
445.28	6476.26
445.47	6349.87
445.65	6609.67
445.84	6506.69
446.02	6813.30
446.21	6562.86
446.39	6722.02
446.58	6768.83
446.77	6778.19
446.95	6558.18
447.14	6780.53
447.32	6993.52
447.51	6785.21
447.69	6724.36
447.88	6796.92
448.06	6815.64
448.25	6836.70
448.43	6750.10
448.62	6888.20
448.80	6843.73
448.99	6909.26
449.17	6848.41
449.36	6939.69
449.54	7117.57
449.73	7208.85
449.91	7250.98
450.10	7255.66
450.28	7227.57
450.46	7335.24
450.65	7307.15
450.83	7400.77
451.02	7475.67
451.20	7524.82
451.39	7412.48
451.57	7419.50
451.76	7213.53
451.94	7302.47
452.13	7449.93
452.31	7424.18
452.49	7176.08
452.68	7286.09
452.86	7143.32
453.05	7485.03
453.23	7475.67
453.42	7442.90
453.60	7463.97
453.78	7569.29
453.97	7353.96
454.15	7513.12
454.34	7356.30
454.52	7599.72
454.70	7592.70
454.89	7552.91
455.07	7702.70
455.26	7894.63
455.44	8018.68
455.62	7901.65
455.81	7833.77
455.99	7899.31
456.17	7969.52
456.36	7925.05
456.54	7906.33
456.73	8287.84
456.91	8203.58
457.09	8091.23
457.28	8266.77
457.46	8114.64
457.64	8344.01
457.83	8372.10
458.01	8133.36
458.19	8336.99
458.38	8287.84
458.56	8320.60
458.74	8468.06
458.93	8355.71
459.11	8418.91
459.29	8245.71
459.48	8496.14
459.66	8418.91
459.84	8542.96
460.03	8435.29
460.21	8667.00
460.39	8538.27
460.57	8664.66
460.76	8685.73
460.94	8765.31
461.12	8758.28
461.31	8840.20
461.49	8779.35
461.67	8786.37
461.85	8980.64
462.04	9095.32
462.22	9500.23
462.40	9078.94
462.59	9233.41
462.77	8821.48
462.95	9085.96
463.13	9088.30
463.32	8990.00
463.50	9097.66
463.68	9123.41
463.86	9177.24
464.05	8851.91
464.23	9210.01
464.41	9095.32
464.59	9165.54
464.78	9254.48
464.96	9181.92
465.14	9324.69
465.32	9383.21
465.50	9565.77
465.69	9369.16
465.87	9320.01
466.05	9472.15
466.23	9383.21
466.41	9312.99
466.60	9715.56
466.78	9345.76
466.96	9472.15
467.14	9404.27
467.32	9540.02
467.51	9872.38
467.69	9357.46
467.87	9624.28
468.05	9664.07
468.23	9345.76
468.41	9418.32
468.60	9724.93
468.78	9874.72
468.96	9455.76
469.14	9701.52
469.32	9888.76
469.50	9734.29
469.69	9947.28
469.87	10036.22
470.05	9935.57
470.23	9799.82
470.41	9991.75
470.59	10038.56
470.77	9902.81
470.95	10157.92
471.14	10347.51
471.32	9975.36
471.50	10333.47
471.68	10499.64
471.86	10277.29
472.04	10520.71
472.22	10778.17
472.40	10478.58
472.58	10832.00
472.77	10761.78
472.95	10658.80
473.13	10960.73
473.31	10703.27
473.49	10661.14
473.67	10920.94
473.85	10799.23
474.03	11360.96
474.21	11042.65
474.39	11068.39
474.57	11080.10
474.75	11185.42
474.93	11211.17
475.12	11265.00
475.30	11185.42
475.48	11543.52
475.66	11274.36
475.84	11428.84
476.02	11761.19
476.20	11377.34
476.38	11852.47
476.56	11927.37
476.74	11995.25
476.92	11946.09
477.10	11992.90
477.28	12428.24
477.46	12379.09
477.64	12219.94
477.82	12262.07
478.00	13083.59
478.18	12622.51
478.36	12734.85
478.54	13064.87
478.72	12898.69
478.90	13135.09
479.08	13137.43
479.26	13495.53
479.44	13273.18
479.62	13308.29
479.80	13350.42
479.98	13659.37
480.16	13699.16
480.34	13448.72
480.52	13998.74
480.70	14139.18
480.88	13982.36
481.06	14066.62
481.24	14061.94
481.41	14677.50
481.59	14478.55
481.77	14614.30
481.95	14661.12
482.13	14853.04
482.31	14651.75
482.49	15028.58
482.67	15021.56
482.85	15410.09
483.03	15281.36
483.21	15531.80
483.39	15676.91
483.57	15473.28
483.74	15644.14
483.92	15644.14
484.10	15833.72
484.28	16053.73
484.46	16280.77
484.64	16711.42
484.82	16320.56
485.00	16140.33
485.18	16781.64
485.35	16620.14
485.53	16205.87
485.71	16453.97
485.89	16666.95
486.07	16563.97
486.25	16592.06
486.43	17027.40
486.61	17003.99
486.78	17465.08
486.96	17633.60
487.14	17975.31
487.32	17759.98
487.50	18024.47
487.68	18265.54
487.85	18483.21
488.03	18581.51
488.21	18796.84
488.39	19033.24
488.57	18691.52
488.75	18998.13
488.92	19330.48
489.10	19489.64
489.28	19831.36
489.46	20123.93
489.64	19861.79
489.81	20826.09
489.99	20266.70
490.17	20807.36
490.35	20552.24
490.53	20491.39
490.70	20727.78
490.88	20713.74
491.06	21256.75
491.24	21137.38
491.41	21123.33
491.59	20849.49
491.77	21481.44
491.95	21521.23
492.13	21387.82
492.30	22169.55
492.48	22033.80
492.66	22190.62
492.84	22008.06
493.01	22302.96
493.19	22342.75
493.37	22204.66
493.54	22520.63
493.72	22705.54
493.90	22658.73
494.08	22885.76
494.25	22963.00
494.43	23543.45
494.61	23454.51
494.79	23950.70
494.96	23964.75
495.14	23756.44
495.32	23924.96
495.49	23704.95
495.67	24182.42
495.85	23962.40
496.02	24849.47
496.20	24680.95
496.38	24879.89
496.55	24788.61
496.73	25355.02
496.91	25048.41
497.09	25310.55
497.26	25230.98
497.44	25542.27
497.62	25233.32
497.79	25532.90
497.97	25106.93
498.14	25252.04
498.32	25785.68
498.50	26008.03
498.67	26562.74
498.85	26209.32
499.03	26480.82
499.20	26426.99
499.38	26773.39
499.56	27028.51
499.73	26614.23
499.91	26637.64
500.08	26794.45
500.26	26621.25
500.44	26939.57
500.61	27105.74
500.79	26581.46
500.97	27236.81
501.14	27475.55
501.32	27615.98
501.49	27391.29
501.67	27454.48
501.84	27653.43
502.02	27784.50
502.20	27978.76
502.37	28304.10
502.55	28322.82
502.72	28390.70
502.90	28591.98
503.07	28292.40
503.25	28840.08
503.43	28158.99
503.60	28460.91
503.78	28184.73
503.95	28786.25
504.13	28877.53
504.30	29209.89
504.48	28858.81
504.65	28999.24
504.83	29244.99
505.01	29254.36
505.18	29521.18
505.36	29947.15
505.53	29783.32
505.71	30331.00
505.88	29968.22
506.06	29720.12
506.23	29930.77
506.41	30143.76
506.58	29895.66
506.76	30080.56
506.93	30267.81
507.11	30347.39
507.28	30115.67
507.46	30422.28
507.63	30595.48
507.81	30487.82
507.98	30244.40
508.16	30604.84
508.33	30866.98
508.50	30969.97
508.68	30899.75
508.85	31342.11
509.03	31168.91
509.20	31424.03
509.38	31697.88
509.55	31709.58
509.73	31761.07
509.90	31592.55
510.08	32018.53
510.25	31934.27
510.42	31960.02
510.60	32074.70
510.77	32250.24
510.95	32287.69
511.12	32264.28
511.30	32821.33
511.47	32814.31
511.64	32648.13
511.82	32526.42
511.99	32378.97
512.17	32804.95
512.34	32479.61
512.51	33006.23
512.69	33113.90
512.86	33102.20
513.04	33165.39
513.21	33380.72
513.38	33207.52
513.56	33212.20
513.73	33205.18
513.90	33462.64
514.08	33369.02
514.25	33380.72
514.43	33626.48
514.60	33378.38
514.77	33738.82
514.95	33905.00
515.12	33670.95
515.29	33930.75
515.47	34508.86
515.64	34511.20
515.81	33867.55
515.99	34164.80
516.16	33986.92
516.33	33895.64
516.51	33916.70
516.68	33301.14
516.85	33986.92
517.03	33937.77
517.20	34232.68
517.37	34527.58
517.54	34586.10
517.72	34485.45
517.89	34033.73
518.06	34806.11
518.24	34164.80
518.41	34859.94
518.58	34806.11
518.75	34284.17
518.93	35185.27
519.10	35124.42
519.27	35253.15
519.45	35510.61
519.62	35505.93
519.79	35601.89
519.96	35749.34
520.14	35894.46
520.31	35510.61
520.48	35974.03
520.65	35988.08
520.83	36180.00
521.00	36081.70
521.17	35618.27
521.34	36268.94
521.52	36437.46
521.69	36350.86
521.86	36320.43
522.03	36715.98
522.20	36772.16
522.38	36774.50
522.55	36669.17
522.72	36584.91
522.89	36807.26
523.07	37017.91
523.24	36788.54
523.41	37371.33
523.58	37188.77
523.75	37811.35
523.92	37397.08
524.10	37621.77
524.27	37703.69
524.44	37483.68
524.61	37841.78
524.78	37762.20
524.96	37589.00
525.13	38216.27
525.30	38188.18
525.47	38279.46
525.64	37769.22
525.81	37516.45
525.98	37668.58
526.16	37926.04
526.33	37785.61
526.50	38073.49
526.67	37282.39
526.84	38022.00
527.01	38164.78
527.18	37872.21
527.36	38588.41
527.53	37989.24
527.70	38794.38
527.87	38684.37
528.04	38424.57
528.21	38682.03
528.38	38883.32
528.55	38745.23
528.72	39606.55
528.89	38838.85
529.07	39400.58
529.24	38623.52
529.41	39374.83
529.58	38962.90
529.75	39241.42
529.92	39164.18
530.09	39828.90
530.26	39648.68
530.43	39473.13
530.60	39639.31
530.77	39765.70
530.94	40170.61
531.11	39913.16
531.28	40116.78
531.46	39917.84
531.63	39798.47
531.80	39529.31
531.97	39952.94
532.14	39325.68
532.31	39246.10
532.48	39627.61
532.65	39878.05
532.82	40114.44
532.99	39730.59
533.16	40048.91
533.33	40725.32
533.50	39990.39
533.67	40254.87
533.84	40011.46
534.01	40196.36
534.18	40275.94
534.35	41116.19
534.52	40643.40
534.69	41048.32
534.86	41120.87
535.03	40133.17
535.20	41125.55
535.37	41247.26
535.54	41071.72
535.71	40926.61
535.88	41134.92
536.05	40870.43
536.22	41008.53
536.38	41188.75
536.55	40737.02
536.72	40863.41
536.89	40706.60
537.06	41184.07
537.23	41441.53
537.40	41530.47
537.57	41738.77
537.74	41200.45
537.91	41701.32
538.08	41762.18
538.25	41378.33
538.42	41680.26
538.59	41553.87
538.75	41109.17
538.92	41818.35
539.09	41930.70
539.26	41397.06
539.43	41502.38
539.60	41965.81
539.77	41350.24
539.94	41415.78
540.11	41635.79
540.28	41701.32
540.44	41722.39
540.61	41923.68
540.78	41352.58
540.95	41963.46
541.12	42029.00
541.29	41837.08
541.46	42412.85
541.62	41825.37
541.79	42036.02
541.96	42052.41
542.13	42377.74
542.30	42108.58
542.47	42234.97
542.63	42188.16
542.80	42480.72
542.97	42829.46
543.14	42885.64
543.31	42539.24
543.48	42848.19
543.64	43309.27
543.81	43248.42
543.98	43100.97
544.15	43021.39
544.32	43199.27
544.48	43639.29
544.65	42988.62
544.82	43065.86
544.99	42967.55
545.16	43428.64
545.32	42815.42
545.49	43533.96
545.66	43842.92
545.83	43391.19
546.00	44027.82
546.16	43709.50
546.33	43210.97
546.50	42997.98
546.67	43831.21
546.83	43473.11
547.00	43643.97
547.17	43496.52
547.34	43229.69
547.50	43529.28
547.67	43569.07
547.84	43370.13
548.00	44006.75
548.17	44491.24
548.34	44287.62
548.51	44186.97
548.67	44023.14
548.84	43782.06
549.01	43583.12
549.18	43941.22
549.34	43875.68
549.51	44009.09
549.68	44016.11
549.84	44091.01
550.01	44556.78
550.18	44119.10
550.34	44304.00
550.51	44236.12
550.68	44549.76
550.84	43871.00
551.01	44222.08
551.18	44531.03
551.34	44259.53
551.51	44491.24
551.68	44847.00
551.84	44708.91
552.01	44697.21
552.18	44322.72
552.34	44292.30
552.51	44636.36
552.68	44505.29
552.84	44650.40
553.01	44624.65
553.18	44814.24
553.34	44477.20
553.51	44989.78
553.67	45006.16
553.84	45490.65
554.01	45146.59
554.17	45153.62
554.34	45298.73
554.51	45282.34
554.67	44973.39
554.84	45001.48
555.00	44870.41
555.17	44570.82
555.33	45062.33
555.50	44898.50
555.67	45038.93
555.83	45015.52
556.00	45441.50
556.16	45654.49
556.33	44975.73
556.50	45446.18
556.66	45022.54
556.83	45170.00
556.99	45368.94
557.16	45382.99
557.32	45078.72
557.49	45041.27
557.65	44624.65
557.82	45228.51
557.98	45280.00
558.15	45420.44
558.32	45144.25
558.48	45020.20
558.65	45064.67
558.81	45230.85
558.98	45195.74
559.14	45230.85
559.31	45027.23
559.47	45476.61
559.64	45368.94
559.80	45146.59
559.97	45361.92
560.13	45617.04
560.30	45247.24
560.46	46127.28
560.63	45713.00
560.79	46005.57
560.96	46197.49
561.12	45694.28
561.29	45511.72
561.45	45530.44
561.61	45397.03
561.78	45628.74
561.94	45272.98
562.11	45698.96
562.27	45797.26
562.44	46033.66
562.60	46064.08
562.77	45624.06
562.93	45223.83
563.10	46241.96
563.26	45399.37
563.42	45909.61
563.59	45579.59
563.75	45956.42
563.92	46192.81
564.08	46284.09
564.24	46064.08
564.41	45663.85
564.57	45750.45
564.74	45701.30
564.90	45890.88
565.07	45757.47
565.23	45624.06
565.39	45986.85
565.56	45904.93
565.72	45577.25
565.88	45921.31
566.05	45813.65
566.21	45794.92
566.38	45539.80
566.54	45837.05
566.70	45853.44
566.87	46129.62
567.03	45968.12
567.19	46686.67
567.36	46476.02
567.52	46148.34
567.68	45865.14
567.85	45830.03
568.01	45806.62
568.17	46590.70
568.34	46103.87
568.50	45762.15
568.66	45792.58
568.83	46330.90
568.99	45792.58
569.15	46148.34
569.32	45982.16
569.48	46305.16
569.64	46288.77
569.81	46302.82
569.97	45806.62
570.13	46117.92
570.30	45794.92
570.46	45404.05
570.62	45586.61
570.78	45914.29
570.95	46012.59
571.11	46185.79
571.27	46160.05
571.43	45610.02
571.60	45925.99
571.76	46157.70
571.92	46033.66
572.09	46188.13
572.25	46071.10
572.41	46143.66
572.57	46248.99
572.74	46969.87
572.90	46344.95
573.06	46452.61
573.22	46429.21
573.38	46328.56
573.55	46026.63
573.71	46534.53
573.87	46476.02
574.03	45979.82
574.20	46234.94
574.36	45951.74
574.52	46253.67
574.68	46007.91
574.84	46316.86
575.01	46358.99
575.17	46270.05
575.33	45848.75
575.49	45986.85
575.65	46483.04
575.82	46452.61
575.98	46028.98
576.14	46389.42
576.30	46064.08
576.46	46436.23
576.62	46059.40
576.79	46358.99
576.95	46267.71
577.11	46295.80
577.27	46415.16
577.43	46356.65
577.59	46028.98
577.75	46230.26
577.92	46005.57
578.08	45748.11
578.24	45551.51
578.40	46188.13
578.56	46351.97
578.72	46300.48
578.88	46513.47
579.04	46300.48
579.21	45757.47
579.37	46298.14
579.53	46106.21
579.69	46146.00
579.85	46176.43
580.01	46326.22
580.17	46450.27
580.33	46160.05
580.49	45975.14
580.65	46232.60
580.82	46344.95
580.98	46136.64
581.14	45947.06
581.30	46134.30
581.46	46405.80
581.62	46366.01
581.78	46387.08
581.94	46712.41
582.10	46471.34
582.26	46361.33
582.42	46693.69
582.58	45858.12
582.74	46363.67
582.90	46553.26
583.06	46674.96
583.22	46506.44
583.38	46476.02
583.54	46501.76
583.70	46429.21
583.86	46188.13
584.02	46096.85
584.18	46499.42
584.34	46356.65
584.50	46202.18
584.66	46672.62
584.82	46272.39
584.98	46431.55
585.14	46536.87
585.30	46440.91
585.46	46220.90
585.62	46167.07
585.78	46183.45
585.94	46110.89
586.10	45984.51
586.26	46021.95
586.42	46213.88
586.58	46410.48
586.74	46344.95
586.90	46499.42
587.06	46300.48
587.22	46550.91
587.38	46557.94
587.54	46546.23
587.70	46602.41
587.86	46323.88
588.02	46450.27
588.18	46555.60
588.34	46267.71
588.49	45654.49
588.65	45382.99
588.81	45846.41
588.97	45715.34
589.13	45954.08
589.29	46010.25
589.45	46417.50
589.61	46237.28
589.77	46284.09
589.93	46330.90
