SpectraSuite Data File
++++++++++++++++++++++++++++++++++++
Date: Fri Oct 25 11:23:56 EDT 2013
User: price-jones
Dark Spectrum Present: No
Reference Spectrum Present: No
Number of Sampled Component Spectra: 1
Spectrometers: USB2+H05261
Integration Time (usec): 100000 (USB2+H05261)
Spectra Averaged: 1 (USB2+H05261)
Boxcar Smoothing: 0 (USB2+H05261)
Correct for Electrical Dark: No (USB2+H05261)
Strobe/Lamp Enabled: No (USB2+H05261)
Correct for Detector Non-linearity: No (USB2+H05261)
Correct for Stray Light: No (USB2+H05261)
Number of Pixels in Processed Spectrum: 2048
>>>>>Begin Processed Spectral Data<<<<<
365.73	198.95
365.92	198.95
366.12	198.95
366.32	189.58
366.52	67.88
366.72	180.22
366.91	114.69
367.11	142.77
367.31	110.01
367.51	166.18
367.70	91.28
367.90	117.03
368.10	124.05
368.30	154.48
368.49	107.66
368.69	166.18
368.89	189.58
369.09	121.71
369.28	128.73
369.48	149.79
369.68	140.43
369.87	147.45
370.07	189.58
370.27	182.56
370.47	372.15
370.66	531.30
370.86	629.60
371.06	552.37
371.25	748.97
371.45	636.63
371.65	655.35
371.84	650.67
372.04	655.35
372.24	704.50
372.44	674.07
372.63	667.05
372.83	802.80
373.03	690.46
373.22	657.69
373.42	697.48
373.62	777.06
373.81	777.06
374.01	821.53
374.21	858.98
374.40	882.38
374.60	795.78
374.79	793.44
374.99	781.74
375.19	887.06
375.38	863.66
375.58	828.55
375.78	882.38
375.97	866.00
376.17	952.60
376.37	800.46
376.56	978.34
376.76	826.21
376.95	912.81
377.15	802.80
377.35	889.40
377.54	833.23
377.74	887.06
377.93	835.57
378.13	943.24
378.33	959.62
378.52	884.72
378.72	917.49
378.91	954.94
379.11	976.00
379.31	952.60
379.50	950.26
379.70	919.83
379.89	952.60
380.09	901.11
380.28	964.30
380.48	877.70
380.68	856.64
380.87	945.58
381.07	1036.86
381.26	1095.37
381.46	1053.24
381.65	1090.69
381.85	966.64
382.04	1015.79
382.24	1104.73
382.43	1036.86
382.63	1125.80
382.83	1041.54
383.02	1123.46
383.22	1158.57
383.41	1062.60
383.61	1135.16
383.80	1093.03
384.00	1114.10
384.19	1151.54
384.39	1158.57
384.58	1128.14
384.78	1200.69
384.97	1139.84
385.17	1181.97
385.36	1095.37
385.56	1207.72
385.75	1198.35
385.95	1100.05
386.14	1153.88
386.34	1266.23
386.53	1261.55
386.72	1158.57
386.92	1231.12
387.11	1214.74
387.31	1203.04
387.50	1205.38
387.70	1270.91
387.89	1303.68
388.09	1210.06
388.28	1322.40
388.48	1324.74
388.67	1341.13
388.86	1345.81
389.06	1364.53
389.25	1418.36
389.45	1313.04
389.64	1336.45
389.84	1345.81
390.03	1334.11
390.22	1423.05
390.42	1385.60
390.61	1446.45
390.81	1359.85
391.00	1336.45
391.19	1432.41
391.39	1481.56
391.58	1446.45
391.78	1401.98
391.97	1394.96
392.16	1444.11
392.36	1523.69
392.55	1565.82
392.75	1554.12
392.94	1643.06
393.13	1577.52
393.33	1551.78
393.52	1533.05
393.71	1551.78
393.91	1650.08
394.10	1563.48
394.29	1607.95
394.49	1603.27
394.68	1696.89
394.88	1626.67
395.07	1675.82
395.26	1748.38
395.46	1654.76
395.65	1675.82
395.84	1778.81
396.04	1781.15
396.23	1785.83
396.42	1708.59
396.62	1783.49
396.81	1811.57
397.00	1797.53
397.19	1795.19
397.39	1727.32
397.58	1806.89
397.77	1788.17
397.97	1792.85
398.16	1762.42
398.35	1940.30
398.55	1909.88
398.74	1916.90
398.93	2017.54
399.12	1802.21
399.32	1802.21
399.51	1914.56
399.70	1956.69
399.90	1973.07
400.09	2054.99
400.28	1928.60
400.47	1987.11
400.67	2085.42
400.86	2125.21
401.05	2040.95
401.24	2097.12
401.44	2132.23
401.63	2181.38
401.82	2258.62
402.01	2275.00
402.21	2122.87
402.40	2106.48
402.59	2073.71
402.78	2218.83
402.97	2218.83
403.17	2216.49
403.36	2190.74
403.55	2293.72
403.74	2270.32
403.93	2296.07
404.13	2249.25
404.32	2370.96
404.51	2420.11
404.70	2429.48
404.89	2380.32
405.09	2415.43
405.28	2422.45
405.47	2579.27
405.66	2504.37
405.85	2497.35
406.05	2509.05
406.24	2553.52
406.43	2579.27
406.62	2637.78
406.81	2691.62
407.00	2644.81
407.20	2637.78
407.39	2654.17
407.58	2775.88
407.77	2738.43
407.96	2710.34
408.15	2705.66
408.34	2738.43
408.54	2930.35
408.73	2733.75
408.92	2892.90
409.11	2944.39
409.30	2738.43
409.49	2972.48
409.68	3023.97
409.87	3014.61
410.07	2956.10
410.26	3040.36
410.45	2963.12
410.64	2991.20
410.83	3049.72
411.02	3016.95
411.21	3141.00
411.40	3063.76
411.59	3180.79
411.78	3091.85
411.98	3199.51
412.17	3272.07
412.36	3222.92
412.55	3375.05
412.74	3506.12
412.93	3403.14
413.12	3281.43
413.31	3475.70
413.50	3595.06
413.69	3552.93
413.88	3613.79
414.07	3524.85
414.26	3618.47
414.45	3669.96
414.64	3684.00
414.83	3798.69
415.02	3735.50
415.22	3758.90
415.41	3929.76
415.60	3831.46
415.79	3836.14
415.98	3798.69
416.17	4044.45
416.36	3922.74
416.55	4011.68
416.74	4100.62
416.93	4124.02
417.12	4238.71
417.31	4117.00
417.50	4173.18
417.69	4278.50
417.88	4112.32
418.07	4292.54
418.26	4224.67
418.45	4329.99
418.64	4409.57
418.83	4491.49
419.02	4477.44
419.21	4395.53
419.39	4592.13
419.58	4643.62
419.77	4479.79
419.96	4767.67
420.15	4638.94
420.34	4589.79
420.53	4669.37
420.72	4720.86
420.91	4805.12
421.10	4823.84
421.29	4861.29
421.48	4716.18
421.67	4816.82
421.86	4669.37
422.05	4807.46
422.24	4788.74
422.43	4858.95
422.61	4917.47
422.80	4851.93
422.99	4973.64
423.18	5130.45
423.37	4896.40
423.56	4882.36
423.75	4943.21
423.94	4898.74
424.13	4645.96
424.32	4788.74
424.50	4891.72
424.69	5193.65
424.88	5095.35
425.07	4912.78
425.26	4971.30
425.45	5083.64
425.64	4968.96
425.83	5032.15
426.01	5090.67
426.20	5137.48
426.39	5186.63
426.58	5132.79
426.77	5135.14
426.96	5146.84
427.15	5095.35
427.33	5053.22
427.52	5252.16
427.71	5240.46
427.90	5233.44
428.09	5322.38
428.28	5425.36
428.46	5427.70
428.65	5444.09
428.84	5530.69
429.03	5448.77
429.22	5446.43
429.40	5366.85
429.59	5561.11
429.78	5284.93
429.97	5142.16
430.16	5605.58
430.34	5556.43
430.53	5792.83
430.72	5673.46
430.91	5568.13
431.10	5568.13
431.28	5659.42
431.47	5797.51
431.66	5921.56
431.85	5872.40
432.03	6022.20
432.22	5980.07
432.41	5975.39
432.60	5977.73
432.79	5966.03
432.97	5944.96
433.16	6094.76
433.35	5980.07
433.54	6139.23
433.72	6108.80
433.91	6167.31
434.10	6274.98
434.28	6328.81
434.47	6216.46
434.66	6207.10
434.85	6328.81
435.03	6375.62
435.22	6291.36
435.41	6469.24
435.59	6476.26
435.78	6586.27
435.97	6670.53
436.16	6654.14
436.34	6445.84
436.53	6394.34
436.72	6623.72
436.90	6574.56
437.09	6630.74
437.28	6483.28
437.46	6576.91
437.65	6782.87
437.84	6834.36
438.02	6740.74
438.21	6715.00
438.40	6649.46
438.58	6932.67
438.77	6995.86
438.96	7037.99
439.14	7059.06
439.33	7396.09
439.52	7129.27
439.70	7365.67
439.89	7302.47
440.08	7433.54
440.26	7503.76
440.45	7494.40
440.63	7396.09
440.82	7674.62
441.01	7627.81
441.19	7592.70
441.38	7665.25
441.57	7770.58
441.75	7892.29
441.94	8109.96
442.12	7808.03
442.31	8131.02
442.50	8079.53
442.68	8095.91
442.87	8056.12
443.05	7995.27
443.24	8465.72
443.43	8287.84
443.61	8315.92
443.80	8484.44
443.98	8028.04
444.17	7840.79
444.35	8276.13
444.54	8376.78
444.73	8322.94
444.91	8248.05
445.10	8388.48
445.28	8372.10
445.47	8496.14
445.65	8360.39
445.84	8414.23
446.02	8477.42
446.21	8224.64
446.39	8479.76
446.58	8468.06
446.77	8512.53
446.95	8367.42
447.14	8336.99
447.32	8535.93
447.51	8592.11
447.69	8404.86
447.88	8601.47
448.06	8411.89
448.25	8479.76
448.43	8542.96
448.62	8610.83
448.80	8615.51
448.99	8627.21
449.17	8706.79
449.36	8786.37
449.54	9078.94
449.73	9011.06
449.91	9046.17
450.10	9104.68
450.28	8898.72
450.46	9181.92
450.65	9298.95
450.83	9238.09
451.02	8884.67
451.20	9385.55
451.39	9221.71
451.57	9172.56
451.76	9064.89
451.94	9156.18
452.13	9399.59
452.31	9423.00
452.49	9320.01
452.68	9486.19
452.86	9394.91
453.05	9542.36
453.23	9514.28
453.42	9399.59
453.60	9425.34
453.78	9507.26
453.97	9523.64
454.15	9509.60
454.34	9451.08
454.52	9598.54
454.70	9830.25
454.89	9830.25
455.07	9699.18
455.26	9867.70
455.44	9951.96
455.62	9891.10
455.81	9841.95
455.99	9984.73
456.17	10040.90
456.36	10115.80
456.54	10359.21
456.73	10239.84
456.91	10324.10
457.09	10312.40
457.28	10448.15
457.46	10197.71
457.64	10794.55
457.83	10693.91
458.01	10560.50
458.19	10682.20
458.38	10640.08
458.56	10583.90
458.74	10679.86
458.93	10806.25
459.11	10827.32
459.29	10853.06
459.48	10860.09
459.66	10771.15
459.84	10899.87
460.03	11112.86
460.21	10977.11
460.39	11117.54
460.57	10967.75
460.76	10953.71
460.94	11318.83
461.12	11314.15
461.31	11096.48
461.49	11171.38
461.67	10958.39
461.85	11412.45
462.04	11459.26
462.22	11499.05
462.40	11541.18
462.59	11508.41
462.77	11410.11
462.95	11623.10
463.13	11513.10
463.32	11676.93
463.50	11709.70
463.68	11772.89
463.86	11929.71
464.05	11871.20
464.23	11843.11
464.41	12147.38
464.59	11665.23
464.78	12067.80
464.96	12042.06
465.14	12121.63
465.32	12212.92
465.50	12145.04
465.69	12271.43
465.87	12215.26
466.05	12313.56
466.23	12336.96
466.41	12252.70
466.60	12587.40
466.78	12198.87
466.96	12138.02
467.14	12238.66
467.32	12451.65
467.51	12568.68
467.69	12334.62
467.87	12517.18
468.05	12451.65
468.23	12411.86
468.41	12386.12
468.60	12599.10
468.78	12769.96
468.96	12837.84
469.14	12896.35
469.32	12894.01
469.50	12802.73
469.69	13099.98
469.87	13205.30
470.05	13114.02
470.23	13242.75
470.41	13088.28
470.59	13191.26
470.77	13235.73
470.95	13228.71
471.14	13626.60
471.32	13245.09
471.50	13577.45
471.68	13752.99
471.86	13507.23
472.04	13596.17
472.22	14083.00
472.40	13724.90
472.58	13996.40
472.77	13975.34
472.95	14307.69
473.13	14628.35
473.31	14043.21
473.49	14263.22
473.67	14286.63
473.85	14279.61
474.03	14806.23
474.21	14787.50
474.39	14853.04
474.57	14932.62
474.75	14831.97
474.93	15016.88
475.12	15105.82
475.30	15119.86
475.48	15080.07
475.66	15246.25
475.84	14768.78
476.02	15468.60
476.20	15316.47
476.38	15632.44
476.56	16030.33
476.74	15836.06
476.92	15679.25
477.10	15737.76
477.28	16329.92
477.46	16184.80
477.64	16348.64
477.82	16365.03
478.00	17034.42
478.18	16961.86
478.36	16741.85
478.54	17277.83
478.72	17303.58
478.90	17331.67
479.08	17420.61
479.26	18132.13
479.44	17551.68
479.62	17972.97
479.80	18207.03
479.98	18565.13
480.16	18778.12
480.34	18298.31
480.52	18558.11
480.70	18672.79
480.88	18424.70
481.06	18974.72
481.24	18817.91
481.41	19250.91
481.59	19386.66
481.77	19700.29
481.95	19644.12
482.13	19798.59
482.31	19648.80
482.49	20278.40
482.67	20425.86
482.85	20592.03
483.03	20493.73
483.21	20980.56
483.39	21095.25
483.57	21188.87
483.74	21343.35
483.92	21647.61
484.10	21254.40
484.28	21504.84
484.46	22008.06
484.64	22260.84
484.82	22338.07
485.00	22139.13
485.18	22892.78
485.35	22998.10
485.53	22766.39
485.71	23103.43
485.89	23372.59
486.07	23571.54
486.25	23370.25
486.43	23730.69
486.61	24053.69
486.78	24240.93
486.96	24416.47
487.14	24292.42
487.32	24828.40
487.50	24893.94
487.68	25296.51
487.85	25380.77
488.03	25722.49
488.21	25846.54
488.39	25951.86
488.57	26279.54
488.75	26389.54
488.92	26436.35
489.10	26462.10
489.28	27175.96
489.46	27482.57
489.64	27140.85
489.81	27784.50
489.99	27557.47
490.17	28130.90
490.35	28285.37
490.53	28304.10
490.70	28582.62
490.88	28140.26
491.06	28985.19
491.24	28828.38
491.41	29017.96
491.59	29727.14
491.77	29701.40
491.95	29631.18
492.13	29626.50
492.30	30190.57
492.48	30352.07
492.66	30024.39
492.84	30497.18
493.01	30485.48
493.19	30874.01
493.37	30969.97
493.54	31138.49
493.72	31758.73
493.90	31454.46
494.08	31821.92
494.25	31997.46
494.43	32184.71
494.61	32596.64
494.79	32844.74
494.96	32589.62
495.14	32723.03
495.32	33078.79
495.49	33390.08
495.67	33134.96
495.85	33926.07
496.02	33820.74
496.20	34347.36
496.38	34174.16
496.55	34092.24
496.73	34815.47
496.91	34541.63
497.09	34998.03
497.26	35035.48
497.44	35398.26
497.62	35435.71
497.79	35971.69
497.97	35721.26
498.14	36458.52
498.32	36304.05
498.50	36018.50
498.67	36488.95
498.85	36479.59
499.03	36966.42
499.20	36680.88
499.38	36954.72
499.56	37326.86
499.73	37254.31
499.91	37645.18
500.08	37544.53
500.26	37205.16
500.44	37787.95
500.61	37820.72
500.79	37675.60
500.97	37986.89
501.14	38319.25
501.32	38499.47
501.49	38593.09
501.67	38560.33
501.84	38653.95
502.02	39321.00
502.20	39669.74
502.37	39892.09
502.55	38911.41
502.72	39983.37
502.90	39758.68
503.07	39309.30
503.25	40229.13
503.43	40048.91
503.60	40645.74
503.78	40158.91
503.95	40570.85
504.13	40788.52
504.30	40912.56
504.48	40650.42
504.65	40830.65
504.83	41060.02
505.01	41567.91
505.18	41684.94
505.36	41635.79
505.53	41713.03
505.71	41757.50
505.88	41614.72
506.06	41467.27
506.23	42457.32
506.41	42012.62
506.58	42321.57
506.76	42347.31
506.93	42562.64
507.11	42738.18
507.28	42464.34
507.46	42944.15
507.63	43173.52
507.81	43239.06
507.98	42799.04
508.16	43351.40
508.33	43360.76
508.50	43847.60
508.68	43693.12
508.85	43899.09
509.03	44212.72
509.20	43880.36
509.38	44318.04
509.55	44023.14
509.73	44486.56
509.90	44706.57
510.08	44769.77
510.25	44966.37
510.42	44701.89
510.60	45397.03
510.77	45301.07
510.95	45425.12
511.12	44982.76
511.30	45249.58
511.47	45595.98
511.64	45528.10
511.82	45853.44
511.99	46057.06
512.17	45942.38
512.34	46045.36
512.51	46906.68
512.69	46703.05
512.86	46899.65
513.04	46686.67
513.21	46775.61
513.38	46536.87
513.56	46904.34
513.73	46670.28
513.90	47185.20
514.08	46960.51
514.25	47342.02
514.43	47690.76
514.60	47526.92
514.77	46937.10
514.95	47681.39
515.12	47765.65
515.29	47894.38
515.47	48044.18
515.64	48224.40
515.81	48336.74
515.99	48233.76
516.16	48619.95
516.33	48732.29
516.51	48732.29
516.68	48706.55
516.85	48594.20
517.03	48573.14
517.20	48790.81
517.37	49247.21
517.54	49017.84
517.72	49230.83
517.89	49626.38
518.06	49074.01
518.24	49406.37
518.41	49619.36
518.58	49347.86
518.75	49521.05
518.93	49497.65
519.10	49619.36
519.27	50167.04
519.45	49645.10
519.62	49874.48
519.79	50124.91
519.96	49759.79
520.14	50553.23
520.31	50328.54
520.48	50595.36
520.65	50791.97
520.83	50642.17
521.00	50948.78
521.17	51014.32
521.34	50651.53
521.52	50820.05
521.69	50939.42
521.86	51168.79
522.03	51014.32
522.20	51564.34
522.38	51653.28
522.55	51559.66
522.72	51503.49
522.89	51381.78
523.07	51798.40
523.24	51416.89
523.41	51990.32
523.58	51510.51
523.75	51863.93
523.92	52233.74
524.10	52250.12
524.27	52294.59
524.44	52081.60
524.61	52097.98
524.78	52346.08
524.96	52332.04
525.13	52280.55
525.30	52690.14
525.47	52594.18
525.64	52832.91
525.81	52655.03
525.98	53010.79
526.16	52711.20
526.33	52931.22
526.50	52989.73
526.67	52982.71
526.84	53013.13
527.01	52896.11
527.18	53174.63
527.36	53104.41
527.53	53083.35
527.70	53659.12
527.87	53413.37
528.04	53361.87
528.21	53530.39
528.38	53509.33
528.55	53710.61
528.72	53499.97
528.89	53579.54
529.07	53521.03
529.24	53544.44
529.41	54021.90
529.58	53797.21
529.75	53710.61
529.92	54049.99
530.09	53851.05
530.26	54042.97
530.43	54031.27
530.60	53921.26
530.77	53970.41
530.94	54195.10
531.11	54174.04
531.28	54061.69
531.46	54621.08
531.63	54438.52
531.80	54183.40
531.97	54506.40
532.14	54703.00
532.31	54504.06
532.48	54763.85
532.65	54805.98
532.82	54880.88
532.99	54920.67
533.16	54642.15
533.33	55143.02
533.50	54986.21
533.67	55136.00
533.84	54644.49
534.01	54904.29
534.18	55311.54
534.35	55409.84
534.52	55007.27
534.69	55306.86
534.86	55372.39
535.03	55213.24
535.20	55227.28
535.37	55175.79
535.54	55578.36
535.71	55393.46
535.88	55407.50
536.05	55641.56
536.22	55702.41
536.38	55655.60
536.55	55590.06
536.72	55913.06
536.89	55730.50
537.06	55845.18
537.23	55744.54
537.40	55491.76
537.57	55980.93
537.74	55936.46
537.91	55931.78
538.08	55969.23
538.25	55906.04
538.42	56002.00
538.59	56292.22
538.75	56037.11
538.92	56294.56
539.09	56327.33
539.26	56320.31
539.43	56313.29
539.60	56280.52
539.77	56280.52
539.94	56577.77
540.11	56395.21
540.28	56512.23
540.44	56486.49
540.61	56427.98
540.78	56409.25
540.95	56521.60
541.12	56577.77
541.29	56638.62
541.46	56797.78
541.62	56868.00
541.79	56816.50
541.96	56296.91
542.13	56769.69
542.30	56835.23
542.47	56853.95
542.63	56889.06
542.80	57118.43
542.97	57036.51
543.14	57109.07
543.31	57226.10
543.48	57403.98
543.64	57652.08
543.81	57474.20
543.98	57389.94
544.15	57382.91
544.32	57396.96
544.48	57584.20
544.65	57439.09
544.82	57427.38
544.99	57523.35
545.16	57499.94
545.32	57567.82
545.49	57661.44
545.66	57918.90
545.83	57862.72
546.00	57806.55
546.16	57755.06
546.33	57577.18
546.50	57663.78
546.67	57808.89
546.83	57539.73
547.00	57836.98
547.17	58014.86
547.34	57935.28
547.50	58174.02
547.67	58309.77
547.84	58094.44
548.00	58073.37
548.17	58159.97
548.34	58234.87
548.51	58398.71
548.67	58286.36
548.84	58342.53
549.01	58190.40
549.18	58204.44
549.34	58265.30
549.51	58415.09
549.68	58623.40
549.84	58667.87
550.01	58520.41
550.18	58284.02
550.34	58466.58
550.51	58473.60
550.68	58597.65
550.84	58562.54
551.01	58553.18
551.18	58478.28
551.34	58677.23
551.51	58721.70
551.68	58681.91
551.84	58625.74
552.01	58574.25
552.18	58759.15
552.34	58578.93
552.51	58803.62
552.68	58508.71
552.84	58904.26
553.01	58972.14
553.18	58908.94
553.34	58937.03
553.51	58852.77
553.67	58775.53
553.84	59150.02
554.01	58880.86
554.17	59140.66
554.34	59194.49
554.51	59131.29
554.67	59187.47
554.84	59058.74
555.00	59054.06
555.17	59007.25
555.33	59044.69
555.50	58803.62
555.67	59180.45
555.83	59203.85
556.00	59299.81
556.16	59503.44
556.33	59377.05
556.50	59306.83
556.66	59435.56
556.83	59227.26
556.99	59538.55
557.16	59667.28
557.32	59819.41
557.49	59660.26
557.65	59341.94
557.82	59433.22
557.98	59571.32
558.15	59346.62
558.32	59503.44
558.48	59475.35
558.65	59285.77
558.81	59573.66
558.98	59557.27
559.14	59711.75
559.31	59880.27
559.47	59831.11
559.64	59889.63
559.80	59700.04
559.97	60009.00
560.13	59627.49
560.30	59884.95
560.46	59849.84
560.63	60032.40
560.79	59814.73
560.96	60039.42
561.12	59788.98
561.29	59812.39
561.45	59936.44
561.61	59861.54
561.78	60004.31
561.94	59868.56
562.11	59992.61
562.27	60097.94
562.44	59882.61
562.60	60121.34
562.77	60097.94
562.93	59922.40
563.10	60240.71
563.26	59845.16
563.42	60219.64
563.59	60111.98
563.75	60055.81
563.92	59941.12
564.08	60097.94
564.24	60292.20
564.41	60207.94
564.57	60240.71
564.74	60097.94
564.90	60198.58
565.07	59943.46
565.23	60156.45
565.39	60287.52
565.56	60336.67
565.72	60301.56
565.88	60285.18
566.05	60137.72
566.21	60149.43
566.38	60406.89
566.54	60233.69
566.70	60371.78
566.87	60559.02
567.03	60264.11
567.19	60598.81
567.36	60437.31
567.52	60350.71
567.68	60718.18
567.85	60360.08
568.01	60584.77
568.17	60441.99
568.34	60750.94
568.50	60603.49
568.66	60348.37
568.83	60383.48
568.99	60395.18
569.15	60392.84
569.32	60643.28
569.48	60591.79
569.64	60570.72
569.81	60514.55
569.97	60507.53
570.13	60615.19
570.30	60622.22
570.46	60498.17
570.62	60594.13
570.78	60664.35
570.95	60657.32
571.11	60631.58
571.27	60657.32
571.43	60734.56
571.60	60577.75
571.76	60732.22
571.92	60622.22
572.09	60715.84
572.25	60781.37
572.41	60549.66
572.57	60811.80
572.74	61001.38
572.90	60701.79
573.06	60666.69
573.22	60825.84
573.38	60704.13
573.55	60734.56
573.71	61027.13
573.87	60690.09
574.03	60383.48
574.20	60935.85
574.36	60718.18
574.52	60779.03
574.68	60748.60
574.84	60825.84
575.01	60781.37
575.17	60786.05
575.33	60788.39
575.49	60603.49
575.65	60860.95
575.82	60797.76
575.98	60884.36
576.14	60865.63
576.30	60837.54
576.46	60727.54
576.62	60793.07
576.79	60769.67
576.95	60692.43
577.11	61076.28
577.27	61001.38
577.43	60882.02
577.59	60949.89
577.75	60732.22
577.92	60741.58
578.08	60760.31
578.24	60987.34
578.40	61174.58
578.56	61066.92
578.72	60938.19
578.88	61169.90
579.04	60940.53
579.21	61041.17
579.37	60961.59
579.53	61095.00
579.69	60718.18
579.85	60701.79
580.01	60999.04
580.17	60844.57
580.33	60889.04
580.49	60980.32
580.65	60966.27
580.82	60914.78
580.98	60891.38
581.14	60874.99
581.30	60896.06
581.46	61006.06
581.62	61277.57
581.78	61017.77
581.94	61015.43
582.10	60886.70
582.26	61050.53
582.42	60832.86
582.58	60903.08
582.74	61069.26
582.90	60942.87
583.06	60839.89
583.22	61020.11
583.38	61027.13
583.54	61080.96
583.70	61099.68
583.86	61095.00
584.02	60912.44
584.18	61132.45
584.34	61087.98
584.50	60989.68
584.66	60917.12
584.82	60940.53
584.98	61109.05
585.14	61041.17
585.30	60977.98
585.46	61097.34
585.62	61235.44
585.78	61118.41
585.94	60898.40
586.10	61008.40
586.26	61116.07
586.42	61291.61
586.58	61116.07
586.74	60999.04
586.90	61261.18
587.06	61132.45
587.22	61214.37
587.38	61188.63
587.54	61233.10
587.70	61310.33
587.86	61291.61
588.02	61186.28
588.18	61441.40
588.34	60980.32
588.49	61069.26
