SpectraSuite Data File
++++++++++++++++++++++++++++++++++++
Date: Fri Oct 25 10:43:26 EDT 2013
User: price-jones
Dark Spectrum Present: No
Reference Spectrum Present: No
Number of Sampled Component Spectra: 1
Spectrometers: USB2+H05261
Integration Time (usec): 100000 (USB2+H05261)
Spectra Averaged: 1 (USB2+H05261)
Boxcar Smoothing: 0 (USB2+H05261)
Correct for Electrical Dark: No (USB2+H05261)
Strobe/Lamp Enabled: No (USB2+H05261)
Correct for Detector Non-linearity: No (USB2+H05261)
Correct for Stray Light: No (USB2+H05261)
Number of Pixels in Processed Spectrum: 2048
>>>>>Begin Processed Spectral Data<<<<<
365.73	133.41
365.92	133.41
366.12	133.41
366.32	32.77
366.52	51.49
366.72	88.94
366.91	30.43
367.11	63.19
367.31	86.60
367.51	0.00
367.70	23.41
367.90	32.77
368.10	44.47
368.30	0.00
368.49	39.79
368.69	30.43
368.89	147.45
369.09	16.38
369.28	105.32
369.48	32.77
369.68	65.54
369.87	84.26
370.07	110.01
370.27	135.75
370.47	177.88
370.66	409.59
370.86	383.85
371.06	447.04
371.25	484.49
371.45	437.68
371.65	454.06
371.84	416.62
372.04	503.22
372.24	477.47
372.44	454.06
372.63	514.92
372.83	524.28
373.03	507.90
373.22	482.15
373.42	477.47
373.62	571.09
373.81	526.62
374.01	538.32
374.21	550.03
374.40	587.47
374.60	615.56
374.79	601.52
374.99	547.69
375.19	552.37
375.38	596.84
375.58	538.32
375.78	634.29
375.97	589.82
376.17	641.31
376.37	552.37
376.56	533.64
376.76	641.31
376.95	559.39
377.15	676.41
377.35	624.92
377.54	674.07
377.74	699.82
377.93	601.52
378.13	596.84
378.33	629.60
378.52	730.25
378.72	681.10
378.91	617.90
379.11	610.88
379.31	671.73
379.50	667.05
379.70	627.26
379.89	608.54
380.09	629.60
380.28	643.65
380.48	744.29
380.68	786.42
380.87	697.48
381.07	699.82
381.26	671.73
381.46	690.46
381.65	669.39
381.85	601.52
382.04	671.73
382.24	699.82
382.43	648.33
382.63	699.82
382.83	704.50
383.02	779.40
383.22	716.20
383.41	662.37
383.61	716.20
383.80	734.93
384.00	697.48
384.19	760.67
384.39	692.80
384.58	798.12
384.78	887.06
384.97	784.08
385.17	683.44
385.36	730.25
385.56	709.18
385.75	788.76
385.95	744.29
386.14	816.85
386.34	800.46
386.53	741.95
386.72	873.02
386.92	835.57
387.11	805.14
387.31	877.70
387.50	791.10
387.70	866.00
387.89	858.98
388.09	868.34
388.28	858.98
388.48	870.68
388.67	917.49
388.86	896.43
389.06	861.32
389.25	943.24
389.45	919.83
389.64	959.62
389.84	938.55
390.03	952.60
390.22	947.92
390.42	891.74
390.61	999.41
390.81	926.85
391.00	1025.15
391.19	1069.62
391.39	968.98
391.58	964.30
391.78	1043.88
391.97	999.41
392.16	997.07
392.36	1046.22
392.55	966.64
392.75	971.32
392.94	1036.86
393.13	957.28
393.33	952.60
393.52	1039.20
393.71	1057.92
393.91	1130.48
394.10	1020.47
394.29	1137.50
394.49	1160.91
394.68	1177.29
394.88	1095.37
395.07	1247.51
395.26	1153.88
395.46	1226.44
395.65	1191.33
395.84	1203.04
396.04	1233.46
396.23	1114.10
396.42	1151.54
396.62	1107.07
396.81	1172.61
397.00	1184.31
397.19	1203.04
397.39	1263.89
397.58	1299.00
397.77	1348.15
397.97	1397.30
398.16	1341.13
398.35	1430.07
398.55	1490.92
398.74	1495.60
398.93	1493.26
399.12	1490.92
399.32	1380.92
399.51	1467.52
399.70	1593.90
399.90	1554.12
400.09	1645.40
400.28	1591.56
400.47	1535.39
400.67	1680.50
400.86	1619.65
401.05	1633.69
401.24	1694.55
401.44	1647.74
401.63	1617.31
401.82	1582.20
402.01	1673.48
402.21	1598.59
402.40	1764.76
402.59	1689.87
402.78	1696.89
402.97	1694.55
403.17	1668.80
403.36	1767.10
403.55	1802.21
403.74	1732.00
403.93	1818.60
404.13	1851.36
404.32	1790.51
404.51	1839.66
404.70	1853.70
404.89	1846.68
405.09	1998.82
405.28	1867.75
405.47	1900.52
405.66	1966.05
405.85	1966.05
406.05	1998.82
406.24	2038.61
406.43	2047.97
406.62	2052.65
406.81	1996.48
407.00	1977.75
407.20	1895.83
407.39	2017.54
407.58	2057.33
407.77	2134.57
407.96	2207.13
408.15	2223.51
408.34	2092.44
408.54	2139.25
408.73	2223.51
408.92	2223.51
409.11	2176.70
409.30	2214.15
409.49	2195.42
409.68	2214.15
409.87	2223.51
410.07	2279.68
410.26	2272.66
410.45	2438.84
410.64	2319.47
410.83	2338.20
411.02	2462.24
411.21	2513.74
411.40	2530.12
411.59	2609.70
411.78	2506.71
411.98	2499.69
412.17	2572.25
412.36	2562.89
412.55	2670.55
412.74	2686.94
412.93	2588.63
413.12	2642.46
413.31	2846.09
413.50	2663.53
413.69	2867.16
413.88	2801.62
414.07	2775.88
414.26	2808.64
414.45	2850.77
414.64	2754.81
414.83	2951.42
415.02	2958.44
415.22	3035.67
415.41	2949.08
415.60	3138.66
415.79	3124.62
415.98	3171.43
416.17	3103.55
416.36	3192.49
416.55	3096.53
416.74	3171.43
416.93	3089.51
417.12	3206.53
417.31	3218.24
417.50	3201.85
417.69	3318.88
417.88	3276.75
418.07	3368.03
418.26	3293.13
418.45	3468.67
418.64	3421.86
418.83	3459.31
419.02	3412.50
419.21	3506.12
419.39	3618.47
419.58	3431.23
419.77	3337.60
419.96	3480.38
420.15	3543.57
420.34	3625.49
420.53	3761.24
420.72	3655.92
420.91	3744.86
421.10	3770.60
421.29	3742.52
421.48	3646.55
421.67	3824.44
421.86	3613.79
422.05	3726.13
422.24	3765.92
422.43	3660.60
422.61	3728.47
422.80	3871.25
422.99	3845.50
423.18	3686.34
423.37	3761.24
423.56	3899.33
423.75	3852.52
423.94	3662.94
424.13	3566.98
424.32	3637.19
424.50	3768.26
424.69	3875.93
424.88	3911.04
425.07	3833.80
425.26	3749.54
425.45	3861.88
425.64	3705.07
425.83	3819.75
426.01	3864.22
426.20	3913.38
426.39	3798.69
426.58	3974.23
426.77	3866.56
426.96	3840.82
427.15	3756.56
427.33	4023.38
427.52	3976.57
427.71	4149.77
427.90	4142.75
428.09	4056.15
428.28	4114.66
428.46	4119.34
428.65	4018.70
428.84	4182.54
429.03	4194.24
429.22	3978.91
429.40	4163.81
429.59	4142.75
429.78	3829.12
429.97	4016.36
430.16	3992.95
430.34	4072.53
430.53	3967.21
430.72	4142.75
430.91	4007.00
431.10	4161.47
431.28	4596.81
431.47	4491.49
431.66	4617.88
431.85	4402.55
432.03	4421.27
432.22	4561.70
432.41	4491.49
432.60	4592.13
432.79	4617.88
432.97	4613.20
433.16	4561.70
433.35	4538.30
433.54	4550.00
433.72	4585.11
433.91	4510.21
434.10	4493.83
434.28	4681.07
434.47	4732.56
434.66	4697.46
434.85	4858.95
435.03	4786.40
435.22	4690.43
435.41	4910.44
435.59	4873.00
435.78	4940.87
435.97	4938.53
436.16	4983.00
436.34	5055.56
436.53	5076.62
436.72	5074.28
436.90	4919.81
437.09	4992.36
437.28	4983.00
437.46	5088.32
437.65	5104.71
437.84	5118.75
438.02	5093.01
438.21	5025.13
438.40	5046.20
438.58	5235.78
438.77	5280.25
438.96	5214.71
439.14	5261.52
439.33	5476.85
439.52	5495.58
439.70	5441.75
439.89	5511.96
440.08	5514.30
440.26	5497.92
440.45	5504.94
440.63	5703.89
440.82	5881.77
441.01	5881.77
441.19	5746.02
441.38	5806.87
441.57	5975.39
441.75	5846.66
441.94	6115.82
442.12	5933.26
442.31	6190.72
442.50	6214.12
442.68	6061.99
442.87	6263.27
443.05	6176.67
443.24	6214.12
443.43	6214.12
443.61	6228.17
443.80	6511.37
443.98	6195.40
444.17	5987.09
444.35	6352.21
444.54	6476.26
444.73	6190.72
444.91	6380.30
445.10	6317.11
445.28	6242.21
445.47	6216.46
445.65	6317.11
445.84	6429.45
446.02	6335.83
446.21	6448.18
446.39	6473.92
446.58	6483.28
446.77	6455.20
446.95	6260.93
447.14	6548.82
447.32	6698.61
447.51	6246.89
447.69	6539.46
447.88	6661.16
448.06	6459.88
448.25	6574.56
448.43	6628.40
448.62	6675.21
448.80	6588.61
448.99	6827.34
449.17	6745.42
449.36	6736.06
449.54	6771.17
449.73	6920.96
449.91	6843.73
450.10	7042.67
450.28	6967.77
450.46	7087.14
450.65	7098.84
450.83	7077.78
451.02	7112.89
451.20	6970.12
451.39	6862.45
451.57	6888.20
451.76	7084.80
451.94	7133.95
452.13	7250.98
452.31	7014.59
452.49	6832.02
452.68	7000.54
452.86	7169.06
453.05	7286.09
453.23	7206.51
453.42	7021.61
453.60	7110.55
453.78	7218.21
453.97	7066.08
454.15	7267.36
454.34	7239.28
454.52	7358.64
454.70	7358.64
454.89	7351.62
455.07	7323.54
455.26	7634.83
455.44	7595.04
455.62	7651.21
455.81	7595.04
455.99	7705.04
456.17	7728.45
456.36	7639.51
456.54	7548.23
456.73	7674.62
456.91	7859.52
457.09	8023.36
457.28	8002.29
457.46	7625.47
457.64	7974.21
457.83	7817.39
458.01	7969.52
458.19	7868.88
458.38	7889.95
458.56	8119.32
458.74	8107.62
458.93	8189.53
459.11	8060.80
459.29	8079.53
459.48	7981.23
459.66	8163.79
459.84	8126.34
460.03	8344.01
460.21	8212.94
460.39	8299.54
460.57	8311.24
460.76	8322.94
460.94	8484.44
461.12	8421.25
461.31	8353.37
461.49	8524.23
461.67	8477.42
461.85	8402.52
462.04	8671.68
462.22	9114.05
462.40	8755.94
462.59	8671.68
462.77	8514.87
462.95	8807.44
463.13	8638.92
463.32	8688.07
463.50	8727.86
463.68	9034.47
463.86	8753.60
464.05	8702.11
464.23	8812.12
464.41	8695.09
464.59	8669.34
464.78	9011.06
464.96	8898.72
465.14	8919.78
465.32	9036.81
465.50	8905.74
465.69	8933.82
465.87	9043.83
466.05	9100.00
466.23	8842.54
466.41	8971.27
466.60	9200.65
466.78	9235.75
466.96	9324.69
467.14	9111.71
467.32	9142.13
467.51	9043.83
467.69	9158.52
467.87	9177.24
468.05	9481.51
468.23	9376.19
468.41	9303.63
468.60	9399.59
468.78	9528.32
468.96	9383.21
469.14	9472.15
469.32	9554.07
469.50	9095.32
469.69	9540.02
469.87	9504.92
470.05	9504.92
470.23	9547.05
470.41	9591.52
470.59	9806.84
470.77	9617.26
470.95	9851.31
471.14	9926.21
471.32	9701.52
471.50	10207.08
471.68	10064.30
471.86	10085.37
472.04	10193.03
472.22	10312.40
472.40	10078.35
472.58	10120.48
472.77	10380.28
472.95	10354.53
473.13	10492.62
473.31	10073.67
473.49	10413.04
473.67	10532.41
473.85	10450.49
474.03	10839.02
474.21	10801.57
474.39	10633.05
474.57	10719.65
474.75	11101.16
474.93	10974.77
475.12	11005.20
475.30	11194.78
475.48	10843.70
475.66	10850.72
475.84	11077.76
476.02	11080.10
476.20	11300.11
476.38	11403.09
476.56	11463.94
476.74	11538.84
476.92	11587.99
477.10	11510.75
477.28	11971.84
477.46	11889.92
477.64	11981.20
477.82	12006.95
478.00	12271.43
478.18	12259.73
478.36	12376.75
478.54	12322.92
478.72	12571.02
478.90	12376.75
479.08	12472.71
479.26	12889.33
479.44	12805.07
479.62	12992.31
479.80	12996.99
479.98	12884.65
480.16	13465.10
480.34	13195.94
480.52	13275.52
480.70	13338.71
480.88	13453.40
481.06	13486.17
481.24	13544.68
481.41	14092.37
481.59	14071.30
481.77	14321.74
481.95	14277.27
482.13	14228.12
482.31	14193.01
482.49	14448.13
482.67	14366.21
482.85	14665.80
483.03	14703.25
483.21	15047.30
483.39	15154.97
483.57	15009.86
483.74	15124.54
483.92	15344.55
484.10	15051.99
484.28	15419.45
484.46	15758.83
484.64	16035.01
484.82	15461.58
485.00	15805.64
485.18	16191.83
485.35	16390.77
485.53	15871.17
485.71	15714.36
485.89	16140.33
486.07	16114.59
486.25	16512.48
486.43	16540.57
486.61	16479.71
486.78	16840.15
486.96	16879.94
487.14	17511.89
487.32	17135.06
487.50	17556.36
487.68	17591.47
487.85	17738.92
488.03	18036.17
488.21	17980.00
488.39	18403.63
488.57	18295.97
488.75	18429.38
488.92	18548.75
489.10	19232.18
489.28	18848.33
489.46	19239.20
489.64	19220.48
489.81	19510.71
489.99	19719.01
490.17	19754.12
490.35	20121.59
490.53	19850.08
490.70	20285.42
490.88	20379.04
491.06	20442.24
491.24	20458.62
491.41	20161.37
491.59	20334.57
491.77	20418.83
491.95	20592.03
492.13	20652.89
492.30	21266.11
492.48	21249.72
492.66	21174.83
492.84	21362.07
493.01	21874.65
493.19	21575.06
493.37	21862.94
493.54	21591.44
493.72	22204.66
493.90	21926.14
494.08	22272.54
494.25	22450.42
494.43	22614.26
494.61	22661.07
494.79	22972.36
494.96	23082.36
495.14	22581.49
495.32	23356.21
495.49	23087.04
495.67	23208.75
495.85	23555.15
496.02	23594.94
496.20	23983.47
496.38	23906.23
496.55	24212.84
496.73	24624.78
496.91	24297.10
497.09	24229.23
497.26	24905.64
497.44	24423.49
497.62	24676.27
497.79	25025.01
497.97	24765.21
498.14	24943.09
498.32	24891.60
498.50	24903.30
498.67	25596.10
498.85	25455.67
499.03	25575.03
499.20	25359.70
499.38	25708.44
499.56	25876.96
499.73	26031.44
499.91	25781.00
500.08	26136.76
500.26	25858.24
500.44	26054.84
500.61	26183.57
500.79	25799.73
500.97	26096.97
501.14	26593.17
501.32	26338.05
501.49	26661.04
501.67	26682.11
501.84	26972.33
502.02	26604.87
502.20	27044.89
502.37	27138.51
502.55	26948.93
502.72	27550.45
502.90	27290.65
503.07	27381.93
503.25	27356.18
503.43	27618.32
503.60	27861.74
503.78	27756.41
503.95	27311.71
504.13	27903.87
504.30	28084.09
504.48	27690.88
504.65	28320.48
504.83	28489.00
505.01	28638.80
505.18	28077.07
505.36	28615.39
505.53	29076.48
505.71	29001.58
505.88	29282.44
506.06	28844.76
506.23	29013.28
506.41	28694.97
506.58	28900.94
506.76	28985.19
506.93	29039.03
507.11	29408.83
507.28	29551.60
507.46	29303.51
507.63	29275.42
507.81	29560.97
507.98	29771.61
508.16	29795.02
508.33	29986.94
508.50	30183.55
508.68	30160.14
508.85	30518.25
509.03	30319.30
509.20	30494.84
509.38	30513.56
509.55	30394.20
509.73	30298.23
509.90	30827.20
510.08	30497.18
510.25	30733.57
510.42	30803.79
510.60	30939.54
510.77	31222.75
510.95	31243.81
511.12	31349.14
511.30	31625.32
511.47	31838.31
511.64	31442.76
511.82	31948.31
511.99	31590.21
512.17	31550.42
512.34	31803.20
512.51	32105.13
512.69	32074.70
512.86	32315.78
513.04	32041.93
513.21	32350.88
513.38	31777.45
513.56	32332.16
513.73	32147.26
513.90	32582.60
514.08	32542.81
514.25	32666.86
514.43	32615.37
514.60	32659.84
514.77	32989.85
514.95	32996.87
515.12	33034.32
515.29	33174.75
515.47	33443.91
515.64	33415.83
515.81	32936.02
515.99	33467.32
516.16	33134.96
516.33	32877.51
516.51	33528.17
516.68	32914.95
516.85	32872.82
517.03	33139.65
517.20	33113.90
517.37	33448.60
517.54	34127.35
517.72	33624.14
517.89	33364.34
518.06	33420.51
518.24	33486.04
518.41	33848.83
518.58	34174.16
518.75	33783.29
518.93	34270.12
519.10	34265.44
519.27	34197.57
519.45	34373.11
519.62	34429.28
519.79	35061.22
519.96	34501.84
520.14	34918.45
520.31	34511.20
520.48	35054.20
520.65	34960.58
520.83	35098.67
521.00	35143.14
521.17	35218.04
521.34	35232.08
521.52	35789.13
521.69	35508.27
521.86	36062.97
522.03	35653.38
522.20	35445.07
522.38	35880.41
522.55	35756.36
522.72	35852.33
522.89	35538.69
523.07	36219.79
523.24	36009.14
523.41	36261.92
523.58	36046.59
523.75	36779.18
523.92	36531.08
524.10	36449.16
524.27	36613.00
524.44	36758.11
524.61	36938.33
524.78	36825.99
524.96	36715.98
525.13	36390.65
525.30	36652.79
525.47	37439.21
525.64	36432.78
525.81	37242.60
525.98	36882.16
526.16	36912.59
526.33	36847.05
526.50	36685.56
526.67	36498.31
526.84	36924.29
527.01	36870.46
527.18	36971.10
527.36	37687.31
527.53	37408.78
527.70	38061.79
527.87	37497.72
528.04	37727.10
528.21	37860.51
528.38	38071.15
528.55	38052.43
528.72	38246.69
528.89	38281.80
529.07	38447.98
529.24	37963.49
529.41	38164.78
529.58	38019.66
529.75	38066.47
529.92	38340.32
530.09	38352.02
530.26	38550.96
530.43	38656.29
530.60	38415.21
530.77	38745.23
530.94	38543.94
531.11	38770.97
531.28	38422.23
531.46	38705.44
531.63	38892.68
531.80	38604.80
531.97	38536.92
532.14	38902.04
532.31	38553.30
532.48	38703.10
532.65	39077.58
532.82	38827.15
532.99	39381.85
533.16	38967.58
533.33	38939.49
533.50	39477.82
533.67	39674.42
533.84	39391.22
534.01	39400.58
534.18	39541.01
534.35	39709.53
534.52	39578.46
534.69	39765.70
534.86	39754.00
535.03	39686.12
535.20	39889.75
535.37	40020.82
535.54	40013.80
535.71	40048.91
535.88	39725.91
536.05	39768.04
536.22	40020.82
536.38	40067.63
536.55	40079.33
536.72	40137.85
536.89	40039.54
537.06	40311.05
537.23	40444.46
537.40	40348.50
537.57	40460.84
537.74	40650.42
537.91	40816.60
538.08	40385.94
538.25	40500.63
538.42	40620.00
538.59	40704.26
538.75	40074.65
538.92	40655.11
539.09	40624.68
539.26	40664.47
539.43	40465.52
539.60	40685.53
539.77	40627.02
539.94	40772.13
540.11	40650.42
540.28	41043.63
540.44	41064.70
540.61	40879.80
540.78	40823.62
540.95	41013.21
541.12	40910.22
541.29	40985.12
541.46	40790.86
541.62	41242.58
541.79	41715.37
541.96	40975.76
542.13	41474.29
542.30	41532.81
542.47	41275.35
542.63	40957.03
542.80	41652.17
542.97	41787.92
543.14	42192.84
543.31	41586.64
543.48	41724.73
543.64	42031.34
543.81	42237.31
543.98	42211.56
544.15	42019.64
544.32	42583.71
544.48	42611.79
544.65	41944.74
544.82	42005.59
544.99	42157.73
545.16	42124.96
545.32	41741.11
545.49	42497.11
545.66	42705.41
545.83	42457.32
546.00	42543.92
546.16	42380.08
546.33	42286.46
546.50	42447.96
546.67	42581.37
546.83	42108.58
547.00	42885.64
547.17	42822.44
547.34	42562.64
547.50	42754.57
547.67	43164.16
547.84	42616.47
548.00	42855.21
548.17	42972.24
548.34	42986.28
548.51	43491.83
548.67	42845.85
548.84	42869.25
549.01	42871.59
549.18	42689.03
549.34	43126.71
549.51	43107.99
549.68	43503.54
549.84	42880.95
550.01	43386.51
550.18	42635.20
550.34	42990.96
550.51	43236.72
550.68	43028.41
550.84	43030.75
551.01	43400.55
551.18	43491.83
551.34	43178.20
551.51	43377.15
551.68	43386.51
551.84	43690.78
552.01	43487.15
552.18	43899.09
552.34	43409.92
552.51	43559.71
552.68	43519.92
552.84	43550.35
553.01	43714.19
553.18	43744.61
553.34	43985.69
553.51	43648.65
553.67	43749.29
553.84	43681.42
554.01	44179.95
554.17	43999.73
554.34	44292.30
554.51	43629.93
554.67	44308.68
554.84	44285.28
555.00	43913.13
555.17	43866.32
555.33	43945.90
555.50	43828.87
555.67	43786.74
555.83	44079.31
556.00	44369.54
556.16	44847.00
556.33	44020.80
556.50	44168.25
556.66	44114.42
556.83	44004.41
556.99	43990.37
557.16	44051.22
557.32	44168.25
557.49	44687.85
557.65	44224.42
557.82	44381.24
557.98	44362.51
558.15	44610.61
558.32	44406.98
558.48	44107.40
558.65	44390.60
558.81	44116.76
558.98	44357.83
559.14	44474.86
559.31	44311.02
559.47	44198.68
559.64	44788.49
559.80	44720.62
559.97	45057.65
560.13	43924.83
560.30	44519.33
560.46	44732.32
560.63	44758.06
560.79	44938.29
560.96	45134.89
561.12	44657.42
561.29	44744.02
561.45	44582.52
561.61	45085.74
561.78	44531.03
561.94	44502.95
562.11	44528.69
562.27	44432.73
562.44	45118.51
562.60	44830.62
562.77	45123.19
562.93	44573.16
563.10	44945.31
563.26	44507.63
563.42	44964.03
563.59	44935.95
563.75	45165.32
563.92	44980.42
564.08	44926.58
564.24	45359.58
564.41	44933.60
564.57	45090.42
564.74	45230.85
564.90	44687.85
565.07	45104.46
565.23	44872.75
565.39	44877.43
565.56	44706.57
565.72	44374.22
565.88	44821.26
566.05	44804.88
566.21	44992.12
566.38	44779.13
566.54	44931.26
566.70	45411.07
566.87	45408.73
567.03	45408.73
567.19	45420.44
567.36	45067.02
567.52	45123.19
567.68	45539.80
567.85	45146.59
568.01	45296.39
568.17	44994.46
568.34	45249.58
568.50	45645.13
568.66	45511.72
568.83	45322.13
568.99	45340.86
569.15	45490.65
569.32	45078.72
569.48	44839.98
569.64	45151.27
569.81	45427.46
569.97	45825.35
570.13	45324.47
570.30	44699.55
570.46	45113.83
570.62	45158.30
570.78	44732.32
570.95	44680.83
571.11	45291.71
571.27	44968.71
571.43	45495.33
571.60	45780.88
571.76	45455.54
571.92	45371.28
572.09	45331.50
572.25	45560.87
572.41	45663.85
572.57	45525.76
572.74	45851.09
572.90	45535.12
573.06	45118.51
573.22	45287.03
573.38	45095.10
573.55	45301.07
573.71	45584.27
573.87	45521.08
574.03	45294.05
574.20	45291.71
574.36	45261.28
574.52	45436.82
574.68	45265.96
574.84	45572.57
575.01	44854.03
575.17	45350.22
575.33	45413.41
575.49	44847.00
575.65	45378.31
575.82	45783.22
575.98	45312.77
576.14	45572.57
576.30	45155.96
576.46	45127.87
576.62	45172.34
576.79	45085.74
576.95	45390.01
577.11	45867.48
577.27	45352.56
577.43	45443.84
577.59	45144.25
577.75	45401.71
577.92	44985.10
578.08	44898.50
578.24	45270.64
578.40	45380.65
578.56	45668.53
578.72	45734.07
578.88	45832.37
579.04	45705.98
579.21	45750.45
579.37	45249.58
579.53	45024.89
579.69	45474.27
579.85	45588.95
580.01	45724.71
580.17	45415.76
580.33	45460.23
580.49	45862.80
580.65	45565.55
580.82	45408.73
580.98	45404.05
581.14	45162.98
581.30	45811.31
581.46	45425.12
581.62	45567.89
581.78	45820.67
581.94	45855.78
582.10	45413.41
582.26	45769.18
582.42	45769.18
582.58	45371.28
582.74	45373.63
582.90	45689.60
583.06	45354.90
583.22	45390.01
583.38	45813.65
583.54	45308.09
583.70	45743.43
583.86	45535.12
584.02	45544.48
584.18	45759.81
584.34	45577.25
584.50	45385.33
584.66	45408.73
584.82	45567.89
584.98	45521.08
585.14	45652.15
585.30	45450.86
585.46	45308.09
585.62	45324.47
585.78	45317.45
585.94	45607.68
586.10	45624.06
586.26	45233.19
586.42	45881.52
586.58	45762.15
586.74	45504.70
586.90	45617.04
587.06	45521.08
587.22	45984.51
587.38	45432.14
587.54	45888.54
587.70	45823.01
587.86	45759.81
588.02	45385.33
588.18	45783.22
588.34	45415.76
588.49	45294.05
588.65	44942.97
588.81	45015.52
588.97	45382.99
589.13	45308.09
589.29	45347.88
589.45	45261.28
589.61	45532.78
589.77	45607.68
589.93	45759.81
590.08	45785.56
