SpectraSuite Data File
++++++++++++++++++++++++++++++++++++
Date: Fri Oct 25 11:34:41 EDT 2013
User: price-jones
Dark Spectrum Present: No
Reference Spectrum Present: No
Number of Sampled Component Spectra: 1
Spectrometers: USB2+H05261
Integration Time (usec): 100000 (USB2+H05261)
Spectra Averaged: 1 (USB2+H05261)
Boxcar Smoothing: 0 (USB2+H05261)
Correct for Electrical Dark: No (USB2+H05261)
Strobe/Lamp Enabled: No (USB2+H05261)
Correct for Detector Non-linearity: No (USB2+H05261)
Correct for Stray Light: No (USB2+H05261)
Number of Pixels in Processed Spectrum: 2048
>>>>>Begin Processed Spectral Data<<<<<
365.73	252.78
365.92	252.78
366.12	252.78
366.32	196.60
366.52	236.39
366.72	128.73
366.91	145.11
367.11	257.46
367.31	159.16
367.51	205.97
367.70	262.14
367.90	220.01
368.10	191.92
368.30	187.24
368.49	210.65
368.69	306.61
368.89	145.11
369.09	198.95
369.28	227.03
369.48	269.16
369.68	215.33
369.87	245.76
370.07	212.99
370.27	276.18
370.47	395.55
370.66	428.32
370.86	533.64
371.06	606.20
371.25	564.07
371.45	566.41
371.65	533.64
371.84	531.30
372.04	514.92
372.24	550.03
372.44	524.28
372.63	657.69
372.83	648.33
373.03	620.24
373.22	650.67
373.42	599.18
373.62	578.11
373.81	582.79
374.01	615.56
374.21	662.37
374.40	559.39
374.60	650.67
374.79	617.90
374.99	718.54
375.19	634.29
375.38	601.52
375.58	627.26
375.78	601.52
375.97	695.14
376.17	660.03
376.37	653.01
376.56	631.94
376.76	636.63
376.95	660.03
377.15	636.63
377.35	662.37
377.54	751.31
377.74	655.35
377.93	727.91
378.13	713.86
378.33	662.37
378.52	676.41
378.72	592.16
378.91	758.33
379.11	617.90
379.31	617.90
379.50	636.63
379.70	725.57
379.89	723.23
380.09	697.48
380.28	690.46
380.48	734.93
380.68	755.99
380.87	713.86
381.07	671.73
381.26	760.67
381.46	774.72
381.65	720.88
381.85	744.29
382.04	814.51
382.24	690.46
382.43	786.42
382.63	744.29
382.83	699.82
383.02	723.23
383.22	835.57
383.41	800.46
383.61	699.82
383.80	833.23
384.00	706.84
384.19	767.70
384.39	844.93
384.58	779.40
384.78	765.36
384.97	826.21
385.17	807.48
385.36	779.40
385.56	882.38
385.75	798.12
385.95	873.02
386.14	847.27
386.34	805.14
386.53	816.85
386.72	866.00
386.92	793.44
387.11	830.89
387.31	863.66
387.50	732.59
387.70	828.55
387.89	826.21
388.09	837.91
388.28	814.51
388.48	875.36
388.67	924.51
388.86	947.92
389.06	777.06
389.25	868.34
389.45	903.45
389.64	891.74
389.84	945.58
390.03	917.49
390.22	954.94
390.42	926.85
390.61	908.13
390.81	929.19
391.00	985.37
391.19	903.45
391.39	1034.52
391.58	1020.47
391.78	978.34
391.97	1022.81
392.16	992.39
392.36	1067.28
392.55	1020.47
392.75	950.26
392.94	1013.45
393.13	1034.52
393.33	1013.45
393.52	1088.35
393.71	1081.33
393.91	1097.71
394.10	1018.13
394.29	978.34
394.49	1060.26
394.68	1109.41
394.88	1174.95
395.07	1128.14
395.26	1067.28
395.46	1029.84
395.65	1109.41
395.84	1053.24
396.04	1200.69
396.23	1179.63
396.42	1067.28
396.62	1184.31
396.81	1233.46
397.00	1114.10
397.19	1224.10
397.39	1135.16
397.58	1228.78
397.77	1172.61
397.97	1184.31
398.16	1247.51
398.35	1249.85
398.55	1186.65
398.74	1224.10
398.93	1277.93
399.12	1294.32
399.32	1256.87
399.51	1270.91
399.70	1289.64
399.90	1259.21
400.09	1341.13
400.28	1338.79
400.47	1336.45
400.67	1427.73
400.86	1310.70
401.05	1343.47
401.24	1313.04
401.44	1479.22
401.63	1369.21
401.82	1427.73
402.01	1336.45
402.21	1453.47
402.40	1359.85
402.59	1299.00
402.78	1448.79
402.97	1427.73
403.17	1420.71
403.36	1362.19
403.55	1509.65
403.74	1432.41
403.93	1462.83
404.13	1603.27
404.32	1544.75
404.51	1465.18
404.70	1577.52
404.89	1579.86
405.09	1605.61
405.28	1563.48
405.47	1673.48
405.66	1661.78
405.85	1633.69
406.05	1657.10
406.24	1598.59
406.43	1792.85
406.62	1680.50
406.81	1696.89
407.00	1715.61
407.20	1757.74
407.39	1645.40
407.58	1703.91
407.77	1820.94
407.96	1877.11
408.15	1839.66
408.34	1724.97
408.54	1809.23
408.73	1764.76
408.92	1891.15
409.11	1881.79
409.30	1863.07
409.49	1874.77
409.68	1956.69
409.87	1806.89
410.07	1888.81
410.26	1935.62
410.45	1923.92
410.64	1935.62
410.83	1944.99
411.02	1923.92
411.21	2064.35
411.40	2113.50
411.59	2115.84
411.78	2134.57
411.98	2031.58
412.17	2239.89
412.36	2186.06
412.55	2214.15
412.74	2307.77
412.93	2270.32
413.12	2139.25
413.31	2282.02
413.50	2314.79
413.69	2211.81
413.88	2382.67
414.07	2314.79
414.26	2335.85
414.45	2375.64
414.64	2410.75
414.83	2410.75
415.02	2424.80
415.22	2490.33
415.41	2434.16
415.60	2497.35
415.79	2499.69
415.98	2647.15
416.17	2703.32
416.36	2562.89
416.55	2644.81
416.74	2640.12
416.93	2626.08
417.12	2679.91
417.31	2806.30
417.50	2700.98
417.69	2806.30
417.88	2778.22
418.07	2754.81
418.26	2846.09
418.45	2869.50
418.64	2892.90
418.83	2972.48
419.02	3026.31
419.21	2857.79
419.39	2890.56
419.58	2998.23
419.77	2892.90
419.96	3002.91
420.15	2913.97
420.34	3061.42
420.53	3077.80
420.72	3033.33
420.91	3119.93
421.10	3141.00
421.29	3152.70
421.48	3152.70
421.67	3075.46
421.86	3101.21
422.05	3164.40
422.24	3152.70
422.43	3178.45
422.61	3129.30
422.80	3136.32
422.99	3302.50
423.18	3267.39
423.37	3265.05
423.56	3239.30
423.75	3187.81
423.94	3183.13
424.13	3068.44
424.32	3162.06
424.50	3332.92
424.69	3302.50
424.88	3166.74
425.07	3192.49
425.26	3211.22
425.45	3241.64
425.64	3332.92
425.83	3262.71
426.01	3265.05
426.20	3300.16
426.39	3370.37
426.58	3370.37
426.77	3288.45
426.96	3353.99
427.15	3236.96
427.33	3386.76
427.52	3414.84
427.71	3447.61
427.90	3424.20
428.09	3435.91
428.28	3412.50
428.46	3599.74
428.65	3468.67
428.84	3695.71
429.03	3604.42
429.22	3438.25
429.40	3618.47
429.59	3581.02
429.78	3435.91
429.97	3349.31
430.16	3632.51
430.34	3616.13
430.53	3583.36
430.72	3602.08
430.91	3740.18
431.10	3644.21
431.28	3709.75
431.47	3868.91
431.66	3824.44
431.85	3794.01
432.03	3786.99
432.22	3962.53
432.41	3857.20
432.60	3829.12
432.79	3782.31
432.97	3859.54
433.16	3941.46
433.35	3882.95
433.54	3831.46
433.72	3871.25
433.91	3932.10
434.10	4067.85
434.28	3995.29
434.47	4037.42
434.66	4128.70
434.85	4002.32
435.03	4016.36
435.22	4063.17
435.41	4114.66
435.59	4243.39
435.78	4147.43
435.97	4201.26
436.16	4325.31
436.34	4273.82
436.53	4224.67
436.72	4250.41
436.90	4236.37
437.09	4367.44
437.28	4182.54
437.46	4325.31
437.65	4344.03
437.84	4245.73
438.02	4322.97
438.21	4423.61
438.40	4325.31
438.58	4585.11
438.77	4472.76
438.96	4430.63
439.14	4423.61
439.33	4709.16
439.52	4582.77
439.70	4545.32
439.89	4791.08
440.08	4812.14
440.26	4891.72
440.45	4730.22
440.63	4873.00
440.82	4912.78
441.01	4805.12
441.19	4894.06
441.38	4894.06
441.57	4912.78
441.75	5177.26
441.94	4992.36
442.12	5006.41
442.31	5097.69
442.50	5181.95
442.68	5151.52
442.87	5144.50
443.05	5226.42
443.24	5200.67
443.43	5462.81
443.61	5233.44
443.80	5416.00
443.98	5156.20
444.17	5142.16
444.35	5242.80
444.54	5301.31
444.73	5207.69
444.91	5235.78
445.10	5357.49
445.28	5392.59
445.47	5282.59
445.65	5362.17
445.84	5198.33
446.02	5472.17
446.21	5313.02
446.39	5439.40
446.58	5394.93
446.77	5399.62
446.95	5275.57
447.14	5533.03
447.32	5605.58
447.51	5291.95
447.69	5345.78
447.88	5476.85
448.06	5472.17
448.25	5451.11
448.43	5460.47
448.62	5589.20
448.80	5423.02
448.99	5680.48
449.17	5657.07
449.36	5544.73
449.54	5600.90
449.73	5626.65
449.91	5738.99
450.10	5755.38
450.28	5813.89
450.46	5860.70
450.65	5731.97
450.83	5591.54
451.02	5893.47
451.20	5834.96
451.39	5877.09
451.57	5834.96
451.76	5727.29
451.94	5888.79
452.13	5928.58
452.31	5919.21
452.49	5895.81
452.68	5830.27
452.86	6019.86
453.05	5935.60
453.23	6031.56
453.42	5959.00
453.60	6026.88
453.78	6216.46
453.97	5916.87
454.15	6209.44
454.34	5884.11
454.52	6328.81
454.70	6097.10
454.89	6237.53
455.07	6083.05
455.26	6363.92
455.44	6263.27
455.62	6324.13
455.81	6211.78
455.99	6380.30
456.17	6406.05
456.36	6326.47
456.54	6399.02
456.73	6530.09
456.91	6614.35
457.09	6602.65
457.28	6670.53
457.46	6738.40
457.64	6600.31
457.83	6700.95
458.01	6651.80
458.19	6766.49
458.38	6642.44
458.56	6796.92
458.74	6827.34
458.93	6834.36
459.11	6967.77
459.29	6981.82
459.48	6780.53
459.66	6956.07
459.84	7007.56
460.03	7112.89
460.21	6874.15
460.39	6815.64
460.57	6902.24
460.76	7037.99
460.94	7089.48
461.12	7119.91
461.31	7117.57
461.49	7108.21
461.67	7119.91
461.85	7372.69
462.04	7185.44
462.22	7808.03
462.40	7349.28
462.59	7370.35
462.77	7293.11
462.95	7276.73
463.13	7269.70
463.32	7449.93
463.50	7604.40
463.68	7506.10
463.86	7559.93
464.05	7316.51
464.23	7552.91
464.41	7473.33
464.59	7379.71
464.78	7726.11
464.96	7557.59
465.14	7620.78
465.32	7712.07
465.50	7522.48
465.69	7723.77
465.87	7691.00
466.05	7751.85
466.23	7943.78
466.41	7836.11
466.60	7962.50
466.78	7770.58
466.96	7726.11
467.14	7728.45
467.32	7871.22
467.51	8067.83
467.69	7719.09
467.87	7831.43
468.05	7950.80
468.23	8065.49
468.41	7948.46
468.60	7922.71
468.78	8098.25
468.96	8098.25
469.14	8156.77
469.32	8255.07
469.50	8058.46
469.69	8145.06
469.87	8231.66
470.05	8196.56
470.23	8238.69
470.41	8353.37
470.59	8470.40
470.77	8266.77
470.95	8404.86
471.14	8606.15
471.32	8428.27
471.50	8533.59
471.68	8554.66
471.86	8571.04
472.04	8917.44
472.22	8858.93
472.40	8521.89
472.58	8865.95
472.77	8741.90
472.95	8898.72
473.13	9156.18
473.31	8898.72
473.49	8917.44
473.67	9006.38
473.85	9352.78
474.03	9130.43
474.21	9188.94
474.39	9413.63
474.57	9320.01
474.75	9254.48
474.93	9259.16
475.12	9427.68
475.30	9654.71
475.48	9511.94
475.66	9731.95
475.84	9504.92
476.02	9614.92
476.20	9710.88
476.38	9724.93
476.56	10052.60
476.74	9895.78
476.92	9947.28
477.10	9914.51
477.28	10408.36
477.46	10120.48
477.64	10115.80
477.82	10319.42
478.00	10534.75
478.18	10457.51
478.36	10658.80
478.54	10630.71
478.72	10738.38
478.90	10888.17
479.08	10724.33
479.26	10984.13
479.44	11126.91
479.62	10995.84
479.80	11124.57
479.98	11412.45
480.16	11613.74
480.34	11499.05
480.52	11489.69
480.70	11662.89
480.88	11550.54
481.06	11726.08
481.24	11906.31
481.41	12119.29
481.59	12131.00
481.77	12231.64
481.95	12088.87
482.13	12327.60
482.31	12360.37
482.49	12751.24
482.67	12730.17
482.85	12936.14
483.03	12798.05
483.21	12798.05
483.39	12863.58
483.57	13095.30
483.74	13085.94
483.92	13156.15
484.10	13322.33
484.28	13654.69
484.46	13832.57
484.64	13855.97
484.82	13474.46
485.00	13666.39
485.18	14005.77
485.35	14361.53
485.53	14057.26
485.71	14274.93
485.89	14298.33
486.07	14516.00
486.25	14401.32
486.43	15028.58
486.61	14773.46
486.78	15021.56
486.96	14951.34
487.14	14941.98
487.32	15115.18
487.50	15475.62
487.68	15506.05
487.85	15770.53
488.03	15932.03
488.21	15899.26
488.39	16037.35
488.57	16058.42
488.75	15941.39
488.92	16496.10
489.10	16528.86
489.28	16603.76
489.46	16517.16
489.64	16524.18
489.81	17324.65
489.99	16994.63
490.17	17153.79
490.35	17467.42
490.53	17277.83
490.70	18033.83
490.88	17596.15
491.06	17680.41
491.24	18052.55
491.41	18010.42
491.59	18019.78
491.77	18211.71
491.95	18317.03
492.13	18415.34
492.30	18525.34
492.48	18822.59
492.66	18693.86
492.84	18623.64
493.01	19075.37
493.19	18778.12
493.37	19033.24
493.54	19171.33
493.72	19625.39
493.90	19304.74
494.08	19571.56
494.25	19770.51
494.43	19882.85
494.61	20215.21
494.79	19882.85
494.96	20107.54
495.14	20301.81
495.32	20357.98
495.49	20606.08
495.67	20479.69
495.85	20783.96
496.02	20603.74
496.20	20563.95
496.38	20870.56
496.55	21099.93
496.73	21699.11
496.91	21298.88
497.09	21413.56
497.26	21467.39
497.44	21598.46
497.62	21528.25
497.79	21869.97
497.97	22089.98
498.14	22293.60
498.32	22321.69
498.50	22457.44
498.67	22691.49
498.85	22485.53
499.03	22773.41
499.20	22778.09
499.38	22787.46
499.56	22824.90
499.73	22955.97
499.91	23175.98
500.08	23206.41
500.26	23133.86
500.44	23400.68
500.61	23367.91
500.79	23194.71
500.97	23735.37
501.14	24013.90
501.32	23953.04
501.49	23971.77
501.67	24093.47
501.84	24224.54
502.02	24435.19
502.20	24088.79
502.37	23882.83
502.55	24348.59
502.72	24102.84
502.90	24219.86
503.07	24362.64
503.25	24514.77
503.43	24545.20
503.60	24952.45
503.78	24673.93
503.95	24950.11
504.13	25048.41
504.30	25359.70
504.48	25095.22
504.65	25305.87
504.83	25394.81
505.01	25245.02
505.18	25598.44
505.36	25668.66
505.53	25591.42
505.71	25876.96
505.88	25741.21
506.06	25724.83
506.23	26118.04
506.41	25930.80
506.58	26471.46
506.76	26089.95
506.93	26562.74
507.11	26202.30
507.28	26553.38
507.46	26300.60
507.63	26324.01
507.81	27197.02
507.98	26684.45
508.16	26801.47
508.33	26918.50
508.50	27030.85
508.68	26824.88
508.85	27555.13
509.03	27260.22
509.20	27358.52
509.38	27550.45
509.55	27594.92
509.73	27440.44
509.90	27728.33
510.08	27843.01
510.25	27796.20
510.42	27744.71
510.60	28175.37
510.77	28063.02
510.95	28386.02
511.12	28699.65
511.30	28306.44
511.47	28442.19
511.64	28568.58
511.82	28858.81
511.99	28503.04
512.17	28542.83
512.34	28856.46
512.51	29237.97
512.69	29223.93
512.86	28840.08
513.04	29008.60
513.21	29006.26
513.38	29380.74
513.56	29790.34
513.73	29338.62
513.90	29226.27
514.08	29474.37
514.25	29589.05
514.43	29706.08
514.60	29738.85
514.77	29949.50
514.95	29855.87
515.12	29900.34
515.29	29989.28
515.47	30375.47
515.64	30230.36
515.81	29963.54
515.99	30698.47
516.16	30223.34
516.33	30221.00
516.51	30518.25
516.68	30506.54
516.85	30375.47
517.03	30916.14
517.20	30756.98
517.37	30904.43
517.54	30817.83
517.72	30710.17
517.89	30991.03
518.06	31285.94
518.24	31087.00
518.41	30700.81
518.58	31122.10
518.75	31384.24
518.93	31344.45
519.10	31262.54
519.27	31398.29
519.45	31658.09
519.62	32046.62
519.79	31697.88
519.96	31477.86
520.14	32041.93
520.31	31791.50
520.48	31948.31
520.65	31821.92
520.83	32121.51
521.00	32671.54
521.17	32580.26
521.34	32341.52
521.52	32341.52
521.69	32051.30
521.86	32252.58
522.03	32624.73
522.20	33062.41
522.38	33097.52
522.55	33146.67
522.72	32847.08
522.89	32868.14
523.07	33106.88
523.24	33270.72
523.41	33284.76
523.58	33172.41
523.75	33596.05
523.92	33354.97
524.10	33673.29
524.27	33336.25
524.44	33570.30
524.61	33612.43
524.78	33839.47
524.96	33710.74
525.13	33734.14
525.30	33844.15
525.47	33977.56
525.64	33783.29
525.81	34239.70
525.98	34220.97
526.16	34426.94
526.33	34157.78
526.50	34555.67
526.67	34066.50
526.84	34246.72
527.01	34218.63
527.18	34218.63
527.36	34857.60
527.53	34869.30
527.70	35150.17
527.87	35166.55
528.04	34754.61
528.21	34752.27
528.38	35091.65
528.55	35185.27
528.72	34869.30
528.89	34885.68
529.07	34930.16
529.24	34909.09
529.41	35299.96
529.58	35215.70
529.75	35304.64
529.92	35302.30
530.09	35267.19
530.26	35604.23
530.43	35117.40
530.60	35384.22
530.77	35386.56
530.94	35667.42
531.11	36077.02
531.28	35398.26
531.46	35854.67
531.63	36250.22
531.80	35629.98
531.97	35803.17
532.14	36350.86
532.31	36025.53
532.48	36301.71
532.65	36449.16
532.82	36048.93
532.99	36451.50
533.16	36617.68
533.33	36552.15
533.50	36692.58
533.67	36229.15
533.84	36299.37
534.01	36847.05
534.18	36187.02
534.35	37027.28
534.52	37008.55
534.69	37099.83
534.86	37312.82
535.03	37163.03
535.20	37029.62
535.37	37373.67
535.54	37336.23
535.71	37109.19
535.88	37385.38
536.05	37053.02
536.22	37586.66
536.38	37715.39
536.55	37266.01
536.72	37462.61
536.89	37385.38
537.06	37319.84
537.23	37589.00
537.40	37134.94
537.57	37872.21
537.74	37677.94
537.91	37865.19
538.08	38115.62
538.25	37544.53
538.42	37862.85
538.59	37837.10
538.75	37986.89
538.92	38490.11
539.09	38494.79
539.26	38040.73
539.43	38134.35
539.60	38082.86
539.77	38160.09
539.94	38342.66
540.11	38003.28
540.28	38366.06
540.44	38611.82
540.61	38295.85
540.78	38298.19
540.95	38555.64
541.12	38302.87
541.29	38822.47
541.46	38211.59
541.62	38651.61
541.79	39140.78
541.96	38440.96
542.13	38487.77
542.30	38670.33
542.47	38649.27
542.63	39250.78
542.80	39409.94
542.97	39625.27
543.14	39592.50
543.31	39636.97
543.48	39576.12
543.64	39269.51
543.81	40069.97
543.98	39576.12
544.15	39723.57
544.32	39449.73
544.48	39852.30
544.65	39805.49
544.82	39885.07
544.99	39431.01
545.16	39910.82
545.32	39908.47
545.49	40194.02
545.66	40011.46
545.83	40226.79
546.00	40254.87
546.16	40257.21
546.33	39910.82
546.50	39999.76
546.67	40397.65
546.83	39856.98
547.00	39927.20
547.17	40151.89
547.34	40205.72
547.50	40807.24
547.67	40762.77
547.84	40512.33
548.00	40765.11
548.17	41111.51
548.34	40563.82
548.51	40865.75
548.67	40699.58
548.84	41015.55
549.01	40711.28
549.18	40718.30
549.34	41053.00
549.51	40996.82
549.68	41284.71
549.84	41104.49
550.01	40790.86
550.18	40629.36
550.34	41085.76
550.51	41462.59
550.68	41354.93
550.84	40865.75
551.01	41446.21
551.18	41102.15
551.34	41390.03
551.51	41530.47
551.68	41053.00
551.84	41017.89
552.01	40928.95
552.18	41818.35
552.34	41638.13
552.51	41050.66
552.68	41567.91
552.84	41820.69
553.01	41523.44
553.18	41698.98
553.34	42017.30
553.51	41429.82
553.67	41661.54
553.84	41823.03
554.01	41916.65
554.17	42232.63
554.34	42239.65
554.51	42227.95
554.67	41874.52
554.84	42178.79
555.00	41982.19
555.17	42066.45
555.33	42005.59
555.50	42199.86
555.67	42206.88
555.83	42469.02
556.00	42246.67
556.16	43274.16
556.33	42665.63
556.50	42600.09
556.66	42349.65
556.83	42403.49
556.99	42824.78
557.16	42834.14
557.32	42787.33
557.49	42569.66
557.65	42384.76
557.82	42536.90
557.98	42890.32
558.15	42438.59
558.32	42862.23
558.48	42251.35
558.65	42775.63
558.81	42880.95
558.98	42328.59
559.14	42632.86
559.31	42951.17
559.47	42838.83
559.64	42639.88
559.80	42972.24
559.97	42923.08
560.13	42806.06
560.30	43129.05
560.46	42841.17
560.63	43091.60
560.79	43299.91
560.96	42904.36
561.12	43126.71
561.29	43033.09
561.45	43358.42
561.61	43508.22
561.78	42906.70
561.94	42794.36
562.11	43576.09
562.27	43044.79
562.44	43393.53
562.60	43292.89
562.77	43285.87
562.93	43267.14
563.10	43658.01
563.26	43562.05
563.42	43674.40
563.59	43428.64
563.75	43557.37
563.92	43330.34
564.08	43428.64
564.24	43388.85
564.41	43290.55
564.57	43728.23
564.74	43508.22
564.90	43606.52
565.07	43508.22
565.23	43543.33
565.39	43536.30
565.56	43885.04
565.72	43658.01
565.88	43302.25
566.05	43515.24
566.21	43613.54
566.38	43634.61
566.54	43948.24
566.70	44039.52
566.87	43770.36
567.03	43863.98
567.19	43779.72
567.36	43840.57
567.52	43861.64
567.68	43920.15
567.85	43784.40
568.01	43442.68
568.17	43632.27
568.34	43990.37
568.50	44184.63
568.66	43770.36
568.83	43906.11
568.99	43798.44
569.15	43948.24
569.32	44093.35
569.48	44334.43
569.64	44245.49
569.81	44011.43
569.97	44257.19
570.13	44112.08
570.30	43922.49
570.46	44154.21
570.62	44161.23
570.78	44215.06
570.95	43828.87
571.11	44130.80
571.27	43931.86
571.43	43679.08
571.60	43887.39
571.76	44133.14
571.92	44194.00
572.09	43971.64
572.25	43866.32
572.41	43962.28
572.57	44308.68
572.74	44423.37
572.90	44275.91
573.06	44341.45
573.22	44238.47
573.38	44467.84
573.55	44772.11
573.71	45010.84
573.87	44577.84
574.03	43894.41
574.20	44573.16
574.36	44018.46
574.52	44374.22
574.68	44385.92
574.84	44678.49
575.01	44891.48
575.17	44655.08
575.33	44687.85
575.49	44697.21
575.65	44879.77
575.82	44685.51
575.98	44095.69
576.14	44484.22
576.30	44907.86
576.46	44659.76
576.62	44617.63
576.79	44325.07
576.95	43873.34
577.11	44807.22
577.27	44577.84
577.43	44563.80
577.59	44538.05
577.75	44388.26
577.92	43842.92
578.08	44521.67
578.24	44715.93
578.40	45071.70
578.56	44839.98
578.72	44446.77
578.88	44582.52
579.04	44816.58
579.21	44484.22
579.37	44304.00
579.53	44692.53
579.69	44458.48
579.85	44470.18
580.01	44664.44
580.17	44828.28
580.33	44910.20
580.49	44715.93
580.65	44861.05
580.82	44872.75
580.98	44566.14
581.14	44079.31
581.30	44524.01
581.46	44594.23
581.62	44327.41
581.78	44547.42
581.94	44687.85
582.10	44531.03
582.26	44856.37
582.42	44666.78
582.58	44828.28
582.74	44896.16
582.90	45015.52
583.06	44832.96
583.22	44414.01
583.38	44931.26
583.54	44861.05
583.70	44650.40
583.86	44732.32
584.02	44896.16
584.18	44903.18
584.34	45186.38
584.50	44919.56
584.66	45088.08
584.82	44807.22
584.98	45298.73
585.14	44664.44
585.30	44907.86
585.46	44809.56
585.62	44931.26
585.78	45265.96
585.94	44708.91
586.10	44912.54
586.26	44758.06
586.42	44676.15
586.58	44839.98
586.74	44973.39
586.90	44559.12
587.06	45006.16
587.22	44388.26
587.38	44921.90
587.54	45392.35
587.70	44942.97
587.86	45268.30
588.02	45120.85
588.18	44968.71
588.34	44882.11
588.49	44697.21
588.65	45031.91
588.81	44935.95
588.97	45146.59
589.13	45095.10
589.29	44870.41
589.45	45017.86
589.61	44854.03
589.77	45371.28
589.93	45059.99
590.08	45158.30
