SpectraSuite Data File
++++++++++++++++++++++++++++++++++++
Date: Fri Oct 25 11:25:43 EDT 2013
User: price-jones
Dark Spectrum Present: No
Reference Spectrum Present: No
Number of Sampled Component Spectra: 1
Spectrometers: USB2+H05261
Integration Time (usec): 100000 (USB2+H05261)
Spectra Averaged: 1 (USB2+H05261)
Boxcar Smoothing: 0 (USB2+H05261)
Correct for Electrical Dark: No (USB2+H05261)
Strobe/Lamp Enabled: No (USB2+H05261)
Correct for Detector Non-linearity: No (USB2+H05261)
Correct for Stray Light: No (USB2+H05261)
Number of Pixels in Processed Spectrum: 2048
>>>>>Begin Processed Spectral Data<<<<<
365.73	243.42
365.92	243.42
366.12	243.42
366.32	121.71
366.52	145.11
366.72	217.67
366.91	95.96
367.11	112.35
367.31	91.28
367.51	84.26
367.70	44.47
367.90	201.29
368.10	191.92
368.30	135.75
368.49	100.64
368.69	203.63
368.89	145.11
369.09	177.88
369.28	187.24
369.48	175.54
369.68	187.24
369.87	280.86
370.07	208.31
370.27	194.26
370.47	308.95
370.66	582.79
370.86	575.77
371.06	723.23
371.25	702.16
371.45	770.04
371.65	713.86
371.84	671.73
372.04	664.71
372.24	697.48
372.44	667.05
372.63	720.88
372.83	763.01
373.03	812.17
373.22	737.27
373.42	697.48
373.62	793.44
373.81	788.76
374.01	779.40
374.21	863.66
374.40	786.42
374.60	798.12
374.79	786.42
374.99	849.61
375.19	910.47
375.38	781.74
375.58	767.70
375.78	844.93
375.97	910.47
376.17	880.04
376.37	856.64
376.56	816.85
376.76	842.59
376.95	835.57
377.15	917.49
377.35	926.85
377.54	870.68
377.74	952.60
377.93	807.48
378.13	922.17
378.33	908.13
378.52	844.93
378.72	903.45
378.91	915.15
379.11	919.83
379.31	966.64
379.50	929.19
379.70	1036.86
379.89	905.79
380.09	926.85
380.28	957.28
380.48	973.66
380.68	917.49
380.87	964.30
381.07	1032.18
381.26	1074.31
381.46	917.49
381.65	1011.11
381.85	1020.47
382.04	1015.79
382.24	1048.56
382.43	1078.99
382.63	1011.11
382.83	1074.31
383.02	1078.99
383.22	1036.86
383.41	1060.26
383.61	1069.62
383.80	1153.88
384.00	1093.03
384.19	1088.35
384.39	1102.39
384.58	1109.41
384.78	1128.14
384.97	1132.82
385.17	1181.97
385.36	1186.65
385.56	1156.22
385.75	1114.10
385.95	1207.72
386.14	1205.38
386.34	1170.27
386.53	1160.91
386.72	1142.18
386.92	1231.12
387.11	1221.76
387.31	1235.80
387.50	1336.45
387.70	1256.87
387.89	1336.45
388.09	1308.36
388.28	1235.80
388.48	1235.80
388.67	1263.89
388.86	1322.40
389.06	1343.47
389.25	1329.42
389.45	1341.13
389.64	1364.53
389.84	1306.02
390.03	1345.81
390.22	1420.71
390.42	1348.15
390.61	1430.07
390.81	1387.94
391.00	1533.05
391.19	1397.30
391.39	1397.30
391.58	1371.55
391.78	1511.99
391.97	1530.71
392.16	1544.75
392.36	1689.87
392.55	1514.33
392.75	1586.88
392.94	1495.60
393.13	1596.25
393.33	1638.38
393.52	1589.22
393.71	1603.27
393.91	1657.10
394.10	1610.29
394.29	1593.90
394.49	1584.54
394.68	1575.18
394.88	1647.74
395.07	1746.04
395.26	1661.78
395.46	1654.76
395.65	1659.44
395.84	1661.78
396.04	1783.49
396.23	1736.68
396.42	1732.00
396.62	1797.53
396.81	1722.63
397.00	1762.42
397.19	1762.42
397.39	1778.81
397.58	1783.49
397.77	1874.77
397.97	1832.64
398.16	1788.17
398.35	1806.89
398.55	1734.34
398.74	1888.81
398.93	1989.46
399.12	1849.02
399.32	1893.49
399.51	1884.13
399.70	1973.07
399.90	2022.22
400.09	1980.09
400.28	2080.74
400.47	1867.75
400.67	2052.65
400.86	2052.65
401.05	2073.71
401.24	2003.50
401.44	2106.48
401.63	2057.33
401.82	2132.23
402.01	2129.89
402.21	2197.76
402.40	2202.44
402.59	2090.10
402.78	2179.04
402.97	2246.91
403.17	2349.90
403.36	2232.87
403.55	2230.53
403.74	2279.68
403.93	2345.22
404.13	2408.41
404.32	2410.75
404.51	2370.96
404.70	2427.14
404.89	2387.35
405.09	2464.58
405.28	2436.50
405.47	2452.88
405.66	2487.99
405.85	2590.97
406.05	2605.02
406.24	2509.05
406.43	2579.27
406.62	2609.70
406.81	2780.56
407.00	2562.89
407.20	2572.25
407.39	2588.63
407.58	2677.57
407.77	2640.12
407.96	2759.49
408.15	2799.28
408.34	2726.72
408.54	2815.66
408.73	2843.75
408.92	2902.26
409.11	2796.94
409.30	2974.82
409.49	2876.52
409.68	2888.22
409.87	2883.54
410.07	2820.35
410.26	2970.14
410.45	3009.93
410.64	3045.04
410.83	3110.57
411.02	3115.25
411.21	3131.64
411.40	3112.91
411.59	3246.32
411.78	3314.20
411.98	3260.37
412.17	3176.11
412.36	3129.30
412.55	3321.22
412.74	3349.31
412.93	3309.52
413.12	3368.03
413.31	3447.61
413.50	3447.61
413.69	3536.55
413.88	3684.00
414.07	3602.08
414.26	3473.36
414.45	3468.67
414.64	3620.81
414.83	3805.71
415.02	3702.73
415.22	3721.45
415.41	3911.04
415.60	3798.69
415.79	3925.08
415.98	3843.16
416.17	4007.00
416.36	3927.42
416.55	3992.95
416.74	4021.04
416.93	4077.21
417.12	4086.58
417.31	4100.62
417.50	4177.86
417.69	4276.16
417.88	4182.54
418.07	4278.50
418.26	4264.46
418.45	4252.75
418.64	4542.98
418.83	4416.59
419.02	4402.55
419.21	4393.19
419.39	4517.23
419.58	4465.74
419.77	4435.32
419.96	4540.64
420.15	4517.23
420.34	4652.98
420.53	4622.56
420.72	4697.46
420.91	4770.01
421.10	4669.37
421.29	4791.08
421.48	4765.33
421.67	4807.46
421.86	4788.74
422.05	4741.93
422.24	4713.84
422.43	4732.56
422.61	4926.83
422.80	4896.40
422.99	4748.95
423.18	4842.57
423.37	5001.72
423.56	4910.44
423.75	4877.68
423.94	4746.61
424.13	4585.11
424.32	4709.16
424.50	4870.65
424.69	4858.95
424.88	4959.60
425.07	5081.30
425.26	4767.67
425.45	5011.09
425.64	4931.51
425.83	4964.28
426.01	5111.73
426.20	5020.45
426.39	5057.90
426.58	5048.54
426.77	5020.45
426.96	5029.81
427.15	5032.15
427.33	5149.18
427.52	5097.69
427.71	5207.69
427.90	5135.14
428.09	5198.33
428.28	5511.96
428.46	5343.44
428.65	5348.12
428.84	5486.22
429.03	5423.02
429.22	5205.35
429.40	5434.72
429.59	5434.72
429.78	5341.10
429.97	5336.42
430.16	5392.59
430.34	5668.78
430.53	5607.92
430.72	5605.58
430.91	5612.60
431.10	5481.53
431.28	5603.24
431.47	5675.80
431.66	5788.14
431.85	5678.14
432.03	5778.78
432.22	5813.89
432.41	5699.20
432.60	5980.07
432.79	6017.52
432.97	6069.01
433.16	6066.67
433.35	6043.26
433.54	6015.18
433.72	6122.84
433.91	5959.00
434.10	6097.10
434.28	5930.92
434.47	6305.40
434.66	6193.06
434.85	6307.74
435.03	6249.23
435.22	6218.80
435.41	6516.05
435.59	6274.98
435.78	6314.77
435.97	6300.72
436.16	6188.38
436.34	6249.23
436.53	6506.69
436.72	6661.16
436.90	6274.98
437.09	6574.56
437.28	6539.46
437.46	6504.35
437.65	6586.27
437.84	6862.45
438.02	6621.38
438.21	6853.09
438.40	6562.86
438.58	6911.60
438.77	7122.25
438.96	6876.49
439.14	7117.57
439.33	7269.70
439.52	6963.09
439.70	7150.34
439.89	7131.61
440.08	7269.70
440.26	7290.77
440.45	7368.01
440.63	7494.40
440.82	7478.01
441.01	7639.51
441.19	7438.22
441.38	7798.66
441.57	7618.44
441.75	7763.56
441.94	8128.68
442.12	7775.26
442.31	7936.76
442.50	7840.79
442.68	8018.68
442.87	8030.38
443.05	8135.70
443.24	8250.39
443.43	8142.72
443.61	8072.51
443.80	8439.97
443.98	7960.16
444.17	7925.05
444.35	8126.34
444.54	8252.73
444.73	8325.29
444.91	8278.47
445.10	8035.06
445.28	8348.69
445.47	8161.45
445.65	8301.88
445.84	8435.29
446.02	8332.31
446.21	8404.86
446.39	8353.37
446.58	8423.59
446.77	8491.46
446.95	8236.35
447.14	8308.90
447.32	8491.46
447.51	8533.59
447.69	8446.99
447.88	8217.62
448.06	8402.52
448.25	8439.97
448.43	8465.72
448.62	8475.08
448.80	8510.19
448.99	8629.56
449.17	8627.21
449.36	8549.98
449.54	8734.88
449.73	8952.55
449.91	8830.84
450.10	8978.30
450.28	8861.27
450.46	8751.26
450.65	9004.04
450.83	8985.32
451.02	8929.14
451.20	9085.96
451.39	8945.53
451.57	9064.89
451.76	8819.14
451.94	9100.00
452.13	9224.05
452.31	9177.24
452.49	9200.65
452.68	9327.03
452.86	9270.86
453.05	9392.57
453.23	9399.59
453.42	9254.48
453.60	9231.07
453.78	9345.76
453.97	9277.88
454.15	9334.06
454.34	9418.32
454.52	9631.30
454.70	9551.73
454.89	9638.33
455.07	9600.88
455.26	9963.66
455.44	9860.68
455.62	9724.93
455.81	9937.91
455.99	10101.75
456.17	9872.38
456.36	9916.85
456.54	10031.54
456.73	10176.65
456.91	10368.57
457.09	10270.27
457.28	10487.94
457.46	10361.55
457.64	10410.70
457.83	10520.71
458.01	10406.02
458.19	10520.71
458.38	10471.56
458.56	10597.95
458.74	10511.35
458.93	10611.99
459.11	10726.68
459.29	10679.86
459.48	10780.51
459.66	10771.15
459.84	10911.58
460.03	10979.45
460.21	10911.58
460.39	11080.10
460.57	10913.92
460.76	11112.86
460.94	11143.29
461.12	11325.85
461.31	10998.18
461.49	11211.17
461.67	10958.39
461.85	11438.20
462.04	11183.08
462.22	11712.04
462.40	11538.84
462.59	11531.82
462.77	11515.44
462.95	11723.74
463.13	11709.70
463.32	11616.08
463.50	11756.51
463.68	11735.45
463.86	11775.24
464.05	11585.65
464.23	11440.54
464.41	11793.96
464.59	11613.74
464.78	12088.87
464.96	11918.01
465.14	11812.68
465.32	12060.78
465.50	11929.71
465.69	12149.72
465.87	11983.54
466.05	12259.73
466.23	12020.99
466.41	12280.79
466.60	12531.23
466.78	12100.57
466.96	12072.48
467.14	12205.89
467.32	12262.07
467.51	12475.06
467.69	12336.96
467.87	12456.33
468.05	12624.85
468.23	12339.30
468.41	12439.95
468.60	12449.31
468.78	12517.18
468.96	12257.39
469.14	12762.94
469.32	12681.02
469.50	12594.42
469.69	12835.50
469.87	13062.53
470.05	12917.42
470.23	12795.71
470.41	13238.07
470.59	13294.24
470.77	13130.41
470.95	13095.30
471.14	13383.18
471.32	13039.12
471.50	13439.36
471.68	13322.33
471.86	13490.85
472.04	13813.84
472.22	14064.28
472.40	13926.19
472.58	13540.00
472.77	13834.91
472.95	14061.94
473.13	14363.87
473.31	13942.57
473.49	14001.08
473.67	14162.58
473.85	14118.11
474.03	14576.86
474.21	14455.15
474.39	14689.20
474.57	14548.77
474.75	14464.51
474.93	14932.62
475.12	14752.40
475.30	15005.17
475.48	15026.24
475.66	14951.34
475.84	14967.73
476.02	15274.34
476.20	15353.91
476.38	15627.76
476.56	16088.84
476.74	15901.60
476.92	15894.58
477.10	15620.74
477.28	15985.86
477.46	16032.67
477.64	16145.02
477.82	16563.97
478.00	16549.93
478.18	16603.76
478.36	16755.90
478.54	17048.46
478.72	17102.29
478.90	17439.33
479.08	17500.19
479.26	17406.56
479.44	17781.05
479.62	17774.03
479.80	17926.16
479.98	17874.67
480.16	18553.43
480.34	17942.55
480.52	18455.12
480.70	18621.30
480.88	18501.93
481.06	18665.77
481.24	18611.94
481.41	18958.34
481.59	19000.47
481.77	19344.53
481.95	19456.87
482.13	19985.83
482.31	19543.47
482.49	20114.56
482.67	20271.38
482.85	20222.23
483.03	20505.43
483.21	20477.35
483.39	20900.98
483.57	20666.93
483.74	20842.47
483.92	21270.79
484.10	21081.21
484.28	21249.72
484.46	21893.37
484.64	22293.60
484.82	21935.50
485.00	22029.12
485.18	22960.66
485.35	23157.26
485.53	22747.67
485.71	22780.43
485.89	23283.65
486.07	23175.98
486.25	23175.98
486.43	23529.41
486.61	23740.05
486.78	23873.46
486.96	24088.79
487.14	24177.73
487.32	24484.34
487.50	24851.81
487.68	24709.04
487.85	25188.85
488.03	25198.21
488.21	25869.94
488.39	26029.10
488.57	25668.66
488.75	26134.42
488.92	26487.84
489.10	26581.46
489.28	26450.39
489.46	27009.78
489.64	26965.31
489.81	27428.74
489.99	27290.65
490.17	27538.74
490.35	28126.22
490.53	28369.63
490.70	28540.49
490.88	28318.14
491.06	28556.88
491.24	28926.68
491.41	28657.52
491.59	29153.71
491.77	29071.79
491.95	29277.76
492.13	29357.34
492.30	29336.27
492.48	29677.99
492.66	29975.24
492.84	29839.49
493.01	30448.03
493.19	30508.88
493.37	31056.57
493.54	30707.83
493.72	31276.58
493.90	31192.32
494.08	31236.79
494.25	31702.56
494.43	31431.05
494.61	32091.09
494.79	32308.76
494.96	32018.53
495.14	32603.66
495.32	32643.45
495.49	33013.26
495.67	33221.56
495.85	33029.64
496.02	33443.91
496.20	33787.97
496.38	34157.78
496.55	34162.46
496.73	34787.38
496.91	34455.03
497.09	34419.92
497.26	34459.71
497.44	34504.18
497.62	35306.98
497.79	35744.66
497.97	34969.94
498.14	35452.09
498.32	35606.57
498.50	35931.90
498.67	35974.03
498.85	35999.78
499.03	36259.58
499.20	36598.96
499.38	36683.22
499.56	37064.72
499.73	36837.69
499.91	37074.09
500.08	37579.64
500.26	36935.99
500.44	37296.44
500.61	38148.39
500.79	37572.62
500.97	37872.21
501.14	38611.82
501.32	38401.17
501.49	38080.52
501.67	38321.59
501.84	38557.99
502.02	38941.83
502.20	39082.27
502.37	38946.51
502.55	39395.90
502.72	39138.44
502.90	39786.77
503.07	39079.92
503.25	39543.35
503.43	39531.65
503.60	40109.76
503.78	39782.09
503.95	39880.39
504.13	40289.98
504.30	40502.97
504.48	40299.34
504.65	40271.26
504.83	40861.07
505.01	40627.02
505.18	41048.32
505.36	40926.61
505.53	41076.40
505.71	41586.64
505.88	41427.48
506.06	41588.98
506.23	41963.46
506.41	41626.43
506.58	41897.93
506.76	42099.22
506.93	42405.83
507.11	42356.67
507.28	42258.37
507.46	42548.60
507.63	42983.94
507.81	42997.98
507.98	43075.22
508.16	43005.00
508.33	43210.97
508.50	43629.93
508.68	43344.38
508.85	43756.32
509.03	43283.53
509.20	43690.78
509.38	44299.32
509.55	44140.16
509.73	43800.79
509.90	44608.27
510.08	44299.32
510.25	44458.48
510.42	44699.55
510.60	44641.04
510.77	45261.28
510.95	45532.78
511.12	45010.84
511.30	44776.79
511.47	45081.06
511.64	45296.39
511.82	45291.71
511.99	45329.16
512.17	45972.80
512.34	45172.34
512.51	46043.02
512.69	46417.50
512.86	46241.96
513.04	46466.66
513.21	46298.14
513.38	46724.11
513.56	46373.03
513.73	46263.03
513.90	46628.15
514.08	46632.83
514.25	47047.11
514.43	46885.61
514.60	47168.82
514.77	46855.18
514.95	47608.84
515.12	46878.59
515.29	47194.56
515.47	47856.93
515.64	47737.57
515.81	47709.48
515.99	47866.30
516.16	48341.42
516.33	48170.57
516.51	48636.33
516.68	48313.34
516.85	48142.48
517.03	48444.41
517.20	48467.81
517.37	48294.61
517.54	48622.29
517.72	48760.38
517.89	48528.67
518.06	49186.36
518.24	48865.70
518.41	49036.56
518.58	49202.74
518.75	48697.19
518.93	49322.11
519.10	49181.68
519.27	49460.20
519.45	49722.34
519.62	49839.37
519.79	49881.50
519.96	49631.06
520.14	49972.78
520.31	49705.96
520.48	50192.79
520.65	50028.95
520.83	50443.23
521.00	50602.38
521.17	50239.60
521.34	50422.16
521.52	50705.37
521.69	50801.33
521.86	50864.52
522.03	50869.20
522.20	51037.72
522.38	51213.26
522.55	51119.64
522.72	50714.73
522.89	51100.92
523.07	51498.81
523.24	51264.75
523.41	51346.67
523.58	51117.30
523.75	51688.39
523.92	51440.29
524.10	51714.14
524.27	51877.97
524.44	51618.17
524.61	52013.73
524.78	51903.72
524.96	52032.45
525.13	52186.92
525.30	52140.11
525.47	52371.83
525.64	52339.06
525.81	52521.62
525.98	52690.14
526.16	52191.61
526.33	52371.83
526.50	52849.30
526.67	52418.64
526.84	52746.31
527.01	52594.18
527.18	52781.42
527.36	52736.95
527.53	52732.27
527.70	53092.71
527.87	53104.41
528.04	52889.09
528.21	52949.94
528.38	52924.19
528.55	53191.01
528.72	53251.87
528.89	53069.31
529.07	53359.53
529.24	53394.64
529.41	53708.27
529.58	53542.10
529.75	53422.73
529.92	53556.14
530.09	53687.21
530.26	53825.30
530.43	53787.85
530.60	53598.27
530.77	53626.35
530.94	53939.99
531.11	53785.51
531.28	53993.82
531.46	54082.76
531.63	53846.36
531.80	53979.78
531.97	54136.59
532.14	54279.36
532.31	54174.04
532.48	54309.79
532.65	54475.97
532.82	54553.21
532.99	54471.29
533.16	54630.44
533.33	54550.87
533.50	54738.11
533.67	54712.36
533.84	54494.69
534.01	54714.70
534.18	54756.83
534.35	55089.19
534.52	54780.24
534.69	55030.68
534.86	55168.77
535.03	54981.52
535.20	54885.56
535.37	55269.41
535.54	55222.60
535.71	55011.95
535.88	55320.90
536.05	55274.09
536.22	55248.35
536.38	55320.90
536.55	55660.28
536.72	55365.37
536.89	54988.55
537.06	55332.60
537.23	55320.90
537.40	55505.80
537.57	55304.52
537.74	55508.14
537.91	55847.52
538.08	55800.71
538.25	55604.11
538.42	55580.70
538.59	55891.99
538.75	55786.67
538.92	55774.97
539.09	55976.25
539.26	55966.89
539.43	55838.16
539.60	55913.06
539.77	55962.21
539.94	56346.06
540.11	56229.03
540.28	56327.33
540.44	56266.48
540.61	56261.80
540.78	56266.48
540.95	56287.54
541.12	56339.04
541.29	56231.37
541.46	56481.81
541.62	56406.91
541.79	56264.14
541.96	56332.01
542.13	56474.79
542.30	56598.83
542.47	56624.58
542.63	56870.34
542.80	56563.73
542.97	56734.59
543.14	57109.07
543.31	57066.94
543.48	57076.30
543.64	57532.71
543.81	57366.53
543.98	57347.81
544.15	57202.69
544.32	57207.37
544.48	57521.01
544.65	57223.76
544.82	57312.70
544.99	57155.88
545.16	57542.07
545.32	57216.74
545.49	57712.93
545.66	57513.98
545.83	57481.22
546.00	57455.47
546.16	57359.51
546.33	57495.26
546.50	57279.93
546.67	57474.20
546.83	57158.22
547.00	57577.18
547.17	57773.78
547.34	57724.63
547.50	57869.75
547.67	57773.78
547.84	57799.53
548.00	57942.30
548.17	57932.94
548.34	57965.71
548.51	58131.89
548.67	58209.12
548.84	57998.48
549.01	57804.21
549.18	58195.08
549.34	58035.92
549.51	58152.95
549.68	58166.99
549.84	57975.07
550.01	58234.87
550.18	58049.97
550.34	58356.58
550.51	58181.04
550.68	58379.98
550.84	58295.72
551.01	58398.71
551.18	58197.42
551.34	58501.69
551.51	58492.33
551.68	58265.30
551.84	58426.79
552.01	58368.28
552.18	58590.63
552.34	58253.59
552.51	58480.63
552.68	58162.31
552.84	58499.35
553.01	58955.75
553.18	58766.17
553.34	58784.90
553.51	58651.48
553.67	58529.78
553.84	58796.60
554.01	59037.67
554.17	59011.93
554.34	58925.33
554.51	58796.60
554.67	58976.82
554.84	58782.55
555.00	58642.12
555.17	58623.40
555.33	58843.41
555.50	58663.19
555.67	58864.47
555.83	58845.75
556.00	58883.20
556.16	59065.76
556.33	59042.35
556.50	58974.48
556.66	59131.29
556.83	59002.56
556.99	59119.59
557.16	59384.07
557.32	59306.83
557.49	59660.26
557.65	59199.17
557.82	59208.53
557.98	59264.70
558.15	59306.83
558.32	59297.47
558.48	59112.57
558.65	59374.71
558.81	59475.35
558.98	59325.56
559.14	59491.74
559.31	59363.01
559.47	59306.83
559.64	59632.17
559.80	59475.35
559.97	59550.25
560.13	59568.97
560.30	59451.95
560.46	59449.61
560.63	59643.87
560.79	59599.40
560.96	59618.13
561.12	59767.92
561.29	59618.13
561.45	59819.41
561.61	59847.50
561.78	59648.55
561.94	59604.08
562.11	59655.57
562.27	59686.00
562.44	59901.33
562.60	59842.82
562.77	59894.31
562.93	59657.91
563.10	59770.26
563.26	59765.58
563.42	60023.04
563.59	59922.40
563.75	59945.80
563.92	59770.26
564.08	59615.79
564.24	60156.45
564.41	60172.83
564.57	59987.93
564.74	59999.63
564.90	59980.91
565.07	59913.03
565.23	59950.48
565.39	59803.03
565.56	60093.25
565.72	59948.14
565.88	60200.92
566.05	60158.79
566.21	60212.62
566.38	60214.96
566.54	60013.68
566.70	59987.93
566.87	60093.25
567.03	60079.21
567.19	60261.77
567.36	60177.51
567.52	60203.26
567.68	60392.84
567.85	60282.84
568.01	60416.25
568.17	60196.24
568.34	60238.37
568.50	60381.14
568.66	60135.38
568.83	60289.86
568.99	60126.02
569.15	60205.60
569.32	60254.75
569.48	60231.35
569.64	60434.97
569.81	60245.39
569.97	60259.43
570.13	60310.92
570.30	60046.44
570.46	60488.80
570.62	60458.38
570.78	60360.08
570.95	60198.58
571.11	60449.02
571.27	60250.07
571.43	60544.98
571.60	60399.86
571.76	60331.99
571.92	60369.44
572.09	60479.44
572.25	60451.36
572.41	60212.62
572.57	60500.51
572.74	60645.62
572.90	60413.91
573.06	60376.46
573.22	60420.93
573.38	60559.02
573.55	60310.92
573.71	60573.06
573.87	60598.81
574.03	60385.82
574.20	60444.33
574.36	60514.55
574.52	60526.25
574.68	60427.95
574.84	60849.25
575.01	60594.13
575.17	60472.42
575.33	60392.84
575.49	60439.65
575.65	60650.30
575.82	60683.07
575.98	60690.09
576.14	60669.03
576.30	60713.50
576.46	60514.55
576.62	60676.05
576.79	60516.89
576.95	60500.51
577.11	60624.56
577.27	60626.90
577.43	60687.75
577.59	60748.60
577.75	60481.78
577.92	60514.55
578.08	60664.35
578.24	60825.84
578.40	60573.06
578.56	60851.59
578.72	60463.06
578.88	60790.73
579.04	61003.72
579.21	60734.56
579.37	60844.57
579.53	60657.32
579.69	60647.96
579.85	60676.05
580.01	60589.45
580.17	60460.72
580.33	60664.35
580.49	60905.42
580.65	60839.89
580.82	60830.52
580.98	60671.37
581.14	60893.72
581.30	60973.30
581.46	60860.95
581.62	60734.56
581.78	60636.26
581.94	60844.57
582.10	60739.24
582.26	60692.43
582.42	60736.90
582.58	60807.12
582.74	60577.75
582.90	60708.82
583.06	60818.82
583.22	60846.91
583.38	60853.93
583.54	60903.08
583.70	60867.97
583.86	60938.19
584.02	60853.93
584.18	61001.38
584.34	61008.40
584.50	61024.79
584.66	60563.70
584.82	60654.98
584.98	60961.59
585.14	60846.91
585.30	60811.80
585.46	60924.14
585.62	60673.71
585.78	60846.91
585.94	60732.22
586.10	60961.59
586.26	60788.39
586.42	60945.21
586.58	61015.43
586.74	61064.58
586.90	60755.63
587.06	60886.70
587.22	60999.04
587.38	60802.44
587.54	60877.33
587.70	61205.01
587.86	60903.08
588.02	60774.35
588.18	61027.13
588.34	60980.32
588.49	61048.19
