SpectraSuite Data File
++++++++++++++++++++++++++++++++++++
Date: Fri Oct 25 11:34:30 EDT 2013
User: price-jones
Dark Spectrum Present: No
Reference Spectrum Present: No
Number of Sampled Component Spectra: 1
Spectrometers: USB2+H05261
Integration Time (usec): 100000 (USB2+H05261)
Spectra Averaged: 1 (USB2+H05261)
Boxcar Smoothing: 0 (USB2+H05261)
Correct for Electrical Dark: No (USB2+H05261)
Strobe/Lamp Enabled: No (USB2+H05261)
Correct for Detector Non-linearity: No (USB2+H05261)
Correct for Stray Light: No (USB2+H05261)
Number of Pixels in Processed Spectrum: 2048
>>>>>Begin Processed Spectral Data<<<<<
365.73	278.52
365.92	278.52
366.12	278.52
366.32	222.35
366.52	198.95
366.72	215.33
366.91	168.52
367.11	201.29
367.31	264.48
367.51	191.92
367.70	182.56
367.90	212.99
368.10	154.48
368.30	220.01
368.49	198.95
368.69	170.86
368.89	220.01
369.09	170.86
369.28	229.37
369.48	283.20
369.68	257.46
369.87	276.18
370.07	311.29
370.27	241.08
370.47	292.57
370.66	521.94
370.86	512.58
371.06	491.51
371.25	645.99
371.45	512.58
371.65	538.32
371.84	538.32
372.04	517.26
372.24	615.56
372.44	571.09
372.63	599.18
372.83	535.98
373.03	582.79
373.22	648.33
373.42	552.37
373.62	613.22
373.81	657.69
374.01	613.22
374.21	697.48
374.40	641.31
374.60	615.56
374.79	650.67
374.99	636.63
375.19	702.16
375.38	678.76
375.58	580.45
375.78	695.14
375.97	730.25
376.17	744.29
376.37	716.20
376.56	706.84
376.76	660.03
376.95	648.33
377.15	603.86
377.35	622.58
377.54	737.27
377.74	725.57
377.93	678.76
378.13	671.73
378.33	695.14
378.52	739.61
378.72	716.20
378.91	692.80
379.11	739.61
379.31	655.35
379.50	692.80
379.70	725.57
379.89	802.80
380.09	702.16
380.28	732.59
380.48	770.04
380.68	725.57
380.87	720.88
381.07	727.91
381.26	763.01
381.46	779.40
381.65	671.73
381.85	692.80
382.04	805.14
382.24	791.10
382.43	772.38
382.63	725.57
382.83	781.74
383.02	802.80
383.22	798.12
383.41	868.34
383.61	840.25
383.80	772.38
384.00	795.78
384.19	688.12
384.39	896.43
384.58	880.04
384.78	779.40
384.97	805.14
385.17	767.70
385.36	770.04
385.56	814.51
385.75	837.91
385.95	828.55
386.14	931.53
386.34	823.87
386.53	814.51
386.72	856.64
386.92	858.98
387.11	873.02
387.31	945.58
387.50	905.79
387.70	863.66
387.89	847.27
388.09	856.64
388.28	980.68
388.48	959.62
388.67	896.43
388.86	844.93
389.06	987.71
389.25	882.38
389.45	884.72
389.64	784.08
389.84	950.26
390.03	919.83
390.22	938.55
390.42	924.51
390.61	887.06
390.81	959.62
391.00	924.51
391.19	971.32
391.39	1022.81
391.58	980.68
391.78	952.60
391.97	1048.56
392.16	1039.20
392.36	976.00
392.55	919.83
392.75	1071.97
392.94	997.07
393.13	1011.11
393.33	1050.90
393.52	1088.35
393.71	1048.56
393.91	1093.03
394.10	1081.33
394.29	1153.88
394.49	1027.50
394.68	1156.22
394.88	1116.44
395.07	1011.11
395.26	1125.80
395.46	1100.05
395.65	1118.78
395.84	1146.86
396.04	1203.04
396.23	1151.54
396.42	1247.51
396.62	1153.88
396.81	1238.14
397.00	1172.61
397.19	1214.74
397.39	1198.35
397.58	1287.29
397.77	1245.16
397.97	1268.57
398.16	1287.29
398.35	1153.88
398.55	1214.74
398.74	1235.80
398.93	1233.46
399.12	1249.85
399.32	1188.99
399.51	1158.57
399.70	1214.74
399.90	1306.02
400.09	1322.40
400.28	1350.49
400.47	1366.87
400.67	1291.98
400.86	1392.62
401.05	1380.92
401.24	1418.36
401.44	1334.11
401.63	1441.77
401.82	1310.70
402.01	1366.87
402.21	1366.87
402.40	1378.58
402.59	1427.73
402.78	1458.15
402.97	1474.54
403.17	1409.00
403.36	1504.96
403.55	1528.37
403.74	1528.37
403.93	1511.99
404.13	1535.39
404.32	1521.35
404.51	1516.67
404.70	1633.69
404.89	1561.14
405.09	1633.69
405.28	1551.78
405.47	1591.56
405.66	1661.78
405.85	1640.72
406.05	1715.61
406.24	1629.01
406.43	1638.38
406.62	1732.00
406.81	1715.61
407.00	1741.36
407.20	1753.06
407.39	1643.06
407.58	1783.49
407.77	1856.04
407.96	1820.94
408.15	1710.93
408.34	1774.13
408.54	1809.23
408.73	1788.17
408.92	1865.41
409.11	1851.36
409.30	1937.96
409.49	1928.60
409.68	1989.46
409.87	1865.41
410.07	1947.33
410.26	1973.07
410.45	1973.07
410.64	2008.18
410.83	2080.74
411.02	2092.44
411.21	2062.01
411.40	2099.46
411.59	2026.90
411.78	2097.12
411.98	2146.27
412.17	2129.89
412.36	2216.49
412.55	2132.23
412.74	2260.96
412.93	2307.77
413.12	2183.72
413.31	2331.17
413.50	2263.30
413.69	2223.51
413.88	2270.32
414.07	2363.94
414.26	2361.60
414.45	2487.99
414.64	2459.90
414.83	2532.46
415.02	2511.39
415.22	2553.52
415.41	2516.08
415.60	2574.59
415.79	2672.89
415.98	2551.18
416.17	2712.68
416.36	2593.31
416.55	2651.83
416.74	2637.78
416.93	2619.06
417.12	2691.62
417.31	2698.64
417.50	2733.75
417.69	2857.79
417.88	2820.35
418.07	2787.58
418.26	2843.75
418.45	2836.73
418.64	2939.71
418.83	3019.29
419.02	2960.78
419.21	2892.90
419.39	2876.52
419.58	2958.44
419.77	3014.61
419.96	2979.50
420.15	2951.42
420.34	3091.85
420.53	2995.89
420.72	3096.53
420.91	3159.72
421.10	3145.68
421.29	3122.27
421.48	3136.32
421.67	3180.79
421.86	3089.51
422.05	3056.74
422.24	3213.56
422.43	3199.51
422.61	3204.19
422.80	3211.22
422.99	3316.54
423.18	3253.34
423.37	3274.41
423.56	3227.60
423.75	3229.94
423.94	3316.54
424.13	3052.06
424.32	3171.43
424.50	3262.71
424.69	3304.84
424.88	3302.50
425.07	3180.79
425.26	3304.84
425.45	3389.10
425.64	3398.46
425.83	3379.73
426.01	3272.07
426.20	3290.79
426.39	3375.05
426.58	3339.94
426.77	3463.99
426.96	3363.35
427.15	3566.98
427.33	3428.88
427.52	3412.50
427.71	3520.17
427.90	3494.42
428.09	3480.38
428.28	3604.42
428.46	3531.87
428.65	3510.80
428.84	3555.27
429.03	3606.77
429.22	3492.08
429.40	3747.20
429.59	3632.51
429.78	3487.40
429.97	3447.61
430.16	3566.98
430.34	3803.37
430.53	3646.55
430.72	3805.71
430.91	3751.88
431.10	3595.06
431.28	3735.50
431.47	3775.28
431.66	3840.82
431.85	3934.44
432.03	3957.85
432.22	3971.89
432.41	3817.41
432.60	3906.35
432.79	3829.12
432.97	3983.59
433.16	3918.06
433.35	3941.46
433.54	3960.19
433.72	4063.17
433.91	4128.70
434.10	4163.81
434.28	4014.02
434.47	4175.52
434.66	4072.53
434.85	4189.56
435.03	4093.60
435.22	3997.64
435.41	4234.03
435.59	4194.24
435.78	4086.58
435.97	4098.28
436.16	4292.54
436.34	4334.67
436.53	4126.36
436.72	4341.69
436.90	4332.33
437.09	4334.67
437.28	4362.76
437.46	4353.40
437.65	4407.23
437.84	4409.57
438.02	4402.55
438.21	4465.74
438.40	4245.73
438.58	4629.58
438.77	4538.30
438.96	4622.56
439.14	4631.92
439.33	4648.30
439.52	4624.90
439.70	4772.35
439.89	4795.76
440.08	4767.67
440.26	4870.65
440.45	4706.82
440.63	4940.87
440.82	4919.81
441.01	4987.68
441.19	5156.20
441.38	5088.32
441.57	5029.81
441.75	5174.92
441.94	5167.90
442.12	5071.94
442.31	5275.57
442.50	5210.03
442.68	5277.91
442.87	5109.39
443.05	5338.76
443.24	5315.36
443.43	5298.97
443.61	5437.06
443.80	5469.83
443.98	5111.73
444.17	5235.78
444.35	5380.89
444.54	5434.72
444.73	5432.38
444.91	5315.36
445.10	5378.55
445.28	5423.02
445.47	5521.32
445.65	5479.19
445.84	5502.60
446.02	5416.00
446.21	5392.59
446.39	5521.32
446.58	5631.33
446.77	5533.03
446.95	5348.12
447.14	5460.47
447.32	5561.11
447.51	5474.51
447.69	5607.92
447.88	5481.53
448.06	5603.24
448.25	5561.11
448.43	5423.02
448.62	5542.39
448.80	5537.71
448.99	5511.96
449.17	5638.35
449.36	5526.00
449.54	5706.23
449.73	5617.29
449.91	5870.06
450.10	5806.87
450.28	5795.17
450.46	5823.25
450.65	5783.46
450.83	5865.38
451.02	5916.87
451.20	5949.64
451.39	5940.28
451.57	5909.85
451.76	5837.30
451.94	5853.68
452.13	6139.23
452.31	6087.73
452.49	6087.73
452.68	6038.58
452.86	5980.07
453.05	5900.49
453.23	6225.82
453.42	6169.65
453.60	6066.67
453.78	6242.21
453.97	6071.35
454.15	6024.54
454.34	5991.77
454.52	6375.62
454.70	6359.24
454.89	6291.36
455.07	6230.51
455.26	6326.47
455.44	6328.81
455.62	6349.87
455.81	6406.05
455.99	6408.39
456.17	6487.96
456.36	6593.29
456.54	6581.59
456.73	6530.09
456.91	6642.44
457.09	6722.02
457.28	6715.00
457.46	6635.42
457.64	6803.94
457.83	6736.06
458.01	6569.88
458.19	6745.42
458.38	6736.06
458.56	6864.79
458.74	6834.36
458.93	6855.43
459.11	6979.48
459.29	7019.27
459.48	6895.22
459.66	6857.77
459.84	7037.99
460.03	7110.55
460.21	7035.65
460.39	7145.66
460.57	7016.93
460.76	7187.79
460.94	7192.47
461.12	7262.68
461.31	7119.91
461.49	7162.04
461.67	7155.02
461.85	7323.54
462.04	7260.34
462.22	7468.65
462.40	7391.41
462.59	7442.90
462.77	7370.35
462.95	7522.48
463.13	7569.29
463.32	7449.93
463.50	7531.84
463.68	7515.46
463.86	7606.74
464.05	7716.75
464.23	7489.71
464.41	7620.78
464.59	7536.52
464.78	7681.64
464.96	7735.47
465.14	7702.70
465.32	7588.02
465.50	7723.77
465.69	7887.61
465.87	7644.19
466.05	7653.55
466.23	7637.17
466.41	7683.98
466.60	7871.22
466.78	7786.96
466.96	7592.70
467.14	7777.60
467.32	7889.95
467.51	8018.68
467.69	7721.43
467.87	7927.39
468.05	8030.38
468.23	7843.14
468.41	8021.02
468.60	8058.46
468.78	8109.96
468.96	8161.45
469.14	8226.98
469.32	8313.58
469.50	8002.29
469.69	8477.42
469.87	8465.72
470.05	8271.45
470.23	8407.20
470.41	8444.65
470.59	8517.21
470.77	8493.80
470.95	8278.47
471.14	8636.58
471.32	8463.38
471.50	8723.18
471.68	8592.11
471.86	8578.06
472.04	8585.08
472.22	8858.93
472.40	8734.88
472.58	8905.74
472.77	8856.59
472.95	8896.38
473.13	9254.48
473.31	8908.08
473.49	8999.36
473.67	8762.97
473.85	9277.88
474.03	9296.61
474.21	9184.26
474.39	9312.99
474.57	9411.29
474.75	9439.38
474.93	9547.05
475.12	9214.69
475.30	9774.08
475.48	9666.41
475.66	9614.92
475.84	9652.37
476.02	9806.84
476.20	9886.42
476.38	9856.00
476.56	10148.56
476.74	10134.52
476.92	10073.67
477.10	10012.81
477.28	10267.93
477.46	10057.28
477.64	10289.00
477.82	10370.91
478.00	10672.84
478.18	10581.56
478.36	10696.25
478.54	10899.87
478.72	10841.36
478.90	11023.92
479.08	11073.07
479.26	11213.51
479.44	11070.73
479.62	11288.40
479.80	11199.46
479.98	11267.34
480.16	11707.36
480.34	11375.00
480.52	12051.42
480.70	11623.10
480.88	11492.03
481.06	11688.64
481.24	11784.60
481.41	12009.29
481.59	12039.72
481.77	12248.02
481.95	12093.55
482.13	12346.33
482.31	12468.03
482.49	12634.21
482.67	12533.57
482.85	12720.81
483.03	13064.87
483.21	13114.02
483.39	13160.83
483.57	12980.61
483.74	13322.33
483.92	13710.86
484.10	13319.99
484.28	13626.60
484.46	13916.83
484.64	13692.13
484.82	13905.12
485.00	14064.28
485.18	14204.71
485.35	14663.46
485.53	14511.32
485.71	14211.73
485.89	14544.09
486.07	14766.44
486.25	14871.76
486.43	14855.38
486.61	14923.26
486.78	15021.56
486.96	15012.20
487.14	15487.32
487.32	15431.15
487.50	15531.80
487.68	15786.91
487.85	15800.96
488.03	15866.49
488.21	16121.61
488.39	16318.22
488.57	16425.88
488.75	16711.42
488.92	16739.51
489.10	16681.00
489.28	16765.26
489.46	17144.42
489.64	16861.22
489.81	17404.22
489.99	17427.63
490.17	17359.75
490.35	17554.02
490.53	17654.66
490.70	17949.57
490.88	17933.18
491.06	18160.22
491.24	17914.46
491.41	18382.57
491.59	18394.27
491.77	18218.73
491.95	18424.70
492.13	18764.07
492.30	18981.74
492.48	18834.29
492.66	18876.42
492.84	19197.07
493.01	19571.56
493.19	19283.67
493.37	19257.93
493.54	19442.83
493.72	19623.05
493.90	19597.31
494.08	19761.14
494.25	20154.35
494.43	19899.23
494.61	20004.56
494.79	20217.55
494.96	20123.93
495.14	20128.61
495.32	20849.49
495.49	20592.03
495.67	20908.01
495.85	20849.49
496.02	20891.62
496.20	21343.35
496.38	21296.53
496.55	21341.00
496.73	21825.50
496.91	21731.87
497.09	21568.04
497.26	21916.78
497.44	21607.83
497.62	22003.38
497.79	22260.84
497.97	22305.31
498.14	22508.93
498.32	22710.22
498.50	22806.18
498.67	22925.55
498.85	22724.26
499.03	22981.72
499.20	23185.35
499.38	22890.44
499.56	23164.28
499.73	22988.74
499.91	23157.26
500.08	23620.69
500.26	23232.16
500.44	23489.62
500.61	23517.70
500.79	23915.59
500.97	23960.06
501.14	24147.31
501.32	24100.50
501.49	23885.17
501.67	24013.90
501.84	24369.66
502.02	24343.91
502.20	24491.37
502.37	24294.76
502.55	24465.62
502.72	24463.28
502.90	24659.88
503.07	24900.96
503.25	24655.20
503.43	24636.48
503.60	25165.44
503.78	25322.26
503.95	25032.03
504.13	25479.07
504.30	25593.76
504.48	25596.10
504.65	25516.52
504.83	25720.15
505.01	25968.24
505.18	25649.93
505.36	25888.67
505.53	26015.05
505.71	25986.97
505.88	26237.41
506.06	25900.37
506.23	26398.90
506.41	26272.51
506.58	26132.08
506.76	26157.83
506.93	26700.83
507.11	26441.03
507.28	27054.25
507.46	27089.36
507.63	26862.33
507.81	26752.32
507.98	27117.45
508.16	27049.57
508.33	27068.30
508.50	27136.17
508.68	27466.19
508.85	27417.04
509.03	27627.68
509.20	27723.65
509.38	27852.38
509.55	28079.41
509.73	28041.96
509.90	27793.86
510.08	28168.35
510.25	28023.23
510.42	28030.26
510.60	28364.95
510.77	28456.23
510.95	28650.50
511.12	28343.89
511.30	28463.25
511.47	28863.49
511.64	28952.43
511.82	28985.19
511.99	29111.58
512.17	29158.39
512.34	29013.28
512.51	29340.96
512.69	29378.40
512.86	29376.06
513.04	29673.31
513.21	29284.78
513.38	29685.01
513.56	29500.11
513.73	29713.10
513.90	29617.14
514.08	29804.38
514.25	29947.15
514.43	30415.26
514.60	30026.73
514.77	30249.08
514.95	30054.82
515.12	30101.63
515.29	30106.31
515.47	30501.86
515.64	30335.68
515.81	30515.90
515.99	30771.02
516.16	30562.72
516.33	31014.44
516.51	31068.27
516.68	30590.80
516.85	30560.37
517.03	31461.48
517.20	30843.58
517.37	31281.26
517.54	31182.96
517.72	31622.98
517.89	31648.72
518.06	31456.80
518.24	31695.53
518.41	31625.32
518.58	31508.29
518.75	31761.07
518.93	31655.75
519.10	31868.73
519.27	31615.96
519.45	31962.36
519.62	32098.11
519.79	32306.41
519.96	31969.38
520.14	32313.44
520.31	31957.67
520.48	32498.34
520.65	32238.54
520.83	32980.49
521.00	32591.96
521.17	32685.58
521.34	33055.39
521.52	33132.62
521.69	32865.80
521.86	33275.40
522.03	33163.05
522.20	32856.44
522.38	33516.47
522.55	33572.64
522.72	33446.26
522.89	33275.40
523.07	33729.46
523.24	33446.26
523.41	33570.30
523.58	33287.10
523.75	33654.56
523.92	33619.46
524.10	33153.69
524.27	33738.82
524.44	34155.44
524.61	34291.19
524.78	33759.89
524.96	34288.85
525.13	34361.40
525.30	34536.94
525.47	34829.51
525.64	34693.76
525.81	34892.71
525.98	34595.46
526.16	34480.77
526.33	34651.63
526.50	35012.07
526.67	34167.14
526.84	34684.40
527.01	34642.27
527.18	34974.63
527.36	34944.20
527.53	35276.55
527.70	35248.47
527.87	35498.91
528.04	35096.33
528.21	35332.73
528.38	35112.72
528.55	35297.62
528.72	35835.94
528.89	35452.09
529.07	35267.19
529.24	35672.10
529.41	35491.88
529.58	35901.48
529.75	35695.51
529.92	35835.94
530.09	35566.78
530.26	35945.95
530.43	35871.05
530.60	35896.80
530.77	35857.01
530.94	36147.23
531.11	36182.34
531.28	35985.74
531.46	36070.00
531.63	36718.32
531.80	36290.01
531.97	36486.61
532.14	36290.01
532.31	36811.95
532.48	36809.61
532.65	36854.08
532.82	36790.88
532.99	36580.23
533.16	36680.88
533.33	36889.18
533.50	37020.25
533.67	37078.77
533.84	36793.22
534.01	37099.83
534.18	36854.08
534.35	37553.90
534.52	37408.78
534.69	37846.46
534.86	37221.54
535.03	37088.13
535.20	37436.87
535.37	37654.54
535.54	37792.63
535.71	37825.40
535.88	37724.75
536.05	37848.80
536.22	37996.26
536.38	37743.48
536.55	37579.64
536.72	38108.60
536.89	37743.48
537.06	37710.71
537.23	38103.92
537.40	37631.13
537.57	37862.85
537.74	38281.80
537.91	38522.88
538.08	38251.38
538.25	37666.24
538.42	38059.45
538.59	38850.55
538.75	38677.35
538.92	38565.01
539.09	38843.53
539.26	38398.83
539.43	38752.25
539.60	38665.65
539.77	38780.34
539.94	39058.86
540.11	38747.57
540.28	39225.04
540.44	38824.81
540.61	38609.48
540.78	38871.62
540.95	38759.27
541.12	39236.74
541.29	39339.72
541.46	39122.05
541.62	39267.17
541.79	39084.61
541.96	38850.55
542.13	39477.82
542.30	39533.99
542.47	39241.42
542.63	39590.16
542.80	39533.99
542.97	39854.64
543.14	39913.16
543.31	39452.07
543.48	40088.70
543.64	40013.80
543.81	40198.70
543.98	40126.14
544.15	40259.55
544.32	40130.83
544.48	40161.25
544.65	40402.33
544.82	40460.84
544.99	40013.80
545.16	40250.19
545.32	40360.20
545.49	40746.39
545.66	40886.82
545.83	40399.99
546.00	40643.40
546.16	40479.57
546.33	40620.00
546.50	40863.41
546.67	41144.28
546.83	40201.04
547.00	40486.59
547.17	40563.82
547.34	40945.33
547.50	41003.85
547.67	41476.63
547.84	41256.62
548.00	40935.97
548.17	41759.84
548.34	41415.78
548.51	41163.00
548.67	40849.37
548.84	40938.31
549.01	41148.96
549.18	41097.47
549.34	41565.57
549.51	41251.94
549.68	41205.13
549.84	41530.47
550.01	41207.47
550.18	41209.81
550.34	41511.74
550.51	41642.81
550.68	41848.78
550.84	41516.42
551.01	42054.75
551.18	41148.96
551.34	41474.29
551.51	41921.34
551.68	41638.13
551.84	41731.75
552.01	41738.77
552.18	42153.05
552.34	41832.39
552.51	42024.32
552.68	41844.10
552.84	41949.42
553.01	42216.24
553.18	41780.90
553.34	42211.56
553.51	42082.83
553.67	42181.13
553.84	42199.86
554.01	42127.30
554.17	42344.97
554.34	42316.89
554.51	42440.93
554.67	42642.22
554.84	42990.96
555.00	42431.57
555.17	42368.38
555.33	42513.49
555.50	42794.36
555.67	42714.78
555.83	42483.06
556.00	42670.31
556.16	43229.69
556.33	43002.66
556.50	43040.11
556.66	42576.69
556.83	42539.24
556.99	42981.60
557.16	43159.48
557.32	43126.71
557.49	43213.31
557.65	42300.50
557.82	43124.37
557.98	43185.22
558.15	43309.27
558.32	42979.26
558.48	43299.91
558.65	43129.05
558.81	43096.28
558.98	43391.19
559.14	43016.71
559.31	43063.52
559.47	43210.97
559.64	43849.94
559.80	42965.21
559.97	43419.28
560.13	43159.48
560.30	43449.70
560.46	43716.53
560.63	43501.20
560.79	43800.79
560.96	43611.20
561.12	43716.53
561.29	43969.30
561.45	43690.78
561.61	43693.12
561.78	43515.24
561.94	43938.88
562.11	43700.14
562.27	44079.31
562.44	43622.90
562.60	43934.20
562.77	43983.35
562.93	43569.07
563.10	43775.04
563.26	44219.74
563.42	44123.78
563.59	43540.99
563.75	43679.08
563.92	43981.01
564.08	44470.18
564.24	44114.42
564.41	44095.69
564.57	43796.10
564.74	43906.11
564.90	43564.39
565.07	44091.01
565.23	44083.99
565.39	44322.72
565.56	44334.43
565.72	44217.40
565.88	43955.26
566.05	43859.30
566.21	44023.14
566.38	43824.19
566.54	44231.44
566.70	44278.25
566.87	43941.22
567.03	43849.94
567.19	44158.89
567.36	44430.39
567.52	44182.29
567.68	44519.33
567.85	44615.29
568.01	44722.96
568.17	44182.29
568.34	44439.75
568.50	44442.09
568.66	44360.17
568.83	44549.76
568.99	44509.97
569.15	44470.18
569.32	43875.68
569.48	44678.49
569.64	44772.11
569.81	44259.53
569.97	44509.97
570.13	44502.95
570.30	44460.82
570.46	44615.29
570.62	44432.73
570.78	44648.06
570.95	44535.71
571.11	44287.62
571.27	44676.15
571.43	44636.36
571.60	44605.93
571.76	44439.75
571.92	44252.51
572.09	44645.72
572.25	44725.30
572.41	44694.87
572.57	44912.54
572.74	44928.92
572.90	44664.44
573.06	44940.63
573.22	44690.19
573.38	44978.07
573.55	45200.43
573.71	45230.85
573.87	44861.05
574.03	44804.88
574.20	45125.53
574.36	44865.73
574.52	45003.82
574.68	45052.97
574.84	44807.22
575.01	44858.71
575.17	45097.44
575.33	44837.64
575.49	44708.91
575.65	45167.66
575.82	45198.09
575.98	44659.76
576.14	45088.08
576.30	44994.46
576.46	45050.63
576.62	44811.90
576.79	44533.37
576.95	44594.23
577.11	44898.50
577.27	44484.22
577.43	45258.94
577.59	44978.07
577.75	44568.48
577.92	44727.64
578.08	44875.09
578.24	45375.97
578.40	45120.85
578.56	45123.19
578.72	45184.04
578.88	45027.23
579.04	44889.13
579.21	44999.14
579.37	45118.51
579.53	45125.53
579.69	44842.32
579.85	44626.99
580.01	45340.86
580.17	45064.67
580.33	45448.52
580.49	45310.43
580.65	45104.46
580.82	44816.58
580.98	45057.65
581.14	44669.12
581.30	45338.52
581.46	45106.80
581.62	45219.15
581.78	44924.24
581.94	45429.80
582.10	45020.20
582.26	45034.25
582.42	44727.64
582.58	45102.12
582.74	45741.09
582.90	45207.45
583.06	44868.07
583.22	45312.77
583.38	45469.59
583.54	45567.89
583.70	45162.98
583.86	45090.42
584.02	45443.84
584.18	45418.10
584.34	45380.65
584.50	45591.30
584.66	45490.65
584.82	45289.37
584.98	45610.02
585.14	45453.20
585.30	45116.17
585.46	45146.59
585.62	45174.68
585.78	45478.95
585.94	45394.69
586.10	45287.03
586.26	45120.85
586.42	45162.98
586.58	45219.15
586.74	45610.02
586.90	44765.09
587.06	45317.45
587.22	45476.61
587.38	44893.82
587.54	45326.81
587.70	45603.00
587.86	44973.39
588.02	45411.07
588.18	45214.47
588.34	45432.14
588.49	45170.00
588.65	45549.17
588.81	45425.12
588.97	45462.57
589.13	45254.26
589.29	45387.67
589.45	45745.77
589.61	45390.01
589.77	45326.81
589.93	45528.10
590.08	45654.49
