SpectraSuite Data File
++++++++++++++++++++++++++++++++++++
Date: Fri Oct 25 11:34:44 EDT 2013
User: price-jones
Dark Spectrum Present: No
Reference Spectrum Present: No
Number of Sampled Component Spectra: 1
Spectrometers: USB2+H05261
Integration Time (usec): 100000 (USB2+H05261)
Spectra Averaged: 1 (USB2+H05261)
Boxcar Smoothing: 0 (USB2+H05261)
Correct for Electrical Dark: No (USB2+H05261)
Strobe/Lamp Enabled: No (USB2+H05261)
Correct for Detector Non-linearity: No (USB2+H05261)
Correct for Stray Light: No (USB2+H05261)
Number of Pixels in Processed Spectrum: 2048
>>>>>Begin Processed Spectral Data<<<<<
365.73	276.18
365.92	276.18
366.12	276.18
366.32	201.29
366.52	149.79
366.72	231.71
366.91	161.50
367.11	173.20
367.31	154.48
367.51	154.48
367.70	220.01
367.90	194.26
368.10	191.92
368.30	182.56
368.49	145.11
368.69	205.97
368.89	138.09
369.09	177.88
369.28	280.86
369.48	140.43
369.68	250.44
369.87	231.71
370.07	243.42
370.27	292.57
370.47	318.31
370.66	493.85
370.86	531.30
371.06	528.96
371.25	617.90
371.45	543.00
371.65	568.75
371.84	484.49
372.04	500.87
372.24	575.77
372.44	517.26
372.63	594.50
372.83	571.09
373.03	585.13
373.22	503.22
373.42	568.75
373.62	594.50
373.81	681.10
374.01	664.71
374.21	650.67
374.40	603.86
374.60	559.39
374.79	620.24
374.99	702.16
375.19	615.56
375.38	648.33
375.58	655.35
375.78	667.05
375.97	676.41
376.17	685.78
376.37	662.37
376.56	601.52
376.76	606.20
376.95	627.26
377.15	662.37
377.35	744.29
377.54	702.16
377.74	681.10
377.93	657.69
378.13	734.93
378.33	758.33
378.52	671.73
378.72	720.88
378.91	725.57
379.11	629.60
379.31	685.78
379.50	695.14
379.70	676.41
379.89	725.57
380.09	674.07
380.28	716.20
380.48	676.41
380.68	699.82
380.87	709.18
381.07	690.46
381.26	746.63
381.46	746.63
381.65	744.29
381.85	753.65
382.04	753.65
382.24	770.04
382.43	730.25
382.63	739.61
382.83	763.01
383.02	692.80
383.22	779.40
383.41	837.91
383.61	802.80
383.80	765.36
384.00	828.55
384.19	833.23
384.39	748.97
384.58	851.96
384.78	805.14
384.97	727.91
385.17	802.80
385.36	779.40
385.56	760.67
385.75	791.10
385.95	856.64
386.14	858.98
386.34	816.85
386.53	858.98
386.72	875.36
386.92	758.33
387.11	959.62
387.31	849.61
387.50	884.72
387.70	779.40
387.89	830.89
388.09	837.91
388.28	840.25
388.48	905.79
388.67	936.21
388.86	912.81
389.06	901.11
389.25	894.08
389.45	980.68
389.64	851.96
389.84	875.36
390.03	924.51
390.22	938.55
390.42	938.55
390.61	875.36
390.81	894.08
391.00	910.47
391.19	1004.09
391.39	931.53
391.58	983.02
391.78	952.60
391.97	990.05
392.16	994.73
392.36	1013.45
392.55	983.02
392.75	1001.75
392.94	1128.14
393.13	1093.03
393.33	1090.69
393.52	985.37
393.71	1034.52
393.91	1057.92
394.10	1078.99
394.29	1046.22
394.49	1086.01
394.68	1039.20
394.88	1050.90
395.07	1046.22
395.26	1153.88
395.46	1142.18
395.65	1174.95
395.84	1200.69
396.04	1214.74
396.23	1104.73
396.42	1163.25
396.62	1207.72
396.81	1167.93
397.00	1149.20
397.19	1224.10
397.39	1188.99
397.58	1207.72
397.77	1146.86
397.97	1200.69
398.16	1259.21
398.35	1198.35
398.55	1242.82
398.74	1184.31
398.93	1256.87
399.12	1270.91
399.32	1235.80
399.51	1259.21
399.70	1289.64
399.90	1394.96
400.09	1294.32
400.28	1348.15
400.47	1296.66
400.67	1336.45
400.86	1296.66
401.05	1291.98
401.24	1343.47
401.44	1434.75
401.63	1380.92
401.82	1385.60
402.01	1376.24
402.21	1418.36
402.40	1385.60
402.59	1432.41
402.78	1411.34
402.97	1462.83
403.17	1493.26
403.36	1483.90
403.55	1427.73
403.74	1565.82
403.93	1455.81
404.13	1575.18
404.32	1603.27
404.51	1530.71
404.70	1575.18
404.89	1533.05
405.09	1666.46
405.28	1591.56
405.47	1612.63
405.66	1579.86
405.85	1640.72
406.05	1652.42
406.24	1685.19
406.43	1624.33
406.62	1668.80
406.81	1732.00
407.00	1687.53
407.20	1703.91
407.39	1710.93
407.58	1802.21
407.77	1764.76
407.96	1792.85
408.15	1741.36
408.34	1816.26
408.54	1907.54
408.73	1893.49
408.92	1849.02
409.11	1907.54
409.30	1928.60
409.49	1914.56
409.68	1944.99
409.87	1921.58
410.07	1888.81
410.26	1947.33
410.45	2040.95
410.64	1870.09
410.83	2005.84
411.02	2050.31
411.21	2015.20
411.40	2087.76
411.59	2033.93
411.78	2080.74
411.98	2134.57
412.17	2118.18
412.36	2209.47
412.55	2214.15
412.74	2197.76
412.93	2246.91
413.12	2244.57
413.31	2338.20
413.50	2209.47
413.69	2314.79
413.88	2417.77
414.07	2352.24
414.26	2399.05
414.45	2420.11
414.64	2382.67
414.83	2420.11
415.02	2546.50
415.22	2520.76
415.41	2630.76
415.60	2499.69
415.79	2605.02
415.98	2600.34
416.17	2626.08
416.36	2590.97
416.55	2621.40
416.74	2724.38
416.93	2562.89
417.12	2696.30
417.31	2757.15
417.50	2747.79
417.69	2888.22
417.88	2904.60
418.07	2796.94
418.26	2759.49
418.45	2888.22
418.64	2986.52
418.83	2909.29
419.02	3014.61
419.21	3002.91
419.39	3007.59
419.58	2993.55
419.77	2965.46
419.96	3089.51
420.15	3028.65
420.34	2963.12
420.53	3019.29
420.72	3089.51
420.91	2993.55
421.10	3052.06
421.29	3187.81
421.48	3103.55
421.67	3204.19
421.86	3084.83
422.05	3227.60
422.24	3162.06
422.43	3213.56
422.61	3169.09
422.80	3265.05
422.99	3187.81
423.18	3103.55
423.37	3112.91
423.56	3138.66
423.75	3187.81
423.94	3213.56
424.13	3066.10
424.32	3190.15
424.50	3243.98
424.69	3267.39
424.88	3307.18
425.07	3290.79
425.26	3180.79
425.45	3265.05
425.64	3192.49
425.83	3288.45
426.01	3269.73
426.20	3194.83
426.39	3384.41
426.58	3220.58
426.77	3295.47
426.96	3323.56
427.15	3365.69
427.33	3351.65
427.52	3325.90
427.71	3412.50
427.90	3375.05
428.09	3564.64
428.28	3478.04
428.46	3559.95
428.65	3445.27
428.84	3658.26
429.03	3669.96
429.22	3393.78
429.40	3524.85
429.59	3550.59
429.78	3356.33
429.97	3370.37
430.16	3676.98
430.34	3536.55
430.53	3662.94
430.72	3630.17
430.91	3765.92
431.10	3574.00
431.28	3836.14
431.47	3857.20
431.66	3829.12
431.85	3712.09
432.03	3831.46
432.22	3948.48
432.41	3892.31
432.60	3817.41
432.79	3786.99
432.97	3948.48
433.16	3990.61
433.35	3838.48
433.54	4063.17
433.72	4030.40
433.91	3906.35
434.10	3953.16
434.28	3906.35
434.47	3967.21
434.66	4030.40
434.85	4182.54
435.03	4058.49
435.22	4161.47
435.41	4283.18
435.59	4135.73
435.78	4145.09
435.97	4142.75
436.16	4224.67
436.34	4138.07
436.53	4189.56
436.72	4327.65
436.90	4266.80
437.09	4327.65
437.28	4114.66
437.46	4358.08
437.65	4372.12
437.84	4475.10
438.02	4360.42
438.21	4329.99
438.40	4383.82
438.58	4472.76
438.77	4582.77
438.96	4528.94
439.14	4662.35
439.33	4702.14
439.52	4748.95
439.70	4699.80
439.89	4793.42
440.08	4713.84
440.26	4730.22
440.45	4868.31
440.63	4924.49
440.82	4971.30
441.01	4856.61
441.19	5011.09
441.38	4999.38
441.57	4959.60
441.75	4943.21
441.94	5085.98
442.12	5130.45
442.31	5207.69
442.50	5195.99
442.68	5226.42
442.87	4985.34
443.05	5322.38
443.24	5334.08
443.43	5294.29
443.61	5322.38
443.80	5254.50
443.98	5193.65
444.17	5083.64
444.35	5158.54
444.54	5364.51
444.73	5322.38
444.91	5507.28
445.10	5226.42
445.28	5320.04
445.47	5322.38
445.65	5287.27
445.84	5476.85
446.02	5518.98
446.21	5502.60
446.39	5256.84
446.58	5270.89
446.77	5472.17
446.95	5249.82
447.14	5313.02
447.32	5523.66
447.51	5441.75
447.69	5554.09
447.88	5561.11
448.06	5483.88
448.25	5441.75
448.43	5528.35
448.62	5535.37
448.80	5317.70
448.99	5610.26
449.17	5593.88
449.36	5654.73
449.54	5596.22
449.73	5774.10
449.91	5818.57
450.10	5729.63
450.28	5699.20
450.46	5846.66
450.65	5783.46
450.83	5710.91
451.02	5820.91
451.20	5935.60
451.39	5790.49
451.57	5834.96
451.76	5937.94
451.94	5919.21
452.13	5926.24
452.31	6057.31
452.49	5856.02
452.68	6005.81
452.86	6066.67
453.05	6033.90
453.23	5991.77
453.42	5891.13
453.60	6003.47
453.78	5998.79
453.97	6118.16
454.15	6052.63
454.34	5963.68
454.52	6216.46
454.70	6150.93
454.89	6230.51
455.07	6239.87
455.26	6361.58
455.44	6354.55
455.62	6239.87
455.81	6345.19
455.99	6260.93
456.17	6408.39
456.36	6497.33
456.54	6436.47
456.73	6569.88
456.91	6703.29
457.09	6579.25
457.28	6700.95
457.46	6619.04
457.64	6684.57
457.83	6895.22
458.01	6576.91
458.19	6857.77
458.38	6740.74
458.56	6939.69
458.74	6820.32
458.93	6806.28
459.11	6731.38
459.29	7000.54
459.48	6942.03
459.66	6972.46
459.84	6909.26
460.03	7087.14
460.21	6932.67
460.39	7166.72
460.57	6939.69
460.76	7197.15
460.94	7042.67
461.12	7101.19
461.31	7066.08
461.49	7157.36
461.67	7215.87
461.85	7166.72
462.04	7131.61
462.22	7363.33
462.40	7346.94
462.59	7194.81
462.77	7307.15
462.95	7620.78
463.13	7222.89
463.32	7379.71
463.50	7447.58
463.68	7590.36
463.86	7531.84
464.05	7199.49
464.23	7309.49
464.41	7428.86
464.59	7356.30
464.78	7777.60
464.96	7566.95
465.14	7473.33
465.32	7709.72
465.50	7810.37
465.69	7791.64
465.87	7705.04
466.05	7761.22
466.23	7660.57
466.41	7775.26
466.60	8002.29
466.78	7660.57
466.96	7721.43
467.14	7901.65
467.32	7878.24
467.51	8074.85
467.69	7726.11
467.87	7859.52
468.05	7878.24
468.23	7801.01
468.41	8032.72
468.60	8056.12
468.78	8166.13
468.96	8042.08
469.14	8145.06
469.32	8093.57
469.50	7967.18
469.69	8086.55
469.87	8334.65
470.05	8222.30
470.23	8191.88
470.41	8353.37
470.59	8423.59
470.77	8322.94
470.95	8446.99
471.14	8421.25
471.32	8229.32
471.50	8472.74
471.68	8393.16
471.86	8688.07
472.04	8655.30
472.22	8732.54
472.40	8580.40
472.58	8865.95
472.77	8777.01
472.95	8711.47
473.13	9128.09
473.31	8910.42
473.49	8826.16
473.67	9067.24
473.85	9118.73
474.03	9284.91
474.21	9116.39
474.39	9217.03
474.57	9268.52
474.75	9160.86
474.93	9310.65
475.12	9533.00
475.30	9575.13
475.48	9570.45
475.66	9497.89
475.84	9525.98
476.02	9582.15
476.20	9584.49
476.38	9886.42
476.56	10047.92
476.74	10036.22
476.92	9778.76
477.10	9994.09
477.28	10047.92
477.46	10054.94
477.64	10127.50
477.82	10157.92
478.00	10597.95
478.18	10342.83
478.36	10527.73
478.54	10895.19
478.72	10684.55
478.90	10668.16
479.08	10981.79
479.26	10911.58
479.44	11131.59
479.62	11096.48
479.80	11300.11
479.98	11358.62
480.16	11559.91
480.34	11545.86
480.52	11733.11
480.70	11463.94
480.88	11356.28
481.06	11552.88
481.24	11967.16
481.41	11988.22
481.59	12119.29
481.77	11920.35
481.95	12365.05
482.13	12161.42
482.31	12266.75
482.49	12566.34
482.67	12503.14
482.85	12678.68
483.03	12767.62
483.21	12882.31
483.39	13043.81
483.57	13034.44
483.74	13128.06
483.92	13317.65
484.10	13277.86
484.28	13586.81
484.46	13837.25
484.64	13771.71
484.82	13631.28
485.00	13724.90
485.18	14005.77
485.35	14075.98
485.53	14321.74
485.71	14370.89
485.89	14750.06
486.07	14487.92
486.25	14553.45
486.43	14813.25
486.61	14871.76
486.78	15136.24
486.96	14934.96
487.14	15075.39
487.32	15183.06
487.50	15302.42
487.68	15700.31
487.85	15655.84
488.03	15871.17
488.21	16278.43
488.39	16135.65
488.57	16037.35
488.75	16240.98
488.92	16676.32
489.10	16613.12
489.28	16779.30
489.46	16690.36
489.64	16634.19
489.81	17099.95
489.99	17106.98
490.17	17114.00
490.35	17472.10
490.53	17561.04
490.70	17827.86
490.88	17406.56
491.06	17678.07
491.24	17607.85
491.41	17855.95
491.59	18043.19
491.77	18066.60
491.95	18202.35
492.13	18450.44
492.30	18267.88
492.48	18625.98
492.66	18530.02
492.84	18621.30
493.01	19023.87
493.19	18904.51
493.37	19068.34
493.54	19180.69
493.72	19433.47
493.90	19723.69
494.08	19660.50
494.25	19775.19
494.43	19594.96
494.61	20079.46
494.79	19988.18
494.96	19934.34
495.14	20203.50
495.32	20418.83
495.49	20577.99
495.67	20287.76
495.85	20987.58
496.02	20840.13
496.20	21298.88
496.38	21312.92
496.55	21074.18
496.73	21671.02
496.91	21474.42
497.09	21401.86
497.26	21532.93
497.44	21467.39
497.62	21790.39
497.79	22246.79
497.97	22211.68
498.14	22298.28
498.32	22347.44
498.50	22221.05
498.67	22464.46
498.85	22408.29
499.03	22501.91
499.20	22590.85
499.38	22661.07
499.56	23131.51
499.73	23105.77
499.91	23316.42
500.08	23164.28
500.26	23140.88
500.44	23307.05
500.61	23363.23
500.79	23257.90
500.97	23576.22
501.14	24144.97
501.32	23803.25
501.49	23985.81
501.67	23955.38
501.84	24030.28
502.02	23693.24
502.20	24023.26
502.37	24336.89
502.55	24201.14
502.72	24381.36
502.90	24318.17
503.07	24465.62
503.25	24465.62
503.43	24580.31
503.60	24896.28
503.78	24760.53
503.95	24849.47
504.13	24854.15
504.30	25214.59
504.48	25212.25
504.65	25326.94
504.83	25366.73
505.01	25357.36
505.18	25315.23
505.36	25820.79
505.53	25706.10
505.71	25844.20
505.88	25680.36
506.06	25659.29
506.23	26235.06
506.41	26218.68
506.58	26324.01
506.76	26139.10
506.93	26871.69
507.11	26665.72
507.28	26642.32
507.46	26295.92
507.63	26499.55
507.81	27042.55
507.98	26984.04
508.16	26766.37
508.33	27133.83
508.50	27103.40
508.68	27110.43
508.85	27309.37
509.03	27009.78
509.20	27384.27
509.38	27548.11
509.55	27749.39
509.73	27599.60
509.90	27718.96
510.08	27632.36
510.25	27866.42
510.42	28067.70
510.60	27850.03
510.77	28250.27
510.95	28493.68
511.12	28140.26
511.30	28320.48
511.47	28493.68
511.64	28318.14
511.82	28435.17
511.99	28875.19
512.17	28952.43
512.34	28264.31
512.51	29172.44
512.69	29024.98
512.86	28896.25
513.04	29146.69
513.21	29057.75
513.38	29270.74
513.56	29191.16
513.73	29261.38
513.90	29214.57
514.08	29357.34
514.25	29809.06
514.43	29600.76
514.60	29748.21
514.77	29605.44
514.95	29979.92
515.12	29902.68
515.29	29696.72
515.47	30087.59
515.64	30206.95
515.81	30204.61
515.99	30745.28
516.16	30412.92
516.33	30499.52
516.51	30960.61
516.68	30008.01
516.85	30361.43
517.03	30857.62
517.20	30682.08
517.37	30623.57
517.54	30902.09
517.72	30728.89
517.89	31161.89
518.06	31126.78
518.24	30918.48
518.41	30981.67
518.58	31204.02
518.75	30960.61
518.93	31594.89
519.10	31424.03
519.27	31557.44
519.45	31243.81
519.62	31742.35
519.79	31655.75
519.96	31564.46
520.14	31983.42
520.31	31828.95
520.48	32231.52
520.65	32105.13
520.83	32306.41
521.00	32828.35
521.17	32634.09
521.34	32591.96
521.52	32830.69
521.69	32554.51
521.86	32610.68
522.03	32744.09
522.20	32465.57
522.38	33104.54
522.55	33237.95
522.72	32882.19
522.89	33064.75
523.07	33200.50
523.24	33359.66
523.41	33099.86
523.58	33319.87
523.75	33593.71
523.92	33605.41
524.10	33706.05
524.27	33865.21
524.44	33907.34
524.61	33912.02
524.78	33757.55
524.96	33888.62
525.13	33790.31
525.30	34066.50
525.47	33923.72
525.64	34277.15
525.81	33769.25
525.98	34361.40
526.16	34307.57
526.33	34281.83
526.50	34513.54
526.67	34316.93
526.84	34382.47
527.01	34345.02
527.18	34600.14
527.36	34436.30
527.53	34213.95
527.70	34773.34
527.87	34953.56
528.04	34817.81
528.21	34939.52
528.38	34864.62
528.55	35021.44
528.72	34890.37
528.89	35019.10
529.07	35386.56
529.24	34766.32
529.41	35428.69
529.58	35196.98
529.75	35625.29
529.92	35651.04
530.09	35566.78
530.26	35515.29
530.43	35665.08
530.60	35346.77
530.77	35372.52
530.94	35548.06
531.11	35747.00
531.28	35742.32
531.46	35564.44
531.63	35793.81
531.80	36205.75
531.97	36217.45
532.14	35971.69
532.31	36308.73
532.48	36294.69
532.65	36252.56
532.82	36055.95
532.99	36411.71
533.16	36261.92
533.33	36620.02
533.50	36144.89
533.67	36594.28
533.84	36383.63
534.01	36898.55
534.18	36968.76
534.35	37034.30
534.52	37258.99
534.69	36973.44
534.86	37448.57
535.03	36774.50
535.20	37088.13
535.37	37034.30
535.54	36994.51
535.71	37062.38
535.88	37390.06
536.05	37188.77
536.22	37256.65
536.38	37186.43
536.55	37083.45
536.72	37677.94
536.89	37310.48
537.06	37453.25
537.23	37675.60
537.40	37366.65
537.57	37684.97
537.74	37617.09
537.91	37909.66
538.08	37853.48
538.25	37794.97
538.42	38092.22
538.59	37888.59
538.75	37897.95
538.92	38150.73
539.09	38497.13
539.26	38010.30
539.43	38043.07
539.60	38139.03
539.77	38330.95
539.94	38103.92
540.11	38181.16
540.28	38532.24
540.44	38466.70
540.61	38721.82
540.78	38340.32
540.95	38588.41
541.12	38710.12
541.29	38277.12
541.46	38581.39
541.62	38251.38
541.79	39136.10
541.96	38462.02
542.13	38806.08
542.30	38387.13
542.47	38902.04
542.63	39239.08
542.80	39466.11
542.97	39475.48
543.14	40201.04
543.31	39351.43
543.48	39210.99
543.64	39594.84
543.81	39805.49
543.98	39550.37
544.15	39641.65
544.32	39754.00
544.48	40032.52
544.65	39896.77
544.82	39908.47
544.99	39821.87
545.16	39793.79
545.32	39885.07
545.49	40322.75
545.66	40215.08
545.83	40011.46
546.00	40339.13
546.16	39866.34
546.33	40172.96
546.50	39974.01
546.67	40477.22
546.83	39613.57
547.00	40004.44
547.17	40322.75
547.34	40149.55
547.50	40715.96
547.67	40584.89
547.84	40348.50
548.00	40886.82
548.17	41045.97
548.34	40313.39
548.51	40720.64
548.67	41462.59
548.84	41146.62
549.01	40594.25
549.18	40776.81
549.34	40774.47
549.51	40891.50
549.68	40823.62
549.84	41455.57
550.01	41254.28
550.18	40573.19
550.34	41099.81
550.51	41481.31
550.68	41846.44
550.84	40910.22
551.01	41481.31
551.18	41504.72
551.34	41373.65
551.51	41724.73
551.68	41895.59
551.84	41022.57
552.01	41345.56
552.18	41577.28
552.34	41137.26
552.51	41673.24
552.68	41385.35
552.84	41394.71
553.01	41612.38
553.18	41563.23
553.34	41881.55
553.51	41296.41
553.67	41500.04
553.84	41890.91
554.01	41525.78
554.17	41916.65
554.34	42143.69
554.51	42031.34
554.67	42078.15
554.84	42204.54
555.00	42501.79
555.17	41886.23
555.33	42586.05
555.50	42342.63
555.67	42162.41
555.83	42370.72
556.00	42344.97
556.16	42499.45
556.33	42543.92
556.50	42588.39
556.66	42359.02
556.83	42321.57
556.99	42642.22
557.16	42707.76
557.32	42787.33
557.49	42583.71
557.65	42146.03
557.82	42607.11
557.98	42602.43
558.15	42433.91
558.32	42927.77
558.48	42354.33
558.65	42719.46
558.81	42497.11
558.98	42529.87
559.14	42515.83
559.31	42834.14
559.47	43168.84
559.64	43349.06
559.80	43166.50
559.97	42969.90
560.13	42632.86
560.30	42920.74
560.46	43316.29
560.63	43374.81
560.79	43239.06
560.96	43311.61
561.12	43014.37
561.29	43042.45
561.45	43056.50
561.61	43423.96
561.78	42951.17
561.94	43168.84
562.11	43365.45
562.27	43098.62
562.44	42993.30
562.60	43086.92
562.77	43388.85
562.93	43601.84
563.10	43381.83
563.26	43255.44
563.42	43491.83
563.59	43208.63
563.75	43508.22
563.92	43473.11
564.08	43386.51
564.24	43428.64
564.41	43655.67
564.57	43374.81
564.74	43840.57
564.90	43339.70
565.07	43363.11
565.23	43810.15
565.39	43910.79
565.56	43419.28
565.72	43292.89
565.88	43732.91
566.05	43735.25
566.21	43571.41
566.38	43966.96
566.54	43842.92
566.70	44039.52
566.87	43718.87
567.03	43093.94
567.19	43824.19
567.36	44168.25
567.52	43901.43
567.68	44023.14
567.85	43959.94
568.01	44399.96
568.17	43840.57
568.34	43992.71
568.50	43903.77
568.66	43578.43
568.83	44168.25
568.99	43704.82
569.15	44055.90
569.32	43749.29
569.48	43538.65
569.64	44304.00
569.81	43702.48
569.97	44414.01
570.13	44215.06
570.30	43990.37
570.46	44282.94
570.62	44381.24
570.78	44404.64
570.95	44184.63
571.11	44596.57
571.27	44032.50
571.43	44100.37
571.60	44062.93
571.76	43868.66
571.92	44327.41
572.09	44374.22
572.25	43910.79
572.41	43805.47
572.57	44292.30
572.74	44514.65
572.90	44540.39
573.06	44383.58
573.22	44327.41
573.38	44755.72
573.55	44692.53
573.71	44945.31
573.87	44491.24
574.03	44161.23
574.20	44629.34
574.36	44268.89
574.52	44708.91
574.68	44664.44
574.84	44868.07
575.01	44692.53
575.17	44809.56
575.33	44631.68
575.49	44458.48
575.65	44430.39
575.82	44863.39
575.98	43917.81
576.14	44737.00
576.30	44718.28
576.46	44360.17
576.62	44219.74
576.79	44699.55
576.95	44194.00
577.11	44264.21
577.27	44648.06
577.43	44140.16
577.59	44683.17
577.75	44236.12
577.92	44121.44
578.08	44542.74
578.24	44776.79
578.40	44692.53
578.56	44671.46
578.72	44250.17
578.88	44765.09
579.04	44634.02
579.21	44362.51
579.37	44493.58
579.53	44978.07
579.69	44453.79
579.85	44311.02
580.01	45137.23
580.17	44699.55
580.33	45057.65
580.49	44760.40
580.65	44673.81
580.82	44788.49
580.98	44603.59
581.14	44292.30
581.30	44594.23
581.46	44559.12
581.62	44371.88
581.78	44367.20
581.94	44732.32
582.10	44444.43
582.26	45085.74
582.42	44847.00
582.58	44882.11
582.74	44563.80
582.90	44893.82
583.06	44945.31
583.22	44524.01
583.38	44769.77
583.54	44657.42
583.70	44910.20
583.86	45036.59
584.02	44612.95
584.18	45333.84
584.34	44980.42
584.50	44741.68
584.66	45530.44
584.82	44729.98
584.98	45504.70
585.14	44985.10
585.30	44800.19
585.46	44825.94
585.62	44708.91
585.78	44966.37
585.94	44755.72
586.10	44650.40
586.26	44626.99
586.42	44243.15
586.58	44828.28
586.74	44865.73
586.90	44465.50
587.06	44385.92
587.22	44835.30
587.38	44781.47
587.54	44706.57
587.70	45317.45
587.86	45029.57
588.02	44966.37
588.18	44818.92
588.34	44823.60
588.49	45048.29
588.65	44720.62
588.81	44830.62
588.97	44968.71
589.13	44938.29
589.29	44568.48
589.45	45422.78
589.61	45429.80
589.77	45296.39
589.93	44898.50
590.08	45212.13
