SpectraSuite Data File
++++++++++++++++++++++++++++++++++++
Date: Fri Oct 25 10:47:16 EDT 2013
User: price-jones
Dark Spectrum Present: No
Reference Spectrum Present: No
Number of Sampled Component Spectra: 1
Spectrometers: USB2+H05261
Integration Time (usec): 100000 (USB2+H05261)
Spectra Averaged: 1 (USB2+H05261)
Boxcar Smoothing: 0 (USB2+H05261)
Correct for Electrical Dark: No (USB2+H05261)
Strobe/Lamp Enabled: No (USB2+H05261)
Correct for Detector Non-linearity: No (USB2+H05261)
Correct for Stray Light: No (USB2+H05261)
Number of Pixels in Processed Spectrum: 2048
>>>>>Begin Processed Spectral Data<<<<<
365.73	149.79
365.92	149.79
366.12	149.79
366.32	0.00
366.52	0.00
366.72	79.58
366.91	58.51
367.11	63.19
367.31	42.13
367.51	25.75
367.70	44.47
367.90	49.15
368.10	46.81
368.30	46.81
368.49	39.79
368.69	79.58
368.89	37.45
369.09	32.77
369.28	51.49
369.48	93.62
369.68	93.62
369.87	58.51
370.07	32.77
370.27	156.82
370.47	145.11
370.66	327.68
370.86	344.06
371.06	433.00
371.25	404.91
371.45	425.98
371.65	435.34
371.84	447.04
372.04	458.74
372.24	463.43
372.44	409.59
372.63	465.77
372.83	512.58
373.03	538.32
373.22	468.11
373.42	528.96
373.62	428.32
373.81	540.66
374.01	587.47
374.21	533.64
374.40	503.22
374.60	580.45
374.79	554.71
374.99	531.30
375.19	505.56
375.38	561.73
375.58	519.60
375.78	650.67
375.97	587.47
376.17	631.94
376.37	528.96
376.56	582.79
376.76	533.64
376.95	592.16
377.15	507.90
377.35	493.85
377.54	545.34
377.74	596.84
377.93	613.22
378.13	599.18
378.33	566.41
378.52	601.52
378.72	622.58
378.91	634.29
379.11	496.19
379.31	589.82
379.50	547.69
379.70	606.20
379.89	678.76
380.09	655.35
380.28	622.58
380.48	608.54
380.68	594.50
380.87	589.82
381.07	751.31
381.26	683.44
381.46	634.29
381.65	683.44
381.85	627.26
382.04	697.48
382.24	683.44
382.43	669.39
382.63	566.41
382.83	653.01
383.02	655.35
383.22	720.88
383.41	685.78
383.61	706.84
383.80	802.80
384.00	667.05
384.19	704.50
384.39	706.84
384.58	732.59
384.78	657.69
384.97	777.06
385.17	718.54
385.36	777.06
385.56	727.91
385.75	688.12
385.95	690.46
386.14	786.42
386.34	751.31
386.53	758.33
386.72	760.67
386.92	793.44
387.11	772.38
387.31	660.03
387.50	751.31
387.70	671.73
387.89	880.04
388.09	816.85
388.28	812.17
388.48	866.00
388.67	835.57
388.86	861.32
389.06	940.90
389.25	856.64
389.45	889.40
389.64	938.55
389.84	875.36
390.03	908.13
390.22	807.48
390.42	784.08
390.61	908.13
390.81	875.36
391.00	880.04
391.19	912.81
391.39	926.85
391.58	938.55
391.78	976.00
391.97	938.55
392.16	999.41
392.36	926.85
392.55	957.28
392.75	905.79
392.94	933.87
393.13	1013.45
393.33	933.87
393.52	929.19
393.71	1123.46
393.91	1069.62
394.10	997.07
394.29	1020.47
394.49	1146.86
394.68	997.07
394.88	1071.97
395.07	1081.33
395.26	1074.31
395.46	1135.16
395.65	1107.07
395.84	1158.57
396.04	1200.69
396.23	1111.75
396.42	1097.71
396.62	1039.20
396.81	1116.44
397.00	1095.37
397.19	1163.25
397.39	1184.31
397.58	1139.84
397.77	1135.16
397.97	1210.06
398.16	1111.75
398.35	1207.72
398.55	1231.12
398.74	1217.08
398.93	1350.49
399.12	1284.95
399.32	1240.48
399.51	1247.51
399.70	1371.55
399.90	1306.02
400.09	1212.40
400.28	1355.17
400.47	1259.21
400.67	1334.11
400.86	1385.60
401.05	1387.94
401.24	1455.81
401.44	1434.75
401.63	1413.68
401.82	1387.94
402.01	1371.55
402.21	1453.47
402.40	1441.77
402.59	1446.45
402.78	1535.39
402.97	1437.09
403.17	1514.33
403.36	1516.67
403.55	1542.41
403.74	1523.69
403.93	1607.95
404.13	1638.38
404.32	1579.86
404.51	1523.69
404.70	1638.38
404.89	1612.63
405.09	1727.32
405.28	1640.72
405.47	1598.59
405.66	1668.80
405.85	1715.61
406.05	1680.50
406.24	1746.04
406.43	1645.40
406.62	1764.76
406.81	1788.17
407.00	1741.36
407.20	1760.08
407.39	1785.83
407.58	1748.38
407.77	1842.00
407.96	1888.81
408.15	1867.75
408.34	1851.36
408.54	1844.34
408.73	1933.28
408.92	1900.52
409.11	1909.88
409.30	1851.36
409.49	1867.75
409.68	1991.80
409.87	2003.50
410.07	1975.41
410.26	2038.61
410.45	1877.11
410.64	2111.16
410.83	2040.95
411.02	1994.14
411.21	2174.36
411.40	2139.25
411.59	2157.97
411.78	2204.78
411.98	2136.91
412.17	2239.89
412.36	2263.30
412.55	2230.53
412.74	2366.28
412.93	2373.30
413.12	2202.44
413.31	2429.48
413.50	2282.02
413.69	2340.54
413.88	2431.82
414.07	2389.69
414.26	2513.74
414.45	2319.47
414.64	2370.96
414.83	2518.42
415.02	2558.21
415.22	2579.27
415.41	2686.94
415.60	2527.78
415.79	2595.65
415.98	2663.53
416.17	2715.02
416.36	2710.34
416.55	2813.32
416.74	2736.09
416.93	2764.17
417.12	2825.03
417.31	2794.60
417.50	2970.14
417.69	3038.02
417.88	2885.88
418.07	2836.73
418.26	2920.99
418.45	2977.16
418.64	2981.84
418.83	3042.70
419.02	2897.58
419.21	2977.16
419.39	3122.27
419.58	2986.52
419.77	2995.89
419.96	3091.85
420.15	3150.36
420.34	3019.29
420.53	3197.17
420.72	3269.73
420.91	3393.78
421.10	3155.04
421.29	3251.00
421.48	3178.45
421.67	3283.77
421.86	3133.98
422.05	3274.41
422.24	3339.94
422.43	3370.37
422.61	3361.01
422.80	3370.37
422.99	3225.26
423.18	3391.44
423.37	3419.52
423.56	3400.80
423.75	3417.18
423.94	3311.86
424.13	3176.11
424.32	3192.49
424.50	3468.67
424.69	3403.14
424.88	3442.93
425.07	3269.73
425.26	3356.33
425.45	3344.63
425.64	3321.22
425.83	3372.71
426.01	3522.51
426.20	3463.99
426.39	3370.37
426.58	3506.12
426.77	3473.36
426.96	3550.59
427.15	3440.59
427.33	3456.97
427.52	3522.51
427.71	3475.70
427.90	3672.30
428.09	3590.38
428.28	3503.78
428.46	3632.51
428.65	3667.62
428.84	3716.77
429.03	3850.18
429.22	3604.42
429.40	3714.43
429.59	3700.39
429.78	3623.15
429.97	3611.45
430.16	3613.79
430.34	3733.15
430.53	3726.13
430.72	3756.56
430.91	3744.86
431.10	3733.15
431.28	3833.80
431.47	3950.82
431.66	4072.53
431.85	3871.25
432.03	4053.81
432.22	3913.38
432.41	3981.25
432.60	3953.16
432.79	3981.25
432.97	4145.09
433.16	4138.07
433.35	4002.32
433.54	3974.23
433.72	4072.53
433.91	4067.85
434.10	4084.23
434.28	4119.34
434.47	4238.71
434.66	4149.77
434.85	4243.39
435.03	4159.13
435.22	4348.72
435.41	4315.95
435.59	4241.05
435.78	4367.44
435.97	4360.42
436.16	4332.33
436.34	4231.69
436.53	4353.40
436.72	4397.87
436.90	4271.48
437.09	4514.89
437.28	4503.19
437.46	4482.13
437.65	4440.00
437.84	4652.98
438.02	4599.15
438.21	4550.00
438.40	4554.68
438.58	4601.49
438.77	4510.21
438.96	4603.83
439.14	4908.10
439.33	4931.51
439.52	4847.25
439.70	4847.25
439.89	4922.15
440.08	4819.16
440.26	4908.10
440.45	4784.06
440.63	5095.35
440.82	5060.24
441.01	5163.22
441.19	5074.28
441.38	5224.08
441.57	5153.86
441.75	5165.56
441.94	5413.66
442.12	5160.88
442.31	5444.09
442.50	5383.23
442.68	5294.29
442.87	5530.69
443.05	5338.76
443.24	5701.54
443.43	5401.96
443.61	5572.82
443.80	5708.57
443.98	5495.58
444.17	5280.25
444.35	5579.84
444.54	5617.29
444.73	5600.90
444.91	5521.32
445.10	5523.66
445.28	5666.44
445.47	5544.73
445.65	5647.71
445.84	5495.58
446.02	5600.90
446.21	5671.12
446.39	5561.11
446.58	5788.14
446.77	5582.18
446.95	5406.64
447.14	5778.78
447.32	5778.78
447.51	5753.04
447.69	5881.77
447.88	5701.54
448.06	5809.21
448.25	5692.18
448.43	5755.38
448.62	5661.76
448.80	5621.97
448.99	5636.01
449.17	5905.17
449.36	5790.49
449.54	5860.70
449.73	6059.65
449.91	6064.33
450.10	6005.81
450.28	6141.57
450.46	6127.52
450.65	6061.99
450.83	6066.67
451.02	6029.22
451.20	6113.48
451.39	6069.01
451.57	6108.80
451.76	5928.58
451.94	6125.18
452.13	6228.17
452.31	6136.88
452.49	6017.52
452.68	6228.17
452.86	6167.31
453.05	6286.68
453.23	6228.17
453.42	6190.72
453.60	6272.64
453.78	6427.11
453.97	6188.38
454.15	6464.56
454.34	6469.24
454.52	6462.22
454.70	6445.84
454.89	6593.29
455.07	6413.07
455.26	6506.69
455.44	6740.74
455.62	6614.35
455.81	6583.93
455.99	6602.65
456.17	6825.00
456.36	6860.11
456.54	7009.90
456.73	6808.62
456.91	6932.67
457.09	6935.01
457.28	6970.12
457.46	7033.31
457.64	6935.01
457.83	6876.49
458.01	6808.62
458.19	6942.03
458.38	7026.29
458.56	7098.84
458.74	7075.44
458.93	7026.29
459.11	7115.23
459.29	7171.40
459.48	7098.84
459.66	7166.72
459.84	7145.66
460.03	7293.11
460.21	7215.87
460.39	7178.42
460.57	7353.96
460.76	7360.98
460.94	7393.75
461.12	7466.31
461.31	7515.46
461.49	7279.07
461.67	7389.07
461.85	7667.60
462.04	7555.25
462.22	7976.55
462.40	7555.25
462.59	7466.31
462.77	7634.83
462.95	7688.66
463.13	7824.41
463.32	7733.13
463.50	7698.02
463.68	7784.62
463.86	7723.77
464.05	7602.06
464.23	7808.03
464.41	7929.74
464.59	7714.41
464.78	7810.37
464.96	7971.86
465.14	7843.14
465.32	8093.57
465.50	8180.17
465.69	7990.59
465.87	7838.45
466.05	7875.90
466.23	7969.52
466.41	8035.06
466.60	8322.94
466.78	8124.00
466.96	7861.86
467.14	8095.91
467.32	8140.38
467.51	8243.37
467.69	7990.59
467.87	8163.79
468.05	8292.52
468.23	8479.76
468.41	8088.89
468.60	8280.82
468.78	8177.83
468.96	8262.09
469.14	8620.19
469.32	8521.89
469.50	8304.22
469.69	8358.05
469.87	8472.74
470.05	8514.87
470.23	8683.39
470.41	8435.29
470.59	8762.97
470.77	8650.62
470.95	8798.07
471.14	8746.58
471.32	8784.03
471.50	8688.07
471.68	8802.75
471.86	8933.82
472.04	8959.57
472.22	9114.05
472.40	8837.86
472.58	9001.70
472.77	8957.23
472.95	9186.60
473.13	9252.14
473.31	8985.32
473.49	9280.22
473.67	9247.46
473.85	9355.12
474.03	9516.62
474.21	9441.72
474.39	9692.16
474.57	9650.03
474.75	9348.10
474.93	9659.39
475.12	9776.42
475.30	9802.16
475.48	9610.24
475.66	9774.08
475.84	9870.04
476.02	9830.25
476.20	10052.60
476.38	9961.32
476.56	10541.77
476.74	10342.83
476.92	10232.82
477.10	10366.23
477.28	10452.83
477.46	10562.84
477.64	10579.22
477.82	10761.78
478.00	10937.32
478.18	11021.58
478.36	10841.36
478.54	11023.92
478.72	10981.79
478.90	11330.53
479.08	11185.42
479.26	11407.77
479.44	11613.74
479.62	11597.35
479.80	11419.47
479.98	11716.72
480.16	12121.63
480.34	11910.99
480.52	12035.03
480.70	12044.40
480.88	12009.29
481.06	12411.86
481.24	12219.94
481.41	12428.24
481.59	12645.91
481.77	12461.01
481.95	12709.11
482.13	12613.15
482.31	12669.32
482.49	13158.49
482.67	13118.70
482.85	12992.31
483.03	13172.54
483.21	13263.82
483.39	13596.17
483.57	13317.65
483.74	13851.29
483.92	13703.84
484.10	13610.22
484.28	13870.01
484.46	14183.65
484.64	14448.13
484.82	14033.85
485.00	14506.64
485.18	14675.16
485.35	14607.28
485.53	14548.77
485.71	14459.83
485.89	14937.30
486.07	14857.72
486.25	14607.28
486.43	14944.32
486.61	15297.74
486.78	15480.30
486.96	15578.61
487.14	15346.89
487.32	15899.26
487.50	15803.30
487.68	15800.96
487.85	16063.10
488.03	16170.76
488.21	16325.24
488.39	16327.58
488.57	16783.98
488.75	16725.47
488.92	17022.72
489.10	17191.23
489.28	17291.88
489.46	17247.41
489.64	17170.17
489.81	17771.69
489.99	17350.39
490.17	17577.42
490.35	17994.04
490.53	17802.11
490.70	18064.25
490.88	18312.35
491.06	18534.70
491.24	18394.27
491.41	18288.95
491.59	18616.62
491.77	18464.49
491.95	18731.31
492.13	18656.41
492.30	19091.75
492.48	19187.71
492.66	19314.10
492.84	19271.97
493.01	19475.60
493.19	19213.46
493.37	19950.73
493.54	19934.34
493.72	20243.29
493.90	20091.16
494.08	20006.90
494.25	20198.82
494.43	20472.67
494.61	20498.41
494.79	20460.96
494.96	20833.11
495.14	20929.07
495.32	20875.24
495.49	20917.37
495.67	21207.59
495.85	21287.17
496.02	21238.02
496.20	21610.17
496.38	21579.74
496.55	21675.70
496.73	22356.80
496.91	21680.38
497.09	21994.01
497.26	22274.88
497.44	22089.98
497.62	22214.02
497.79	22754.69
497.97	22293.60
498.14	22796.82
498.32	22881.08
498.50	22759.37
498.67	23002.78
498.85	23377.27
499.03	23608.98
499.20	23477.91
499.38	23576.22
499.56	23417.06
499.73	23894.53
499.91	23679.20
500.08	23634.73
500.26	23562.17
500.44	23723.67
500.61	24189.44
500.79	23669.84
500.97	24128.58
501.14	24606.05
501.32	24556.90
501.49	24133.26
501.67	24584.99
501.84	24519.45
502.02	24725.42
502.20	24788.61
502.37	24690.31
502.55	24723.08
502.72	24833.08
502.90	24926.71
503.07	25043.73
503.25	24896.28
503.43	25181.82
503.60	25642.91
503.78	25111.61
503.95	25413.54
504.13	25834.83
504.30	25970.58
504.48	25607.80
504.65	26073.57
504.83	26052.50
505.01	25872.28
505.18	26244.43
505.36	26167.19
505.53	26005.69
505.71	26239.75
505.88	26508.91
506.06	26316.98
506.23	26654.02
506.41	26693.81
506.58	26857.65
506.76	26738.28
506.93	26920.84
507.11	27033.19
507.28	27292.99
507.46	26972.33
507.63	27463.85
507.81	27304.69
507.98	26991.06
508.16	27384.27
508.33	27131.49
508.50	27627.68
508.68	27831.31
508.85	27733.01
509.03	27828.97
509.20	27828.97
509.38	28339.21
509.55	28383.68
509.73	28290.06
509.90	28489.00
510.08	28290.06
510.25	28205.80
510.42	28503.04
510.60	28542.83
510.77	28865.83
510.95	29223.93
511.12	28741.78
511.30	28938.38
511.47	28945.41
511.64	28783.91
511.82	29174.78
511.99	29113.92
512.17	29088.18
512.34	29146.69
512.51	29586.71
512.69	29734.17
512.86	29284.78
513.04	29825.45
513.21	29617.14
513.38	29804.38
513.56	29972.90
513.73	30103.97
513.90	30061.84
514.08	30103.97
514.25	30518.25
514.43	30005.67
514.60	30288.87
514.77	30092.27
514.95	30513.56
515.12	30511.22
515.29	30635.27
515.47	30567.40
515.64	30728.89
515.81	30787.41
515.99	31103.38
516.16	30890.39
516.33	30850.60
516.51	30792.09
516.68	30731.23
516.85	30661.02
517.03	30782.73
517.20	31281.26
517.37	31253.17
517.54	31456.80
517.72	31297.64
517.89	31082.31
518.06	31658.09
518.24	31527.02
518.41	31386.58
518.58	31791.50
518.75	31627.66
518.93	31892.14
519.10	31840.65
519.27	32215.13
519.45	32231.52
519.62	32259.60
519.79	32334.50
519.96	32306.41
520.14	32751.12
520.31	32360.25
520.48	32322.80
520.65	32294.71
520.83	32648.13
521.00	32816.65
521.17	32821.33
521.34	33055.39
521.52	32706.65
521.69	32788.56
521.86	33127.94
522.03	33060.07
522.20	33284.76
522.38	33610.09
522.55	33340.93
522.72	33244.97
522.89	33617.11
523.07	33624.14
523.24	33099.86
523.41	33542.22
523.58	33373.70
523.75	34127.35
523.92	33888.62
524.10	33869.89
524.27	34321.62
524.44	34141.39
524.61	34026.71
524.78	34089.90
524.96	34494.82
525.13	34136.71
525.30	34417.58
525.47	34653.97
525.64	34356.72
525.81	34892.71
525.98	34581.42
526.16	34342.68
526.33	34749.93
526.50	34593.12
526.67	34714.83
526.84	34827.17
527.01	34597.80
527.18	34848.24
527.36	34918.45
527.53	35412.31
527.70	35243.79
527.87	35381.88
528.04	35007.39
528.21	35372.52
528.38	35000.37
528.55	35199.32
528.72	35601.89
528.89	35522.31
529.07	35519.97
529.24	35278.89
529.41	35629.98
529.58	35498.91
529.75	35416.99
529.92	35864.03
530.09	35978.72
530.26	35791.47
530.43	36189.36
530.60	35828.92
530.77	35849.99
530.94	36140.21
531.11	35906.16
531.28	36222.13
531.46	36306.39
531.63	36624.70
531.80	36294.69
531.97	36587.25
532.14	36402.35
532.31	36266.60
532.48	36627.04
532.65	36697.26
532.82	36388.31
532.99	36776.84
533.16	36488.95
533.33	36549.81
533.50	37134.94
533.67	36999.19
533.84	36741.73
534.01	36739.39
534.18	36746.41
534.35	36781.52
534.52	37027.28
534.69	37256.65
534.86	37525.81
535.03	36999.19
535.20	37254.31
535.37	37979.87
535.54	37633.47
535.71	37095.15
535.88	37436.87
536.05	37151.32
536.22	37876.89
536.38	37776.25
536.55	37724.75
536.72	38059.45
536.89	37818.38
537.06	37874.55
537.23	37940.08
537.40	37668.58
537.57	37895.61
537.74	37713.05
537.91	38637.56
538.08	38433.94
538.25	37982.21
538.42	38029.02
538.59	38581.39
538.75	38082.86
538.92	37958.81
539.09	38405.85
539.26	38398.83
539.43	38176.48
539.60	38396.49
539.77	38452.66
539.94	38391.81
540.11	38628.20
540.28	38330.95
540.44	38438.62
540.61	38494.79
540.78	38843.53
540.95	38862.26
541.12	38660.97
541.29	38752.25
541.46	38340.32
541.62	38579.05
541.79	39346.75
541.96	38347.34
542.13	39136.10
542.30	39182.91
542.47	39070.56
542.63	39098.65
542.80	39166.52
542.97	39269.51
543.14	39952.94
543.31	39875.71
543.48	39629.95
543.64	39920.18
543.81	39737.62
543.98	39796.13
544.15	39264.83
544.32	39805.49
544.48	40313.39
544.65	39906.13
544.82	40060.61
544.99	39627.61
545.16	39943.58
545.32	39751.66
545.49	40020.82
545.66	40264.24
545.83	39812.51
546.00	40683.19
546.16	40587.23
546.33	40231.47
546.50	39976.35
546.67	40191.68
546.83	39901.45
547.00	40428.07
547.17	40154.23
547.34	40205.72
547.50	40748.73
547.67	40299.34
547.84	40369.56
548.00	40701.92
548.17	41027.25
548.34	40233.81
548.51	40634.04
548.67	40713.62
548.84	40837.67
549.01	41111.51
549.18	40903.20
549.34	40484.25
549.51	40545.10
549.68	40727.66
549.84	41053.00
550.01	41261.30
550.18	41081.08
550.34	40837.67
550.51	41261.30
550.68	40685.53
550.84	40697.24
551.01	41406.42
551.18	41294.07
551.34	40903.20
551.51	41144.28
551.68	40933.63
551.84	41165.34
552.01	41170.02
552.18	41352.58
552.34	41102.15
552.51	41879.21
552.68	41453.23
552.84	41888.57
553.01	41755.16
553.18	41457.91
553.34	42031.34
553.51	41331.52
553.67	41624.09
553.84	41832.39
554.01	41951.76
554.17	41830.05
554.34	42199.86
554.51	41862.82
554.67	42026.66
554.84	41350.24
555.00	41600.68
555.17	41996.23
555.33	41956.44
555.50	42092.19
555.67	42398.80
555.83	42199.86
556.00	42057.09
556.16	42312.20
556.33	42499.45
556.50	42202.20
556.66	42593.07
556.83	41804.31
556.99	42139.00
557.16	42213.90
557.32	42347.31
557.49	42440.93
557.65	42321.57
557.82	42026.66
557.98	41851.12
558.15	42174.11
558.32	42934.79
558.48	42572.00
558.65	42518.17
558.81	42848.19
558.98	42555.62
559.14	42206.88
559.31	42363.70
559.47	42445.62
559.64	42586.05
559.80	42899.68
559.97	42789.67
560.13	42532.22
560.30	42714.78
560.46	42766.27
560.63	42726.48
560.79	42349.65
560.96	42560.30
561.12	42511.15
561.29	42698.39
561.45	42665.63
561.61	42932.45
561.78	43030.75
561.94	42588.39
562.11	42504.13
562.27	42705.41
562.44	42738.18
562.60	43157.14
562.77	43044.79
562.93	42913.72
563.10	43274.16
563.26	42431.57
563.42	43030.75
563.59	42958.19
563.75	43257.78
563.92	43103.31
564.08	43082.24
564.24	43344.38
564.41	42913.72
564.57	43129.05
564.74	43016.71
564.90	43271.82
565.07	43227.35
565.23	43098.62
565.39	42738.18
565.56	43377.15
565.72	43014.37
565.88	43239.06
566.05	43330.34
566.21	43264.80
566.38	42813.08
566.54	43498.86
566.70	43552.69
566.87	43302.25
567.03	43526.94
567.19	43491.83
567.36	42911.38
567.52	43150.12
567.68	43728.23
567.85	43084.58
568.01	43435.66
568.17	43278.85
568.34	43430.98
568.50	43775.04
568.66	43463.75
568.83	43503.54
568.99	43253.10
569.15	43283.53
569.32	43356.08
569.48	43388.85
569.64	43604.18
569.81	44083.99
569.97	43622.90
570.13	43494.18
570.30	43260.12
570.46	43438.00
570.62	42862.23
570.78	43187.56
570.95	43182.88
571.11	43475.45
571.27	43517.58
571.43	43686.10
571.60	43608.86
571.76	43880.36
571.92	42836.48
572.09	43711.84
572.25	43306.93
572.41	43414.60
572.57	43615.88
572.74	44046.54
572.90	43901.43
573.06	43707.16
573.22	43578.43
573.38	43924.83
573.55	43302.25
573.71	44062.93
573.87	43416.94
574.03	43555.03
574.20	43463.75
574.36	43461.41
574.52	44170.59
574.68	44013.77
574.84	43742.27
575.01	44086.33
575.17	43744.61
575.33	43562.05
575.49	43423.96
575.65	43875.68
575.82	43686.10
575.98	44032.50
576.14	43735.25
576.30	44121.44
576.46	43770.36
576.62	43515.24
576.79	43966.96
576.95	43538.65
577.11	43409.92
577.27	43594.82
577.43	44194.00
577.59	44114.42
577.75	44222.08
577.92	43381.83
578.08	43232.04
578.24	43449.70
578.40	43592.48
578.56	43585.46
578.72	43910.79
578.88	44058.24
579.04	43728.23
579.21	43627.59
579.37	43889.73
579.53	43739.93
579.69	43494.18
579.85	43707.16
580.01	43873.34
580.17	43732.91
580.33	44252.51
580.49	43744.61
580.65	43835.89
580.82	44287.62
580.98	43810.15
581.14	43765.68
581.30	43871.00
581.46	43908.45
581.62	43840.57
581.78	43737.59
581.94	44519.33
582.10	43690.78
582.26	44023.14
582.42	43896.75
582.58	43810.15
582.74	43817.17
582.90	44025.48
583.06	44133.14
583.22	44210.38
583.38	44378.90
583.54	44217.40
583.70	43852.28
583.86	43709.50
584.02	43655.67
584.18	43709.50
584.34	44013.77
584.50	43833.55
584.66	44147.18
584.82	43587.80
584.98	44411.67
585.14	44364.85
585.30	44072.29
585.46	43688.44
585.62	44168.25
585.78	43838.23
585.94	43643.97
586.10	43831.21
586.26	44058.24
586.42	43814.83
586.58	44091.01
586.74	44016.11
586.90	43562.05
587.06	44004.41
587.22	44212.72
587.38	43620.56
587.54	44294.64
587.70	44287.62
587.86	44252.51
588.02	43812.49
588.18	44292.30
588.34	44182.29
588.49	43941.22
588.65	44053.56
588.81	43791.42
588.97	43782.06
589.13	43981.01
589.29	43901.43
589.45	44208.04
589.61	44006.75
589.77	44395.28
589.93	44011.43
590.08	44203.36
590.24	44252.51
590.40	44119.10
