SpectraSuite Data File
++++++++++++++++++++++++++++++++++++
Date: Fri Oct 25 11:26:20 EDT 2013
User: price-jones
Dark Spectrum Present: No
Reference Spectrum Present: No
Number of Sampled Component Spectra: 1
Spectrometers: USB2+H05261
Integration Time (usec): 100000 (USB2+H05261)
Spectra Averaged: 1 (USB2+H05261)
Boxcar Smoothing: 0 (USB2+H05261)
Correct for Electrical Dark: No (USB2+H05261)
Strobe/Lamp Enabled: No (USB2+H05261)
Correct for Detector Non-linearity: No (USB2+H05261)
Correct for Stray Light: No (USB2+H05261)
Number of Pixels in Processed Spectrum: 2048
>>>>>Begin Processed Spectral Data<<<<<
365.73	248.10
365.92	248.10
366.12	248.10
366.32	161.50
366.52	124.05
366.72	175.54
366.91	159.16
367.11	117.03
367.31	184.90
367.51	81.92
367.70	126.39
367.90	133.41
368.10	177.88
368.30	145.11
368.49	145.11
368.69	212.99
368.89	154.48
369.09	203.63
369.28	156.82
369.48	140.43
369.68	173.20
369.87	168.52
370.07	215.33
370.27	198.95
370.47	330.02
370.66	568.75
370.86	603.86
371.06	716.20
371.25	716.20
371.45	610.88
371.65	699.82
371.84	660.03
372.04	704.50
372.24	678.76
372.44	702.16
372.63	730.25
372.83	737.27
373.03	779.40
373.22	760.67
373.42	699.82
373.62	758.33
373.81	840.25
374.01	777.06
374.21	823.87
374.40	826.21
374.60	826.21
374.79	819.19
374.99	842.59
375.19	823.87
375.38	863.66
375.58	828.55
375.78	889.40
375.97	931.53
376.17	945.58
376.37	870.68
376.56	837.91
376.76	875.36
376.95	854.30
377.15	805.14
377.35	880.04
377.54	847.27
377.74	884.72
377.93	961.96
378.13	978.34
378.33	978.34
378.52	873.02
378.72	931.53
378.91	1015.79
379.11	952.60
379.31	938.55
379.50	1032.18
379.70	873.02
379.89	990.05
380.09	1032.18
380.28	952.60
380.48	894.08
380.68	983.02
380.87	1013.45
381.07	992.39
381.26	1027.50
381.46	1041.54
381.65	964.30
381.85	1055.58
382.04	1020.47
382.24	1006.43
382.43	1090.69
382.63	1071.97
382.83	1081.33
383.02	1100.05
383.22	1156.22
383.41	1128.14
383.61	1041.54
383.80	1184.31
384.00	1100.05
384.19	1125.80
384.39	1163.25
384.58	1172.61
384.78	1095.37
384.97	1205.38
385.17	1125.80
385.36	1144.52
385.56	1153.88
385.75	1198.35
385.95	1163.25
386.14	1172.61
386.34	1198.35
386.53	1181.97
386.72	1153.88
386.92	1151.54
387.11	1184.31
387.31	1299.00
387.50	1228.78
387.70	1177.29
387.89	1240.48
388.09	1247.51
388.28	1219.42
388.48	1313.04
388.67	1329.42
388.86	1327.08
389.06	1299.00
389.25	1315.38
389.45	1275.59
389.64	1343.47
389.84	1366.87
390.03	1331.76
390.22	1355.17
390.42	1350.49
390.61	1299.00
390.81	1331.76
391.00	1427.73
391.19	1423.05
391.39	1394.96
391.58	1476.88
391.78	1474.54
391.97	1621.99
392.16	1516.67
392.36	1469.86
392.55	1596.25
392.75	1465.18
392.94	1497.94
393.13	1500.28
393.33	1561.14
393.52	1530.71
393.71	1575.18
393.91	1516.67
394.10	1624.33
394.29	1607.95
394.49	1621.99
394.68	1631.35
394.88	1720.29
395.07	1729.66
395.26	1650.08
395.46	1640.72
395.65	1682.85
395.84	1678.16
396.04	1717.95
396.23	1797.53
396.42	1790.51
396.62	1783.49
396.81	1746.04
397.00	1827.96
397.19	1746.04
397.39	1764.76
397.58	1823.28
397.77	1783.49
397.97	1856.04
398.16	1881.79
398.35	1851.36
398.55	1865.41
398.74	1874.77
398.93	1970.73
399.12	1893.49
399.32	2001.16
399.51	1879.45
399.70	2005.84
399.90	1879.45
400.09	1982.43
400.28	2122.87
400.47	2022.22
400.67	2022.22
400.86	2113.50
401.05	2078.40
401.24	2038.61
401.44	2139.25
401.63	2125.21
401.82	2090.10
402.01	2066.69
402.21	2167.34
402.40	2239.89
402.59	2122.87
402.78	2179.04
402.97	2214.15
403.17	2296.07
403.36	2249.25
403.55	2218.83
403.74	2303.09
403.93	2352.24
404.13	2298.41
404.32	2303.09
404.51	2256.28
404.70	2434.16
404.89	2345.22
405.09	2427.14
405.28	2448.20
405.47	2385.01
405.66	2504.37
405.85	2485.65
406.05	2544.16
406.24	2607.36
406.43	2485.65
406.62	2609.70
406.81	2644.81
407.00	2693.96
407.20	2558.21
407.39	2600.34
407.58	2546.50
407.77	2771.19
407.96	2670.55
408.15	2729.06
408.34	2637.78
408.54	2813.32
408.73	2780.56
408.92	2785.24
409.11	2740.77
409.30	2780.56
409.49	2822.69
409.68	2864.82
409.87	2897.58
410.07	2965.46
410.26	3087.17
410.45	2932.69
410.64	2906.95
410.83	3045.04
411.02	3138.66
411.21	3213.56
411.40	3035.67
411.59	3290.79
411.78	3141.00
411.98	3276.75
412.17	3283.77
412.36	3344.63
412.55	3412.50
412.74	3330.58
412.93	3337.60
413.12	3358.67
413.31	3492.08
413.50	3454.63
413.69	3386.76
413.88	3597.40
414.07	3634.85
414.26	3651.24
414.45	3581.02
414.64	3684.00
414.83	3669.96
415.02	3655.92
415.22	3840.82
415.41	3782.31
415.60	3847.84
415.79	3634.85
415.98	4004.66
416.17	4002.32
416.36	3915.72
416.55	4018.70
416.74	4159.13
416.93	4124.02
417.12	4114.66
417.31	4285.52
417.50	4154.45
417.69	4271.48
417.88	4285.52
418.07	4299.56
418.26	4334.67
418.45	4372.12
418.64	4421.27
418.83	4315.95
419.02	4409.57
419.21	4442.34
419.39	4514.89
419.58	4355.74
419.77	4325.31
419.96	4573.41
420.15	4531.28
420.34	4547.66
420.53	4655.33
420.72	4589.79
420.91	4648.30
421.10	4760.65
421.29	4762.99
421.48	4491.49
421.67	4681.07
421.86	4723.20
422.05	4791.08
422.24	4613.20
422.43	4788.74
422.61	4812.14
422.80	5011.09
422.99	4802.78
423.18	4997.04
423.37	5008.75
423.56	4929.17
423.75	4854.27
423.94	4753.63
424.13	4573.41
424.32	4690.43
424.50	4922.15
424.69	4968.96
424.88	5011.09
425.07	4959.60
425.26	4891.72
425.45	4758.31
425.64	4875.34
425.83	4880.02
426.01	5053.22
426.20	4961.94
426.39	5093.01
426.58	4997.04
426.77	5036.83
426.96	5027.47
427.15	5167.90
427.33	5172.58
427.52	5081.30
427.71	5231.10
427.90	5308.34
428.09	5341.10
428.28	5348.12
428.46	5394.93
428.65	5308.34
428.84	5352.81
429.03	5554.09
429.22	5334.08
429.40	5401.96
429.59	5432.38
429.78	5305.99
429.97	5188.97
430.16	5383.23
430.34	5504.94
430.53	5631.33
430.72	5504.94
430.91	5565.79
431.10	5645.37
431.28	5785.80
431.47	5736.65
431.66	5720.27
431.85	5727.29
432.03	5734.31
432.22	5813.89
432.41	5863.04
432.60	5865.38
432.79	5886.45
432.97	5884.11
433.16	5916.87
433.35	5947.30
433.54	6080.71
433.72	6146.25
433.91	5968.37
434.10	6122.84
434.28	6033.90
434.47	6211.78
434.66	6197.74
434.85	6319.45
435.03	6293.70
435.22	6118.16
435.41	6340.51
435.59	6406.05
435.78	6485.62
435.97	6511.37
436.16	6417.75
436.34	6403.71
436.53	6509.03
436.72	6403.71
436.90	6270.30
437.09	6609.67
437.28	6562.86
437.46	6553.50
437.65	6590.95
437.84	6614.35
438.02	6771.17
438.21	6719.68
438.40	6689.25
438.58	7054.37
438.77	7028.63
438.96	6932.67
439.14	7152.68
439.33	7157.36
439.52	7241.62
439.70	7045.01
439.89	7248.64
440.08	7215.87
440.26	7485.03
440.45	7426.52
440.63	7445.24
440.82	7676.96
441.01	7585.68
441.19	7653.55
441.38	7672.28
441.57	7667.60
441.75	7845.48
441.94	7845.48
442.12	7845.48
442.31	8030.38
442.50	8011.65
442.68	7899.31
442.87	8102.93
443.05	8152.09
443.24	8032.72
443.43	7911.01
443.61	8138.04
443.80	8393.16
443.98	7936.76
444.17	7911.01
444.35	8198.90
444.54	8358.05
444.73	8250.39
444.91	8280.82
445.10	8231.66
445.28	8311.24
445.47	8383.80
445.65	8318.26
445.84	8517.21
446.02	8517.21
446.21	8297.20
446.39	8355.71
446.58	8627.21
446.77	8456.36
446.95	8224.64
447.14	8381.46
447.32	8507.85
447.51	8521.89
447.69	8266.77
447.88	8561.68
448.06	8444.65
448.25	8498.49
448.43	8486.78
448.62	8561.68
448.80	8355.71
448.99	8500.83
449.17	8638.92
449.36	8507.85
449.54	8753.60
449.73	8975.95
449.91	8945.53
450.10	8784.03
450.28	9013.40
450.46	8982.98
450.65	8945.53
450.83	8950.21
451.02	8978.30
451.20	9057.87
451.39	8823.82
451.57	8894.04
451.76	9041.49
451.94	9327.03
452.13	9439.38
452.31	9399.59
452.49	9270.86
452.68	9408.95
452.86	9320.01
453.05	9343.42
453.23	9472.15
453.42	9394.91
453.60	9291.93
453.78	9673.43
453.97	9371.50
454.15	9437.04
454.34	9345.76
454.52	9741.31
454.70	9525.98
454.89	9785.78
455.07	9715.56
455.26	9600.88
455.44	9816.21
455.62	9942.60
455.81	9863.02
455.99	10045.58
456.17	9923.87
456.36	9930.89
456.54	9956.64
456.73	10193.03
456.91	10188.35
457.09	10085.37
457.28	10328.78
457.46	10277.29
457.64	10516.03
457.83	10401.34
458.01	10562.84
458.19	10434.11
458.38	10284.31
458.56	10717.31
458.74	10672.84
458.93	10644.76
459.11	10611.99
459.29	10480.92
459.48	10925.62
459.66	10658.80
459.84	11042.65
460.03	10874.13
460.21	11059.03
460.39	10764.12
460.57	10857.75
460.76	11110.52
460.94	11000.52
461.12	11208.83
461.31	10895.19
461.49	11035.63
461.67	11117.54
461.85	11162.01
462.04	10953.71
462.22	11644.17
462.40	11447.56
462.59	11463.94
462.77	11552.88
462.95	11882.90
463.13	11618.42
463.32	11503.73
463.50	11520.12
463.68	11789.28
463.86	11754.17
464.05	11653.53
464.23	11707.36
464.41	11836.09
464.59	11627.78
464.78	12250.36
464.96	11978.86
465.14	11679.27
465.32	11843.11
465.50	12264.41
465.69	11899.28
465.87	12131.00
466.05	12100.57
466.23	12123.98
466.41	12168.45
466.60	12226.96
466.78	12147.38
466.96	12009.29
467.14	12035.03
467.32	12201.21
467.51	12692.73
467.69	12051.42
467.87	12322.92
468.05	12596.76
468.23	12229.30
468.41	12372.07
468.60	12699.75
468.78	12737.20
468.96	12477.40
469.14	12472.71
469.32	12898.69
469.50	12589.74
469.69	12751.24
469.87	13102.32
470.05	12922.10
470.23	13252.11
470.41	13200.62
470.59	13123.38
470.77	13191.26
470.95	13195.94
471.14	13561.06
471.32	12989.97
471.50	13341.05
471.68	13490.85
471.86	13970.66
472.04	13453.40
472.22	13855.97
472.40	13591.49
472.58	13624.26
472.77	14045.55
472.95	14176.62
473.13	14401.32
473.31	13968.32
473.49	14197.69
473.67	14066.62
473.85	14361.53
474.03	14626.01
474.21	14396.64
474.39	14452.81
474.57	14628.35
474.75	14848.36
474.93	15059.01
475.12	15091.77
475.30	15206.46
475.48	15019.22
475.66	14932.62
475.84	15082.41
476.02	15431.15
476.20	15300.08
476.38	15510.73
476.56	15712.02
476.74	16037.35
476.92	15850.11
477.10	15747.12
477.28	15920.32
477.46	15981.18
477.64	16425.88
477.82	16559.29
478.00	16739.51
478.18	16519.50
478.36	16622.48
478.54	17291.88
478.72	16830.79
478.90	17067.19
479.08	17359.75
479.26	17422.95
479.44	17439.33
479.62	17558.70
479.80	17886.37
479.98	18040.85
480.16	18623.64
480.34	18317.03
480.52	18485.55
480.70	18272.56
480.88	18331.08
481.06	18466.83
481.24	18574.49
481.41	19054.30
481.59	19412.40
481.77	19318.78
481.95	19566.88
482.13	19681.56
482.31	19321.12
482.49	20140.31
482.67	20329.89
482.85	20299.47
483.03	20678.63
483.21	20547.56
483.39	20573.31
483.57	20617.78
483.74	20847.15
483.92	21132.70
484.10	21123.33
484.28	21809.11
484.46	22005.72
484.64	22134.45
484.82	21759.96
485.00	22019.76
485.18	22511.27
485.35	22827.24
485.53	22883.42
485.71	23136.20
485.89	23278.97
486.07	23021.51
486.25	23363.23
486.43	23407.70
486.61	23639.41
486.78	24126.24
486.96	24011.56
487.14	24428.17
487.32	24720.74
487.50	24655.20
487.68	24769.89
487.85	25017.99
488.03	25474.39
488.21	25855.90
488.39	25797.38
488.57	25802.07
488.75	26047.82
488.92	26281.88
489.10	26625.93
489.28	26780.41
489.46	26909.14
489.64	26693.81
489.81	27601.94
489.99	27646.41
490.17	27988.13
490.35	28018.55
490.53	27936.63
490.70	28252.61
490.88	28336.87
491.06	28517.09
491.24	28643.48
491.41	28629.43
491.59	29008.60
491.77	29200.52
491.95	29612.46
492.13	29589.05
492.30	29806.72
492.48	29666.29
492.66	29937.79
492.84	30349.73
493.01	30466.75
493.19	30506.54
493.37	31115.08
493.54	30731.23
493.72	31440.42
493.90	31278.92
494.08	31522.34
494.25	31770.43
494.43	32077.04
494.61	32449.19
494.79	32173.00
494.96	31995.12
495.14	32371.95
495.32	32973.47
495.49	32854.10
495.67	32755.80
495.85	33062.41
496.02	33535.20
496.20	33965.85
496.38	33518.81
496.55	33830.10
496.73	34827.17
496.91	34431.62
497.09	34373.11
497.26	34567.37
497.44	34946.54
497.62	35091.65
497.79	35454.44
497.97	35480.18
498.14	35732.96
498.32	36133.19
498.50	35793.81
498.67	36474.91
498.85	36233.83
499.03	36355.54
499.20	36442.14
499.38	37046.00
499.56	36437.46
499.73	37268.35
499.91	37368.99
500.08	37401.76
500.26	37022.59
500.44	37579.64
500.61	37638.15
500.79	37687.31
500.97	38010.30
501.14	38188.18
501.32	38323.93
501.49	38562.67
501.67	37881.57
501.84	38766.29
502.02	38733.53
502.20	38859.91
502.37	38988.64
502.55	38916.09
502.72	39199.29
502.90	39335.04
503.07	39122.05
503.25	39124.40
503.43	39555.05
503.60	39885.07
503.78	40231.47
503.95	40297.00
504.13	39849.96
504.30	40273.60
504.48	40395.31
504.65	40704.26
504.83	41102.15
505.01	40914.90
505.18	40769.79
505.36	41490.68
505.53	40535.74
505.71	40877.46
505.88	41352.58
506.06	41043.63
506.23	41640.47
506.41	41504.72
506.58	41862.82
506.76	41642.81
506.93	42302.84
507.11	41902.61
507.28	42562.64
507.46	42141.35
507.63	42841.17
507.81	42759.25
507.98	42651.58
508.16	42754.57
508.33	43035.43
508.50	43217.99
508.68	43323.32
508.85	43667.37
509.03	43316.29
509.20	44402.30
509.38	44533.37
509.55	44130.80
509.73	44158.89
509.90	43966.96
510.08	44589.55
510.25	44591.89
510.42	44825.94
510.60	44945.31
510.77	44947.65
510.95	45457.88
511.12	44832.96
511.30	45329.16
511.47	45202.77
511.64	45188.72
511.82	45851.09
511.99	45759.81
512.17	45668.53
512.34	45390.01
512.51	45724.71
512.69	46546.23
512.86	46277.07
513.04	46532.19
513.21	46803.69
513.38	46426.87
513.56	46878.59
513.73	46344.95
513.90	46621.13
514.08	46799.01
514.25	47107.96
514.43	47182.86
514.60	47271.80
514.77	47157.11
514.95	47318.61
515.12	47194.56
515.29	47147.75
515.47	47831.19
515.64	48055.88
515.81	47732.89
515.99	48048.86
516.16	48140.14
516.33	48018.43
516.51	48397.60
516.68	48395.26
516.85	47985.66
517.03	48786.13
517.20	48493.56
517.37	48385.89
517.54	48615.27
517.72	48830.60
517.89	48727.61
518.06	48748.68
518.24	49092.74
518.41	48903.15
518.58	49017.84
518.75	49181.68
518.93	49230.83
519.10	49233.17
519.27	49535.10
519.45	49694.25
519.62	49914.26
519.79	49521.05
519.96	49738.72
520.14	50017.25
520.31	49989.16
520.48	50253.64
520.65	50351.94
520.83	50724.09
521.00	50272.37
521.17	50583.66
521.34	50578.98
521.52	50431.52
521.69	50672.60
521.86	50775.58
522.03	50567.27
522.20	50960.48
522.38	51138.36
522.55	51121.98
522.72	51098.58
522.89	51173.47
523.07	51583.07
523.24	51295.18
523.41	51325.61
523.58	51456.68
523.75	51744.56
523.92	51901.38
524.10	51714.14
524.27	51746.90
524.44	51796.06
524.61	51779.67
524.78	51772.65
524.96	51838.18
525.13	51908.40
525.30	52261.82
525.47	52072.24
525.64	52360.12
525.81	52577.79
525.98	52638.65
526.16	52715.89
526.33	52303.95
526.50	52818.87
526.67	52617.58
526.84	52669.08
527.01	52683.12
527.18	52741.63
527.36	52671.42
527.53	52769.72
527.70	53434.43
527.87	53331.45
528.04	52928.87
528.21	53221.44
528.38	53415.71
528.55	53535.07
528.72	53036.54
528.89	53471.88
529.07	53469.54
529.24	53216.76
529.41	53801.89
529.58	53612.31
529.75	53478.90
529.92	53727.00
530.09	53673.16
530.26	53825.30
530.43	54129.57
530.60	53591.25
530.77	53698.91
530.94	53937.65
531.11	53773.81
531.28	53939.99
531.46	54127.23
531.63	54012.54
531.80	54174.04
531.97	54195.10
532.14	54274.68
532.31	54267.66
532.48	54312.13
532.65	54539.16
532.82	54337.88
532.99	54410.43
533.16	54270.00
533.33	54609.38
533.50	54658.53
533.67	54539.16
533.84	54506.40
534.01	54618.74
534.18	54876.20
534.35	55208.56
534.52	54733.43
534.69	54887.90
534.86	55189.83
535.03	55002.59
535.20	54951.10
535.37	55145.36
535.54	55173.45
535.71	54974.50
535.88	55487.08
536.05	55285.79
536.22	55391.12
536.38	55529.21
536.55	55564.32
536.72	55262.39
536.89	55208.56
537.06	55243.66
537.23	55648.58
537.40	55398.14
537.57	55309.20
537.74	55606.45
537.91	55803.05
538.08	55580.70
538.25	55711.77
538.42	55941.14
538.59	55992.64
538.75	55660.28
538.92	56079.24
539.09	55920.08
539.26	56097.96
539.43	55870.93
539.60	56191.58
539.77	56149.45
539.94	56114.34
540.11	56100.30
540.28	56144.77
540.44	56250.09
540.61	56303.93
540.78	56123.71
540.95	56172.86
541.12	56273.50
541.29	56144.77
541.46	56203.28
541.62	56526.28
541.79	56610.54
541.96	56039.45
542.13	56257.12
542.30	56528.62
542.47	56762.67
542.63	56793.10
542.80	56610.54
542.97	56910.13
543.14	57130.14
543.31	57073.96
543.48	56830.55
543.64	57162.90
543.81	57165.24
543.98	57312.70
544.15	57216.74
544.32	57265.89
544.48	57448.45
544.65	57088.01
544.82	56893.74
544.99	57186.31
545.16	57272.91
545.32	57207.37
545.49	57518.67
545.66	57635.69
545.83	57392.28
546.00	57331.42
546.16	57413.34
546.33	57434.41
546.50	57432.07
546.67	57558.45
546.83	57432.07
547.00	57513.98
547.17	57268.23
547.34	57757.40
547.50	57703.57
547.67	57958.69
547.84	57813.57
548.00	57731.65
548.17	58031.24
548.34	57942.30
548.51	58061.67
548.67	58138.91
548.84	57918.90
549.01	57825.28
549.18	57815.91
549.34	58010.18
549.51	58024.22
549.68	58075.71
549.84	58255.93
550.01	58239.55
550.18	58073.37
550.34	58218.49
550.51	58213.80
550.68	58302.74
550.84	58038.26
551.01	58258.27
551.18	58281.68
551.34	57942.30
551.51	58241.89
551.68	58492.33
551.84	58515.73
552.01	58237.21
552.18	58461.90
552.34	58232.53
552.51	58471.26
552.68	58571.91
552.84	58447.86
553.01	58738.08
553.18	58457.22
553.34	58646.80
553.51	58609.35
553.67	58759.15
553.84	58831.71
554.01	58698.30
554.17	58808.30
554.34	58665.53
554.51	58892.56
554.67	59152.36
554.84	58972.14
555.00	58920.65
555.17	58805.96
555.33	58850.43
555.50	58815.32
555.67	58862.13
555.83	58742.77
556.00	58948.73
556.16	59449.61
556.33	59037.67
556.50	59103.21
556.66	59220.23
556.83	59032.99
556.99	59168.74
557.16	59384.07
557.32	59313.86
557.49	59290.45
557.65	59243.64
557.82	59222.58
557.98	59199.17
558.15	59168.74
558.32	59346.62
558.48	59168.74
558.65	59480.03
558.81	59437.90
558.98	59458.97
559.14	59461.31
559.31	59447.27
559.47	59526.84
559.64	59533.87
559.80	59503.44
559.97	59690.68
560.13	59377.05
560.30	59484.72
560.46	59707.07
560.63	59690.68
560.79	59695.36
560.96	59721.11
561.12	59576.00
561.29	59653.23
561.45	59655.57
561.61	59606.42
561.78	59737.49
561.94	59718.77
562.11	59702.38
562.27	59746.86
562.44	59786.64
562.60	60009.00
562.77	59929.42
562.93	59873.24
563.10	60229.01
563.26	59728.13
563.42	59917.71
563.59	59723.45
563.75	59805.37
563.92	60020.70
564.08	59875.58
564.24	60034.74
564.41	59929.42
564.57	59992.61
564.74	59606.42
564.90	59983.25
565.07	59842.82
565.23	59889.63
565.39	59753.88
565.56	60144.75
565.72	60123.68
565.88	59971.55
566.05	59964.52
566.21	59903.67
566.38	60163.47
566.54	59990.27
566.70	60133.04
566.87	60165.81
567.03	59898.99
567.19	60369.44
567.36	59971.55
567.52	60189.22
567.68	60549.66
567.85	60278.16
568.01	60355.39
568.17	60266.45
568.34	60203.26
568.50	60247.73
568.66	60264.11
568.83	60257.09
568.99	60395.18
569.15	60151.77
569.32	60151.77
569.48	60280.50
569.64	60444.33
569.81	60294.54
569.97	60301.56
570.13	60236.03
570.30	60025.38
570.46	60420.93
570.62	60273.48
570.78	60362.42
570.95	60250.07
571.11	60505.19
571.27	60308.58
571.43	60399.86
571.60	60575.40
571.76	60299.22
571.92	60420.93
572.09	60374.12
572.25	60427.95
572.41	60367.10
572.57	60254.75
572.74	60701.79
572.90	60463.06
573.06	60561.36
573.22	60399.86
573.38	60495.83
573.55	60381.14
573.71	60645.62
573.87	60505.19
574.03	60238.37
574.20	60694.77
574.36	60388.16
574.52	60685.41
574.68	60636.26
574.84	60605.83
575.01	60622.22
575.17	60598.81
575.33	60671.37
575.49	60638.60
575.65	60493.49
575.82	60804.78
575.98	60570.72
576.14	60910.10
576.30	60463.06
576.46	60697.11
576.62	60449.02
576.79	60444.33
576.95	60505.19
577.11	60453.70
577.27	60589.45
577.43	60664.35
577.59	60697.11
577.75	60631.58
577.92	60704.13
578.08	60673.71
578.24	60615.19
578.40	60741.58
578.56	60835.20
578.72	60821.16
578.88	60750.94
579.04	60867.97
579.21	60748.60
579.37	60994.36
579.53	60800.10
579.69	60676.05
579.85	60619.88
580.01	60570.72
580.17	60561.36
580.33	60947.55
580.49	60741.58
580.65	60865.63
580.82	60701.79
580.98	60676.05
581.14	60575.40
581.30	60804.78
581.46	60683.07
581.62	60800.10
581.78	60537.96
581.94	60893.72
582.10	60842.23
582.26	60729.88
582.42	60741.58
582.58	60736.90
582.74	60481.78
582.90	60645.62
583.06	60762.65
583.22	60678.39
583.38	60809.46
583.54	60797.76
583.70	60638.60
583.86	60748.60
584.02	60720.52
584.18	60898.40
584.34	60828.18
584.50	60905.42
584.66	60626.90
584.82	60631.58
584.98	61235.44
585.14	60741.58
585.30	60809.46
585.46	61001.38
585.62	60781.37
585.78	60853.93
585.94	60706.47
586.10	60956.91
586.26	60797.76
586.42	60980.32
586.58	61090.32
586.74	61006.06
586.90	60832.86
587.06	60818.82
587.22	60940.53
587.38	60870.31
587.54	60863.29
587.70	60961.59
587.86	60851.59
588.02	60816.48
588.18	61174.58
588.34	60680.73
588.49	60968.61
