SpectraSuite Data File
++++++++++++++++++++++++++++++++++++
Date: Fri Oct 25 10:44:17 EDT 2013
User: price-jones
Dark Spectrum Present: No
Reference Spectrum Present: No
Number of Sampled Component Spectra: 1
Spectrometers: USB2+H05261
Integration Time (usec): 100000 (USB2+H05261)
Spectra Averaged: 1 (USB2+H05261)
Boxcar Smoothing: 0 (USB2+H05261)
Correct for Electrical Dark: No (USB2+H05261)
Strobe/Lamp Enabled: No (USB2+H05261)
Correct for Detector Non-linearity: No (USB2+H05261)
Correct for Stray Light: No (USB2+H05261)
Number of Pixels in Processed Spectrum: 2048
>>>>>Begin Processed Spectral Data<<<<<
365.73	65.54
365.92	65.54
366.12	65.54
366.32	11.70
366.52	28.09
366.72	49.15
366.91	0.00
367.11	0.00
367.31	21.06
367.51	0.00
367.70	7.02
367.90	42.13
368.10	11.70
368.30	44.47
368.49	0.00
368.69	60.85
368.89	0.00
369.09	49.15
369.28	65.54
369.48	9.36
369.68	79.58
369.87	121.71
370.07	159.16
370.27	142.77
370.47	173.20
370.66	381.51
370.86	369.80
371.06	484.49
371.25	512.58
371.45	411.93
371.65	444.70
371.84	475.13
372.04	493.85
372.24	472.79
372.44	517.26
372.63	454.06
372.83	505.56
373.03	472.79
373.22	519.60
373.42	507.90
373.62	550.03
373.81	423.64
374.01	550.03
374.21	594.50
374.40	552.37
374.60	528.96
374.79	575.77
374.99	475.13
375.19	540.66
375.38	568.75
375.58	601.52
375.78	596.84
375.97	566.41
376.17	624.92
376.37	592.16
376.56	585.13
376.76	617.90
376.95	547.69
377.15	629.60
377.35	648.33
377.54	571.09
377.74	662.37
377.93	627.26
378.13	587.47
378.33	655.35
378.52	695.14
378.72	758.33
378.91	681.10
379.11	662.37
379.31	685.78
379.50	653.01
379.70	636.63
379.89	660.03
380.09	746.63
380.28	720.88
380.48	690.46
380.68	653.01
380.87	716.20
381.07	697.48
381.26	753.65
381.46	650.67
381.65	739.61
381.85	688.12
382.04	706.84
382.24	795.78
382.43	741.95
382.63	667.05
382.83	681.10
383.02	709.18
383.22	791.10
383.41	709.18
383.61	683.44
383.80	741.95
384.00	805.14
384.19	823.87
384.39	802.80
384.58	840.25
384.78	791.10
384.97	861.32
385.17	755.99
385.36	786.42
385.56	816.85
385.75	809.83
385.95	809.83
386.14	866.00
386.34	887.06
386.53	779.40
386.72	870.68
386.92	849.61
387.11	894.08
387.31	800.46
387.50	896.43
387.70	882.38
387.89	917.49
388.09	875.36
388.28	880.04
388.48	858.98
388.67	933.87
388.86	950.26
389.06	922.17
389.25	964.30
389.45	1022.81
389.64	915.15
389.84	884.72
390.03	1004.09
390.22	1027.50
390.42	887.06
390.61	992.39
390.81	1043.88
391.00	1109.41
391.19	1104.73
391.39	957.28
391.58	1116.44
391.78	1088.35
391.97	1109.41
392.16	990.05
392.36	1135.16
392.55	1057.92
392.75	1034.52
392.94	1036.86
393.13	973.66
393.33	973.66
393.52	1153.88
393.71	1100.05
393.91	1039.20
394.10	1062.60
394.29	1139.84
394.49	1219.42
394.68	1252.19
394.88	1226.44
395.07	1214.74
395.26	1254.53
395.46	1165.59
395.65	1170.27
395.84	1240.48
396.04	1259.21
396.23	1261.55
396.42	1097.71
396.62	1142.18
396.81	1191.33
397.00	1153.88
397.19	1350.49
397.39	1261.55
397.58	1476.88
397.77	1383.26
397.97	1387.94
398.16	1409.00
398.35	1458.15
398.55	1537.73
398.74	1409.00
398.93	1486.24
399.12	1519.01
399.32	1444.11
399.51	1472.20
399.70	1537.73
399.90	1612.63
400.09	1533.05
400.28	1680.50
400.47	1593.90
400.67	1771.79
400.86	1645.40
401.05	1629.01
401.24	1675.82
401.44	1722.63
401.63	1689.87
401.82	1741.36
402.01	1680.50
402.21	1727.32
402.40	1732.00
402.59	1750.72
402.78	1778.81
402.97	1748.38
403.17	1717.95
403.36	1774.13
403.55	1888.81
403.74	1753.06
403.93	1823.28
404.13	1832.64
404.32	1830.30
404.51	1863.07
404.70	2001.16
404.89	1952.01
405.09	1952.01
405.28	1888.81
405.47	1900.52
405.66	1998.82
405.85	1944.99
406.05	1916.90
406.24	1998.82
406.43	2019.88
406.62	2069.03
406.81	2153.29
407.00	2115.84
407.20	1987.11
407.39	2012.86
407.58	2190.74
407.77	2141.59
407.96	2157.97
408.15	2242.23
408.34	2204.78
408.54	2253.94
408.73	2312.45
408.92	2260.96
409.11	2380.32
409.30	2242.23
409.49	2359.26
409.68	2256.28
409.87	2176.70
410.07	2347.56
410.26	2392.03
410.45	2352.24
410.64	2385.01
410.83	2450.54
411.02	2537.14
411.21	2469.27
411.40	2499.69
411.59	2555.86
411.78	2693.96
411.98	2558.21
412.17	2546.50
412.36	2548.84
412.55	2799.28
412.74	2698.64
412.93	2750.13
413.12	2757.15
413.31	2778.22
413.50	2761.83
413.69	2864.82
413.88	2857.79
414.07	2892.90
414.26	2918.65
414.45	2967.80
414.64	2878.86
414.83	2796.94
415.02	3042.70
415.22	3089.51
415.41	3152.70
415.60	3138.66
415.79	3178.45
415.98	3286.11
416.17	3215.90
416.36	3218.24
416.55	3150.36
416.74	3316.54
416.93	3136.32
417.12	3246.32
417.31	3344.63
417.50	3365.69
417.69	3492.08
417.88	3445.27
418.07	3473.36
418.26	3473.36
418.45	3478.04
418.64	3669.96
418.83	3517.83
419.02	3508.46
419.21	3529.53
419.39	3576.34
419.58	3602.08
419.77	3520.17
419.96	3721.45
420.15	3653.58
420.34	3754.22
420.53	3660.60
420.72	3744.86
420.91	3850.18
421.10	4009.34
421.29	3922.74
421.48	3763.58
421.67	3955.51
421.86	3789.33
422.05	3857.20
422.24	3777.62
422.43	3744.86
422.61	3845.50
422.80	3969.55
422.99	4035.08
423.18	3971.89
423.37	3962.53
423.56	3817.41
423.75	3936.78
423.94	3901.67
424.13	3747.20
424.32	3707.41
424.50	4025.72
424.69	3908.69
424.88	4032.74
425.07	3859.54
425.26	3892.31
425.45	3906.35
425.64	3971.89
425.83	3934.44
426.01	4079.55
426.20	4014.02
426.39	3960.19
426.58	4093.60
426.77	4039.76
426.96	4112.32
427.15	3941.46
427.33	4065.51
427.52	4098.28
427.71	4149.77
427.90	4037.42
428.09	4046.79
428.28	4182.54
428.46	4109.98
428.65	4168.49
428.84	4187.22
429.03	4187.22
429.22	4081.89
429.40	4128.70
429.59	4170.83
429.78	3960.19
429.97	3936.78
430.16	3946.14
430.34	4215.30
430.53	4142.75
430.72	4278.50
430.91	4126.36
431.10	4227.01
431.28	4535.96
431.47	4683.41
431.66	4770.01
431.85	4477.44
432.03	4550.00
432.22	4610.86
432.41	4519.57
432.60	4765.33
432.79	4638.94
432.97	4765.33
433.16	4732.56
433.35	4802.78
433.54	4744.27
433.72	4699.80
433.91	4704.48
434.10	4755.97
434.28	4725.54
434.47	5022.79
434.66	5006.41
434.85	5088.32
435.03	4954.91
435.22	4901.08
435.41	5032.15
435.59	4905.76
435.78	5039.17
435.97	5128.11
436.16	5088.32
436.34	5184.29
436.53	5022.79
436.72	5303.65
436.90	5275.57
437.09	5217.05
437.28	4994.70
437.46	5235.78
437.65	5261.52
437.84	5266.21
438.02	5249.82
438.21	5193.65
438.40	5085.98
438.58	5289.61
438.77	5324.72
438.96	5474.51
439.14	5607.92
439.33	5420.68
439.52	5628.99
439.70	5675.80
439.89	5685.16
440.08	5617.29
440.26	5685.16
440.45	5600.90
440.63	5893.47
440.82	6111.14
441.01	5977.73
441.19	5984.75
441.38	6076.03
441.57	6113.48
441.75	6003.47
441.94	6279.66
442.12	6202.42
442.31	6235.19
442.50	6333.49
442.68	6324.13
442.87	6384.98
443.05	6366.26
443.24	6462.22
443.43	6216.46
443.61	6516.05
443.80	6614.35
443.98	6361.58
444.17	6218.80
444.35	6356.90
444.54	6574.56
444.73	6363.92
444.91	6527.75
445.10	6630.74
445.28	6619.04
445.47	6373.28
445.65	6282.00
445.84	6604.99
446.02	6586.27
446.21	6497.33
446.39	6619.04
446.58	6623.72
446.77	6717.34
446.95	6473.92
447.14	6897.56
447.32	6808.62
447.51	6663.51
447.69	6715.00
447.88	6736.06
448.06	6743.08
448.25	6548.82
448.43	6668.19
448.62	6834.36
448.80	6736.06
448.99	6874.15
449.17	6923.30
449.36	6902.24
449.54	6906.92
449.73	7021.61
449.91	7122.25
450.10	7070.76
450.28	7290.77
450.46	7295.45
450.65	7258.00
450.83	7157.36
451.02	7138.63
451.20	7197.15
451.39	7276.73
451.57	7239.28
451.76	7110.55
451.94	7234.60
452.13	7281.41
452.31	7300.13
452.49	6953.73
452.68	7124.59
452.86	7262.68
453.05	7407.80
453.23	7265.02
453.42	7480.35
453.60	7176.08
453.78	7569.29
453.97	7316.51
454.15	7482.69
454.34	7288.43
454.52	7419.50
454.70	7506.10
454.89	7473.33
455.07	7726.11
455.26	7679.30
455.44	7714.41
455.62	7791.64
455.81	7655.89
455.99	7747.17
456.17	7936.76
456.36	7791.64
456.54	8025.70
456.73	7826.75
456.91	8074.85
457.09	8042.08
457.28	8334.65
457.46	8030.38
457.64	8266.77
457.83	8035.06
458.01	8126.34
458.19	8163.79
458.38	8177.83
458.56	8360.39
458.74	8262.09
458.93	8325.29
459.11	8138.04
459.29	8285.50
459.48	8196.56
459.66	8358.05
459.84	8353.37
460.03	8669.34
460.21	8442.31
460.39	8662.32
460.57	8528.91
460.76	8449.33
460.94	8667.00
461.12	8657.64
461.31	8559.34
461.49	8564.02
461.67	8545.30
461.85	8889.35
462.04	8730.20
462.22	8877.65
462.40	8835.52
462.59	8727.86
462.77	8788.71
462.95	8793.39
463.13	8950.21
463.32	9050.85
463.50	8889.35
463.68	8966.59
463.86	9076.60
464.05	8833.18
464.23	8669.34
464.41	9277.88
464.59	8779.35
464.78	8961.91
464.96	9289.59
465.14	8987.66
465.32	9240.44
465.50	9310.65
465.69	9095.32
465.87	9291.93
466.05	9125.75
466.23	9177.24
466.41	9245.12
466.60	9275.54
466.78	9123.41
466.96	9006.38
467.14	9282.56
467.32	9408.95
467.51	9645.35
467.69	8959.57
467.87	9387.89
468.05	9736.63
468.23	9479.17
468.41	9366.82
468.60	9724.93
468.78	9563.43
468.96	9521.30
469.14	9633.64
469.32	9930.89
469.50	9537.68
469.69	9753.01
469.87	9886.42
470.05	9661.73
470.23	9942.60
470.41	9832.59
470.59	9797.48
470.77	9753.01
470.95	10052.60
471.14	10136.86
471.32	10019.83
471.50	10260.91
471.68	10169.63
471.86	10162.61
472.04	10387.30
472.22	10693.91
472.40	10471.56
472.58	10333.47
472.77	10162.61
472.95	10480.92
473.13	10808.59
473.31	10569.86
473.49	10436.45
473.67	10789.87
473.85	10633.05
474.03	10855.40
474.21	11201.80
474.39	11042.65
474.57	11147.97
474.75	11150.31
474.93	11042.65
475.12	10867.11
475.30	11295.43
475.48	11021.58
475.66	11126.91
475.84	11220.53
476.02	11379.68
476.20	11520.12
476.38	11473.31
476.56	11808.00
476.74	11768.21
476.92	11861.84
477.10	11627.78
477.28	12065.46
477.46	12084.19
477.64	12210.57
477.82	12355.69
478.00	12613.15
478.18	12549.95
478.36	12453.99
478.54	12521.87
478.72	12531.23
478.90	12592.08
479.08	12910.40
479.26	13135.09
479.44	13247.43
479.62	13172.54
479.80	13427.65
479.98	13532.98
480.16	13717.88
480.34	13804.48
480.52	13680.43
480.70	13790.44
480.88	13781.07
481.06	13703.84
481.24	14097.05
481.41	14104.07
481.59	14293.65
481.77	14174.28
481.95	14181.31
482.13	14640.05
482.31	14576.86
482.49	14902.19
482.67	14736.01
482.85	14710.27
483.03	15138.58
483.21	15367.96
483.39	15487.32
483.57	15325.83
483.74	15789.25
483.92	15627.76
484.10	15583.29
484.28	15807.98
484.46	15887.56
484.64	16439.92
484.82	16252.68
485.00	16070.12
485.18	16271.40
485.35	16613.12
485.53	16346.30
485.71	16107.57
485.89	16233.96
486.07	16451.63
486.25	16692.70
486.43	16973.56
486.61	16987.61
486.78	16905.69
486.96	17364.43
487.14	17561.04
487.32	17837.22
487.50	18328.74
487.68	18185.96
487.85	18473.85
488.03	18611.94
488.21	18649.39
488.39	18382.57
488.57	18625.98
488.75	18731.31
488.92	19211.12
489.10	19695.61
489.28	19309.42
489.46	19477.94
489.64	19599.65
489.81	19967.11
489.99	20152.01
490.17	20226.91
490.35	20748.85
490.53	20262.02
490.70	20339.26
490.88	20149.67
491.06	20643.52
491.24	20596.71
491.41	20910.35
491.59	20624.80
491.77	20863.54
491.95	21076.52
492.13	21111.63
492.30	21703.79
492.48	21387.82
492.66	22263.18
492.84	21881.67
493.01	22113.38
493.19	21738.90
493.37	22209.34
493.54	22146.15
493.72	22499.57
493.90	22656.39
494.08	23044.91
494.25	23119.81
494.43	23253.22
494.61	23363.23
494.79	23550.47
494.96	23328.12
495.14	23616.01
495.32	23660.48
495.49	24027.94
495.67	23997.51
495.85	24041.98
496.02	24109.86
496.20	24552.22
496.38	24238.59
496.55	24655.20
496.73	25263.74
496.91	25050.75
497.09	25256.72
497.26	25127.99
497.44	25057.78
497.62	25043.73
497.79	25144.38
497.97	25146.72
498.14	25296.51
498.32	25369.07
498.50	25802.07
498.67	25879.30
498.85	25823.13
499.03	25951.86
499.20	25923.77
499.38	26452.73
499.56	26586.15
499.73	26462.10
499.91	26778.07
500.08	26937.23
500.26	26153.15
500.44	26817.86
500.61	26803.82
500.79	26611.89
500.97	26918.50
501.14	27346.82
501.32	27152.55
501.49	27108.08
501.67	27154.90
501.84	27737.69
502.02	27377.25
502.20	27786.84
502.37	27924.93
502.55	27857.06
502.72	27964.72
502.90	28168.35
503.07	27950.68
503.25	28240.90
503.43	28154.30
503.60	28240.90
503.78	28154.30
503.95	28542.83
504.13	28290.06
504.30	28720.71
504.48	28879.87
504.65	29149.03
504.83	28830.72
505.01	29156.05
505.18	29296.49
505.36	29736.51
505.53	29392.45
505.71	29888.64
505.88	29895.66
506.06	29315.21
506.23	29401.81
506.41	29778.64
506.58	29685.01
506.76	29937.79
506.93	30216.32
507.11	29881.62
507.28	29816.08
507.46	30174.19
507.63	30031.41
507.81	30061.84
507.98	30045.46
508.16	30621.23
508.33	30443.35
508.50	30841.24
508.68	30834.22
508.85	31164.23
509.03	31211.04
509.20	30841.24
509.38	31201.68
509.55	31136.15
509.73	31082.31
509.90	31215.72
510.08	31222.75
510.25	31386.58
510.42	31412.33
510.60	31835.97
510.77	31847.67
510.95	32037.25
511.12	32327.48
511.30	32369.61
511.47	32388.33
511.64	32460.89
511.82	32727.71
511.99	32374.29
512.17	32472.59
512.34	32210.45
512.51	32774.52
512.69	32591.96
512.86	33043.68
513.04	32891.55
513.21	32444.51
513.38	32713.67
513.56	32912.61
513.73	33387.74
513.90	32952.40
514.08	32842.40
514.25	33191.14
514.43	33116.24
514.60	33270.72
514.77	33219.22
514.95	33464.98
515.12	33677.97
515.29	33544.56
515.47	33626.48
515.64	34164.80
515.81	33942.45
515.99	33888.62
516.16	33869.89
516.33	33446.26
516.51	33453.28
516.68	33195.82
516.85	33228.59
517.03	33364.34
517.20	33809.04
517.37	34117.99
517.54	34302.89
517.72	34284.17
517.89	34157.78
518.06	33881.60
518.24	34099.26
518.41	34628.23
518.58	34380.13
518.75	34431.62
518.93	34597.80
519.10	34855.26
519.27	35115.06
519.45	35255.49
519.62	35288.26
519.79	35536.35
519.96	35292.94
520.14	35402.94
520.31	35299.96
520.48	35803.17
520.65	35629.98
520.83	36142.55
521.00	36095.74
521.17	35592.53
521.34	35828.92
521.52	35700.19
521.69	36297.03
521.86	35985.74
522.03	36346.18
522.20	36491.29
522.38	36594.28
522.55	36381.29
522.72	36261.92
522.89	36156.60
523.07	36917.27
523.24	36306.39
523.41	36959.40
523.58	37038.98
523.75	37020.25
523.92	37493.04
524.10	37343.25
524.27	37467.30
524.44	37338.57
524.61	37282.39
524.78	37682.62
524.96	37483.68
525.13	37570.28
525.30	37216.86
525.47	38188.18
525.64	37666.24
525.81	37532.83
525.98	37570.28
526.16	37610.07
526.33	37376.01
526.50	37614.75
526.67	37078.77
526.84	37703.69
527.01	37397.08
527.18	37741.14
527.36	38424.57
527.53	38384.79
527.70	38204.56
527.87	38082.86
528.04	38644.59
528.21	38649.27
528.38	38150.73
528.55	39510.58
528.72	38948.85
528.89	38782.68
529.07	38419.89
529.24	38321.59
529.41	38979.28
529.58	38567.35
529.75	39033.11
529.92	39337.38
530.09	39014.39
530.26	39386.54
530.43	39276.53
530.60	39463.77
530.77	39185.25
530.94	39679.10
531.11	39533.99
531.28	39295.25
531.46	39173.55
531.63	39725.91
531.80	39522.29
531.97	39131.42
532.14	39538.67
532.31	38974.60
532.48	39725.91
532.65	39358.45
532.82	39384.19
532.99	40229.13
533.16	39569.10
533.33	40013.80
533.50	39800.81
533.67	40297.00
533.84	39885.07
534.01	40357.86
534.18	40147.21
534.35	40428.07
534.52	40481.91
534.69	40437.44
534.86	40755.75
535.03	40528.72
535.20	40662.13
535.37	40938.31
535.54	40879.80
535.71	40594.25
535.88	40851.71
536.05	40575.53
536.22	40624.68
536.38	41099.81
536.55	40987.46
536.72	41317.48
536.89	40704.26
537.06	40687.87
537.23	41303.43
537.40	41219.17
537.57	40982.78
537.74	41130.23
537.91	41125.55
538.08	41099.81
538.25	41074.06
538.42	41324.50
538.59	41741.11
538.75	40741.71
538.92	41205.13
539.09	41371.31
539.26	41296.41
539.43	41247.26
539.60	41904.95
539.77	41324.50
539.94	41818.35
540.11	40814.26
540.28	41567.91
540.44	41111.51
540.61	41523.44
540.78	41521.10
540.95	41846.44
541.12	41406.42
541.29	41614.72
541.46	41453.23
541.62	41888.57
541.79	41717.71
541.96	42054.75
542.13	42370.72
542.30	41956.44
542.47	42277.10
542.63	42096.88
542.80	42263.05
542.97	42759.25
543.14	42740.52
543.31	42679.67
543.48	42649.24
543.64	43416.94
543.81	42850.53
543.98	42445.62
544.15	42944.15
544.32	43051.81
544.48	43374.81
544.65	43068.20
544.82	42979.26
544.99	42972.24
545.16	43012.02
545.32	42848.19
545.49	43522.26
545.66	43421.62
545.83	43505.88
546.00	43739.93
546.16	43068.20
546.33	43210.97
546.50	42930.11
546.67	43634.61
546.83	43548.01
547.00	43164.16
547.17	43150.12
547.34	43269.48
547.50	43377.15
547.67	43746.95
547.84	43882.70
548.00	43414.60
548.17	44023.14
548.34	44238.47
548.51	43878.02
548.67	44109.74
548.84	44212.72
549.01	43569.07
549.18	43339.70
549.34	43955.26
549.51	44044.20
549.68	44107.40
549.84	44226.76
550.01	44718.28
550.18	43938.88
550.34	43856.96
550.51	44046.54
550.68	44233.78
550.84	43854.62
551.01	44521.67
551.18	43892.07
551.34	44296.98
551.51	44378.90
551.68	44414.01
551.84	44170.59
552.01	44212.72
552.18	44275.91
552.34	44060.58
552.51	44451.45
552.68	44060.58
552.84	44832.96
553.01	44336.77
553.18	44561.46
553.34	44594.23
553.51	44250.17
553.67	44552.10
553.84	44406.98
554.01	44828.28
554.17	44938.29
554.34	44905.52
554.51	44788.49
554.67	45031.91
554.84	44406.98
555.00	44683.17
555.17	44744.02
555.33	45020.20
555.50	44708.91
555.67	45024.89
555.83	44896.16
556.00	44708.91
556.16	45551.51
556.33	45118.51
556.50	44556.78
556.66	45151.27
556.83	44870.41
556.99	45254.26
557.16	45202.77
557.32	45289.37
557.49	45380.65
557.65	44978.07
557.82	44830.62
557.98	45420.44
558.15	45186.38
558.32	44912.54
558.48	44699.55
558.65	45427.46
558.81	44910.20
558.98	45020.20
559.14	45296.39
559.31	45076.38
559.47	45371.28
559.64	45500.01
559.80	45668.53
559.97	45567.89
560.13	44971.05
560.30	45846.41
560.46	45476.61
560.63	45216.81
560.79	45865.14
560.96	45902.59
561.12	45350.22
561.29	45418.10
561.45	45209.79
561.61	45507.04
561.78	45490.65
561.94	45485.97
562.11	45127.87
562.27	45354.90
562.44	45406.39
562.60	45612.36
562.77	45954.08
562.93	45652.15
563.10	45432.14
563.26	45022.54
563.42	46162.39
563.59	45591.30
563.75	46019.61
563.92	45780.88
564.08	45937.69
564.24	46040.68
564.41	45453.20
564.57	45546.82
564.74	45834.71
564.90	45745.77
565.07	45923.65
565.23	45504.70
565.39	45584.27
565.56	45652.15
565.72	45572.57
565.88	45617.04
566.05	45752.79
566.21	45708.32
566.38	45792.58
566.54	45713.00
566.70	45949.40
566.87	46110.89
567.03	46134.30
567.19	46373.03
567.36	46003.23
567.52	45881.52
567.68	46099.19
567.85	45771.52
568.01	45783.22
568.17	46267.71
568.34	46036.00
568.50	45844.07
568.66	45734.07
568.83	45717.68
568.99	46021.95
569.15	45661.51
569.32	45951.74
569.48	45689.60
569.64	46202.18
569.81	46085.15
569.97	46045.36
570.13	46073.45
570.30	45373.63
570.46	45792.58
570.62	45626.40
570.78	45385.33
570.95	45827.69
571.11	46199.83
571.27	45736.41
571.43	46232.60
571.60	45832.37
571.76	45766.84
571.92	46012.59
572.09	45911.95
572.25	46057.06
572.41	45823.01
572.57	46312.18
572.74	46574.32
572.90	45989.19
573.06	45715.34
573.22	45909.61
573.38	46309.84
573.55	46012.59
573.71	46574.32
573.87	46454.95
574.03	46117.92
574.20	46384.74
574.36	46246.65
574.52	46195.15
574.68	46253.67
574.84	46412.82
575.01	45937.69
575.17	46064.08
575.33	45907.27
575.49	45603.00
575.65	46087.49
575.82	46312.18
575.98	46195.15
576.14	46429.21
576.30	46183.45
576.46	45844.07
576.62	46068.76
576.79	46253.67
576.95	45902.59
577.11	46328.56
577.27	46178.77
577.43	46061.74
577.59	46150.68
577.75	46218.56
577.92	45443.84
578.08	45930.67
578.24	45717.68
578.40	45801.94
578.56	46209.20
578.72	46064.08
578.88	46279.41
579.04	46291.12
579.21	46366.01
579.37	46031.32
579.53	46246.65
579.69	46099.19
579.85	46192.81
580.01	45925.99
580.17	46223.24
580.33	46295.80
580.49	46586.02
580.65	46206.86
580.82	46356.65
580.98	45951.74
581.14	46138.98
581.30	46536.87
581.46	46213.88
581.62	46153.02
581.78	46309.84
581.94	46731.14
582.10	46321.54
582.26	46302.82
582.42	46501.76
582.58	46469.00
582.74	46464.32
582.90	46483.04
583.06	46597.73
583.22	46487.72
583.38	46623.47
583.54	46351.97
583.70	46522.83
583.86	46396.44
584.02	46162.39
584.18	46714.75
584.34	46227.92
584.50	46160.05
584.66	46546.23
584.82	46272.39
584.98	46436.23
585.14	46590.70
585.30	45977.48
585.46	46431.55
585.62	46127.28
585.78	45827.69
585.94	45956.42
586.10	46274.73
586.26	46014.93
586.42	46623.47
586.58	46394.10
586.74	46454.95
586.90	46426.87
587.06	45977.48
587.22	46284.09
587.38	46078.13
587.54	46258.35
587.70	46494.74
587.86	45818.33
588.02	46293.46
588.18	46581.34
588.34	46433.89
588.49	46033.66
588.65	45544.48
588.81	45680.24
588.97	46092.17
589.13	45888.54
589.29	45986.85
589.45	45989.19
589.61	46017.27
589.77	45977.48
589.93	46499.42
590.08	46291.12
