SpectraSuite Data File
++++++++++++++++++++++++++++++++++++
Date: Fri Oct 25 11:25:59 EDT 2013
User: price-jones
Dark Spectrum Present: No
Reference Spectrum Present: No
Number of Sampled Component Spectra: 1
Spectrometers: USB2+H05261
Integration Time (usec): 100000 (USB2+H05261)
Spectra Averaged: 1 (USB2+H05261)
Boxcar Smoothing: 0 (USB2+H05261)
Correct for Electrical Dark: No (USB2+H05261)
Strobe/Lamp Enabled: No (USB2+H05261)
Correct for Detector Non-linearity: No (USB2+H05261)
Correct for Stray Light: No (USB2+H05261)
Number of Pixels in Processed Spectrum: 2048
>>>>>Begin Processed Spectral Data<<<<<
365.73	250.44
365.92	250.44
366.12	250.44
366.32	196.60
366.52	152.13
366.72	128.73
366.91	208.31
367.11	119.37
367.31	86.60
367.51	156.82
367.70	126.39
367.90	166.18
368.10	72.56
368.30	135.75
368.49	159.16
368.69	184.90
368.89	173.20
369.09	110.01
369.28	175.54
369.48	182.56
369.68	215.33
369.87	187.24
370.07	182.56
370.27	220.01
370.47	297.25
370.66	606.20
370.86	645.99
371.06	669.39
371.25	711.52
371.45	645.99
371.65	669.39
371.84	653.01
372.04	662.37
372.24	741.95
372.44	606.20
372.63	704.50
372.83	695.14
373.03	744.29
373.22	800.46
373.42	741.95
373.62	744.29
373.81	828.55
374.01	760.67
374.21	828.55
374.40	805.14
374.60	812.17
374.79	861.32
374.99	809.83
375.19	770.04
375.38	844.93
375.58	898.77
375.78	835.57
375.97	954.94
376.17	950.26
376.37	933.87
376.56	924.51
376.76	854.30
376.95	870.68
377.15	959.62
377.35	936.21
377.54	868.34
377.74	847.27
377.93	940.90
378.13	959.62
378.33	976.00
378.52	926.85
378.72	959.62
378.91	966.64
379.11	1048.56
379.31	903.45
379.50	917.49
379.70	990.05
379.89	983.02
380.09	880.04
380.28	961.96
380.48	877.70
380.68	1064.94
380.87	978.34
381.07	1034.52
381.26	992.39
381.46	1027.50
381.65	940.90
381.85	945.58
382.04	1093.03
382.24	1107.07
382.43	1123.46
382.63	1015.79
382.83	1088.35
383.02	1137.50
383.22	1086.01
383.41	1111.75
383.61	1135.16
383.80	1160.91
384.00	1191.33
384.19	1210.06
384.39	1093.03
384.58	1114.10
384.78	1076.65
384.97	1118.78
385.17	1135.16
385.36	1053.24
385.56	1231.12
385.75	1086.01
385.95	1163.25
386.14	1200.69
386.34	1315.38
386.53	1104.73
386.72	1142.18
386.92	1254.53
387.11	1378.58
387.31	1200.69
387.50	1259.21
387.70	1282.61
387.89	1240.48
388.09	1256.87
388.28	1324.74
388.48	1299.00
388.67	1294.32
388.86	1268.57
389.06	1366.87
389.25	1315.38
389.45	1376.24
389.64	1394.96
389.84	1315.38
390.03	1343.47
390.22	1266.23
390.42	1291.98
390.61	1404.32
390.81	1497.94
391.00	1432.41
391.19	1430.07
391.39	1481.56
391.58	1394.96
391.78	1455.81
391.97	1371.55
392.16	1495.60
392.36	1504.96
392.55	1500.28
392.75	1500.28
392.94	1500.28
393.13	1500.28
393.33	1467.52
393.52	1673.48
393.71	1575.18
393.91	1561.14
394.10	1554.12
394.29	1617.31
394.49	1614.97
394.68	1650.08
394.88	1626.67
395.07	1638.38
395.26	1624.33
395.46	1753.06
395.65	1736.68
395.84	1640.72
396.04	1778.81
396.23	1764.76
396.42	1811.57
396.62	1816.26
396.81	1788.17
397.00	1755.40
397.19	1799.87
397.39	1788.17
397.58	1811.57
397.77	1844.34
397.97	1849.02
398.16	1832.64
398.35	1849.02
398.55	1893.49
398.74	1893.49
398.93	2026.90
399.12	1886.47
399.32	1874.77
399.51	1942.64
399.70	2069.03
399.90	2066.69
400.09	1956.69
400.28	2036.27
400.47	2012.86
400.67	2036.27
400.86	1980.09
401.05	2085.42
401.24	2136.91
401.44	1947.33
401.63	2239.89
401.82	2108.82
402.01	2132.23
402.21	2256.28
402.40	2277.34
402.59	2211.81
402.78	2270.32
402.97	2253.94
403.17	2242.23
403.36	2305.43
403.55	2160.31
403.74	2380.32
403.93	2186.06
404.13	2354.58
404.32	2321.81
404.51	2303.09
404.70	2340.54
404.89	2319.47
405.09	2504.37
405.28	2506.71
405.47	2401.39
405.66	2588.63
405.85	2616.72
406.05	2452.88
406.24	2546.50
406.43	2553.52
406.62	2593.31
406.81	2771.19
407.00	2516.08
407.20	2506.71
407.39	2750.13
407.58	2668.21
407.77	2693.96
407.96	2862.48
408.15	2726.72
408.34	2752.47
408.54	2806.30
408.73	2834.39
408.92	2771.19
409.11	2862.48
409.30	2848.43
409.49	2818.00
409.68	2904.60
409.87	2892.90
410.07	3014.61
410.26	3035.67
410.45	2995.89
410.64	2890.56
410.83	3155.04
411.02	3077.80
411.21	3073.12
411.40	3169.09
411.59	3253.34
411.78	3262.71
411.98	3295.47
412.17	3297.81
412.36	3358.67
412.55	3318.88
412.74	3335.26
412.93	3335.26
413.12	3349.31
413.31	3501.44
413.50	3520.17
413.69	3473.36
413.88	3555.27
414.07	3574.00
414.26	3627.83
414.45	3655.92
414.64	3613.79
414.83	3679.32
415.02	3698.05
415.22	3784.65
415.41	3805.71
415.60	3861.88
415.79	3737.84
415.98	3953.16
416.17	3871.25
416.36	3875.93
416.55	4004.66
416.74	3983.59
416.93	4161.47
417.12	4102.96
417.31	4231.69
417.50	4271.48
417.69	4301.90
417.88	4182.54
418.07	4084.23
418.26	4205.94
418.45	4458.72
418.64	4423.61
418.83	4540.64
419.02	4496.17
419.21	4440.00
419.39	4540.64
419.58	4386.16
419.77	4498.51
419.96	4507.87
420.15	4699.80
420.34	4465.74
420.53	4465.74
420.72	4664.69
420.91	4681.07
421.10	4685.75
421.29	4828.53
421.48	4760.65
421.67	4791.08
421.86	4718.52
422.05	4781.71
422.24	4772.35
422.43	4737.24
422.61	4856.61
422.80	4933.85
422.99	4751.29
423.18	4936.19
423.37	5004.07
423.56	5006.41
423.75	4819.16
423.94	4823.84
424.13	4578.09
424.32	4791.08
424.50	4933.85
424.69	5144.50
424.88	4903.42
425.07	4952.57
425.26	4837.89
425.45	4868.31
425.64	4910.44
425.83	5006.41
426.01	5055.56
426.20	5102.37
426.39	4971.30
426.58	4947.89
426.77	4917.47
426.96	5034.49
427.15	5004.07
427.33	5252.16
427.52	5179.61
427.71	5170.24
427.90	5158.54
428.09	5137.48
428.28	5390.25
428.46	5270.89
428.65	5343.44
428.84	5427.70
429.03	5502.60
429.22	5357.49
429.40	5483.88
429.59	5313.02
429.78	5406.64
429.97	5408.98
430.16	5605.58
430.34	5495.58
430.53	5682.82
430.72	5584.52
430.91	5689.84
431.10	5462.81
431.28	5750.70
431.47	5806.87
431.66	5858.36
431.85	5743.67
432.03	5851.34
432.22	5809.21
432.41	5799.85
432.60	5692.18
432.79	5909.85
432.97	6054.97
433.16	6003.47
433.35	5863.04
433.54	6076.03
433.72	6141.57
433.91	6157.95
434.10	6162.63
434.28	6246.89
434.47	6202.42
434.66	6164.97
434.85	6342.85
435.03	6256.25
435.22	6267.95
435.41	6457.54
435.59	6267.95
435.78	6464.56
435.97	6553.50
436.16	6375.62
436.34	6305.40
436.53	6413.07
436.72	6619.04
436.90	6249.23
437.09	6572.22
437.28	6534.78
437.46	6637.76
437.65	6806.28
437.84	6651.80
438.02	6656.48
438.21	6810.96
438.40	6799.26
438.58	7080.12
438.77	7131.61
438.96	6848.41
439.14	7087.14
439.33	7101.19
439.52	7199.49
439.70	7206.51
439.89	7442.90
440.08	7199.49
440.26	7485.03
440.45	7229.91
440.63	7440.56
440.82	7590.36
441.01	7674.62
441.19	7660.57
441.38	7646.53
441.57	7606.74
441.75	7857.18
441.94	7824.41
442.12	7765.90
442.31	8154.43
442.50	7948.46
442.68	7852.50
442.87	7892.29
443.05	8112.30
443.24	8191.88
443.43	7964.84
443.61	8304.22
443.80	8444.65
443.98	8018.68
444.17	7775.26
444.35	8259.75
444.54	8329.97
444.73	8278.47
444.91	8205.92
445.10	8299.54
445.28	8243.37
445.47	8198.90
445.65	8196.56
445.84	8425.93
446.02	8500.83
446.21	8404.86
446.39	8395.50
446.58	8542.96
446.77	8507.85
446.95	8194.22
447.14	8552.32
447.32	8500.83
447.51	8454.02
447.69	8505.51
447.88	8524.23
448.06	8564.02
448.25	8458.70
448.43	8580.40
448.62	8575.72
448.80	8491.46
448.99	8641.26
449.17	8479.76
449.36	8688.07
449.54	8681.05
449.73	8975.95
449.91	8901.06
450.10	8854.25
450.28	8973.61
450.46	9191.28
450.65	9041.49
450.83	9135.11
451.02	8987.66
451.20	9130.43
451.39	9022.77
451.57	9137.45
451.76	9025.11
451.94	9104.68
452.13	9380.87
452.31	9210.01
452.49	9184.26
452.68	9312.99
452.86	9263.84
453.05	9408.95
453.23	9708.54
453.42	9305.97
453.60	9352.78
453.78	9563.43
453.97	9483.85
454.15	9387.89
454.34	9380.87
454.52	9788.12
454.70	9628.96
454.89	9652.37
455.07	9820.89
455.26	9919.19
455.44	9956.64
455.62	9745.99
455.81	9956.64
455.99	10054.94
456.17	9991.75
456.36	9921.53
456.54	10211.76
456.73	10045.58
456.91	10394.32
457.09	10307.72
457.28	10380.28
457.46	10420.06
457.64	10600.29
457.83	10403.68
458.01	10525.39
458.19	10806.25
458.38	10497.30
458.56	10757.10
458.74	10736.04
458.93	10759.44
459.11	10616.67
459.29	10829.66
459.48	10988.82
459.66	10614.33
459.84	10927.96
460.03	11040.31
460.21	10878.81
460.39	10967.75
460.57	10953.71
460.76	11164.36
460.94	11101.16
461.12	11201.80
461.31	11225.21
461.49	11197.12
461.67	11044.99
461.85	11225.21
462.04	11213.51
462.22	11770.55
462.40	11297.77
462.59	11316.49
462.77	11543.52
462.95	11459.26
463.13	11513.10
463.32	11639.48
463.50	11625.44
463.68	11852.47
463.86	12009.29
464.05	11597.35
464.23	11545.86
464.41	11896.94
464.59	11672.25
464.78	12138.02
464.96	12184.83
465.14	11815.02
465.32	12086.53
465.50	12131.00
465.69	11941.41
465.87	12262.07
466.05	12081.85
466.23	12264.41
466.41	12409.52
466.60	12248.02
466.78	12273.77
466.96	12271.43
467.14	12269.09
467.32	12453.99
467.51	12587.40
467.69	12116.95
467.87	12451.65
468.05	12627.19
468.23	12210.57
468.41	12212.92
468.60	12491.44
468.78	12594.42
468.96	12545.27
469.14	12711.45
469.32	12734.85
469.50	12601.44
469.69	12919.76
469.87	13116.36
470.05	12968.91
470.23	12952.52
470.41	13064.87
470.59	13383.18
470.77	13135.09
470.95	13212.32
471.14	13572.77
471.32	13163.17
471.50	13619.58
471.68	13745.97
471.86	13502.55
472.04	13628.94
472.22	14160.24
472.40	13633.62
472.58	14031.51
472.77	13867.67
472.95	14139.18
473.13	14310.04
473.31	14176.62
473.49	14024.49
473.67	13980.02
473.85	14427.06
474.03	14761.76
474.21	14621.33
474.39	14874.10
474.57	14595.58
474.75	14628.35
474.93	14820.27
475.12	14897.51
475.30	15049.64
475.48	14827.29
475.66	14724.31
475.84	15218.16
476.02	15094.11
476.20	15122.20
476.38	15515.41
476.56	15573.92
476.74	16159.06
476.92	15700.31
477.10	15440.51
477.28	15995.22
477.46	16063.10
477.64	16175.44
477.82	16339.28
478.00	16718.45
478.18	16922.07
478.36	16884.62
478.54	17156.13
478.72	17261.45
478.90	17088.25
479.08	17448.69
479.26	17804.46
479.44	17731.90
479.62	17867.65
479.80	18115.75
479.98	17963.61
480.16	18595.56
480.34	17998.72
480.52	18492.57
480.70	18523.00
480.88	18530.02
481.06	18459.81
481.24	18677.48
481.41	19229.84
481.59	19119.84
481.77	19414.74
481.95	19480.28
482.13	19604.33
482.31	19515.39
482.49	19995.20
482.67	20287.76
482.85	20126.27
483.03	20678.63
483.21	20753.53
483.39	20879.92
483.57	21034.39
483.74	21104.61
483.92	21390.16
484.10	21231.00
484.28	21572.72
484.46	21874.65
484.64	21940.18
484.82	21795.07
485.00	22525.32
485.18	22707.88
485.35	22773.41
485.53	22731.28
485.71	22930.23
485.89	23529.41
486.07	22988.74
486.25	23442.81
486.43	23541.11
486.61	23648.77
486.78	24261.99
486.96	24219.86
487.14	24580.31
487.32	24533.50
487.50	24795.64
487.68	24709.04
487.85	25490.77
488.03	25486.09
488.21	25757.60
488.39	25458.01
488.57	25972.92
488.75	25799.73
488.92	26363.79
489.10	26710.19
489.28	26221.02
489.46	26829.56
489.64	27096.38
489.81	27704.92
489.99	27744.71
490.17	27702.58
490.35	27938.97
490.53	28191.75
490.70	28474.96
490.88	28107.49
491.06	28751.14
491.24	28741.78
491.41	28957.11
491.59	29228.61
491.77	28879.87
491.95	29404.15
492.13	29593.73
492.30	29738.85
492.48	29919.07
492.66	30026.73
492.84	30096.95
493.01	30789.75
493.19	30520.59
493.37	31079.97
493.54	31124.44
493.72	31072.95
493.90	31220.41
494.08	32053.64
494.25	31938.95
494.43	31899.16
494.61	32266.63
494.79	32264.28
494.96	32561.53
495.14	32500.68
495.32	32739.41
495.49	32989.85
495.67	33319.87
495.85	33565.62
496.02	33640.52
496.20	33921.38
496.38	33982.24
496.55	34529.92
496.73	34808.45
496.91	34288.85
497.09	34677.38
497.26	34958.24
497.44	34717.17
497.62	35283.58
497.79	35578.48
497.97	35379.54
498.14	35653.38
498.32	35887.43
498.50	36006.80
498.67	36629.38
498.85	36018.50
499.03	36596.62
499.20	36519.38
499.38	36495.97
499.56	36907.91
499.73	37125.58
499.91	37287.07
500.08	37354.95
500.26	37113.87
500.44	37530.49
500.61	37633.47
500.79	37801.99
500.97	38141.37
501.14	38300.53
501.32	38621.18
501.49	38689.06
501.67	38445.64
501.84	39381.85
502.02	38794.38
502.20	38820.13
502.37	38836.51
502.55	39047.16
502.72	39807.83
502.90	39533.99
503.07	39290.57
503.25	39498.88
503.43	39672.08
503.60	40084.01
503.78	40004.44
503.95	40051.25
504.13	40210.40
504.30	40821.28
504.48	40561.48
504.65	40549.78
504.83	40994.48
505.01	40999.16
505.18	41284.71
505.36	41523.44
505.53	40980.44
505.71	41741.11
505.88	41799.63
506.06	41237.90
506.23	42064.11
506.41	41392.37
506.58	41851.12
506.76	41993.89
506.93	42220.92
507.11	42768.61
507.28	42642.22
507.46	42726.48
507.63	42883.30
507.81	43323.32
507.98	42986.28
508.16	43330.34
508.33	43440.34
508.50	43344.38
508.68	43056.50
508.85	43672.06
509.03	43718.87
509.20	43763.34
509.38	43997.39
509.55	43990.37
509.73	44278.25
509.90	44568.48
510.08	44662.10
510.25	44828.28
510.42	44704.23
510.60	44739.34
510.77	45221.49
510.95	45020.20
511.12	44715.93
511.30	44879.77
511.47	45167.66
511.64	45713.00
511.82	45701.30
511.99	45659.17
512.17	46370.69
512.34	45584.27
512.51	46089.83
512.69	46515.81
512.86	46520.49
513.04	46637.51
513.21	46651.56
513.38	46887.95
513.56	46782.63
513.73	46614.11
513.90	46981.57
514.08	46490.06
514.25	46979.23
514.43	47210.95
514.60	47269.46
514.77	47166.48
514.95	47634.58
515.12	47353.72
515.29	47349.04
515.47	47917.79
515.64	47683.73
515.81	47934.17
515.99	47896.72
516.16	48006.73
516.33	48210.35
516.51	48568.46
516.68	48411.64
516.85	48938.26
517.03	48959.33
517.20	48917.20
517.37	48411.64
517.54	48568.46
517.72	48706.55
517.89	48659.74
518.06	48795.49
518.24	49230.83
518.41	49106.78
518.58	49481.27
518.75	49191.04
518.93	49675.53
519.10	49415.73
519.27	49797.24
519.45	49434.45
519.62	49621.70
519.79	49858.09
519.96	49792.56
520.14	50106.19
520.31	49902.56
520.48	50124.91
520.65	50117.89
520.83	50630.47
521.00	50576.64
521.17	50344.92
521.34	50333.22
521.52	50944.10
521.69	50459.61
521.86	51011.98
522.03	50876.22
522.20	51320.93
522.38	51278.80
522.55	51215.60
522.72	51194.54
522.89	51302.20
523.07	51423.91
523.24	51489.45
523.41	51943.51
523.58	51538.60
523.75	51597.11
523.92	51749.24
524.10	51716.48
524.27	51683.71
524.44	51966.91
524.61	51753.93
524.78	52032.45
524.96	51796.06
525.13	52079.26
525.30	52275.87
525.47	52582.48
525.64	52198.63
525.81	52156.50
525.98	52502.90
526.16	52479.49
526.33	52608.22
526.50	52891.43
526.67	52793.12
526.84	52933.56
527.01	52924.19
527.18	52844.62
527.36	52781.42
527.53	52989.73
527.70	53151.23
527.87	53408.68
528.04	52949.94
528.21	53294.00
528.38	53333.79
528.55	53478.90
528.72	53207.40
528.89	53322.08
529.07	53326.77
529.24	53532.73
529.41	53661.46
529.58	53502.31
529.75	53478.90
529.92	53626.35
530.09	53869.77
530.26	53939.99
530.43	54110.85
530.60	53881.47
530.77	53846.36
530.94	53785.51
531.11	53979.78
531.28	53984.46
531.46	54096.80
531.63	54220.85
531.80	54066.38
531.97	54415.11
532.14	54394.05
532.31	54248.94
532.48	54674.91
532.65	54539.16
532.82	54440.86
532.99	54768.54
533.16	54756.83
533.33	54679.60
533.50	54564.91
533.67	54541.50
533.84	54789.60
534.01	55011.95
534.18	54824.71
534.35	55456.65
534.52	55068.12
534.69	55023.65
534.86	55262.39
535.03	54932.37
535.20	55271.75
535.37	55126.64
535.54	55187.49
535.71	55140.68
535.88	55433.25
536.05	55323.24
536.22	55444.95
536.38	55512.83
536.55	55388.78
536.72	55466.02
536.89	55327.92
537.06	55423.89
537.23	55683.69
537.40	55501.12
537.57	55695.39
537.74	55655.60
537.91	55955.19
538.08	55945.83
538.25	55751.56
538.42	55723.47
538.59	55938.80
538.75	55971.57
538.92	55931.78
539.09	56006.68
539.26	55917.74
539.43	55920.08
539.60	56097.96
539.77	55955.19
539.94	56481.81
540.11	56154.13
540.28	56292.22
540.44	56463.08
540.61	56294.56
540.78	56605.86
540.95	56226.69
541.12	56350.74
541.29	56449.04
541.46	56629.26
541.62	56439.68
541.79	56587.13
541.96	56367.12
542.13	56537.98
542.30	56474.79
542.47	56715.86
542.63	56893.74
542.80	56690.12
542.97	57172.27
543.14	57207.37
543.31	57120.77
543.48	57008.43
543.64	57162.90
543.81	57198.01
543.98	57338.44
544.15	57284.61
544.32	57457.81
544.48	57652.08
544.65	57396.96
544.82	57420.36
544.99	57219.08
545.16	57249.50
545.32	57289.29
545.49	57490.58
545.66	57684.84
545.83	57811.23
546.00	57829.96
546.16	57556.11
546.33	57593.56
546.50	57392.28
546.67	57736.34
546.83	57422.70
547.00	57762.08
547.17	57579.52
547.34	57612.29
547.50	57925.92
547.67	58277.00
547.84	57939.96
548.00	58134.23
548.17	58333.17
548.34	57998.48
548.51	58078.05
548.67	57993.79
548.84	58237.21
549.01	57986.77
549.18	58108.48
549.34	58085.07
549.51	58333.17
549.68	58375.30
549.84	58120.18
550.01	58597.65
550.18	58323.81
550.34	58471.26
550.51	58391.68
550.68	58216.14
550.84	58197.42
551.01	58560.20
551.18	58438.50
551.34	58178.70
551.51	58468.92
551.68	58440.84
551.84	58452.54
552.01	58532.12
552.18	58485.31
552.34	58632.76
552.51	58599.99
552.68	58422.11
552.84	58581.27
553.01	58688.93
553.18	58742.77
553.34	58859.79
553.51	58822.34
553.67	58632.76
553.84	58944.05
554.01	58986.18
554.17	59004.91
554.34	59040.01
554.51	58911.28
554.67	58944.05
554.84	58925.33
555.00	58972.14
555.17	59047.04
555.33	59014.27
555.50	58880.86
555.67	58815.32
555.83	58805.96
556.00	58983.84
556.16	59351.30
556.33	59182.79
556.50	59189.81
556.66	59262.36
556.83	58946.39
556.99	59297.47
557.16	59435.56
557.32	59278.75
557.49	59407.48
557.65	59105.55
557.82	59295.13
557.98	59465.99
558.15	59561.95
558.32	59554.93
558.48	59196.83
558.65	59611.10
558.81	59271.73
558.98	59538.55
559.14	59648.55
559.31	59423.86
559.47	59554.93
559.64	59482.37
559.80	59561.95
559.97	59620.47
560.13	59531.53
560.30	59746.86
560.46	59732.81
560.63	59758.56
560.79	59803.03
560.96	59924.74
561.12	59657.91
561.29	59667.28
561.45	59819.41
561.61	59700.04
561.78	59887.29
561.94	59627.49
562.11	59737.49
562.27	59781.96
562.44	59833.46
562.60	59915.37
562.77	59800.69
562.93	59765.58
563.10	60104.96
563.26	59826.43
563.42	60093.25
563.59	59840.48
563.75	59859.20
563.92	59941.12
564.08	59997.29
564.24	60088.57
564.41	59833.46
564.57	60041.76
564.74	60196.24
564.90	60069.85
565.07	59957.50
565.23	59917.71
565.39	60135.38
565.56	60257.09
565.72	60011.34
565.88	60088.57
566.05	59781.96
566.21	60067.51
566.38	60229.01
566.54	60149.43
566.70	60175.17
566.87	60364.76
567.03	60308.58
567.19	60275.82
567.36	60133.04
567.52	60086.23
567.68	60322.63
567.85	60322.63
568.01	60231.35
568.17	60182.19
568.34	60287.52
568.50	60156.45
568.66	60226.66
568.83	60339.01
568.99	60420.93
569.15	60376.46
569.32	60236.03
569.48	60355.39
569.64	60355.39
569.81	60343.69
569.97	60388.16
570.13	60322.63
570.30	60247.73
570.46	60186.88
570.62	60718.18
570.78	60390.50
570.95	60313.26
571.11	60704.13
571.27	60289.86
571.43	60456.04
571.60	60645.62
571.76	60432.63
571.92	60367.10
572.09	60643.28
572.25	60336.67
572.41	60706.47
572.57	60441.99
572.74	60706.47
572.90	60292.20
573.06	60598.81
573.22	60381.14
573.38	60500.51
573.55	60556.68
573.71	60985.00
573.87	60493.49
574.03	60233.69
574.20	60746.26
574.36	60523.91
574.52	60776.69
574.68	60685.41
574.84	60704.13
575.01	60645.62
575.17	60465.40
575.33	60575.40
575.49	60399.86
575.65	60671.37
575.82	60697.11
575.98	60701.79
576.14	60933.51
576.30	60809.46
576.46	60573.06
576.62	60718.18
576.79	60570.72
576.95	60638.60
577.11	60654.98
577.27	60659.66
577.43	60603.49
577.59	60669.03
577.75	60818.82
577.92	60402.21
578.08	60692.43
578.24	60692.43
578.40	60905.42
578.56	60743.92
578.72	60774.35
578.88	60842.23
579.04	61029.47
579.21	60727.54
579.37	60903.08
579.53	60966.27
579.69	60781.37
579.85	60671.37
580.01	60676.05
580.17	60800.10
580.33	60779.03
580.49	60938.19
580.65	60858.61
580.82	60849.25
580.98	60987.34
581.14	60755.63
581.30	60835.20
581.46	60720.52
581.62	61038.83
581.78	60867.97
581.94	60720.52
582.10	60877.33
582.26	60692.43
582.42	60692.43
582.58	60891.38
582.74	60816.48
582.90	60814.14
583.06	60884.36
583.22	60898.40
583.38	60669.03
583.54	60882.02
583.70	60673.71
583.86	60816.48
584.02	60739.24
584.18	60977.98
584.34	60907.76
584.50	60821.16
584.66	60718.18
584.82	60788.39
584.98	61169.90
585.14	60825.84
585.30	60910.10
585.46	60994.36
585.62	61076.28
585.78	60996.70
585.94	60776.69
586.10	60872.65
586.26	61006.06
586.42	60992.02
586.58	61200.33
586.74	60989.68
586.90	60924.14
587.06	61022.45
587.22	61006.06
587.38	60797.76
587.54	61268.20
587.70	61038.83
587.86	61050.53
588.02	60942.87
588.18	61006.06
588.34	60729.88
588.49	61059.90
