SpectraSuite Data File
++++++++++++++++++++++++++++++++++++
Date: Fri Oct 25 10:44:15 EDT 2013
User: price-jones
Dark Spectrum Present: No
Reference Spectrum Present: No
Number of Sampled Component Spectra: 1
Spectrometers: USB2+H05261
Integration Time (usec): 100000 (USB2+H05261)
Spectra Averaged: 1 (USB2+H05261)
Boxcar Smoothing: 0 (USB2+H05261)
Correct for Electrical Dark: No (USB2+H05261)
Strobe/Lamp Enabled: No (USB2+H05261)
Correct for Detector Non-linearity: No (USB2+H05261)
Correct for Stray Light: No (USB2+H05261)
Number of Pixels in Processed Spectrum: 2048
>>>>>Begin Processed Spectral Data<<<<<
365.73	184.90
365.92	184.90
366.12	184.90
366.32	81.92
366.52	49.15
366.72	98.30
366.91	56.17
367.11	72.56
367.31	32.77
367.51	9.36
367.70	16.38
367.90	14.04
368.10	21.06
368.30	0.00
368.49	37.45
368.69	49.15
368.89	23.41
369.09	0.00
369.28	131.07
369.48	93.62
369.68	63.19
369.87	117.03
370.07	152.13
370.27	168.52
370.47	203.63
370.66	290.23
370.86	442.36
371.06	454.06
371.25	500.87
371.45	428.32
371.65	552.37
371.84	456.40
372.04	475.13
372.24	491.51
372.44	505.56
372.63	503.22
372.83	482.15
373.03	533.64
373.22	468.11
373.42	507.90
373.62	512.58
373.81	550.03
374.01	566.41
374.21	543.00
374.40	496.19
374.60	636.63
374.79	564.07
374.99	552.37
375.19	615.56
375.38	608.54
375.58	629.60
375.78	585.13
375.97	662.37
376.17	648.33
376.37	704.50
376.56	622.58
376.76	650.67
376.95	615.56
377.15	629.60
377.35	601.52
377.54	636.63
377.74	660.03
377.93	592.16
378.13	564.07
378.33	650.67
378.52	730.25
378.72	697.48
378.91	610.88
379.11	662.37
379.31	676.41
379.50	643.65
379.70	690.46
379.89	727.91
380.09	671.73
380.28	662.37
380.48	704.50
380.68	685.78
380.87	674.07
381.07	629.60
381.26	755.99
381.46	770.04
381.65	723.23
381.85	795.78
382.04	702.16
382.24	650.67
382.43	753.65
382.63	772.38
382.83	739.61
383.02	744.29
383.22	709.18
383.41	821.53
383.61	795.78
383.80	753.65
384.00	699.82
384.19	753.65
384.39	746.63
384.58	837.91
384.78	819.19
384.97	741.95
385.17	823.87
385.36	805.14
385.56	866.00
385.75	763.01
385.95	788.76
386.14	739.61
386.34	880.04
386.53	753.65
386.72	814.51
386.92	884.72
387.11	856.64
387.31	856.64
387.50	910.47
387.70	882.38
387.89	922.17
388.09	809.83
388.28	903.45
388.48	896.43
388.67	990.05
388.86	983.02
389.06	976.00
389.25	983.02
389.45	940.90
389.64	961.96
389.84	983.02
390.03	966.64
390.22	987.71
390.42	976.00
390.61	1001.75
390.81	1001.75
391.00	1093.03
391.19	1015.79
391.39	1022.81
391.58	1034.52
391.78	1074.31
391.97	1041.54
392.16	1046.22
392.36	1076.65
392.55	1074.31
392.75	978.34
392.94	1020.47
393.13	1013.45
393.33	976.00
393.52	997.07
393.71	1100.05
393.91	1149.20
394.10	1172.61
394.29	1076.65
394.49	1240.48
394.68	1266.23
394.88	1177.29
395.07	1256.87
395.26	1200.69
395.46	1203.04
395.65	1217.08
395.84	1231.12
396.04	1313.04
396.23	1132.82
396.42	1109.41
396.62	1261.55
396.81	1174.95
397.00	1242.82
397.19	1280.27
397.39	1263.89
397.58	1352.83
397.77	1387.94
397.97	1334.11
398.16	1364.53
398.35	1500.28
398.55	1469.86
398.74	1652.42
398.93	1455.81
399.12	1570.50
399.32	1490.92
399.51	1554.12
399.70	1579.86
399.90	1558.80
400.09	1603.27
400.28	1504.96
400.47	1661.78
400.67	1645.40
400.86	1598.59
401.05	1703.91
401.24	1643.06
401.44	1739.02
401.63	1645.40
401.82	1687.53
402.01	1748.38
402.21	1746.04
402.40	1734.34
402.59	1661.78
402.78	1767.10
402.97	1746.04
403.17	1753.06
403.36	1776.47
403.55	1816.26
403.74	1853.70
403.93	1823.28
404.13	1884.13
404.32	1860.73
404.51	1893.49
404.70	1802.21
404.89	1984.77
405.09	2043.29
405.28	1870.09
405.47	1959.03
405.66	1930.94
405.85	1923.92
406.05	1916.90
406.24	2012.86
406.43	2066.69
406.62	1975.41
406.81	2167.34
407.00	2012.86
407.20	2101.80
407.39	2076.06
407.58	2094.78
407.77	2167.34
407.96	2169.68
408.15	2207.13
408.34	2310.11
408.54	2132.23
408.73	2258.62
408.92	2263.30
409.11	2363.94
409.30	2314.79
409.49	2244.57
409.68	2272.66
409.87	2312.45
410.07	2256.28
410.26	2375.64
410.45	2417.77
410.64	2546.50
410.83	2485.65
411.02	2579.27
411.21	2565.23
411.40	2565.23
411.59	2544.16
411.78	2628.42
411.98	2642.46
412.17	2677.57
412.36	2651.83
412.55	2649.49
412.74	2806.30
412.93	2738.43
413.12	2705.66
413.31	2885.88
413.50	2789.92
413.69	2874.18
413.88	2906.95
414.07	2871.84
414.26	2991.20
414.45	2984.18
414.64	2935.03
414.83	3061.42
415.02	3105.89
415.22	3068.44
415.41	3243.98
415.60	3166.74
415.79	3150.36
415.98	3272.07
416.17	3307.18
416.36	3197.17
416.55	3108.23
416.74	3251.00
416.93	3300.16
417.12	3389.10
417.31	3279.09
417.50	3353.99
417.69	3506.12
417.88	3382.07
418.07	3438.25
418.26	3316.54
418.45	3433.57
418.64	3592.72
418.83	3545.91
419.02	3698.05
419.21	3726.13
419.39	3613.79
419.58	3590.38
419.77	3550.59
419.96	3531.87
420.15	3634.85
420.34	3679.32
420.53	3761.24
420.72	3889.97
420.91	3882.95
421.10	3918.06
421.29	3864.22
421.48	3878.27
421.67	3840.82
421.86	3768.26
422.05	3784.65
422.24	3651.24
422.43	3913.38
422.61	3878.27
422.80	3889.97
422.99	3812.73
423.18	3953.16
423.37	3852.52
423.56	3978.91
423.75	3861.88
423.94	3911.04
424.13	3618.47
424.32	3777.62
424.50	4016.36
424.69	4011.68
424.88	3943.80
425.07	3882.95
425.26	3995.29
425.45	4105.30
425.64	3857.20
425.83	4044.45
426.01	3920.40
426.20	4039.76
426.39	4088.92
426.58	3967.21
426.77	3995.29
426.96	3957.85
427.15	3904.01
427.33	4037.42
427.52	4152.11
427.71	4166.15
427.90	4203.60
428.09	4180.20
428.28	4114.66
428.46	4173.18
428.65	4187.22
428.84	4166.15
429.03	4198.92
429.22	4088.92
429.40	4177.86
429.59	4147.43
429.78	3859.54
429.97	3817.41
430.16	4077.21
430.34	4156.79
430.53	4191.90
430.72	4224.67
430.91	4294.88
431.10	4243.39
431.28	4542.98
431.47	4545.32
431.66	4648.30
431.85	4440.00
432.03	4622.56
432.22	4636.60
432.41	4535.96
432.60	4748.95
432.79	4638.94
432.97	4634.26
433.16	4716.18
433.35	4620.22
433.54	4655.33
433.72	4723.20
433.91	4781.71
434.10	4842.57
434.28	4802.78
434.47	4849.59
434.66	4821.50
434.85	5104.71
435.03	4973.64
435.22	5057.90
435.41	4964.28
435.59	5088.32
435.78	5135.14
435.97	5114.07
436.16	5015.77
436.34	5109.39
436.53	5167.90
436.72	5291.95
436.90	5078.96
437.09	5191.31
437.28	5125.77
437.46	5144.50
437.65	5172.58
437.84	5111.73
438.02	5170.24
438.21	5043.85
438.40	5174.92
438.58	5364.51
438.77	5420.68
438.96	5495.58
439.14	5636.01
439.33	5537.71
439.52	5724.95
439.70	5657.07
439.89	5638.35
440.08	5710.91
440.26	5657.07
440.45	5781.12
440.63	5874.74
440.82	6005.81
441.01	5959.00
441.19	6054.97
441.38	5987.09
441.57	6118.16
441.75	6181.35
441.94	6179.01
442.12	6190.72
442.31	6333.49
442.50	6422.43
442.68	6377.96
442.87	6312.42
443.05	6434.13
443.24	6368.60
443.43	6319.45
443.61	6436.47
443.80	6684.57
443.98	6387.32
444.17	6286.68
444.35	6445.84
444.54	6579.25
444.73	6544.14
444.91	6546.48
445.10	6483.28
445.28	6443.49
445.47	6434.13
445.65	6312.42
445.84	6532.44
446.02	6572.22
446.21	6511.37
446.39	6483.28
446.58	6740.74
446.77	6544.14
446.95	6614.35
447.14	6677.55
447.32	6745.42
447.51	6724.36
447.69	6654.14
447.88	6693.93
448.06	6743.08
448.25	6796.92
448.43	6768.83
448.62	6874.15
448.80	6827.34
448.99	6747.76
449.17	6733.72
449.36	6836.70
449.54	6923.30
449.73	7082.46
449.91	7164.38
450.10	7183.10
450.28	7103.53
450.46	7321.20
450.65	7077.78
450.83	7136.29
451.02	7082.46
451.20	7393.75
451.39	7218.21
451.57	7080.12
451.76	7295.45
451.94	7288.43
452.13	7258.00
452.31	7279.07
452.49	7019.27
452.68	7159.70
452.86	7265.02
453.05	7204.17
453.23	7513.12
453.42	7300.13
453.60	7459.29
453.78	7492.05
453.97	7220.55
454.15	7314.17
454.34	7368.01
454.52	7353.96
454.70	7489.71
454.89	7606.74
455.07	7325.88
455.26	7705.04
455.44	7782.28
455.62	7812.71
455.81	7770.58
455.99	7894.63
456.17	7712.07
456.36	7730.79
456.54	7915.69
456.73	7943.78
456.91	8252.73
457.09	7990.59
457.28	8170.81
457.46	7976.55
457.64	8374.44
457.83	8093.57
458.01	7803.35
458.19	8374.44
458.38	8013.99
458.56	8116.98
458.74	8006.97
458.93	8194.22
459.11	8219.96
459.29	8212.94
459.48	8444.65
459.66	8259.75
459.84	8308.90
460.03	8610.83
460.21	8617.85
460.39	8524.23
460.57	8652.96
460.76	8540.61
460.94	8681.05
461.12	8601.47
461.31	8777.01
461.49	8669.34
461.67	8566.36
461.85	8791.05
462.04	8709.13
462.22	8779.35
462.40	8938.51
462.59	8800.41
462.77	8765.31
462.95	8741.90
463.13	8774.67
463.32	8894.04
463.50	8840.20
463.68	9011.06
463.86	9069.58
464.05	8851.91
464.23	8917.44
464.41	9090.64
464.59	8805.10
464.78	9277.88
464.96	8954.89
465.14	8917.44
465.32	9170.22
465.50	9298.95
465.69	9174.90
465.87	9380.87
466.05	9210.01
466.23	9048.51
466.41	9224.05
466.60	9430.02
466.78	9320.01
466.96	9261.50
467.14	9130.43
467.32	9359.80
467.51	9380.87
467.69	9296.61
467.87	9533.00
468.05	9577.47
468.23	9535.34
468.41	9582.15
468.60	9540.02
468.78	9680.46
468.96	9509.60
469.14	9614.92
469.32	9741.31
469.50	9497.89
469.69	9816.21
469.87	9881.74
470.05	9741.31
470.23	9830.25
470.41	9907.49
470.59	9994.09
470.77	9841.95
470.95	9935.57
471.14	10038.56
471.32	10033.88
471.50	10333.47
471.68	10270.27
471.86	10438.79
472.04	10406.02
472.22	10778.17
472.40	10209.42
472.58	10354.53
472.77	10469.22
472.95	10501.98
473.13	10953.71
473.31	10576.88
473.49	10637.73
473.67	10696.25
473.85	10637.73
474.03	10923.28
474.21	10963.07
474.39	11129.25
474.57	11012.22
474.75	11077.76
474.93	11166.70
475.12	11159.67
475.30	11307.13
475.48	11166.70
475.66	11201.80
475.84	11307.13
476.02	11250.96
476.20	11473.31
476.38	11520.12
476.56	11974.18
476.74	11885.24
476.92	12011.63
477.10	11910.99
477.28	12145.04
477.46	12308.88
477.64	12376.75
477.82	12435.27
478.00	12753.58
478.18	12603.78
478.36	12601.44
478.54	12779.32
478.72	12446.97
478.90	12798.05
479.08	13076.57
479.26	13107.00
479.44	13270.84
479.62	13165.51
479.80	13441.70
479.98	13214.66
480.16	13923.85
480.34	13603.19
480.52	13738.94
480.70	13792.78
480.88	13518.93
481.06	13741.29
481.24	13928.53
481.41	14164.92
481.59	14338.12
481.77	14373.23
481.95	14431.74
482.13	14539.41
482.31	14705.59
482.49	14824.95
482.67	14944.32
482.85	14785.16
483.03	15323.49
483.21	15527.11
483.39	15222.84
483.57	15449.88
483.74	15456.90
483.92	15487.32
484.10	15573.92
484.28	15840.75
484.46	15882.88
484.64	16547.59
484.82	16023.31
485.00	16105.23
485.18	16217.57
485.35	16236.30
485.53	16315.87
485.71	16301.83
485.89	16320.56
486.07	16444.60
486.25	16662.27
486.43	16931.44
486.61	16973.56
486.78	17326.99
486.96	17179.53
487.14	17900.42
487.32	17809.14
487.50	17893.40
487.68	18029.15
487.85	18218.73
488.03	18291.29
488.21	18651.73
488.39	18607.26
488.57	18726.63
488.75	18670.45
488.92	18946.64
489.10	19227.50
489.28	19396.02
489.46	19789.23
489.64	19522.41
489.81	19995.20
489.99	20456.28
490.17	20470.33
490.35	20217.55
490.53	20306.49
490.70	20329.89
490.88	20259.68
491.06	20922.05
491.24	20739.49
491.41	21039.08
491.59	20788.64
491.77	20917.37
491.95	20996.95
492.13	21102.27
492.30	21619.53
492.48	21771.66
492.66	21713.15
492.84	21916.78
493.01	22036.14
493.19	21930.82
493.37	22450.42
493.54	22139.13
493.72	22651.70
493.90	22466.80
494.08	22654.05
494.25	23096.41
494.43	23108.11
494.61	23276.63
494.79	23735.37
494.96	23534.09
495.14	23330.46
495.32	23704.95
495.49	23480.25
495.67	23726.01
495.85	23859.42
496.02	24208.16
496.20	24542.86
496.38	24807.34
496.55	24266.67
496.73	24971.18
496.91	24858.83
497.09	25017.99
497.26	25357.36
497.44	25324.60
497.62	25301.19
497.79	25577.37
497.97	24924.36
498.14	25436.94
498.32	25788.02
498.50	25579.71
498.67	26059.52
498.85	26001.01
499.03	26176.55
499.20	25951.86
499.38	26279.54
499.56	26609.55
499.73	26632.96
499.91	26588.49
500.08	26621.25
500.26	26279.54
500.44	26625.93
500.61	26991.06
500.79	26518.27
500.97	27049.57
501.14	27218.09
501.32	27236.81
501.49	27278.94
501.67	27253.20
501.84	27410.01
502.02	27304.69
502.20	27828.97
502.37	27960.04
502.55	27646.41
502.72	28018.55
502.90	28360.27
503.07	28020.89
503.25	28079.41
503.43	27950.68
503.60	28123.88
503.78	28126.22
503.95	28039.62
504.13	28826.04
504.30	28697.31
504.48	29048.39
504.65	29170.10
504.83	28701.99
505.01	29188.82
505.18	28994.56
505.36	29378.40
505.53	29261.38
505.71	29563.31
505.88	29893.32
506.06	29549.26
506.23	29465.00
506.41	29720.12
506.58	29715.44
506.76	30022.05
506.93	29813.74
507.11	29537.56
507.28	29710.76
507.46	29947.15
507.63	29879.28
507.81	30494.84
507.98	30232.70
508.16	30237.38
508.33	30480.80
508.50	30974.65
508.68	30504.20
508.85	31594.89
509.03	31122.10
509.20	31185.30
509.38	31007.42
509.55	31262.54
509.73	31257.85
509.90	31335.09
510.08	31531.70
510.25	31339.77
510.42	31903.84
510.60	31740.00
510.77	31814.90
510.95	32184.71
511.12	31798.52
511.30	32325.14
511.47	32322.80
511.64	32472.59
511.82	32584.94
511.99	32187.05
512.17	32290.03
512.34	32353.23
512.51	32215.13
512.69	32744.09
512.86	32896.23
513.04	33008.58
513.21	32896.23
513.38	33153.69
513.56	33291.78
513.73	32914.95
513.90	33078.79
514.08	33153.69
514.25	33268.37
514.43	33027.30
514.60	33118.58
514.77	33436.89
514.95	33811.38
515.12	33369.02
515.29	33677.97
515.47	33539.88
515.64	33813.72
515.81	33521.15
515.99	33792.65
516.16	33954.15
516.33	33495.41
516.51	33198.16
516.68	33404.13
516.85	33362.00
517.03	33558.60
517.20	34232.68
517.37	34162.46
517.54	34583.76
517.72	34206.93
517.89	33825.42
518.06	34298.21
518.24	34120.33
518.41	34064.16
518.58	34728.87
518.75	34497.16
518.93	34820.15
519.10	35061.22
519.27	34850.58
519.45	35019.10
519.62	35314.00
519.79	35611.25
519.96	35407.62
520.14	35388.90
520.31	35154.85
520.48	35765.73
520.65	35353.79
520.83	35847.64
521.00	36191.70
521.17	35974.03
521.34	35793.81
521.52	35807.86
521.69	36149.57
521.86	36596.62
522.03	36659.81
522.20	36163.62
522.38	36547.47
522.55	36664.49
522.72	36402.35
522.89	36568.53
523.07	36671.51
523.24	36804.92
523.41	37017.91
523.58	36662.15
523.75	37067.06
523.92	37305.80
524.10	37448.57
524.27	37254.31
524.44	37385.38
524.61	37368.99
524.78	37460.27
524.96	37493.04
525.13	37668.58
525.30	38148.39
525.47	37937.74
525.64	37509.43
525.81	38012.64
525.98	37844.12
526.16	37670.92
526.33	37113.87
526.50	37635.81
526.67	37205.16
526.84	37535.17
527.01	37450.91
527.18	37832.42
527.36	38602.46
527.53	38160.09
527.70	38232.65
527.87	38600.12
528.04	38424.57
528.21	38422.23
528.38	38534.58
528.55	38803.74
528.72	39030.77
528.89	38859.91
529.07	39126.74
529.24	38328.61
529.41	38621.18
529.58	38799.06
529.75	38396.49
529.92	38911.41
530.09	39421.64
530.26	39152.48
530.43	39379.51
530.60	39246.10
530.77	39564.42
530.94	39470.79
531.11	39299.94
531.28	39510.58
531.46	39889.75
531.63	39639.31
531.80	39601.86
531.97	39108.01
532.14	39683.78
532.31	39653.36
532.48	39959.97
532.65	39543.35
532.82	39922.52
532.99	39768.04
533.16	39948.26
533.33	40247.85
533.50	40247.85
533.67	40039.54
533.84	39646.33
534.01	40121.46
534.18	39833.58
534.35	40404.67
534.52	40772.13
534.69	40399.99
534.86	40184.66
535.03	40779.15
535.20	40992.14
535.37	41008.53
535.54	41195.77
535.71	40727.66
535.88	40861.07
536.05	40844.69
536.22	41029.59
536.38	41097.47
536.55	41268.33
536.72	40687.87
536.89	40821.28
537.06	41139.60
537.23	41397.06
537.40	40622.34
537.57	41163.00
537.74	41155.98
537.91	41490.68
538.08	41219.17
538.25	41305.77
538.42	41031.93
538.59	41624.09
538.75	41280.03
538.92	41338.54
539.09	41598.34
539.26	41748.14
539.43	41600.68
539.60	41380.67
539.77	41275.35
539.94	41378.33
540.11	41720.05
540.28	41752.82
540.44	41432.16
540.61	41214.49
540.78	41565.57
540.95	41766.86
541.12	41298.75
541.29	41677.92
541.46	41851.12
541.62	41926.02
541.79	42213.90
541.96	42019.64
542.13	42021.98
542.30	42014.96
542.47	41956.44
542.63	42288.80
542.80	42227.95
542.97	43035.43
543.14	43075.22
543.31	42689.03
543.48	42899.68
543.64	43487.15
543.81	43246.08
543.98	42682.01
544.15	42953.51
544.32	43150.12
544.48	43489.49
544.65	43014.37
544.82	43262.46
544.99	42595.41
545.16	43150.12
545.32	42777.97
545.49	42948.83
545.66	43690.78
545.83	42885.64
546.00	43271.82
546.16	43346.72
546.33	43157.14
546.50	43328.00
546.67	43353.74
546.83	42955.85
547.00	43636.95
547.17	43449.70
547.34	43323.32
547.50	43573.75
547.67	43704.82
547.84	43475.45
548.00	43922.49
548.17	43842.92
548.34	43625.25
548.51	44048.88
548.67	43510.56
548.84	43992.71
549.01	43945.90
549.18	43903.77
549.34	44144.84
549.51	44062.93
549.68	43803.13
549.84	43821.85
550.01	44119.10
550.18	43812.49
550.34	44067.61
550.51	44273.57
550.68	44294.64
550.84	43377.15
551.01	44261.87
551.18	43749.29
551.34	44278.25
551.51	44533.37
551.68	44425.71
551.84	44488.90
552.01	44191.65
552.18	44692.53
552.34	44006.75
552.51	44350.81
552.68	44624.65
552.84	44516.99
553.01	44858.71
553.18	44734.66
553.34	44610.61
553.51	44275.91
553.67	44711.25
553.84	45134.89
554.01	44779.13
554.17	44877.43
554.34	45268.30
554.51	44924.24
554.67	45305.75
554.84	44477.20
555.00	44715.93
555.17	44725.30
555.33	44839.98
555.50	44961.69
555.67	44842.32
555.83	45001.48
556.00	45099.78
556.16	45467.25
556.33	44711.25
556.50	44818.92
556.66	45184.04
556.83	44856.37
556.99	45254.26
557.16	45406.39
557.32	45338.52
557.49	45422.78
557.65	44795.51
557.82	44907.86
557.98	44987.44
558.15	45368.94
558.32	45462.57
558.48	45141.91
558.65	45478.95
558.81	44992.12
558.98	45783.22
559.14	45586.61
559.31	45291.71
559.47	45581.93
559.64	45579.59
559.80	45570.23
559.97	45570.23
560.13	45322.13
560.30	45415.76
560.46	45432.14
560.63	45600.66
560.79	45453.20
560.96	46057.06
561.12	45408.73
561.29	45233.19
561.45	45673.21
561.61	45820.67
561.78	45642.79
561.94	45745.77
562.11	45460.23
562.27	45397.03
562.44	45549.17
562.60	45916.63
562.77	45617.04
562.93	45813.65
563.10	45916.63
563.26	45387.67
563.42	45640.45
563.59	45595.98
563.75	45869.82
563.92	46213.88
564.08	45743.43
564.24	45766.84
564.41	45668.53
564.57	45542.14
564.74	45654.49
564.90	45689.60
565.07	46138.98
565.23	45797.26
565.39	45495.33
565.56	45961.10
565.72	45436.82
565.88	45708.32
566.05	45612.36
566.21	45626.40
566.38	45591.30
566.54	45991.53
566.70	46213.88
566.87	46047.70
567.03	45949.40
567.19	46043.02
567.36	46010.25
567.52	45972.80
567.68	45942.38
567.85	45591.30
568.01	46295.80
568.17	45813.65
568.34	46141.32
568.50	46106.21
568.66	46087.49
568.83	45612.36
568.99	45184.04
569.15	45729.39
569.32	45933.01
569.48	45848.75
569.64	46188.13
569.81	46148.34
569.97	45923.65
570.13	46239.62
570.30	45663.85
570.46	45474.27
570.62	45654.49
570.78	45937.69
570.95	45780.88
571.11	45715.34
571.27	45525.76
571.43	45773.86
571.60	46288.77
571.76	45975.14
571.92	46319.20
572.09	46209.20
572.25	45944.72
572.41	45846.41
572.57	46068.76
572.74	46457.29
572.90	46279.41
573.06	45734.07
573.22	45949.40
573.38	45839.39
573.55	45925.99
573.71	46171.75
573.87	46288.77
574.03	45834.71
574.20	46291.12
574.36	46143.66
574.52	46438.57
574.68	46157.70
574.84	46256.01
575.01	45663.85
575.17	46279.41
575.33	45813.65
575.49	46080.47
575.65	46085.15
575.82	45715.34
575.98	46122.60
576.14	46005.57
576.30	46223.24
576.46	46028.98
576.62	46321.54
576.79	46036.00
576.95	46349.63
577.11	46234.94
577.27	46143.66
577.43	46167.07
577.59	45951.74
577.75	45869.82
577.92	46281.75
578.08	46157.70
578.24	45759.81
578.40	45947.06
578.56	46054.72
578.72	46199.83
578.88	46251.33
579.04	46665.60
579.21	46157.70
579.37	46309.84
579.53	46169.41
579.69	45883.86
579.85	45808.96
580.01	46101.53
580.17	46185.79
580.33	46401.12
580.49	46302.82
580.65	46419.84
580.82	46216.22
580.98	46141.32
581.14	46012.59
581.30	46349.63
581.46	46321.54
581.62	46363.67
581.78	46148.34
581.94	46426.87
582.10	46206.86
582.26	46506.44
582.42	46326.22
582.58	46347.29
582.74	45956.42
582.90	46555.60
583.06	46176.43
583.22	46363.67
583.38	47182.86
583.54	46602.41
583.70	46904.34
583.86	46469.00
584.02	46036.00
584.18	46557.94
584.34	46335.59
584.50	46305.16
584.66	46335.59
584.82	46307.50
584.98	46284.09
585.14	46497.08
585.30	46169.41
585.46	46635.17
585.62	46164.73
585.78	46080.47
585.94	46150.68
586.10	46026.63
586.26	46536.87
586.42	46373.03
586.58	46988.60
586.74	46326.22
586.90	46181.11
587.06	46176.43
587.22	46616.45
587.38	46178.77
587.54	46354.31
587.70	46363.67
587.86	46459.63
588.02	45921.31
588.18	46663.26
588.34	46569.64
588.49	45907.27
588.65	45640.45
588.81	45797.26
588.97	45883.86
589.13	45734.07
589.29	45940.04
589.45	45951.74
589.61	46218.56
589.77	46223.24
589.93	46511.13
