SpectraSuite Data File
++++++++++++++++++++++++++++++++++++
Date: Fri Oct 25 11:23:52 EDT 2013
User: price-jones
Dark Spectrum Present: No
Reference Spectrum Present: No
Number of Sampled Component Spectra: 1
Spectrometers: USB2+H05261
Integration Time (usec): 100000 (USB2+H05261)
Spectra Averaged: 1 (USB2+H05261)
Boxcar Smoothing: 0 (USB2+H05261)
Correct for Electrical Dark: No (USB2+H05261)
Strobe/Lamp Enabled: No (USB2+H05261)
Correct for Detector Non-linearity: No (USB2+H05261)
Correct for Stray Light: No (USB2+H05261)
Number of Pixels in Processed Spectrum: 2048
>>>>>Begin Processed Spectral Data<<<<<
365.73	229.37
365.92	229.37
366.12	229.37
366.32	102.98
366.52	161.50
366.72	205.97
366.91	184.90
367.11	133.41
367.31	140.43
367.51	110.01
367.70	161.50
367.90	107.66
368.10	107.66
368.30	161.50
368.49	142.77
368.69	98.30
368.89	147.45
369.09	114.69
369.28	138.09
369.48	182.56
369.68	229.37
369.87	196.60
370.07	180.22
370.27	236.39
370.47	374.49
370.66	617.90
370.86	641.31
371.06	653.01
371.25	688.12
371.45	725.57
371.65	662.37
371.84	674.07
372.04	751.31
372.24	697.48
372.44	697.48
372.63	678.76
372.83	840.25
373.03	784.08
373.22	781.74
373.42	681.10
373.62	786.42
373.81	800.46
374.01	821.53
374.21	786.42
374.40	784.08
374.60	744.29
374.79	851.96
374.99	819.19
375.19	905.79
375.38	858.98
375.58	823.87
375.78	772.38
375.97	889.40
376.17	947.92
376.37	954.94
376.56	863.66
376.76	887.06
376.95	903.45
377.15	1018.13
377.35	908.13
377.54	915.15
377.74	826.21
377.93	875.36
378.13	917.49
378.33	917.49
378.52	882.38
378.72	877.70
378.91	938.55
379.11	938.55
379.31	973.66
379.50	889.40
379.70	959.62
379.89	905.79
380.09	1018.13
380.28	999.41
380.48	994.73
380.68	922.17
380.87	1027.50
381.07	1008.77
381.26	1078.99
381.46	987.71
381.65	973.66
381.85	1057.92
382.04	1118.78
382.24	1055.58
382.43	983.02
382.63	1018.13
382.83	1034.52
383.02	1041.54
383.22	1151.54
383.41	1027.50
383.61	1041.54
383.80	1151.54
384.00	994.73
384.19	1114.10
384.39	1111.75
384.58	1184.31
384.78	1048.56
384.97	1177.29
385.17	1165.59
385.36	1217.08
385.56	1156.22
385.75	1231.12
385.95	1142.18
386.14	1186.65
386.34	1167.93
386.53	1235.80
386.72	1149.20
386.92	1231.12
387.11	1179.63
387.31	1238.14
387.50	1233.46
387.70	1259.21
387.89	1184.31
388.09	1142.18
388.28	1200.69
388.48	1270.91
388.67	1214.74
388.86	1301.34
389.06	1324.74
389.25	1390.28
389.45	1345.81
389.64	1291.98
389.84	1394.96
390.03	1345.81
390.22	1320.06
390.42	1383.26
390.61	1397.30
390.81	1469.86
391.00	1404.32
391.19	1430.07
391.39	1448.79
391.58	1397.30
391.78	1486.24
391.97	1425.39
392.16	1446.45
392.36	1479.22
392.55	1554.12
392.75	1488.58
392.94	1572.84
393.13	1500.28
393.33	1425.39
393.52	1570.50
393.71	1598.59
393.91	1582.20
394.10	1636.03
394.29	1591.56
394.49	1605.61
394.68	1572.84
394.88	1659.44
395.07	1631.35
395.26	1746.04
395.46	1572.84
395.65	1762.42
395.84	1739.02
396.04	1898.17
396.23	1661.78
396.42	1682.85
396.62	1750.72
396.81	1865.41
397.00	1720.29
397.19	1764.76
397.39	1764.76
397.58	1785.83
397.77	1755.40
397.97	1834.98
398.16	1842.00
398.35	1842.00
398.55	1837.32
398.74	1902.86
398.93	1881.79
399.12	1898.17
399.32	1898.17
399.51	1968.39
399.70	1926.26
399.90	1930.94
400.09	2122.87
400.28	2008.18
400.47	2092.44
400.67	2076.06
400.86	2111.16
401.05	2141.59
401.24	2136.91
401.44	2129.89
401.63	2097.12
401.82	2275.00
402.01	2043.29
402.21	2148.61
402.40	2106.48
402.59	2125.21
402.78	2113.50
402.97	2249.25
403.17	2232.87
403.36	2279.68
403.55	2340.54
403.74	2328.83
403.93	2228.19
404.13	2373.30
404.32	2380.32
404.51	2417.77
404.70	2410.75
404.89	2406.07
405.09	2544.16
405.28	2509.05
405.47	2438.84
405.66	2452.88
405.85	2612.04
406.05	2511.39
406.24	2408.41
406.43	2511.39
406.62	2682.25
406.81	2656.51
407.00	2555.86
407.20	2658.85
407.39	2574.59
407.58	2782.90
407.77	2712.68
407.96	2740.77
408.15	2752.47
408.34	2822.69
408.54	2750.13
408.73	2752.47
408.92	2803.96
409.11	2892.90
409.30	2965.46
409.49	3023.97
409.68	3005.25
409.87	2965.46
410.07	3016.95
410.26	2874.18
410.45	2925.67
410.64	3112.91
410.83	3103.55
411.02	3061.42
411.21	3201.85
411.40	3005.25
411.59	3293.13
411.78	3232.28
411.98	3208.87
412.17	3342.28
412.36	3368.03
412.55	3382.07
412.74	3482.72
412.93	3332.92
413.12	3342.28
413.31	3618.47
413.50	3454.63
413.69	3487.40
413.88	3590.38
414.07	3602.08
414.26	3557.61
414.45	3749.54
414.64	3655.92
414.83	3721.45
415.02	3707.41
415.22	3904.01
415.41	3786.99
415.60	3791.67
415.79	3911.04
415.98	4030.40
416.17	4014.02
416.36	3978.91
416.55	3990.61
416.74	4049.13
416.93	3887.63
417.12	4067.85
417.31	4079.55
417.50	4173.18
417.69	4341.69
417.88	4421.27
418.07	4264.46
418.26	4308.93
418.45	4208.28
418.64	4545.32
418.83	4320.63
419.02	4416.59
419.21	4468.08
419.39	4599.15
419.58	4344.03
419.77	4423.61
419.96	4456.38
420.15	4568.73
420.34	4526.60
420.53	4540.64
420.72	4671.71
420.91	4657.67
421.10	4678.73
421.29	4868.31
421.48	4615.54
421.67	4929.17
421.86	4823.84
422.05	4908.10
422.24	4821.50
422.43	4938.53
422.61	4807.46
422.80	4901.08
422.99	4938.53
423.18	4774.69
423.37	5069.60
423.56	4877.68
423.75	4931.51
423.94	4837.89
424.13	4634.26
424.32	4861.29
424.50	5067.26
424.69	5036.83
424.88	5097.69
425.07	4908.10
425.26	4809.80
425.45	4950.23
425.64	4875.34
425.83	4851.93
426.01	4994.70
426.20	5167.90
426.39	5078.96
426.58	5041.51
426.77	5018.11
426.96	5184.29
427.15	4985.34
427.33	5125.77
427.52	5104.71
427.71	5247.48
427.90	5327.06
428.09	5221.74
428.28	5430.04
428.46	5394.93
428.65	5535.37
428.84	5366.85
429.03	5584.52
429.22	5455.79
429.40	5488.56
429.59	5317.70
429.78	5254.50
429.97	5280.25
430.16	5458.13
430.34	5664.10
430.53	5650.05
430.72	5607.92
430.91	5603.24
431.10	5509.62
431.28	5717.93
431.47	5741.33
431.66	5914.53
431.85	5874.74
432.03	5956.66
432.22	5916.87
432.41	5860.70
432.60	5944.96
432.79	5956.66
432.97	6108.80
433.16	6078.37
433.35	5987.09
433.54	6289.02
433.72	6092.41
433.91	5954.32
434.10	6071.35
434.28	6136.88
434.47	6193.06
434.66	6249.23
434.85	6312.42
435.03	6361.58
435.22	6356.90
435.41	6445.84
435.59	6270.30
435.78	6567.54
435.97	6562.86
436.16	6326.47
436.34	6349.87
436.53	6420.09
436.72	6743.08
436.90	6487.96
437.09	6825.00
437.28	6469.24
437.46	6656.48
437.65	6576.91
437.84	6881.18
438.02	6649.46
438.21	6696.27
438.40	6530.09
438.58	6998.20
438.77	6965.43
438.96	6895.22
439.14	7136.29
439.33	7152.68
439.52	7136.29
439.70	7218.21
439.89	7421.84
440.08	7438.22
440.26	7414.82
440.45	7274.38
440.63	7353.96
440.82	7548.23
441.01	7531.84
441.19	7646.53
441.38	7791.64
441.57	7957.82
441.75	7913.35
441.94	7988.25
442.12	7864.20
442.31	8126.34
442.50	8093.57
442.68	7922.71
442.87	8086.55
443.05	7999.95
443.24	8320.60
443.43	8241.03
443.61	8224.64
443.80	8547.64
443.98	8088.89
444.17	7791.64
444.35	8219.96
444.54	8327.63
444.73	8147.40
444.91	8318.26
445.10	8454.02
445.28	8369.76
445.47	8327.63
445.65	8446.99
445.84	8372.10
446.02	8589.77
446.21	8367.42
446.39	8262.09
446.58	8531.25
446.77	8500.83
446.95	8369.76
447.14	8486.78
447.32	8711.47
447.51	8407.20
447.69	8482.10
447.88	8704.45
448.06	8372.10
448.25	8575.72
448.43	8393.16
448.62	8650.62
448.80	8519.55
448.99	8734.88
449.17	8865.95
449.36	8847.22
449.54	8826.16
449.73	8982.98
449.91	8954.89
450.10	8905.74
450.28	8894.04
450.46	8957.23
450.65	8898.72
450.83	9097.66
451.02	8940.85
451.20	9074.26
451.39	9364.48
451.57	9249.80
451.76	9217.03
451.94	9202.99
452.13	9593.86
452.31	9385.55
452.49	9064.89
452.68	9287.25
452.86	9380.87
453.05	9373.85
453.23	9303.63
453.42	9366.82
453.60	9476.83
453.78	9612.58
453.97	9423.00
454.15	9643.01
454.34	9493.21
454.52	9666.41
454.70	9802.16
454.89	9785.78
455.07	9687.48
455.26	9834.93
455.44	9982.38
455.62	10064.30
455.81	9806.84
455.99	10031.54
456.17	9900.47
456.36	10228.14
456.54	10054.94
456.73	10181.33
456.91	10714.97
457.09	10466.88
457.28	10544.11
457.46	10377.94
457.64	10583.90
457.83	10565.18
458.01	10490.28
458.19	10794.55
458.38	10544.11
458.56	10817.96
458.74	10726.68
458.93	10689.23
459.11	10799.23
459.29	10750.08
459.48	11150.31
459.66	10853.06
459.84	10864.77
460.03	11143.29
460.21	11215.85
460.39	10850.72
460.57	10869.45
460.76	11143.29
460.94	11021.58
461.12	11356.28
461.31	11028.60
461.49	11026.26
461.67	11323.51
461.85	11557.57
462.04	11609.06
462.22	11623.10
462.40	11740.13
462.59	11545.86
462.77	11674.59
462.95	11665.23
463.13	11435.86
463.32	11726.08
463.50	11887.58
463.68	11690.98
463.86	11894.60
464.05	11786.94
464.23	11587.99
464.41	11786.94
464.59	11920.35
464.78	12105.25
464.96	12095.89
465.14	11819.71
465.32	11946.09
465.50	12198.87
465.69	12135.68
465.87	12016.31
466.05	12093.55
466.23	12292.49
466.41	12142.70
466.60	12395.48
466.78	12217.60
466.96	12402.50
467.14	12189.51
467.32	12409.52
467.51	12762.94
467.69	12351.01
467.87	12489.10
468.05	12657.62
468.23	12643.57
468.41	12617.83
468.60	12622.51
468.78	12760.60
468.96	12486.76
469.14	12816.77
469.32	12924.44
469.50	12788.69
469.69	12908.05
469.87	13345.73
470.05	13254.45
470.23	13324.67
470.41	13055.51
470.59	13172.54
470.77	13385.52
470.95	13441.70
471.14	13565.74
471.32	13338.71
471.50	13422.97
471.68	13488.51
471.86	13598.51
472.04	13752.99
472.22	14073.64
472.40	13874.70
472.58	13823.20
472.77	13968.32
472.95	14181.31
473.13	14445.79
473.31	14075.98
473.49	14314.72
473.67	14157.90
473.85	14380.25
474.03	14719.63
474.21	14731.33
474.39	14895.17
474.57	14602.60
474.75	15159.65
474.93	15059.01
475.12	14993.47
475.30	15129.22
475.48	15356.25
475.66	15056.67
475.84	15206.46
476.02	15295.40
476.20	15609.03
476.38	15796.28
476.56	16212.89
476.74	15845.43
476.92	15934.37
477.10	15953.09
477.28	16196.51
477.46	16152.04
477.64	16437.58
477.82	16531.20
478.00	17167.83
478.18	16636.53
478.36	17067.19
478.54	17221.66
478.72	17305.92
478.90	17202.94
479.08	17867.65
479.26	17605.51
479.44	17830.20
479.62	18008.08
479.80	18291.29
479.98	18352.14
480.16	18504.28
480.34	18436.40
480.52	18693.86
480.70	18958.34
480.88	18523.00
481.06	19080.05
481.24	19035.58
481.41	19080.05
481.59	19428.79
481.77	19300.06
481.95	19351.55
482.13	19611.35
482.31	19756.46
482.49	20168.40
482.67	20086.48
482.85	20723.10
483.03	20570.97
483.21	20837.79
483.39	21050.78
483.57	20987.58
483.74	21036.74
483.92	21518.89
484.10	21319.94
484.28	21518.89
484.46	21881.67
484.64	22359.14
484.82	21874.65
485.00	22476.16
485.18	22394.25
485.35	23108.11
485.53	23030.87
485.71	23101.09
485.89	23543.45
486.07	23730.69
486.25	23517.70
486.43	23454.51
486.61	23906.23
486.78	24084.11
486.96	24409.45
487.14	24732.44
487.32	24835.42
487.50	24943.09
487.68	25104.59
487.85	25216.93
488.03	25795.04
488.21	26113.36
488.39	25848.88
488.57	26162.51
488.75	25972.92
488.92	26293.58
489.10	27068.30
489.28	26867.01
489.46	27257.88
489.64	27054.25
489.81	27618.32
489.99	27810.25
490.17	27611.30
490.35	28334.53
490.53	28147.28
490.70	28692.63
490.88	28327.50
491.06	28669.22
491.24	29036.69
491.41	28910.30
491.59	29242.65
491.77	29144.35
491.95	29411.17
492.13	30073.54
492.30	30068.86
492.48	30274.83
492.66	30230.36
492.84	30181.21
493.01	30665.70
493.19	30473.78
493.37	31044.87
493.54	31391.26
493.72	31358.50
493.90	31480.21
494.08	32304.07
494.25	32376.63
494.43	32067.68
494.61	32163.64
494.79	32400.04
494.96	32666.86
495.14	32783.88
495.32	33067.09
495.49	32982.83
495.67	33216.88
495.85	33464.98
496.02	34012.66
496.20	34082.88
496.38	34553.33
496.55	34134.37
496.73	34724.19
496.91	34506.52
497.09	35189.95
497.26	34789.72
497.44	34785.04
497.62	35852.33
497.79	36250.22
497.97	35566.78
498.14	36334.48
498.32	36407.03
498.50	36280.64
498.67	36479.59
498.85	36645.77
499.03	36608.32
499.20	36844.71
499.38	36863.44
499.56	36825.99
499.73	37151.32
499.91	37521.13
500.08	37832.42
500.26	37797.31
500.44	37886.25
500.61	37972.85
500.79	38220.95
500.97	38485.43
501.14	38412.87
501.32	38494.79
501.49	38775.66
501.67	38960.56
501.84	38820.13
502.02	38745.23
502.20	39014.39
502.37	39679.10
502.55	39489.52
502.72	39440.37
502.90	39702.51
503.07	39594.84
503.25	39828.90
503.43	40231.47
503.60	39772.72
503.78	40467.86
503.95	40222.11
504.13	41057.68
504.30	40989.80
504.48	40685.53
504.65	40935.97
504.83	40971.08
505.01	41706.01
505.18	41413.44
505.36	41696.64
505.53	41270.67
505.71	41708.35
505.88	41490.68
506.06	41347.90
506.23	42256.03
506.41	41986.87
506.58	42323.91
506.76	42239.65
506.93	42660.94
507.11	42068.79
507.28	42721.80
507.46	42735.84
507.63	43501.20
507.81	43138.41
507.98	43140.75
508.16	43274.16
508.33	43852.28
508.50	43480.13
508.68	43648.65
508.85	44086.33
509.03	43349.06
509.20	44006.75
509.38	44238.47
509.55	44657.42
509.73	44687.85
509.90	44512.31
510.08	44753.38
510.25	44751.04
510.42	44765.09
510.60	44987.44
510.77	45207.45
510.95	45464.91
511.12	45312.77
511.30	45649.81
511.47	45652.15
511.64	45600.66
511.82	46244.30
511.99	45436.82
512.17	45745.77
512.34	46124.94
512.51	46457.29
512.69	46658.58
512.86	46328.56
513.04	46782.63
513.21	46340.27
513.38	46740.50
513.56	47379.46
513.73	46749.86
513.90	47473.09
514.08	46937.10
514.25	47683.73
514.43	47615.86
514.60	47627.56
514.77	47526.92
514.95	47697.78
515.12	47601.82
515.29	47721.18
515.47	48048.86
515.64	48252.48
515.81	47952.90
515.99	48296.95
516.16	48858.68
516.33	48512.28
516.51	48744.00
516.68	48610.59
516.85	48825.92
517.03	49088.06
517.20	49244.87
517.37	48601.22
517.54	49249.55
517.72	49008.48
517.89	49116.14
518.06	49287.00
518.24	49258.91
518.41	49427.43
518.58	49345.51
518.75	49347.86
518.93	49619.36
519.10	49350.20
519.27	49827.66
519.45	49682.55
519.62	50174.06
519.79	50426.84
519.96	49954.05
520.14	50028.95
520.31	50110.87
520.48	50337.90
520.65	50326.20
520.83	50721.75
521.00	50703.03
521.17	50892.61
521.34	50789.62
521.52	51187.52
521.69	51154.75
521.86	51297.52
522.03	51264.75
522.20	51496.47
522.38	51344.33
522.55	51459.02
522.72	51353.69
522.89	51723.50
523.07	51597.11
523.24	51716.48
523.41	51819.46
523.58	51643.92
523.75	52090.96
523.92	51770.31
524.10	52097.98
524.27	52177.56
524.44	52058.20
524.61	52039.47
524.78	52287.57
524.96	52207.99
525.13	52402.25
525.30	52425.66
525.47	52561.41
525.64	52472.47
525.81	52626.95
525.98	52495.88
526.16	52715.89
526.33	52470.13
526.50	53090.37
526.67	52795.46
526.84	53064.63
527.01	52879.72
527.18	53158.25
527.36	52893.77
527.53	53029.52
527.70	53221.44
527.87	53722.32
528.04	53102.07
528.21	53502.31
528.38	53052.92
528.55	53640.40
528.72	53460.18
528.89	53680.19
529.07	53429.75
529.24	53354.85
529.41	53518.69
529.58	53741.04
529.75	53839.34
529.92	53764.45
530.09	54021.90
530.26	54115.53
530.43	54199.79
530.60	53942.33
530.77	54094.46
530.94	54209.15
531.11	54162.34
531.28	54281.70
531.46	54045.31
531.63	54330.86
531.80	54328.52
531.97	54394.05
532.14	54677.25
532.31	54623.42
532.48	54649.17
532.65	54759.17
532.82	54431.50
532.99	54749.81
533.16	54466.61
533.33	54993.23
533.50	55000.25
533.67	54756.83
533.84	54728.75
534.01	55124.30
534.18	55178.13
534.35	55395.80
534.52	54981.52
534.69	55203.88
534.86	55428.57
535.03	55264.73
535.20	55491.76
535.37	55264.73
535.54	55580.70
535.71	55253.03
535.88	55571.34
536.05	55622.83
536.22	55604.11
536.38	55693.05
536.55	55372.39
536.72	55753.90
536.89	55629.85
537.06	55599.43
537.23	55903.70
537.40	55664.96
537.57	55746.88
537.74	55679.00
537.91	56165.84
538.08	55971.57
538.25	56027.74
538.42	55934.12
538.59	56200.94
538.75	56058.17
538.92	56172.86
539.09	56196.26
539.26	56355.42
539.43	56030.08
539.60	56336.69
539.77	56226.69
539.94	56418.61
540.11	56369.46
540.28	56275.84
540.44	56659.69
540.61	56505.21
540.78	56329.67
540.95	56308.61
541.12	56243.07
541.29	56685.43
541.46	56664.37
541.62	56750.97
541.79	56795.44
541.96	56395.21
542.13	56535.64
542.30	56612.88
542.47	57144.18
542.63	57088.01
542.80	56832.89
542.97	57176.95
543.14	57226.10
543.31	57137.16
543.48	57242.48
543.64	57523.35
543.81	57392.28
543.98	57677.82
544.15	57394.62
544.32	57425.04
544.48	57563.14
544.65	57453.13
544.82	57595.90
544.99	57179.29
545.16	57638.03
545.32	57572.50
545.49	57799.53
545.66	57558.45
545.83	57675.48
546.00	57968.05
546.16	57698.89
546.33	57525.69
546.50	57673.14
546.67	57790.17
546.83	57546.75
547.00	57897.83
547.17	57647.39
547.34	57925.92
547.50	57876.77
547.67	58033.58
547.84	58115.50
548.00	58178.70
548.17	58347.21
548.34	58223.17
548.51	58326.15
548.67	58197.42
548.84	58272.32
549.01	58127.20
549.18	58265.30
549.34	58534.46
549.51	58344.87
549.68	58405.73
549.84	58436.16
550.01	58513.39
550.18	58443.18
550.34	58440.84
550.51	58492.33
550.68	58611.70
550.84	58260.62
551.01	58820.00
551.18	58471.26
551.34	58614.04
551.51	58642.12
551.68	58749.79
551.84	58623.40
552.01	58623.40
552.18	58569.57
552.34	58450.20
552.51	58880.86
552.68	58639.78
552.84	58588.29
553.01	58939.37
553.18	58885.54
553.34	58983.84
553.51	58695.95
553.67	58946.39
553.84	59028.31
554.01	58969.80
554.17	58976.82
554.34	59009.59
554.51	59157.04
554.67	59217.89
554.84	58960.44
555.00	58976.82
555.17	58822.34
555.33	59185.13
555.50	58852.77
555.67	59166.40
555.83	59257.68
556.00	59203.85
556.16	59379.39
556.33	59339.60
556.50	59152.36
556.66	59405.14
556.83	59068.10
556.99	59426.20
557.16	59625.15
557.32	59496.42
557.49	59583.02
557.65	59540.89
557.82	59498.76
557.98	59377.05
558.15	59655.57
558.32	59456.63
558.48	59629.83
558.65	59498.76
558.81	59473.01
558.98	59606.42
559.14	59590.04
559.31	59664.94
559.47	59695.36
559.64	59814.73
559.80	59906.01
559.97	59678.98
560.13	59791.33
560.30	59744.51
560.46	59655.57
560.63	59641.53
560.79	59838.14
560.96	59955.16
561.12	59751.54
561.29	59880.27
561.45	60116.66
561.61	59793.67
561.78	59943.46
561.94	59964.52
562.11	59873.24
562.27	59913.03
562.44	60137.72
562.60	60069.85
562.77	60186.88
562.93	59966.87
563.10	60381.14
563.26	59915.37
563.42	60261.77
563.59	60238.37
563.75	59845.16
563.92	60126.02
564.08	60020.70
564.24	60404.55
564.41	60186.88
564.57	60205.60
564.74	60097.94
564.90	60111.98
565.07	60013.68
565.23	60088.57
565.39	60247.73
565.56	60275.82
565.72	60243.05
565.88	60219.64
566.05	60079.21
566.21	60200.92
566.38	60254.75
566.54	60247.73
566.70	60530.93
566.87	60266.45
567.03	60093.25
567.19	60608.17
567.36	60301.56
567.52	60317.95
567.68	60870.31
567.85	60268.79
568.01	60563.70
568.17	60273.48
568.34	60479.44
568.50	60404.55
568.66	60355.39
568.83	60477.10
568.99	60289.86
569.15	60231.35
569.32	60374.12
569.48	60453.70
569.64	60537.96
569.81	60516.89
569.97	60374.12
570.13	60409.23
570.30	60296.88
570.46	60594.13
570.62	60453.70
570.78	60416.25
570.95	60673.71
571.11	60561.36
571.27	60498.17
571.43	60633.92
571.60	60893.72
571.76	60505.19
571.92	60552.00
572.09	60612.85
572.25	60680.73
572.41	60640.94
572.57	60720.52
572.74	60851.59
572.90	60577.75
573.06	60640.94
573.22	60603.49
573.38	60647.96
573.55	60825.84
573.71	60807.12
573.87	60811.80
574.03	60453.70
574.20	60856.27
574.36	60547.32
574.52	60921.80
574.68	60701.79
574.84	60954.57
575.01	60837.54
575.17	60666.69
575.33	60699.45
575.49	60727.54
575.65	60917.12
575.82	60903.08
575.98	60867.97
576.14	60949.89
576.30	60882.02
576.46	60807.12
576.62	60811.80
576.79	60755.63
576.95	60633.92
577.11	60748.60
577.27	60980.32
577.43	60973.30
577.59	60896.06
577.75	60837.54
577.92	60907.76
578.08	60816.48
578.24	60853.93
578.40	61003.72
578.56	61003.72
578.72	60823.50
578.88	60912.44
579.04	61209.69
579.21	61062.24
579.37	60999.04
579.53	60898.40
579.69	60877.33
579.85	60996.70
580.01	60914.78
580.17	60804.78
580.33	61097.34
580.49	61041.17
580.65	61052.87
580.82	60750.94
580.98	60867.97
581.14	60865.63
581.30	61167.56
581.46	60851.59
581.62	61010.74
581.78	60889.04
581.94	60980.32
582.10	60956.91
582.26	60924.14
582.42	61071.60
582.58	61029.47
582.74	61226.07
582.90	61003.72
583.06	60921.80
583.22	60802.44
583.38	60940.53
583.54	61050.53
583.70	61013.08
583.86	61017.77
584.02	60994.36
584.18	61162.88
584.34	61085.64
584.50	60949.89
584.66	61020.11
584.82	60776.69
584.98	61258.84
585.14	61064.58
585.30	61113.73
585.46	60985.00
585.62	61221.39
585.78	61006.06
585.94	61219.05
586.10	60966.27
586.26	61172.24
586.42	61193.31
586.58	61176.92
586.74	61020.11
586.90	61024.79
587.06	61123.09
587.22	61233.10
587.38	61066.92
587.54	61244.80
587.70	61251.82
587.86	61209.69
588.02	61066.92
588.18	61153.52
588.34	61155.86
588.49	61123.09
