SpectraSuite Data File
++++++++++++++++++++++++++++++++++++
Date: Fri Oct 25 11:25:35 EDT 2013
User: price-jones
Dark Spectrum Present: No
Reference Spectrum Present: No
Number of Sampled Component Spectra: 1
Spectrometers: USB2+H05261
Integration Time (usec): 100000 (USB2+H05261)
Spectra Averaged: 1 (USB2+H05261)
Boxcar Smoothing: 0 (USB2+H05261)
Correct for Electrical Dark: No (USB2+H05261)
Strobe/Lamp Enabled: No (USB2+H05261)
Correct for Detector Non-linearity: No (USB2+H05261)
Correct for Stray Light: No (USB2+H05261)
Number of Pixels in Processed Spectrum: 2048
>>>>>Begin Processed Spectral Data<<<<<
365.73	212.99
365.92	212.99
366.12	212.99
366.32	194.26
366.52	124.05
366.72	189.58
366.91	182.56
367.11	196.60
367.31	124.05
367.51	95.96
367.70	133.41
367.90	170.86
368.10	152.13
368.30	180.22
368.49	51.49
368.69	107.66
368.89	161.50
369.09	154.48
369.28	121.71
369.48	131.07
369.68	180.22
369.87	161.50
370.07	180.22
370.27	168.52
370.47	315.97
370.66	587.47
370.86	660.03
371.06	606.20
371.25	765.36
371.45	702.16
371.65	704.50
371.84	723.23
372.04	667.05
372.24	746.63
372.44	690.46
372.63	727.91
372.83	685.78
373.03	770.04
373.22	746.63
373.42	767.70
373.62	734.93
373.81	772.38
374.01	697.48
374.21	765.36
374.40	770.04
374.60	826.21
374.79	844.93
374.99	840.25
375.19	837.91
375.38	814.51
375.58	816.85
375.78	844.93
375.97	870.68
376.17	861.32
376.37	823.87
376.56	856.64
376.76	929.19
376.95	898.77
377.15	910.47
377.35	830.89
377.54	807.48
377.74	938.55
377.93	819.19
378.13	889.40
378.33	950.26
378.52	875.36
378.72	940.90
378.91	891.74
379.11	884.72
379.31	891.74
379.50	936.21
379.70	978.34
379.89	947.92
380.09	976.00
380.28	968.98
380.48	1029.84
380.68	936.21
380.87	908.13
381.07	1055.58
381.26	992.39
381.46	1039.20
381.65	1069.62
381.85	994.73
382.04	1086.01
382.24	1001.75
382.43	1186.65
382.63	1076.65
382.83	1128.14
383.02	1116.44
383.22	1078.99
383.41	1076.65
383.61	1100.05
383.80	1205.38
384.00	1146.86
384.19	1100.05
384.39	1156.22
384.58	1139.84
384.78	1146.86
384.97	1121.12
385.17	1196.01
385.36	1174.95
385.56	1135.16
385.75	1088.35
385.95	1214.74
386.14	1210.06
386.34	1184.31
386.53	1212.40
386.72	1240.48
386.92	1338.79
387.11	1144.52
387.31	1249.85
387.50	1270.91
387.70	1259.21
387.89	1245.16
388.09	1324.74
388.28	1327.08
388.48	1394.96
388.67	1310.70
388.86	1355.17
389.06	1282.61
389.25	1371.55
389.45	1350.49
389.64	1355.17
389.84	1397.30
390.03	1350.49
390.22	1345.81
390.42	1378.58
390.61	1380.92
390.81	1390.28
391.00	1467.52
391.19	1420.71
391.39	1397.30
391.58	1472.20
391.78	1511.99
391.97	1448.79
392.16	1523.69
392.36	1577.52
392.55	1430.07
392.75	1500.28
392.94	1554.12
393.13	1526.03
393.33	1441.77
393.52	1507.30
393.71	1556.46
393.91	1563.48
394.10	1664.12
394.29	1565.82
394.49	1563.48
394.68	1626.67
394.88	1643.06
395.07	1652.42
395.26	1668.80
395.46	1640.72
395.65	1657.10
395.84	1734.34
396.04	1682.85
396.23	1809.23
396.42	1713.27
396.62	1802.21
396.81	1781.15
397.00	1809.23
397.19	1769.44
397.39	1739.02
397.58	1851.36
397.77	1797.53
397.97	1720.29
398.16	1809.23
398.35	1818.60
398.55	1832.64
398.74	1844.34
398.93	1900.52
399.12	1919.24
399.32	1893.49
399.51	1912.22
399.70	2038.61
399.90	1905.20
400.09	1977.75
400.28	2099.46
400.47	2010.52
400.67	2069.03
400.86	2033.93
401.05	2094.78
401.24	2115.84
401.44	2090.10
401.63	2101.80
401.82	2104.14
402.01	2216.49
402.21	2223.51
402.40	2169.68
402.59	2169.68
402.78	2155.63
402.97	2181.38
403.17	2193.08
403.36	2452.88
403.55	2289.04
403.74	2242.23
403.93	2183.72
404.13	2424.80
404.32	2389.69
404.51	2310.11
404.70	2338.20
404.89	2375.64
405.09	2558.21
405.28	2429.48
405.47	2424.80
405.66	2434.16
405.85	2567.57
406.05	2539.48
406.24	2530.12
406.43	2555.86
406.62	2670.55
406.81	2586.29
407.00	2626.08
407.20	2518.42
407.39	2495.01
407.58	2656.51
407.77	2712.68
407.96	2696.30
408.15	2778.22
408.34	2691.62
408.54	2885.88
408.73	2757.15
408.92	2752.47
409.11	2801.62
409.30	2892.90
409.49	2892.90
409.68	2960.78
409.87	2951.42
410.07	3042.70
410.26	2995.89
410.45	2977.16
410.64	2984.18
410.83	3052.06
411.02	3077.80
411.21	3129.30
411.40	3087.17
411.59	3138.66
411.78	3295.47
411.98	3201.85
412.17	3229.94
412.36	3403.14
412.55	3400.80
412.74	3424.20
412.93	3463.99
413.12	3365.69
413.31	3496.76
413.50	3438.25
413.69	3468.67
413.88	3588.04
414.07	3559.95
414.26	3503.78
414.45	3485.06
414.64	3712.09
414.83	3737.84
415.02	3794.01
415.22	3920.40
415.41	4037.42
415.60	3878.27
415.79	3824.44
415.98	3873.59
416.17	3976.57
416.36	3946.14
416.55	4011.68
416.74	4058.49
416.93	3992.95
417.12	4007.00
417.31	4219.99
417.50	4145.09
417.69	4292.54
417.88	4257.43
418.07	4107.64
418.26	4311.27
418.45	4379.14
418.64	4589.79
418.83	4308.93
419.02	4386.16
419.21	4507.87
419.39	4547.66
419.58	4367.44
419.77	4463.40
419.96	4678.73
420.15	4573.41
420.34	4573.41
420.53	4643.62
420.72	4493.83
420.91	4596.81
421.10	4638.94
421.29	4755.97
421.48	4713.84
421.67	4746.61
421.86	4716.18
422.05	4720.86
422.24	4760.65
422.43	4770.01
422.61	4870.65
422.80	4973.64
422.99	4901.08
423.18	4896.40
423.37	5046.20
423.56	4880.02
423.75	4898.74
423.94	4957.25
424.13	4564.04
424.32	4903.42
424.50	4772.35
424.69	5083.64
424.88	4938.53
425.07	4947.89
425.26	4863.63
425.45	4884.70
425.64	4814.48
425.83	5006.41
426.01	5090.67
426.20	5001.72
426.39	5083.64
426.58	4978.32
426.77	5097.69
426.96	5181.95
427.15	5137.48
427.33	5109.39
427.52	5069.60
427.71	5240.46
427.90	5277.91
428.09	5186.63
428.28	5394.93
428.46	5359.83
428.65	5308.34
428.84	5406.64
429.03	5497.92
429.22	5291.95
429.40	5544.73
429.59	5530.69
429.78	5203.01
429.97	5296.63
430.16	5589.20
430.34	5434.72
430.53	5551.75
430.72	5659.42
430.91	5547.07
431.10	5523.66
431.28	5776.44
431.47	5790.49
431.66	5748.36
431.85	5778.78
432.03	5762.40
432.22	5886.45
432.41	5837.30
432.60	5795.17
432.79	5804.53
432.97	5923.90
433.16	5966.03
433.35	6008.16
433.54	5973.05
433.72	6010.50
433.91	5994.11
434.10	6188.38
434.28	6115.82
434.47	6174.33
434.66	6090.07
434.85	6300.72
435.03	6193.06
435.22	6328.81
435.41	6511.37
435.59	6504.35
435.78	6279.66
435.97	6377.96
436.16	6373.28
436.34	6389.66
436.53	6394.34
436.72	6497.33
436.90	6490.31
437.09	6586.27
437.28	6349.87
437.46	6539.46
437.65	6527.75
437.84	6539.46
438.02	6696.27
438.21	6698.61
438.40	6663.51
438.58	6998.20
438.77	6937.35
438.96	6850.75
439.14	6974.80
439.33	7201.83
439.52	7087.14
439.70	7061.40
439.89	7353.96
440.08	7246.30
440.26	7286.09
440.45	7243.96
440.63	7342.26
440.82	7529.50
441.01	7531.84
441.19	7382.05
441.38	7763.56
441.57	7618.44
441.75	7646.53
441.94	7976.55
442.12	7822.07
442.31	8035.06
442.50	8032.72
442.68	7929.74
442.87	7887.61
443.05	8271.45
443.24	8166.13
443.43	8098.25
443.61	8060.80
443.80	8484.44
443.98	8077.19
444.17	7793.98
444.35	8271.45
444.54	8341.67
444.73	8152.09
444.91	8229.32
445.10	8259.75
445.28	8301.88
445.47	8414.23
445.65	8241.03
445.84	8435.29
446.02	8334.65
446.21	8257.41
446.39	8580.40
446.58	8411.89
446.77	8409.54
446.95	8184.85
447.14	8603.81
447.32	8622.53
447.51	8308.90
447.69	8269.11
447.88	8638.92
448.06	8449.33
448.25	8395.50
448.43	8564.02
448.62	8636.58
448.80	8538.27
448.99	8777.01
449.17	8683.39
449.36	8631.90
449.54	8730.20
449.73	8905.74
449.91	9008.72
450.10	8774.67
450.28	8915.10
450.46	9184.26
450.65	9006.38
450.83	9034.47
451.02	9025.11
451.20	9011.06
451.39	9074.26
451.57	8961.91
451.76	9053.19
451.94	9090.64
452.13	9076.60
452.31	9219.37
452.49	9092.98
452.68	9315.33
452.86	9453.42
453.05	9338.74
453.23	9366.82
453.42	9350.44
453.60	9233.41
453.78	9415.98
453.97	9277.88
454.15	9224.05
454.34	9451.08
454.52	9781.10
454.70	9731.95
454.89	9809.19
455.07	9830.25
455.26	9617.26
455.44	9994.09
455.62	9937.91
455.81	9940.26
455.99	10045.58
456.17	9933.23
456.36	10040.90
456.54	10202.40
456.73	10384.96
456.91	10319.42
457.09	10382.62
457.28	10399.00
457.46	10303.04
457.64	10494.96
457.83	10558.16
458.01	10064.30
458.19	10717.31
458.38	10396.66
458.56	10588.58
458.74	10574.54
458.93	10546.45
459.11	10810.93
459.29	10700.93
459.48	10932.64
459.66	10621.35
459.84	10724.33
460.03	11054.35
460.21	10993.50
460.39	10981.79
460.57	10911.58
460.76	11028.60
460.94	11232.23
461.12	11098.82
461.31	11101.16
461.49	11084.78
461.67	11295.43
461.85	11300.11
462.04	11253.30
462.22	11784.60
462.40	11433.52
462.59	11250.96
462.77	11473.31
462.95	11646.51
463.13	11510.75
463.32	11770.55
463.50	11571.61
463.68	11742.47
463.86	11733.11
464.05	11534.16
464.23	11515.44
464.41	11840.77
464.59	11403.09
464.78	12107.59
464.96	11873.54
465.14	11756.51
465.32	12060.78
465.50	12133.34
465.69	12081.85
465.87	11906.31
466.05	12039.72
466.23	12285.47
466.41	12070.14
466.60	12418.88
466.78	12156.74
466.96	12458.67
467.14	12290.15
467.32	12489.10
467.51	12486.76
467.69	12091.21
467.87	12674.00
468.05	12580.38
468.23	12439.95
468.41	12376.75
468.60	12519.53
468.78	12713.79
468.96	12470.37
469.14	12659.96
469.32	13109.34
469.50	12559.31
469.69	12865.92
469.87	13055.51
470.05	12943.16
470.23	13118.70
470.41	13118.70
470.59	13348.08
470.77	13195.94
470.95	13235.73
471.14	13294.24
471.32	13048.49
471.50	13404.25
471.68	13392.55
471.86	13563.40
472.04	13841.93
472.22	14040.87
472.40	13741.29
472.58	13834.91
472.77	14083.00
472.95	14185.99
473.13	14478.55
473.31	13968.32
473.49	13996.40
473.67	13998.74
473.85	14197.69
474.03	14724.31
474.21	14518.34
474.39	14560.47
474.57	14445.79
474.75	14597.92
474.93	14995.81
475.12	14743.03
475.30	15229.87
475.48	14778.14
475.66	14925.60
475.84	15122.20
476.02	15400.72
476.20	15468.60
476.38	15428.81
476.56	15700.31
476.74	16067.78
476.92	15632.44
477.10	15686.27
477.28	16070.12
477.46	16259.70
477.64	16327.58
477.82	16606.10
478.00	17057.82
478.18	16716.11
478.36	16678.66
478.54	17287.20
478.72	16989.95
478.90	17207.62
479.08	17341.03
479.26	17680.41
479.44	17612.53
479.62	17811.48
479.80	17954.25
479.98	18026.81
480.16	18623.64
480.34	18139.15
480.52	18190.64
480.70	18567.47
480.88	18450.44
481.06	18473.85
481.24	18513.64
481.41	18787.48
481.59	19318.78
481.77	19293.04
481.95	19213.46
482.13	19824.34
482.31	19606.67
482.49	19969.45
482.67	20060.73
482.85	20084.14
483.03	20608.42
483.21	20535.86
483.39	20718.42
483.57	20933.75
483.74	20919.71
483.92	20982.90
484.10	21500.16
484.28	21551.65
484.46	21781.03
484.64	22230.41
484.82	22040.82
485.00	22384.88
485.18	22515.95
485.35	22572.13
485.53	22939.59
485.71	22759.37
485.89	23580.90
486.07	23222.80
486.25	23274.29
486.43	23506.00
486.61	23660.48
486.78	24156.67
486.96	24409.45
487.14	24493.71
487.32	24561.58
487.50	24636.48
487.68	24994.58
487.85	25338.64
488.03	25291.83
488.21	25392.47
488.39	25518.86
488.57	25968.24
488.75	26258.47
488.92	26384.86
489.10	26462.10
489.28	26342.73
489.46	26827.22
489.64	26902.12
489.81	27658.11
489.99	27489.59
490.17	27424.06
490.35	28107.49
490.53	28081.75
490.70	28362.61
490.88	27899.19
491.06	28989.88
491.24	28528.79
491.41	29046.05
491.59	28931.36
491.77	29418.19
491.95	29467.34
492.13	29565.65
492.30	29816.08
492.48	29516.50
492.66	30195.25
492.84	30106.31
493.01	30630.59
493.19	30288.87
493.37	30780.39
493.54	31171.25
493.72	31686.17
493.90	31161.89
494.08	31842.99
494.25	32018.53
494.43	31971.72
494.61	31934.27
494.79	32423.44
494.96	32350.88
495.14	32622.39
495.32	32961.76
495.49	33645.20
495.67	33291.78
495.85	33549.24
496.02	33916.70
496.20	33937.77
496.38	33764.57
496.55	33876.91
496.73	34735.89
496.91	34305.23
497.09	34686.74
497.26	34778.02
497.44	34995.69
497.62	35374.86
497.79	35646.36
497.97	35555.08
498.14	35723.60
498.32	35868.71
498.50	36128.51
498.67	36488.95
498.85	36348.52
499.03	36828.33
499.20	36444.48
499.38	36708.96
499.56	36830.67
499.73	36847.05
499.91	37242.60
500.08	37450.91
500.26	37228.56
500.44	37500.06
500.61	37717.73
500.79	37565.60
500.97	38024.34
501.14	38714.80
501.32	38532.24
501.49	38433.94
501.67	38735.87
501.84	38857.57
502.02	38614.16
502.20	39058.86
502.37	38815.44
502.55	38689.06
502.72	39442.71
502.90	39388.88
503.07	39281.21
503.25	39957.63
503.43	39487.18
503.60	39922.52
503.78	40142.53
503.95	39618.25
504.13	40170.61
504.30	40577.87
504.48	40526.38
504.65	40350.84
504.83	40912.56
505.01	41415.78
505.18	41488.34
505.36	41336.20
505.53	40919.59
505.71	41539.83
505.88	41816.01
506.06	41146.62
506.23	42017.30
506.41	41778.56
506.58	42019.64
506.76	41713.03
506.93	42110.92
507.11	41883.89
507.28	42272.42
507.46	42394.12
507.63	43295.23
507.81	42508.81
507.98	42319.23
508.16	43203.95
508.33	42747.54
508.50	43192.25
508.68	43704.82
508.85	43629.93
509.03	43274.16
509.20	43929.51
509.38	44037.18
509.55	44327.41
509.73	44233.78
509.90	44325.07
510.08	44739.34
510.25	44928.92
510.42	44561.46
510.60	44856.37
510.77	45467.25
510.95	45336.18
511.12	44926.58
511.30	44744.02
511.47	45235.53
511.64	45642.79
511.82	45244.90
511.99	45415.76
512.17	45713.00
512.34	45780.88
512.51	46080.47
512.69	46162.39
512.86	46188.13
513.04	46284.09
513.21	46579.00
513.38	46419.84
513.56	46639.86
513.73	46459.63
513.90	46548.57
514.08	46443.25
514.25	47416.91
514.43	47178.18
514.60	47281.16
514.77	47049.45
514.95	47349.04
515.12	47372.44
515.29	47536.28
515.47	47856.93
515.64	47908.43
515.81	47798.42
515.99	47943.53
516.16	48266.53
516.33	48294.61
516.51	48453.77
516.68	48215.04
516.85	48486.54
517.03	49230.83
517.20	48891.45
517.37	48765.06
517.54	48343.77
517.72	48697.19
517.89	48748.68
518.06	48985.07
518.24	48961.67
518.41	49310.41
518.58	49308.07
518.75	49008.48
518.93	49448.50
519.10	49399.35
519.27	49703.62
519.45	49649.78
519.62	49656.81
519.79	49851.07
519.96	49825.32
520.14	49975.12
520.31	49900.22
520.48	50047.68
520.65	50040.65
520.83	50164.70
521.00	50688.98
521.17	50415.14
521.34	50382.37
521.52	50810.69
521.69	51147.73
521.86	50536.85
522.03	50923.04
522.20	51168.79
522.38	51358.38
522.55	51332.63
522.72	51133.68
522.89	51302.20
523.07	51760.95
523.24	51082.19
523.41	51337.31
523.58	51222.62
523.75	51643.92
523.92	51934.15
524.10	51709.46
524.27	52032.45
524.44	51681.37
524.61	51952.87
524.78	52032.45
524.96	51838.18
525.13	52090.96
525.30	52210.33
525.47	52413.96
525.64	52315.65
525.81	52149.48
525.98	52683.12
526.16	52420.98
526.33	52048.83
526.50	52938.24
526.67	52594.18
526.84	52956.96
527.01	52552.05
527.18	53132.50
527.36	52861.00
527.53	52849.30
527.70	53425.07
527.87	53251.87
528.04	52947.60
528.21	53357.19
528.38	53408.68
528.55	53212.08
528.72	52949.94
528.89	53148.88
529.07	53127.82
529.24	53404.00
529.41	53443.79
529.58	53462.52
529.75	53818.28
529.92	53605.29
530.09	53560.82
530.26	53722.32
530.43	53825.30
530.60	53659.12
530.77	53942.33
530.94	53727.00
531.11	53762.11
531.28	54064.03
531.46	53968.07
531.63	54143.61
531.80	54188.08
531.97	54426.82
532.14	54124.89
532.31	54185.74
532.48	54314.47
532.65	54492.35
532.82	54382.35
532.99	54649.17
533.16	54440.86
533.33	54836.41
533.50	54506.40
533.67	54939.39
533.84	54585.97
534.01	54712.36
534.18	54686.62
534.35	55033.02
534.52	54759.17
534.69	54948.76
534.86	55274.09
535.03	55061.10
535.20	54941.74
535.37	55117.28
535.54	55238.98
535.71	54939.39
535.88	55285.79
536.05	55281.11
536.22	55512.83
536.38	55456.65
536.55	55512.83
536.72	55400.48
536.89	55288.13
537.06	55461.33
537.23	55566.66
537.40	55281.11
537.57	55587.72
537.74	55524.53
537.91	55753.90
538.08	55873.27
538.25	55477.72
538.42	55714.11
538.59	55863.91
538.75	55800.71
538.92	55803.05
539.09	56062.85
539.26	55927.10
539.43	56081.58
539.60	55882.63
539.77	56210.31
539.94	56367.12
540.11	56439.68
540.28	56383.51
540.44	56299.25
540.61	56409.25
540.78	56140.09
540.95	56406.91
541.12	56104.98
541.29	56299.25
541.46	56507.55
541.62	56697.14
541.79	56514.58
541.96	56306.27
542.13	56364.78
542.30	56446.70
542.47	56774.37
542.63	56823.53
542.80	56741.61
542.97	56919.49
543.14	57261.21
543.31	57069.28
543.48	57249.50
543.64	57275.25
543.81	57350.15
543.98	57282.27
544.15	56999.07
544.32	57415.68
544.48	57492.92
544.65	57378.23
544.82	57312.70
544.99	57308.02
545.16	57371.21
545.32	57123.11
545.49	57748.04
545.66	57623.99
545.83	57422.70
546.00	57806.55
546.16	57532.71
546.33	57375.89
546.50	57366.53
546.67	57663.78
546.83	57464.83
547.00	57946.98
547.17	57593.56
547.34	57605.26
547.50	57729.31
547.67	58134.23
547.84	57998.48
548.00	58010.18
548.17	57958.69
548.34	58122.52
548.51	58174.02
548.67	57991.45
548.84	58024.22
549.01	57977.41
549.18	58033.58
549.34	58005.50
549.51	58223.17
549.68	58354.24
549.84	58237.21
550.01	58260.62
550.18	58096.78
550.34	58326.15
550.51	58330.83
550.68	58344.87
550.84	58049.97
551.01	58548.50
551.18	58382.32
551.34	58391.68
551.51	58468.92
551.68	58415.09
551.84	58497.01
552.01	58169.33
552.18	58438.50
552.34	58412.75
552.51	58553.18
552.68	58274.66
552.84	58534.46
553.01	58752.13
553.18	58789.58
553.34	58864.47
553.51	58480.63
553.67	58857.45
553.84	58801.28
554.01	58979.16
554.17	59032.99
554.34	58927.67
554.51	58817.66
554.67	58639.78
554.84	59025.97
555.00	58915.96
555.17	58906.60
555.33	58960.44
555.50	58836.39
555.67	58925.33
555.83	58866.81
556.00	58937.03
556.16	59290.45
556.33	59299.81
556.50	59072.78
556.66	59196.83
556.83	59093.85
556.99	59262.36
557.16	59367.69
557.32	59166.40
557.49	59440.24
557.65	59105.55
557.82	59234.28
557.98	59131.29
558.15	59339.60
558.32	59475.35
558.48	59210.87
558.65	59393.43
558.81	59388.75
558.98	59470.67
559.14	59632.17
559.31	59559.61
559.47	59416.84
559.64	59751.54
559.80	59583.02
559.97	59641.53
560.13	59281.09
560.30	59613.44
560.46	59505.78
560.63	59730.47
560.79	59678.98
560.96	59681.32
561.12	59590.04
561.29	59896.65
561.45	59739.83
561.61	59524.50
561.78	59564.29
561.94	59451.95
562.11	59629.83
562.27	59859.20
562.44	59749.20
562.60	59945.80
562.77	59964.52
562.93	59655.57
563.10	59903.67
563.26	59835.80
563.42	59674.30
563.59	59798.35
563.75	59910.69
563.92	59915.37
564.08	59898.99
564.24	60196.24
564.41	60051.12
564.57	60128.36
564.74	59901.33
564.90	60065.17
565.07	59964.52
565.23	60018.36
565.39	59973.89
565.56	60062.83
565.72	60074.53
565.88	60048.78
566.05	59994.95
566.21	60039.42
566.38	60238.37
566.54	60175.17
566.70	60264.11
566.87	60203.26
567.03	60126.02
567.19	60463.06
567.36	60395.18
567.52	60315.61
567.68	60280.50
567.85	60032.40
568.01	60271.14
568.17	60224.32
568.34	60266.45
568.50	60210.28
568.66	60051.12
568.83	60264.11
568.99	60196.24
569.15	60425.61
569.32	60427.95
569.48	60275.82
569.64	60460.72
569.81	60364.76
569.97	60032.40
570.13	60416.25
570.30	60268.79
570.46	60383.48
570.62	60289.86
570.78	60317.95
570.95	60402.21
571.11	60456.04
571.27	60395.18
571.43	60486.46
571.60	60500.51
571.76	60404.55
571.92	60615.19
572.09	60502.85
572.25	60521.57
572.41	60388.16
572.57	60392.84
572.74	60500.51
572.90	60484.12
573.06	60542.64
573.22	60521.57
573.38	60481.78
573.55	60589.45
573.71	60790.73
573.87	60418.59
574.03	60544.98
574.20	60676.05
574.36	60643.28
574.52	60584.77
574.68	60807.12
574.84	60619.88
575.01	60554.34
575.17	60500.51
575.33	60544.98
575.49	60528.59
575.65	60706.47
575.82	60746.26
575.98	60528.59
576.14	60921.80
576.30	60919.46
576.46	60622.22
576.62	60650.30
576.79	60615.19
576.95	60584.77
577.11	60690.09
577.27	60989.68
577.43	60617.53
577.59	60800.10
577.75	60722.86
577.92	60575.40
578.08	60617.53
578.24	60783.71
578.40	60750.94
578.56	60732.22
578.72	60694.77
578.88	60938.19
579.04	61031.81
579.21	60643.28
579.37	60994.36
579.53	60863.29
579.69	60549.66
579.85	60554.34
580.01	60809.46
580.17	60743.92
580.33	60973.30
580.49	60889.04
580.65	60804.78
580.82	60718.18
580.98	60743.92
581.14	60673.71
581.30	60980.32
581.46	60727.54
581.62	60903.08
581.78	60467.74
581.94	60921.80
582.10	61031.81
582.26	60774.35
582.42	60750.94
582.58	60992.02
582.74	60753.29
582.90	60643.28
583.06	60945.21
583.22	60570.72
583.38	60601.15
583.54	60942.87
583.70	60757.97
583.86	60795.42
584.02	60725.20
584.18	60924.14
584.34	60980.32
584.50	60795.42
584.66	60825.84
584.82	60685.41
584.98	60973.30
585.14	60856.27
585.30	60647.96
585.46	61027.13
585.62	60741.58
585.78	61024.79
585.94	60694.77
586.10	60830.52
586.26	60903.08
586.42	60884.36
586.58	60968.61
586.74	60919.46
586.90	60882.02
587.06	60889.04
587.22	60886.70
587.38	61076.28
587.54	61022.45
587.70	61221.39
587.86	61087.98
588.02	60849.25
588.18	61256.50
588.34	60846.91
588.49	61003.72
