SpectraSuite Data File
++++++++++++++++++++++++++++++++++++
Date: Fri Oct 25 10:47:38 EDT 2013
User: price-jones
Dark Spectrum Present: No
Reference Spectrum Present: No
Number of Sampled Component Spectra: 1
Spectrometers: USB2+H05261
Integration Time (usec): 100000 (USB2+H05261)
Spectra Averaged: 1 (USB2+H05261)
Boxcar Smoothing: 0 (USB2+H05261)
Correct for Electrical Dark: No (USB2+H05261)
Strobe/Lamp Enabled: No (USB2+H05261)
Correct for Detector Non-linearity: No (USB2+H05261)
Correct for Stray Light: No (USB2+H05261)
Number of Pixels in Processed Spectrum: 2048
>>>>>Begin Processed Spectral Data<<<<<
365.73	156.82
365.92	156.82
366.12	156.82
366.32	32.77
366.52	44.47
366.72	53.83
366.91	0.00
367.11	60.85
367.31	0.00
367.51	79.58
367.70	14.04
367.90	70.22
368.10	98.30
368.30	23.41
368.49	0.00
368.69	81.92
368.89	79.58
369.09	65.54
369.28	51.49
369.48	79.58
369.68	81.92
369.87	140.43
370.07	110.01
370.27	243.42
370.47	149.79
370.66	404.91
370.86	451.72
371.06	454.06
371.25	547.69
371.45	451.72
371.65	383.85
371.84	388.53
372.04	458.74
372.24	437.68
372.44	498.53
372.63	531.30
372.83	540.66
373.03	531.30
373.22	465.77
373.42	472.79
373.62	564.07
373.81	538.32
374.01	566.41
374.21	610.88
374.40	578.11
374.60	545.34
374.79	615.56
374.99	535.98
375.19	585.13
375.38	557.05
375.58	578.11
375.78	643.65
375.97	662.37
376.17	648.33
376.37	554.71
376.56	484.49
376.76	594.50
376.95	592.16
377.15	521.94
377.35	589.82
377.54	643.65
377.74	557.05
377.93	571.09
378.13	631.94
378.33	662.37
378.52	610.88
378.72	631.94
378.91	645.99
379.11	685.78
379.31	624.92
379.50	636.63
379.70	667.05
379.89	720.88
380.09	603.86
380.28	645.99
380.48	692.80
380.68	669.39
380.87	627.26
381.07	713.86
381.26	685.78
381.46	730.25
381.65	622.58
381.85	610.88
382.04	648.33
382.24	716.20
382.43	664.71
382.63	685.78
382.83	552.37
383.02	709.18
383.22	788.76
383.41	781.74
383.61	748.97
383.80	727.91
384.00	660.03
384.19	767.70
384.39	772.38
384.58	706.84
384.78	746.63
384.97	725.57
385.17	758.33
385.36	809.83
385.56	812.17
385.75	730.25
385.95	795.78
386.14	842.59
386.34	767.70
386.53	828.55
386.72	798.12
386.92	931.53
387.11	861.32
387.31	858.98
387.50	772.38
387.70	873.02
387.89	891.74
388.09	940.90
388.28	814.51
388.48	812.17
388.67	866.00
388.86	917.49
389.06	861.32
389.25	882.38
389.45	851.96
389.64	807.48
389.84	910.47
390.03	912.81
390.22	807.48
390.42	849.61
390.61	938.55
390.81	1020.47
391.00	940.90
391.19	1057.92
391.39	1055.58
391.58	966.64
391.78	952.60
391.97	985.37
392.16	985.37
392.36	1018.13
392.55	992.39
392.75	980.68
392.94	929.19
393.13	997.07
393.33	994.73
393.52	938.55
393.71	1057.92
393.91	1093.03
394.10	1039.20
394.29	1132.82
394.49	1053.24
394.68	1135.16
394.88	1109.41
395.07	1186.65
395.26	1149.20
395.46	1071.97
395.65	1170.27
395.84	1167.93
396.04	1200.69
396.23	1125.80
396.42	1100.05
396.62	1123.46
396.81	1160.91
397.00	1055.58
397.19	1142.18
397.39	1158.57
397.58	1284.95
397.77	1221.76
397.97	1287.29
398.16	1315.38
398.35	1383.26
398.55	1249.85
398.74	1385.60
398.93	1322.40
399.12	1369.21
399.32	1315.38
399.51	1465.18
399.70	1416.02
399.90	1329.42
400.09	1437.09
400.28	1423.05
400.47	1404.32
400.67	1369.21
400.86	1371.55
401.05	1479.22
401.24	1544.75
401.44	1500.28
401.63	1558.80
401.82	1598.59
402.01	1441.77
402.21	1540.07
402.40	1523.69
402.59	1561.14
402.78	1603.27
402.97	1650.08
403.17	1537.73
403.36	1626.67
403.55	1624.33
403.74	1762.42
403.93	1687.53
404.13	1729.66
404.32	1748.38
404.51	1610.29
404.70	1668.80
404.89	1577.52
405.09	1825.62
405.28	1685.19
405.47	1839.66
405.66	1783.49
405.85	1687.53
406.05	1764.76
406.24	1809.23
406.43	1860.73
406.62	1849.02
406.81	1884.13
407.00	1956.69
407.20	1863.07
407.39	1893.49
407.58	1823.28
407.77	1926.26
407.96	2071.37
408.15	2040.95
408.34	2118.18
408.54	2003.50
408.73	2015.20
408.92	2083.08
409.11	2047.97
409.30	2115.84
409.49	2106.48
409.68	2038.61
409.87	2113.50
410.07	2101.80
410.26	2136.91
410.45	2162.66
410.64	2211.81
410.83	2214.15
411.02	2223.51
411.21	2382.67
411.40	2377.98
411.59	2282.02
411.78	2389.69
411.98	2352.24
412.17	2392.03
412.36	2583.95
412.55	2380.32
412.74	2511.39
412.93	2473.95
413.12	2434.16
413.31	2525.44
413.50	2532.46
413.69	2588.63
413.88	2574.59
414.07	2466.92
414.26	2644.81
414.45	2654.17
414.64	2724.38
414.83	2750.13
415.02	2885.88
415.22	2792.26
415.41	2857.79
415.60	2818.00
415.79	2916.31
415.98	2862.48
416.17	2902.26
416.36	2876.52
416.55	2897.58
416.74	3023.97
416.93	2923.33
417.12	3038.02
417.31	3023.97
417.50	3077.80
417.69	3075.46
417.88	3131.64
418.07	3164.40
418.26	3143.34
418.45	3206.53
418.64	3276.75
418.83	3344.63
419.02	3145.68
419.21	3335.26
419.39	3269.73
419.58	3197.17
419.77	3148.02
419.96	3349.31
420.15	3419.52
420.34	3375.05
420.53	3328.24
420.72	3382.07
420.91	3426.54
421.10	3414.84
421.29	3506.12
421.48	3349.31
421.67	3641.87
421.86	3468.67
422.05	3506.12
422.24	3456.97
422.43	3672.30
422.61	3468.67
422.80	3609.11
422.99	3578.68
423.18	3604.42
423.37	3606.77
423.56	3543.57
423.75	3585.70
423.94	3536.55
424.13	3361.01
424.32	3403.14
424.50	3529.53
424.69	3674.64
424.88	3749.54
425.07	3501.44
425.26	3623.15
425.45	3613.79
425.64	3634.85
425.83	3515.48
426.01	3641.87
426.20	3548.25
426.39	3700.39
426.58	3730.81
426.77	3609.11
426.96	3733.15
427.15	3641.87
427.33	3669.96
427.52	3728.47
427.71	3854.86
427.90	3730.81
428.09	3794.01
428.28	3796.35
428.46	3808.05
428.65	3852.52
428.84	3850.18
429.03	4021.04
429.22	3770.60
429.40	3892.31
429.59	3934.44
429.78	3866.56
429.97	3667.62
430.16	3693.37
430.34	3925.08
430.53	3803.37
430.72	3985.93
430.91	4030.40
431.10	4184.88
431.28	3969.55
431.47	4159.13
431.66	4264.46
431.85	4159.13
432.03	4287.86
432.22	4465.74
432.41	4311.27
432.60	4219.99
432.79	4238.71
432.97	4482.13
433.16	4435.32
433.35	4222.33
433.54	4290.20
433.72	4369.78
433.91	4168.49
434.10	4259.78
434.28	4322.97
434.47	4416.59
434.66	4397.87
434.85	4744.27
435.03	4613.20
435.22	4444.68
435.41	4629.58
435.59	4641.28
435.78	4493.83
435.97	4657.67
436.16	4772.35
436.34	4788.74
436.53	4725.54
436.72	4884.70
436.90	4711.50
437.09	4779.37
437.28	4734.90
437.46	4697.46
437.65	4601.49
437.84	4786.40
438.02	4730.22
438.21	4751.29
438.40	4709.16
438.58	4889.38
438.77	4943.21
438.96	4891.72
439.14	5135.14
439.33	5057.90
439.52	5195.99
439.70	5062.58
439.89	5240.46
440.08	5174.92
440.26	5231.10
440.45	5298.97
440.63	5476.85
440.82	5460.47
441.01	5423.02
441.19	5554.09
441.38	5521.32
441.57	5624.31
441.75	5722.61
441.94	5696.86
442.12	5816.23
442.31	5769.42
442.50	5813.89
442.68	5682.82
442.87	5872.40
443.05	5804.53
443.24	5954.32
443.43	5830.27
443.61	5949.64
443.80	6122.84
443.98	5722.61
444.17	5715.59
444.35	5905.17
444.54	5867.72
444.73	5930.92
444.91	5769.42
445.10	5975.39
445.28	5881.77
445.47	5837.30
445.65	5942.62
445.84	6061.99
446.02	6078.37
446.21	5891.13
446.39	5902.83
446.58	5977.73
446.77	6019.86
446.95	5961.34
447.14	6099.44
447.32	6282.00
447.51	6024.54
447.69	6078.37
447.88	6059.65
448.06	6150.93
448.25	6092.41
448.43	6003.47
448.62	6073.69
448.80	6101.78
448.99	6092.41
449.17	6200.08
449.36	6122.84
449.54	6452.86
449.73	6450.52
449.91	6410.73
450.10	6579.25
450.28	6574.56
450.46	6413.07
450.65	6530.09
450.83	6675.21
451.02	6403.71
451.20	6656.48
451.39	6478.60
451.57	6616.69
451.76	6485.62
451.94	6572.22
452.13	6621.38
452.31	6581.59
452.49	6537.12
452.68	6787.55
452.86	6616.69
453.05	6530.09
453.23	6633.08
453.42	6569.88
453.60	6808.62
453.78	6750.10
453.97	6621.38
454.15	6710.32
454.34	6644.78
454.52	6754.79
454.70	6808.62
454.89	6867.13
455.07	6970.12
455.26	6813.30
455.44	7084.80
455.62	7040.33
455.81	7012.24
455.99	6979.48
456.17	6974.80
456.36	7255.66
456.54	7225.23
456.73	7445.24
456.91	7393.75
457.09	7300.13
457.28	7606.74
457.46	7478.01
457.64	7431.20
457.83	7433.54
458.01	7351.62
458.19	7328.22
458.38	7548.23
458.56	7536.52
458.74	7658.23
458.93	7562.27
459.11	7634.83
459.29	7723.77
459.48	7826.75
459.66	7499.08
459.84	7723.77
460.03	7793.98
460.21	7878.24
460.39	7896.97
460.57	7693.34
460.76	7866.54
460.94	7829.09
461.12	8004.63
461.31	7927.39
461.49	7915.69
461.67	8030.38
461.85	8086.55
462.04	8065.49
462.22	8444.65
462.40	8236.35
462.59	8121.66
462.77	8322.94
462.95	8194.22
463.13	8142.72
463.32	8060.80
463.50	8070.17
463.68	8304.22
463.86	8346.35
464.05	8032.72
464.23	8018.68
464.41	8400.18
464.59	8397.84
464.78	8376.78
464.96	8430.61
465.14	8278.47
465.32	8327.63
465.50	8528.91
465.69	8669.34
465.87	8388.48
466.05	8524.23
466.23	8578.06
466.41	8477.42
466.60	8713.81
466.78	8533.59
466.96	8484.44
467.14	8650.62
467.32	8671.68
467.51	8744.24
467.69	8468.06
467.87	8608.49
468.05	8650.62
468.23	8657.64
468.41	8669.34
468.60	8819.14
468.78	8833.18
468.96	8872.97
469.14	9001.70
469.32	8982.98
469.50	8732.54
469.69	8894.04
469.87	8992.34
470.05	9064.89
470.23	9025.11
470.41	8950.21
470.59	9174.90
470.77	9092.98
470.95	9233.41
471.14	9369.16
471.32	9158.52
471.50	9226.39
471.68	9336.40
471.86	9425.34
472.04	9586.83
472.22	9813.87
472.40	9474.49
472.58	9525.98
472.77	9715.56
472.95	9671.09
473.13	9886.42
473.31	9926.21
473.49	9673.43
473.67	9975.36
473.85	9797.48
474.03	10059.62
474.21	10061.96
474.39	10375.59
474.57	10024.51
474.75	10368.57
474.93	10380.28
475.12	10029.20
475.30	10422.41
475.48	10347.51
475.66	10286.65
475.84	10284.31
476.02	10661.14
476.20	10628.37
476.38	10740.72
476.56	10902.22
476.74	10764.12
476.92	10700.93
477.10	11122.23
477.28	11145.63
477.46	11281.38
477.64	11487.35
477.82	11344.58
478.00	11510.75
478.18	11587.99
478.36	11330.53
478.54	11913.33
478.72	11992.90
478.90	11976.52
479.08	11981.20
479.26	12208.23
479.44	12037.38
479.62	12306.54
479.80	12236.32
479.98	12315.90
480.16	12566.34
480.34	12442.29
480.52	12659.96
480.70	12751.24
480.88	12606.13
481.06	13181.90
481.24	12713.79
481.41	13125.72
481.59	13256.79
481.77	13317.65
481.95	13336.37
482.13	13280.20
482.31	13640.64
482.49	13745.97
482.67	13631.28
482.85	14061.94
483.03	13736.60
483.21	14249.18
483.39	14288.97
483.57	14160.24
483.74	14338.12
483.92	14537.07
484.10	14305.35
484.28	14834.32
484.46	14941.98
484.64	15264.97
484.82	14993.47
485.00	14892.83
485.18	15281.36
485.35	15433.49
485.53	15073.05
485.71	15358.60
485.89	15538.82
486.07	15548.18
486.25	15611.37
486.43	15882.88
486.61	16095.86
486.78	16205.87
486.96	16149.70
487.14	16325.24
487.32	16145.02
487.50	16816.75
487.68	17207.62
487.85	16910.37
488.03	17247.41
488.21	17319.96
488.39	17261.45
488.57	17275.49
488.75	17551.68
488.92	17678.07
489.10	18087.66
489.28	17937.87
489.46	18415.34
489.64	18164.90
489.81	18764.07
489.99	18703.22
490.17	18771.10
490.35	18925.57
490.53	19014.51
490.70	18970.04
490.88	18993.45
491.06	19316.44
491.24	19386.66
491.41	19477.94
491.59	19632.41
491.77	19431.13
491.95	19501.34
492.13	19772.85
492.30	20105.20
492.48	20306.49
492.66	20119.24
492.84	20369.68
493.01	20671.61
493.19	20465.64
493.37	20648.21
493.54	20823.75
493.72	20844.81
493.90	20781.62
494.08	21500.16
494.25	21369.09
494.43	21633.57
494.61	22059.55
494.79	21860.60
494.96	21825.50
495.14	22092.32
495.32	22120.40
495.49	22417.65
495.67	21902.73
495.85	22621.28
496.02	22499.57
496.20	22794.48
496.38	22506.59
496.55	22981.72
496.73	23463.87
496.91	23164.28
497.09	23407.70
497.26	23349.18
497.44	23506.00
497.62	23527.06
497.79	23939.00
497.97	23541.11
498.14	23779.84
498.32	24037.30
498.50	23688.56
498.67	24212.84
498.85	24320.51
499.03	24608.39
499.20	24261.99
499.38	24482.00
499.56	24840.11
499.73	24992.24
499.91	24772.23
500.08	24910.32
500.26	24812.02
500.44	25202.89
500.61	25076.50
500.79	24872.87
500.97	25593.76
501.14	25661.63
501.32	25806.75
501.49	25319.92
501.67	25750.57
501.84	25832.49
502.02	25614.82
502.20	26169.53
502.37	26204.64
502.55	26122.72
502.72	26270.17
502.90	26190.59
503.07	26270.17
503.25	26560.40
503.43	26340.39
503.60	26410.60
503.78	26590.83
503.95	26609.55
504.13	26693.81
504.30	26932.54
504.48	26759.34
504.65	27002.76
504.83	27353.84
505.01	27405.33
505.18	27508.32
505.36	27370.22
505.53	27154.90
505.71	27569.17
505.88	27770.46
506.06	27693.22
506.23	27882.80
506.41	27875.78
506.58	27791.52
506.76	28184.73
506.93	28222.18
507.11	28004.51
507.28	28109.83
507.46	28416.44
507.63	28421.13
507.81	28587.30
507.98	28381.34
508.16	28346.23
508.33	28694.97
508.50	28947.75
508.68	28905.62
508.85	29455.64
509.03	29088.18
509.20	29137.33
509.38	29216.91
509.55	29575.01
509.73	29404.15
509.90	29851.19
510.08	29422.87
510.25	29663.95
510.42	29628.84
510.60	29977.58
510.77	30045.46
510.95	30115.67
511.12	29804.38
511.30	29780.98
511.47	30431.65
511.64	30202.27
511.82	30295.89
511.99	30632.93
512.17	30499.52
512.34	30333.34
512.51	30506.54
512.69	31140.83
512.86	31087.00
513.04	31056.57
513.21	31377.22
513.38	30829.54
513.56	30976.99
513.73	31164.23
513.90	31016.78
514.08	31393.61
514.25	31262.54
514.43	31381.90
514.60	31475.52
514.77	31527.02
514.95	31931.93
515.12	31592.55
515.29	31812.56
515.47	32140.24
515.64	32128.53
515.81	32121.51
515.99	32130.87
516.16	31824.26
516.33	31878.10
516.51	32119.17
516.68	31908.52
516.85	32070.02
517.03	32158.96
517.20	32161.30
517.37	32634.09
517.54	32610.68
517.72	32730.05
517.89	32474.93
518.06	32402.38
518.24	32453.87
518.41	32755.80
518.58	32926.66
518.75	32903.25
518.93	33223.90
519.10	33537.54
519.27	33256.67
519.45	33188.80
519.62	32985.17
519.79	33551.58
519.96	33647.54
520.14	33970.54
520.31	33411.15
520.48	33839.47
520.65	33827.76
520.83	33961.17
521.00	34321.62
521.17	33940.11
521.34	34227.99
521.52	34401.19
521.69	34080.54
521.86	34710.14
522.03	34464.39
522.20	34625.89
522.38	34710.14
522.55	34740.57
522.72	34742.91
522.89	34909.09
523.07	34845.90
523.24	34670.36
523.41	34972.28
523.58	34684.40
523.75	35896.80
523.92	35438.05
524.10	35267.19
524.27	35543.38
524.44	35632.32
524.61	35337.41
524.78	35693.17
524.96	35585.50
525.13	35971.69
525.30	36088.72
525.47	36224.47
525.64	35997.44
525.81	35690.83
525.98	35875.73
526.16	35688.49
526.33	35585.50
526.50	35997.44
526.67	35646.36
526.84	36247.88
527.01	35948.29
527.18	36400.01
527.36	36449.16
527.53	36364.90
527.70	37170.05
527.87	36795.56
528.04	36538.10
528.21	36498.31
528.38	36435.12
528.55	36811.95
528.72	36711.30
528.89	37034.30
529.07	37247.29
529.24	37074.09
529.41	37228.56
529.58	36790.88
529.75	36554.49
529.92	37525.81
530.09	37125.58
530.26	37542.19
530.43	37479.00
530.60	37198.13
530.77	37193.45
530.94	37600.71
531.11	37380.70
531.28	38096.90
531.46	37947.11
531.63	38012.64
531.80	37385.38
531.97	37502.40
532.14	37591.34
532.31	37453.25
532.48	37539.85
532.65	37748.16
532.82	38227.97
532.99	38211.59
533.16	37954.13
533.33	37820.72
533.50	38040.73
533.67	38639.90
533.84	37989.24
534.01	38171.80
534.18	38134.35
534.35	39023.75
534.52	37998.60
534.69	38550.96
534.86	38656.29
535.03	38068.81
535.20	38815.44
535.37	38667.99
535.54	38897.36
535.71	38831.83
535.88	38827.15
536.05	39218.02
536.22	38857.57
536.38	38607.14
536.55	39000.35
536.72	38969.92
536.89	38684.37
537.06	39040.14
537.23	38885.66
537.40	38876.30
537.57	39306.96
537.74	39498.88
537.91	39452.07
538.08	39840.60
538.25	39007.37
538.42	39171.21
538.59	39606.55
538.75	39484.84
538.92	39541.01
539.09	39887.41
539.26	39971.67
539.43	39477.82
539.60	39414.62
539.77	39892.09
539.94	39433.35
540.11	40165.93
540.28	39459.09
540.44	39957.63
540.61	39484.84
540.78	39852.30
540.95	40222.11
541.12	39782.09
541.29	39840.60
541.46	39924.86
541.62	40322.75
541.79	40629.36
541.96	39903.79
542.13	40322.75
542.30	40683.19
542.47	40346.15
542.63	40449.14
542.80	40648.08
542.97	40968.74
543.14	40697.24
543.31	40975.76
543.48	41003.85
543.64	41715.37
543.81	41247.26
543.98	41326.84
544.15	41008.53
544.32	41081.08
544.48	41060.02
544.65	41240.24
544.82	40961.72
544.99	40655.11
545.16	41392.37
545.32	41326.84
545.49	41469.61
545.66	41635.79
545.83	41588.98
546.00	41635.79
546.16	41799.63
546.33	41607.70
546.50	41280.03
546.67	41579.62
546.83	41214.49
547.00	41345.56
547.17	41354.93
547.34	41670.90
547.50	41778.56
547.67	42078.15
547.84	41801.97
548.00	42213.90
548.17	42391.78
548.34	41839.42
548.51	42141.35
548.67	41661.54
548.84	42117.94
549.01	42429.23
549.18	41869.84
549.34	42410.51
549.51	42518.17
549.68	42511.15
549.84	42614.13
550.01	42733.50
550.18	42019.64
550.34	42366.04
550.51	42370.72
550.68	42122.62
550.84	41937.72
551.01	42719.46
551.18	42679.67
551.34	42141.35
551.51	42656.26
551.68	42628.18
551.84	42576.69
552.01	42733.50
552.18	42672.65
552.34	42679.67
552.51	42679.67
552.68	42918.40
552.84	42721.80
553.01	43040.11
553.18	42700.73
553.34	42787.33
553.51	42649.24
553.67	43007.34
553.84	43107.99
554.01	43461.41
554.17	43276.51
554.34	43091.60
554.51	42801.38
554.67	43215.65
554.84	43545.67
555.00	43269.48
555.17	43306.93
555.33	43068.20
555.50	43288.21
555.67	43035.43
555.83	43576.09
556.00	43753.97
556.16	44039.52
556.33	43889.73
556.50	43447.36
556.66	43246.08
556.83	43171.18
556.99	43810.15
557.16	43426.30
557.32	43442.68
557.49	43428.64
557.65	43213.31
557.82	43274.16
557.98	43985.69
558.15	43622.90
558.32	43800.79
558.48	43620.56
558.65	43585.46
558.81	43555.03
558.98	43540.99
559.14	43784.40
559.31	43578.43
559.47	43735.25
559.64	44051.22
559.80	44156.55
559.97	43896.75
560.13	43648.65
560.30	43856.96
560.46	44313.36
560.63	44158.89
560.79	44320.38
560.96	44135.48
561.12	44133.14
561.29	44264.21
561.45	43929.51
561.61	43770.36
561.78	44175.27
561.94	44147.18
562.11	44013.77
562.27	43973.98
562.44	43995.05
562.60	44168.25
562.77	44458.48
562.93	44086.33
563.10	44657.42
563.26	44074.63
563.42	44554.44
563.59	44254.85
563.75	44421.03
563.92	44369.54
564.08	44128.46
564.24	44444.43
564.41	43995.05
564.57	44226.76
564.74	44112.08
564.90	44456.14
565.07	44191.65
565.23	43934.20
565.39	44130.80
565.56	44715.93
565.72	44081.65
565.88	44308.68
566.05	44098.03
566.21	44149.53
566.38	44294.64
566.54	44493.58
566.70	44245.49
566.87	44940.63
567.03	44652.74
567.19	45013.18
567.36	44477.20
567.52	44179.95
567.68	44790.83
567.85	44442.09
568.01	44769.77
568.17	44367.20
568.34	44378.90
568.50	44563.80
568.66	44296.98
568.83	44559.12
568.99	44329.75
569.15	44655.08
569.32	44545.08
569.48	44554.44
569.64	44928.92
569.81	45111.49
569.97	44690.19
570.13	44893.82
570.30	43985.69
570.46	44774.45
570.62	44369.54
570.78	44409.32
570.95	44706.57
571.11	44755.72
571.27	44832.96
571.43	44823.60
571.60	44594.23
571.76	44432.73
571.92	44671.46
572.09	44418.69
572.25	45174.68
572.41	44348.47
572.57	44411.67
572.74	45071.70
572.90	44830.62
573.06	45123.19
573.22	44584.86
573.38	44428.05
573.55	44577.84
573.71	44739.34
573.87	45228.51
574.03	44903.18
574.20	44783.81
574.36	44626.99
574.52	44659.76
574.68	44959.35
574.84	45504.70
575.01	44828.28
575.17	44744.02
575.33	44776.79
575.49	44732.32
575.65	45179.36
575.82	44924.24
575.98	44746.36
576.14	45155.96
576.30	44788.49
576.46	44624.65
576.62	44727.64
576.79	44516.99
576.95	44325.07
577.11	44669.12
577.27	44528.69
577.43	44767.43
577.59	45186.38
577.75	44828.28
577.92	44388.26
578.08	44596.57
578.24	44926.58
578.40	44596.57
578.56	44847.00
578.72	45111.49
578.88	45001.48
579.04	45148.93
579.21	44919.56
579.37	44697.21
579.53	44629.34
579.69	44825.94
579.85	44727.64
580.01	45560.87
580.17	44992.12
580.33	45251.92
580.49	45179.36
580.65	45343.20
580.82	45350.22
580.98	45319.79
581.14	45099.78
581.30	45237.87
581.46	45034.25
581.62	45287.03
581.78	44832.96
581.94	45399.37
582.10	45521.08
582.26	45104.46
582.42	45270.64
582.58	44886.79
582.74	44767.43
582.90	44694.87
583.06	45265.96
583.22	45418.10
583.38	45214.47
583.54	44821.26
583.70	44992.12
583.86	44755.72
584.02	44327.41
584.18	45322.13
584.34	45050.63
584.50	44877.43
584.66	45006.16
584.82	45052.97
584.98	45577.25
585.14	45125.53
585.30	45083.40
585.46	45425.12
585.62	44978.07
585.78	44699.55
585.94	44767.43
586.10	44872.75
586.26	45034.25
586.42	45017.86
586.58	45116.17
586.74	45092.76
586.90	44755.72
587.06	44964.03
587.22	45230.85
587.38	44933.60
587.54	45141.91
587.70	45226.17
587.86	45359.58
588.02	45209.79
588.18	45340.86
588.34	45069.36
588.49	44821.26
588.65	45071.70
588.81	44996.80
588.97	45088.08
589.13	44634.02
589.29	45097.44
589.45	44949.99
589.61	45265.96
589.77	45134.89
589.93	45120.85
590.08	45422.78
590.24	45237.87
