SpectraSuite Data File
++++++++++++++++++++++++++++++++++++
Date: Fri Oct 25 11:26:37 EDT 2013
User: price-jones
Dark Spectrum Present: No
Reference Spectrum Present: No
Number of Sampled Component Spectra: 1
Spectrometers: USB2+H05261
Integration Time (usec): 100000 (USB2+H05261)
Spectra Averaged: 1 (USB2+H05261)
Boxcar Smoothing: 0 (USB2+H05261)
Correct for Electrical Dark: No (USB2+H05261)
Strobe/Lamp Enabled: No (USB2+H05261)
Correct for Detector Non-linearity: No (USB2+H05261)
Correct for Stray Light: No (USB2+H05261)
Number of Pixels in Processed Spectrum: 2048
>>>>>Begin Processed Spectral Data<<<<<
365.73	222.35
365.92	222.35
366.12	222.35
366.32	126.39
366.52	170.86
366.72	154.48
366.91	191.92
367.11	163.84
367.31	124.05
367.51	140.43
367.70	105.32
367.90	147.45
368.10	124.05
368.30	119.37
368.49	168.52
368.69	236.39
368.89	222.35
369.09	170.86
369.28	182.56
369.48	156.82
369.68	215.33
369.87	205.97
370.07	231.71
370.27	241.08
370.47	318.31
370.66	603.86
370.86	674.07
371.06	641.31
371.25	727.91
371.45	720.88
371.65	702.16
371.84	603.86
372.04	674.07
372.24	795.78
372.44	758.33
372.63	758.33
372.83	655.35
373.03	732.59
373.22	702.16
373.42	809.83
373.62	770.04
373.81	880.04
374.01	922.17
374.21	774.72
374.40	746.63
374.60	868.34
374.79	842.59
374.99	816.85
375.19	807.48
375.38	772.38
375.58	840.25
375.78	858.98
375.97	858.98
376.17	894.08
376.37	877.70
376.56	880.04
376.76	875.36
376.95	870.68
377.15	901.11
377.35	912.81
377.54	894.08
377.74	943.24
377.93	870.68
378.13	903.45
378.33	950.26
378.52	936.21
378.72	938.55
378.91	849.61
379.11	983.02
379.31	992.39
379.50	1008.77
379.70	940.90
379.89	1078.99
380.09	987.71
380.28	990.05
380.48	973.66
380.68	1027.50
380.87	1057.92
381.07	1034.52
381.26	1027.50
381.46	980.68
381.65	1104.73
381.85	1114.10
382.04	1074.31
382.24	1008.77
382.43	999.41
382.63	1071.97
382.83	1151.54
383.02	1100.05
383.22	1095.37
383.41	1078.99
383.61	1135.16
383.80	1186.65
384.00	1100.05
384.19	1086.01
384.39	1177.29
384.58	1130.48
384.78	1125.80
384.97	1212.40
385.17	1191.33
385.36	1151.54
385.56	1093.03
385.75	1128.14
385.95	1142.18
386.14	1217.08
386.34	1132.82
386.53	1226.44
386.72	1149.20
386.92	1249.85
387.11	1320.06
387.31	1259.21
387.50	1214.74
387.70	1308.36
387.89	1221.76
388.09	1284.95
388.28	1245.16
388.48	1217.08
388.67	1268.57
388.86	1294.32
389.06	1334.11
389.25	1310.70
389.45	1488.58
389.64	1345.81
389.84	1420.71
390.03	1455.81
390.22	1385.60
390.42	1448.79
390.61	1453.47
390.81	1404.32
391.00	1394.96
391.19	1458.15
391.39	1399.64
391.58	1453.47
391.78	1474.54
391.97	1500.28
392.16	1444.11
392.36	1589.22
392.55	1483.90
392.75	1638.38
392.94	1507.30
393.13	1523.69
393.33	1521.35
393.52	1528.37
393.71	1638.38
393.91	1579.86
394.10	1584.54
394.29	1528.37
394.49	1671.14
394.68	1729.66
394.88	1509.65
395.07	1547.09
395.26	1629.01
395.46	1715.61
395.65	1750.72
395.84	1760.08
396.04	1727.32
396.23	1851.36
396.42	1696.89
396.62	1748.38
396.81	1788.17
397.00	1825.62
397.19	1818.60
397.39	1799.87
397.58	1776.47
397.77	1792.85
397.97	1879.45
398.16	1888.81
398.35	1886.47
398.55	1877.11
398.74	1909.88
398.93	2015.20
399.12	2010.52
399.32	1914.56
399.51	1909.88
399.70	2040.95
399.90	2005.84
400.09	2001.16
400.28	2052.65
400.47	2024.56
400.67	2059.67
400.86	2181.38
401.05	2122.87
401.24	2033.93
401.44	2097.12
401.63	2127.55
401.82	2127.55
402.01	2111.16
402.21	2122.87
402.40	2092.44
402.59	2155.63
402.78	2237.55
402.97	2237.55
403.17	2204.78
403.36	2277.34
403.55	2375.64
403.74	2293.72
403.93	2289.04
404.13	2403.73
404.32	2328.83
404.51	2335.85
404.70	2399.05
404.89	2464.58
405.09	2532.46
405.28	2523.10
405.47	2523.10
405.66	2504.37
405.85	2403.73
406.05	2406.07
406.24	2600.34
406.43	2413.09
406.62	2553.52
406.81	2670.55
407.00	2579.27
407.20	2576.93
407.39	2562.89
407.58	2684.59
407.77	2719.70
407.96	2693.96
408.15	2766.51
408.34	2682.25
408.54	2803.96
408.73	2761.83
408.92	2869.50
409.11	2909.29
409.30	2932.69
409.49	2930.35
409.68	2991.20
409.87	2822.69
410.07	3005.25
410.26	3061.42
410.45	2883.54
410.64	3136.32
410.83	3084.83
411.02	3009.93
411.21	3194.83
411.40	3115.25
411.59	3155.04
411.78	3122.27
411.98	3321.22
412.17	3251.00
412.36	3304.84
412.55	3463.99
412.74	3466.33
412.93	3440.59
413.12	3403.14
413.31	3461.65
413.50	3471.01
413.69	3522.51
413.88	3672.30
414.07	3658.26
414.26	3597.40
414.45	3630.17
414.64	3702.73
414.83	3756.56
415.02	3812.73
415.22	3852.52
415.41	3887.63
415.60	3878.27
415.79	3850.18
415.98	3941.46
416.17	3997.64
416.36	3988.27
416.55	3915.72
416.74	4114.66
416.93	4079.55
417.12	4112.32
417.31	4159.13
417.50	4149.77
417.69	4264.46
417.88	4205.94
418.07	4149.77
418.26	4234.03
418.45	4367.44
418.64	4423.61
418.83	4477.44
419.02	4379.14
419.21	4449.36
419.39	4580.43
419.58	4514.89
419.77	4503.19
419.96	4491.49
420.15	4554.68
420.34	4655.33
420.53	4671.71
420.72	4784.06
420.91	4723.20
421.10	4760.65
421.29	4760.65
421.48	4648.30
421.67	4685.75
421.86	4746.61
422.05	4774.69
422.24	4720.86
422.43	5029.81
422.61	4837.89
422.80	4884.70
422.99	4887.04
423.18	4894.06
423.37	5029.81
423.56	4954.91
423.75	4844.91
423.94	4968.96
424.13	4606.17
424.32	4711.50
424.50	5046.20
424.69	5097.69
424.88	5111.73
425.07	4954.91
425.26	4861.29
425.45	4943.21
425.64	4954.91
425.83	5018.11
426.01	5172.58
426.20	5041.51
426.39	5004.07
426.58	5022.79
426.77	5001.72
426.96	5240.46
427.15	5081.30
427.33	5137.48
427.52	5233.44
427.71	5270.89
427.90	5158.54
428.09	5488.56
428.28	5434.72
428.46	5357.49
428.65	5390.25
428.84	5490.90
429.03	5481.53
429.22	5315.36
429.40	5636.01
429.59	5430.04
429.78	5322.38
429.97	5280.25
430.16	5465.15
430.34	5589.20
430.53	5659.42
430.72	5731.97
430.91	5521.32
431.10	5661.76
431.28	5673.46
431.47	5816.23
431.66	5940.28
431.85	5659.42
432.03	5827.93
432.22	6050.28
432.41	5940.28
432.60	5919.21
432.79	5942.62
432.97	6099.44
433.16	5860.70
433.35	6106.46
433.54	6078.37
433.72	6244.55
433.91	5968.37
434.10	6118.16
434.28	6148.59
434.47	6090.07
434.66	6209.44
434.85	6324.13
435.03	6366.26
435.22	6331.15
435.41	6715.00
435.59	6429.45
435.78	6530.09
435.97	6506.69
436.16	6541.80
436.34	6539.46
436.53	6595.63
436.72	6532.44
436.90	6462.22
437.09	6764.15
437.28	6562.86
437.46	6490.31
437.65	6513.71
437.84	6672.87
438.02	6729.04
438.21	6759.47
438.40	6794.58
438.58	6869.47
438.77	7084.80
438.96	7019.27
439.14	6923.30
439.33	7239.28
439.52	7190.13
439.70	7316.51
439.89	7368.01
440.08	7288.43
440.26	7398.43
440.45	7534.18
440.63	7590.36
440.82	7613.76
441.01	7454.61
441.19	7592.70
441.38	7698.02
441.57	7775.26
441.75	7962.50
441.94	7969.52
442.12	7892.29
442.31	8231.66
442.50	7992.93
442.68	7971.86
442.87	8196.56
443.05	8030.38
443.24	8149.75
443.43	8107.62
443.61	8269.11
443.80	8678.71
443.98	8116.98
444.17	7939.10
444.35	8184.85
444.54	8439.97
444.73	8388.48
444.91	8341.67
445.10	8299.54
445.28	8287.84
445.47	8201.24
445.65	8344.01
445.84	8397.84
446.02	8683.39
446.21	8512.53
446.39	8397.84
446.58	8456.36
446.77	8397.84
446.95	8156.77
447.14	8557.00
447.32	8578.06
447.51	8372.10
447.69	8332.31
447.88	8524.23
448.06	8498.49
448.25	8496.14
448.43	8739.56
448.62	8688.07
448.80	8634.24
448.99	8755.94
449.17	8788.71
449.36	8697.43
449.54	8753.60
449.73	9085.96
449.91	8856.59
450.10	8994.68
450.28	8992.34
450.46	9172.56
450.65	9053.19
450.83	9170.22
451.02	9095.32
451.20	9092.98
451.39	9135.11
451.57	8997.02
451.76	9041.49
451.94	9287.25
452.13	9408.95
452.31	9308.31
452.49	9217.03
452.68	9535.34
452.86	9533.00
453.05	9582.15
453.23	9521.30
453.42	9493.21
453.60	9343.42
453.78	9750.67
453.97	9551.73
454.15	9338.74
454.34	9603.22
454.52	9596.20
454.70	9575.13
454.89	9788.12
455.07	9724.93
455.26	9926.21
455.44	9813.87
455.62	10061.96
455.81	9919.19
455.99	9926.21
456.17	9982.38
456.36	9958.98
456.54	10146.22
456.73	10174.31
456.91	10476.24
457.09	10310.06
457.28	10506.66
457.46	10373.25
457.64	10600.29
457.83	10485.60
458.01	10354.53
458.19	10843.70
458.38	10661.14
458.56	10789.87
458.74	10623.69
458.93	10663.48
459.11	10916.26
459.29	10586.24
459.48	10789.87
459.66	10679.86
459.84	10920.94
460.03	11009.88
460.21	11098.82
460.39	11087.12
460.57	11122.23
460.76	11068.39
460.94	11147.97
461.12	11096.48
461.31	11194.78
461.49	11213.51
461.67	11173.72
461.85	11463.94
462.04	11424.15
462.22	11616.08
462.40	11492.03
462.59	11356.28
462.77	11658.21
462.95	11602.04
463.13	11536.50
463.32	11845.45
463.50	11623.10
463.68	11833.75
463.86	11875.88
464.05	11599.70
464.23	11840.77
464.41	11957.80
464.59	11723.74
464.78	12133.34
464.96	11906.31
465.14	11990.56
465.32	12100.57
465.50	12278.45
465.69	12140.36
465.87	11995.25
466.05	12343.99
466.23	12334.62
466.41	12184.83
466.60	12690.38
466.78	12109.93
466.96	12381.43
467.14	12376.75
467.32	12561.66
467.51	12580.38
467.69	12074.82
467.87	12414.20
468.05	12491.44
468.23	12416.54
468.41	12564.00
468.60	12622.51
468.78	12718.47
468.96	12407.18
469.14	12585.06
469.32	12919.76
469.50	12674.00
469.69	12989.97
469.87	13160.83
470.05	12896.35
470.23	13125.72
470.41	13149.13
470.59	13453.40
470.77	13165.51
470.95	13071.89
471.14	13535.32
471.32	13186.58
471.50	13561.06
471.68	13568.09
471.86	13635.96
472.04	13806.82
472.22	13788.10
472.40	13813.84
472.58	13745.97
472.77	13855.97
472.95	14291.31
473.13	14417.70
473.31	14066.62
473.49	14075.98
473.67	14272.59
473.85	14413.02
474.03	14588.56
474.21	14658.78
474.39	14663.46
474.57	14703.25
474.75	14733.67
474.93	15204.12
475.12	14843.68
475.30	15037.94
475.48	15044.96
475.66	14988.79
475.84	15122.20
476.02	15267.31
476.20	15253.27
476.38	15697.97
476.56	15992.88
476.74	15985.86
476.92	15920.32
477.10	15798.62
477.28	16114.59
477.46	16212.89
477.64	16358.00
477.82	16575.67
478.00	16933.78
478.18	16681.00
478.36	16908.03
478.54	17303.58
478.72	17231.02
478.90	17511.89
479.08	17584.44
479.26	17652.32
479.44	17734.24
479.62	17944.89
479.80	18024.47
479.98	18209.37
480.16	18576.83
480.34	18464.49
480.52	18771.10
480.70	18490.23
480.88	18429.38
481.06	18649.39
481.24	18820.25
481.41	19056.64
481.59	19765.82
481.77	19393.68
481.95	19747.10
482.13	19845.40
482.31	19887.53
482.49	20372.02
482.67	20093.50
482.85	20142.65
483.03	20716.08
483.21	20863.54
483.39	21139.72
483.57	21128.02
483.74	21139.72
483.92	21511.86
484.10	21109.29
484.28	21701.45
484.46	21825.50
484.64	22211.68
484.82	21958.91
485.00	22230.41
485.18	22988.74
485.35	22909.16
485.53	22869.37
485.71	23009.81
485.89	23335.14
486.07	23370.25
486.25	23506.00
486.43	23412.38
486.61	23721.33
486.78	24229.23
486.96	24266.67
487.14	24479.66
487.32	24641.16
487.50	24854.15
487.68	25146.72
487.85	25071.82
488.03	25312.89
488.21	25790.36
488.39	25621.84
488.57	26139.10
488.75	26225.70
488.92	26192.94
489.10	26848.29
489.28	26307.62
489.46	27140.85
489.64	27199.37
489.81	27779.82
489.99	27793.86
490.17	27459.16
490.35	28130.90
490.53	28498.36
490.70	28383.68
490.88	28371.97
491.06	28652.84
491.24	29085.84
491.41	29177.12
491.59	29069.45
491.77	29406.49
491.95	29642.88
492.13	29677.99
492.30	30242.06
492.48	30010.35
492.66	29993.97
492.84	30534.63
493.01	30731.23
493.19	30609.53
493.37	30803.79
493.54	31189.98
493.72	31157.21
493.90	31325.73
494.08	31868.73
494.25	31847.67
494.43	31835.97
494.61	32156.62
494.79	32634.09
494.96	32556.85
495.14	32685.58
495.32	33081.13
495.49	33214.54
495.67	33296.46
495.85	33347.95
496.02	33970.54
496.20	34232.68
496.38	33986.92
496.55	34155.44
496.73	34953.56
496.91	34572.05
497.09	34843.56
497.26	34675.04
497.44	34939.52
497.62	35154.85
497.79	35646.36
497.97	35367.84
498.14	36105.10
498.32	35896.80
498.50	36402.35
498.67	36250.22
498.85	36610.66
499.03	36769.82
499.20	36865.78
499.38	36673.85
499.56	37186.43
499.73	37200.47
499.91	37198.13
500.08	37074.09
500.26	37759.86
500.44	37972.85
500.61	37523.47
500.79	37853.48
500.97	38136.69
501.14	38836.51
501.32	38455.00
501.49	38314.57
501.67	38789.70
501.84	38747.57
502.02	38590.75
502.20	39096.31
502.37	39068.22
502.55	39363.13
502.72	39260.15
502.90	39990.39
503.07	39573.78
503.25	39739.96
503.43	39641.65
503.60	40231.47
503.78	40409.35
503.95	40079.33
504.13	40198.70
504.30	41139.60
504.48	40512.33
504.65	40793.20
504.83	40793.20
505.01	41624.09
505.18	41830.05
505.36	41378.33
505.53	41471.95
505.71	41680.26
505.88	41474.29
506.06	41766.86
506.23	42059.43
506.41	41729.41
506.58	42197.52
506.76	42464.34
506.93	42417.53
507.11	42590.73
507.28	42384.76
507.46	42726.48
507.63	43026.07
507.81	43002.66
507.98	42689.03
508.16	43503.54
508.33	43559.71
508.50	43203.95
508.68	43620.56
508.85	44053.56
509.03	43849.94
509.20	43648.65
509.38	43988.03
509.55	44566.14
509.73	44388.26
509.90	44659.76
510.08	44439.75
510.25	44409.32
510.42	44966.37
510.60	45177.02
510.77	45240.21
510.95	45308.09
511.12	45148.93
511.30	45263.62
511.47	45537.46
511.64	45818.33
511.82	45748.11
511.99	45507.04
512.17	46117.92
512.34	46003.23
512.51	46260.69
512.69	46663.26
512.86	46536.87
513.04	46656.24
513.21	46630.49
513.38	46707.73
513.56	46953.49
513.73	47110.30
513.90	47330.31
514.08	46930.08
514.25	47412.23
514.43	47686.07
514.60	47615.86
514.77	47515.22
514.95	47784.38
515.12	47870.98
515.29	47384.15
515.47	47758.63
515.64	47980.98
515.81	47695.44
515.99	48177.59
516.16	48535.69
516.33	48081.63
516.51	48973.37
516.68	48498.24
516.85	48622.29
517.03	48844.64
517.20	48816.55
517.37	48884.43
517.54	49041.24
517.72	49116.14
517.89	49169.97
518.06	48933.58
518.24	49329.13
518.41	49329.13
518.58	49272.96
518.75	49296.36
518.93	49778.51
519.10	49535.10
519.27	49947.03
519.45	49736.38
519.62	49949.37
519.79	50089.80
519.96	49682.55
520.14	50206.83
520.31	49446.16
520.48	50375.35
520.65	50253.64
520.83	50745.15
521.00	50646.85
521.17	50543.87
521.34	50618.77
521.52	50843.46
521.69	50859.84
521.86	51021.34
522.03	50997.93
522.20	51185.18
522.38	51543.28
522.55	51260.07
522.72	51021.34
522.89	51264.75
523.07	51704.77
523.24	51522.21
523.41	51901.38
523.58	51152.41
523.75	51737.54
523.92	51840.53
524.10	51913.08
524.27	52175.22
524.44	52119.05
524.61	52013.73
524.78	52065.22
524.96	52226.71
525.13	52093.30
525.30	52261.82
525.47	52226.71
525.64	52341.40
525.81	52603.54
525.98	52903.13
526.16	52390.55
526.33	52566.09
526.50	53270.59
526.67	52940.58
526.84	53139.52
527.01	53006.11
527.18	53022.50
527.36	52837.59
527.53	53064.63
527.70	53563.16
527.87	53389.96
528.04	53195.70
528.21	53471.88
528.38	53635.72
528.55	53488.26
528.72	53317.40
528.89	53298.68
529.07	53294.00
529.24	53511.67
529.41	53647.42
529.58	53638.06
529.75	53867.43
529.92	53745.72
530.09	53841.68
530.26	53939.99
530.43	53895.52
530.60	53670.82
530.77	53820.62
530.94	54171.70
531.11	54089.78
531.28	53975.09
531.46	54204.47
531.63	54272.34
531.80	54248.94
531.97	54356.60
532.14	54590.66
532.31	54288.73
532.48	54628.10
532.65	54747.47
532.82	54714.70
532.99	54731.09
533.16	54485.33
533.33	54892.58
533.50	54791.94
533.67	54850.45
533.84	54724.07
534.01	54752.15
534.18	54761.51
534.35	55262.39
534.52	55295.16
534.69	55056.42
534.86	55217.92
535.03	55136.00
535.20	55196.85
535.37	55257.71
535.54	55412.18
535.71	55147.70
535.88	55229.62
536.05	55297.50
536.22	55674.32
536.38	55416.86
536.55	55669.64
536.72	55531.55
536.89	55407.50
537.06	55714.11
537.23	55957.53
537.40	55697.73
537.57	55901.36
537.74	55690.71
537.91	56273.50
538.08	56023.06
538.25	55796.03
538.42	56027.74
538.59	55997.32
538.75	56051.15
538.92	55938.80
539.09	56334.35
539.26	55976.25
539.43	56285.20
539.60	56250.09
539.77	56470.11
539.94	56596.49
540.11	56395.21
540.28	56243.07
540.44	56416.27
540.61	56264.14
540.78	56409.25
540.95	56371.80
541.12	56264.14
541.29	56540.32
541.46	56655.01
541.62	56364.78
541.79	56753.31
541.96	56390.53
542.13	56502.87
542.30	56676.07
542.47	56863.32
542.63	56676.07
542.80	57062.26
542.97	56980.34
543.14	57078.64
543.31	57160.56
543.48	57190.99
543.64	57528.03
543.81	57513.98
543.98	57485.90
544.15	57350.15
544.32	57258.87
544.48	57670.80
544.65	57434.41
544.82	57350.15
544.99	57303.34
545.16	57633.35
545.32	57539.73
545.49	57844.00
545.66	57724.63
545.83	57577.18
546.00	57836.98
546.16	57460.15
546.33	57577.18
546.50	57418.02
546.67	57815.91
546.83	57626.33
547.00	57942.30
547.17	57420.36
547.34	57792.51
547.50	57769.10
547.67	58223.17
547.84	57813.57
548.00	57996.13
548.17	58155.29
548.34	57972.73
548.51	58143.59
548.67	58073.37
548.84	58122.52
549.01	58019.54
549.18	58232.53
549.34	58260.62
549.51	58190.40
549.68	58335.51
549.84	58262.96
550.01	58571.91
550.18	58206.78
550.34	58286.36
550.51	58445.52
550.68	58424.45
550.84	58279.34
551.01	58618.72
551.18	58447.86
551.34	58501.69
551.51	58478.28
551.68	58656.17
551.84	58735.74
552.01	58319.13
552.18	58702.98
552.34	58419.77
552.51	58599.99
552.68	58820.00
552.84	58766.17
553.01	58843.41
553.18	58534.46
553.34	58796.60
553.51	58738.08
553.67	58740.42
553.84	59124.27
554.01	58922.99
554.17	59135.98
554.34	59077.46
554.51	58862.13
554.67	59161.72
554.84	59096.19
555.00	58922.99
555.17	59002.56
555.33	58890.22
555.50	58906.60
555.67	59032.99
555.83	59056.40
556.00	59119.59
556.16	59290.45
556.33	59192.15
556.50	59295.13
556.66	59220.23
556.83	59121.93
556.99	59554.93
557.16	59547.91
557.32	59620.47
557.49	59512.80
557.65	59133.63
557.82	59311.52
557.98	59283.43
558.15	59618.13
558.32	59615.79
558.48	59337.26
558.65	59608.76
558.81	59449.61
558.98	59421.52
559.14	59714.09
559.31	59702.38
559.47	59753.88
559.64	59725.79
559.80	59690.68
559.97	59531.53
560.13	59648.55
560.30	59887.29
560.46	59805.37
560.63	59777.28
560.79	59671.96
560.96	59927.08
561.12	59807.71
561.29	59842.82
561.45	59999.63
561.61	59728.13
561.78	59901.33
561.94	59597.06
562.11	59840.48
562.27	59896.65
562.44	60137.72
562.60	60025.38
562.77	60128.36
562.93	59646.21
563.10	60233.69
563.26	60135.38
563.42	60107.30
563.59	60067.51
563.75	59943.46
563.92	59957.50
564.08	60023.04
564.24	60032.40
564.41	60104.96
564.57	60041.76
564.74	60009.00
564.90	60037.08
565.07	60130.70
565.23	60327.31
565.39	60123.68
565.56	60182.19
565.72	60083.89
565.88	60046.44
566.05	60224.32
566.21	60324.97
566.38	60135.38
566.54	60306.24
566.70	60327.31
566.87	60460.72
567.03	60023.04
567.19	60425.61
567.36	60233.69
567.52	60254.75
567.68	60552.00
567.85	60287.52
568.01	60376.46
568.17	60224.32
568.34	60383.48
568.50	60331.99
568.66	60353.05
568.83	60371.78
568.99	60416.25
569.15	60432.63
569.32	60299.22
569.48	60350.71
569.64	60549.66
569.81	60463.06
569.97	60526.25
570.13	60552.00
570.30	60238.37
570.46	60523.91
570.62	60444.33
570.78	60346.03
570.95	60420.93
571.11	60704.13
571.27	60629.24
571.43	60535.62
571.60	60654.98
571.76	60608.17
571.92	60690.09
572.09	60629.24
572.25	60603.49
572.41	60591.79
572.57	60683.07
572.74	60701.79
572.90	60598.81
573.06	60872.65
573.22	60472.42
573.38	60811.80
573.55	60523.91
573.71	60790.73
573.87	60736.90
574.03	60683.07
574.20	60626.90
574.36	60715.84
574.52	60685.41
574.68	60683.07
574.84	60919.46
575.01	60725.20
575.17	60687.75
575.33	60472.42
575.49	60788.39
575.65	60671.37
575.82	60671.37
575.98	60891.38
576.14	60676.05
576.30	60867.97
576.46	60519.23
576.62	60729.88
576.79	60701.79
576.95	60748.60
577.11	60772.01
577.27	60879.67
577.43	60725.20
577.59	60776.69
577.75	60860.95
577.92	60701.79
578.08	61085.64
578.24	60926.49
578.40	60825.84
578.56	60994.36
578.72	60809.46
578.88	60872.65
579.04	60874.99
579.21	60987.34
579.37	61029.47
579.53	61031.81
579.69	60708.82
579.85	60708.82
580.01	60664.35
580.17	60704.13
580.33	61048.19
580.49	61174.58
580.65	61013.08
580.82	61066.92
580.98	60669.03
581.14	60718.18
581.30	60956.91
581.46	60818.82
581.62	60938.19
581.78	60748.60
581.94	60903.08
582.10	60816.48
582.26	61015.43
582.42	60746.26
582.58	60975.64
582.74	61085.64
582.90	61003.72
583.06	60786.05
583.22	60720.52
583.38	61024.79
583.54	60779.03
583.70	60999.04
583.86	61087.98
584.02	61099.68
584.18	61008.40
584.34	61024.79
584.50	61167.56
584.66	60839.89
584.82	60863.29
584.98	60996.70
585.14	61174.58
585.30	61003.72
585.46	61146.50
585.62	61010.74
585.78	61087.98
585.94	60762.65
586.10	61038.83
586.26	61095.00
586.42	61092.66
586.58	61062.24
586.74	61027.13
586.90	60996.70
587.06	60896.06
587.22	61041.17
587.38	61247.14
587.54	61296.29
587.70	61385.23
587.86	61048.19
588.02	61043.51
588.18	61083.30
588.34	60844.57
588.49	61059.90
