SpectraSuite Data File
++++++++++++++++++++++++++++++++++++
Date: Fri Oct 25 11:23:34 EDT 2013
User: price-jones
Dark Spectrum Present: No
Reference Spectrum Present: No
Number of Sampled Component Spectra: 1
Spectrometers: USB2+H05261
Integration Time (usec): 100000 (USB2+H05261)
Spectra Averaged: 1 (USB2+H05261)
Boxcar Smoothing: 0 (USB2+H05261)
Correct for Electrical Dark: No (USB2+H05261)
Strobe/Lamp Enabled: No (USB2+H05261)
Correct for Detector Non-linearity: No (USB2+H05261)
Correct for Stray Light: No (USB2+H05261)
Number of Pixels in Processed Spectrum: 2048
>>>>>Begin Processed Spectral Data<<<<<
365.73	205.97
365.92	205.97
366.12	205.97
366.32	156.82
366.52	107.66
366.72	189.58
366.91	86.60
367.11	131.07
367.31	93.62
367.51	177.88
367.70	194.26
367.90	159.16
368.10	149.79
368.30	84.26
368.49	131.07
368.69	114.69
368.89	119.37
369.09	88.94
369.28	93.62
369.48	203.63
369.68	159.16
369.87	175.54
370.07	245.76
370.27	297.25
370.47	402.57
370.66	580.45
370.86	592.16
371.06	622.58
371.25	725.57
371.45	608.54
371.65	727.91
371.84	692.80
372.04	692.80
372.24	772.38
372.44	709.18
372.63	711.52
372.83	795.78
373.03	727.91
373.22	826.21
373.42	706.84
373.62	779.40
373.81	779.40
374.01	751.31
374.21	821.53
374.40	802.80
374.60	887.06
374.79	807.48
374.99	816.85
375.19	866.00
375.38	891.74
375.58	795.78
375.78	793.44
375.97	877.70
376.17	868.34
376.37	826.21
376.56	851.96
376.76	877.70
376.95	940.90
377.15	835.57
377.35	816.85
377.54	915.15
377.74	840.25
377.93	905.79
378.13	901.11
378.33	861.32
378.52	912.81
378.72	978.34
378.91	901.11
379.11	976.00
379.31	830.89
379.50	917.49
379.70	994.73
379.89	940.90
380.09	957.28
380.28	898.77
380.48	987.71
380.68	828.55
380.87	1013.45
381.07	1083.67
381.26	1090.69
381.46	1055.58
381.65	964.30
381.85	1050.90
382.04	1036.86
382.24	1015.79
382.43	1109.41
382.63	1090.69
382.83	1078.99
383.02	1032.18
383.22	1053.24
383.41	1130.48
383.61	1083.67
383.80	1102.39
384.00	1034.52
384.19	1123.46
384.39	1151.54
384.58	1139.84
384.78	1245.16
384.97	1144.52
385.17	1210.06
385.36	1125.80
385.56	1132.82
385.75	1076.65
385.95	1198.35
386.14	1163.25
386.34	1221.76
386.53	1212.40
386.72	1299.00
386.92	1252.19
387.11	1280.27
387.31	1261.55
387.50	1282.61
387.70	1226.44
387.89	1303.68
388.09	1252.19
388.28	1268.57
388.48	1322.40
388.67	1313.04
388.86	1387.94
389.06	1308.36
389.25	1352.83
389.45	1284.95
389.64	1329.42
389.84	1301.34
390.03	1469.86
390.22	1359.85
390.42	1397.30
390.61	1371.55
390.81	1401.98
391.00	1350.49
391.19	1458.15
391.39	1383.26
391.58	1577.52
391.78	1362.19
391.97	1504.96
392.16	1439.43
392.36	1565.82
392.55	1371.55
392.75	1458.15
392.94	1554.12
393.13	1523.69
393.33	1481.56
393.52	1537.73
393.71	1610.29
393.91	1577.52
394.10	1563.48
394.29	1589.22
394.49	1568.16
394.68	1598.59
394.88	1591.56
395.07	1664.12
395.26	1673.48
395.46	1633.69
395.65	1739.02
395.84	1657.10
396.04	1692.21
396.23	1804.55
396.42	1778.81
396.62	1724.97
396.81	1804.55
397.00	1806.89
397.19	1795.19
397.39	1827.96
397.58	1732.00
397.77	1776.47
397.97	1783.49
398.16	1776.47
398.35	1874.77
398.55	1907.54
398.74	1905.20
398.93	1942.64
399.12	1874.77
399.32	1933.28
399.51	1935.62
399.70	2022.22
399.90	2017.54
400.09	2026.90
400.28	1961.37
400.47	2054.99
400.67	2005.84
400.86	2040.95
401.05	2097.12
401.24	2129.89
401.44	2179.04
401.63	2160.31
401.82	2090.10
402.01	2073.71
402.21	2162.66
402.40	2267.98
402.59	2111.16
402.78	2179.04
402.97	2356.92
403.17	2204.78
403.36	2218.83
403.55	2190.74
403.74	2354.58
403.93	2256.28
404.13	2291.38
404.32	2370.96
404.51	2352.24
404.70	2420.11
404.89	2375.64
405.09	2553.52
405.28	2485.65
405.47	2466.92
405.66	2466.92
405.85	2612.04
406.05	2499.69
406.24	2534.80
406.43	2623.74
406.62	2602.68
406.81	2700.98
407.00	2637.78
407.20	2565.23
407.39	2712.68
407.58	2705.66
407.77	2794.60
407.96	2642.46
408.15	2813.32
408.34	2689.28
408.54	2836.73
408.73	2789.92
408.92	2874.18
409.11	2745.45
409.30	2874.18
409.49	2923.33
409.68	2953.76
409.87	2918.65
410.07	3070.78
410.26	3009.93
410.45	3061.42
410.64	3059.08
410.83	3030.99
411.02	3047.38
411.21	3082.49
411.40	3201.85
411.59	3229.94
411.78	3246.32
411.98	3199.51
412.17	3208.87
412.36	3148.02
412.55	3325.90
412.74	3440.59
412.93	3389.10
413.12	3218.24
413.31	3494.42
413.50	3513.14
413.69	3520.17
413.88	3616.13
414.07	3641.87
414.26	3791.67
414.45	3660.60
414.64	3810.39
414.83	3712.09
415.02	3714.43
415.22	3754.22
415.41	3733.15
415.60	3838.48
415.79	3934.44
415.98	3775.28
416.17	3906.35
416.36	3812.73
416.55	3995.29
416.74	4095.94
416.93	4194.24
417.12	4173.18
417.31	4245.73
417.50	4250.41
417.69	4334.67
417.88	4262.12
418.07	4271.48
418.26	4219.99
418.45	4311.27
418.64	4447.02
418.83	4430.63
419.02	4388.50
419.21	4592.13
419.39	4486.81
419.58	4486.81
419.77	4465.74
419.96	4573.41
420.15	4622.56
420.34	4617.88
420.53	4617.88
420.72	4636.60
420.91	4636.60
421.10	4643.62
421.29	4823.84
421.48	4758.31
421.67	4667.03
421.86	4798.10
422.05	4748.95
422.24	4622.56
422.43	4856.61
422.61	4945.55
422.80	5041.51
422.99	4844.91
423.18	5048.54
423.37	4959.60
423.56	4873.00
423.75	4842.57
423.94	5006.41
424.13	4657.67
424.32	4706.82
424.50	5139.82
424.69	5074.28
424.88	5041.51
425.07	5027.47
425.26	4891.72
425.45	5032.15
425.64	4959.60
425.83	4997.04
426.01	5067.26
426.20	5130.45
426.39	5135.14
426.58	5055.56
426.77	5118.75
426.96	4999.38
427.15	5158.54
427.33	5191.31
427.52	5280.25
427.71	5224.08
427.90	5041.51
428.09	5310.68
428.28	5404.30
428.46	5322.38
428.65	5357.49
428.84	5446.43
429.03	5638.35
429.22	5359.83
429.40	5502.60
429.59	5577.50
429.78	5352.81
429.97	5387.91
430.16	5495.58
430.34	5514.30
430.53	5490.90
430.72	5827.93
430.91	5647.71
431.10	5544.73
431.28	5516.64
431.47	5717.93
431.66	5764.74
431.85	5724.95
432.03	6026.88
432.22	5916.87
432.41	5813.89
432.60	5959.00
432.79	5991.77
432.97	6099.44
433.16	5935.60
433.35	5895.81
433.54	5959.00
433.72	6129.86
433.91	5994.11
434.10	6094.76
434.28	6085.39
434.47	6132.20
434.66	6284.34
434.85	6230.51
435.03	6310.08
435.22	6375.62
435.41	6476.26
435.59	6504.35
435.78	6457.54
435.97	6565.20
436.16	6324.13
436.34	6392.00
436.53	6462.22
436.72	6738.40
436.90	6527.75
437.09	6731.38
437.28	6642.44
437.46	6588.61
437.65	6715.00
437.84	6806.28
438.02	6817.98
438.21	6839.05
438.40	6661.16
438.58	6909.26
438.77	7103.53
438.96	6958.41
439.14	7185.44
439.33	7145.66
439.52	7192.47
439.70	7208.85
439.89	7328.22
440.08	7232.26
440.26	7529.50
440.45	7515.46
440.63	7485.03
440.82	7630.15
441.01	7475.67
441.19	7698.02
441.38	7637.17
441.57	7857.18
441.75	7857.18
441.94	8028.04
442.12	8004.63
442.31	8011.65
442.50	8042.08
442.68	8107.62
442.87	7943.78
443.05	8161.45
443.24	8358.05
443.43	8107.62
443.61	8203.58
443.80	8442.31
443.98	8037.40
444.17	7880.58
444.35	8168.47
444.54	8348.69
444.73	8285.50
444.91	8156.77
445.10	8226.98
445.28	8414.23
445.47	8344.01
445.65	8266.77
445.84	8608.49
446.02	8533.59
446.21	8369.76
446.39	8496.14
446.58	8402.52
446.77	8514.87
446.95	8388.48
447.14	8542.96
447.32	8634.24
447.51	8697.43
447.69	8439.97
447.88	8669.34
448.06	8603.81
448.25	8503.17
448.43	8674.03
448.62	8496.14
448.80	8760.63
448.99	8692.75
449.17	8695.09
449.36	8702.11
449.54	8875.31
449.73	8889.35
449.91	8968.93
450.10	8975.95
450.28	9116.39
450.46	9085.96
450.65	9018.08
450.83	9107.02
451.02	8865.95
451.20	9085.96
451.39	9163.20
451.57	9179.58
451.76	9226.39
451.94	9420.66
452.13	9345.76
452.31	9399.59
452.49	8982.98
452.68	9366.82
452.86	9207.67
453.05	9441.72
453.23	9600.88
453.42	9298.95
453.60	9303.63
453.78	9490.87
453.97	9455.76
454.15	9678.12
454.34	9575.13
454.52	9645.35
454.70	9666.41
454.89	9427.68
455.07	9774.08
455.26	9856.00
455.44	9769.40
455.62	9891.10
455.81	9863.02
455.99	9968.34
456.17	10115.80
456.36	10169.63
456.54	10076.01
456.73	10370.91
456.91	10429.43
457.09	10176.65
457.28	10569.86
457.46	10272.61
457.64	10523.05
457.83	10490.28
458.01	10434.11
458.19	10548.79
458.38	10656.46
458.56	10581.56
458.74	10729.02
458.93	10663.48
459.11	10684.55
459.29	10675.18
459.48	10934.98
459.66	10684.55
459.84	11070.73
460.03	11014.56
460.21	10918.60
460.39	11002.86
460.57	11110.52
460.76	10839.02
460.94	10974.77
461.12	11105.84
461.31	11002.86
461.49	11276.70
461.67	11194.78
461.85	11419.47
462.04	11253.30
462.22	11480.33
462.40	11658.21
462.59	11758.85
462.77	11674.59
462.95	11587.99
463.13	11573.95
463.32	11580.97
463.50	11929.71
463.68	11868.86
463.86	11882.90
464.05	11620.76
464.23	11714.38
464.41	11850.13
464.59	11831.41
464.78	12238.66
464.96	12002.27
465.14	11740.13
465.32	11948.43
465.50	12198.87
465.69	12322.92
465.87	12233.98
466.05	12131.00
466.23	12252.70
466.41	12493.78
466.60	12559.31
466.78	12105.25
466.96	12203.55
467.14	12355.69
467.32	12409.52
467.51	12779.32
467.69	12301.86
467.87	12561.66
468.05	12421.22
468.23	12510.16
468.41	12367.39
468.60	12774.64
468.78	12767.62
468.96	12776.98
469.14	12760.60
469.32	13083.59
469.50	12730.17
469.69	12931.46
469.87	12987.63
470.05	13200.62
470.23	13327.01
470.41	13322.33
470.59	13415.95
470.77	13149.13
470.95	13205.30
471.14	13671.07
471.32	13116.36
471.50	13642.98
471.68	13582.13
471.86	13816.18
472.04	13682.77
472.22	14157.90
472.40	13729.58
472.58	13797.46
472.77	13989.38
472.95	14136.84
473.13	14546.43
473.31	14193.01
473.49	14078.32
473.67	14384.93
473.85	14415.36
474.03	14604.94
474.21	14649.41
474.39	14874.10
474.57	14761.76
474.75	14974.75
474.93	14977.09
475.12	14981.77
475.30	15239.23
475.48	15105.82
475.66	15297.74
475.84	15040.28
476.02	15583.29
476.20	15389.02
476.38	15690.95
476.56	16137.99
476.74	16016.29
476.92	15873.51
477.10	15477.96
477.28	16065.44
477.46	16271.40
477.64	16294.81
477.82	16589.72
478.00	16959.52
478.18	16912.71
478.36	16919.73
478.54	16947.82
478.72	17486.14
478.90	17282.52
479.08	17729.56
479.26	17858.29
479.44	17752.96
479.62	18122.77
479.80	18068.94
479.98	18164.90
480.16	18759.39
480.34	18246.82
480.52	18773.44
480.70	18794.50
480.88	18300.65
481.06	18904.51
481.24	18654.07
481.41	19351.55
481.59	19442.83
481.77	19456.87
481.95	19728.38
482.13	19871.15
482.31	19777.53
482.49	20423.51
482.67	20229.25
482.85	20669.27
483.03	20868.22
483.21	21160.78
483.39	21149.08
483.57	20767.57
483.74	20893.96
483.92	21500.16
484.10	21025.03
484.28	21806.77
484.46	21986.99
484.64	22438.72
484.82	22073.59
485.00	22270.20
485.18	22707.88
485.35	22876.40
485.53	22951.29
485.71	23007.47
485.89	23293.01
486.07	23597.28
486.25	23655.79
486.43	23821.97
486.61	24163.69
486.78	24266.67
486.96	24297.10
487.14	24545.20
487.32	24879.89
487.50	24903.30
487.68	25142.03
487.85	25319.92
488.03	25577.37
488.21	25933.14
488.39	25689.72
488.57	25972.92
488.75	25940.16
488.92	26515.93
489.10	26726.58
489.28	26569.76
489.46	27356.18
489.64	26869.35
489.81	27901.53
489.99	27859.40
490.17	27948.34
490.35	28299.42
490.53	27957.70
490.70	28608.37
490.88	28364.95
491.06	28732.42
491.24	29034.35
491.41	28952.43
491.59	29303.51
491.77	29259.04
491.95	29383.09
492.13	30010.35
492.30	29912.05
492.48	30340.36
492.66	30232.70
492.84	30291.21
493.01	30576.76
493.19	30740.60
493.37	31180.62
493.54	31199.34
493.72	31604.25
493.90	31239.13
494.08	31672.13
494.25	32507.70
494.43	31997.46
494.61	31967.04
494.79	32561.53
494.96	32959.42
495.14	32725.37
495.32	32767.50
495.49	33036.66
495.67	33294.12
495.85	33378.38
496.02	33759.89
496.20	34078.20
496.38	34005.64
496.55	33818.40
496.73	34813.13
496.91	34796.74
497.09	35000.37
497.26	34927.81
497.44	35014.41
497.62	35431.03
497.79	35754.02
497.97	35470.82
498.14	35964.67
498.32	36418.74
498.50	36271.28
498.67	36865.78
498.85	36898.55
499.03	37083.45
499.20	36879.82
499.38	37132.60
499.56	37078.77
499.73	37284.73
499.91	37333.89
500.08	37867.53
500.26	37408.78
500.44	37741.14
500.61	37713.05
500.79	37888.59
500.97	38178.82
501.14	38696.08
501.32	38660.97
501.49	38501.81
501.67	38785.02
501.84	39318.66
502.02	38717.14
502.20	38993.32
502.37	39260.15
502.55	39332.70
502.72	39922.52
502.90	39840.60
503.07	39812.51
503.25	39653.36
503.43	39959.97
503.60	40240.83
503.78	39859.32
503.95	40238.49
504.13	40601.27
504.30	40657.45
504.48	40395.31
504.65	40566.16
504.83	41134.92
505.01	41134.92
505.18	41649.83
505.36	41474.29
505.53	41598.34
505.71	41825.37
505.88	41729.41
506.06	41603.02
506.23	42211.56
506.41	41755.16
506.58	42504.13
506.76	42520.51
506.93	42887.98
507.11	42625.84
507.28	42866.91
507.46	42792.01
507.63	42974.58
507.81	43189.91
507.98	42862.23
508.16	43309.27
508.33	43428.64
508.50	43515.24
508.68	43875.68
508.85	44425.71
509.03	43498.86
509.20	44055.90
509.38	44505.29
509.55	44692.53
509.73	44601.25
509.90	44598.91
510.08	45095.10
510.25	44751.04
510.42	44957.01
510.60	44985.10
510.77	45366.60
510.95	45385.33
511.12	45462.57
511.30	45394.69
511.47	46094.51
511.64	45790.24
511.82	46064.08
511.99	45762.15
512.17	45841.73
512.34	45918.97
512.51	46246.65
512.69	46288.77
512.86	46515.81
513.04	47089.24
513.21	46913.70
513.38	47117.32
513.56	46880.93
513.73	46953.49
513.90	47084.56
514.08	46993.28
514.25	47381.80
514.43	47529.26
514.60	47327.97
514.77	47522.24
514.95	47880.34
515.12	47639.26
515.29	47784.38
515.47	47835.87
515.64	48376.53
515.81	48046.52
515.99	48109.71
516.16	48601.22
516.33	48411.64
516.51	48947.62
516.68	48528.67
516.85	48870.39
517.03	48952.30
517.20	49326.79
517.37	48769.74
517.54	49027.20
517.72	49062.31
517.89	49074.01
518.06	49265.94
518.24	49254.23
518.41	49336.15
518.58	49408.71
518.75	49406.37
518.93	49495.31
519.10	49492.97
519.27	49720.00
519.45	49872.14
519.62	50223.22
519.79	50153.00
519.96	49897.88
520.14	50220.87
520.31	49900.22
520.48	50363.65
520.65	50157.68
520.83	50646.85
521.00	50780.26
521.17	50850.48
521.34	50892.61
521.52	50754.52
521.69	50894.95
521.86	50983.89
522.03	51248.37
522.20	51494.13
522.38	51580.73
522.55	51767.97
522.72	51538.60
522.89	51714.14
523.07	51756.27
523.24	51711.80
523.41	51889.68
523.58	51503.49
523.75	51840.53
523.92	51732.86
524.10	52350.76
524.27	51987.98
524.44	52128.41
524.61	52105.01
524.78	52673.76
524.96	52428.00
525.13	52519.28
525.30	52540.35
525.47	52392.89
525.64	52549.71
525.81	52800.15
525.98	52802.49
526.16	52676.10
526.33	52781.42
526.50	53195.70
526.67	52842.27
526.84	52762.70
527.01	53048.24
527.18	53176.97
527.36	53340.81
527.53	52978.03
527.70	53469.54
527.87	53380.60
528.04	53317.40
528.21	53567.84
528.38	53368.90
528.55	53867.43
528.72	53368.90
528.89	53647.42
529.07	53387.62
529.24	53432.09
529.41	53876.79
529.58	53703.59
529.75	53839.34
529.92	53970.41
530.09	54241.92
530.26	53886.15
530.43	53979.78
530.60	54038.29
530.77	54080.42
530.94	54138.93
531.11	54213.83
531.28	54099.14
531.46	54281.70
531.63	54195.10
531.80	54602.36
531.97	54410.43
532.14	54534.48
532.31	54653.85
532.48	54810.67
532.65	54513.42
532.82	54571.93
532.99	54871.52
533.16	54808.32
533.33	54752.15
533.50	54885.56
533.67	54993.23
533.84	54600.02
534.01	54747.47
534.18	54974.50
534.35	55386.44
534.52	55224.94
534.69	55206.22
534.86	55084.51
535.03	55100.89
535.20	55543.25
535.37	55510.49
535.54	55421.55
535.71	55522.19
535.88	55393.46
536.05	55695.39
536.22	55578.36
536.38	55894.33
536.55	55683.69
536.72	55697.73
536.89	55547.93
537.06	55667.30
537.23	55791.35
537.40	55606.45
537.57	55924.76
537.74	55976.25
537.91	56170.52
538.08	56163.50
538.25	55957.53
538.42	56055.83
538.59	56011.36
538.75	56186.90
538.92	55835.82
539.09	56313.29
539.26	56182.22
539.43	56254.78
539.60	56505.21
539.77	56259.46
539.94	56559.05
540.11	56495.85
540.28	56470.11
540.44	56624.58
540.61	56622.24
540.78	56336.69
540.95	56444.36
541.12	56320.31
541.29	56488.83
541.46	56608.20
541.62	56615.22
541.79	56804.80
541.96	56495.85
542.13	56512.23
542.30	56669.05
542.47	56989.70
542.63	56802.46
542.80	56982.68
542.97	56994.39
543.14	57343.12
543.31	57371.21
543.48	57415.68
543.64	57441.43
543.81	57579.52
543.98	57296.31
544.15	57326.74
544.32	57544.41
544.48	57766.76
544.65	57535.05
544.82	57396.96
544.99	57457.81
545.16	57563.14
545.32	57513.98
545.49	57942.30
545.66	57738.68
545.83	57764.42
546.00	57883.79
546.16	57773.78
546.33	57663.78
546.50	57439.09
546.67	57680.16
546.83	57521.01
547.00	57911.88
547.17	57696.55
547.34	57944.64
547.50	58106.14
547.67	58204.44
547.84	58026.56
548.00	58258.27
548.17	58377.64
548.34	58239.55
548.51	58417.43
548.67	58031.24
548.84	58078.05
549.01	57982.09
549.18	58284.02
549.34	58309.77
549.51	58347.21
549.68	58361.26
549.84	58726.38
550.01	58372.96
550.18	58328.49
550.34	58482.97
550.51	58653.82
550.68	58571.91
550.84	58234.87
551.01	58695.95
551.18	58670.21
551.34	58614.04
551.51	58777.87
551.68	58717.02
551.84	58585.95
552.01	58618.72
552.18	58798.94
552.34	58546.16
552.51	58798.94
552.68	58473.60
552.84	58576.59
553.01	58990.86
553.18	58862.13
553.34	58993.20
553.51	58677.23
553.67	58944.05
553.84	59065.76
554.01	59086.82
554.17	59037.67
554.34	59271.73
554.51	59077.46
554.67	59213.21
554.84	59358.33
555.00	59021.29
555.17	59105.55
555.33	59002.56
555.50	59007.25
555.67	59126.61
555.83	59213.21
556.00	59194.49
556.16	59421.52
556.33	59271.73
556.50	59435.56
556.66	59351.30
556.83	59063.42
556.99	59274.07
557.16	59573.66
557.32	59697.70
557.49	59573.66
557.65	59351.30
557.82	59508.12
557.98	59505.78
558.15	59348.96
558.32	59737.49
558.48	59412.16
558.65	59704.73
558.81	59468.33
558.98	59676.64
559.14	59608.76
559.31	59863.88
559.47	59648.55
559.64	59693.02
559.80	59751.54
559.97	59730.47
560.13	59662.60
560.30	59826.43
560.46	59901.33
560.63	59894.31
560.79	59793.67
560.96	59955.16
561.12	59840.48
561.29	59833.46
561.45	59737.49
561.61	59936.44
561.78	59788.98
561.94	59765.58
562.11	59990.27
562.27	59936.44
562.44	59938.78
562.60	60051.12
562.77	60009.00
562.93	59714.09
563.10	60327.31
563.26	59927.08
563.42	60434.97
563.59	59863.88
563.75	60032.40
563.92	60093.25
564.08	60224.32
564.24	60301.56
564.41	60392.84
564.57	60331.99
564.74	60350.71
564.90	60154.11
565.07	60186.88
565.23	60088.57
565.39	60198.58
565.56	60275.82
565.72	60355.39
565.88	60266.45
566.05	60137.72
566.21	60294.54
566.38	60137.72
566.54	60411.57
566.70	60498.17
566.87	60374.12
567.03	60369.44
567.19	60638.60
567.36	60392.84
567.52	60507.53
567.68	60385.82
567.85	60519.23
568.01	60467.74
568.17	60378.80
568.34	60556.68
568.50	60444.33
568.66	60470.08
568.83	60561.36
568.99	60259.43
569.15	60502.85
569.32	60589.45
569.48	60353.05
569.64	60561.36
569.81	60388.16
569.97	60481.78
570.13	60577.75
570.30	60441.99
570.46	60786.05
570.62	60626.90
570.78	60629.24
570.95	60369.44
571.11	60825.84
571.27	60544.98
571.43	60544.98
571.60	60793.07
571.76	60617.53
571.92	60905.42
572.09	60715.84
572.25	60523.91
572.41	60561.36
572.57	60636.26
572.74	60898.40
572.90	60692.43
573.06	60643.28
573.22	60582.43
573.38	60835.20
573.55	60673.71
573.71	60928.83
573.87	60863.29
574.03	60589.45
574.20	60818.82
574.36	60823.50
574.52	60825.84
574.68	60963.93
574.84	60746.26
575.01	60905.42
575.17	60783.71
575.33	60938.19
575.49	60830.52
575.65	60769.67
575.82	60849.25
575.98	60961.59
576.14	60980.32
576.30	60739.24
576.46	60884.36
576.62	60896.06
576.79	60800.10
576.95	60647.96
577.11	60757.97
577.27	60992.02
577.43	60921.80
577.59	60912.44
577.75	60874.99
577.92	60924.14
578.08	60912.44
578.24	60692.43
578.40	60999.04
578.56	61076.28
578.72	60956.91
578.88	61013.08
579.04	61031.81
579.21	61045.85
579.37	61197.99
579.53	61092.66
579.69	60830.52
579.85	60727.54
580.01	60917.12
580.17	60980.32
580.33	61031.81
580.49	61057.56
580.65	61055.21
580.82	61027.13
580.98	60748.60
581.14	60825.84
581.30	60977.98
581.46	61043.51
581.62	61172.24
581.78	60821.16
581.94	61202.67
582.10	61120.75
582.26	60994.36
582.42	60867.97
582.58	61083.30
582.74	61066.92
582.90	60896.06
583.06	61024.79
583.22	60863.29
583.38	61043.51
583.54	60867.97
583.70	60994.36
583.86	61090.32
584.02	60858.61
584.18	61263.52
584.34	61109.05
584.50	60879.67
584.66	61064.58
584.82	60786.05
584.98	61282.25
585.14	61202.67
585.30	60860.95
585.46	61209.69
585.62	60949.89
585.78	61118.41
585.94	60692.43
586.10	60970.96
586.26	60966.27
586.42	60954.57
586.58	61190.97
586.74	61006.06
586.90	60996.70
587.06	61062.24
587.22	61268.20
587.38	61172.24
587.54	61464.81
587.70	61268.20
587.86	61078.62
588.02	61120.75
588.18	61300.97
588.34	61113.73
588.49	61139.47
