SpectraSuite Data File
++++++++++++++++++++++++++++++++++++
Date: Fri Oct 25 10:44:32 EDT 2013
User: price-jones
Dark Spectrum Present: No
Reference Spectrum Present: No
Number of Sampled Component Spectra: 1
Spectrometers: USB2+H05261
Integration Time (usec): 100000 (USB2+H05261)
Spectra Averaged: 1 (USB2+H05261)
Boxcar Smoothing: 0 (USB2+H05261)
Correct for Electrical Dark: No (USB2+H05261)
Strobe/Lamp Enabled: No (USB2+H05261)
Correct for Detector Non-linearity: No (USB2+H05261)
Correct for Stray Light: No (USB2+H05261)
Number of Pixels in Processed Spectrum: 2048
>>>>>Begin Processed Spectral Data<<<<<
365.73	72.56
365.92	72.56
366.12	72.56
366.32	91.28
366.52	4.68
366.72	0.00
366.91	0.00
367.11	0.00
367.31	0.00
367.51	21.06
367.70	65.54
367.90	37.45
368.10	0.00
368.30	0.00
368.49	53.83
368.69	51.49
368.89	37.45
369.09	93.62
369.28	0.00
369.48	35.11
369.68	18.72
369.87	81.92
370.07	51.49
370.27	215.33
370.47	236.39
370.66	348.74
370.86	421.30
371.06	491.51
371.25	416.62
371.45	444.70
371.65	468.11
371.84	484.49
372.04	484.49
372.24	482.15
372.44	456.40
372.63	489.17
372.83	496.19
373.03	482.15
373.22	554.71
373.42	489.17
373.62	454.06
373.81	496.19
374.01	514.92
374.21	512.58
374.40	489.17
374.60	582.79
374.79	512.58
374.99	543.00
375.19	545.34
375.38	568.75
375.58	580.45
375.78	547.69
375.97	535.98
376.17	624.92
376.37	596.84
376.56	568.75
376.76	648.33
376.95	617.90
377.15	547.69
377.35	676.41
377.54	622.58
377.74	615.56
377.93	592.16
378.13	629.60
378.33	580.45
378.52	559.39
378.72	657.69
378.91	631.94
379.11	592.16
379.31	657.69
379.50	690.46
379.70	650.67
379.89	671.73
380.09	697.48
380.28	683.44
380.48	662.37
380.68	692.80
380.87	641.31
381.07	755.99
381.26	702.16
381.46	688.12
381.65	641.31
381.85	648.33
382.04	683.44
382.24	638.97
382.43	650.67
382.63	674.07
382.83	725.57
383.02	704.50
383.22	692.80
383.41	634.29
383.61	744.29
383.80	716.20
384.00	763.01
384.19	660.03
384.39	730.25
384.58	758.33
384.78	777.06
384.97	805.14
385.17	786.42
385.36	638.97
385.56	828.55
385.75	683.44
385.95	833.23
386.14	833.23
386.34	777.06
386.53	730.25
386.72	809.83
386.92	816.85
387.11	779.40
387.31	868.34
387.50	908.13
387.70	830.89
387.89	809.83
388.09	821.53
388.28	760.67
388.48	835.57
388.67	854.30
388.86	929.19
389.06	924.51
389.25	912.81
389.45	931.53
389.64	919.83
389.84	1029.84
390.03	971.32
390.22	870.68
390.42	903.45
390.61	842.59
390.81	985.37
391.00	1083.67
391.19	985.37
391.39	912.81
391.58	945.58
391.78	961.96
391.97	990.05
392.16	964.30
392.36	990.05
392.55	943.24
392.75	971.32
392.94	950.26
393.13	987.71
393.33	926.85
393.52	976.00
393.71	1029.84
393.91	1013.45
394.10	1001.75
394.29	1076.65
394.49	1057.92
394.68	1097.71
394.88	1078.99
395.07	1076.65
395.26	1142.18
395.46	1093.03
395.65	1149.20
395.84	1165.59
396.04	1179.63
396.23	1060.26
396.42	1055.58
396.62	1125.80
396.81	1172.61
397.00	1163.25
397.19	1212.40
397.39	1123.46
397.58	1310.70
397.77	1252.19
397.97	1331.76
398.16	1256.87
398.35	1343.47
398.55	1268.57
398.74	1249.85
398.93	1327.08
399.12	1301.34
399.32	1306.02
399.51	1423.05
399.70	1306.02
399.90	1390.28
400.09	1364.53
400.28	1495.60
400.47	1441.77
400.67	1519.01
400.86	1565.82
401.05	1533.05
401.24	1497.94
401.44	1521.35
401.63	1621.99
401.82	1598.59
402.01	1497.94
402.21	1589.22
402.40	1600.93
402.59	1577.52
402.78	1593.90
402.97	1589.22
403.17	1722.63
403.36	1523.69
403.55	1579.86
403.74	1720.29
403.93	1607.95
404.13	1682.85
404.32	1797.53
404.51	1666.46
404.70	1760.08
404.89	1762.42
405.09	1706.25
405.28	1799.87
405.47	1874.77
405.66	1820.94
405.85	1739.02
406.05	1748.38
406.24	1888.81
406.43	1905.20
406.62	1874.77
406.81	1893.49
407.00	1844.34
407.20	1834.98
407.39	1877.11
407.58	1919.24
407.77	1921.58
407.96	2047.97
408.15	1982.43
408.34	1963.71
408.54	2003.50
408.73	2108.82
408.92	2101.80
409.11	2050.31
409.30	2059.67
409.49	2099.46
409.68	2073.71
409.87	2040.95
410.07	2064.35
410.26	2106.48
410.45	2293.72
410.64	2111.16
410.83	2197.76
411.02	2204.78
411.21	2345.22
411.40	2427.14
411.59	2317.13
411.78	2448.20
411.98	2356.92
412.17	2464.58
412.36	2389.69
412.55	2527.78
412.74	2499.69
412.93	2466.92
413.12	2410.75
413.31	2633.10
413.50	2562.89
413.69	2675.23
413.88	2593.31
414.07	2686.94
414.26	2551.18
414.45	2757.15
414.64	2801.62
414.83	2771.19
415.02	2663.53
415.22	2731.41
415.41	2839.07
415.60	2841.41
415.79	2911.63
415.98	3002.91
416.17	2932.69
416.36	2953.76
416.55	2974.82
416.74	2920.99
416.93	3101.21
417.12	2958.44
417.31	3096.53
417.50	3045.04
417.69	3262.71
417.88	3190.15
418.07	3009.93
418.26	3215.90
418.45	3239.30
418.64	3358.67
418.83	3190.15
419.02	3276.75
419.21	3222.92
419.39	3293.13
419.58	3232.28
419.77	3274.41
419.96	3293.13
420.15	3365.69
420.34	3407.82
420.53	3559.95
420.72	3576.34
420.91	3454.63
421.10	3555.27
421.29	3562.30
421.48	3485.06
421.67	3548.25
421.86	3478.04
422.05	3576.34
422.24	3571.66
422.43	3576.34
422.61	3524.85
422.80	3588.04
422.99	3548.25
423.18	3606.77
423.37	3595.06
423.56	3548.25
423.75	3700.39
423.94	3552.93
424.13	3447.61
424.32	3562.30
424.50	3768.26
424.69	3620.81
424.88	3688.68
425.07	3655.92
425.26	3660.60
425.45	3665.28
425.64	3583.36
425.83	3611.45
426.01	3698.05
426.20	3688.68
426.39	3679.32
426.58	3639.53
426.77	3681.66
426.96	3796.35
427.15	3688.68
427.33	3826.78
427.52	3803.37
427.71	3833.80
427.90	3805.71
428.09	3707.41
428.28	3866.56
428.46	3857.20
428.65	3801.03
428.84	3871.25
429.03	3896.99
429.22	3847.84
429.40	3889.97
429.59	3932.10
429.78	3744.86
429.97	3660.60
430.16	3742.52
430.34	3873.59
430.53	3875.93
430.72	3882.95
430.91	4056.15
431.10	3985.93
431.28	4138.07
431.47	4081.89
431.66	4215.30
431.85	4156.79
432.03	4355.74
432.22	4320.63
432.41	4177.86
432.60	4353.40
432.79	4351.06
432.97	4432.97
433.16	4447.02
433.35	4355.74
433.54	4304.25
433.72	4205.94
433.91	4203.60
434.10	4287.86
434.28	4414.25
434.47	4521.92
434.66	4500.85
434.85	4454.04
435.03	4664.69
435.22	4561.70
435.41	4730.22
435.59	4528.94
435.78	4755.97
435.97	4596.81
436.16	4610.86
436.34	4695.11
436.53	4755.97
436.72	4826.18
436.90	4704.48
437.09	4945.55
437.28	4734.90
437.46	4709.16
437.65	4781.71
437.84	4702.14
438.02	4779.37
438.21	4812.14
438.40	4802.78
438.58	4865.97
438.77	5018.11
438.96	4957.25
439.14	5067.26
439.33	5078.96
439.52	5188.97
439.70	5116.41
439.89	5256.84
440.08	5198.33
440.26	5284.93
440.45	5090.67
440.63	5423.02
440.82	5467.49
441.01	5371.53
441.19	5383.23
441.38	5621.97
441.57	5458.13
441.75	5734.31
441.94	5575.16
442.12	5790.49
442.31	5834.96
442.50	5825.59
442.68	5685.16
442.87	5717.93
443.05	5863.04
443.24	5813.89
443.43	5867.72
443.61	5863.04
443.80	6087.73
443.98	5909.85
444.17	5565.79
444.35	5860.70
444.54	6134.54
444.73	5987.09
444.91	6076.03
445.10	6054.97
445.28	6017.52
445.47	5893.47
445.65	5891.13
445.84	6106.46
446.02	6061.99
446.21	5830.27
446.39	5891.13
446.58	6179.01
446.77	6071.35
446.95	5998.79
447.14	6076.03
447.32	6331.15
447.51	6265.61
447.69	5944.96
447.88	6190.72
448.06	6164.97
448.25	6338.17
448.43	6186.04
448.62	6267.95
448.80	6157.95
448.99	6218.80
449.17	6162.63
449.36	6150.93
449.54	6373.28
449.73	6387.32
449.91	6558.18
450.10	6382.64
450.28	6754.79
450.46	6478.60
450.65	6663.51
450.83	6558.18
451.02	6642.44
451.20	6630.74
451.39	6609.67
451.57	6661.16
451.76	6637.76
451.94	6392.00
452.13	6684.57
452.31	6771.17
452.49	6448.18
452.68	6679.89
452.86	6719.68
453.05	6640.10
453.23	6766.49
453.42	6724.36
453.60	6621.38
453.78	6803.94
453.97	6658.82
454.15	6614.35
454.34	6715.00
454.52	7000.54
454.70	6942.03
454.89	7021.61
455.07	6946.71
455.26	7028.63
455.44	7192.47
455.62	7047.35
455.81	6998.20
455.99	7087.14
456.17	7239.28
456.36	7138.63
456.54	7349.28
456.73	7442.90
456.91	7529.50
457.09	7412.48
457.28	7559.93
457.46	7358.64
457.64	7449.93
457.83	7342.26
458.01	7349.28
458.19	7552.91
458.38	7393.75
458.56	7702.70
458.74	7559.93
458.93	7384.39
459.11	7667.60
459.29	7620.78
459.48	7676.96
459.66	7688.66
459.84	7723.77
460.03	7691.00
460.21	7733.13
460.39	7726.11
460.57	7885.26
460.76	7735.47
460.94	7964.84
461.12	7847.82
461.31	7962.50
461.49	7932.08
461.67	7777.60
461.85	8039.74
462.04	8114.64
462.22	8182.51
462.40	8299.54
462.59	8063.15
462.77	7906.33
462.95	8107.62
463.13	8264.43
463.32	8109.96
463.50	8236.35
463.68	8435.29
463.86	8294.86
464.05	8283.16
464.23	8320.60
464.41	8294.86
464.59	8252.73
464.78	8397.84
464.96	8201.24
465.14	8306.56
465.32	8514.87
465.50	8540.61
465.69	8519.55
465.87	8397.84
466.05	8533.59
466.23	8514.87
466.41	8540.61
466.60	8765.31
466.78	8571.04
466.96	8571.04
467.14	8549.98
467.32	8627.21
467.51	8746.58
467.69	8636.58
467.87	8844.88
468.05	8903.40
468.23	8655.30
468.41	8699.77
468.60	8737.22
468.78	8950.21
468.96	8690.41
469.14	8999.36
469.32	8887.01
469.50	8800.41
469.69	9034.47
469.87	8898.72
470.05	9064.89
470.23	9221.71
470.41	9132.77
470.59	9181.92
470.77	9273.20
470.95	9181.92
471.14	9504.92
471.32	9104.68
471.50	9591.52
471.68	9413.63
471.86	9643.01
472.04	9535.34
472.22	9858.34
472.40	9511.94
472.58	9565.77
472.77	9956.64
472.95	9767.06
473.13	10022.17
473.31	9837.27
473.49	9753.01
473.67	9846.63
473.85	9820.89
474.03	10171.97
474.21	10324.10
474.39	10394.32
474.57	9926.21
474.75	10216.44
474.93	10373.25
475.12	10155.58
475.30	10361.55
475.48	10244.52
475.66	10623.69
475.84	10279.63
476.02	10546.45
476.20	10663.48
476.38	10796.89
476.56	10993.50
476.74	11030.94
476.92	11005.20
477.10	11157.33
477.28	11030.94
477.46	11241.59
477.64	11473.31
477.82	11300.11
478.00	11592.67
478.18	11742.47
478.36	11690.98
478.54	11761.19
478.72	11887.58
478.90	12133.34
479.08	11864.18
479.26	12226.96
479.44	12437.61
479.62	12123.98
479.80	12416.54
479.98	12442.29
480.16	12720.81
480.34	12634.21
480.52	12732.51
480.70	12847.20
480.88	12666.98
481.06	12945.50
481.24	13076.57
481.41	13219.35
481.59	13085.94
481.77	13390.20
481.95	13125.72
482.13	13612.56
482.31	13507.23
482.49	13928.53
482.67	13973.00
482.85	14064.28
483.03	14277.27
483.21	14228.12
483.39	14520.68
483.57	14356.85
483.74	14195.35
483.92	14532.39
484.10	14431.74
484.28	15005.17
484.46	14876.44
484.64	15213.48
484.82	14885.81
485.00	15218.16
485.18	15281.36
485.35	15346.89
485.53	15213.48
485.71	14958.36
485.89	15384.34
486.07	15384.34
486.25	15679.25
486.43	15646.48
486.61	16013.95
486.78	16156.72
486.96	16449.28
487.14	16615.46
487.32	16545.25
487.50	16652.91
487.68	17011.01
487.85	17172.51
488.03	17156.13
488.21	17432.31
488.39	17528.27
488.57	17556.36
488.75	17664.02
488.92	18019.78
489.10	17874.67
489.28	18104.04
489.46	18272.56
489.64	18305.33
489.81	18586.19
489.99	18658.75
490.17	18672.79
490.35	18988.77
490.53	19117.50
490.70	18899.83
490.88	19110.47
491.06	19227.50
491.24	19300.06
491.41	19442.83
491.59	19583.26
491.77	19438.15
491.95	19964.77
492.13	20056.05
492.30	20196.48
492.48	20105.20
492.66	20126.27
492.84	20503.09
493.01	20765.23
493.19	20716.08
493.37	21216.96
493.54	21254.40
493.72	21221.64
493.90	21348.03
494.08	21198.23
494.25	21539.95
494.43	21415.90
494.61	22033.80
494.79	21759.96
494.96	21577.40
495.14	22134.45
495.32	22281.90
495.49	22394.25
495.67	22340.41
495.85	22427.01
496.02	22775.75
496.20	22726.60
496.38	22654.05
496.55	22998.10
496.73	23414.72
496.91	23119.81
497.09	23087.04
497.26	23234.50
497.44	23592.60
497.62	23484.94
497.79	24020.92
497.97	23510.68
498.14	23943.68
498.32	23929.64
498.50	23864.10
498.67	24381.36
498.85	24393.06
499.03	24748.82
499.20	24788.61
499.38	24456.26
499.56	24713.72
499.73	25088.20
499.91	24830.74
500.08	25032.03
500.26	24716.06
500.44	25181.82
500.61	25057.78
500.79	25022.67
500.97	25223.95
501.14	25649.93
501.32	25483.75
501.49	25310.55
501.67	25773.98
501.84	25717.81
502.02	25647.59
502.20	26298.26
502.37	26239.75
502.55	26148.46
502.72	26604.87
502.90	26527.63
503.07	26008.03
503.25	26321.66
503.43	26354.43
503.60	26684.45
503.78	26810.84
503.95	26663.38
504.13	26572.10
504.30	27002.76
504.48	27246.18
504.65	27131.49
504.83	27548.11
505.01	27604.28
505.18	27138.51
505.36	27686.20
505.53	27709.60
505.71	27646.41
505.88	28217.50
506.06	27440.44
506.23	27723.65
506.41	27688.54
506.58	28088.77
506.76	28056.00
506.93	28500.70
507.11	28072.39
507.28	28168.35
507.46	28116.86
507.63	28456.23
507.81	28407.08
507.98	28304.10
508.16	28746.46
508.33	29123.29
508.50	28769.86
508.68	28917.32
508.85	29130.31
509.03	29109.24
509.20	29652.25
509.38	29467.34
509.55	29511.81
509.73	29820.77
509.90	29322.23
510.08	29633.52
510.25	29575.01
510.42	29757.57
510.60	29844.17
510.77	30316.96
510.95	30525.27
511.12	30071.20
511.30	29795.02
511.47	30513.56
511.64	30270.15
511.82	30827.20
511.99	30469.09
512.17	30452.71
512.34	30529.95
512.51	30735.92
512.69	31180.62
512.86	30932.52
513.04	31555.10
513.21	31164.23
513.38	31075.29
513.56	30979.33
513.73	30785.07
513.90	31393.61
514.08	31049.55
514.25	31288.28
514.43	31440.42
514.60	31346.79
514.77	31187.64
514.95	31974.06
515.12	31716.60
515.29	31498.93
515.47	32154.28
515.64	32044.27
515.81	31740.00
515.99	32067.68
516.16	31974.06
516.33	31941.29
516.51	32168.32
516.68	31756.39
516.85	31800.86
517.03	32252.58
517.20	32474.93
517.37	32753.46
517.54	32994.53
517.72	32531.11
517.89	32098.11
518.06	32168.32
518.24	33078.79
518.41	32694.94
518.58	32882.19
518.75	33076.45
518.93	33024.96
519.10	32713.67
519.27	32987.51
519.45	33324.55
519.62	33500.09
519.79	33570.30
519.96	34115.65
520.14	33635.84
520.31	33310.50
520.48	34136.71
520.65	33820.74
520.83	33968.19
521.00	34485.45
521.17	34141.39
521.34	33977.56
521.52	34288.85
521.69	34012.66
521.86	34436.30
522.03	34319.28
522.20	34660.99
522.38	34522.90
522.55	34338.00
522.72	34319.28
522.89	34761.64
523.07	34590.78
523.24	34471.41
523.41	34827.17
523.58	34897.39
523.75	35302.30
523.92	35779.77
524.10	35522.31
524.27	35222.72
524.44	35360.81
524.61	35461.46
524.78	35402.94
524.96	35580.82
525.13	35885.09
525.30	35676.79
525.47	35985.74
525.64	35676.79
525.81	36135.53
525.98	35711.89
526.16	35842.96
526.33	35899.14
526.50	35557.42
526.67	35739.98
526.84	35859.35
527.01	35257.83
527.18	36133.19
527.36	36526.40
527.53	36346.18
527.70	36624.70
527.87	36161.28
528.04	36388.31
528.21	36900.89
528.38	36809.61
528.55	36931.31
528.72	36971.10
528.89	37205.16
529.07	36746.41
529.24	36488.95
529.41	36758.11
529.58	36364.90
529.75	37116.22
529.92	36919.61
530.09	37160.69
530.26	37558.58
530.43	37085.79
530.60	37235.58
530.77	37191.11
530.94	37376.01
531.11	37659.22
531.28	37600.71
531.46	37593.68
531.63	37717.73
531.80	37638.15
531.97	37471.98
532.14	37553.90
532.31	37125.58
532.48	37600.71
532.65	37804.33
532.82	37897.95
532.99	38216.27
533.16	37546.87
533.33	37895.61
533.50	38536.92
533.67	38139.03
533.84	37780.93
534.01	38160.09
534.18	38185.84
534.35	38595.43
534.52	38216.27
534.69	38759.27
534.86	38398.83
535.03	38621.18
535.20	38773.31
535.37	39672.08
535.54	38761.61
535.71	38789.70
535.88	38593.09
536.05	38490.11
536.22	39068.22
536.38	38649.27
536.55	39199.29
536.72	39311.64
536.89	38815.44
537.06	38913.75
537.23	39124.40
537.40	39353.77
537.57	39061.20
537.74	39229.72
537.91	39754.00
538.08	39606.55
538.25	39180.57
538.42	38871.62
538.59	39309.30
538.75	39634.63
538.92	39714.21
539.09	39480.16
539.26	39915.50
539.43	39744.64
539.60	39791.45
539.77	39454.41
539.94	40076.99
540.11	39449.73
540.28	40025.50
540.44	39435.69
540.61	39674.42
540.78	40067.63
540.95	39854.64
541.12	39852.30
541.29	39861.66
541.46	39686.12
541.62	39653.36
541.79	40020.82
541.96	39950.60
542.13	39868.69
542.30	40294.66
542.47	40201.04
542.63	40294.66
542.80	40383.60
542.97	40849.37
543.14	41116.19
543.31	40744.05
543.48	41088.10
543.64	41858.14
543.81	41069.38
543.98	41226.20
544.15	40587.23
544.32	41090.44
544.48	41453.23
544.65	40741.71
544.82	41270.67
544.99	41038.95
545.16	41233.22
545.32	41003.85
545.49	41275.35
545.66	41495.36
545.83	41387.69
546.00	41605.36
546.16	41453.23
546.33	40811.92
546.50	40950.01
546.67	41481.31
546.83	40889.16
547.00	41387.69
547.17	41209.81
547.34	41209.81
547.50	41752.82
547.67	42246.67
547.84	41645.15
548.00	41757.50
548.17	42288.80
548.34	41949.42
548.51	42017.30
548.67	42206.88
548.84	42057.09
549.01	41942.40
549.18	41942.40
549.34	41968.15
549.51	42520.51
549.68	42227.95
549.84	41893.25
550.01	42424.55
550.18	41897.93
550.34	42387.10
550.51	42646.90
550.68	42476.04
550.84	41780.90
551.01	42534.56
551.18	42260.71
551.34	42019.64
551.51	42511.15
551.68	42866.91
551.84	42672.65
552.01	42520.51
552.18	42328.59
552.34	42106.24
552.51	42735.84
552.68	42333.27
552.84	42342.63
553.01	43033.09
553.18	42749.88
553.34	42625.84
553.51	42576.69
553.67	42953.51
553.84	43119.69
554.01	43210.97
554.17	43033.09
554.34	43503.54
554.51	43168.84
554.67	43856.96
554.84	42719.46
555.00	43047.13
555.17	42773.29
555.33	43409.92
555.50	42782.65
555.67	43035.43
555.83	42972.24
556.00	43210.97
556.16	43714.19
556.33	43463.75
556.50	43405.23
556.66	43768.02
556.83	43412.26
556.99	42930.11
557.16	43374.81
557.32	43412.26
557.49	43288.21
557.65	43297.57
557.82	43590.14
557.98	43817.17
558.15	43803.13
558.32	43629.93
558.48	43606.52
558.65	43278.85
558.81	43023.73
558.98	43402.89
559.14	43463.75
559.31	43695.46
559.47	43459.07
559.64	44027.82
559.80	43786.74
559.97	43959.94
560.13	43536.30
560.30	43576.09
560.46	43269.48
560.63	44060.58
560.79	43901.43
560.96	43999.73
561.12	43959.94
561.29	44062.93
561.45	44186.97
561.61	43796.10
561.78	44201.02
561.94	43770.36
562.11	43826.53
562.27	43716.53
562.44	43901.43
562.60	43842.92
562.77	44128.46
562.93	44385.92
563.10	44257.19
563.26	43681.42
563.42	43931.86
563.59	43856.96
563.75	44210.38
563.92	44238.47
564.08	44091.01
564.24	44196.34
564.41	44165.91
564.57	44055.90
564.74	44388.26
564.90	44437.41
565.07	44601.25
565.23	44554.44
565.39	44292.30
565.56	44123.78
565.72	43863.98
565.88	44399.96
566.05	43995.05
566.21	44112.08
566.38	43950.58
566.54	44072.29
566.70	44217.40
566.87	44641.04
567.03	44488.90
567.19	44531.03
567.36	44371.88
567.52	44044.20
567.68	44715.93
567.85	44435.07
568.01	44123.78
568.17	44325.07
568.34	44491.24
568.50	44374.22
568.66	44322.72
568.83	44428.05
568.99	43775.04
569.15	44374.22
569.32	44392.94
569.48	44069.95
569.64	44774.45
569.81	44781.47
569.97	44474.86
570.13	44629.34
570.30	44421.03
570.46	44135.48
570.62	44170.59
570.78	43962.28
570.95	44177.61
571.11	44755.72
571.27	44474.86
571.43	44353.15
571.60	44673.81
571.76	44229.10
571.92	44341.45
572.09	44217.40
572.25	44584.86
572.41	44467.84
572.57	44444.43
572.74	45170.00
572.90	44552.10
573.06	44648.06
573.22	44348.47
573.38	44554.44
573.55	44514.65
573.71	44715.93
573.87	44509.97
574.03	44449.11
574.20	44811.90
574.36	44224.42
574.52	44587.21
574.68	44306.34
574.84	45001.48
575.01	44760.40
575.17	44531.03
575.33	44121.44
575.49	44170.59
575.65	44818.92
575.82	44779.13
575.98	44479.54
576.14	44552.10
576.30	44891.48
576.46	44271.23
576.62	44643.38
576.79	45095.10
576.95	44779.13
577.11	44875.09
577.27	44877.43
577.43	44444.43
577.59	44514.65
577.75	44217.40
577.92	44498.26
578.08	44165.91
578.24	44648.06
578.40	44238.47
578.56	44690.19
578.72	44683.17
578.88	45130.21
579.04	44718.28
579.21	44947.65
579.37	44893.82
579.53	45258.94
579.69	44694.87
579.85	44856.37
580.01	45029.57
580.17	44648.06
580.33	44966.37
580.49	44790.83
580.65	44746.36
580.82	44648.06
580.98	44605.93
581.14	44617.63
581.30	44828.28
581.46	44968.71
581.62	44694.87
581.78	44603.59
581.94	44793.17
582.10	44636.36
582.26	44643.38
582.42	45160.64
582.58	44371.88
582.74	45020.20
582.90	45146.59
583.06	45277.66
583.22	44858.71
583.38	44727.64
583.54	44772.11
583.70	44746.36
583.86	44978.07
584.02	44411.67
584.18	44631.68
584.34	44692.53
584.50	44814.24
584.66	44673.81
584.82	44631.68
584.98	45439.16
585.14	44989.78
585.30	44797.85
585.46	44947.65
585.62	44664.44
585.78	44722.96
585.94	44624.65
586.10	44502.95
586.26	44727.64
586.42	44893.82
586.58	45076.38
586.74	44839.98
586.90	44720.62
587.06	45022.54
587.22	45088.08
587.38	44168.25
587.54	44538.05
587.70	44830.62
587.86	45162.98
588.02	44938.29
588.18	44755.72
588.34	45186.38
588.49	44914.88
588.65	44381.24
588.81	44533.37
588.97	44542.74
589.13	44638.70
589.29	44847.00
589.45	44891.48
589.61	44772.11
589.77	45504.70
589.93	45177.02
590.08	45312.77
590.24	45200.43
590.40	45371.28
