SpectraSuite Data File
++++++++++++++++++++++++++++++++++++
Date: Fri Oct 25 11:25:39 EDT 2013
User: price-jones
Dark Spectrum Present: No
Reference Spectrum Present: No
Number of Sampled Component Spectra: 1
Spectrometers: USB2+H05261
Integration Time (usec): 100000 (USB2+H05261)
Spectra Averaged: 1 (USB2+H05261)
Boxcar Smoothing: 0 (USB2+H05261)
Correct for Electrical Dark: No (USB2+H05261)
Strobe/Lamp Enabled: No (USB2+H05261)
Correct for Detector Non-linearity: No (USB2+H05261)
Correct for Stray Light: No (USB2+H05261)
Number of Pixels in Processed Spectrum: 2048
>>>>>Begin Processed Spectral Data<<<<<
365.73	210.65
365.92	210.65
366.12	210.65
366.32	161.50
366.52	168.52
366.72	102.98
366.91	147.45
367.11	79.58
367.31	86.60
367.51	161.50
367.70	105.32
367.90	135.75
368.10	110.01
368.30	191.92
368.49	93.62
368.69	124.05
368.89	107.66
369.09	93.62
369.28	210.65
369.48	194.26
369.68	189.58
369.87	231.71
370.07	201.29
370.27	227.03
370.47	369.80
370.66	505.56
370.86	664.71
371.06	624.92
371.25	758.33
371.45	671.73
371.65	648.33
371.84	638.97
372.04	683.44
372.24	664.71
372.44	730.25
372.63	744.29
372.83	727.91
373.03	798.12
373.22	770.04
373.42	723.23
373.62	676.41
373.81	802.80
374.01	812.17
374.21	849.61
374.40	807.48
374.60	784.08
374.79	805.14
374.99	809.83
375.19	835.57
375.38	851.96
375.58	835.57
375.78	912.81
375.97	947.92
376.17	898.77
376.37	830.89
376.56	887.06
376.76	823.87
376.95	833.23
377.15	961.96
377.35	896.43
377.54	903.45
377.74	901.11
377.93	901.11
378.13	917.49
378.33	1015.79
378.52	961.96
378.72	987.71
378.91	905.79
379.11	978.34
379.31	980.68
379.50	1067.28
379.70	926.85
379.89	854.30
380.09	978.34
380.28	1008.77
380.48	964.30
380.68	973.66
380.87	933.87
381.07	1027.50
381.26	980.68
381.46	973.66
381.65	1013.45
381.85	1041.54
382.04	1055.58
382.24	1062.60
382.43	1125.80
382.63	1086.01
382.83	1093.03
383.02	1097.71
383.22	1102.39
383.41	1100.05
383.61	1196.01
383.80	1146.86
384.00	1179.63
384.19	1146.86
384.39	1177.29
384.58	1111.75
384.78	1151.54
384.97	1205.38
385.17	1142.18
385.36	1268.57
385.56	1165.59
385.75	1214.74
385.95	1153.88
386.14	1193.67
386.34	1212.40
386.53	1200.69
386.72	1207.72
386.92	1282.61
387.11	1146.86
387.31	1235.80
387.50	1261.55
387.70	1313.04
387.89	1254.53
388.09	1308.36
388.28	1343.47
388.48	1310.70
388.67	1320.06
388.86	1320.06
389.06	1378.58
389.25	1291.98
389.45	1371.55
389.64	1329.42
389.84	1406.66
390.03	1343.47
390.22	1331.76
390.42	1418.36
390.61	1350.49
390.81	1390.28
391.00	1364.53
391.19	1507.30
391.39	1411.34
391.58	1514.33
391.78	1406.66
391.97	1432.41
392.16	1455.81
392.36	1488.58
392.55	1483.90
392.75	1432.41
392.94	1561.14
393.13	1446.45
393.33	1551.78
393.52	1561.14
393.71	1591.56
393.91	1584.54
394.10	1624.33
394.29	1678.16
394.49	1497.94
394.68	1577.52
394.88	1685.19
395.07	1678.16
395.26	1666.46
395.46	1760.08
395.65	1795.19
395.84	1722.63
396.04	1729.66
396.23	1746.04
396.42	1668.80
396.62	1823.28
396.81	1743.70
397.00	1825.62
397.19	1785.83
397.39	1713.27
397.58	1900.52
397.77	1816.26
397.97	1905.20
398.16	1940.30
398.35	1928.60
398.55	1856.04
398.74	1944.99
398.93	1975.41
399.12	2022.22
399.32	1921.58
399.51	1837.32
399.70	2073.71
399.90	1888.81
400.09	1933.28
400.28	1959.03
400.47	2167.34
400.67	2024.56
400.86	2001.16
401.05	2057.33
401.24	2157.97
401.44	2204.78
401.63	2083.08
401.82	2139.25
402.01	2155.63
402.21	2186.06
402.40	2162.66
402.59	2076.06
402.78	2270.32
402.97	2225.85
403.17	2382.67
403.36	2188.40
403.55	2331.17
403.74	2396.71
403.93	2298.41
404.13	2387.35
404.32	2356.92
404.51	2314.79
404.70	2471.61
404.89	2427.14
405.09	2445.86
405.28	2487.99
405.47	2593.31
405.66	2520.76
405.85	2424.80
406.05	2462.24
406.24	2569.91
406.43	2607.36
406.62	2588.63
406.81	2668.21
407.00	2499.69
407.20	2633.10
407.39	2614.38
407.58	2691.62
407.77	2668.21
407.96	2640.12
408.15	2792.26
408.34	2801.62
408.54	2785.24
408.73	2672.89
408.92	2717.36
409.11	2801.62
409.30	2860.13
409.49	2967.80
409.68	2883.54
409.87	2892.90
410.07	2953.76
410.26	2963.12
410.45	3070.78
410.64	3063.76
410.83	2998.23
411.02	3089.51
411.21	3180.79
411.40	3152.70
411.59	3258.03
411.78	3227.60
411.98	3225.26
412.17	3304.84
412.36	3337.60
412.55	3407.82
412.74	3300.16
412.93	3487.40
413.12	3344.63
413.31	3510.80
413.50	3480.38
413.69	3510.80
413.88	3578.68
414.07	3536.55
414.26	3576.34
414.45	3641.87
414.64	3590.38
414.83	3768.26
415.02	3833.80
415.22	3908.69
415.41	3934.44
415.60	3826.78
415.79	3892.31
415.98	4007.00
416.17	4025.72
416.36	3925.08
416.55	4042.11
416.74	3990.61
416.93	4011.68
417.12	4028.06
417.31	4109.98
417.50	4007.00
417.69	4248.07
417.88	4301.90
418.07	4112.32
418.26	4266.80
418.45	4355.74
418.64	4437.66
418.83	4479.79
419.02	4390.84
419.21	4465.74
419.39	4538.30
419.58	4376.80
419.77	4498.51
419.96	4482.13
420.15	4535.96
420.34	4580.43
420.53	4772.35
420.72	4538.30
420.91	4636.60
421.10	4655.33
421.29	4718.52
421.48	4784.06
421.67	4765.33
421.86	4716.18
422.05	4798.10
422.24	4835.55
422.43	4844.91
422.61	4816.82
422.80	4805.12
422.99	4966.62
423.18	5055.56
423.37	4922.15
423.56	4947.89
423.75	4959.60
423.94	4870.65
424.13	4615.54
424.32	4844.91
424.50	4919.81
424.69	5142.16
424.88	4997.04
425.07	4875.34
425.26	5022.79
425.45	4880.02
425.64	5001.72
425.83	4884.70
426.01	5123.43
426.20	5093.01
426.39	4980.66
426.58	5006.41
426.77	4983.00
426.96	5135.14
427.15	5116.41
427.33	5268.55
427.52	5172.58
427.71	5266.21
427.90	5315.36
428.09	5430.04
428.28	5240.46
428.46	5411.32
428.65	5289.61
428.84	5596.22
429.03	5509.62
429.22	5259.18
429.40	5387.91
429.59	5383.23
429.78	5397.28
429.97	5259.18
430.16	5640.69
430.34	5584.52
430.53	5589.20
430.72	5521.32
430.91	5521.32
431.10	5727.29
431.28	5851.34
431.47	5661.76
431.66	5734.31
431.85	5774.10
432.03	5879.43
432.22	5996.45
432.41	5872.40
432.60	5832.62
432.79	5942.62
432.97	5970.71
433.16	5984.75
433.35	5949.64
433.54	5928.58
433.72	6186.04
433.91	6094.76
434.10	6239.87
434.28	6197.74
434.47	6120.50
434.66	6141.57
434.85	6305.40
435.03	6363.92
435.22	6200.08
435.41	6356.90
435.59	6413.07
435.78	6296.04
435.97	6260.93
436.16	6375.62
436.34	6410.73
436.53	6450.52
436.72	6581.59
436.90	6338.17
437.09	6670.53
437.28	6382.64
437.46	6588.61
437.65	6649.46
437.84	6740.74
438.02	6616.69
438.21	6640.10
438.40	6705.63
438.58	7028.63
438.77	6995.86
438.96	7068.42
439.14	6970.12
439.33	7152.68
439.52	7098.84
439.70	7138.63
439.89	7332.90
440.08	7424.18
440.26	7300.13
440.45	7412.48
440.63	7412.48
440.82	7730.79
441.01	7620.78
441.19	7700.36
441.38	7562.27
441.57	7871.22
441.75	7824.41
441.94	7627.81
442.12	7840.79
442.31	8114.64
442.50	7892.29
442.68	8002.29
442.87	8142.72
443.05	8067.83
443.24	7908.67
443.43	7929.74
443.61	8119.32
443.80	8407.20
443.98	7976.55
444.17	7796.32
444.35	8095.91
444.54	8184.85
444.73	8170.81
444.91	8404.86
445.10	8381.46
445.28	8149.75
445.47	8145.06
445.65	8191.88
445.84	8381.46
446.02	8524.23
446.21	8362.73
446.39	8273.79
446.58	8456.36
446.77	8468.06
446.95	8297.20
447.14	8351.03
447.32	8737.22
447.51	8411.89
447.69	8498.49
447.88	8559.34
448.06	8470.40
448.25	8278.47
448.43	8524.23
448.62	8505.51
448.80	8437.63
448.99	8496.14
449.17	8744.24
449.36	8535.93
449.54	8802.75
449.73	8926.80
449.91	8887.01
450.10	8968.93
450.28	9064.89
450.46	9156.18
450.65	9034.47
450.83	9039.15
451.02	8959.57
451.20	9205.33
451.39	9022.77
451.57	9076.60
451.76	9039.15
451.94	9062.55
452.13	9357.46
452.31	9179.58
452.49	9043.83
452.68	9270.86
452.86	9200.65
453.05	9334.06
453.23	9434.70
453.42	9261.50
453.60	9341.08
453.78	9678.12
453.97	9387.89
454.15	9486.19
454.34	9504.92
454.52	9692.16
454.70	9703.86
454.89	9745.99
455.07	9853.66
455.26	9710.88
455.44	9858.34
455.62	9865.36
455.81	9921.53
455.99	9848.97
456.17	9933.23
456.36	9987.07
456.54	10181.33
456.73	10167.29
456.91	10464.54
457.09	10307.72
457.28	10457.51
457.46	10235.16
457.64	10335.81
457.83	10396.66
458.01	10459.85
458.19	10602.63
458.38	10431.77
458.56	10745.40
458.74	10539.43
458.93	10675.18
459.11	10731.36
459.29	10665.82
459.48	10972.43
459.66	10693.91
459.84	11019.24
460.03	10799.23
460.21	10967.75
460.39	10871.79
460.57	10995.84
460.76	11150.31
460.94	11007.54
461.12	11016.90
461.31	11215.85
461.49	11143.29
461.67	11211.17
461.85	11496.71
462.04	11199.46
462.22	11950.78
462.40	11496.71
462.59	11405.43
462.77	11562.25
462.95	11606.72
463.13	11597.35
463.32	11480.33
463.50	11447.56
463.68	11726.08
463.86	11648.85
464.05	11440.54
464.23	11555.22
464.41	11864.18
464.59	11424.15
464.78	12147.38
464.96	11988.22
465.14	11826.73
465.32	12233.98
465.50	12126.32
465.69	12233.98
465.87	12088.87
466.05	12088.87
466.23	12128.66
466.41	12042.06
466.60	12437.61
466.78	12255.04
466.96	12161.42
467.14	12259.73
467.32	12191.85
467.51	12507.82
467.69	12222.28
467.87	12264.41
468.05	12507.82
468.23	12500.80
468.41	12526.55
468.60	12358.03
468.78	12872.95
468.96	12528.89
469.14	12718.47
469.32	13041.46
469.50	12587.40
469.69	12957.21
469.87	12917.42
470.05	12926.78
470.23	13137.43
470.41	13233.39
470.59	13312.97
470.77	13071.89
470.95	13226.37
471.14	13603.19
471.32	13095.30
471.50	13144.45
471.68	13467.44
471.86	13383.18
472.04	13767.03
472.22	14207.05
472.40	13523.62
472.58	13687.45
472.77	13888.74
472.95	14242.16
473.13	14436.42
473.31	14012.79
473.49	14129.81
473.67	13996.40
473.85	14071.30
474.03	14494.94
474.21	14586.22
474.39	14684.52
474.57	14789.85
474.75	14801.55
474.93	14796.87
475.12	14916.23
475.30	14934.96
475.48	14965.39
475.66	15063.69
475.84	15115.18
476.02	15503.71
476.20	15562.22
476.38	15697.97
476.56	15976.50
476.74	15892.24
476.92	15651.16
477.10	15646.48
477.28	15946.07
477.46	16273.74
477.64	16456.31
477.82	16367.37
478.00	16781.64
478.18	16435.24
478.36	16702.06
478.54	17334.01
478.72	17326.99
478.90	17254.43
479.08	17411.25
479.26	17685.09
479.44	17872.33
479.62	17727.22
479.80	18026.81
479.98	18082.98
480.16	18574.49
480.34	18127.45
480.52	18546.40
480.70	18665.77
480.88	18506.62
481.06	18319.37
481.24	18909.19
481.41	19133.88
481.59	18967.70
481.77	19433.47
481.95	19592.62
482.13	19775.19
482.31	19594.96
482.49	20247.97
482.67	20278.40
482.85	20297.13
483.03	20566.29
483.21	20568.63
483.39	20858.85
483.57	20699.70
483.74	21064.82
483.92	21069.50
484.10	21284.83
484.28	21549.31
484.46	21771.66
484.64	22263.18
484.82	21626.55
485.00	22216.36
485.18	22476.16
485.35	22860.01
485.53	22321.69
485.71	22817.88
485.89	23665.16
486.07	23192.37
486.25	23459.19
486.43	23627.71
486.61	23536.43
486.78	24159.01
486.96	23840.70
487.14	24521.79
487.32	24765.21
487.50	24769.89
487.68	24666.91
487.85	24879.89
488.03	25343.32
488.21	25682.70
488.39	25781.00
488.57	26143.78
488.75	26146.12
488.92	26553.38
489.10	26314.64
489.28	26434.01
489.46	26682.11
489.64	27035.53
489.81	27697.90
489.99	27637.05
490.17	27580.87
490.35	28060.68
490.53	28027.92
490.70	28276.01
490.88	28362.61
491.06	28978.17
491.24	28624.75
491.41	29006.26
491.59	28947.75
491.77	29158.39
491.95	29905.02
492.13	29809.06
492.30	29649.91
492.48	29989.28
492.66	30089.93
492.84	30305.26
493.01	30766.34
493.19	30988.69
493.37	31241.47
493.54	31002.74
493.72	31250.83
493.90	31075.29
494.08	31442.76
494.25	31824.26
494.43	32077.04
494.61	32271.31
494.79	32247.90
494.96	32177.68
495.14	32617.71
495.32	32797.93
495.49	33104.54
495.67	33308.16
495.85	33692.01
496.02	33731.80
496.20	33944.79
496.38	33968.19
496.55	33823.08
496.73	34911.43
496.91	34609.50
497.09	34618.86
497.26	34677.38
497.44	34895.05
497.62	35023.78
497.79	35658.06
497.97	35072.93
498.14	36126.17
498.32	36156.60
498.50	36053.61
498.67	36128.51
498.85	36147.23
499.03	36402.35
499.20	36713.64
499.38	36699.60
499.56	37359.63
499.73	37053.02
499.91	37158.34
500.08	37408.78
500.26	37029.62
500.44	37675.60
500.61	37649.86
500.79	37778.59
500.97	37930.72
501.14	38284.14
501.32	38480.75
501.49	38508.83
501.67	38485.43
501.84	38742.89
502.02	38703.10
502.20	39222.70
502.37	39065.88
502.55	39210.99
502.72	39339.72
502.90	39363.13
503.07	39009.71
503.25	39414.62
503.43	39763.36
503.60	39782.09
503.78	40297.00
503.95	40346.15
504.13	40713.62
504.30	40444.46
504.48	40435.10
504.65	40809.58
504.83	41263.64
505.01	40790.86
505.18	41020.23
505.36	41256.62
505.53	41153.64
505.71	41460.25
505.88	41462.59
506.06	41184.07
506.23	41741.11
506.41	41787.92
506.58	41708.35
506.76	41612.38
506.93	42183.48
507.11	42066.45
507.28	42452.64
507.46	42871.59
507.63	42553.28
507.81	43096.28
507.98	42782.65
508.16	43044.79
508.33	43515.24
508.50	43517.58
508.68	43447.36
508.85	43746.95
509.03	43599.50
509.20	43868.66
509.38	44208.04
509.55	44421.03
509.73	44339.11
509.90	44531.03
510.08	44336.77
510.25	43924.83
510.42	44886.79
510.60	44683.17
510.77	44938.29
510.95	45713.00
511.12	45373.63
511.30	44797.85
511.47	45408.73
511.64	45455.54
511.82	45675.55
511.99	45787.90
512.17	45628.74
512.34	45823.01
512.51	45724.71
512.69	46330.90
512.86	46120.26
513.04	46288.77
513.21	46117.92
513.38	46461.97
513.56	46564.96
513.73	46340.27
513.90	46841.14
514.08	46855.18
514.25	47131.37
514.43	47150.09
514.60	47056.47
514.77	47440.32
514.95	47386.49
515.12	47365.42
515.29	47416.91
515.47	47873.32
515.64	47980.98
515.81	47587.77
515.99	47896.72
516.16	48217.38
516.33	48114.39
516.51	48854.00
516.68	48074.60
516.85	48711.23
517.03	48542.71
517.20	48718.25
517.37	49090.40
517.54	48381.21
517.72	49006.14
517.89	48720.59
518.06	49291.68
518.24	49230.83
518.41	49172.31
518.58	49254.23
518.75	48715.91
518.93	49312.75
519.10	49247.21
519.27	49729.36
519.45	49717.66
519.62	49780.85
519.79	49928.31
519.96	49689.57
520.14	49736.38
520.31	50143.64
520.48	50064.06
520.65	50644.51
520.83	50625.79
521.00	50155.34
521.17	50284.07
521.34	50618.77
521.52	50403.44
521.69	50719.41
521.86	50864.52
522.03	50923.04
522.20	51386.46
522.38	51105.60
522.55	51145.39
522.72	51173.47
522.89	51033.04
523.07	51807.76
523.24	51508.17
523.41	51653.28
523.58	51416.89
523.75	51875.63
523.92	51718.82
524.10	51875.63
524.27	51936.49
524.44	51924.78
524.61	52105.01
524.78	52339.06
524.96	52219.69
525.13	52500.56
525.30	52343.74
525.47	52669.08
525.64	52411.62
525.81	52439.70
525.98	52587.16
526.16	52451.41
526.33	52573.11
526.50	52690.14
526.67	52762.70
526.84	52760.36
527.01	52722.91
527.18	52680.78
527.36	52802.49
527.53	52804.83
527.70	53153.57
527.87	53022.50
528.04	53050.58
528.21	53048.24
528.38	53038.88
528.55	53432.09
528.72	53191.01
528.89	53429.75
529.07	53176.97
529.24	53663.80
529.41	53506.99
529.58	53558.48
529.75	53645.08
529.92	53366.55
530.09	53755.08
530.26	53691.89
530.43	53937.65
530.60	53609.97
530.77	53904.88
530.94	54035.95
531.11	53918.92
531.28	53883.81
531.46	53907.22
531.63	53834.66
531.80	53972.75
531.97	54405.75
532.14	54241.92
532.31	54262.98
532.48	54445.54
532.65	54745.13
532.82	54485.33
532.99	54405.75
533.16	54733.43
533.33	54747.47
533.50	54850.45
533.67	54588.31
533.84	54555.55
534.01	54831.73
534.18	54710.02
534.35	55213.24
534.52	55089.19
534.69	54976.84
534.86	55047.06
535.03	54838.75
535.20	55009.61
535.37	55224.94
535.54	55201.53
535.71	55320.90
535.88	55482.40
536.05	55295.16
536.22	55620.49
536.38	55519.85
536.55	55302.18
536.72	55327.92
536.89	55339.63
537.06	55480.06
537.23	55524.53
537.40	55622.83
537.57	55363.03
537.74	55735.18
537.91	55934.12
538.08	55950.51
538.25	55627.51
538.42	55863.91
538.59	55945.83
538.75	55824.12
538.92	56123.71
539.09	56168.18
539.26	55800.71
539.43	55646.24
539.60	56184.56
539.77	56210.31
539.94	56149.45
540.11	56264.14
540.28	56285.20
540.44	56189.24
540.61	56273.50
540.78	56156.47
540.95	56301.59
541.12	56350.74
541.29	56540.32
541.46	56446.70
541.62	56378.82
541.79	56643.30
541.96	56491.17
542.13	56655.01
542.30	56563.73
542.47	56711.18
542.63	56650.33
542.80	56996.73
542.97	56776.72
543.14	57195.67
543.31	57322.06
543.48	56966.30
543.64	57174.61
543.81	57198.01
543.98	57097.37
544.15	57380.57
544.32	57476.54
544.48	57570.16
544.65	57141.84
544.82	57153.54
544.99	57286.95
545.16	57380.57
545.32	57499.94
545.49	57542.07
545.66	57551.43
545.83	57560.79
546.00	57485.90
546.16	57738.68
546.33	57532.71
546.50	57504.62
546.67	57518.67
546.83	57106.73
547.00	57593.56
547.17	57729.31
547.34	57684.84
547.50	57609.95
547.67	57956.35
547.84	57745.70
548.00	58007.84
548.17	58099.12
548.34	57986.77
548.51	58064.01
548.67	58157.63
548.84	57904.85
549.01	57928.26
549.18	58071.03
549.34	58089.76
549.51	58056.99
549.68	58272.32
549.84	58464.24
550.01	58258.27
550.18	58363.60
550.34	58408.07
550.51	58255.93
550.68	58183.38
550.84	58099.12
551.01	58419.77
551.18	58438.50
551.34	58464.24
551.51	58457.22
551.68	58354.24
551.84	58513.39
552.01	58464.24
552.18	58478.28
552.34	58571.91
552.51	58581.27
552.68	58536.80
552.84	58515.73
553.01	58710.00
553.18	58695.95
553.34	58892.56
553.51	58691.27
553.67	58489.99
553.84	58796.60
554.01	58848.09
554.17	59049.38
554.34	58836.39
554.51	58904.26
554.67	58892.56
554.84	58951.07
555.00	59014.27
555.17	58784.90
555.33	58948.73
555.50	58796.60
555.67	59042.35
555.83	58955.75
556.00	59110.23
556.16	59126.61
556.33	59091.51
556.50	58997.88
556.66	59208.53
556.83	59068.10
556.99	59292.79
557.16	59353.65
557.32	59327.90
557.49	59587.70
557.65	59388.75
557.82	59299.81
557.98	59236.62
558.15	59171.08
558.32	59437.90
558.48	59320.88
558.65	59377.05
558.81	59318.54
558.98	59311.52
559.14	59477.69
559.31	59606.42
559.47	59653.23
559.64	59444.93
559.80	59463.65
559.97	59664.94
560.13	59632.17
560.30	59419.18
560.46	59655.57
560.63	59849.84
560.79	59695.36
560.96	59847.50
561.12	59578.34
561.29	59723.45
561.45	59653.23
561.61	59634.51
561.78	59667.28
561.94	59671.96
562.11	59681.32
562.27	59887.29
562.44	59889.63
562.60	59891.97
562.77	59873.24
562.93	59835.80
563.10	60076.87
563.26	59831.11
563.42	60044.10
563.59	59882.61
563.75	59781.96
563.92	59770.26
564.08	60104.96
564.24	59898.99
564.41	60062.83
564.57	60109.64
564.74	59898.99
564.90	60177.51
565.07	59798.35
565.23	60116.66
565.39	59999.63
565.56	60032.40
565.72	60020.70
565.88	60104.96
566.05	60278.16
566.21	60121.34
566.38	60142.41
566.54	59950.48
566.70	60200.92
566.87	60119.00
567.03	60062.83
567.19	60128.36
567.36	60205.60
567.52	60020.70
567.68	60329.65
567.85	60296.88
568.01	60587.11
568.17	60378.80
568.34	60287.52
568.50	60299.22
568.66	60135.38
568.83	60343.69
568.99	60278.16
569.15	60292.20
569.32	60287.52
569.48	60207.94
569.64	60334.33
569.81	60236.03
569.97	60268.79
570.13	60444.33
570.30	60140.07
570.46	60559.02
570.62	60402.21
570.78	60289.86
570.95	60226.66
571.11	60549.66
571.27	60409.23
571.43	60467.74
571.60	60486.46
571.76	60240.71
571.92	60467.74
572.09	60416.25
572.25	60467.74
572.41	60470.08
572.57	60495.83
572.74	60776.69
572.90	60427.95
573.06	60582.43
573.22	60493.49
573.38	60764.99
573.55	60662.00
573.71	60977.98
573.87	60516.89
574.03	60491.15
574.20	60631.58
574.36	60608.17
574.52	60657.32
574.68	60657.32
574.84	60669.03
575.01	60542.64
575.17	60446.68
575.33	60659.66
575.49	60456.04
575.65	60505.19
575.82	60537.96
575.98	60589.45
576.14	60849.25
576.30	60872.65
576.46	60734.56
576.62	60598.81
576.79	60626.90
576.95	60690.09
577.11	60711.16
577.27	60540.30
577.43	60816.48
577.59	60790.73
577.75	60729.88
577.92	60669.03
578.08	60629.24
578.24	60814.14
578.40	60877.33
578.56	60900.74
578.72	60561.36
578.88	60910.10
579.04	60788.39
579.21	60750.94
579.37	60945.21
579.53	60678.39
579.69	60685.41
579.85	60488.80
580.01	60713.50
580.17	60619.88
580.33	60910.10
580.49	60722.86
580.65	60814.14
580.82	60921.80
580.98	60755.63
581.14	60729.88
581.30	61017.77
581.46	60671.37
581.62	60727.54
581.78	60889.04
581.94	60858.61
582.10	60835.20
582.26	60750.94
582.42	60781.37
582.58	60779.03
582.74	60711.16
582.90	60701.79
583.06	60804.78
583.22	60685.41
583.38	60863.29
583.54	60804.78
583.70	61087.98
583.86	60844.57
584.02	60704.13
584.18	60900.74
584.34	61015.43
584.50	60992.02
584.66	60797.76
584.82	60748.60
584.98	61057.56
585.14	60963.93
585.30	60727.54
585.46	61050.53
585.62	61062.24
585.78	61008.40
585.94	60800.10
586.10	60966.27
586.26	60924.14
586.42	60968.61
586.58	61095.00
586.74	60903.08
586.90	60924.14
587.06	60842.23
587.22	60987.34
587.38	60966.27
587.54	60977.98
587.70	61017.77
587.86	61083.30
588.02	60931.17
588.18	60886.70
588.34	60856.27
588.49	61024.79
