SpectraSuite Data File
++++++++++++++++++++++++++++++++++++
Date: Fri Oct 25 11:25:59 EDT 2013
User: price-jones
Dark Spectrum Present: No
Reference Spectrum Present: No
Number of Sampled Component Spectra: 1
Spectrometers: USB2+H05261
Integration Time (usec): 100000 (USB2+H05261)
Spectra Averaged: 1 (USB2+H05261)
Boxcar Smoothing: 0 (USB2+H05261)
Correct for Electrical Dark: No (USB2+H05261)
Strobe/Lamp Enabled: No (USB2+H05261)
Correct for Detector Non-linearity: No (USB2+H05261)
Correct for Stray Light: No (USB2+H05261)
Number of Pixels in Processed Spectrum: 2048
>>>>>Begin Processed Spectral Data<<<<<
365.73	208.31
365.92	208.31
366.12	208.31
366.32	201.29
366.52	196.60
366.72	117.03
366.91	182.56
367.11	154.48
367.31	105.32
367.51	147.45
367.70	100.64
367.90	152.13
368.10	142.77
368.30	105.32
368.49	100.64
368.69	152.13
368.89	138.09
369.09	173.20
369.28	177.88
369.48	119.37
369.68	196.60
369.87	191.92
370.07	159.16
370.27	222.35
370.47	308.95
370.66	573.43
370.86	587.47
371.06	638.97
371.25	690.46
371.45	674.07
371.65	741.95
371.84	653.01
372.04	695.14
372.24	718.54
372.44	713.86
372.63	737.27
372.83	739.61
373.03	786.42
373.22	793.44
373.42	866.00
373.62	746.63
373.81	830.89
374.01	868.34
374.21	800.46
374.40	833.23
374.60	821.53
374.79	786.42
374.99	828.55
375.19	863.66
375.38	861.32
375.58	835.57
375.78	873.02
375.97	882.38
376.17	891.74
376.37	866.00
376.56	873.02
376.76	840.25
376.95	931.53
377.15	858.98
377.35	891.74
377.54	898.77
377.74	1039.20
377.93	866.00
378.13	926.85
378.33	905.79
378.52	882.38
378.72	983.02
378.91	1006.43
379.11	894.08
379.31	1008.77
379.50	968.98
379.70	1039.20
379.89	950.26
380.09	990.05
380.28	1025.15
380.48	917.49
380.68	968.98
380.87	994.73
381.07	1093.03
381.26	1018.13
381.46	961.96
381.65	1015.79
381.85	1053.24
382.04	1069.62
382.24	968.98
382.43	1022.81
382.63	1020.47
382.83	1083.67
383.02	1067.28
383.22	1109.41
383.41	1015.79
383.61	1032.18
383.80	1156.22
384.00	1198.35
384.19	1078.99
384.39	1149.20
384.58	1109.41
384.78	1174.95
384.97	1179.63
385.17	1137.50
385.36	1142.18
385.56	1144.52
385.75	1132.82
385.95	1240.48
386.14	1167.93
386.34	1135.16
386.53	1191.33
386.72	1235.80
386.92	1245.16
387.11	1280.27
387.31	1259.21
387.50	1235.80
387.70	1259.21
387.89	1362.19
388.09	1224.10
388.28	1350.49
388.48	1270.91
388.67	1270.91
388.86	1348.15
389.06	1289.64
389.25	1380.92
389.45	1336.45
389.64	1327.08
389.84	1418.36
390.03	1404.32
390.22	1383.26
390.42	1460.49
390.61	1336.45
390.81	1441.77
391.00	1383.26
391.19	1401.98
391.39	1469.86
391.58	1404.32
391.78	1355.17
391.97	1460.49
392.16	1535.39
392.36	1556.46
392.55	1605.61
392.75	1441.77
392.94	1530.71
393.13	1544.75
393.33	1483.90
393.52	1519.01
393.71	1547.09
393.91	1600.93
394.10	1409.00
394.29	1638.38
394.49	1591.56
394.68	1750.72
394.88	1554.12
395.07	1645.40
395.26	1710.93
395.46	1694.55
395.65	1757.74
395.84	1734.34
396.04	1678.16
396.23	1710.93
396.42	1687.53
396.62	1687.53
396.81	1708.59
397.00	1734.34
397.19	1741.36
397.39	1753.06
397.58	1895.83
397.77	1804.55
397.97	1795.19
398.16	1839.66
398.35	1994.14
398.55	1753.06
398.74	1806.89
398.93	1940.30
399.12	1839.66
399.32	1853.70
399.51	1900.52
399.70	2045.63
399.90	1928.60
400.09	2001.16
400.28	2064.35
400.47	2080.74
400.67	2118.18
400.86	2094.78
401.05	2059.67
401.24	2012.86
401.44	2099.46
401.63	2190.74
401.82	2054.99
402.01	2083.08
402.21	2232.87
402.40	2179.04
402.59	2270.32
402.78	2202.44
402.97	2265.64
403.17	2296.07
403.36	2162.66
403.55	2223.51
403.74	2279.68
403.93	2263.30
404.13	2387.35
404.32	2354.58
404.51	2368.62
404.70	2427.14
404.89	2445.86
405.09	2548.84
405.28	2469.27
405.47	2490.33
405.66	2541.82
405.85	2457.56
406.05	2438.84
406.24	2455.22
406.43	2520.76
406.62	2544.16
406.81	2672.89
407.00	2600.34
407.20	2705.66
407.39	2614.38
407.58	2705.66
407.77	2668.21
407.96	2729.06
408.15	2675.23
408.34	2801.62
408.54	2778.22
408.73	2773.53
408.92	2825.03
409.11	2846.09
409.30	2874.18
409.49	2953.76
409.68	2986.52
409.87	2836.73
410.07	2988.86
410.26	3012.27
410.45	2991.20
410.64	2960.78
410.83	3112.91
411.02	3066.10
411.21	3026.31
411.40	3084.83
411.59	3091.85
411.78	3173.77
411.98	3108.23
412.17	3185.47
412.36	3255.69
412.55	3325.90
412.74	3344.63
412.93	3398.46
413.12	3407.82
413.31	3604.42
413.50	3475.70
413.69	3445.27
413.88	3632.51
414.07	3571.66
414.26	3606.77
414.45	3655.92
414.64	3651.24
414.83	3676.98
415.02	3817.41
415.22	3929.76
415.41	3784.65
415.60	3861.88
415.79	3786.99
415.98	3962.53
416.17	3920.40
416.36	4009.34
416.55	3983.59
416.74	4014.02
416.93	4070.19
417.12	4128.70
417.31	4170.83
417.50	4124.02
417.69	4257.43
417.88	4161.47
418.07	4231.69
418.26	4175.52
418.45	4395.53
418.64	4442.34
418.83	4428.29
419.02	4477.44
419.21	4461.06
419.39	4566.39
419.58	4514.89
419.77	4423.61
419.96	4547.66
420.15	4606.17
420.34	4425.95
420.53	4432.97
420.72	4524.26
420.91	4660.01
421.10	4674.05
421.29	4674.05
421.48	4561.70
421.67	4723.20
421.86	4814.48
422.05	4774.69
422.24	4819.16
422.43	4828.53
422.61	4748.95
422.80	4793.42
422.99	4887.04
423.18	4844.91
423.37	5128.11
423.56	4947.89
423.75	4961.94
423.94	4856.61
424.13	4538.30
424.32	4800.44
424.50	4954.91
424.69	5135.14
424.88	5064.92
425.07	5034.49
425.26	4851.93
425.45	5004.07
425.64	4997.04
425.83	4961.94
426.01	4926.83
426.20	5111.73
426.39	4943.21
426.58	5081.30
426.77	5078.96
426.96	4985.34
427.15	5034.49
427.33	5102.37
427.52	4992.36
427.71	5259.18
427.90	5362.17
428.09	5275.57
428.28	5392.59
428.46	5434.72
428.65	5249.82
428.84	5600.90
429.03	5598.56
429.22	5467.49
429.40	5589.20
429.59	5476.85
429.78	5408.98
429.97	5240.46
430.16	5483.88
430.34	5631.33
430.53	5593.88
430.72	5521.32
430.91	5511.96
431.10	5799.85
431.28	5706.23
431.47	5902.83
431.66	5795.17
431.85	5764.74
432.03	5841.98
432.22	5914.53
432.41	6017.52
432.60	5963.68
432.79	5970.71
432.97	6043.26
433.16	6059.65
433.35	5921.56
433.54	6022.20
433.72	6134.54
433.91	6122.84
434.10	6038.58
434.28	6141.57
434.47	6321.79
434.66	6207.10
434.85	6171.99
435.03	6399.02
435.22	6282.00
435.41	6459.88
435.59	6345.19
435.78	6424.77
435.97	6380.30
436.16	6361.58
436.34	6356.90
436.53	6209.44
436.72	6597.97
436.90	6490.31
437.09	6696.27
437.28	6506.69
437.46	6490.31
437.65	6450.52
437.84	6747.76
438.02	6679.89
438.21	6832.02
438.40	6722.02
438.58	7019.27
438.77	7037.99
438.96	6876.49
439.14	7150.34
439.33	7066.08
439.52	7037.99
439.70	7030.97
439.89	7393.75
440.08	7337.58
440.26	7274.38
440.45	7365.67
440.63	7325.88
440.82	7662.91
441.01	7541.21
441.19	7431.20
441.38	7751.85
441.57	7882.92
441.75	7630.15
441.94	8042.08
442.12	8044.42
442.31	7955.48
442.50	8056.12
442.68	7957.82
442.87	8114.64
443.05	8177.83
443.24	8194.22
443.43	8280.82
443.61	8074.85
443.80	8416.57
443.98	8081.87
444.17	7880.58
444.35	8180.17
444.54	8290.18
444.73	8421.25
444.91	8430.61
445.10	8166.13
445.28	8346.35
445.47	8435.29
445.65	8205.92
445.84	8409.54
446.02	8540.61
446.21	8156.77
446.39	8290.18
446.58	8458.70
446.77	8456.36
446.95	8360.39
447.14	8290.18
447.32	8557.00
447.51	8430.61
447.69	8634.24
447.88	8575.72
448.06	8477.42
448.25	8655.30
448.43	8547.64
448.62	8423.59
448.80	8629.56
448.99	8737.22
449.17	8587.43
449.36	8648.28
449.54	8823.82
449.73	9020.42
449.91	8842.54
450.10	8945.53
450.28	9011.06
450.46	8912.76
450.65	8975.95
450.83	9167.88
451.02	9029.79
451.20	9149.15
451.39	9029.79
451.57	9179.58
451.76	8959.57
451.94	9291.93
452.13	9600.88
452.31	9259.16
452.49	9240.44
452.68	9287.25
452.86	9135.11
453.05	9516.62
453.23	9366.82
453.42	9317.67
453.60	9338.74
453.78	9577.47
453.97	9287.25
454.15	9352.78
454.34	9430.02
454.52	9652.37
454.70	9753.01
454.89	9563.43
455.07	9647.69
455.26	9748.33
455.44	9963.66
455.62	9919.19
455.81	10026.86
455.99	10026.86
456.17	9956.64
456.36	10040.90
456.54	10190.69
456.73	10125.16
456.91	10574.54
457.09	10305.38
457.28	10537.09
457.46	10195.37
457.64	10434.11
457.83	10487.94
458.01	10354.53
458.19	10658.80
458.38	10401.34
458.56	10661.14
458.74	10721.99
458.93	10684.55
459.11	10696.25
459.29	10913.92
459.48	10633.05
459.66	10803.91
459.84	10874.13
460.03	10899.87
460.21	11133.93
460.39	10832.00
460.57	11143.29
460.76	11157.33
460.94	11187.76
461.12	11180.74
461.31	11349.26
461.49	11260.32
461.67	11129.25
461.85	11337.56
462.04	11314.15
462.22	11655.87
462.40	11571.61
462.59	11272.02
462.77	11529.48
462.95	11625.44
463.13	11569.27
463.32	11562.25
463.50	11786.94
463.68	11747.15
463.86	11887.58
464.05	11576.29
464.23	11737.79
464.41	11990.56
464.59	11477.99
464.78	12100.57
464.96	11676.93
465.14	11815.02
465.32	12128.66
465.50	12334.62
465.69	12063.12
465.87	12182.49
466.05	12060.78
466.23	12046.74
466.41	12025.67
466.60	12322.92
466.78	12318.24
466.96	12278.45
467.14	12355.69
467.32	12341.64
467.51	12533.57
467.69	12170.79
467.87	12554.63
468.05	12566.34
468.23	12540.59
468.41	12505.48
468.60	12542.93
468.78	12931.46
468.96	12461.01
469.14	12688.04
469.32	13085.94
469.50	12556.97
469.69	12851.88
469.87	12945.50
470.05	12968.91
470.23	13266.16
470.41	13224.03
470.59	13336.37
470.77	12910.40
470.95	13385.52
471.14	13352.76
471.32	13158.49
471.50	13341.05
471.68	13455.74
471.86	13769.37
472.04	13575.11
472.22	14099.39
472.40	13694.47
472.58	13687.45
472.77	14078.32
472.95	14267.91
473.13	14499.62
473.31	14029.17
473.49	14155.56
473.67	14237.48
473.85	14338.12
474.03	14494.94
474.21	14712.61
474.39	14586.22
474.57	14497.28
474.75	14679.84
474.93	14925.60
475.12	14834.32
475.30	15115.18
475.48	15023.90
475.66	15279.02
475.84	15248.59
476.02	15328.17
476.20	15548.18
476.38	15829.04
476.56	15999.90
476.74	15559.88
476.92	15852.45
477.10	15812.66
477.28	16042.03
477.46	16238.64
477.64	16264.38
477.82	16563.97
478.00	16856.54
478.18	16755.90
478.36	17029.74
478.54	17221.66
478.72	16975.91
478.90	17191.23
479.08	17565.72
479.26	17565.72
479.44	17596.15
479.62	17678.07
479.80	18155.54
479.98	18040.85
480.16	18270.22
480.34	18178.94
480.52	18792.16
480.70	18511.30
480.88	18387.25
481.06	18476.19
481.24	18750.03
481.41	19012.17
481.59	19250.91
481.77	19335.17
481.95	19403.04
482.13	19850.08
482.31	19555.18
482.49	20051.37
482.67	20011.58
482.85	20451.60
483.03	20643.52
483.21	20758.21
483.39	21102.27
483.57	20947.79
483.74	21287.17
483.92	21282.49
484.10	21060.14
484.28	21394.84
484.46	21970.61
484.64	22157.85
484.82	22066.57
485.00	22384.88
485.18	22595.53
485.35	23110.45
485.53	22724.26
485.71	23002.78
485.89	23660.48
486.07	23220.45
486.25	23171.30
486.43	23475.57
486.61	23957.72
486.78	24257.31
486.96	24121.56
487.14	24470.30
487.32	24535.84
487.50	25008.62
487.68	24837.76
487.85	24994.58
488.03	25582.06
488.21	25795.04
488.39	25383.11
488.57	26075.91
488.75	26281.88
488.92	26256.13
489.10	26614.23
489.28	26703.17
489.46	26836.58
489.64	26878.71
489.81	27358.52
489.99	27648.75
490.17	27611.30
490.35	27960.04
490.53	28020.89
490.70	28308.78
490.88	28170.69
491.06	29010.94
491.24	28821.36
491.41	28709.01
491.59	29053.07
491.77	28994.56
491.95	29589.05
492.13	29989.28
492.30	30127.38
492.48	29736.51
492.66	29851.19
492.84	30401.22
493.01	30199.93
493.19	30656.34
493.37	30888.05
493.54	31335.09
493.72	31583.19
493.90	31665.11
494.08	31480.21
494.25	31850.01
494.43	31948.31
494.61	32404.72
494.79	32737.07
494.96	32180.03
495.14	32687.92
495.32	32931.34
495.49	33315.19
495.67	32964.10
495.85	33787.97
496.02	33825.42
496.20	33792.65
496.38	33720.10
496.55	34157.78
496.73	34794.40
496.91	34361.40
497.09	34445.66
497.26	34614.18
497.44	34918.45
497.62	35236.77
497.79	35587.85
497.97	35515.29
498.14	35976.37
498.32	36198.73
498.50	35992.76
498.67	36636.41
498.85	36189.36
499.03	36168.30
499.20	36849.39
499.38	36835.35
499.56	36868.12
499.73	36954.72
499.91	37280.05
500.08	37509.43
500.26	37216.86
500.44	37858.17
500.61	37832.42
500.79	37481.34
500.97	37794.97
501.14	38562.67
501.32	38127.33
501.49	38532.24
501.67	38689.06
501.84	38946.51
502.02	39386.54
502.20	38967.58
502.37	39501.22
502.55	39100.99
502.72	39379.51
502.90	39452.07
503.07	39391.22
503.25	39931.88
503.43	39112.69
503.60	39714.21
503.78	40072.31
503.95	40084.01
504.13	40304.02
504.30	40755.75
504.48	40093.38
504.65	40641.06
504.83	40945.33
505.01	41530.47
505.18	41167.68
505.36	41064.70
505.53	41256.62
505.71	41226.20
505.88	41823.03
506.06	41401.74
506.23	41907.29
506.41	41710.69
506.58	41855.80
506.76	41830.05
506.93	42398.80
507.11	42529.87
507.28	42534.56
507.46	42356.67
507.63	42609.45
507.81	43005.00
507.98	42717.12
508.16	43124.37
508.33	43428.64
508.50	42923.08
508.68	43583.12
508.85	43995.05
509.03	43894.41
509.20	44013.77
509.38	44261.87
509.55	44472.52
509.73	44107.40
509.90	44346.13
510.08	44591.89
510.25	44580.18
510.42	44914.88
510.60	44428.05
510.77	44968.71
510.95	45492.99
511.12	45329.16
511.30	45064.67
511.47	45034.25
511.64	45364.26
511.82	45593.64
511.99	45663.85
512.17	45790.24
512.34	45947.06
512.51	46298.14
512.69	46117.92
512.86	46225.58
513.04	46433.89
513.21	46028.98
513.38	46330.90
513.56	47002.64
513.73	46686.67
513.90	46609.43
514.08	46850.50
514.25	47035.41
514.43	47725.86
514.60	47114.98
514.77	47487.13
514.95	47833.53
515.12	47398.19
515.29	47512.88
515.47	47672.03
515.64	47604.16
515.81	47856.93
515.99	47594.79
516.16	48182.27
516.33	48327.38
516.51	48835.28
516.68	47948.21
516.85	48034.81
517.03	48839.96
517.20	48882.09
517.37	48947.62
517.54	48708.89
517.72	48821.23
517.89	48718.25
518.06	49013.16
518.24	49181.68
518.41	49205.08
518.58	49066.99
518.75	49247.21
518.93	49689.57
519.10	49202.74
519.27	49886.18
519.45	49455.52
519.62	49844.05
519.79	49975.12
519.96	50124.91
520.14	50080.44
520.31	49956.39
520.48	50078.10
520.65	50178.75
520.83	50391.73
521.00	50464.29
521.17	50270.03
521.34	50815.37
521.52	50548.55
521.69	50920.70
521.86	50803.67
522.03	51004.95
522.20	51236.67
522.38	51208.58
522.55	51346.67
522.72	51171.13
522.89	51236.67
523.07	51636.90
523.24	51274.12
523.41	51508.17
523.58	51334.97
523.75	51868.61
523.92	51562.00
524.10	51477.74
524.27	51643.92
524.44	51716.48
524.61	52020.75
524.78	52226.71
524.96	52273.52
525.13	52137.77
525.30	52334.38
525.47	52289.91
525.64	52257.14
525.81	52540.35
525.98	52781.42
526.16	52673.76
526.33	52193.95
526.50	53029.52
526.67	52488.85
526.84	53038.88
527.01	52741.63
527.18	52786.10
527.36	53003.77
527.53	53097.39
527.70	53144.20
527.87	53249.53
528.04	53137.18
528.21	53296.34
528.38	53270.59
528.55	53773.81
528.72	53305.70
528.89	53270.59
529.07	53499.97
529.24	53375.92
529.41	53841.68
529.58	53439.11
529.75	53640.40
529.92	53745.72
530.09	53841.68
530.26	54049.99
530.43	53918.92
530.60	53689.55
530.77	53705.93
530.94	53932.96
531.11	54270.00
531.28	54075.74
531.46	54152.97
531.63	54387.03
531.80	54157.66
531.97	53975.09
532.14	54344.90
532.31	54288.73
532.48	54461.93
532.65	54684.28
532.82	54258.30
532.99	54791.94
533.16	54557.89
533.33	54681.94
533.50	54979.18
533.67	54934.71
533.84	54501.71
534.01	54728.75
534.18	54803.64
534.35	55150.04
534.52	54859.82
534.69	55061.10
534.86	55133.66
535.03	54901.95
535.20	54988.55
535.37	55285.79
535.54	55220.26
535.71	55269.41
535.88	55131.32
536.05	55484.74
536.22	55398.14
536.38	55625.17
536.55	55718.79
536.72	55316.22
536.89	55274.09
537.06	55831.14
537.23	55594.74
537.40	55618.15
537.57	55671.98
537.74	55707.09
537.91	55945.83
538.08	55929.44
538.25	55667.30
538.42	55814.76
538.59	55849.86
538.75	55770.28
538.92	55962.21
539.09	56062.85
539.26	56065.19
539.43	56065.19
539.60	56121.37
539.77	56060.51
539.94	56385.85
540.11	56381.16
540.28	56310.95
540.44	56341.38
540.61	56430.32
540.78	56170.52
540.95	56409.25
541.12	56376.48
541.29	56231.37
541.46	56619.90
541.62	56619.90
541.79	56254.78
541.96	56336.69
542.13	56484.15
542.30	56378.82
542.47	56994.39
542.63	56783.74
542.80	56963.96
542.97	57017.79
543.14	57125.46
543.31	56917.15
543.48	57223.76
543.64	57329.08
543.81	57219.08
543.98	57263.55
544.15	57261.21
544.32	57200.35
544.48	57478.88
544.65	57123.11
544.82	57172.27
544.99	57139.50
545.16	57743.36
545.32	57378.23
545.49	57806.55
545.66	57593.56
545.83	57663.78
546.00	57640.37
546.16	57462.49
546.33	57340.78
546.50	57411.00
546.67	57584.20
546.83	57272.91
547.00	57689.52
547.17	57724.63
547.34	57783.15
547.50	57787.83
547.67	57963.37
547.84	57745.70
548.00	57984.43
548.17	58145.93
548.34	57822.93
548.51	58246.57
548.67	58106.14
548.84	58281.68
549.01	57970.39
549.18	58089.76
549.34	58216.14
549.51	58169.33
549.68	58291.04
549.84	58604.67
550.01	58433.81
550.18	58024.22
550.34	58340.19
550.51	58515.73
550.68	58284.02
550.84	58349.56
551.01	58255.93
551.18	58461.90
551.34	58316.79
551.51	58513.39
551.68	58710.00
551.84	58581.27
552.01	58307.43
552.18	58527.44
552.34	58464.24
552.51	58796.60
552.68	58639.78
552.84	58812.98
553.01	58993.20
553.18	58394.03
553.34	58859.79
553.51	58824.68
553.67	58838.73
553.84	58878.52
554.01	58951.07
554.17	58843.41
554.34	58880.86
554.51	58897.24
554.67	59049.38
554.84	59037.67
555.00	58693.61
555.17	58915.96
555.33	59025.97
555.50	58857.45
555.67	58710.00
555.83	58897.24
556.00	59049.38
556.16	59363.01
556.33	59131.29
556.50	59089.16
556.66	59353.65
556.83	59037.67
556.99	59203.85
557.16	59276.41
557.32	59442.59
557.49	59601.74
557.65	59508.12
557.82	59323.22
557.98	59288.11
558.15	59374.71
558.32	59360.67
558.48	59316.20
558.65	59365.35
558.81	59255.34
558.98	59374.71
559.14	59613.44
559.31	59447.27
559.47	59568.97
559.64	59571.32
559.80	59583.02
559.97	59690.68
560.13	59671.96
560.30	59662.60
560.46	59714.09
560.63	59552.59
560.79	59653.23
560.96	59849.84
561.12	59866.22
561.29	59915.37
561.45	59833.46
561.61	59955.16
561.78	59777.28
561.94	59721.11
562.11	59721.11
562.27	59803.03
562.44	59730.47
562.60	60226.66
562.77	59819.41
562.93	59728.13
563.10	60142.41
563.26	59763.24
563.42	60044.10
563.59	59948.14
563.75	59786.64
563.92	59866.22
564.08	59927.08
564.24	60175.17
564.41	60104.96
564.57	60048.78
564.74	60083.89
564.90	60205.60
565.07	60158.79
565.23	60011.34
565.39	59945.80
565.56	60275.82
565.72	60074.53
565.88	59948.14
566.05	60023.04
566.21	60090.91
566.38	59962.18
566.54	60226.66
566.70	60324.97
566.87	60294.54
567.03	60135.38
567.19	60306.24
567.36	60350.71
567.52	60280.50
567.68	60463.06
567.85	60371.78
568.01	60364.76
568.17	60278.16
568.34	60250.07
568.50	60437.31
568.66	60245.39
568.83	60364.76
568.99	60271.14
569.15	60388.16
569.32	60231.35
569.48	60357.74
569.64	60467.74
569.81	60327.31
569.97	60371.78
570.13	60292.20
570.30	60456.04
570.46	60383.48
570.62	60409.23
570.78	60434.97
570.95	60495.83
571.11	60690.09
571.27	60528.59
571.43	60364.76
571.60	60612.85
571.76	60470.08
571.92	60484.12
572.09	60537.96
572.25	60657.32
572.41	60439.65
572.57	60479.44
572.74	60736.90
572.90	60374.12
573.06	60570.72
573.22	60364.76
573.38	60662.00
573.55	60505.19
573.71	60767.33
573.87	60743.92
574.03	60369.44
574.20	60477.10
574.36	60449.02
574.52	60559.02
574.68	60388.16
574.84	60867.97
575.01	60832.86
575.17	60711.16
575.33	60601.15
575.49	60666.69
575.65	60767.33
575.82	60863.29
575.98	60725.20
576.14	60999.04
576.30	60706.47
576.46	60573.06
576.62	60547.32
576.79	60692.43
576.95	60402.21
577.11	60755.63
577.27	60940.53
577.43	60645.62
577.59	60743.92
577.75	60753.29
577.92	60760.31
578.08	60493.49
578.24	60701.79
578.40	60837.54
578.56	60809.46
578.72	60856.27
578.88	60793.07
579.04	61003.72
579.21	60739.24
579.37	60851.59
579.53	61057.56
579.69	60626.90
579.85	60694.77
580.01	60622.22
580.17	60811.80
580.33	60870.31
580.49	60989.68
580.65	60886.70
580.82	60832.86
580.98	60910.10
581.14	60488.80
581.30	61003.72
581.46	60970.96
581.62	60860.95
581.78	60814.14
581.94	60842.23
582.10	60849.25
582.26	61020.11
582.42	60666.69
582.58	60839.89
582.74	60825.84
582.90	60928.83
583.06	60844.57
583.22	60718.18
583.38	61003.72
583.54	61001.38
583.70	60992.02
583.86	60835.20
584.02	60767.33
584.18	60821.16
584.34	60919.46
584.50	60924.14
584.66	60860.95
584.82	60849.25
584.98	61109.05
585.14	60928.83
585.30	60753.29
585.46	61003.72
585.62	60963.93
585.78	61050.53
585.94	60772.01
586.10	61013.08
586.26	60882.02
586.42	61013.08
586.58	60825.84
586.74	60938.19
586.90	60999.04
587.06	61057.56
587.22	61120.75
587.38	60994.36
587.54	60938.19
587.70	61256.50
587.86	60994.36
588.02	60882.02
588.18	61254.16
588.34	60870.31
