SpectraSuite Data File
++++++++++++++++++++++++++++++++++++
Date: Fri Oct 25 11:23:39 EDT 2013
User: price-jones
Dark Spectrum Present: No
Reference Spectrum Present: No
Number of Sampled Component Spectra: 1
Spectrometers: USB2+H05261
Integration Time (usec): 100000 (USB2+H05261)
Spectra Averaged: 1 (USB2+H05261)
Boxcar Smoothing: 0 (USB2+H05261)
Correct for Electrical Dark: No (USB2+H05261)
Strobe/Lamp Enabled: No (USB2+H05261)
Correct for Detector Non-linearity: No (USB2+H05261)
Correct for Stray Light: No (USB2+H05261)
Number of Pixels in Processed Spectrum: 2048
>>>>>Begin Processed Spectral Data<<<<<
365.73	248.10
365.92	248.10
366.12	248.10
366.32	105.32
366.52	149.79
366.72	187.24
366.91	105.32
367.11	145.11
367.31	138.09
367.51	184.90
367.70	114.69
367.90	39.79
368.10	46.81
368.30	163.84
368.49	147.45
368.69	201.29
368.89	168.52
369.09	107.66
369.28	119.37
369.48	126.39
369.68	194.26
369.87	173.20
370.07	154.48
370.27	236.39
370.47	353.42
370.66	638.97
370.86	660.03
371.06	718.54
371.25	697.48
371.45	704.50
371.65	699.82
371.84	580.45
372.04	641.31
372.24	650.67
372.44	739.61
372.63	774.72
372.83	748.97
373.03	662.37
373.22	746.63
373.42	755.99
373.62	786.42
373.81	767.70
374.01	767.70
374.21	821.53
374.40	880.04
374.60	922.17
374.79	777.06
374.99	835.57
375.19	800.46
375.38	821.53
375.58	873.02
375.78	833.23
375.97	875.36
376.17	870.68
376.37	835.57
376.56	898.77
376.76	931.53
376.95	849.61
377.15	882.38
377.35	959.62
377.54	903.45
377.74	828.55
377.93	830.89
378.13	938.55
378.33	875.36
378.52	905.79
378.72	976.00
378.91	1013.45
379.11	961.96
379.31	894.08
379.50	952.60
379.70	1004.09
379.89	1027.50
380.09	887.06
380.28	884.72
380.48	1015.79
380.68	990.05
380.87	968.98
381.07	1006.43
381.26	966.64
381.46	987.71
381.65	1025.15
381.85	1050.90
382.04	968.98
382.24	1086.01
382.43	961.96
382.63	961.96
382.83	1011.11
383.02	1123.46
383.22	1135.16
383.41	1102.39
383.61	1172.61
383.80	1137.50
384.00	1083.67
384.19	1125.80
384.39	1116.44
384.58	1207.72
384.78	1139.84
384.97	1214.74
385.17	1203.04
385.36	1156.22
385.56	1210.06
385.75	1184.31
385.95	1193.67
386.14	1245.16
386.34	1132.82
386.53	1221.76
386.72	1224.10
386.92	1280.27
387.11	1219.42
387.31	1263.89
387.50	1210.06
387.70	1219.42
387.89	1226.44
388.09	1275.59
388.28	1320.06
388.48	1313.04
388.67	1334.11
388.86	1268.57
389.06	1219.42
389.25	1296.66
389.45	1191.33
389.64	1263.89
389.84	1394.96
390.03	1364.53
390.22	1366.87
390.42	1324.74
390.61	1373.89
390.81	1345.81
391.00	1336.45
391.19	1495.60
391.39	1411.34
391.58	1416.02
391.78	1547.09
391.97	1502.62
392.16	1430.07
392.36	1521.35
392.55	1537.73
392.75	1572.84
392.94	1509.65
393.13	1530.71
393.33	1467.52
393.52	1556.46
393.71	1584.54
393.91	1565.82
394.10	1558.80
394.29	1556.46
394.49	1530.71
394.68	1708.59
394.88	1629.01
395.07	1682.85
395.26	1762.42
395.46	1689.87
395.65	1629.01
395.84	1715.61
396.04	1825.62
396.23	1818.60
396.42	1788.17
396.62	1795.19
396.81	1778.81
397.00	1764.76
397.19	1760.08
397.39	1776.47
397.58	1935.62
397.77	1790.51
397.97	1853.70
398.16	1813.92
398.35	1860.73
398.55	1930.94
398.74	1832.64
398.93	1923.92
399.12	1942.64
399.32	1984.77
399.51	2012.86
399.70	2012.86
399.90	1863.07
400.09	2026.90
400.28	1998.82
400.47	1996.48
400.67	1982.43
400.86	2036.27
401.05	2087.76
401.24	2160.31
401.44	2139.25
401.63	2150.95
401.82	2146.27
402.01	2200.10
402.21	2111.16
402.40	2136.91
402.59	2195.42
402.78	2207.13
402.97	2289.04
403.17	2272.66
403.36	2197.76
403.55	2317.13
403.74	2270.32
403.93	2366.28
404.13	2347.56
404.32	2340.54
404.51	2427.14
404.70	2469.27
404.89	2452.88
405.09	2363.94
405.28	2485.65
405.47	2356.92
405.66	2502.03
405.85	2523.10
406.05	2434.16
406.24	2602.68
406.43	2562.89
406.62	2532.46
406.81	2612.04
407.00	2649.49
407.20	2555.86
407.39	2593.31
407.58	2782.90
407.77	2759.49
407.96	2691.62
408.15	2785.24
408.34	2764.17
408.54	2822.69
408.73	2768.85
408.92	2843.75
409.11	2937.37
409.30	2846.09
409.49	2902.26
409.68	2944.39
409.87	2911.63
410.07	2970.14
410.26	3035.67
410.45	3119.93
410.64	3115.25
410.83	3075.46
411.02	3141.00
411.21	3208.87
411.40	3035.67
411.59	3218.24
411.78	3206.53
411.98	3138.66
412.17	3234.62
412.36	3262.71
412.55	3337.60
412.74	3452.29
412.93	3393.78
413.12	3384.41
413.31	3529.53
413.50	3494.42
413.69	3499.10
413.88	3604.42
414.07	3723.79
414.26	3602.08
414.45	3754.22
414.64	3641.87
414.83	3763.58
415.02	3742.52
415.22	3812.73
415.41	3892.31
415.60	3843.16
415.79	3911.04
415.98	3906.35
416.17	4009.34
416.36	3950.82
416.55	4084.23
416.74	3925.08
416.93	4056.15
417.12	4182.54
417.31	4131.05
417.50	4004.66
417.69	4219.99
417.88	4290.20
418.07	4180.20
418.26	4231.69
418.45	4390.84
418.64	4484.47
418.83	4486.81
419.02	4418.93
419.21	4627.24
419.39	4496.17
419.58	4390.84
419.77	4507.87
419.96	4617.88
420.15	4526.60
420.34	4592.13
420.53	4629.58
420.72	4770.01
420.91	4784.06
421.10	4784.06
421.29	4800.44
421.48	4674.05
421.67	4760.65
421.86	4922.15
422.05	4823.84
422.24	4765.33
422.43	4800.44
422.61	4917.47
422.80	4854.27
422.99	4762.99
423.18	5046.20
423.37	5004.07
423.56	4938.53
423.75	4990.02
423.94	4788.74
424.13	4486.81
424.32	4781.71
424.50	5102.37
424.69	5174.92
424.88	5034.49
425.07	4985.34
425.26	4903.42
425.45	4997.04
425.64	4917.47
425.83	4828.53
426.01	5069.60
426.20	5057.90
426.39	5146.84
426.58	4966.62
426.77	5020.45
426.96	5046.20
427.15	5027.47
427.33	5104.71
427.52	5114.07
427.71	5362.17
427.90	5167.90
428.09	5256.84
428.28	5301.31
428.46	5298.97
428.65	5266.21
428.84	5572.82
429.03	5535.37
429.22	5341.10
429.40	5430.04
429.59	5575.16
429.78	5217.05
429.97	5224.08
430.16	5537.71
430.34	5636.01
430.53	5586.86
430.72	5762.40
430.91	5600.90
431.10	5729.63
431.28	5818.57
431.47	5769.42
431.66	5652.39
431.85	5799.85
432.03	5841.98
432.22	5919.21
432.41	6005.81
432.60	5860.70
432.79	6059.65
432.97	5942.62
433.16	6064.33
433.35	6003.47
433.54	6066.67
433.72	6211.78
433.91	6155.61
434.10	6169.65
434.28	6129.86
434.47	6115.82
434.66	6251.57
434.85	6319.45
435.03	6436.47
435.22	6087.73
435.41	6691.59
435.59	6612.01
435.78	6417.75
435.97	6473.92
436.16	6422.43
436.34	6476.26
436.53	6600.31
436.72	6663.51
436.90	6544.14
437.09	6586.27
437.28	6539.46
437.46	6614.35
437.65	6502.01
437.84	6878.83
438.02	6743.08
438.21	6775.85
438.40	6729.04
438.58	7084.80
438.77	7000.54
438.96	7056.72
439.14	7293.11
439.33	7239.28
439.52	7171.40
439.70	7279.07
439.89	7503.76
440.08	7405.46
440.26	7421.84
440.45	7339.92
440.63	7470.99
440.82	7583.34
441.01	7485.03
441.19	7758.88
441.38	7620.78
441.57	7700.36
441.75	7833.77
441.94	8112.30
442.12	7995.27
442.31	8051.44
442.50	8116.98
442.68	7791.64
442.87	8140.38
443.05	8231.66
443.24	8163.79
443.43	7997.61
443.61	8224.64
443.80	8358.05
443.98	8028.04
444.17	8077.19
444.35	8273.79
444.54	8418.91
444.73	8287.84
444.91	8304.22
445.10	8353.37
445.28	8449.33
445.47	8334.65
445.65	8395.50
445.84	8531.25
446.02	8622.53
446.21	8322.94
446.39	8351.03
446.58	8624.87
446.77	8547.64
446.95	8269.11
447.14	8636.58
447.32	8496.14
447.51	8449.33
447.69	8554.66
447.88	8498.49
448.06	8535.93
448.25	8521.89
448.43	8688.07
448.62	8610.83
448.80	8437.63
448.99	8772.33
449.17	8805.10
449.36	8711.47
449.54	8758.28
449.73	9006.38
449.91	8896.38
450.10	9076.60
450.28	9013.40
450.46	9020.42
450.65	9039.15
450.83	8889.35
451.02	8987.66
451.20	9210.01
451.39	9261.50
451.57	9142.13
451.76	9202.99
451.94	9137.45
452.13	9139.79
452.31	9343.42
452.49	9144.47
452.68	9289.59
452.86	9207.67
453.05	9350.44
453.23	9504.92
453.42	9324.69
453.60	9371.50
453.78	9301.29
453.97	9570.45
454.15	9558.75
454.34	9729.61
454.52	9668.75
454.70	9811.53
454.89	9708.54
455.07	9631.30
455.26	9958.98
455.44	10064.30
455.62	9771.74
455.81	9905.15
455.99	10078.35
456.17	10078.35
456.36	10087.71
456.54	10281.97
456.73	10178.99
456.91	10448.15
457.09	10391.98
457.28	10775.83
457.46	10284.31
457.64	10457.51
457.83	10520.71
458.01	10464.54
458.19	10717.31
458.38	10436.45
458.56	10628.37
458.74	10878.81
458.93	10696.25
459.11	10665.82
459.29	10822.64
459.48	10780.51
459.66	10963.07
459.84	10817.96
460.03	10960.73
460.21	11040.31
460.39	10904.56
460.57	11098.82
460.76	11054.35
460.94	10939.66
461.12	11414.79
461.31	11257.98
461.49	11122.23
461.67	11094.14
461.85	11428.84
462.04	11360.96
462.22	11590.33
462.40	11606.72
462.59	11372.66
462.77	11557.57
462.95	11765.87
463.13	11407.77
463.32	11470.97
463.50	11800.98
463.68	12004.61
463.86	11829.07
464.05	11733.11
464.23	11829.07
464.41	11934.39
464.59	11651.19
464.78	11889.92
464.96	12112.27
465.14	11910.99
465.32	11885.24
465.50	12283.13
465.69	12152.06
465.87	12205.89
466.05	12416.54
466.23	12067.80
466.41	12205.89
466.60	12425.90
466.78	12276.11
466.96	12372.07
467.14	12215.26
467.32	12439.95
467.51	12601.44
467.69	12100.57
467.87	12465.69
468.05	12564.00
468.23	12477.40
468.41	12325.26
468.60	12617.83
468.78	12737.20
468.96	12648.26
469.14	12725.49
469.32	13069.55
469.50	12819.11
469.69	13074.23
469.87	12929.12
470.05	13055.51
470.23	13315.31
470.41	13099.98
470.59	13341.05
470.77	13277.86
470.95	13425.31
471.14	13720.22
471.32	13280.20
471.50	13572.77
471.68	13633.62
471.86	13614.90
472.04	13628.94
472.22	13973.00
472.40	13802.14
472.58	13888.74
472.77	13877.04
472.95	14370.89
473.13	14757.08
473.31	14094.71
473.49	14314.72
473.67	14221.10
473.85	14410.68
474.03	14544.09
474.21	14366.21
474.39	14726.65
474.57	14808.57
474.75	14827.29
474.93	14927.94
475.12	15145.61
475.30	15370.30
475.48	14862.40
475.66	15440.51
475.84	15208.80
476.02	15442.85
476.20	15344.55
476.38	15992.88
476.56	15733.08
476.74	16107.57
476.92	15967.13
477.10	15770.53
477.28	16098.20
477.46	16390.77
477.64	16350.98
477.82	16570.99
478.00	17050.80
478.18	16570.99
478.36	17137.40
478.54	17369.12
478.72	17043.78
478.90	17331.67
479.08	17530.61
479.26	17568.06
479.44	17577.42
479.62	17675.73
479.80	17998.72
479.98	18197.67
480.16	18562.79
480.34	18551.09
480.52	18452.78
480.70	18464.49
480.88	18501.93
481.06	18546.40
481.24	18838.97
481.41	19119.84
481.59	19393.68
481.77	19400.70
481.95	19573.90
482.13	19463.90
482.31	19637.09
482.49	20379.04
482.67	20163.72
482.85	20140.31
483.03	20664.59
483.21	20957.16
483.39	20959.50
483.57	21039.08
483.74	21191.21
483.92	21521.23
484.10	21177.17
484.28	21961.25
484.46	21930.82
484.64	22588.51
484.82	22061.89
485.00	22270.20
485.18	22792.14
485.35	23271.95
485.53	22993.42
485.71	23222.80
485.89	23318.76
486.07	23386.63
486.25	23138.54
486.43	23421.74
486.61	23810.27
486.78	24102.84
486.96	24343.91
487.14	24999.26
487.32	24514.77
487.50	24833.08
487.68	25017.99
487.85	24999.26
488.03	25699.08
488.21	25851.22
488.39	25682.70
488.57	26096.97
488.75	26199.96
488.92	26672.74
489.10	27094.04
489.28	26923.18
489.46	27077.66
489.64	27143.19
489.81	27534.06
489.99	27831.31
490.17	27704.92
490.35	28011.53
490.53	28512.41
490.70	28687.95
490.88	28432.83
491.06	28858.81
491.24	28748.80
491.41	29275.42
491.59	29500.11
491.77	29589.05
491.95	29771.61
492.13	29530.54
492.30	29940.13
492.48	30260.79
492.66	30321.64
492.84	30300.58
493.01	30478.46
493.19	30806.13
493.37	30918.48
493.54	31653.40
493.72	31571.49
493.90	31395.95
494.08	31707.24
494.25	31854.69
494.43	32205.77
494.61	32418.76
494.79	32371.95
494.96	32505.36
495.14	32837.72
495.32	33397.10
495.49	33125.60
495.67	33296.46
495.85	33563.28
496.02	33757.55
496.20	33523.49
496.38	34153.10
496.55	34050.11
496.73	34558.01
496.91	34525.24
497.09	34876.32
497.26	34782.70
497.44	35084.63
497.62	35335.07
497.79	35861.69
497.97	35503.59
498.14	35791.47
498.32	36247.88
498.50	36404.69
498.67	36671.51
498.85	36765.14
499.03	37127.92
499.20	36737.05
499.38	36921.95
499.56	37167.71
499.73	37626.45
499.91	37528.15
500.08	37968.17
500.26	37469.64
500.44	37647.52
500.61	38298.19
500.79	37591.34
500.97	38113.28
501.14	38857.57
501.32	38866.94
501.49	38511.17
501.67	38806.08
501.84	39040.14
502.02	39091.63
502.20	38742.89
502.37	39306.96
502.55	39445.05
502.72	39597.18
502.90	39737.62
503.07	39255.46
503.25	39800.81
503.43	39828.90
503.60	40163.59
503.78	40371.90
503.95	40538.08
504.13	40804.90
504.30	40554.46
504.48	40477.22
504.65	40776.81
504.83	41010.87
505.01	41303.43
505.18	41443.87
505.36	41661.54
505.53	41394.71
505.71	41673.24
505.88	42300.50
506.06	41532.81
506.23	42026.66
506.41	42014.96
506.58	42492.43
506.76	42003.25
506.93	42555.62
507.11	42263.05
507.28	42557.96
507.46	42543.92
507.63	42876.27
507.81	43255.44
507.98	42789.67
508.16	43447.36
508.33	43714.19
508.50	43276.51
508.68	43798.44
508.85	44154.21
509.03	43482.47
509.20	44053.56
509.38	44327.41
509.55	44100.37
509.73	45104.46
509.90	44474.86
510.08	44666.78
510.25	44718.28
510.42	44722.96
510.60	45174.68
510.77	45340.86
510.95	45881.52
511.12	45450.86
511.30	45090.42
511.47	45387.67
511.64	45663.85
511.82	46134.30
511.99	45783.22
512.17	46316.86
512.34	45933.01
512.51	45799.60
512.69	46513.47
512.86	46263.03
513.04	47028.38
513.21	46614.11
513.38	46630.49
513.56	47367.76
513.73	46712.41
513.90	47061.15
514.08	47054.13
514.25	47400.53
514.43	47564.37
514.60	47847.57
514.77	47466.06
514.95	47784.38
515.12	47875.66
515.29	47571.39
515.47	47959.92
515.64	48233.76
515.81	47901.40
515.99	48498.24
516.16	48343.77
516.33	48388.24
516.51	48835.28
516.68	48528.67
516.85	48617.61
517.03	49010.82
517.20	48947.62
517.37	49167.63
517.54	48830.60
517.72	49045.93
517.89	49464.88
518.06	49153.59
518.24	49308.07
518.41	49088.06
518.58	49598.29
518.75	49387.64
518.93	49837.03
519.10	49394.67
519.27	49439.14
519.45	50024.27
519.62	49907.24
519.79	49975.12
519.96	49963.42
520.14	50071.08
520.31	50143.64
520.48	50422.16
520.65	50162.36
520.83	50827.07
521.00	50649.19
521.17	50480.67
521.34	50838.78
521.52	51009.64
521.69	51016.66
521.86	51145.39
522.03	50904.31
522.20	51386.46
522.38	51793.71
522.55	51611.15
522.72	51384.12
522.89	51618.17
523.07	51505.83
523.24	51503.49
523.41	51517.53
523.58	51409.87
523.75	52002.02
523.92	51901.38
524.10	52140.11
524.27	52048.83
524.44	51992.66
524.61	52128.41
524.78	52566.09
524.96	52259.48
525.13	52219.69
525.30	52329.70
525.47	52762.70
525.64	52603.54
525.81	52896.11
525.98	52748.65
526.16	52662.05
526.33	52540.35
526.50	52971.00
526.67	53006.11
526.84	53085.69
527.01	52729.93
527.18	53076.33
527.36	52655.03
527.53	53284.64
527.70	53202.72
527.87	53558.48
528.04	53261.23
528.21	53710.61
528.38	53153.57
528.55	53584.22
528.72	53492.94
528.89	53422.73
529.07	53642.74
529.24	53380.60
529.41	53883.81
529.58	53764.45
529.75	53385.28
529.92	53624.01
530.09	53886.15
530.26	54047.65
530.43	53942.33
530.60	53925.94
530.77	53766.79
530.94	54262.98
531.11	54106.16
531.28	54223.19
531.46	54501.71
531.63	54408.09
531.80	54262.98
531.97	54387.03
532.14	54656.19
532.31	54391.71
532.48	54529.80
532.65	54794.28
532.82	54632.78
532.99	55107.91
533.16	54490.01
533.33	54754.49
533.50	55070.46
533.67	54735.77
533.84	54981.52
534.01	54644.49
534.18	54838.75
534.35	55302.18
534.52	55072.81
534.69	55325.58
534.86	55646.24
535.03	55070.46
535.20	55370.05
535.37	55543.25
535.54	55402.82
535.71	55327.92
535.88	55554.96
536.05	55386.44
536.22	55732.84
536.38	55732.84
536.55	55510.49
536.72	55543.25
536.89	55763.26
537.06	55693.05
537.23	55796.03
537.40	55679.00
537.57	55653.26
537.74	55683.69
537.91	56191.58
538.08	55899.01
538.25	55807.73
538.42	55891.99
538.59	56313.29
538.75	55798.37
538.92	56236.05
539.09	56100.30
539.26	56350.74
539.43	56133.07
539.60	56184.56
539.77	56383.51
539.94	56664.37
540.11	56442.02
540.28	56526.28
540.44	56435.00
540.61	56334.35
540.78	56470.11
540.95	56453.72
541.12	56495.85
541.29	56413.93
541.46	56427.98
541.62	56711.18
541.79	56554.36
541.96	56362.44
542.13	56456.06
542.30	56413.93
542.47	56814.16
542.63	56900.76
542.80	56924.17
542.97	57097.37
543.14	57113.75
543.31	57038.86
543.48	57406.32
543.64	57441.43
543.81	57406.32
543.98	57310.36
544.15	57277.59
544.32	57406.32
544.48	57666.12
544.65	57265.89
544.82	57492.92
544.99	57375.89
545.16	57724.63
545.32	57633.35
545.49	57659.10
545.66	57923.58
545.83	57738.68
546.00	57642.71
546.16	57752.72
546.33	57483.56
546.50	57528.03
546.67	57602.92
546.83	57364.19
547.00	57581.86
547.17	57701.23
547.34	57916.56
547.50	58024.22
547.67	58066.35
547.84	57996.13
548.00	57958.69
548.17	58298.06
548.34	58220.83
548.51	58323.81
548.67	58272.32
548.84	58335.51
549.01	58007.84
549.18	58499.35
549.34	58429.13
549.51	58370.62
549.68	58323.81
549.84	58459.56
550.01	58625.74
550.18	58403.39
550.34	58234.87
550.51	58536.80
550.68	58616.38
550.84	58468.92
551.01	58539.14
551.18	58681.91
551.34	58447.86
551.51	58560.20
551.68	58639.78
551.84	58571.91
552.01	58452.54
552.18	58805.96
552.34	58721.70
552.51	58759.15
552.68	58459.56
552.84	58756.81
553.01	58995.54
553.18	58834.05
553.34	58822.34
553.51	58995.54
553.67	58911.28
553.84	58967.46
554.01	59040.01
554.17	59021.29
554.34	59040.01
554.51	59049.38
554.67	59082.14
554.84	59145.34
555.00	59056.40
555.17	59075.12
555.33	59217.89
555.50	59044.69
555.67	59131.29
555.83	59014.27
556.00	59234.28
556.16	59491.74
556.33	59353.65
556.50	59344.28
556.66	59171.08
556.83	59281.09
556.99	59341.94
557.16	59423.86
557.32	59512.80
557.49	59714.09
557.65	59381.73
557.82	59477.69
557.98	59217.89
558.15	59433.22
558.32	59412.16
558.48	59517.48
558.65	59615.79
558.81	59629.83
558.98	59732.81
559.14	59831.11
559.31	59686.00
559.47	59606.42
559.64	59992.61
559.80	59522.16
559.97	59824.09
560.13	59831.11
560.30	59578.34
560.46	59877.93
560.63	59889.63
560.79	59723.45
560.96	60009.00
561.12	59955.16
561.29	59945.80
561.45	59847.50
561.61	59924.74
561.78	59863.88
561.94	59941.12
562.11	59695.36
562.27	59943.46
562.44	60041.76
562.60	60016.02
562.77	60055.81
562.93	59849.84
563.10	60048.78
563.26	59753.88
563.42	60334.33
563.59	60130.70
563.75	60088.57
563.92	60282.84
564.08	60065.17
564.24	60196.24
564.41	60116.66
564.57	60320.29
564.74	60170.49
564.90	60168.15
565.07	60126.02
565.23	60170.49
565.39	60451.36
565.56	60212.62
565.72	60151.77
565.88	60224.32
566.05	60154.11
566.21	60221.98
566.38	60289.86
566.54	60355.39
566.70	60378.80
566.87	60205.60
567.03	60243.05
567.19	60224.32
567.36	60371.78
567.52	60495.83
567.68	60680.73
567.85	60404.55
568.01	60605.83
568.17	60212.62
568.34	60570.72
568.50	60418.59
568.66	60399.86
568.83	60346.03
568.99	60378.80
569.15	60460.72
569.32	60434.97
569.48	60390.50
569.64	60713.50
569.81	60528.59
569.97	60355.39
570.13	60528.59
570.30	60470.08
570.46	60624.56
570.62	60629.24
570.78	60434.97
570.95	60537.96
571.11	60753.29
571.27	60619.88
571.43	60493.49
571.60	60598.81
571.76	60598.81
571.92	60718.18
572.09	60624.56
572.25	60605.83
572.41	60706.47
572.57	60699.45
572.74	60879.67
572.90	60629.24
573.06	60774.35
573.22	60680.73
573.38	60727.54
573.55	60786.05
573.71	61045.85
573.87	60825.84
574.03	60582.43
574.20	60879.67
574.36	60617.53
574.52	60739.24
574.68	60757.97
574.84	60968.61
575.01	60891.38
575.17	60779.03
575.33	60729.88
575.49	60870.31
575.65	60657.32
575.82	60994.36
575.98	60900.74
576.14	61069.26
576.30	61029.47
576.46	60835.20
576.62	60867.97
576.79	60776.69
576.95	60650.30
577.11	61071.60
577.27	60882.02
577.43	60727.54
577.59	60664.35
577.75	60549.66
577.92	60781.37
578.08	60879.67
578.24	60842.23
578.40	60891.38
578.56	60912.44
578.72	61055.21
578.88	60985.00
579.04	61244.80
579.21	60858.61
579.37	60851.59
579.53	60870.31
579.69	60800.10
579.85	60722.86
580.01	60772.01
580.17	60664.35
580.33	61022.45
580.49	61027.13
580.65	61336.08
580.82	60963.93
580.98	60870.31
581.14	60870.31
581.30	61263.52
581.46	60931.17
581.62	61125.43
581.78	60992.02
581.94	61006.06
582.10	60914.78
582.26	61062.24
582.42	60949.89
582.58	60884.36
582.74	60874.99
582.90	61095.00
583.06	60860.95
583.22	60992.02
583.38	60996.70
583.54	61169.90
583.70	60963.93
583.86	60947.55
584.02	60921.80
584.18	61055.21
584.34	60982.66
584.50	60851.59
584.66	61013.08
584.82	60832.86
584.98	61160.54
585.14	61132.45
585.30	60973.30
585.46	61102.03
585.62	61158.20
585.78	61200.33
585.94	60947.55
586.10	61006.06
586.26	60835.20
586.42	61338.42
586.58	61130.11
586.74	61050.53
586.90	60977.98
587.06	61017.77
587.22	61155.86
587.38	61305.65
587.54	61373.53
587.70	61102.03
587.86	61059.90
588.02	60959.25
588.18	61240.12
588.34	61315.01
588.49	61120.75
