SpectraSuite Data File
++++++++++++++++++++++++++++++++++++
Date: Fri Oct 25 10:44:37 EDT 2013
User: price-jones
Dark Spectrum Present: No
Reference Spectrum Present: No
Number of Sampled Component Spectra: 1
Spectrometers: USB2+H05261
Integration Time (usec): 100000 (USB2+H05261)
Spectra Averaged: 1 (USB2+H05261)
Boxcar Smoothing: 0 (USB2+H05261)
Correct for Electrical Dark: No (USB2+H05261)
Strobe/Lamp Enabled: No (USB2+H05261)
Correct for Detector Non-linearity: No (USB2+H05261)
Correct for Stray Light: No (USB2+H05261)
Number of Pixels in Processed Spectrum: 2048
>>>>>Begin Processed Spectral Data<<<<<
365.73	166.18
365.92	166.18
366.12	166.18
366.32	77.24
366.52	4.68
366.72	138.09
366.91	42.13
367.11	7.02
367.31	4.68
367.51	11.70
367.70	37.45
367.90	42.13
368.10	28.09
368.30	46.81
368.49	65.54
368.69	28.09
368.89	14.04
369.09	0.00
369.28	0.00
369.48	110.01
369.68	156.82
369.87	119.37
370.07	86.60
370.27	131.07
370.47	161.50
370.66	360.44
370.86	423.64
371.06	414.27
371.25	383.85
371.45	383.85
371.65	465.77
371.84	390.87
372.04	414.27
372.24	456.40
372.44	456.40
372.63	451.72
372.83	505.56
373.03	454.06
373.22	437.68
373.42	449.38
373.62	421.30
373.81	517.26
374.01	543.00
374.21	498.53
374.40	535.98
374.60	498.53
374.79	528.96
374.99	512.58
375.19	554.71
375.38	608.54
375.58	505.56
375.78	624.92
375.97	575.77
376.17	587.47
376.37	601.52
376.56	543.00
376.76	587.47
376.95	582.79
377.15	606.20
377.35	603.86
377.54	585.13
377.74	620.24
377.93	634.29
378.13	608.54
378.33	566.41
378.52	631.94
378.72	615.56
378.91	524.28
379.11	638.97
379.31	566.41
379.50	599.18
379.70	638.97
379.89	657.69
380.09	674.07
380.28	610.88
380.48	620.24
380.68	561.73
380.87	678.76
381.07	578.11
381.26	737.27
381.46	697.48
381.65	641.31
381.85	641.31
382.04	645.99
382.24	692.80
382.43	674.07
382.63	643.65
382.83	620.24
383.02	758.33
383.22	758.33
383.41	655.35
383.61	692.80
383.80	645.99
384.00	784.08
384.19	744.29
384.39	763.01
384.58	706.84
384.78	690.46
384.97	744.29
385.17	702.16
385.36	685.78
385.56	706.84
385.75	631.94
385.95	634.29
386.14	770.04
386.34	800.46
386.53	788.76
386.72	748.97
386.92	835.57
387.11	795.78
387.31	734.93
387.50	784.08
387.70	842.59
387.89	772.38
388.09	793.44
388.28	718.54
388.48	807.48
388.67	896.43
388.86	814.51
389.06	851.96
389.25	875.36
389.45	910.47
389.64	844.93
389.84	915.15
390.03	858.98
390.22	830.89
390.42	828.55
390.61	940.90
390.81	922.17
391.00	901.11
391.19	976.00
391.39	1050.90
391.58	938.55
391.78	992.39
391.97	999.41
392.16	1015.79
392.36	1039.20
392.55	999.41
392.75	924.51
392.94	990.05
393.13	1006.43
393.33	936.21
393.52	1053.24
393.71	1034.52
393.91	931.53
394.10	954.94
394.29	950.26
394.49	1055.58
394.68	1142.18
394.88	1027.50
395.07	1111.75
395.26	1118.78
395.46	1109.41
395.65	1100.05
395.84	1156.22
396.04	1149.20
396.23	1151.54
396.42	1121.12
396.62	1078.99
396.81	1046.22
397.00	1102.39
397.19	1142.18
397.39	1170.27
397.58	1291.98
397.77	1210.06
397.97	1263.89
398.16	1289.64
398.35	1324.74
398.55	1303.68
398.74	1214.74
398.93	1217.08
399.12	1355.17
399.32	1357.51
399.51	1345.81
399.70	1446.45
399.90	1219.42
400.09	1378.58
400.28	1446.45
400.47	1390.28
400.67	1401.98
400.86	1462.83
401.05	1537.73
401.24	1486.24
401.44	1577.52
401.63	1458.15
401.82	1446.45
402.01	1502.62
402.21	1516.67
402.40	1472.20
402.59	1444.11
402.78	1544.75
402.97	1500.28
403.17	1533.05
403.36	1689.87
403.55	1596.25
403.74	1582.20
403.93	1645.40
404.13	1703.91
404.32	1706.25
404.51	1778.81
404.70	1652.42
404.89	1614.97
405.09	1804.55
405.28	1732.00
405.47	1774.13
405.66	1818.60
405.85	1778.81
406.05	1720.29
406.24	1717.95
406.43	1912.22
406.62	1802.21
406.81	1998.82
407.00	1837.32
407.20	1764.76
407.39	1881.79
407.58	1877.11
407.77	1886.47
407.96	1942.64
408.15	2022.22
408.34	1994.14
408.54	1966.05
408.73	1952.01
408.92	1970.73
409.11	2040.95
409.30	2099.46
409.49	2078.40
409.68	2069.03
409.87	2024.56
410.07	2087.76
410.26	2019.88
410.45	2029.24
410.64	2141.59
410.83	2251.60
411.02	2174.36
411.21	2321.81
411.40	2239.89
411.59	2249.25
411.78	2328.83
411.98	2209.47
412.17	2321.81
412.36	2382.67
412.55	2499.69
412.74	2511.39
412.93	2459.90
413.12	2434.16
413.31	2619.06
413.50	2452.88
413.69	2487.99
413.88	2553.52
414.07	2415.43
414.26	2462.24
414.45	2595.65
414.64	2672.89
414.83	2731.41
415.02	2537.14
415.22	2834.39
415.41	2902.26
415.60	2787.58
415.79	2703.32
415.98	2766.51
416.17	2925.67
416.36	2867.16
416.55	2895.24
416.74	2974.82
416.93	2939.71
417.12	2874.18
417.31	2984.18
417.50	2925.67
417.69	3211.22
417.88	3009.93
418.07	3066.10
418.26	3075.46
418.45	3117.59
418.64	3178.45
418.83	3211.22
419.02	3155.04
419.21	3094.19
419.39	3190.15
419.58	3272.07
419.77	3215.90
419.96	3316.54
420.15	3421.86
420.34	3309.52
420.53	3356.33
420.72	3370.37
420.91	3435.91
421.10	3258.03
421.29	3445.27
421.48	3382.07
421.67	3389.10
421.86	3431.23
422.05	3536.55
422.24	3548.25
422.43	3410.16
422.61	3351.65
422.80	3428.88
422.99	3482.72
423.18	3557.61
423.37	3482.72
423.56	3452.29
423.75	3536.55
423.94	3520.17
424.13	3318.88
424.32	3337.60
424.50	3550.59
424.69	3529.53
424.88	3672.30
425.07	3613.79
425.26	3531.87
425.45	3398.46
425.64	3559.95
425.83	3571.66
426.01	3630.17
426.20	3660.60
426.39	3552.93
426.58	3534.21
426.77	3604.42
426.96	3492.08
427.15	3571.66
427.33	3719.11
427.52	3604.42
427.71	3719.11
427.90	3801.03
428.09	3758.90
428.28	3716.77
428.46	3716.77
428.65	3669.96
428.84	3822.09
429.03	3953.16
429.22	3667.62
429.40	3880.61
429.59	3843.16
429.78	3503.78
429.97	3651.24
430.16	3695.71
430.34	3892.31
430.53	3971.89
430.72	3749.54
430.91	3953.16
431.10	3990.61
431.28	4107.64
431.47	4042.11
431.66	4081.89
431.85	4131.05
432.03	4112.32
432.22	4070.19
432.41	4219.99
432.60	4194.24
432.79	4149.77
432.97	4283.18
433.16	4166.15
433.35	4245.73
433.54	4454.04
433.72	4243.39
433.91	4229.35
434.10	4463.40
434.28	4369.78
434.47	4271.48
434.66	4423.61
434.85	4627.24
435.03	4454.04
435.22	4444.68
435.41	4634.26
435.59	4489.15
435.78	4568.73
435.97	4660.01
436.16	4585.11
436.34	4664.69
436.53	4657.67
436.72	4631.92
436.90	4603.83
437.09	4730.22
437.28	4704.48
437.46	4657.67
437.65	4767.67
437.84	4723.20
438.02	4737.24
438.21	4821.50
438.40	4681.07
438.58	4947.89
438.77	4873.00
438.96	4882.36
439.14	4908.10
439.33	4983.00
439.52	5128.11
439.70	5172.58
439.89	5118.75
440.08	5135.14
440.26	5247.48
440.45	5121.09
440.63	5062.58
440.82	5296.63
441.01	5341.10
441.19	5338.76
441.38	5598.56
441.57	5366.85
441.75	5511.96
441.94	5607.92
442.12	5729.63
442.31	5706.23
442.50	5682.82
442.68	5734.31
442.87	5696.86
443.05	5549.41
443.24	5734.31
443.43	5738.99
443.61	5710.91
443.80	5980.07
443.98	5687.50
444.17	5748.36
444.35	5816.23
444.54	6104.12
444.73	5870.06
444.91	5874.74
445.10	6052.63
445.28	5877.09
445.47	5753.04
445.65	5895.81
445.84	5802.19
446.02	6031.56
446.21	5820.91
446.39	5865.38
446.58	5879.43
446.77	5959.00
446.95	5727.29
447.14	5935.60
447.32	6174.33
447.51	6043.26
447.69	6066.67
447.88	6169.65
448.06	5977.73
448.25	6230.51
448.43	6033.90
448.62	6083.05
448.80	5900.49
448.99	6132.20
449.17	6249.23
449.36	6115.82
449.54	6324.13
449.73	6204.76
449.91	6480.94
450.10	6441.15
450.28	6448.18
450.46	6415.41
450.65	6354.55
450.83	6249.23
451.02	6544.14
451.20	6686.91
451.39	6403.71
451.57	6574.56
451.76	6459.88
451.94	6384.98
452.13	6537.12
452.31	6417.75
452.49	6359.24
452.68	6555.84
452.86	6555.84
453.05	6530.09
453.23	6656.48
453.42	6588.61
453.60	6417.75
453.78	6523.07
453.97	6609.67
454.15	6590.95
454.34	6670.53
454.52	6707.98
454.70	6829.68
454.89	6651.80
455.07	6881.18
455.26	6981.82
455.44	7021.61
455.62	6977.14
455.81	6881.18
455.99	6932.67
456.17	6848.41
456.36	7087.14
456.54	7152.68
456.73	7482.69
456.91	7414.82
457.09	7232.26
457.28	7349.28
457.46	7166.72
457.64	7297.79
457.83	7339.92
458.01	7213.53
458.19	7314.17
458.38	7332.90
458.56	7400.77
458.74	7346.94
458.93	7461.63
459.11	7613.76
459.29	7534.18
459.48	7410.14
459.66	7363.33
459.84	7522.48
460.03	7740.15
460.21	7550.57
460.39	7716.75
460.57	7728.45
460.76	7772.92
460.94	7573.97
461.12	7751.85
461.31	7861.86
461.49	7651.21
461.67	7873.56
461.85	8046.76
462.04	7815.05
462.22	8100.59
462.40	8126.34
462.59	7927.39
462.77	8016.33
462.95	7974.21
463.13	7786.96
463.32	7967.18
463.50	8067.83
463.68	8138.04
463.86	8156.77
464.05	7812.71
464.23	8042.08
464.41	8140.38
464.59	8147.40
464.78	8287.84
464.96	8278.47
465.14	8084.21
465.32	8217.62
465.50	8475.08
465.69	8482.10
465.87	8248.05
466.05	8533.59
466.23	8234.00
466.41	8313.58
466.60	8397.84
466.78	8381.46
466.96	8271.45
467.14	8472.74
467.32	8393.16
467.51	8683.39
467.69	8446.99
467.87	8444.65
468.05	8446.99
468.23	8655.30
468.41	8407.20
468.60	8482.10
468.78	8711.47
468.96	8587.43
469.14	8767.65
469.32	9060.21
469.50	8557.00
469.69	9048.51
469.87	8819.14
470.05	9018.08
470.23	8812.12
470.41	8959.57
470.59	9210.01
470.77	9060.21
470.95	9214.69
471.14	9135.11
471.32	9071.92
471.50	9392.57
471.68	9380.87
471.86	9219.37
472.04	9408.95
472.22	9504.92
472.40	9338.74
472.58	9418.32
472.77	9427.68
472.95	9582.15
473.13	9736.63
473.31	9549.39
473.49	9490.87
473.67	9624.28
473.85	9907.49
474.03	10101.75
474.21	9942.60
474.39	10188.35
474.57	10001.11
474.75	10104.09
474.93	10242.18
475.12	10043.24
475.30	10270.27
475.48	10125.16
475.66	10108.77
475.84	10331.12
476.02	10553.48
476.20	10462.19
476.38	10686.89
476.56	10923.28
476.74	10822.64
476.92	10686.89
477.10	10832.00
477.28	11049.67
477.46	10885.83
477.64	11243.93
477.82	11211.17
478.00	11522.46
478.18	11290.74
478.36	11346.92
478.54	11433.52
478.72	11419.47
478.90	11566.93
479.08	11709.70
479.26	12042.06
479.44	11908.65
479.62	11765.87
479.80	12135.68
479.98	12250.36
480.16	12500.80
480.34	12276.11
480.52	12526.55
480.70	12519.53
480.88	12269.09
481.06	12713.79
481.24	12575.70
481.41	12765.28
481.59	13085.94
481.77	12954.87
481.95	13137.43
482.13	13039.12
482.31	13221.69
482.49	13488.51
482.67	13467.44
482.85	13458.08
483.03	13650.00
483.21	13919.17
483.39	14265.57
483.57	14017.47
483.74	14169.60
483.92	14155.56
484.10	13902.78
484.28	14429.40
484.46	14792.19
484.64	14848.36
484.82	14572.18
485.00	14649.41
485.18	15028.58
485.35	15353.91
485.53	14855.38
485.71	15007.52
485.89	15382.00
486.07	15218.16
486.25	15218.16
486.43	15779.89
486.61	15587.97
486.78	15875.85
486.96	16070.12
487.14	16339.28
487.32	16322.90
487.50	16152.04
487.68	16732.49
487.85	16999.31
488.03	16854.20
488.21	17111.66
488.39	16865.90
488.57	17350.39
488.75	17191.23
488.92	17708.49
489.10	17703.81
489.28	17867.65
489.46	18118.09
489.64	17802.11
489.81	18555.77
489.99	18494.91
490.17	18583.85
490.35	18787.48
490.53	18855.36
490.70	18979.40
490.88	18455.12
491.06	19140.90
491.24	19147.92
491.41	19171.33
491.59	19330.48
491.77	19278.99
491.95	19627.73
492.13	19742.42
492.30	19679.22
492.48	19756.46
492.66	20112.22
492.84	19819.66
493.01	20217.55
493.19	20065.41
493.37	20240.95
493.54	20652.89
493.72	20713.74
493.90	20678.63
494.08	21001.63
494.25	21254.40
494.43	21289.51
494.61	21287.17
494.79	21397.18
494.96	21296.53
495.14	21804.43
495.32	21792.73
495.49	21774.00
495.67	22199.98
495.85	22171.89
496.02	22277.22
496.20	22579.15
496.38	22490.21
496.55	22384.88
496.73	22843.63
496.91	23047.26
497.09	23101.09
497.26	22714.90
497.44	23159.60
497.62	23297.69
497.79	23527.06
497.97	23215.77
498.14	23332.80
498.32	23693.24
498.50	23765.80
498.67	23826.65
498.85	23611.32
499.03	24151.99
499.20	23964.75
499.38	24187.10
499.56	24243.27
499.73	24437.53
499.91	24325.19
500.08	24645.84
500.26	24252.63
500.44	24489.03
500.61	24652.86
500.79	24755.85
500.97	25013.31
501.14	25317.57
501.32	24954.79
501.49	25184.16
501.67	25116.29
501.84	25240.34
502.02	25537.59
502.20	25322.26
502.37	25642.91
502.55	25584.40
502.72	25729.51
502.90	25687.38
503.07	25600.78
503.25	25876.96
503.43	25982.29
503.60	26106.34
503.78	26237.41
503.95	26265.49
504.13	26380.18
504.30	26225.70
504.48	26651.68
504.65	26623.59
504.83	27122.13
505.01	27101.06
505.18	26867.01
505.36	27292.99
505.53	27019.14
505.71	26911.48
505.88	27384.27
506.06	26960.63
506.23	27623.00
506.41	27384.27
506.58	27182.98
506.76	27548.11
506.93	27688.54
507.11	27662.79
507.28	27826.63
507.46	27704.92
507.63	27880.46
507.81	28367.29
507.98	27683.86
508.16	28360.27
508.33	28226.86
508.50	28465.60
508.68	28545.17
508.85	28694.97
509.03	29039.03
509.20	28762.84
509.38	28989.88
509.55	29186.48
509.73	29479.05
509.90	28929.02
510.08	28964.13
510.25	29542.24
510.42	29184.14
510.60	29448.62
510.77	29703.74
510.95	29584.37
511.12	29673.31
511.30	29783.32
511.47	30022.05
511.64	30291.21
511.82	30326.32
511.99	29996.31
512.17	30251.42
512.34	30066.52
512.51	30286.53
512.69	30225.68
512.86	30349.73
513.04	30600.16
513.21	30712.51
513.38	30796.77
513.56	30288.87
513.73	30513.56
513.90	30665.70
514.08	30707.83
514.25	31021.46
514.43	31299.98
514.60	30735.92
514.77	31438.08
514.95	31131.47
515.12	31145.51
515.29	31400.63
515.47	31632.34
515.64	31800.86
515.81	31524.68
515.99	31564.46
516.16	31660.43
516.33	31618.30
516.51	31835.97
516.68	31377.22
516.85	31501.27
517.03	31524.68
517.20	31768.09
517.37	31894.48
517.54	31894.48
517.72	32170.66
517.89	32121.51
518.06	32088.74
518.24	32673.88
518.41	32177.68
518.58	32339.18
518.75	32828.35
518.93	32676.22
519.10	32524.08
519.27	32865.80
519.45	32950.06
519.62	32833.04
519.79	32919.63
519.96	33357.32
520.14	33144.33
520.31	33053.05
520.48	32914.95
520.65	32926.66
520.83	33251.99
521.00	33670.95
521.17	33338.59
521.34	33603.07
521.52	34117.99
521.69	34024.37
521.86	33982.24
522.03	33757.55
522.20	33766.91
522.38	34330.98
522.55	34359.06
522.72	34010.32
522.89	34494.82
523.07	34412.90
523.24	34405.88
523.41	34771.00
523.58	34433.96
523.75	34976.97
523.92	34361.40
524.10	35012.07
524.27	34848.24
524.44	34829.51
524.61	35178.25
524.78	35330.39
524.96	35042.50
525.13	35276.55
525.30	35608.91
525.47	35236.77
525.64	35295.28
525.81	35306.98
525.98	35124.42
526.16	35466.14
526.33	35353.79
526.50	35945.95
526.67	35466.14
526.84	35115.06
527.01	35115.06
527.18	35826.58
527.36	36062.97
527.53	36048.93
527.70	36479.59
527.87	35868.71
528.04	36360.22
528.21	35819.56
528.38	35882.75
528.55	36383.63
528.72	36608.32
528.89	36727.69
529.07	36100.42
529.24	36133.19
529.41	35849.99
529.58	36392.99
529.75	36580.23
529.92	36519.38
530.09	36718.32
530.26	36896.20
530.43	36999.19
530.60	36694.92
530.77	36666.83
530.94	37081.11
531.11	37008.55
531.28	37060.04
531.46	37060.04
531.63	37125.58
531.80	37090.47
531.97	36912.59
532.14	37148.98
532.31	36748.75
532.48	37322.18
532.65	37450.91
532.82	37734.12
532.99	37514.11
533.16	37462.61
533.33	37670.92
533.50	37654.54
533.67	37516.45
533.84	37626.45
534.01	38113.28
534.18	37832.42
534.35	38312.23
534.52	37858.17
534.69	38293.50
534.86	38075.84
535.03	37832.42
535.20	38092.22
535.37	38422.23
535.54	38565.01
535.71	38333.29
535.88	38206.90
536.05	38169.46
536.22	39171.21
536.38	38497.13
536.55	38251.38
536.72	38469.04
536.89	38326.27
537.06	38632.88
537.23	38480.75
537.40	38754.59
537.57	38412.87
537.74	38808.42
537.91	38976.94
538.08	38862.26
538.25	38602.46
538.42	39117.37
538.59	39285.89
538.75	38499.47
538.92	39126.74
539.09	39356.11
539.26	38850.55
539.43	39299.94
539.60	39353.77
539.77	39108.01
539.94	39213.34
540.11	39508.24
540.28	39384.19
540.44	39126.74
540.61	39421.64
540.78	39491.86
540.95	39515.26
541.12	39487.18
541.29	39660.38
541.46	39620.59
541.62	39901.45
541.79	39880.39
541.96	39264.83
542.13	39613.57
542.30	39690.80
542.47	39803.15
542.63	39901.45
542.80	40371.90
542.97	40800.22
543.14	40636.38
543.31	40378.92
543.48	40748.73
543.64	40917.25
543.81	40842.35
543.98	40385.94
544.15	40407.01
544.32	40671.49
544.48	40734.68
544.65	40701.92
544.82	40734.68
544.99	40343.81
545.16	40942.99
545.32	40612.98
545.49	41160.66
545.66	41095.13
545.83	40928.95
546.00	41008.53
546.16	41258.96
546.33	40767.45
546.50	40730.00
546.67	40830.65
546.83	40517.01
547.00	41116.19
547.17	41148.96
547.34	40985.12
547.50	41174.70
547.67	41350.24
547.84	41287.05
548.00	41504.72
548.17	41628.77
548.34	41736.43
548.51	41806.65
548.67	41741.11
548.84	41766.86
549.01	41132.57
549.18	41656.85
549.34	41493.02
549.51	41366.63
549.68	41801.97
549.84	41897.93
550.01	41710.69
550.18	41818.35
550.34	42019.64
550.51	41673.24
550.68	41635.79
550.84	41579.62
551.01	41647.49
551.18	41933.04
551.34	41755.16
551.51	41935.38
551.68	42085.17
551.84	42302.84
552.01	42136.66
552.18	42085.17
552.34	41535.15
552.51	42087.51
552.68	42188.16
552.84	42199.86
553.01	42719.46
553.18	42361.36
553.34	42295.82
553.51	42101.56
553.67	41944.74
553.84	42890.32
554.01	42590.73
554.17	42476.04
554.34	42770.95
554.51	42684.35
554.67	43079.90
554.84	42625.84
555.00	42499.45
555.17	42543.92
555.33	42419.87
555.50	42335.61
555.67	42602.43
555.83	42462.00
556.00	42586.05
556.16	43189.91
556.33	42937.13
556.50	42689.03
556.66	42988.62
556.83	42539.24
556.99	43096.28
557.16	43070.54
557.32	43145.44
557.49	42997.98
557.65	42572.00
557.82	43047.13
557.98	42862.23
558.15	42930.11
558.32	43330.34
558.48	43068.20
558.65	43442.68
558.81	42703.07
558.98	42822.44
559.14	43115.01
559.31	43070.54
559.47	43124.37
559.64	43608.86
559.80	43777.38
559.97	43367.79
560.13	42986.28
560.30	42981.60
560.46	43363.11
560.63	43545.67
560.79	43384.17
560.96	43543.33
561.12	43377.15
561.29	43543.33
561.45	43906.11
561.61	43217.99
561.78	43175.86
561.94	43269.48
562.11	43697.80
562.27	43498.86
562.44	43540.99
562.60	44102.71
562.77	43681.42
562.93	43281.19
563.10	44020.80
563.26	43456.73
563.42	43887.39
563.59	43601.84
563.75	43463.75
563.92	43859.30
564.08	43704.82
564.24	43400.55
564.41	43590.14
564.57	43484.81
564.74	43700.14
564.90	43835.89
565.07	43660.35
565.23	43358.42
565.39	43845.26
565.56	44315.70
565.72	43955.26
565.88	43524.60
566.05	43753.97
566.21	43871.00
566.38	43426.30
566.54	43817.17
566.70	44002.07
566.87	44514.65
567.03	43882.70
567.19	44617.63
567.36	44009.09
567.52	43714.19
567.68	43992.71
567.85	43971.64
568.01	43786.74
568.17	43737.59
568.34	44208.04
568.50	44332.09
568.66	43702.48
568.83	44128.46
568.99	43377.15
569.15	43957.60
569.32	43683.76
569.48	43725.89
569.64	44514.65
569.81	44500.61
569.97	44065.27
570.13	44046.54
570.30	44196.34
570.46	43791.42
570.62	43753.97
570.78	44161.23
570.95	44034.84
571.11	44376.56
571.27	43807.81
571.43	43988.03
571.60	44144.84
571.76	43941.22
571.92	43859.30
572.09	44198.68
572.25	44446.77
572.41	44163.57
572.57	44147.18
572.74	44154.21
572.90	44364.85
573.06	44547.42
573.22	44102.71
573.38	44109.74
573.55	44098.03
573.71	43569.07
573.87	44287.62
574.03	43803.13
574.20	44163.57
574.36	44102.71
574.52	44137.82
574.68	44463.16
574.84	44313.36
575.01	44186.97
575.17	44296.98
575.33	44121.44
575.49	44016.11
575.65	44451.45
575.82	44350.81
575.98	44191.65
576.14	44191.65
576.30	44191.65
576.46	44095.69
576.62	44467.84
576.79	44521.67
576.95	43845.26
577.11	44034.84
577.27	44421.03
577.43	44575.50
577.59	44121.44
577.75	44435.07
577.92	44004.41
578.08	44315.70
578.24	44088.67
578.40	44250.17
578.56	44364.85
578.72	43728.23
578.88	44645.72
579.04	44395.28
579.21	43969.30
579.37	44329.75
579.53	44041.86
579.69	44037.18
579.85	44219.74
580.01	44495.92
580.17	44215.06
580.33	44411.67
580.49	44612.95
580.65	44498.26
580.82	44500.61
580.98	44355.49
581.14	44397.62
581.30	44697.21
581.46	44678.49
581.62	44594.23
581.78	44327.41
581.94	44545.08
582.10	44245.49
582.26	44467.84
582.42	44664.44
582.58	44486.56
582.74	44556.78
582.90	44659.76
583.06	44694.87
583.22	44428.05
583.38	44732.32
583.54	44781.47
583.70	44493.58
583.86	44666.78
584.02	43976.33
584.18	44552.10
584.34	44582.52
584.50	44729.98
584.66	44456.14
584.82	44093.35
584.98	44636.36
585.14	44568.48
585.30	44528.69
585.46	44587.21
585.62	44596.57
585.78	44222.08
585.94	43824.19
586.10	44041.86
586.26	44823.60
586.42	44601.25
586.58	44727.64
586.74	44598.91
586.90	44395.28
587.06	44449.11
587.22	44734.66
587.38	44044.20
587.54	44451.45
587.70	44758.06
587.86	44423.37
588.02	44179.95
588.18	44528.69
588.34	44428.05
588.49	44273.57
588.65	44072.29
588.81	43934.20
588.97	43955.26
589.13	44505.29
589.29	44287.62
589.45	44584.86
589.61	44182.29
589.77	44641.04
589.93	44542.74
590.08	44381.24
590.24	44935.95
