SpectraSuite Data File
++++++++++++++++++++++++++++++++++++
Date: Fri Oct 25 10:47:56 EDT 2013
User: price-jones
Dark Spectrum Present: No
Reference Spectrum Present: No
Number of Sampled Component Spectra: 1
Spectrometers: USB2+H05261
Integration Time (usec): 100000 (USB2+H05261)
Spectra Averaged: 1 (USB2+H05261)
Boxcar Smoothing: 0 (USB2+H05261)
Correct for Electrical Dark: No (USB2+H05261)
Strobe/Lamp Enabled: No (USB2+H05261)
Correct for Detector Non-linearity: No (USB2+H05261)
Correct for Stray Light: No (USB2+H05261)
Number of Pixels in Processed Spectrum: 2048
>>>>>Begin Processed Spectral Data<<<<<
365.73	182.56
365.92	182.56
366.12	182.56
366.32	39.79
366.52	79.58
366.72	39.79
366.91	46.81
367.11	67.88
367.31	51.49
367.51	35.11
367.70	53.83
367.90	93.62
368.10	60.85
368.30	114.69
368.49	102.98
368.69	117.03
368.89	58.51
369.09	70.22
369.28	119.37
369.48	84.26
369.68	53.83
369.87	107.66
370.07	131.07
370.27	161.50
370.47	177.88
370.66	379.17
370.86	433.00
371.06	425.98
371.25	425.98
371.45	470.45
371.65	528.96
371.84	456.40
372.04	444.70
372.24	451.72
372.44	552.37
372.63	395.55
372.83	512.58
373.03	493.85
373.22	430.66
373.42	557.05
373.62	447.04
373.81	493.85
374.01	512.58
374.21	510.24
374.40	582.79
374.60	692.80
374.79	554.71
374.99	564.07
375.19	613.22
375.38	505.56
375.58	629.60
375.78	552.37
375.97	559.39
376.17	571.09
376.37	510.24
376.56	540.66
376.76	599.18
376.95	564.07
377.15	678.76
377.35	589.82
377.54	629.60
377.74	615.56
377.93	526.62
378.13	648.33
378.33	603.86
378.52	547.69
378.72	587.47
378.91	566.41
379.11	571.09
379.31	561.73
379.50	575.77
379.70	601.52
379.89	671.73
380.09	573.43
380.28	664.71
380.48	655.35
380.68	613.22
380.87	660.03
381.07	620.24
381.26	674.07
381.46	669.39
381.65	662.37
381.85	709.18
382.04	692.80
382.24	720.88
382.43	643.65
382.63	643.65
382.83	622.58
383.02	751.31
383.22	774.72
383.41	688.12
383.61	681.10
383.80	716.20
384.00	746.63
384.19	748.97
384.39	758.33
384.58	746.63
384.78	784.08
384.97	786.42
385.17	739.61
385.36	777.06
385.56	812.17
385.75	713.86
385.95	730.25
386.14	779.40
386.34	751.31
386.53	748.97
386.72	828.55
386.92	777.06
387.11	851.96
387.31	777.06
387.50	779.40
387.70	821.53
387.89	875.36
388.09	816.85
388.28	915.15
388.48	842.59
388.67	908.13
388.86	877.70
389.06	812.17
389.25	847.27
389.45	866.00
389.64	884.72
389.84	891.74
390.03	908.13
390.22	924.51
390.42	947.92
390.61	898.77
390.81	945.58
391.00	973.66
391.19	1027.50
391.39	947.92
391.58	1006.43
391.78	903.45
391.97	926.85
392.16	959.62
392.36	954.94
392.55	992.39
392.75	1025.15
392.94	931.53
393.13	919.83
393.33	945.58
393.52	1011.11
393.71	987.71
393.91	1039.20
394.10	1060.26
394.29	1097.71
394.49	1128.14
394.68	1074.31
394.88	1027.50
395.07	1123.46
395.26	1107.07
395.46	1177.29
395.65	1160.91
395.84	1181.97
396.04	1109.41
396.23	1121.12
396.42	1067.28
396.62	1104.73
396.81	1053.24
397.00	1196.01
397.19	1188.99
397.39	1217.08
397.58	1259.21
397.77	1240.48
397.97	1226.44
398.16	1228.78
398.35	1315.38
398.55	1261.55
398.74	1252.19
398.93	1350.49
399.12	1310.70
399.32	1399.64
399.51	1343.47
399.70	1352.83
399.90	1334.11
400.09	1324.74
400.28	1465.18
400.47	1359.85
400.67	1437.09
400.86	1399.64
401.05	1500.28
401.24	1495.60
401.44	1537.73
401.63	1458.15
401.82	1514.33
402.01	1521.35
402.21	1554.12
402.40	1500.28
402.59	1437.09
402.78	1528.37
402.97	1554.12
403.17	1621.99
403.36	1598.59
403.55	1544.75
403.74	1596.25
403.93	1603.27
404.13	1519.01
404.32	1561.14
404.51	1645.40
404.70	1645.40
404.89	1675.82
405.09	1703.91
405.28	1666.46
405.47	1678.16
405.66	1760.08
405.85	1846.68
406.05	1748.38
406.24	1851.36
406.43	1767.10
406.62	1895.83
406.81	1830.30
407.00	1830.30
407.20	1827.96
407.39	1708.59
407.58	1802.21
407.77	1877.11
407.96	2036.27
408.15	2031.58
408.34	1844.34
408.54	2003.50
408.73	1921.58
408.92	2012.86
409.11	2050.31
409.30	2054.99
409.49	2015.20
409.68	1977.75
409.87	2127.55
410.07	1982.43
410.26	2113.50
410.45	2099.46
410.64	2069.03
410.83	2197.76
411.02	2155.63
411.21	2263.30
411.40	2188.40
411.59	2195.42
411.78	2183.72
411.98	2413.09
412.17	2282.02
412.36	2385.01
412.55	2441.18
412.74	2464.58
412.93	2562.89
413.12	2502.03
413.31	2593.31
413.50	2464.58
413.69	2417.77
413.88	2576.93
414.07	2534.80
414.26	2588.63
414.45	2607.36
414.64	2661.19
414.83	2715.02
415.02	2708.00
415.22	2841.41
415.41	2710.34
415.60	2808.64
415.79	2815.66
415.98	2719.70
416.17	2892.90
416.36	2766.51
416.55	2967.80
416.74	2925.67
416.93	2839.07
417.12	2963.12
417.31	2949.08
417.50	2974.82
417.69	3075.46
417.88	3023.97
418.07	3014.61
418.26	3014.61
418.45	3124.62
418.64	3157.38
418.83	3251.00
419.02	3255.69
419.21	3227.60
419.39	3314.20
419.58	3063.76
419.77	3117.59
419.96	3300.16
420.15	3300.16
420.34	3246.32
420.53	3206.53
420.72	3311.86
420.91	3428.88
421.10	3339.94
421.29	3424.20
421.48	3372.71
421.67	3370.37
421.86	3494.42
422.05	3335.26
422.24	3332.92
422.43	3307.18
422.61	3456.97
422.80	3461.65
422.99	3564.64
423.18	3588.04
423.37	3536.55
423.56	3541.23
423.75	3630.17
423.94	3363.35
424.13	3325.90
424.32	3417.18
424.50	3548.25
424.69	3648.90
424.88	3613.79
425.07	3471.01
425.26	3440.59
425.45	3566.98
425.64	3545.91
425.83	3674.64
426.01	3478.04
426.20	3623.15
426.39	3681.66
426.58	3524.85
426.77	3440.59
426.96	3576.34
427.15	3604.42
427.33	3684.00
427.52	3583.36
427.71	3747.20
427.90	3646.55
428.09	3651.24
428.28	3707.41
428.46	3763.58
428.65	3847.84
428.84	3824.44
429.03	3894.65
429.22	3660.60
429.40	3999.98
429.59	3868.91
429.78	3604.42
429.97	3613.79
430.16	3609.11
430.34	3808.05
430.53	3932.10
430.72	3911.04
430.91	3782.31
431.10	3971.89
431.28	4102.96
431.47	4035.08
431.66	4018.70
431.85	3971.89
432.03	4042.11
432.22	4236.37
432.41	4049.13
432.60	4250.41
432.79	4304.25
432.97	4273.82
433.16	4250.41
433.35	4217.65
433.54	4329.99
433.72	4243.39
433.91	4229.35
434.10	4250.41
434.28	4229.35
434.47	4353.40
434.66	4547.66
434.85	4337.01
435.03	4432.97
435.22	4311.27
435.41	4545.32
435.59	4468.08
435.78	4645.96
435.97	4486.81
436.16	4554.68
436.34	4486.81
436.53	4634.26
436.72	4631.92
436.90	4531.28
437.09	4688.09
437.28	4702.14
437.46	4620.22
437.65	4599.15
437.84	4760.65
438.02	4638.94
438.21	4737.24
438.40	4596.81
438.58	4788.74
438.77	4875.34
438.96	4990.02
439.14	4994.70
439.33	5132.79
439.52	4990.02
439.70	5153.86
439.89	5097.69
440.08	5153.86
440.26	5172.58
440.45	5172.58
440.63	5364.51
440.82	5205.35
441.01	5186.63
441.19	5242.80
441.38	5444.09
441.57	5626.65
441.75	5591.54
441.94	5703.89
442.12	5720.27
442.31	5584.52
442.50	5748.36
442.68	5753.04
442.87	5692.18
443.05	5619.63
443.24	5570.48
443.43	5788.14
443.61	5757.72
443.80	5898.15
443.98	5760.06
444.17	5652.39
444.35	5743.67
444.54	5898.15
444.73	5994.11
444.91	5799.85
445.10	5865.38
445.28	5841.98
445.47	5809.21
445.65	5921.56
445.84	5856.02
446.02	5753.04
446.21	5832.62
446.39	5823.25
446.58	5977.73
446.77	5930.92
446.95	5757.72
447.14	5909.85
447.32	6031.56
447.51	5991.77
447.69	5851.34
447.88	5886.45
448.06	5891.13
448.25	5914.53
448.43	6024.54
448.62	5909.85
448.80	5998.79
448.99	6022.20
449.17	6069.01
449.36	6087.73
449.54	6223.48
449.73	6284.34
449.91	6251.57
450.10	6265.61
450.28	6466.90
450.46	6452.86
450.65	6272.64
450.83	6260.93
451.02	6354.55
451.20	6534.78
451.39	6413.07
451.57	6349.87
451.76	6326.47
451.94	6560.52
452.13	6310.08
452.31	6424.77
452.49	6342.85
452.68	6389.66
452.86	6427.11
453.05	6450.52
453.23	6623.72
453.42	6361.58
453.60	6614.35
453.78	6665.85
453.97	6609.67
454.15	6700.95
454.34	6548.82
454.52	6717.34
454.70	6871.81
454.89	6855.43
455.07	6862.45
455.26	6836.70
455.44	6913.94
455.62	6906.92
455.81	6991.18
455.99	6752.45
456.17	6963.09
456.36	6920.96
456.54	7012.24
456.73	7197.15
456.91	7372.69
457.09	7283.75
457.28	7358.64
457.46	7236.94
457.64	7260.34
457.83	7234.60
458.01	7204.17
458.19	7360.98
458.38	7360.98
458.56	7438.22
458.74	7295.45
458.93	7248.64
459.11	7389.07
459.29	7421.84
459.48	7527.16
459.66	7386.73
459.84	7702.70
460.03	7625.47
460.21	7583.34
460.39	7665.25
460.57	7714.41
460.76	7648.87
460.94	7747.17
461.12	7709.72
461.31	7805.69
461.49	7716.75
461.67	7730.79
461.85	7906.33
462.04	7674.62
462.22	8290.18
462.40	7939.10
462.59	7894.63
462.77	7880.58
462.95	8021.02
463.13	8018.68
463.32	8046.76
463.50	7978.89
463.68	8173.15
463.86	8002.29
464.05	7943.78
464.23	8018.68
464.41	8299.54
464.59	8135.70
464.78	8203.58
464.96	8236.35
465.14	8320.60
465.32	8231.66
465.50	8353.37
465.69	8336.99
465.87	8231.66
466.05	8189.53
466.23	8243.37
466.41	8580.40
466.60	8519.55
466.78	8231.66
466.96	8423.59
467.14	8439.97
467.32	8439.97
467.51	8641.26
467.69	8379.12
467.87	8535.93
468.05	8648.28
468.23	8531.25
468.41	8477.42
468.60	8634.24
468.78	8678.71
468.96	8470.40
469.14	8894.04
469.32	8908.08
469.50	8887.01
469.69	8788.71
469.87	8877.65
470.05	8821.48
470.23	8840.20
470.41	8678.71
470.59	9102.34
470.77	8933.82
470.95	9104.68
471.14	9247.46
471.32	9060.21
471.50	9135.11
471.68	9362.14
471.86	9078.94
472.04	9397.25
472.22	9514.28
472.40	9291.93
472.58	9465.13
472.77	9605.56
472.95	9603.22
473.13	9858.34
473.31	9591.52
473.49	9537.68
473.67	9556.41
473.85	9554.07
474.03	9673.43
474.21	10033.88
474.39	9926.21
474.57	9968.34
474.75	9984.73
474.93	9961.32
475.12	10141.54
475.30	10136.86
475.48	10216.44
475.66	10136.86
475.84	10155.58
476.02	10260.91
476.20	10291.34
476.38	10621.35
476.56	10824.98
476.74	10724.33
476.92	10588.58
477.10	10604.97
477.28	10916.26
477.46	10785.19
477.64	11274.36
477.82	10993.50
478.00	11564.59
478.18	11253.30
478.36	11389.05
478.54	11580.97
478.72	11557.57
478.90	11447.56
479.08	11824.39
479.26	11957.80
479.44	11922.69
479.62	11822.05
479.80	11962.48
479.98	12278.45
480.16	12519.53
480.34	12461.01
480.52	12676.34
480.70	12306.54
480.88	12145.04
481.06	12542.93
481.24	12610.81
481.41	12809.75
481.59	12816.77
481.77	13172.54
481.95	13107.00
482.13	13242.75
482.31	13327.01
482.49	13596.17
482.67	13579.79
482.85	13603.19
483.03	13834.91
483.21	13926.19
483.39	13926.19
483.57	13844.27
483.74	14193.01
483.92	13909.80
484.10	14031.51
484.28	14471.53
484.46	14691.54
484.64	14752.40
484.82	14583.88
485.00	14560.47
485.18	15066.03
485.35	15075.39
485.53	14984.11
485.71	15009.86
485.89	15466.26
486.07	15147.95
486.25	15435.83
486.43	15660.52
486.61	15531.80
486.78	15866.49
486.96	15929.69
487.14	16161.40
487.32	16238.64
487.50	16365.03
487.68	16624.83
487.85	16650.57
488.03	16702.06
488.21	17034.42
488.39	17085.91
488.57	17090.59
488.75	17500.19
488.92	17404.22
489.10	17535.29
489.28	17778.71
489.46	17937.87
489.64	17919.14
489.81	18513.64
489.99	18609.60
490.17	18750.03
490.35	18558.11
490.53	18415.34
490.70	18675.13
490.88	18808.54
491.06	19014.51
491.24	18869.40
491.41	18986.43
491.59	18956.00
491.77	19161.97
491.95	19445.17
492.13	19761.14
492.30	19906.26
492.48	19594.96
492.66	20063.07
492.84	19819.66
493.01	20121.59
493.19	19950.73
493.37	20400.11
493.54	20695.02
493.72	20685.65
493.90	20517.14
494.08	20833.11
494.25	20912.69
494.43	21158.44
494.61	21439.31
494.79	21366.75
494.96	21200.57
495.14	21390.16
495.32	21715.49
495.49	21589.10
495.67	21830.18
495.85	22223.39
496.02	22312.33
496.20	22199.98
496.38	22155.51
496.55	22431.69
496.73	23183.01
496.91	22684.47
497.09	22850.65
497.26	22850.65
497.44	22836.61
497.62	23089.38
497.79	23365.57
497.97	23007.47
498.14	23278.97
498.32	23571.54
498.50	23716.65
498.67	24154.33
498.85	23840.70
499.03	24226.89
499.20	24018.58
499.38	23873.46
499.56	24053.69
499.73	24566.26
499.91	24456.26
500.08	24524.13
500.26	24526.47
500.44	24458.60
500.61	24556.90
500.79	25097.56
500.97	24931.39
501.14	25081.18
501.32	25039.05
501.49	25029.69
501.67	25109.27
501.84	25111.61
502.02	25348.00
502.20	25497.80
502.37	25757.60
502.55	25294.17
502.72	25806.75
502.90	25886.32
503.07	26047.82
503.25	25996.33
503.43	26237.41
503.60	26115.70
503.78	26242.09
503.95	26284.22
504.13	26522.95
504.30	26581.46
504.48	26419.97
504.65	26965.31
504.83	26822.54
505.01	27091.70
505.18	26789.77
505.36	27005.10
505.53	27424.06
505.71	27543.42
505.88	27754.07
506.06	27154.90
506.23	27297.67
506.41	27056.59
506.58	27307.03
506.76	27349.16
506.93	27971.74
507.11	27845.35
507.28	28065.36
507.46	27672.15
507.63	27878.12
507.81	27922.59
507.98	28177.71
508.16	28070.04
508.33	28154.30
508.50	28301.76
508.68	28465.60
508.85	28884.55
509.03	28893.91
509.20	28594.32
509.38	28816.68
509.55	29062.43
509.73	29228.61
509.90	29322.23
510.08	29338.62
510.25	29113.92
510.42	28982.85
510.60	29364.36
510.77	29553.94
510.95	29546.92
511.12	29750.55
511.30	29722.46
511.47	29958.86
511.64	29811.40
511.82	30300.58
511.99	29846.51
512.17	29984.60
512.34	30136.74
512.51	30251.42
512.69	30558.03
512.86	30094.61
513.04	30511.22
513.21	30796.77
513.38	30415.26
513.56	30639.95
513.73	30628.25
513.90	30806.13
514.08	30462.07
514.25	30939.54
514.43	31007.42
514.60	30993.37
514.77	31075.29
514.95	31388.92
515.12	31283.60
515.29	31239.13
515.47	31569.15
515.64	31735.32
515.81	31475.52
515.99	31304.67
516.16	32025.55
516.33	31630.00
516.51	32011.51
516.68	31681.49
516.85	31470.84
517.03	31538.72
517.20	31985.76
517.37	32046.62
517.54	31917.89
517.72	31915.54
517.89	32283.01
518.06	32205.77
518.24	32039.59
518.41	32165.98
518.58	32610.68
518.75	32521.74
518.93	32732.39
519.10	32877.51
519.27	32910.27
519.45	32851.76
519.62	32959.42
519.79	33139.65
519.96	33350.29
520.14	33614.77
520.31	33254.33
520.48	33294.12
520.65	33097.52
520.83	33469.66
521.00	33895.64
521.17	33556.26
521.34	33914.36
521.52	33701.37
521.69	34101.61
521.86	34134.37
522.03	34075.86
522.20	34183.52
522.38	34375.45
522.55	34335.66
522.72	34213.95
522.89	34462.05
523.07	34328.64
523.24	34567.37
523.41	34342.68
523.58	34312.25
523.75	34981.65
523.92	34628.23
524.10	34773.34
524.27	35093.99
524.44	34859.94
524.61	35416.99
524.78	35365.49
524.96	35061.22
525.13	35323.36
525.30	35463.80
525.47	35421.67
525.64	35498.91
525.81	35227.40
525.98	35534.01
526.16	35112.72
526.33	35299.96
526.50	35590.19
526.67	35494.22
526.84	35470.82
527.01	35569.12
527.18	35335.07
527.36	35950.63
527.53	36404.69
527.70	36130.85
527.87	36058.29
528.04	35892.12
528.21	36088.72
528.38	36048.93
528.55	36453.84
528.72	36603.64
528.89	36655.13
529.07	36348.52
529.24	36495.97
529.41	36783.86
529.58	36868.12
529.75	36329.80
529.92	36690.24
530.09	37034.30
530.26	36842.37
530.43	36996.85
530.60	36479.59
530.77	36685.56
530.94	37043.66
531.11	37020.25
531.28	37612.41
531.46	37310.48
531.63	37631.13
531.80	37596.03
531.97	37315.16
532.14	37336.23
532.31	37141.96
532.48	37570.28
532.65	37528.15
532.82	37418.14
532.99	37691.99
533.16	36926.63
533.33	37907.32
533.50	37947.11
533.67	38033.71
533.84	37902.64
534.01	37769.22
534.18	38122.65
534.35	38178.82
534.52	37961.15
534.69	37750.50
534.86	37951.79
535.03	37991.58
535.20	38251.38
535.37	38522.88
535.54	38618.84
535.71	38342.66
535.88	38646.93
536.05	38319.25
536.22	38213.93
536.38	38941.83
536.55	38857.57
536.72	38953.54
536.89	38220.95
537.06	38745.23
537.23	38782.68
537.40	38946.51
537.57	38918.43
537.74	38958.22
537.91	39115.03
538.08	39246.10
538.25	38883.32
538.42	39093.97
538.59	39126.74
538.75	38848.21
538.92	39262.49
539.09	39150.14
539.26	39084.61
539.43	39131.42
539.60	39402.92
539.77	39349.09
539.94	39136.10
540.11	39236.74
540.28	39456.75
540.44	39353.77
540.61	39358.45
540.78	39278.87
540.95	39470.79
541.12	39468.45
541.29	39281.21
541.46	39246.10
541.62	39559.73
541.79	39763.36
541.96	39496.54
542.13	39730.59
542.30	40058.27
542.47	39887.41
542.63	40184.66
542.80	40360.20
542.97	40474.88
543.14	40374.24
543.31	40598.93
543.48	40297.00
543.64	40938.31
543.81	40690.21
543.98	40877.46
544.15	40531.06
544.32	40554.46
544.48	40985.12
544.65	40835.33
544.82	41104.49
544.99	40694.89
545.16	41167.68
545.32	40388.28
545.49	41060.02
545.66	41481.31
545.83	41125.55
546.00	41235.56
546.16	41088.10
546.33	41198.11
546.50	40811.92
546.67	40849.37
546.83	40907.88
547.00	40994.48
547.17	41429.82
547.34	40891.50
547.50	41364.29
547.67	41930.70
547.84	41214.49
548.00	41612.38
548.17	41830.05
548.34	41495.36
548.51	41909.63
548.67	41869.84
548.84	42181.13
549.01	41900.27
549.18	41184.07
549.34	41816.01
549.51	41710.69
549.68	42029.00
549.84	42398.80
550.01	41813.67
550.18	41420.46
550.34	41909.63
550.51	41771.54
550.68	41717.71
550.84	41593.66
551.01	42160.07
551.18	41872.18
551.34	42164.75
551.51	42265.39
551.68	42312.20
551.84	42342.63
552.01	42017.30
552.18	42043.04
552.34	41921.34
552.51	42295.82
552.68	42431.57
552.84	42389.44
553.01	42951.17
553.18	42328.59
553.34	42452.64
553.51	42110.92
553.67	42520.51
553.84	42696.05
554.01	42382.42
554.17	42684.35
554.34	42890.32
554.51	42714.78
554.67	43089.26
554.84	42569.66
555.00	42941.81
555.17	42707.76
555.33	42972.24
555.50	42719.46
555.67	42993.30
555.83	42857.55
556.00	42827.12
556.16	43358.42
556.33	42747.54
556.50	43157.14
556.66	43213.31
556.83	42995.64
556.99	42834.14
557.16	43145.44
557.32	42878.61
557.49	43283.53
557.65	43012.02
557.82	43679.08
557.98	43138.41
558.15	43051.81
558.32	43636.95
558.48	43562.05
558.65	42988.62
558.81	43278.85
558.98	43157.14
559.14	43194.59
559.31	42986.28
559.47	42880.95
559.64	43391.19
559.80	43962.28
559.97	44123.78
560.13	43452.05
560.30	43629.93
560.46	43601.84
560.63	43323.32
560.79	43367.79
560.96	43910.79
561.12	43232.04
561.29	43796.10
561.45	43578.43
561.61	43592.48
561.78	43512.90
561.94	43599.50
562.11	43728.23
562.27	43768.02
562.44	43353.74
562.60	43915.47
562.77	43753.97
562.93	43796.10
563.10	44006.75
563.26	43267.14
563.42	43810.15
563.59	43833.55
563.75	43716.53
563.92	43955.26
564.08	43751.63
564.24	43849.94
564.41	44133.14
564.57	43515.24
564.74	43681.42
564.90	43739.93
565.07	43632.27
565.23	44453.79
565.39	43599.50
565.56	44226.76
565.72	44034.84
565.88	43971.64
566.05	43978.67
566.21	44168.25
566.38	44065.27
566.54	44121.44
566.70	44432.73
566.87	44032.50
567.03	44252.51
567.19	44318.04
567.36	44048.88
567.52	43686.10
567.68	44421.03
567.85	43910.79
568.01	44093.35
568.17	43538.65
568.34	44233.78
568.50	43917.81
568.66	43658.01
568.83	43885.04
568.99	44072.29
569.15	43885.04
569.32	44282.94
569.48	43962.28
569.64	44278.25
569.81	44601.25
569.97	44535.71
570.13	44278.25
570.30	44086.33
570.46	44149.53
570.62	44095.69
570.78	44428.05
570.95	44147.18
571.11	44355.49
571.27	44273.57
571.43	44559.12
571.60	44463.16
571.76	44605.93
571.92	44318.04
572.09	44100.37
572.25	44406.98
572.41	44069.95
572.57	44472.52
572.74	44931.26
572.90	44989.78
573.06	44533.37
573.22	44584.86
573.38	44636.36
573.55	44741.68
573.71	44701.89
573.87	43995.05
574.03	44023.14
574.20	44507.63
574.36	44287.62
574.52	44493.58
574.68	44460.82
574.84	44605.93
575.01	44645.72
575.17	44107.40
575.33	44158.89
575.49	44027.82
575.65	44619.97
575.82	44678.49
575.98	44484.22
576.14	44748.70
576.30	44722.96
576.46	44734.66
576.62	44704.23
576.79	44275.91
576.95	44311.02
577.11	44619.97
577.27	44802.53
577.43	44587.21
577.59	44343.79
577.75	44301.66
577.92	44463.16
578.08	44034.84
578.24	44261.87
578.40	44383.58
578.56	44765.09
578.72	44449.11
578.88	44175.27
579.04	44514.65
579.21	44421.03
579.37	44292.30
579.53	44641.04
579.69	44598.91
579.85	44727.64
580.01	44388.26
580.17	44774.45
580.33	44872.75
580.49	44849.35
580.65	44524.01
580.82	44631.68
580.98	44699.55
581.14	44360.17
581.30	44917.22
581.46	44839.98
581.62	44928.92
581.78	44374.22
581.94	44966.37
582.10	44879.77
582.26	44898.50
582.42	44828.28
582.58	44493.58
582.74	44694.87
582.90	44423.37
583.06	44924.24
583.22	44708.91
583.38	44720.62
583.54	44451.45
583.70	44851.69
583.86	44608.27
584.02	44666.78
584.18	44601.25
584.34	44610.61
584.50	44540.39
584.66	44421.03
584.82	44638.70
584.98	44896.16
585.14	44601.25
585.30	44641.04
585.46	44392.94
585.62	44828.28
585.78	44720.62
585.94	44783.81
586.10	44493.58
586.26	44781.47
586.42	44608.27
586.58	44676.15
586.74	44900.84
586.90	44570.82
587.06	44912.54
587.22	44343.79
587.38	44596.57
587.54	45013.18
587.70	45090.42
587.86	45219.15
588.02	44772.11
588.18	44739.34
588.34	44804.88
588.49	44451.45
588.65	44720.62
588.81	44554.44
588.97	44264.21
589.13	44844.66
589.29	44807.22
589.45	44774.45
589.61	44582.52
589.77	45523.42
589.93	44378.90
590.08	44947.65
590.24	44966.37
