SpectraSuite Data File
++++++++++++++++++++++++++++++++++++
Date: Fri Oct 25 11:33:54 EDT 2013
User: price-jones
Dark Spectrum Present: No
Reference Spectrum Present: No
Number of Sampled Component Spectra: 1
Spectrometers: USB2+H05261
Integration Time (usec): 100000 (USB2+H05261)
Spectra Averaged: 1 (USB2+H05261)
Boxcar Smoothing: 0 (USB2+H05261)
Correct for Electrical Dark: No (USB2+H05261)
Strobe/Lamp Enabled: No (USB2+H05261)
Correct for Detector Non-linearity: No (USB2+H05261)
Correct for Stray Light: No (USB2+H05261)
Number of Pixels in Processed Spectrum: 2048
>>>>>Begin Processed Spectral Data<<<<<
365.73	250.44
365.92	250.44
366.12	250.44
366.32	184.90
366.52	210.65
366.72	166.18
366.91	140.43
367.11	124.05
367.31	182.56
367.51	196.60
367.70	180.22
367.90	142.77
368.10	168.52
368.30	257.46
368.49	234.05
368.69	180.22
368.89	196.60
369.09	159.16
369.28	217.67
369.48	182.56
369.68	238.73
369.87	196.60
370.07	299.59
370.27	299.59
370.47	301.93
370.66	505.56
370.86	512.58
371.06	524.28
371.25	552.37
371.45	521.94
371.65	580.45
371.84	454.06
372.04	528.96
372.24	531.30
372.44	641.31
372.63	578.11
372.83	622.58
373.03	645.99
373.22	592.16
373.42	603.86
373.62	669.39
373.81	674.07
374.01	702.16
374.21	681.10
374.40	641.31
374.60	655.35
374.79	622.58
374.99	657.69
375.19	662.37
375.38	709.18
375.58	704.50
375.78	594.50
375.97	727.91
376.17	650.67
376.37	711.52
376.56	645.99
376.76	678.76
376.95	613.22
377.15	645.99
377.35	676.41
377.54	711.52
377.74	702.16
377.93	671.73
378.13	657.69
378.33	711.52
378.52	685.78
378.72	732.59
378.91	720.88
379.11	711.52
379.31	791.10
379.50	725.57
379.70	765.36
379.89	755.99
380.09	685.78
380.28	746.63
380.48	734.93
380.68	739.61
380.87	734.93
381.07	737.27
381.26	765.36
381.46	753.65
381.65	699.82
381.85	795.78
382.04	763.01
382.24	833.23
382.43	751.31
382.63	746.63
382.83	753.65
383.02	753.65
383.22	858.98
383.41	849.61
383.61	826.21
383.80	777.06
384.00	755.99
384.19	851.96
384.39	777.06
384.58	798.12
384.78	875.36
384.97	807.48
385.17	812.17
385.36	788.76
385.56	840.25
385.75	889.40
385.95	842.59
386.14	875.36
386.34	884.72
386.53	873.02
386.72	875.36
386.92	905.79
387.11	912.81
387.31	828.55
387.50	870.68
387.70	870.68
387.89	800.46
388.09	898.77
388.28	854.30
388.48	835.57
388.67	915.15
388.86	1048.56
389.06	1015.79
389.25	849.61
389.45	961.96
389.64	973.66
389.84	947.92
390.03	938.55
390.22	983.02
390.42	990.05
390.61	971.32
390.81	875.36
391.00	837.91
391.19	1095.37
391.39	992.39
391.58	1011.11
391.78	1008.77
391.97	1006.43
392.16	999.41
392.36	1034.52
392.55	1097.71
392.75	1034.52
392.94	1046.22
393.13	1043.88
393.33	971.32
393.52	947.92
393.71	1128.14
393.91	1086.01
394.10	980.68
394.29	1135.16
394.49	1151.54
394.68	1132.82
394.88	1076.65
395.07	1165.59
395.26	1118.78
395.46	1036.86
395.65	1053.24
395.84	1137.50
396.04	1167.93
396.23	1205.38
396.42	1188.99
396.62	1144.52
396.81	1198.35
397.00	1160.91
397.19	1233.46
397.39	1093.03
397.58	1224.10
397.77	1200.69
397.97	1291.98
398.16	1289.64
398.35	1315.38
398.55	1284.95
398.74	1226.44
398.93	1324.74
399.12	1317.72
399.32	1352.83
399.51	1350.49
399.70	1327.08
399.90	1387.94
400.09	1345.81
400.28	1451.13
400.47	1448.79
400.67	1378.58
400.86	1411.34
401.05	1416.02
401.24	1460.49
401.44	1420.71
401.63	1437.09
401.82	1458.15
402.01	1474.54
402.21	1460.49
402.40	1549.43
402.59	1547.09
402.78	1479.22
402.97	1413.68
403.17	1582.20
403.36	1462.83
403.55	1535.39
403.74	1610.29
403.93	1483.90
404.13	1610.29
404.32	1526.03
404.51	1563.48
404.70	1577.52
404.89	1577.52
405.09	1645.40
405.28	1619.65
405.47	1727.32
405.66	1645.40
405.85	1762.42
406.05	1621.99
406.24	1757.74
406.43	1703.91
406.62	1806.89
406.81	1881.79
407.00	1823.28
407.20	1755.40
407.39	1722.63
407.58	1846.68
407.77	1923.92
407.96	1820.94
408.15	1856.04
408.34	1851.36
408.54	1902.86
408.73	1860.73
408.92	1863.07
409.11	1912.22
409.30	1886.47
409.49	1994.14
409.68	2040.95
409.87	2118.18
410.07	1991.80
410.26	2176.70
410.45	2083.08
410.64	2043.29
410.83	2094.78
411.02	2153.29
411.21	2125.21
411.40	2087.76
411.59	2176.70
411.78	2242.23
411.98	2207.13
412.17	2211.81
412.36	2258.62
412.55	2232.87
412.74	2324.15
412.93	2300.75
413.12	2321.81
413.31	2441.18
413.50	2415.43
413.69	2305.43
413.88	2436.50
414.07	2473.95
414.26	2436.50
414.45	2427.14
414.64	2565.23
414.83	2499.69
415.02	2497.35
415.22	2700.98
415.41	2698.64
415.60	2602.68
415.79	2628.42
415.98	2689.28
416.17	2773.53
416.36	2626.08
416.55	2668.21
416.74	2698.64
416.93	2747.79
417.12	2829.71
417.31	2867.16
417.50	2906.95
417.69	2920.99
417.88	2799.28
418.07	2899.92
418.26	2942.05
418.45	3012.27
418.64	3145.68
418.83	3038.02
419.02	2988.86
419.21	3129.30
419.39	3075.46
419.58	3112.91
419.77	3124.62
419.96	3157.38
420.15	3166.74
420.34	3059.08
420.53	3059.08
420.72	3215.90
420.91	3176.11
421.10	3199.51
421.29	3279.09
421.48	3141.00
421.67	3229.94
421.86	3215.90
422.05	3332.92
422.24	3325.90
422.43	3358.67
422.61	3405.48
422.80	3428.88
422.99	3342.28
423.18	3435.91
423.37	3372.71
423.56	3431.23
423.75	3335.26
423.94	3372.71
424.13	3190.15
424.32	3204.19
424.50	3370.37
424.69	3569.32
424.88	3592.72
425.07	3398.46
425.26	3335.26
425.45	3520.17
425.64	3368.03
425.83	3442.93
426.01	3541.23
426.20	3433.57
426.39	3529.53
426.58	3398.46
426.77	3421.86
426.96	3541.23
427.15	3485.06
427.33	3583.36
427.52	3503.78
427.71	3630.17
427.90	3613.79
428.09	3756.56
428.28	3627.83
428.46	3695.71
428.65	3861.88
428.84	3726.13
429.03	3726.13
429.22	3588.04
429.40	3789.33
429.59	3712.09
429.78	3585.70
429.97	3531.87
430.16	3707.41
430.34	3894.65
430.53	3861.88
430.72	3932.10
430.91	3857.20
431.10	3918.06
431.28	4007.00
431.47	3976.57
431.66	4011.68
431.85	3899.33
432.03	3925.08
432.22	3995.29
432.41	3992.95
432.60	4077.21
432.79	4100.62
432.97	4079.55
433.16	4138.07
433.35	3901.67
433.54	4063.17
433.72	4236.37
433.91	4327.65
434.10	4294.88
434.28	4107.64
434.47	4184.88
434.66	4334.67
434.85	4374.46
435.03	4229.35
435.22	4161.47
435.41	4451.70
435.59	4512.55
435.78	4432.97
435.97	4470.42
436.16	4407.23
436.34	4346.37
436.53	4360.42
436.72	4425.95
436.90	4327.65
437.09	4442.34
437.28	4482.13
437.46	4573.41
437.65	4512.55
437.84	4528.94
438.02	4734.90
438.21	4458.72
438.40	4631.92
438.58	4692.77
438.77	4692.77
438.96	4624.90
439.14	4667.03
439.33	4873.00
439.52	4931.51
439.70	4873.00
439.89	4788.74
440.08	4865.97
440.26	4898.74
440.45	5018.11
440.63	5151.52
440.82	5219.39
441.01	5256.84
441.19	5137.48
441.38	5242.80
441.57	5116.41
441.75	5284.93
441.94	5359.83
442.12	5343.44
442.31	5446.43
442.50	5467.49
442.68	5509.62
442.87	5448.77
443.05	5434.72
443.24	5500.26
443.43	5521.32
443.61	5661.76
443.80	5696.86
443.98	5542.39
444.17	5238.12
444.35	5717.93
444.54	5673.46
444.73	5528.35
444.91	5420.68
445.10	5753.04
445.28	5593.88
445.47	5511.96
445.65	5551.75
445.84	5682.82
446.02	5825.59
446.21	5844.32
446.39	5626.65
446.58	5694.52
446.77	5607.92
446.95	5628.99
447.14	5619.63
447.32	5853.68
447.51	5746.02
447.69	5746.02
447.88	5591.54
448.06	5767.08
448.25	5694.52
448.43	5764.74
448.62	5666.44
448.80	5809.21
448.99	5809.21
449.17	5907.51
449.36	5912.19
449.54	5909.85
449.73	6073.69
449.91	5914.53
450.10	5928.58
450.28	5980.07
450.46	6073.69
450.65	5975.39
450.83	6026.88
451.02	6022.20
451.20	6298.38
451.39	6008.16
451.57	6097.10
451.76	6050.28
451.94	6141.57
452.13	6251.57
452.31	6267.95
452.49	6120.50
452.68	6279.66
452.86	6061.99
453.05	6392.00
453.23	6387.32
453.42	6406.05
453.60	6214.12
453.78	6326.47
453.97	6359.24
454.15	6146.25
454.34	6237.53
454.52	6429.45
454.70	6562.86
454.89	6558.18
455.07	6637.76
455.26	6600.31
455.44	6745.42
455.62	6565.20
455.81	6670.53
455.99	6637.76
456.17	6836.70
456.36	6586.27
456.54	6839.05
456.73	6834.36
456.91	6897.56
457.09	7066.08
457.28	7002.88
457.46	6684.57
457.64	7089.48
457.83	7019.27
458.01	6925.65
458.19	7059.06
458.38	6998.20
458.56	7087.14
458.74	7164.38
458.93	6923.30
459.11	7220.55
459.29	7157.36
459.48	7206.51
459.66	7138.63
459.84	7360.98
460.03	7585.68
460.21	7358.64
460.39	7365.67
460.57	7428.86
460.76	7290.77
460.94	7550.57
461.12	7353.96
461.31	7351.62
461.49	7433.54
461.67	7419.50
461.85	7723.77
462.04	7487.37
462.22	7934.42
462.40	7772.92
462.59	7695.68
462.77	7623.12
462.95	7756.54
463.13	7744.83
463.32	7772.92
463.50	7824.41
463.68	7824.41
463.86	7903.99
464.05	7768.24
464.23	7857.18
464.41	7878.24
464.59	7674.62
464.78	8318.26
464.96	7927.39
465.14	7857.18
465.32	8013.99
465.50	7999.95
465.69	8306.56
465.87	8126.34
466.05	8121.66
466.23	8086.55
466.41	8219.96
466.60	8116.98
466.78	7801.01
466.96	8236.35
467.14	8018.68
467.32	8116.98
467.51	8329.97
467.69	8084.21
467.87	8374.44
468.05	8388.48
468.23	8285.50
468.41	8217.62
468.60	8500.83
468.78	8418.91
468.96	8262.09
469.14	8463.38
469.32	8596.79
469.50	8404.86
469.69	8507.85
469.87	8755.94
470.05	8718.50
470.23	8695.09
470.41	8592.11
470.59	8865.95
470.77	8875.31
470.95	8800.41
471.14	8915.10
471.32	8844.88
471.50	8938.51
471.68	8940.85
471.86	9020.42
472.04	9165.54
472.22	9394.91
472.40	9165.54
472.58	9048.51
472.77	9172.56
472.95	9366.82
473.13	9872.38
473.31	9345.76
473.49	9287.25
473.67	9406.61
473.85	9430.02
474.03	9799.82
474.21	9600.88
474.39	9792.80
474.57	9785.78
474.75	9951.96
474.93	10052.60
475.12	9987.07
475.30	9940.26
475.48	9977.70
475.66	10080.69
475.84	10080.69
476.02	10298.36
476.20	10125.16
476.38	10356.87
476.56	10717.31
476.74	10324.10
476.92	10230.48
477.10	10340.49
477.28	10808.59
477.46	10565.18
477.64	10689.23
477.82	10867.11
478.00	11335.21
478.18	10998.18
478.36	11309.47
478.54	11405.43
478.72	11304.79
478.90	11272.02
479.08	11639.48
479.26	11356.28
479.44	11325.85
479.62	11723.74
479.80	11974.18
479.98	11903.96
480.16	12025.67
480.34	12072.48
480.52	12135.68
480.70	12098.23
480.88	12116.95
481.06	12358.03
481.24	12262.07
481.41	12896.35
481.59	12655.28
481.77	12549.95
481.95	12910.40
482.13	12917.42
482.31	12734.85
482.49	13111.68
482.67	13289.56
482.85	13348.08
483.03	13493.19
483.21	13575.11
483.39	13518.93
483.57	13823.20
483.74	14057.26
483.92	13994.06
484.10	14022.15
484.28	14174.28
484.46	14389.61
484.64	14576.86
484.82	14085.34
485.00	14567.49
485.18	14792.19
485.35	14869.42
485.53	15176.03
485.71	14949.00
485.89	15040.28
486.07	15201.78
486.25	15463.92
486.43	15215.82
486.61	15892.24
486.78	15580.95
486.96	15751.81
487.14	15990.54
487.32	15805.64
487.50	16018.63
487.68	16446.94
487.85	16430.56
488.03	16676.32
488.21	17144.42
488.39	16407.16
488.57	16891.65
488.75	16961.86
488.92	17334.01
489.10	17380.82
489.28	17380.82
489.46	17923.82
489.64	17799.77
489.81	17923.82
489.99	18134.47
490.17	17858.29
490.35	18153.20
490.53	18277.24
490.70	18707.90
490.88	18420.02
491.06	18925.57
491.24	18768.76
491.41	18899.83
491.59	18750.03
491.77	18895.14
491.95	19346.87
492.13	19562.20
492.30	19873.49
492.48	19580.92
492.66	19840.72
492.84	20011.58
493.01	19917.96
493.19	19871.15
493.37	20372.02
493.54	20280.74
493.72	20636.50
493.90	20556.93
494.08	20503.09
494.25	20802.68
494.43	20851.83
494.61	20886.94
494.79	21097.59
494.96	21202.91
495.14	21144.40
495.32	21472.07
495.49	21748.26
495.67	21558.67
495.85	21797.41
496.02	21984.65
496.20	22202.32
496.38	22363.82
496.55	22265.52
496.73	22609.58
496.91	22160.19
497.09	22689.15
497.26	22499.57
497.44	22864.69
497.62	22890.44
497.79	23283.65
497.97	23302.37
498.14	23482.59
498.32	23358.55
498.50	23679.20
498.67	23826.65
498.85	23489.62
499.03	23838.36
499.20	23796.23
499.38	23871.12
499.56	24102.84
499.73	24252.63
499.91	24577.97
500.08	24634.14
500.26	24556.90
500.44	24734.78
500.61	24657.54
500.79	24400.08
500.97	24826.06
501.14	25179.48
501.32	24900.96
501.49	24849.47
501.67	25221.61
501.84	25156.08
502.02	24926.71
502.20	25462.69
502.37	25497.80
502.55	25631.21
502.72	26008.03
502.90	25654.61
503.07	25687.38
503.25	26008.03
503.43	26125.06
503.60	26206.98
503.78	26291.24
503.95	26316.98
504.13	26438.69
504.30	26656.36
504.48	25919.09
504.65	26497.20
504.83	26862.33
505.01	26644.66
505.18	26895.10
505.36	27058.93
505.53	27154.90
505.71	27328.10
505.88	27260.22
506.06	27133.83
506.23	27529.38
506.41	27632.36
506.58	27709.60
506.76	27487.25
506.93	28044.30
507.11	27477.89
507.28	27775.14
507.46	27798.54
507.63	28088.77
507.81	28095.79
507.98	28128.56
508.16	28460.91
508.33	28362.61
508.50	28510.07
508.68	28694.97
508.85	28615.39
509.03	28493.68
509.20	28484.32
509.38	29369.04
509.55	28879.87
509.73	29317.55
509.90	29170.10
510.08	29010.94
510.25	29216.91
510.42	29376.06
510.60	29329.25
510.77	29654.59
510.95	29956.52
511.12	29762.25
511.30	29434.58
511.47	29811.40
511.64	29731.83
511.82	30094.61
511.99	30403.56
512.17	30183.55
512.34	30139.08
512.51	30452.71
512.69	30712.51
512.86	30705.49
513.04	30944.22
513.21	30658.68
513.38	30764.00
513.56	31089.34
513.73	30792.09
513.90	31246.15
514.08	31143.17
514.25	31445.10
514.43	31548.08
514.60	31297.64
514.77	31379.56
514.95	31630.00
515.12	31101.04
515.29	31236.79
515.47	32006.83
515.64	32006.83
515.81	31618.30
515.99	32051.30
516.16	32287.69
516.33	32119.17
516.51	32114.49
516.68	32191.73
516.85	31967.04
517.03	32606.00
517.20	32481.95
517.37	32535.79
517.54	32496.00
517.72	33205.18
517.89	32786.22
518.06	32924.32
518.24	32856.44
518.41	32486.64
518.58	32968.79
518.75	32903.25
518.93	33237.95
519.10	33001.55
519.27	33546.90
519.45	32989.85
519.62	33481.36
519.79	33329.23
519.96	33251.99
520.14	33535.20
520.31	33369.02
520.48	33574.98
520.65	33752.87
520.83	34113.31
521.00	34132.03
521.17	33888.62
521.34	34085.22
521.52	34330.98
521.69	34330.98
521.86	34246.72
522.03	34527.58
522.20	34766.32
522.38	35075.27
522.55	34429.28
522.72	34955.90
522.89	34998.03
523.07	35012.07
523.24	34911.43
523.41	35101.01
523.58	34871.64
523.75	34991.01
523.92	35175.91
524.10	35365.49
524.27	35182.93
524.44	35480.18
524.61	35779.77
524.78	35828.92
524.96	35810.20
525.13	35775.09
525.30	36154.26
525.47	35962.33
525.64	35627.63
525.81	36510.02
525.98	36187.02
526.16	36121.49
526.33	36039.57
526.50	36297.03
526.67	36268.94
526.84	36395.33
527.01	36542.78
527.18	36311.07
527.36	36437.46
527.53	36610.66
527.70	36601.30
527.87	36943.02
528.04	36514.70
528.21	36910.25
528.38	36875.14
528.55	37298.78
528.72	37074.09
528.89	37083.45
529.07	36926.63
529.24	36856.42
529.41	37567.94
529.58	36833.01
529.75	37055.36
529.92	37160.69
530.09	37214.52
530.26	37076.43
530.43	37858.17
530.60	37404.10
530.77	37376.01
530.94	37427.51
531.11	37343.25
531.28	37425.17
531.46	37851.14
531.63	37970.51
531.80	37848.80
531.97	37699.01
532.14	37689.65
532.31	38146.05
532.48	38139.03
532.65	38438.62
532.82	38356.70
532.99	38520.54
533.16	38253.72
533.33	38539.26
533.50	38298.19
533.67	38361.38
533.84	38459.68
534.01	38773.31
534.18	38368.40
534.35	38993.32
534.52	38752.25
534.69	38785.02
534.86	39143.12
535.03	39093.97
535.20	39012.05
535.37	39318.66
535.54	38843.53
535.71	39037.80
535.88	39157.16
536.05	39023.75
536.22	39526.97
536.38	39512.92
536.55	39428.66
536.72	39442.71
536.89	39522.29
537.06	39538.67
537.23	39655.70
537.40	39264.83
537.57	39180.57
537.74	39522.29
537.91	40240.83
538.08	39377.17
538.25	39728.25
538.42	39810.17
538.59	40334.45
538.75	39824.22
538.92	40257.21
539.09	40341.47
539.26	40502.97
539.43	40282.96
539.60	40046.57
539.77	40428.07
539.94	40385.94
540.11	40533.40
540.28	40526.38
540.44	40437.44
540.61	40509.99
540.78	40477.22
540.95	40776.81
541.12	40964.06
541.29	40580.21
541.46	40395.31
541.62	40753.41
541.79	41057.68
541.96	40971.08
542.13	40849.37
542.30	40776.81
542.47	41055.34
542.63	40879.80
542.80	41350.24
542.97	41631.11
543.14	41469.61
543.31	41415.78
543.48	41652.17
543.64	41989.21
543.81	41808.99
543.98	41490.68
544.15	41542.17
544.32	41820.69
544.48	42073.47
544.65	42124.96
544.82	42246.67
544.99	41813.67
545.16	42073.47
545.32	42031.34
545.49	42204.54
545.66	42131.98
545.83	42408.17
546.00	42560.30
546.16	42188.16
546.33	42066.45
546.50	41762.18
546.67	42794.36
546.83	41841.76
547.00	42263.05
547.17	42312.20
547.34	42045.38
547.50	42717.12
547.67	42902.02
547.84	42520.51
548.00	42546.26
548.17	43414.60
548.34	42953.51
548.51	43440.34
548.67	43058.84
548.84	42773.29
549.01	42965.21
549.18	42698.39
549.34	43199.27
549.51	43229.69
549.68	43388.85
549.84	42850.53
550.01	43257.78
550.18	43136.07
550.34	42895.00
550.51	43435.66
550.68	43819.51
550.84	43217.99
551.01	43164.16
551.18	43189.91
551.34	43313.95
551.51	43807.81
551.68	43342.04
551.84	43180.54
552.01	43124.37
552.18	43756.32
552.34	43201.61
552.51	43653.33
552.68	44172.93
552.84	43487.15
553.01	44023.14
553.18	43758.66
553.34	44467.84
553.51	43459.07
553.67	44030.16
553.84	43796.10
554.01	44091.01
554.17	43988.03
554.34	44465.50
554.51	44018.46
554.67	44554.44
554.84	44715.93
555.00	44128.46
555.17	44222.08
555.33	44184.63
555.50	44638.70
555.67	44648.06
555.83	44140.16
556.00	44678.49
556.16	45202.77
556.33	44746.36
556.50	44156.55
556.66	44669.12
556.83	44210.38
556.99	45298.73
557.16	44732.32
557.32	45090.42
557.49	44954.67
557.65	44435.07
557.82	44947.65
557.98	44432.73
558.15	44854.03
558.32	45071.70
558.48	44961.69
558.65	44488.90
558.81	44765.09
558.98	44720.62
559.14	44870.41
559.31	44907.86
559.47	45020.20
559.64	45118.51
559.80	45151.27
559.97	45495.33
560.13	44245.49
560.30	44802.53
560.46	45406.39
560.63	45322.13
560.79	45249.58
560.96	45401.71
561.12	45394.69
561.29	45462.57
561.45	45535.12
561.61	45570.23
561.78	45076.38
561.94	45329.16
562.11	44987.44
562.27	45296.39
562.44	45251.92
562.60	45481.29
562.77	45563.21
562.93	45165.32
563.10	45485.97
563.26	45607.68
563.42	45982.16
563.59	45411.07
563.75	45226.17
563.92	45577.25
564.08	45851.09
564.24	45495.33
564.41	45684.92
564.57	45504.70
564.74	45823.01
564.90	45404.05
565.07	46092.17
565.23	45361.92
565.39	45883.86
565.56	46356.65
565.72	45883.86
565.88	45860.46
566.05	45717.68
566.21	45830.03
566.38	46014.93
566.54	45914.29
566.70	45638.11
566.87	46330.90
567.03	45708.32
567.19	46260.69
567.36	46225.58
567.52	45633.42
567.68	46387.08
567.85	45991.53
568.01	46267.71
568.17	46286.43
568.34	46176.43
568.50	46202.18
568.66	46270.05
568.83	46099.19
568.99	46366.01
569.15	45900.25
569.32	46394.10
569.48	45841.73
569.64	46719.43
569.81	46251.33
569.97	46225.58
570.13	46457.29
570.30	45947.06
570.46	46115.58
570.62	46443.25
570.78	46691.35
570.95	46286.43
571.11	46719.43
571.27	45949.40
571.43	46344.95
571.60	45925.99
571.76	46101.53
571.92	46506.44
572.09	46256.01
572.25	46021.95
572.41	46185.79
572.57	46419.84
572.74	47082.22
572.90	46644.54
573.06	46630.49
573.22	46635.17
573.38	46611.77
573.55	46766.24
573.71	46766.24
573.87	46754.54
574.03	46256.01
574.20	46986.25
574.36	46347.29
574.52	47084.56
574.68	46738.16
574.84	46927.74
575.01	46789.65
575.17	46756.88
575.33	46920.72
575.49	46506.44
575.65	46990.94
575.82	46780.29
575.98	46822.42
576.14	46930.08
576.30	46967.53
576.46	47004.98
576.62	46546.23
576.79	46656.24
576.95	46490.06
577.11	46534.53
577.27	46614.11
577.43	46674.96
577.59	46822.42
577.75	47042.43
577.92	46604.75
578.08	46567.30
578.24	47044.77
578.40	47063.49
578.56	46810.71
578.72	46831.78
578.88	46927.74
579.04	47035.41
579.21	46803.69
579.37	46630.49
579.53	47084.56
579.69	46726.46
579.85	46366.01
580.01	46354.31
580.17	46497.08
580.33	47093.92
580.49	47028.38
580.65	47061.15
580.82	47213.29
580.98	46698.37
581.14	46597.73
581.30	47189.88
581.46	46773.27
581.62	47035.41
581.78	46958.17
581.94	47257.76
582.10	46714.75
582.26	46953.49
582.42	46820.08
582.58	46974.55
582.74	47140.73
582.90	47178.18
583.06	47236.69
583.22	47007.32
583.38	46658.58
583.54	47000.30
583.70	46696.03
583.86	47201.58
584.02	46571.98
584.18	47004.98
584.34	47629.90
584.50	47098.60
584.66	47400.53
584.82	47037.75
584.98	47374.78
585.14	47292.86
585.30	47145.41
585.46	47140.73
585.62	46974.55
585.78	47143.07
585.94	46855.18
586.10	46976.89
586.26	46733.48
586.42	46808.37
586.58	46679.64
586.74	46939.44
586.90	46499.42
587.06	47016.68
587.22	47007.32
587.38	46862.21
587.54	47320.95
587.70	47597.13
587.86	47058.81
588.02	46550.91
588.18	46885.61
588.34	47033.07
588.49	47381.80
588.65	47021.36
588.81	46890.29
588.97	47192.22
589.13	46834.12
589.29	47290.52
589.45	47353.72
589.61	47030.72
589.77	47243.71
589.93	47414.57
590.08	47334.99
