SpectraSuite Data File
++++++++++++++++++++++++++++++++++++
Date: Fri Oct 25 10:43:43 EDT 2013
User: price-jones
Dark Spectrum Present: No
Reference Spectrum Present: No
Number of Sampled Component Spectra: 1
Spectrometers: USB2+H05261
Integration Time (usec): 100000 (USB2+H05261)
Spectra Averaged: 1 (USB2+H05261)
Boxcar Smoothing: 0 (USB2+H05261)
Correct for Electrical Dark: No (USB2+H05261)
Strobe/Lamp Enabled: No (USB2+H05261)
Correct for Detector Non-linearity: No (USB2+H05261)
Correct for Stray Light: No (USB2+H05261)
Number of Pixels in Processed Spectrum: 2048
>>>>>Begin Processed Spectral Data<<<<<
365.73	180.22
365.92	180.22
366.12	180.22
366.32	98.30
366.52	0.00
366.72	42.13
366.91	0.00
367.11	0.00
367.31	0.00
367.51	16.38
367.70	0.00
367.90	0.00
368.10	32.77
368.30	4.68
368.49	0.00
368.69	67.88
368.89	88.94
369.09	39.79
369.28	42.13
369.48	72.56
369.68	114.69
369.87	88.94
370.07	46.81
370.27	110.01
370.47	236.39
370.66	365.12
370.86	395.55
371.06	507.90
371.25	451.72
371.45	414.27
371.65	468.11
371.84	416.62
372.04	512.58
372.24	449.38
372.44	440.02
372.63	479.81
372.83	505.56
373.03	519.60
373.22	585.13
373.42	601.52
373.62	575.77
373.81	571.09
374.01	585.13
374.21	617.90
374.40	472.79
374.60	594.50
374.79	610.88
374.99	582.79
375.19	589.82
375.38	592.16
375.58	557.05
375.78	608.54
375.97	617.90
376.17	627.26
376.37	582.79
376.56	578.11
376.76	587.47
376.95	519.60
377.15	662.37
377.35	533.64
377.54	688.12
377.74	613.22
377.93	596.84
378.13	580.45
378.33	559.39
378.52	634.29
378.72	685.78
378.91	641.31
379.11	653.01
379.31	653.01
379.50	650.67
379.70	653.01
379.89	730.25
380.09	627.26
380.28	777.06
380.48	678.76
380.68	695.14
380.87	622.58
381.07	772.38
381.26	615.56
381.46	779.40
381.65	662.37
381.85	734.93
382.04	676.41
382.24	681.10
382.43	770.04
382.63	711.52
382.83	739.61
383.02	753.65
383.22	823.87
383.41	678.76
383.61	802.80
383.80	746.63
384.00	765.36
384.19	772.38
384.39	770.04
384.58	809.83
384.78	884.72
384.97	833.23
385.17	880.04
385.36	833.23
385.56	849.61
385.75	809.83
385.95	793.44
386.14	779.40
386.34	812.17
386.53	924.51
386.72	805.14
386.92	837.91
387.11	851.96
387.31	816.85
387.50	858.98
387.70	823.87
387.89	807.48
388.09	884.72
388.28	898.77
388.48	889.40
388.67	973.66
388.86	968.98
389.06	903.45
389.25	912.81
389.45	978.34
389.64	1067.28
389.84	952.60
390.03	961.96
390.22	999.41
390.42	1036.86
390.61	931.53
390.81	985.37
391.00	1071.97
391.19	1036.86
391.39	957.28
391.58	1114.10
391.78	992.39
391.97	1022.81
392.16	1069.62
392.36	1076.65
392.55	947.92
392.75	968.98
392.94	1041.54
393.13	1093.03
393.33	992.39
393.52	1057.92
393.71	1090.69
393.91	1123.46
394.10	1130.48
394.29	1200.69
394.49	1221.76
394.68	1181.97
394.88	1158.57
395.07	1284.95
395.26	1181.97
395.46	1233.46
395.65	1282.61
395.84	1146.86
396.04	1277.93
396.23	1095.37
396.42	1132.82
396.62	1266.23
396.81	1226.44
397.00	1186.65
397.19	1191.33
397.39	1280.27
397.58	1427.73
397.77	1366.87
397.97	1455.81
398.16	1411.34
398.35	1483.90
398.55	1483.90
398.74	1476.88
398.93	1495.60
399.12	1530.71
399.32	1467.52
399.51	1540.07
399.70	1643.06
399.90	1533.05
400.09	1530.71
400.28	1598.59
400.47	1490.92
400.67	1727.32
400.86	1593.90
401.05	1661.78
401.24	1685.19
401.44	1664.12
401.63	1818.60
401.82	1699.23
402.01	1636.03
402.21	1708.59
402.40	1582.20
402.59	1696.89
402.78	1760.08
402.97	1774.13
403.17	1732.00
403.36	1823.28
403.55	1891.15
403.74	1823.28
403.93	1912.22
404.13	1879.45
404.32	1895.83
404.51	1790.51
404.70	1977.75
404.89	1912.22
405.09	2001.16
405.28	1956.69
405.47	1944.99
405.66	1996.48
405.85	2015.20
406.05	1944.99
406.24	2059.67
406.43	2085.42
406.62	2033.93
406.81	1987.11
407.00	1980.09
407.20	1966.05
407.39	2066.69
407.58	2172.02
407.77	2176.70
407.96	2188.40
408.15	2176.70
408.34	2218.83
408.54	2216.49
408.73	2204.78
408.92	2389.69
409.11	2368.62
409.30	2289.04
409.49	2282.02
409.68	2193.08
409.87	2286.70
410.07	2335.85
410.26	2249.25
410.45	2499.69
410.64	2452.88
410.83	2532.46
411.02	2466.92
411.21	2495.01
411.40	2448.20
411.59	2553.52
411.78	2626.08
411.98	2719.70
412.17	2670.55
412.36	2658.85
412.55	2729.06
412.74	2792.26
412.93	2651.83
413.12	2605.02
413.31	2888.22
413.50	2803.96
413.69	2775.88
413.88	2885.88
414.07	2834.39
414.26	2860.13
414.45	2981.84
414.64	2967.80
414.83	3033.33
415.02	3061.42
415.22	3122.27
415.41	2942.05
415.60	3141.00
415.79	3091.85
415.98	3272.07
416.17	3258.03
416.36	3208.87
416.55	3276.75
416.74	3042.70
416.93	3262.71
417.12	3377.39
417.31	3229.94
417.50	3297.81
417.69	3396.12
417.88	3466.33
418.07	3461.65
418.26	3382.07
418.45	3456.97
418.64	3599.74
418.83	3599.74
419.02	3492.08
419.21	3552.93
419.39	3583.36
419.58	3459.31
419.77	3445.27
419.96	3552.93
420.15	3679.32
420.34	3754.22
420.53	3789.33
420.72	3953.16
420.91	3791.67
421.10	3772.94
421.29	3852.52
421.48	3786.99
421.67	3796.35
421.86	3812.73
422.05	3786.99
422.24	3667.62
422.43	3794.01
422.61	3964.87
422.80	3873.59
422.99	3817.41
423.18	3735.50
423.37	3927.42
423.56	3976.57
423.75	3999.98
423.94	3896.99
424.13	3527.19
424.32	3791.67
424.50	3939.12
424.69	4084.23
424.88	4049.13
425.07	3922.74
425.26	3920.40
425.45	3978.91
425.64	3873.59
425.83	3899.33
426.01	3976.57
426.20	4086.58
426.39	3992.95
426.58	4011.68
426.77	3857.20
426.96	3925.08
427.15	3953.16
427.33	4044.45
427.52	3927.42
427.71	4095.94
427.90	4032.74
428.09	4133.39
428.28	4065.51
428.46	3955.51
428.65	4170.83
428.84	4203.60
429.03	4252.75
429.22	4191.90
429.40	3941.46
429.59	4046.79
429.78	4102.96
429.97	3918.06
430.16	3857.20
430.34	4124.02
430.53	4161.47
430.72	4241.05
430.91	4184.88
431.10	4241.05
431.28	4262.12
431.47	4491.49
431.66	4596.81
431.85	4404.89
432.03	4709.16
432.22	4676.39
432.41	4524.26
432.60	4620.22
432.79	4620.22
432.97	4713.84
433.16	4805.12
433.35	4641.28
433.54	4662.35
433.72	4617.88
433.91	4580.43
434.10	4748.95
434.28	4622.56
434.47	4861.29
434.66	4835.55
434.85	4912.78
435.03	4887.04
435.22	5013.43
435.41	5085.98
435.59	5137.48
435.78	5177.26
435.97	5041.51
436.16	5074.28
436.34	5109.39
436.53	5029.81
436.72	5329.40
436.90	5027.47
437.09	5228.76
437.28	5172.58
437.46	5191.31
437.65	5242.80
437.84	5228.76
438.02	5228.76
438.21	5259.18
438.40	5050.88
438.58	5345.78
438.77	5359.83
438.96	5380.89
439.14	5579.84
439.33	5584.52
439.52	5614.95
439.70	5617.29
439.89	5654.73
440.08	5671.12
440.26	5689.84
440.45	5596.22
440.63	5865.38
440.82	6092.41
441.01	5818.57
441.19	5867.72
441.38	6080.71
441.57	5940.28
441.75	6029.22
441.94	6284.34
442.12	6054.97
442.31	6270.30
442.50	6237.53
442.68	6265.61
442.87	6200.08
443.05	6324.13
443.24	6408.39
443.43	6345.19
443.61	6427.11
443.80	6604.99
443.98	6431.79
444.17	6157.95
444.35	6530.09
444.54	6619.04
444.73	6420.09
444.91	6581.59
445.10	6270.30
445.28	6539.46
445.47	6246.89
445.65	6335.83
445.84	6394.34
446.02	6448.18
446.21	6469.24
446.39	6532.44
446.58	6689.25
446.77	6736.06
446.95	6597.97
447.14	6574.56
447.32	6878.83
447.51	6569.88
447.69	6588.61
447.88	6754.79
448.06	6588.61
448.25	6778.19
448.43	6899.90
448.62	6654.14
448.80	6750.10
448.99	6834.36
449.17	6855.43
449.36	6726.70
449.54	6855.43
449.73	7016.93
449.91	7040.33
450.10	7112.89
450.28	7143.32
450.46	7077.78
450.65	7124.59
450.83	7173.74
451.02	7171.40
451.20	7302.47
451.39	7201.83
451.57	7131.61
451.76	6970.12
451.94	7080.12
452.13	7248.64
452.31	7166.72
452.49	7070.76
452.68	7185.44
452.86	7157.36
453.05	7375.03
453.23	7293.11
453.42	7316.51
453.60	7337.58
453.78	7400.77
453.97	7426.52
454.15	7370.35
454.34	7283.75
454.52	7494.40
454.70	7346.94
454.89	7391.41
455.07	7480.35
455.26	7639.51
455.44	7716.75
455.62	7733.13
455.81	7805.69
455.99	7777.60
456.17	7817.39
456.36	7948.46
456.54	7871.22
456.73	7908.67
456.91	7990.59
457.09	8119.32
457.28	8182.51
457.46	7957.82
457.64	8095.91
457.83	8009.31
458.01	7981.23
458.19	8315.92
458.38	8177.83
458.56	8306.56
458.74	8184.85
458.93	8180.17
459.11	8458.70
459.29	8313.58
459.48	8425.93
459.66	8355.71
459.84	8266.77
460.03	8505.51
460.21	8315.92
460.39	8360.39
460.57	8500.83
460.76	8505.51
460.94	8734.88
461.12	8671.68
461.31	8421.25
461.49	8739.56
461.67	8468.06
461.85	8718.50
462.04	8683.39
462.22	9221.71
462.40	8887.01
462.59	8926.80
462.77	8737.22
462.95	8767.65
463.13	8870.63
463.32	8887.01
463.50	8987.66
463.68	9006.38
463.86	8847.22
464.05	8997.02
464.23	8730.20
464.41	8870.63
464.59	8758.28
464.78	9280.22
464.96	9043.83
465.14	8805.10
465.32	9092.98
465.50	9364.48
465.69	9287.25
465.87	9341.08
466.05	9242.78
466.23	9151.49
466.41	9163.20
466.60	9371.50
466.78	9046.17
466.96	9132.77
467.14	9167.88
467.32	9261.50
467.51	9327.03
467.69	9193.62
467.87	9476.83
468.05	9380.87
468.23	9275.54
468.41	9472.15
468.60	9465.13
468.78	9720.24
468.96	9593.86
469.14	9565.77
469.32	9614.92
469.50	9586.83
469.69	9671.09
469.87	9846.63
470.05	9891.10
470.23	9879.40
470.41	9577.47
470.59	10008.13
470.77	9844.29
470.95	9717.90
471.14	10141.54
471.32	9870.04
471.50	10246.87
471.68	10146.22
471.86	10073.67
472.04	10455.17
472.22	10413.04
472.40	10176.65
472.58	10186.01
472.77	10277.29
472.95	10553.48
473.13	10911.58
473.31	10415.38
473.49	10401.34
473.67	10471.56
473.85	10689.23
474.03	10937.32
474.21	11000.52
474.39	11110.52
474.57	11009.88
474.75	11084.78
474.93	11468.62
475.12	11122.23
475.30	11187.76
475.48	11166.70
475.66	11286.06
475.84	11351.60
476.02	11597.35
476.20	11269.68
476.38	11442.88
476.56	11761.19
476.74	11913.33
476.92	11824.39
477.10	11843.11
477.28	11896.94
477.46	11960.14
477.64	12086.53
477.82	12229.30
478.00	12491.44
478.18	12341.64
478.36	12341.64
478.54	12608.47
478.72	12589.74
478.90	12884.65
479.08	13060.19
479.26	13041.46
479.44	13020.40
479.62	13174.88
479.80	13486.17
479.98	13345.73
480.16	13467.44
480.34	13359.78
480.52	13713.20
480.70	13584.47
480.88	13837.25
481.06	13853.63
481.24	13909.80
481.41	14052.58
481.59	14218.75
481.77	14494.94
481.95	14242.16
482.13	14590.90
482.31	14277.27
482.49	14857.72
482.67	14883.47
482.85	14864.74
483.03	14913.89
483.21	15288.38
483.39	15260.29
483.57	15405.41
483.74	15321.15
483.92	15555.20
484.10	15363.28
484.28	15562.22
484.46	16032.67
484.64	16306.51
484.82	16109.91
485.00	16128.63
485.18	16617.80
485.35	16477.37
485.53	16173.10
485.71	15955.43
485.89	16416.52
486.07	16374.39
486.25	16779.30
486.43	16791.00
486.61	16908.03
486.78	17238.05
486.96	17336.35
487.14	17486.14
487.32	17724.88
487.50	17741.26
487.68	18139.15
487.85	18029.15
488.03	18581.51
488.21	18560.45
488.39	18417.68
488.57	18586.19
488.75	18986.43
488.92	18925.57
489.10	19124.52
489.28	19208.78
489.46	19520.07
489.64	19580.92
489.81	20126.27
489.99	19784.55
490.17	19861.79
490.35	20357.98
490.53	19857.10
490.70	20655.23
490.88	20191.80
491.06	20765.23
491.24	20727.78
491.41	20587.35
491.59	20549.90
491.77	20933.75
491.95	21282.49
492.13	21275.47
492.30	21556.33
492.48	21809.11
492.66	21743.58
492.84	21488.46
493.01	22125.08
493.19	21816.13
493.37	22125.08
493.54	22143.81
493.72	21994.01
493.90	22471.48
494.08	22867.03
494.25	22972.36
494.43	23264.92
494.61	23185.35
494.79	23260.24
494.96	22967.68
495.14	23564.51
495.32	23510.68
495.49	23625.37
495.67	23718.99
495.85	23964.75
496.02	24201.14
496.20	24254.97
496.38	24313.48
496.55	24425.83
496.73	24877.55
496.91	24713.72
497.09	24718.40
497.26	25207.57
497.44	24987.56
497.62	24903.30
497.79	25174.80
497.97	25146.72
498.14	25373.75
498.32	25450.99
498.50	25701.42
498.67	26043.14
498.85	25865.26
499.03	26005.69
499.20	26085.27
499.38	26436.35
499.56	26436.35
499.73	26260.81
499.91	26623.59
500.08	26780.41
500.26	26279.54
500.44	26483.16
500.61	26661.04
500.79	26478.48
500.97	26883.39
501.14	26881.05
501.32	26787.43
501.49	26913.82
501.67	27124.47
501.84	27014.46
502.02	27302.35
502.20	27587.89
502.37	27695.56
502.55	27744.71
502.72	27962.38
502.90	28046.64
503.07	27821.95
503.25	27889.82
503.43	28048.98
503.60	28079.41
503.78	28203.46
503.95	27960.04
504.13	28222.18
504.30	28687.95
504.48	28486.66
504.65	28652.84
504.83	28966.47
505.01	28917.32
505.18	28690.29
505.36	29249.67
505.53	29626.50
505.71	29579.69
505.88	29701.40
506.06	29184.14
506.23	29582.03
506.41	29591.39
506.58	29766.93
506.76	29776.30
506.93	30183.55
507.11	29872.26
507.28	29713.10
507.46	30012.69
507.63	29685.01
507.81	29886.30
507.98	30148.44
508.16	30080.56
508.33	30459.73
508.50	30529.95
508.68	30663.36
508.85	30984.01
509.03	30272.49
509.20	31002.74
509.38	31068.27
509.55	31065.93
509.73	31292.96
509.90	31505.95
510.08	31058.91
510.25	31201.68
510.42	31522.34
510.60	31615.96
510.77	31468.50
510.95	32121.51
511.12	31786.82
511.30	31782.13
511.47	32318.12
511.64	32142.58
511.82	32313.44
511.99	32100.45
512.17	31999.80
512.34	32165.98
512.51	32556.85
512.69	32664.52
512.86	32507.70
513.04	32741.75
513.21	32802.61
513.38	32781.54
513.56	32893.89
513.73	32559.19
513.90	33205.18
514.08	32760.48
514.25	33500.09
514.43	32828.35
514.60	32933.68
514.77	33048.36
514.95	33750.52
515.12	33228.59
515.29	33319.87
515.47	33689.67
515.64	33989.26
515.81	33708.40
515.99	33394.76
516.16	33916.70
516.33	33296.46
516.51	33570.30
516.68	33326.89
516.85	33076.45
517.03	33439.23
517.20	33710.74
517.37	34206.93
517.54	34583.76
517.72	33869.89
517.89	34326.30
518.06	33853.51
518.24	34288.85
518.41	34328.64
518.58	34302.89
518.75	33998.62
518.93	34312.25
519.10	34630.57
519.27	34976.97
519.45	34836.53
519.62	34778.02
519.79	34946.54
519.96	35192.30
520.14	35126.76
520.31	35281.24
520.48	35786.79
520.65	34969.94
520.83	35503.59
521.00	35988.08
521.17	35749.34
521.34	36067.66
521.52	35999.78
521.69	35782.11
521.86	36278.30
522.03	36357.88
522.20	36264.26
522.38	36205.75
522.55	36479.59
522.72	36355.54
522.89	36217.45
523.07	36491.29
523.24	36519.38
523.41	36954.72
523.58	36708.96
523.75	37221.54
523.92	37347.93
524.10	36844.71
524.27	37425.17
524.44	37624.11
524.61	37481.34
524.78	37486.02
524.96	37408.78
525.13	37195.79
525.30	37589.00
525.47	37212.18
525.64	37345.59
525.81	37228.56
525.98	37366.65
526.16	36671.51
526.33	36793.22
526.50	37408.78
526.67	36662.15
526.84	37378.36
527.01	37581.98
527.18	37464.96
527.36	37869.87
527.53	38431.60
527.70	38103.92
527.87	37954.13
528.04	38141.37
528.21	38277.12
528.38	38590.75
528.55	38431.60
528.72	38719.48
528.89	38998.01
529.07	38972.26
529.24	38660.97
529.41	39112.69
529.58	38171.80
529.75	38506.49
529.92	38869.28
530.09	39203.97
530.26	39019.07
530.43	38857.57
530.60	38932.47
530.77	39260.15
530.94	39061.20
531.11	38885.66
531.28	39541.01
531.46	39384.19
531.63	39749.32
531.80	39580.80
531.97	39461.43
532.14	39154.82
532.31	39271.85
532.48	39166.52
532.65	39737.62
532.82	39463.77
532.99	39297.59
533.16	39683.78
533.33	40074.65
533.50	40341.47
533.67	39821.87
533.84	39709.53
534.01	39952.94
534.18	39831.24
534.35	40062.95
534.52	40079.33
534.69	40158.91
534.86	40474.88
535.03	40182.32
535.20	41067.04
535.37	40802.56
535.54	40865.75
535.71	40715.96
535.88	40582.55
536.05	40402.33
536.22	40573.19
536.38	40868.09
536.55	40224.45
536.72	40678.51
536.89	40507.65
537.06	40517.01
537.23	40942.99
537.40	41045.97
537.57	41333.86
537.74	41446.21
537.91	41333.86
538.08	41106.83
538.25	40711.28
538.42	40912.56
538.59	41352.58
538.75	40552.12
538.92	40926.61
539.09	41354.93
539.26	41181.73
539.43	41574.94
539.60	41078.74
539.77	41111.51
539.94	41284.71
540.11	41310.46
540.28	41237.90
540.44	41364.29
540.61	41635.79
540.78	41123.21
540.95	41502.38
541.12	41027.25
541.29	41645.15
541.46	41701.32
541.62	41813.67
541.79	41937.72
541.96	41591.32
542.13	41808.99
542.30	42071.13
542.47	41869.84
542.63	41743.45
542.80	42064.11
542.97	42153.05
543.14	42000.91
543.31	42487.74
543.48	42356.67
543.64	43154.80
543.81	42492.43
543.98	42871.59
544.15	43005.00
544.32	42974.58
544.48	42775.63
544.65	42761.59
544.82	42927.77
544.99	42754.57
545.16	42719.46
545.32	43070.54
545.49	43210.97
545.66	43388.85
545.83	43187.56
546.00	42904.36
546.16	43100.97
546.33	43339.70
546.50	42660.94
546.67	43402.89
546.83	43040.11
547.00	42948.83
547.17	43185.22
547.34	43079.90
547.50	43044.79
547.67	43288.21
547.84	43288.21
548.00	43320.98
548.17	43632.27
548.34	43466.09
548.51	43887.39
548.67	43753.97
548.84	43976.33
549.01	43505.88
549.18	43524.60
549.34	43381.83
549.51	43594.82
549.68	44107.40
549.84	43650.99
550.01	44219.74
550.18	43620.56
550.34	43882.70
550.51	43964.62
550.68	43763.34
550.84	43512.90
551.01	44477.20
551.18	43950.58
551.34	44196.34
551.51	44423.37
551.68	44264.21
551.84	44062.93
552.01	44044.20
552.18	43735.25
552.34	44119.10
552.51	44123.78
552.68	44182.29
552.84	44528.69
553.01	43903.77
553.18	44481.88
553.34	44655.08
553.51	44144.84
553.67	44673.81
553.84	44577.84
554.01	44690.19
554.17	44634.02
554.34	44835.30
554.51	44601.25
554.67	44718.28
554.84	44795.51
555.00	44259.53
555.17	44453.79
555.33	44521.67
555.50	44795.51
555.67	44252.51
555.83	44624.65
556.00	44636.36
556.16	45261.28
556.33	44692.53
556.50	44732.32
556.66	44856.37
556.83	44549.76
556.99	44938.29
557.16	44980.42
557.32	44971.05
557.49	45167.66
557.65	44825.94
557.82	45382.99
557.98	44971.05
558.15	44790.83
558.32	45216.81
558.48	44802.53
558.65	44964.03
558.81	44706.57
558.98	44985.10
559.14	45207.45
559.31	45111.49
559.47	45074.04
559.64	45095.10
559.80	45055.31
559.97	45045.95
560.13	45027.23
560.30	45509.38
560.46	45001.48
560.63	44921.90
560.79	45408.73
560.96	45607.68
561.12	45312.77
561.29	45144.25
561.45	45432.14
561.61	45462.57
561.78	45518.74
561.94	45212.13
562.11	44961.69
562.27	45514.06
562.44	45165.32
562.60	45687.26
562.77	45467.25
562.93	45401.71
563.10	45722.37
563.26	45387.67
563.42	45673.21
563.59	45446.18
563.75	45249.58
563.92	45776.20
564.08	45471.93
564.24	45577.25
564.41	45720.02
564.57	45577.25
564.74	45846.41
564.90	45633.42
565.07	45586.61
565.23	45652.15
565.39	45666.19
565.56	45457.88
565.72	45287.03
565.88	45392.35
566.05	45174.68
566.21	45668.53
566.38	45734.07
566.54	45460.23
566.70	45897.91
566.87	45916.63
567.03	45837.05
567.19	46092.17
567.36	46012.59
567.52	45666.19
567.68	45771.52
567.85	45497.67
568.01	45647.47
568.17	45294.05
568.34	45916.63
568.50	45748.11
568.66	45373.63
568.83	45778.54
568.99	45563.21
569.15	45977.48
569.32	45544.48
569.48	45258.94
569.64	45921.31
569.81	45492.99
569.97	46108.55
570.13	45570.23
570.30	45467.25
570.46	45212.13
570.62	45752.79
570.78	45705.98
570.95	45172.34
571.11	45954.08
571.27	45834.71
571.43	45846.41
571.60	45858.12
571.76	46021.95
571.92	45743.43
572.09	45696.62
572.25	45633.42
572.41	45963.44
572.57	46197.49
572.74	46258.35
572.90	46092.17
573.06	45614.70
573.22	46138.98
573.38	45876.84
573.55	45930.67
573.71	46309.84
573.87	46246.65
574.03	45830.03
574.20	45595.98
574.36	46075.79
574.52	45886.20
574.68	45872.16
574.84	46054.72
575.01	45853.44
575.17	45846.41
575.33	45841.73
575.49	45745.77
575.65	45972.80
575.82	46127.28
575.98	45727.05
576.14	46078.13
576.30	46122.60
576.46	45818.33
576.62	45851.09
576.79	45865.14
576.95	45680.24
577.11	46120.26
577.27	46007.91
577.43	46071.10
577.59	45322.13
577.75	45893.22
577.92	45345.54
578.08	45483.63
578.24	45481.29
578.40	46005.57
578.56	46136.64
578.72	46197.49
578.88	46101.53
579.04	46253.67
579.21	45647.47
579.37	45909.61
579.53	46344.95
579.69	45705.98
579.85	45635.77
580.01	46354.31
580.17	46078.13
580.33	45914.29
580.49	46216.22
580.65	46223.24
580.82	45689.60
580.98	45897.91
581.14	45705.98
581.30	46045.36
581.46	46103.87
581.62	46258.35
581.78	45998.55
581.94	46312.18
582.10	46546.23
582.26	46010.25
582.42	46314.52
582.58	46120.26
582.74	45787.90
582.90	45869.82
583.06	46532.19
583.22	46363.67
583.38	46497.08
583.54	46162.39
583.70	46670.28
583.86	46117.92
584.02	45947.06
584.18	46096.85
584.34	45916.63
584.50	46141.32
584.66	46124.94
584.82	46066.42
584.98	46398.78
585.14	46424.53
585.30	46038.34
585.46	45982.16
585.62	45841.73
585.78	45954.08
585.94	45705.98
586.10	46174.09
586.26	45741.09
586.42	46241.96
586.58	46181.11
586.74	45928.33
586.90	46143.66
587.06	46265.37
587.22	46375.37
587.38	46080.47
587.54	46330.90
587.70	46284.09
587.86	46106.21
588.02	46146.00
588.18	46209.20
588.34	45628.74
588.49	45603.00
588.65	45184.04
588.81	45677.90
588.97	45724.71
589.13	45663.85
589.29	45874.50
589.45	45813.65
589.61	46087.49
589.77	46344.95
589.93	46223.24
590.08	46366.01
