SpectraSuite Data File
++++++++++++++++++++++++++++++++++++
Date: Fri Oct 25 11:34:24 EDT 2013
User: price-jones
Dark Spectrum Present: No
Reference Spectrum Present: No
Number of Sampled Component Spectra: 1
Spectrometers: USB2+H05261
Integration Time (usec): 100000 (USB2+H05261)
Spectra Averaged: 1 (USB2+H05261)
Boxcar Smoothing: 0 (USB2+H05261)
Correct for Electrical Dark: No (USB2+H05261)
Strobe/Lamp Enabled: No (USB2+H05261)
Correct for Detector Non-linearity: No (USB2+H05261)
Correct for Stray Light: No (USB2+H05261)
Number of Pixels in Processed Spectrum: 2048
>>>>>Begin Processed Spectral Data<<<<<
365.73	285.55
365.92	285.55
366.12	285.55
366.32	142.77
366.52	210.65
366.72	152.13
366.91	224.69
367.11	168.52
367.31	194.26
367.51	212.99
367.70	154.48
367.90	238.73
368.10	184.90
368.30	191.92
368.49	154.48
368.69	175.54
368.89	135.75
369.09	196.60
369.28	156.82
369.48	184.90
369.68	262.14
369.87	220.01
370.07	215.33
370.27	304.27
370.47	287.89
370.66	440.02
370.86	521.94
371.06	528.96
371.25	543.00
371.45	507.90
371.65	596.84
371.84	524.28
372.04	531.30
372.24	557.05
372.44	578.11
372.63	610.88
372.83	660.03
373.03	596.84
373.22	568.75
373.42	484.49
373.62	667.05
373.81	620.24
374.01	664.71
374.21	575.77
374.40	629.60
374.60	711.52
374.79	688.12
374.99	641.31
375.19	648.33
375.38	655.35
375.58	601.52
375.78	622.58
375.97	641.31
376.17	730.25
376.37	678.76
376.56	631.94
376.76	690.46
376.95	664.71
377.15	653.01
377.35	692.80
377.54	760.67
377.74	711.52
377.93	585.13
378.13	660.03
378.33	664.71
378.52	685.78
378.72	697.48
378.91	664.71
379.11	641.31
379.31	767.70
379.50	655.35
379.70	692.80
379.89	709.18
380.09	765.36
380.28	688.12
380.48	685.78
380.68	739.61
380.87	688.12
381.07	713.86
381.26	746.63
381.46	713.86
381.65	751.31
381.85	681.10
382.04	671.73
382.24	809.83
382.43	795.78
382.63	727.91
382.83	765.36
383.02	791.10
383.22	873.02
383.41	716.20
383.61	772.38
383.80	854.30
384.00	755.99
384.19	840.25
384.39	802.80
384.58	755.99
384.78	833.23
384.97	856.64
385.17	737.27
385.36	849.61
385.56	809.83
385.75	875.36
385.95	781.74
386.14	870.68
386.34	849.61
386.53	912.81
386.72	842.59
386.92	882.38
387.11	854.30
387.31	840.25
387.50	847.27
387.70	870.68
387.89	819.19
388.09	901.11
388.28	837.91
388.48	844.93
388.67	980.68
388.86	830.89
389.06	896.43
389.25	905.79
389.45	889.40
389.64	917.49
389.84	938.55
390.03	943.24
390.22	912.81
390.42	990.05
390.61	870.68
390.81	968.98
391.00	964.30
391.19	910.47
391.39	940.90
391.58	1020.47
391.78	1027.50
391.97	1001.75
392.16	903.45
392.36	1053.24
392.55	983.02
392.75	1114.10
392.94	1043.88
393.13	1011.11
393.33	1036.86
393.52	1074.31
393.71	1151.54
393.91	1118.78
394.10	1006.43
394.29	1093.03
394.49	997.07
394.68	1071.97
394.88	1111.75
395.07	1121.12
395.26	1081.33
395.46	1055.58
395.65	1226.44
395.84	1144.52
396.04	1186.65
396.23	1228.78
396.42	1207.72
396.62	1165.59
396.81	1135.16
397.00	1219.42
397.19	1132.82
397.39	1125.80
397.58	1198.35
397.77	1165.59
397.97	1205.38
398.16	1214.74
398.35	1261.55
398.55	1193.67
398.74	1193.67
398.93	1240.48
399.12	1352.83
399.32	1301.34
399.51	1299.00
399.70	1380.92
399.90	1277.93
400.09	1345.81
400.28	1341.13
400.47	1280.27
400.67	1334.11
400.86	1380.92
401.05	1334.11
401.24	1294.32
401.44	1469.86
401.63	1401.98
401.82	1432.41
402.01	1394.96
402.21	1453.47
402.40	1479.22
402.59	1385.60
402.78	1371.55
402.97	1481.56
403.17	1437.09
403.36	1600.93
403.55	1507.30
403.74	1565.82
403.93	1624.33
404.13	1540.07
404.32	1542.41
404.51	1631.35
404.70	1633.69
404.89	1626.67
405.09	1650.08
405.28	1598.59
405.47	1593.90
405.66	1654.76
405.85	1575.18
406.05	1600.93
406.24	1722.63
406.43	1732.00
406.62	1710.93
406.81	1727.32
407.00	1715.61
407.20	1706.25
407.39	1785.83
407.58	1849.02
407.77	1776.47
407.96	1783.49
408.15	1842.00
408.34	1844.34
408.54	1858.39
408.73	1851.36
408.92	1820.94
409.11	1895.83
409.30	1827.96
409.49	1937.96
409.68	1905.20
409.87	1942.64
410.07	1968.39
410.26	1956.69
410.45	1970.73
410.64	2012.86
410.83	2097.12
411.02	2045.63
411.21	2122.87
411.40	2146.27
411.59	2183.72
411.78	2143.93
411.98	2188.40
412.17	2143.93
412.36	2310.11
412.55	2258.62
412.74	2225.85
412.93	2272.66
413.12	2132.23
413.31	2354.58
413.50	2312.45
413.69	2195.42
413.88	2347.56
414.07	2382.67
414.26	2415.43
414.45	2399.05
414.64	2473.95
414.83	2520.76
415.02	2492.67
415.22	2614.38
415.41	2448.20
415.60	2471.61
415.79	2621.40
415.98	2565.23
416.17	2677.57
416.36	2609.70
416.55	2567.57
416.74	2689.28
416.93	2775.88
417.12	2834.39
417.31	2850.77
417.50	2768.85
417.69	2897.58
417.88	2871.84
418.07	2766.51
418.26	2850.77
418.45	2878.86
418.64	2958.44
418.83	2869.50
419.02	2937.37
419.21	2909.29
419.39	2885.88
419.58	2995.89
419.77	2986.52
419.96	3059.08
420.15	3084.83
420.34	3077.80
420.53	2958.44
420.72	3112.91
420.91	3091.85
421.10	3115.25
421.29	3208.87
421.48	3038.02
421.67	3199.51
421.86	3122.27
422.05	3148.02
422.24	3290.79
422.43	3227.60
422.61	3316.54
422.80	3297.81
422.99	3211.22
423.18	3396.12
423.37	3279.09
423.56	3173.77
423.75	3190.15
423.94	3279.09
424.13	3112.91
424.32	3180.79
424.50	3330.58
424.69	3405.48
424.88	3328.24
425.07	3344.63
425.26	3183.13
425.45	3330.58
425.64	3309.52
425.83	3279.09
426.01	3321.22
426.20	3328.24
426.39	3382.07
426.58	3356.33
426.77	3335.26
426.96	3426.54
427.15	3419.52
427.33	3517.83
427.52	3419.52
427.71	3414.84
427.90	3463.99
428.09	3595.06
428.28	3501.44
428.46	3604.42
428.65	3471.01
428.84	3672.30
429.03	3691.02
429.22	3449.95
429.40	3742.52
429.59	3588.04
429.78	3543.57
429.97	3531.87
430.16	3637.19
430.34	3641.87
430.53	3833.80
430.72	3719.11
430.91	3637.19
431.10	3688.68
431.28	3875.93
431.47	3838.48
431.66	3763.58
431.85	3836.14
432.03	3911.04
432.22	3981.25
432.41	3896.99
432.60	3969.55
432.79	3808.05
432.97	3983.59
433.16	3999.98
433.35	3934.44
433.54	4056.15
433.72	4107.64
433.91	4074.87
434.10	4098.28
434.28	3992.95
434.47	4124.02
434.66	4035.08
434.85	4011.68
435.03	4189.56
435.22	4191.90
435.41	4332.33
435.59	4119.34
435.78	4290.20
435.97	4159.13
436.16	4292.54
436.34	4138.07
436.53	4280.84
436.72	4376.80
436.90	4222.33
437.09	4304.25
437.28	4329.99
437.46	4423.61
437.65	4292.54
437.84	4503.19
438.02	4313.61
438.21	4503.19
438.40	4514.89
438.58	4559.36
438.77	4697.46
438.96	4512.55
439.14	4758.31
439.33	4706.82
439.52	4840.23
439.70	4641.28
439.89	4723.20
440.08	4868.31
440.26	4833.21
440.45	4781.71
440.63	4798.10
440.82	5181.95
441.01	4887.04
441.19	5018.11
441.38	5090.67
441.57	5181.95
441.75	5093.01
441.94	5210.03
442.12	5053.22
442.31	5102.37
442.50	5266.21
442.68	5088.32
442.87	5284.93
443.05	5315.36
443.24	5366.85
443.43	5280.25
443.61	5266.21
443.80	5401.96
443.98	5273.23
444.17	5067.26
444.35	5479.19
444.54	5359.83
444.73	5282.59
444.91	5561.11
445.10	5544.73
445.28	5486.22
445.47	5453.45
445.65	5500.26
445.84	5507.28
446.02	5376.21
446.21	5523.66
446.39	5526.00
446.58	5371.53
446.77	5610.26
446.95	5495.58
447.14	5376.21
447.32	5542.39
447.51	5563.45
447.69	5465.15
447.88	5479.19
448.06	5558.77
448.25	5767.08
448.43	5717.93
448.62	5439.40
448.80	5692.18
448.99	5738.99
449.17	5593.88
449.36	5685.16
449.54	5696.86
449.73	5685.16
449.91	5951.98
450.10	5937.94
450.28	5984.75
450.46	5898.15
450.65	5893.47
450.83	5898.15
451.02	5919.21
451.20	6001.13
451.39	5919.21
451.57	5933.26
451.76	5921.56
451.94	5982.41
452.13	6045.60
452.31	6050.28
452.49	6071.35
452.68	6031.56
452.86	6008.16
453.05	6026.88
453.23	6085.39
453.42	6108.80
453.60	6090.07
453.78	6083.05
453.97	6078.37
454.15	6249.23
454.34	6164.97
454.52	6239.87
454.70	6406.05
454.89	6331.15
455.07	6282.00
455.26	6373.28
455.44	6445.84
455.62	6499.67
455.81	6394.34
455.99	6609.67
456.17	6668.19
456.36	6513.71
456.54	6492.65
456.73	6621.38
456.91	6710.32
457.09	6647.12
457.28	6799.26
457.46	6707.98
457.64	6635.42
457.83	6616.69
458.01	6724.36
458.19	7002.88
458.38	6909.26
458.56	7014.59
458.74	6885.86
458.93	6796.92
459.11	6913.94
459.29	6981.82
459.48	7136.29
459.66	7222.89
459.84	7232.26
460.03	7309.49
460.21	7040.33
460.39	7159.70
460.57	7087.14
460.76	7077.78
460.94	7152.68
461.12	7070.76
461.31	7199.49
461.49	7265.02
461.67	7091.82
461.85	7267.36
462.04	7279.07
462.22	7847.82
462.40	7569.29
462.59	7253.32
462.77	7269.70
462.95	7487.37
463.13	7564.61
463.32	7639.51
463.50	7524.82
463.68	7693.34
463.86	7651.21
464.05	7529.50
464.23	7449.93
464.41	7618.44
464.59	7454.61
464.78	7793.98
464.96	7712.07
465.14	7698.02
465.32	7775.26
465.50	7850.16
465.69	7798.66
465.87	7964.84
466.05	7859.52
466.23	7920.37
466.41	7889.95
466.60	7920.37
466.78	7960.16
466.96	7847.82
467.14	7812.71
467.32	8030.38
467.51	8070.17
467.69	7911.01
467.87	7911.01
468.05	7971.86
468.23	7939.10
468.41	8131.02
468.60	8128.68
468.78	8131.02
468.96	8280.82
469.14	8245.71
469.32	8234.00
469.50	8187.19
469.69	8421.25
469.87	8477.42
470.05	8521.89
470.23	8472.74
470.41	8477.42
470.59	8627.21
470.77	8503.17
470.95	8538.27
471.14	8669.34
471.32	8449.33
471.50	8669.34
471.68	8659.98
471.86	8702.11
472.04	8769.99
472.22	8966.59
472.40	8795.73
472.58	8905.74
472.77	8837.86
472.95	9142.13
473.13	9476.83
473.31	9036.81
473.49	9214.69
473.67	9116.39
473.85	9210.01
474.03	9200.65
474.21	9420.66
474.39	9472.15
474.57	9647.69
474.75	9661.73
474.93	9540.02
475.12	9380.87
475.30	9612.58
475.48	9589.17
475.66	9703.86
475.84	9769.40
476.02	9902.81
476.20	9774.08
476.38	9907.49
476.56	10263.25
476.74	10232.82
476.92	10186.01
477.10	10061.96
477.28	10239.84
477.46	10249.21
477.64	10403.68
477.82	10555.82
478.00	10647.10
478.18	10803.91
478.36	10815.62
478.54	10897.53
478.72	10918.60
478.90	11115.20
479.08	10949.03
479.26	11449.90
479.44	11272.02
479.62	11316.49
479.80	11410.11
479.98	11487.35
480.16	11709.70
480.34	11489.69
480.52	11616.08
480.70	11913.33
480.88	11854.81
481.06	11873.54
481.24	12100.57
481.41	12114.61
481.59	12175.47
481.77	12201.21
481.95	12238.66
482.13	12301.86
482.31	12669.32
482.49	12854.22
482.67	13008.70
482.85	12662.30
483.03	13060.19
483.21	13165.51
483.39	13472.12
483.57	13249.77
483.74	13376.16
483.92	13619.58
484.10	13511.91
484.28	13750.65
484.46	13823.20
484.64	14012.79
484.82	13750.65
485.00	14312.38
485.18	14380.25
485.35	14450.47
485.53	14258.54
485.71	14083.00
485.89	14796.87
486.07	14611.96
486.25	15077.73
486.43	15066.03
486.61	14850.70
486.78	15166.67
486.96	15211.14
487.14	15676.91
487.32	15433.49
487.50	15571.58
487.68	15669.89
487.85	16049.05
488.03	16175.44
488.21	16147.36
488.39	16334.60
488.57	16400.13
488.75	16442.26
488.92	16781.64
489.10	17006.33
489.28	16634.19
489.46	16996.97
489.64	16931.44
489.81	17565.72
489.99	17352.73
490.17	17198.26
490.35	17752.96
490.53	17551.68
490.70	17678.07
490.88	17891.06
491.06	18326.39
491.24	18185.96
491.41	18017.44
491.59	18176.60
491.77	18368.52
491.95	18932.59
492.13	18658.75
492.30	18637.69
492.48	18780.46
492.66	19190.05
492.84	18941.96
493.01	19339.85
493.19	19374.95
493.37	19332.82
493.54	19325.80
493.72	19686.25
493.90	19609.01
494.08	19885.19
494.25	20109.88
494.43	20194.14
494.61	20444.58
494.79	20393.09
494.96	20168.40
495.14	20851.83
495.32	20917.37
495.49	20975.88
495.67	20774.60
495.85	20952.48
496.02	21125.68
496.20	21341.00
496.38	21575.06
496.55	21362.07
496.73	22242.11
496.91	22047.85
497.09	21909.75
497.26	22024.44
497.44	21638.25
497.62	21977.63
497.79	22466.80
497.97	22405.95
498.14	22642.34
498.32	22932.57
498.50	22810.86
498.67	22628.30
498.85	22647.02
499.03	23054.28
499.20	23267.27
499.38	23201.73
499.56	23070.66
499.73	23215.77
499.91	23758.78
500.08	23534.09
500.26	23314.08
500.44	23742.39
500.61	24070.07
500.79	23707.29
500.97	24084.11
501.14	24425.83
501.32	24538.18
501.49	24453.92
501.67	24348.59
501.84	24627.12
502.02	24376.68
502.20	24795.64
502.37	24444.56
502.55	24739.46
502.72	25020.33
502.90	24704.35
503.07	24959.47
503.25	25322.26
503.43	25312.89
503.60	24987.56
503.78	25448.64
503.95	25305.87
504.13	25727.17
504.30	25621.84
504.48	25734.19
504.65	25671.00
504.83	25886.32
505.01	25806.75
505.18	26157.83
505.36	25874.62
505.53	25818.45
505.71	25881.64
505.88	26714.87
506.06	25986.97
506.23	26415.29
506.41	26541.68
506.58	26930.20
506.76	26590.83
506.93	26302.94
507.11	26778.07
507.28	26766.37
507.46	27061.27
507.63	27496.61
507.81	27353.84
507.98	27290.65
508.16	27080.00
508.33	27623.00
508.50	27346.82
508.68	27522.36
508.85	27868.76
509.03	27494.27
509.20	28121.54
509.38	27838.33
509.55	28135.58
509.73	28212.82
509.90	28034.94
510.08	27960.04
510.25	28191.75
510.42	28519.43
510.60	28533.47
510.77	28816.68
510.95	29029.66
511.12	28657.52
511.30	28797.95
511.47	28795.61
511.64	28861.15
511.82	29331.59
511.99	29069.45
512.17	29048.39
512.34	29024.98
512.51	29467.34
512.69	29509.47
512.86	29799.70
513.04	29743.53
513.21	29572.67
513.38	29722.46
513.56	29916.73
513.73	29804.38
513.90	30279.51
514.08	30047.80
514.25	30246.74
514.43	30485.48
514.60	30380.15
514.77	30419.94
514.95	30305.26
515.12	30061.84
515.29	30354.41
515.47	30602.50
515.64	30562.72
515.81	30195.25
515.99	30609.53
516.16	31173.60
516.33	31171.25
516.51	31182.96
516.68	30878.69
516.85	30731.23
517.03	30871.67
517.20	31634.68
517.37	31262.54
517.54	31686.17
517.72	31669.79
517.89	31552.76
518.06	32027.89
518.24	31459.14
518.41	32116.83
518.58	31747.03
518.75	31365.52
518.93	32165.98
519.10	31714.26
519.27	32205.77
519.45	32191.73
519.62	32451.53
519.79	32119.17
519.96	32240.88
520.14	32830.69
520.31	32390.67
520.48	32510.04
520.65	32671.54
520.83	33113.90
521.00	33181.77
521.17	32893.89
521.34	33106.88
521.52	33017.94
521.69	33226.24
521.86	33249.65
522.03	33390.08
522.20	33221.56
522.38	33537.54
522.55	33837.12
522.72	33844.15
522.89	33635.84
523.07	33787.97
523.24	33743.50
523.41	33645.20
523.58	33893.30
523.75	34057.14
523.92	34117.99
524.10	34239.70
524.27	34195.23
524.44	34103.95
524.61	34389.49
524.78	34726.53
524.96	34422.26
525.13	34543.97
525.30	34590.78
525.47	34998.03
525.64	34663.33
525.81	34698.44
525.98	34850.58
526.16	34698.44
526.33	34976.97
526.50	35173.57
526.67	34834.19
526.84	35360.81
527.01	35234.42
527.18	35222.72
527.36	35538.69
527.53	35220.38
527.70	35587.85
527.87	35243.79
528.04	35395.92
528.21	35335.07
528.38	35110.38
528.55	35594.87
528.72	35185.27
528.89	35536.35
529.07	35632.32
529.24	35683.81
529.41	36430.44
529.58	36053.61
529.75	35899.14
529.92	36449.16
530.09	36112.13
530.26	36088.72
530.43	36168.30
530.60	36222.13
530.77	36023.19
530.94	36608.32
531.11	36177.66
531.28	36343.84
531.46	36821.31
531.63	36943.02
531.80	36327.45
531.97	36718.32
532.14	36568.53
532.31	37090.47
532.48	37165.37
532.65	37109.19
532.82	36795.56
532.99	36884.50
533.16	37226.22
533.33	36910.25
533.50	37397.08
533.67	37242.60
533.84	37001.53
534.01	37174.73
534.18	37263.67
534.35	37656.88
534.52	37483.68
534.69	37570.28
534.86	37825.40
535.03	37539.85
535.20	37687.31
535.37	38185.84
535.54	37610.07
535.71	37741.14
535.88	38061.79
536.05	38218.61
536.22	38211.59
536.38	37926.04
536.55	38127.33
536.72	38277.12
536.89	37823.06
537.06	38277.12
537.23	38717.14
537.40	38073.49
537.57	38029.02
537.74	37954.13
537.91	38731.18
538.08	38644.59
538.25	38359.04
538.42	38548.62
538.59	38684.37
538.75	38794.38
538.92	38979.28
539.09	38911.41
539.26	38953.54
539.43	38689.06
539.60	39288.23
539.77	39136.10
539.94	39157.16
540.11	39138.44
540.28	38976.94
540.44	39084.61
540.61	39189.93
540.78	39253.12
540.95	39381.85
541.12	39075.24
541.29	39386.54
541.46	39723.57
541.62	39576.12
541.79	39543.35
541.96	39292.91
542.13	39103.33
542.30	39416.96
542.47	39674.42
542.63	39690.80
542.80	39826.56
542.97	40353.18
543.14	40179.98
543.31	40086.36
543.48	40208.06
543.64	40692.55
543.81	40226.79
543.98	40123.80
544.15	40259.55
544.32	40652.76
544.48	40589.57
544.65	40381.26
544.82	40465.52
544.99	40301.68
545.16	40776.81
545.32	40669.15
545.49	41053.00
545.66	41048.32
545.83	40797.88
546.00	41078.74
546.16	40514.67
546.33	40533.40
546.50	40713.62
546.67	40928.95
546.83	40591.91
547.00	40954.69
547.17	40910.22
547.34	40783.83
547.50	41024.91
547.67	41420.46
547.84	41127.89
548.00	41467.27
548.17	41359.61
548.34	41539.83
548.51	41481.31
548.67	41507.06
548.84	41263.64
549.01	41687.28
549.18	41516.42
549.34	41888.57
549.51	42024.32
549.68	41694.30
549.84	41886.23
550.01	42134.32
550.18	41755.16
550.34	41820.69
550.51	41991.55
550.68	42309.86
550.84	41872.18
551.01	41933.04
551.18	41846.44
551.34	42050.06
551.51	42036.02
551.68	41937.72
551.84	42527.53
552.01	41937.72
552.18	41975.17
552.34	41743.45
552.51	42155.39
552.68	42464.34
552.84	41841.76
553.01	42356.67
553.18	42391.78
553.34	42295.82
553.51	42513.49
553.67	42637.54
553.84	42990.96
554.01	42043.04
554.17	42375.40
554.34	43070.54
554.51	42564.98
554.67	43002.66
554.84	42838.83
555.00	42684.35
555.17	42522.85
555.33	42878.61
555.50	42965.21
555.67	43058.84
555.83	42663.28
556.00	42857.55
556.16	43510.56
556.33	43077.56
556.50	42572.00
556.66	43070.54
556.83	42880.95
556.99	43405.23
557.16	43573.75
557.32	43653.33
557.49	43632.27
557.65	43091.60
557.82	43379.49
557.98	43435.66
558.15	43459.07
558.32	43672.06
558.48	43035.43
558.65	43440.34
558.81	43548.01
558.98	43335.02
559.14	43192.25
559.31	43194.59
559.47	43491.83
559.64	43643.97
559.80	43337.36
559.97	43440.34
560.13	43997.39
560.30	43920.15
560.46	43735.25
560.63	44222.08
560.79	43833.55
560.96	43906.11
561.12	43742.27
561.29	43931.86
561.45	43695.46
561.61	44051.22
561.78	43669.72
561.94	43962.28
562.11	43615.88
562.27	43655.67
562.44	43908.45
562.60	43995.05
562.77	44168.25
562.93	43374.81
563.10	44453.79
563.26	44002.07
563.42	44884.45
563.59	43927.17
563.75	44076.97
563.92	44456.14
564.08	44414.01
564.24	44236.12
564.41	44371.88
564.57	44617.63
564.74	43878.02
564.90	43927.17
565.07	44020.80
565.23	44041.86
565.39	44271.23
565.56	44589.55
565.72	44605.93
565.88	44619.97
566.05	44603.59
566.21	44418.69
566.38	44289.96
566.54	44121.44
566.70	44605.93
566.87	44734.66
567.03	44144.84
567.19	44772.11
567.36	44624.65
567.52	44404.64
567.68	44657.42
567.85	44610.61
568.01	44985.10
568.17	44304.00
568.34	44673.81
568.50	44685.51
568.66	44250.17
568.83	44617.63
568.99	44472.52
569.15	44797.85
569.32	44687.85
569.48	44767.43
569.64	45034.25
569.81	44964.03
569.97	44720.62
570.13	44975.73
570.30	44704.23
570.46	44744.02
570.62	45151.27
570.78	45013.18
570.95	44697.21
571.11	45282.34
571.27	44938.29
571.43	44531.03
571.60	45345.54
571.76	44718.28
571.92	45235.53
572.09	45050.63
572.25	45179.36
572.41	45081.06
572.57	44741.68
572.74	45420.44
572.90	45095.10
573.06	45343.20
573.22	45453.20
573.38	45198.09
573.55	45387.67
573.71	45443.84
573.87	45139.57
574.03	44980.42
574.20	45064.67
574.36	45418.10
574.52	45244.90
574.68	45752.79
574.84	44818.92
575.01	45177.02
575.17	45312.77
575.33	45415.76
575.49	45289.37
575.65	45507.04
575.82	45408.73
575.98	44964.03
576.14	45448.52
576.30	45897.91
576.46	45420.44
576.62	45406.39
576.79	45558.53
576.95	44889.13
577.11	45352.56
577.27	45518.74
577.43	45258.94
577.59	45312.77
577.75	45153.62
577.92	45059.99
578.08	45336.18
578.24	45406.39
578.40	45345.54
578.56	45415.76
578.72	45186.38
578.88	45165.32
579.04	45535.12
579.21	45474.27
579.37	45308.09
579.53	45764.49
579.69	45193.40
579.85	45551.51
580.01	45099.78
580.17	45251.92
580.33	45900.25
580.49	45282.34
580.65	45200.43
580.82	45521.08
580.98	45240.21
581.14	45006.16
581.30	45270.64
581.46	45312.77
581.62	45104.46
581.78	45298.73
581.94	45336.18
582.10	45865.14
582.26	45588.95
582.42	45371.28
582.58	45691.94
582.74	45631.08
582.90	45717.68
583.06	45144.25
583.22	44879.77
583.38	45392.35
583.54	45373.63
583.70	45598.32
583.86	45556.19
584.02	45382.99
584.18	45879.18
584.34	45556.19
584.50	45923.65
584.66	45846.41
584.82	45792.58
584.98	45727.05
585.14	45886.20
585.30	45127.87
585.46	45532.78
585.62	45642.79
585.78	45680.24
585.94	45010.84
586.10	46033.66
586.26	45345.54
586.42	45677.90
586.58	45614.70
586.74	45731.73
586.90	45663.85
587.06	45605.34
587.22	45682.58
587.38	45352.56
587.54	45682.58
587.70	45743.43
587.86	45830.03
588.02	45542.14
588.18	45832.37
588.34	45654.49
588.49	45869.82
588.65	45361.92
588.81	45823.01
588.97	45694.28
589.13	45752.79
589.29	45446.18
589.45	45715.34
589.61	45888.54
589.77	45984.51
589.93	46279.41
590.08	46155.36
