SpectraSuite Data File
++++++++++++++++++++++++++++++++++++
Date: Fri Oct 25 11:26:24 EDT 2013
User: price-jones
Dark Spectrum Present: No
Reference Spectrum Present: No
Number of Sampled Component Spectra: 1
Spectrometers: USB2+H05261
Integration Time (usec): 100000 (USB2+H05261)
Spectra Averaged: 1 (USB2+H05261)
Boxcar Smoothing: 0 (USB2+H05261)
Correct for Electrical Dark: No (USB2+H05261)
Strobe/Lamp Enabled: No (USB2+H05261)
Correct for Detector Non-linearity: No (USB2+H05261)
Correct for Stray Light: No (USB2+H05261)
Number of Pixels in Processed Spectrum: 2048
>>>>>Begin Processed Spectral Data<<<<<
365.73	196.60
365.92	196.60
366.12	196.60
366.32	203.63
366.52	131.07
366.72	114.69
366.91	107.66
367.11	201.29
367.31	100.64
367.51	159.16
367.70	166.18
367.90	105.32
368.10	121.71
368.30	250.44
368.49	142.77
368.69	180.22
368.89	203.63
369.09	198.95
369.28	205.97
369.48	241.08
369.68	201.29
369.87	278.52
370.07	163.84
370.27	229.37
370.47	320.65
370.66	554.71
370.86	706.84
371.06	744.29
371.25	730.25
371.45	681.10
371.65	610.88
371.84	664.71
372.04	695.14
372.24	807.48
372.44	723.23
372.63	753.65
372.83	741.95
373.03	793.44
373.22	755.99
373.42	779.40
373.62	774.72
373.81	786.42
374.01	767.70
374.21	772.38
374.40	793.44
374.60	791.10
374.79	821.53
374.99	800.46
375.19	917.49
375.38	861.32
375.58	835.57
375.78	870.68
375.97	849.61
376.17	912.81
376.37	826.21
376.56	933.87
376.76	807.48
376.95	868.34
377.15	931.53
377.35	873.02
377.54	894.08
377.74	947.92
377.93	880.04
378.13	891.74
378.33	1067.28
378.52	870.68
378.72	922.17
378.91	959.62
379.11	901.11
379.31	971.32
379.50	861.32
379.70	954.94
379.89	1006.43
380.09	894.08
380.28	950.26
380.48	931.53
380.68	994.73
380.87	957.28
381.07	1081.33
381.26	1069.62
381.46	1013.45
381.65	1057.92
381.85	1013.45
382.04	1008.77
382.24	1025.15
382.43	1060.26
382.63	1060.26
382.83	1064.94
383.02	1160.91
383.22	1090.69
383.41	1100.05
383.61	1090.69
383.80	1181.97
384.00	1149.20
384.19	1006.43
384.39	1069.62
384.58	1203.04
384.78	1125.80
384.97	1174.95
385.17	1095.37
385.36	1158.57
385.56	1095.37
385.75	1095.37
385.95	1254.53
386.14	1238.14
386.34	1142.18
386.53	1249.85
386.72	1200.69
386.92	1296.66
387.11	1224.10
387.31	1100.05
387.50	1193.67
387.70	1263.89
387.89	1259.21
388.09	1245.16
388.28	1282.61
388.48	1254.53
388.67	1301.34
388.86	1357.51
389.06	1364.53
389.25	1240.48
389.45	1320.06
389.64	1366.87
389.84	1448.79
390.03	1472.20
390.22	1411.34
390.42	1444.11
390.61	1373.89
390.81	1378.58
391.00	1399.64
391.19	1479.22
391.39	1453.47
391.58	1413.68
391.78	1409.00
391.97	1455.81
392.16	1469.86
392.36	1565.82
392.55	1533.05
392.75	1565.82
392.94	1612.63
393.13	1586.88
393.33	1528.37
393.52	1549.43
393.71	1593.90
393.91	1638.38
394.10	1504.96
394.29	1490.92
394.49	1514.33
394.68	1600.93
394.88	1542.41
395.07	1652.42
395.26	1696.89
395.46	1741.36
395.65	1722.63
395.84	1584.54
396.04	1743.70
396.23	1858.39
396.42	1792.85
396.62	1774.13
396.81	1633.69
397.00	1809.23
397.19	1762.42
397.39	1769.44
397.58	1837.32
397.77	1827.96
397.97	1832.64
398.16	1795.19
398.35	1898.17
398.55	1830.30
398.74	1872.43
398.93	1968.39
399.12	1792.85
399.32	1832.64
399.51	1937.96
399.70	1926.26
399.90	1966.05
400.09	1956.69
400.28	1994.14
400.47	2001.16
400.67	2118.18
400.86	2010.52
401.05	2097.12
401.24	2162.66
401.44	2092.44
401.63	2099.46
401.82	2120.53
402.01	2078.40
402.21	2157.97
402.40	2193.08
402.59	2083.08
402.78	2188.40
402.97	2265.64
403.17	2228.19
403.36	2207.13
403.55	2359.26
403.74	2450.54
403.93	2333.51
404.13	2347.56
404.32	2312.45
404.51	2338.20
404.70	2359.26
404.89	2256.28
405.09	2497.35
405.28	2368.62
405.47	2462.24
405.66	2597.99
405.85	2525.44
406.05	2548.84
406.24	2565.23
406.43	2548.84
406.62	2679.91
406.81	2661.19
407.00	2504.37
407.20	2525.44
407.39	2612.04
407.58	2658.85
407.77	2780.56
407.96	2665.87
408.15	2911.63
408.34	2719.70
408.54	2836.73
408.73	2801.62
408.92	2836.73
409.11	2808.64
409.30	2789.92
409.49	2906.95
409.68	2963.12
409.87	2979.50
410.07	3014.61
410.26	2963.12
410.45	2909.29
410.64	3014.61
410.83	3028.65
411.02	3122.27
411.21	3061.42
411.40	3119.93
411.59	3173.77
411.78	3274.41
411.98	3192.49
412.17	3229.94
412.36	3246.32
412.55	3248.66
412.74	3293.13
412.93	3361.01
413.12	3258.03
413.31	3445.27
413.50	3346.97
413.69	3379.73
413.88	3634.85
414.07	3555.27
414.26	3616.13
414.45	3625.49
414.64	3517.83
414.83	3538.89
415.02	3829.12
415.22	3744.86
415.41	3730.81
415.60	3875.93
415.79	3707.41
415.98	4046.79
416.17	4037.42
416.36	3864.22
416.55	3899.33
416.74	4053.81
416.93	3896.99
417.12	3988.27
417.31	4070.19
417.50	4121.68
417.69	4212.96
417.88	4067.85
418.07	4166.15
418.26	4119.34
418.45	4248.07
418.64	4367.44
418.83	4458.72
419.02	4290.20
419.21	4564.04
419.39	4362.76
419.58	4458.72
419.77	4486.81
419.96	4767.67
420.15	4550.00
420.34	4645.96
420.53	4599.15
420.72	4564.04
420.91	4779.37
421.10	4716.18
421.29	4746.61
421.48	4650.64
421.67	4662.35
421.86	4880.02
422.05	4753.63
422.24	4779.37
422.43	4760.65
422.61	4819.16
422.80	4877.68
422.99	4912.78
423.18	4905.76
423.37	4985.34
423.56	4851.93
423.75	4739.58
423.94	4919.81
424.13	4624.90
424.32	4648.30
424.50	5015.77
424.69	5064.92
424.88	5057.90
425.07	4936.19
425.26	4786.40
425.45	4847.25
425.64	4933.85
425.83	4980.66
426.01	5069.60
426.20	4966.62
426.39	4968.96
426.58	5025.13
426.77	5053.22
426.96	5004.07
427.15	5085.98
427.33	5121.09
427.52	5158.54
427.71	5275.57
427.90	5100.03
428.09	5132.79
428.28	5397.28
428.46	5324.72
428.65	5280.25
428.84	5397.28
429.03	5486.22
429.22	5434.72
429.40	5551.75
429.59	5394.93
429.78	5259.18
429.97	5394.93
430.16	5397.28
430.34	5530.69
430.53	5661.76
430.72	5661.76
430.91	5523.66
431.10	5558.77
431.28	5802.19
431.47	5584.52
431.66	5682.82
431.85	5671.12
432.03	5867.72
432.22	5919.21
432.41	5748.36
432.60	5867.72
432.79	5900.49
432.97	5905.17
433.16	5959.00
433.35	6015.18
433.54	6052.63
433.72	6031.56
433.91	6057.31
434.10	6129.86
434.28	6015.18
434.47	6031.56
434.66	6265.61
434.85	6333.49
435.03	6352.21
435.22	6256.25
435.41	6326.47
435.59	6551.16
435.78	6296.04
435.97	6326.47
436.16	6260.93
436.34	6441.15
436.53	6654.14
436.72	6499.67
436.90	6462.22
437.09	6616.69
437.28	6509.03
437.46	6399.02
437.65	6532.44
437.84	6668.19
438.02	6700.95
438.21	6703.29
438.40	6539.46
438.58	6967.77
438.77	6817.98
438.96	6883.52
439.14	7009.90
439.33	7110.55
439.52	7054.37
439.70	7068.42
439.89	7260.34
440.08	7236.94
440.26	7239.28
440.45	7400.77
440.63	7332.90
440.82	7492.05
441.01	7426.52
441.19	7637.17
441.38	7672.28
441.57	7559.93
441.75	7791.64
441.94	7932.08
442.12	7861.86
442.31	7932.08
442.50	7824.41
442.68	7810.37
442.87	8046.76
443.05	7988.25
443.24	8004.63
443.43	8013.99
443.61	8154.43
443.80	8386.14
443.98	8152.09
444.17	7967.18
444.35	8030.38
444.54	8386.14
444.73	8231.66
444.91	8187.19
445.10	8365.07
445.28	8212.94
445.47	8304.22
445.65	8341.67
445.84	8269.11
446.02	8409.54
446.21	8411.89
446.39	8299.54
446.58	8418.91
446.77	8482.10
446.95	8154.43
447.14	8454.02
447.32	8571.04
447.51	8287.84
447.69	8428.27
447.88	8461.04
448.06	8334.65
448.25	8418.91
448.43	8353.37
448.62	8409.54
448.80	8507.85
448.99	8692.75
449.17	8676.37
449.36	8641.26
449.54	8634.24
449.73	8847.22
449.91	8966.59
450.10	8903.40
450.28	8844.88
450.46	9078.94
450.65	9064.89
450.83	9128.09
451.02	8961.91
451.20	9100.00
451.39	8990.00
451.57	9137.45
451.76	9160.86
451.94	9235.75
452.13	9207.67
452.31	9207.67
452.49	9036.81
452.68	9233.41
452.86	9167.88
453.05	9467.47
453.23	9582.15
453.42	9334.06
453.60	9380.87
453.78	9408.95
453.97	9308.31
454.15	9261.50
454.34	9415.98
454.52	9413.63
454.70	9755.35
454.89	9689.82
455.07	9919.19
455.26	9671.09
455.44	9809.19
455.62	9811.53
455.81	9741.31
455.99	9881.74
456.17	9898.13
456.36	9893.44
456.54	10235.16
456.73	10265.59
456.91	10310.06
457.09	10356.87
457.28	10553.48
457.46	10207.08
457.64	10478.58
457.83	10387.30
458.01	10438.79
458.19	10553.48
458.38	10380.28
458.56	10677.52
458.74	10871.79
458.93	10703.27
459.11	10693.91
459.29	10761.78
459.48	10623.69
459.66	10803.91
459.84	10579.22
460.03	10960.73
460.21	10832.00
460.39	10799.23
460.57	10927.96
460.76	10867.11
460.94	11066.05
461.12	10913.92
461.31	11005.20
461.49	11133.93
461.67	10967.75
461.85	11449.90
462.04	11143.29
462.22	11667.57
462.40	11487.35
462.59	11506.07
462.77	11597.35
462.95	11534.16
463.13	11375.00
463.32	11475.65
463.50	11587.99
463.68	11587.99
463.86	11576.29
464.05	11756.51
464.23	11583.31
464.41	11662.89
464.59	11527.14
464.78	12018.65
464.96	12044.40
465.14	11786.94
465.32	11754.17
465.50	12098.23
465.69	12138.02
465.87	12208.23
466.05	12180.15
466.23	12128.66
466.41	12255.04
466.60	12306.54
466.78	12046.74
466.96	11885.24
467.14	11995.25
467.32	11988.22
467.51	12360.37
467.69	12016.31
467.87	12259.73
468.05	12175.47
468.23	12184.83
468.41	12437.61
468.60	12475.06
468.78	12713.79
468.96	12294.83
469.14	12540.59
469.32	12765.28
469.50	12718.47
469.69	12798.05
469.87	12973.59
470.05	13069.55
470.23	12975.93
470.41	12889.33
470.59	13308.29
470.77	13167.85
470.95	13310.63
471.14	13411.27
471.32	13015.72
471.50	13486.17
471.68	13303.60
471.86	13518.93
472.04	13675.75
472.22	13909.80
472.40	13804.48
472.58	13834.91
472.77	13729.58
472.95	14061.94
473.13	14551.11
473.31	13930.87
473.49	13870.01
473.67	13956.61
473.85	14293.65
474.03	14541.75
474.21	14424.72
474.39	14546.43
474.57	14740.69
474.75	14740.69
474.93	14771.12
475.12	14733.67
475.30	15028.58
475.48	14867.08
475.66	15094.11
475.84	14820.27
476.02	15330.51
476.20	15140.93
476.38	15674.57
476.56	15768.19
476.74	15988.20
476.92	15807.98
477.10	15686.27
477.28	15777.55
477.46	16035.01
477.64	16063.10
477.82	16589.72
478.00	16760.58
478.18	16791.00
478.36	16908.03
478.54	16858.88
478.72	17109.32
478.90	17074.21
479.08	17305.92
479.26	17509.55
479.44	17568.06
479.62	17624.23
479.80	17806.80
479.98	17902.76
480.16	18485.55
480.34	18146.17
480.52	18260.86
480.70	18733.65
480.88	18019.78
481.06	18569.81
481.24	18562.79
481.41	18860.04
481.59	18932.59
481.77	18817.91
481.95	19077.71
482.13	19768.16
482.31	19414.74
482.49	20467.98
482.67	20121.59
482.85	20231.59
483.03	20393.09
483.21	20688.00
483.39	20915.03
483.57	20685.65
483.74	21102.27
483.92	20952.48
484.10	21287.17
484.28	21722.51
484.46	21724.85
484.64	22277.22
484.82	21607.83
485.00	22288.92
485.18	22518.29
485.35	22682.13
485.53	22597.87
485.71	22661.07
485.89	23180.67
486.07	23122.15
486.25	22876.40
486.43	23183.01
486.61	23641.75
486.78	23936.66
486.96	24203.48
487.14	24219.86
487.32	24346.25
487.50	24795.64
487.68	24891.60
487.85	24950.11
488.03	25291.83
488.21	25752.91
488.39	25408.86
488.57	25919.09
488.75	25575.03
488.92	26001.01
489.10	26490.18
489.28	26583.80
489.46	27192.34
489.64	26508.91
489.81	27187.66
489.99	27590.24
490.17	27379.59
490.35	27857.06
490.53	28158.99
490.70	28039.62
490.88	27934.29
491.06	28498.36
491.24	28800.29
491.41	28650.50
491.59	29099.88
491.77	29200.52
491.95	29394.79
492.13	29495.43
492.30	29544.58
492.48	29497.77
492.66	29769.27
492.84	30045.46
493.01	30543.99
493.19	30602.50
493.37	30642.29
493.54	30852.94
493.72	31344.45
493.90	30850.60
494.08	31250.83
494.25	31283.60
494.43	31704.90
494.61	31681.49
494.79	32163.64
494.96	32123.85
495.14	32376.63
495.32	32858.78
495.49	33237.95
495.67	32816.65
495.85	33017.94
496.02	33514.13
496.20	33429.87
496.38	34141.39
496.55	33937.77
496.73	34536.94
496.91	34139.05
497.09	34059.48
497.26	34937.18
497.44	34565.03
497.62	34923.13
497.79	35562.10
497.97	35189.95
498.14	35550.40
498.32	35821.90
498.50	35873.39
498.67	36423.42
498.85	35772.75
499.03	36390.65
499.20	36428.10
499.38	36385.97
499.56	36449.16
499.73	37202.82
499.91	36996.85
500.08	36992.17
500.26	36900.89
500.44	37574.96
500.61	37682.62
500.79	37156.00
500.97	37701.35
501.14	38089.88
501.32	38146.05
501.49	38735.87
501.67	38139.03
501.84	38548.62
502.02	38579.05
502.20	38593.09
502.37	38761.61
502.55	38642.24
502.72	39079.92
502.90	39239.08
503.07	38951.20
503.25	39421.64
503.43	39452.07
503.60	39835.92
503.78	39608.89
503.95	39648.68
504.13	39983.37
504.30	40292.32
504.48	39978.69
504.65	40360.20
504.83	40849.37
505.01	40900.86
505.18	40914.90
505.36	41060.02
505.53	40737.02
505.71	41247.26
505.88	41305.77
506.06	41212.15
506.23	41790.27
506.41	41521.10
506.58	41935.38
506.76	42033.68
506.93	42108.58
507.11	41748.14
507.28	42319.23
507.46	42384.76
507.63	42689.03
507.81	42948.83
507.98	42731.16
508.16	42611.79
508.33	43040.11
508.50	43070.54
508.68	43285.87
508.85	43992.71
509.03	43416.94
509.20	43536.30
509.38	44079.31
509.55	43943.56
509.73	43728.23
509.90	44126.12
510.08	44327.41
510.25	44416.35
510.42	44287.62
510.60	44437.41
510.77	44781.47
510.95	45296.39
511.12	44856.37
511.30	44849.35
511.47	44816.58
511.64	45371.28
511.82	45635.77
511.99	45333.84
512.17	45691.94
512.34	45574.91
512.51	46199.83
512.69	46014.93
512.86	46047.70
513.04	46541.55
513.21	46080.47
513.38	46148.34
513.56	46567.30
513.73	46532.19
513.90	46775.61
514.08	46246.65
514.25	46848.16
514.43	47086.90
514.60	47290.52
514.77	47311.59
514.95	47550.32
515.12	46478.36
515.29	47356.06
515.47	47721.18
515.64	47819.49
515.81	47320.95
515.99	47767.99
516.16	47962.26
516.33	47927.15
516.51	47917.79
516.68	48123.75
516.85	48350.79
517.03	48751.02
517.20	48388.24
517.37	48395.26
517.54	48456.11
517.72	48439.73
517.89	48683.14
518.06	48694.85
518.24	49076.35
518.41	49024.86
518.58	49038.90
518.75	48790.81
518.93	49221.47
519.10	49214.44
519.27	49347.86
519.45	49202.74
519.62	49375.94
519.79	49750.43
519.96	49701.28
520.14	50227.90
520.31	49652.12
520.48	49979.80
520.65	49951.71
520.83	50330.88
521.00	50312.16
521.17	50167.04
521.34	50419.82
521.52	50380.03
521.69	50546.21
521.86	50162.36
522.03	50588.34
522.20	50899.63
522.38	50976.87
522.55	51192.20
522.72	51143.05
522.89	50780.26
523.07	51372.42
523.24	51234.33
523.41	51325.61
523.58	51138.36
523.75	51760.95
523.92	51554.98
524.10	51503.49
524.27	51753.93
524.44	51753.93
524.61	51854.57
524.78	51885.00
524.96	51908.40
525.13	51732.86
525.30	52273.52
525.47	52142.45
525.64	52137.77
525.81	52491.19
525.98	52643.33
526.16	52193.95
526.33	52371.83
526.50	52720.57
526.67	52821.21
526.84	52713.55
527.01	52694.82
527.18	52755.68
527.36	52605.88
527.53	52823.55
527.70	53230.80
527.87	53191.01
528.04	52945.26
528.21	53022.50
528.38	53172.29
528.55	53382.94
528.72	53202.72
528.89	53286.98
529.07	53186.33
529.24	53240.17
529.41	53546.78
529.58	53284.64
529.75	53483.58
529.92	53432.09
530.09	53523.37
530.26	53485.92
530.43	53675.51
530.60	53286.98
530.77	53757.42
530.94	53853.39
531.11	53429.75
531.28	53734.02
531.46	54073.40
531.63	54129.57
531.80	54124.89
531.97	53916.58
532.14	54265.32
532.31	54365.96
532.48	54333.20
532.65	54511.08
532.82	54216.17
532.99	54251.28
533.16	54162.34
533.33	54759.17
533.50	54665.55
533.67	54775.56
533.84	54380.01
534.01	54564.91
534.18	54855.14
534.35	54923.01
534.52	54742.79
534.69	54939.39
534.86	55021.31
535.03	54759.17
535.20	54911.31
535.37	55009.61
535.54	55161.75
535.71	54894.92
535.88	55119.62
536.05	55140.68
536.22	55241.32
536.38	55182.81
536.55	55447.29
536.72	55175.79
536.89	55356.01
537.06	55278.77
537.23	55711.77
537.40	55234.30
537.57	55711.77
537.74	55679.00
537.91	55749.22
538.08	55723.47
538.25	55608.79
538.42	55576.02
538.59	55716.45
538.75	55749.22
538.92	55929.44
539.09	56165.84
539.26	55583.04
539.43	55632.19
539.60	55927.10
539.77	55950.51
539.94	56350.74
540.11	56067.53
540.28	56067.53
540.44	56224.35
540.61	56317.97
540.78	56257.12
540.95	56112.00
541.12	56357.76
541.29	56222.01
541.46	56409.25
541.62	56371.80
541.79	56535.64
541.96	56280.52
542.13	56317.97
542.30	56549.68
542.47	56512.23
542.63	56605.86
542.80	56512.23
542.97	56811.82
543.14	56912.47
543.31	56980.34
543.48	56973.32
543.64	56942.89
543.81	57242.48
543.98	57090.35
544.15	56999.07
544.32	57088.01
544.48	57359.51
544.65	56926.51
544.82	57296.31
544.99	57083.33
545.16	57120.77
545.32	57293.97
545.49	57605.26
545.66	57411.00
545.83	57387.60
546.00	57305.68
546.16	57415.68
546.33	57443.77
546.50	57109.07
546.67	57272.91
546.83	57399.30
547.00	57623.99
547.17	57504.62
547.34	57600.58
547.50	57729.31
547.67	58012.52
547.84	57755.06
548.00	57668.46
548.17	57916.56
548.34	57750.38
548.51	57968.05
548.67	58162.31
548.84	57736.34
549.01	57865.06
549.18	58007.84
549.34	57942.30
549.51	58183.38
549.68	58277.00
549.84	58134.23
550.01	58129.54
550.18	57942.30
550.34	58321.47
550.51	58064.01
550.68	58321.47
550.84	58052.31
551.01	58328.49
551.18	58253.59
551.34	58272.32
551.51	58209.12
551.68	58522.76
551.84	58520.41
552.01	58286.36
552.18	58323.81
552.34	58255.93
552.51	58508.71
552.68	58375.30
552.84	58543.82
553.01	58838.73
553.18	58581.27
553.34	58525.10
553.51	58534.46
553.67	58588.29
553.84	58829.37
554.01	58759.15
554.17	58752.13
554.34	58815.32
554.51	58944.05
554.67	58810.64
554.84	58721.70
555.00	58684.25
555.17	58782.55
555.33	58887.88
555.50	58883.20
555.67	58710.00
555.83	58859.79
556.00	58831.71
556.16	59072.78
556.33	59072.78
556.50	58829.37
556.66	59182.79
556.83	58894.90
556.99	59220.23
557.16	59222.58
557.32	59189.81
557.49	59384.07
557.65	59126.61
557.82	59011.93
557.98	59004.91
558.15	59276.41
558.32	59203.85
558.48	59288.11
558.65	59194.49
558.81	59224.92
558.98	59271.73
559.14	59416.84
559.31	59344.28
559.47	59461.31
559.64	59547.91
559.80	59526.84
559.97	59470.67
560.13	59475.35
560.30	59547.91
560.46	59405.14
560.63	59664.94
560.79	59585.36
560.96	59636.85
561.12	59554.93
561.29	59697.70
561.45	59620.47
561.61	59554.93
561.78	59454.29
561.94	59636.85
562.11	59494.08
562.27	59601.74
562.44	59606.42
562.60	59955.16
562.77	59805.37
562.93	59627.49
563.10	59812.39
563.26	59723.45
563.42	59931.76
563.59	59791.33
563.75	59751.54
563.92	59711.75
564.08	59786.64
564.24	59997.29
564.41	59693.02
564.57	59938.78
564.74	59739.83
564.90	60023.04
565.07	59934.10
565.23	59929.42
565.39	59765.58
565.56	59978.57
565.72	59929.42
565.88	60130.70
566.05	59767.92
566.21	59945.80
566.38	59915.37
566.54	59812.39
566.70	60083.89
566.87	59943.46
567.03	59924.74
567.19	60182.19
567.36	60095.60
567.52	60142.41
567.68	60383.48
567.85	60044.10
568.01	60114.32
568.17	60275.82
568.34	60413.91
568.50	59863.88
568.66	60294.54
568.83	60172.83
568.99	60083.89
569.15	60196.24
569.32	60264.11
569.48	60158.79
569.64	60233.69
569.81	60055.81
569.97	60280.50
570.13	60324.97
570.30	60111.98
570.46	60090.91
570.62	60128.36
570.78	60229.01
570.95	60163.47
571.11	60315.61
571.27	60107.30
571.43	60320.29
571.60	60182.19
571.76	60353.05
571.92	60530.93
572.09	60308.58
572.25	60275.82
572.41	60315.61
572.57	60144.75
572.74	60523.91
572.90	60371.78
573.06	60406.89
573.22	60331.99
573.38	60324.97
573.55	60404.55
573.71	60633.92
573.87	60540.30
574.03	60427.95
574.20	60612.85
574.36	60430.29
574.52	60488.80
574.68	60580.09
574.84	60762.65
575.01	60647.96
575.17	60434.97
575.33	60381.14
575.49	60334.33
575.65	60540.30
575.82	60732.22
575.98	60547.32
576.14	60699.45
576.30	60774.35
576.46	60369.44
576.62	60505.19
576.79	60533.28
576.95	60420.93
577.11	60568.38
577.27	60587.11
577.43	60718.18
577.59	60680.73
577.75	60430.29
577.92	60519.23
578.08	60493.49
578.24	60608.17
578.40	60561.36
578.56	60816.48
578.72	60439.65
578.88	60692.43
579.04	60706.47
579.21	60584.77
579.37	60790.73
579.53	60713.50
579.69	60507.53
579.85	60650.30
580.01	60685.41
580.17	60453.70
580.33	60783.71
580.49	60654.98
580.65	60633.92
580.82	60802.44
580.98	60706.47
581.14	60535.62
581.30	60982.66
581.46	60645.62
581.62	60596.47
581.78	60706.47
581.94	60680.73
582.10	60746.26
582.26	60594.13
582.42	60715.84
582.58	60832.86
582.74	60582.43
582.90	60921.80
583.06	60561.36
583.22	60502.85
583.38	60552.00
583.54	60802.44
583.70	60849.25
583.86	60690.09
584.02	60640.94
584.18	60926.49
584.34	60802.44
584.50	60603.49
584.66	60753.29
584.82	60697.11
584.98	60959.25
585.14	60767.33
585.30	60654.98
585.46	60867.97
585.62	60769.67
585.78	60896.06
585.94	60673.71
586.10	60626.90
586.26	60713.50
586.42	60889.04
586.58	60886.70
586.74	60786.05
586.90	60942.87
587.06	60811.80
587.22	60942.87
587.38	60860.95
587.54	61015.43
587.70	60903.08
587.86	60788.39
588.02	60797.76
588.18	60818.82
588.34	60938.19
588.49	61034.15
