SpectraSuite Data File
++++++++++++++++++++++++++++++++++++
Date: Fri Oct 25 11:26:33 EDT 2013
User: price-jones
Dark Spectrum Present: No
Reference Spectrum Present: No
Number of Sampled Component Spectra: 1
Spectrometers: USB2+H05261
Integration Time (usec): 100000 (USB2+H05261)
Spectra Averaged: 1 (USB2+H05261)
Boxcar Smoothing: 0 (USB2+H05261)
Correct for Electrical Dark: No (USB2+H05261)
Strobe/Lamp Enabled: No (USB2+H05261)
Correct for Detector Non-linearity: No (USB2+H05261)
Correct for Stray Light: No (USB2+H05261)
Number of Pixels in Processed Spectrum: 2048
>>>>>Begin Processed Spectral Data<<<<<
365.73	294.91
365.92	294.91
366.12	294.91
366.32	135.75
366.52	180.22
366.72	163.84
366.91	142.77
367.11	163.84
367.31	163.84
367.51	121.71
367.70	112.35
367.90	182.56
368.10	182.56
368.30	126.39
368.49	107.66
368.69	201.29
368.89	203.63
369.09	182.56
369.28	177.88
369.48	198.95
369.68	184.90
369.87	175.54
370.07	154.48
370.27	280.86
370.47	339.38
370.66	599.18
370.86	554.71
371.06	641.31
371.25	678.76
371.45	596.84
371.65	643.65
371.84	592.16
372.04	688.12
372.24	657.69
372.44	755.99
372.63	727.91
372.83	798.12
373.03	760.67
373.22	655.35
373.42	809.83
373.62	716.20
373.81	828.55
374.01	912.81
374.21	821.53
374.40	814.51
374.60	875.36
374.79	833.23
374.99	858.98
375.19	887.06
375.38	912.81
375.58	919.83
375.78	889.40
375.97	908.13
376.17	966.64
376.37	849.61
376.56	912.81
376.76	924.51
376.95	901.11
377.15	910.47
377.35	919.83
377.54	847.27
377.74	919.83
377.93	980.68
378.13	924.51
378.33	929.19
378.52	943.24
378.72	959.62
378.91	929.19
379.11	903.45
379.31	959.62
379.50	999.41
379.70	1053.24
379.89	1022.81
380.09	954.94
380.28	964.30
380.48	1057.92
380.68	966.64
380.87	931.53
381.07	1006.43
381.26	994.73
381.46	1008.77
381.65	1048.56
381.85	940.90
382.04	1060.26
382.24	1090.69
382.43	1118.78
382.63	1149.20
382.83	1032.18
383.02	1181.97
383.22	1160.91
383.41	1156.22
383.61	1179.63
383.80	1177.29
384.00	1123.46
384.19	1057.92
384.39	1203.04
384.58	1228.78
384.78	1219.42
384.97	1196.01
385.17	1165.59
385.36	1165.59
385.56	1268.57
385.75	1212.40
385.95	1289.64
386.14	1226.44
386.34	1181.97
386.53	1268.57
386.72	1247.51
386.92	1289.64
387.11	1200.69
387.31	1308.36
387.50	1174.95
387.70	1291.98
387.89	1181.97
388.09	1214.74
388.28	1350.49
388.48	1214.74
388.67	1343.47
388.86	1350.49
389.06	1357.51
389.25	1308.36
389.45	1338.79
389.64	1434.75
389.84	1469.86
390.03	1472.20
390.22	1437.09
390.42	1488.58
390.61	1418.36
390.81	1432.41
391.00	1472.20
391.19	1488.58
391.39	1390.28
391.58	1493.26
391.78	1547.09
391.97	1490.92
392.16	1577.52
392.36	1591.56
392.55	1483.90
392.75	1502.62
392.94	1584.54
393.13	1551.78
393.33	1519.01
393.52	1607.95
393.71	1694.55
393.91	1549.43
394.10	1605.61
394.29	1537.73
394.49	1636.03
394.68	1652.42
394.88	1603.27
395.07	1664.12
395.26	1596.25
395.46	1685.19
395.65	1736.68
395.84	1792.85
396.04	1706.25
396.23	1638.38
396.42	1788.17
396.62	1776.47
396.81	1748.38
397.00	1776.47
397.19	1724.97
397.39	1851.36
397.58	1818.60
397.77	1734.34
397.97	1849.02
398.16	1795.19
398.35	1982.43
398.55	1926.26
398.74	1984.77
398.93	1989.46
399.12	2033.93
399.32	1928.60
399.51	1944.99
399.70	2024.56
399.90	1963.71
400.09	1984.77
400.28	1987.11
400.47	2010.52
400.67	2087.76
400.86	2106.48
401.05	2073.71
401.24	2092.44
401.44	2106.48
401.63	2153.29
401.82	2148.61
402.01	2141.59
402.21	2083.08
402.40	2167.34
402.59	2258.62
402.78	2129.89
402.97	2289.04
403.17	2356.92
403.36	2331.17
403.55	2267.98
403.74	2368.62
403.93	2399.05
404.13	2389.69
404.32	2359.26
404.51	2270.32
404.70	2473.95
404.89	2375.64
405.09	2382.67
405.28	2497.35
405.47	2429.48
405.66	2499.69
405.85	2450.54
406.05	2459.90
406.24	2504.37
406.43	2574.59
406.62	2597.99
406.81	2722.04
407.00	2679.91
407.20	2628.42
407.39	2686.94
407.58	2750.13
407.77	2722.04
407.96	2693.96
408.15	2839.07
408.34	2722.04
408.54	2773.53
408.73	2796.94
408.92	2787.58
409.11	2911.63
409.30	2862.48
409.49	2815.66
409.68	2871.84
409.87	2925.67
410.07	2932.69
410.26	2874.18
410.45	3084.83
410.64	2825.03
410.83	3176.11
411.02	2977.16
411.21	3218.24
411.40	3148.02
411.59	3281.43
411.78	3021.63
411.98	3229.94
412.17	3255.69
412.36	3309.52
412.55	3365.69
412.74	3501.44
412.93	3435.91
413.12	3417.18
413.31	3440.59
413.50	3517.83
413.69	3499.10
413.88	3632.51
414.07	3651.24
414.26	3585.70
414.45	3681.66
414.64	3672.30
414.83	3721.45
415.02	3749.54
415.22	3819.75
415.41	3854.86
415.60	3920.40
415.79	3925.08
415.98	4112.32
416.17	4065.51
416.36	3983.59
416.55	4002.32
416.74	3988.27
416.93	4119.34
417.12	4252.75
417.31	4236.37
417.50	4117.00
417.69	4386.16
417.88	4297.22
418.07	4278.50
418.26	4269.14
418.45	4175.52
418.64	4578.09
418.83	4507.87
419.02	4528.94
419.21	4512.55
419.39	4645.96
419.58	4641.28
419.77	4552.34
419.96	4596.81
420.15	4695.11
420.34	4557.02
420.53	4629.58
420.72	4704.48
420.91	4683.41
421.10	4781.71
421.29	4699.80
421.48	4835.55
421.67	4770.01
421.86	4896.40
422.05	4880.02
422.24	4709.16
422.43	4884.70
422.61	4929.17
422.80	5125.77
422.99	4858.95
423.18	4882.36
423.37	4943.21
423.56	5179.61
423.75	4980.66
423.94	4835.55
424.13	4681.07
424.32	4870.65
424.50	5097.69
424.69	5013.43
424.88	4961.94
425.07	4936.19
425.26	4922.15
425.45	4943.21
425.64	5067.26
425.83	4980.66
426.01	4985.34
426.20	4940.87
426.39	5004.07
426.58	4959.60
426.77	5088.32
426.96	5245.14
427.15	5053.22
427.33	5273.23
427.52	5350.46
427.71	5350.46
427.90	5404.30
428.09	5247.48
428.28	5469.83
428.46	5418.34
428.65	5390.25
428.84	5502.60
429.03	5582.18
429.22	5303.65
429.40	5444.09
429.59	5394.93
429.78	5329.40
429.97	5343.44
430.16	5640.69
430.34	5511.96
430.53	5694.52
430.72	5650.05
430.91	5603.24
431.10	5607.92
431.28	5867.72
431.47	5970.71
431.66	5884.11
431.85	5792.83
432.03	5966.03
432.22	5914.53
432.41	5933.26
432.60	5902.83
432.79	6008.16
432.97	5923.90
433.16	6031.56
433.35	6017.52
433.54	6085.39
433.72	6181.35
433.91	6113.48
434.10	6277.32
434.28	6164.97
434.47	6181.35
434.66	6422.43
434.85	6476.26
435.03	6274.98
435.22	6286.68
435.41	6537.12
435.59	6370.94
435.78	6509.03
435.97	6544.14
436.16	6324.13
436.34	6389.66
436.53	6518.39
436.72	6539.46
436.90	6483.28
437.09	6590.95
437.28	6586.27
437.46	6633.08
437.65	6647.12
437.84	6855.43
438.02	6860.11
438.21	6733.72
438.40	6665.85
438.58	6927.99
438.77	6991.18
438.96	7028.63
439.14	6970.12
439.33	7035.65
439.52	7180.76
439.70	7365.67
439.89	7438.22
440.08	7487.37
440.26	7424.18
440.45	7384.39
440.63	7358.64
440.82	7683.98
441.01	7578.65
441.19	7651.21
441.38	7648.87
441.57	7831.43
441.75	7712.07
441.94	8065.49
442.12	7918.03
442.31	8063.15
442.50	7918.03
442.68	7871.22
442.87	7927.39
443.05	8248.05
443.24	8255.07
443.43	8234.00
443.61	8280.82
443.80	8545.30
443.98	8009.31
444.17	7885.26
444.35	8138.04
444.54	8257.41
444.73	8336.99
444.91	8358.05
445.10	8456.36
445.28	8381.46
445.47	8194.22
445.65	8416.57
445.84	8657.64
446.02	8498.49
446.21	8517.21
446.39	8435.29
446.58	8493.80
446.77	8496.14
446.95	8477.42
447.14	8575.72
447.32	8547.64
447.51	8571.04
447.69	8564.02
447.88	8517.21
448.06	8549.98
448.25	8465.72
448.43	8669.34
448.62	8746.58
448.80	8395.50
448.99	8669.34
449.17	8980.64
449.36	8652.96
449.54	8952.55
449.73	9025.11
449.91	9074.26
450.10	9067.24
450.28	9235.75
450.46	9097.66
450.65	9165.54
450.83	9123.41
451.02	8966.59
451.20	9188.94
451.39	9039.15
451.57	9137.45
451.76	9252.14
451.94	9301.29
452.13	9362.14
452.31	9284.91
452.49	9177.24
452.68	9392.57
452.86	9373.85
453.05	9596.20
453.23	9596.20
453.42	9224.05
453.60	9387.89
453.78	9607.90
453.97	9341.08
454.15	9458.10
454.34	9446.40
454.52	9760.03
454.70	9706.20
454.89	9994.09
455.07	9738.97
455.26	9982.38
455.44	10045.58
455.62	10087.71
455.81	9916.85
455.99	10132.18
456.17	9989.41
456.36	9994.09
456.54	10303.04
456.73	10520.71
456.91	10480.92
457.09	10403.68
457.28	10623.69
457.46	10450.49
457.64	10525.39
457.83	10714.97
458.01	10413.04
458.19	10527.73
458.38	10558.16
458.56	10738.38
458.74	10675.18
458.93	10785.19
459.11	10661.14
459.29	10846.04
459.48	10895.19
459.66	10771.15
459.84	10752.42
460.03	11318.83
460.21	11000.52
460.39	11122.23
460.57	10991.16
460.76	11061.37
460.94	11206.48
461.12	11150.31
461.31	11035.63
461.49	11040.31
461.67	11297.77
461.85	11590.33
462.04	11412.45
462.22	11396.07
462.40	11637.14
462.59	11428.84
462.77	11683.95
462.95	11449.90
463.13	11840.77
463.32	11604.38
463.50	11698.00
463.68	11817.36
463.86	11896.94
464.05	11864.18
464.23	11796.30
464.41	11744.81
464.59	11632.46
464.78	12215.26
464.96	12060.78
465.14	11950.78
465.32	12098.23
465.50	12196.53
465.69	12168.45
465.87	12180.15
466.05	12353.35
466.23	12081.85
466.41	12224.62
466.60	12706.77
466.78	12224.62
466.96	12379.09
467.14	12397.82
467.32	12292.49
467.51	12779.32
467.69	12219.94
467.87	12507.82
468.05	12779.32
468.23	12468.03
468.41	12631.87
468.60	12800.39
468.78	12894.01
468.96	12599.10
469.14	12933.80
469.32	12966.57
469.50	12901.03
469.69	12863.58
469.87	13146.79
470.05	13057.85
470.23	12957.21
470.41	12959.55
470.59	13345.73
470.77	13329.35
470.95	13214.66
471.14	13547.02
471.32	13420.63
471.50	13458.08
471.68	13769.37
471.86	13701.50
472.04	13671.07
472.22	14157.90
472.40	13661.71
472.58	13785.76
472.77	13916.83
472.95	14101.73
473.13	14700.90
473.31	14284.29
473.49	14216.41
473.67	14256.20
473.85	14361.53
474.03	14700.90
474.21	14527.71
474.39	14862.40
474.57	14885.81
474.75	14848.36
474.93	15033.26
475.12	14974.75
475.30	14934.96
475.48	15089.43
475.66	15349.23
475.84	15222.84
476.02	15391.36
476.20	15417.11
476.38	15548.18
476.56	16135.65
476.74	15761.17
476.92	15805.64
477.10	16006.92
477.28	16304.17
477.46	16156.72
477.64	16489.07
477.82	16379.07
478.00	17385.50
478.18	16610.78
478.36	16994.63
478.54	17596.15
478.72	17062.51
478.90	17394.86
479.08	17645.30
479.26	17781.05
479.44	17799.77
479.62	17781.05
479.80	18097.02
479.98	18427.04
480.16	18647.05
480.34	18293.63
480.52	18733.65
480.70	18838.97
480.88	18548.75
481.06	18541.72
481.24	19002.81
481.41	18860.04
481.59	19267.29
481.77	19559.86
481.95	19737.74
482.13	19906.26
482.31	19927.32
482.49	19999.88
482.67	20334.57
482.85	20402.45
483.03	20491.39
483.21	20875.24
483.39	21254.40
483.57	20776.94
483.74	21088.23
483.92	21390.16
484.10	21345.69
484.28	21558.67
484.46	21907.41
484.64	22728.94
484.82	22092.32
485.00	22361.48
485.18	22845.97
485.35	23180.67
485.53	22918.53
485.71	22986.40
485.89	23538.77
486.07	23571.54
486.25	23522.38
486.43	23651.11
486.61	23824.31
486.78	24112.20
486.96	24276.04
487.14	24650.52
487.32	24449.24
487.50	24919.68
487.68	25123.31
487.85	25408.86
488.03	25633.55
488.21	25682.70
488.39	25862.92
488.57	26419.97
488.75	26618.91
488.92	26368.48
489.10	26967.65
489.28	26780.41
489.46	27381.93
489.64	26930.20
489.81	27637.05
489.99	27749.39
490.17	27747.05
490.35	28264.31
490.53	28519.43
490.70	28767.52
490.88	28601.35
491.06	28737.10
491.24	29071.79
491.41	29116.26
491.59	29132.65
491.77	29266.06
491.95	29401.81
492.13	29982.26
492.30	29507.13
492.48	30209.29
492.66	30349.73
492.84	30026.73
493.01	31175.94
493.19	31051.89
493.37	31108.06
493.54	31115.08
493.72	31304.67
493.90	31164.23
494.08	31882.78
494.25	32095.77
494.43	32456.21
494.61	32744.09
494.79	32879.85
494.96	32620.05
495.14	32540.47
495.32	33350.29
495.49	33617.11
495.67	33553.92
495.85	33703.71
496.02	33647.54
496.20	33830.10
496.38	34288.85
496.55	34209.27
496.73	35157.19
496.91	34401.19
497.09	34930.16
497.26	35475.50
497.44	34747.59
497.62	35545.72
497.79	35791.47
497.97	35182.93
498.14	35981.06
498.32	36353.20
498.50	36671.51
498.67	36608.32
498.85	36320.43
499.03	36989.83
499.20	36367.24
499.38	37003.87
499.56	37322.18
499.73	37495.38
499.91	37165.37
500.08	37776.25
500.26	37670.92
500.44	37860.51
500.61	37963.49
500.79	38085.20
500.97	37998.60
501.14	38768.63
501.32	38770.97
501.49	38733.53
501.67	38754.59
501.84	39168.87
502.02	38527.56
502.20	38913.75
502.37	39632.29
502.55	39304.62
502.72	39569.10
502.90	39622.93
503.07	39335.04
503.25	39917.84
503.43	40004.44
503.60	39997.41
503.78	40350.84
503.95	40512.33
504.13	40285.30
504.30	40657.45
504.48	40353.18
504.65	40828.30
504.83	41457.91
505.01	42021.98
505.18	41003.85
505.36	41713.03
505.53	41261.30
505.71	41865.16
505.88	41792.61
506.06	41544.51
506.23	42293.48
506.41	41895.59
506.58	42225.60
506.76	42405.83
506.93	42412.85
507.11	42724.14
507.28	42672.65
507.46	42831.80
507.63	42969.90
507.81	43391.19
507.98	43536.30
508.16	42876.27
508.33	43735.25
508.50	43732.91
508.68	43983.35
508.85	43950.58
509.03	44318.04
509.20	44116.76
509.38	44037.18
509.55	44432.73
509.73	44648.06
509.90	44549.76
510.08	44847.00
510.25	44608.27
510.42	44905.52
510.60	45371.28
510.77	45446.18
510.95	45521.08
511.12	45275.32
511.30	45214.47
511.47	45848.75
511.64	45886.20
511.82	46239.62
511.99	46113.23
512.17	45944.72
512.34	46066.42
512.51	46394.10
512.69	46209.20
512.86	46525.17
513.04	46890.29
513.21	46782.63
513.38	47054.13
513.56	47356.06
513.73	46513.47
513.90	46894.97
514.08	46892.63
514.25	46969.87
514.43	47344.36
514.60	47299.89
514.77	47473.09
514.95	47178.18
515.12	48140.14
515.29	47817.14
515.47	47718.84
515.64	47716.50
515.81	47707.14
515.99	48315.68
516.16	48425.68
516.33	48484.20
516.51	48964.01
516.68	48296.95
516.85	48664.42
517.03	49425.09
517.20	49066.99
517.37	48673.78
517.54	49013.16
517.72	49130.19
517.89	49389.98
518.06	49212.10
518.24	49504.67
518.41	49308.07
518.58	49549.14
518.75	49392.33
518.93	49902.56
519.10	49614.68
519.27	49970.44
519.45	49666.17
519.62	50153.00
519.79	49865.11
519.96	50192.79
520.14	50089.80
520.31	50092.15
520.48	50480.67
520.65	50424.50
520.83	50700.68
521.00	50813.03
521.17	50433.86
521.34	50667.92
521.52	51093.89
521.69	50808.35
521.86	51143.05
522.03	51260.07
522.20	50834.10
522.38	51662.64
522.55	51601.79
522.72	51164.11
522.89	51346.67
523.07	51693.07
523.24	51697.75
523.41	51529.23
523.58	51679.03
523.75	51580.73
523.92	51896.70
524.10	52027.77
524.27	51992.66
524.44	51992.66
524.61	52196.29
524.78	52067.56
524.96	52205.65
525.13	52500.56
525.30	52521.62
525.47	52545.03
525.64	52313.31
525.81	52835.25
525.98	52708.86
526.16	52662.05
526.33	52835.25
526.50	52856.32
526.67	53118.46
526.84	52989.73
527.01	52704.18
527.18	52914.83
527.36	52949.94
527.53	53219.10
527.70	53474.22
527.87	53631.04
528.04	53081.01
528.21	53324.43
528.38	53392.30
528.55	53602.95
528.72	53525.71
528.89	53509.33
529.07	53357.19
529.24	53385.28
529.41	53811.26
529.58	53811.26
529.75	53734.02
529.92	53954.03
530.09	53886.15
530.26	53886.15
530.43	54174.04
530.60	53954.03
530.77	53766.79
530.94	54431.50
531.11	53928.28
531.28	54120.21
531.46	54291.07
531.63	54499.37
531.80	54150.63
531.97	54597.68
532.14	54560.23
532.31	54438.52
532.48	54415.11
532.65	54869.18
532.82	54391.71
532.99	54546.18
533.16	54766.20
533.33	54927.69
533.50	55063.44
533.67	54805.98
533.84	54724.07
534.01	55016.63
534.18	54904.29
534.35	55171.11
534.52	55028.34
534.69	55136.00
534.86	55566.66
535.03	55229.62
535.20	55391.12
535.37	55330.26
535.54	55484.74
535.71	55517.51
535.88	55613.47
536.05	55313.88
536.22	55503.46
536.38	55671.98
536.55	55765.60
536.72	55681.34
536.89	55650.92
537.06	55887.31
537.23	55770.28
537.40	55730.50
537.57	55690.71
537.74	55629.85
537.91	56048.81
538.08	55875.61
538.25	55976.25
538.42	56060.51
538.59	56360.10
538.75	55966.89
538.92	55985.61
539.09	56320.31
539.26	56140.09
539.43	56402.23
539.60	56317.97
539.77	56343.72
539.94	56416.27
540.11	56523.94
540.28	56367.12
540.44	56699.48
540.61	56828.21
540.78	56465.42
540.95	56491.17
541.12	56605.86
541.29	56540.32
541.46	56858.63
541.62	56790.76
541.79	56755.65
541.96	56589.47
542.13	56474.79
542.30	56676.07
542.47	56849.27
542.63	57010.77
542.80	57008.43
542.97	57270.57
543.14	57167.58
543.31	57045.88
543.48	57261.21
543.64	57619.31
543.81	57518.67
543.98	57476.54
544.15	57469.51
544.32	57483.56
544.48	57530.37
544.65	57427.38
544.82	57354.83
544.99	57354.83
545.16	57439.09
545.32	57331.42
545.49	57698.89
545.66	57862.72
545.83	57623.99
546.00	57677.82
546.16	57787.83
546.33	57553.77
546.50	57549.09
546.67	57825.28
546.83	57687.18
547.00	57696.55
547.17	57818.25
547.34	57867.40
547.50	57904.85
547.67	58056.99
547.84	57832.30
548.00	58047.63
548.17	58342.53
548.34	58251.25
548.51	58190.40
548.67	58412.75
548.84	58103.80
549.01	58031.24
549.18	58204.44
549.34	58482.97
549.51	58255.93
549.68	58347.21
549.84	58443.18
550.01	58419.77
550.18	58174.02
550.34	58588.29
550.51	58461.90
550.68	58403.39
550.84	58209.12
551.01	58628.08
551.18	58429.13
551.34	58756.81
551.51	58489.99
551.68	58585.95
551.84	58670.21
552.01	58475.94
552.18	58639.78
552.34	58550.84
552.51	58670.21
552.68	58651.48
552.84	58665.53
553.01	59093.85
553.18	59140.66
553.34	58911.28
553.51	58960.44
553.67	58857.45
553.84	59032.99
554.01	59058.74
554.17	58721.70
554.34	59166.40
554.51	59044.69
554.67	59393.43
554.84	59016.61
555.00	59044.69
555.17	58911.28
555.33	59175.76
555.50	59032.99
555.67	59091.51
555.83	59049.38
556.00	59124.27
556.16	59477.69
556.33	59444.93
556.50	59103.21
556.66	59414.50
556.83	59215.55
556.99	59487.06
557.16	59517.48
557.32	59526.84
557.49	59756.22
557.65	59465.99
557.82	59454.29
557.98	59501.10
558.15	59564.29
558.32	59774.94
558.48	59412.16
558.65	59615.79
558.81	59681.32
558.98	59709.41
559.14	59634.51
559.31	59686.00
559.47	59583.02
559.64	59660.26
559.80	59796.01
559.97	59735.15
560.13	59650.89
560.30	59585.36
560.46	59877.93
560.63	59906.01
560.79	59641.53
560.96	59873.24
561.12	59915.37
561.29	59721.11
561.45	59983.25
561.61	59884.95
561.78	59847.50
561.94	59817.07
562.11	59931.76
562.27	59908.35
562.44	59985.59
562.60	60083.89
562.77	60137.72
562.93	60018.36
563.10	60119.00
563.26	59831.11
563.42	60327.31
563.59	60285.18
563.75	59992.61
563.92	60264.11
564.08	59788.98
564.24	60158.79
564.41	60240.71
564.57	60362.42
564.74	60273.48
564.90	60179.85
565.07	60065.17
565.23	60327.31
565.39	59999.63
565.56	60261.77
565.72	60147.09
565.88	60182.19
566.05	60254.75
566.21	60193.90
566.38	60264.11
566.54	60245.39
566.70	60385.82
566.87	60718.18
567.03	60193.90
567.19	60430.29
567.36	60575.40
567.52	60287.52
567.68	60498.17
567.85	60486.46
568.01	60495.83
568.17	60584.77
568.34	60484.12
568.50	60301.56
568.66	60310.92
568.83	60594.13
568.99	60254.75
569.15	60535.62
569.32	60353.05
569.48	60474.76
569.64	60542.64
569.81	60399.86
569.97	60128.36
570.13	60619.88
570.30	60369.44
570.46	60706.47
570.62	60467.74
570.78	60540.30
570.95	60587.11
571.11	60509.87
571.27	60474.76
571.43	60556.68
571.60	60626.90
571.76	60554.34
571.92	60456.04
572.09	60793.07
572.25	60762.65
572.41	60526.25
572.57	60552.00
572.74	60903.08
572.90	60659.66
573.06	60640.94
573.22	60587.11
573.38	60687.75
573.55	60498.17
573.71	60837.54
573.87	60802.44
574.03	60603.49
574.20	60844.57
574.36	60673.71
574.52	60624.56
574.68	60891.38
574.84	60753.29
575.01	60996.70
575.17	60900.74
575.33	60729.88
575.49	60566.04
575.65	60760.31
575.82	60879.67
575.98	60837.54
576.14	60963.93
576.30	60729.88
576.46	60638.60
576.62	60732.22
576.79	60814.14
576.95	60706.47
577.11	60753.29
577.27	60605.83
577.43	60809.46
577.59	60800.10
577.75	60753.29
577.92	60643.28
578.08	60837.54
578.24	60743.92
578.40	60982.66
578.56	60919.46
578.72	60844.57
578.88	61057.56
579.04	61010.74
579.21	60956.91
579.37	60982.66
579.53	60889.04
579.69	60671.37
579.85	60807.12
580.01	60725.20
580.17	60973.30
580.33	61010.74
580.49	61064.58
580.65	61013.08
580.82	61045.85
580.98	60858.61
581.14	60973.30
581.30	61029.47
581.46	60938.19
581.62	60882.02
581.78	60760.31
581.94	61027.13
582.10	60959.25
582.26	60828.18
582.42	60917.12
582.58	61151.18
582.74	60767.33
582.90	61048.19
583.06	61151.18
583.22	60954.57
583.38	61006.06
583.54	61050.53
583.70	61172.24
583.86	61125.43
584.02	60931.17
584.18	61139.47
584.34	61024.79
584.50	60942.87
584.66	61087.98
584.82	60940.53
584.98	61137.13
585.14	61057.56
585.30	60999.04
585.46	60935.85
585.62	61078.62
585.78	61240.12
585.94	60870.31
586.10	61022.45
586.26	60966.27
586.42	61111.39
586.58	61219.05
586.74	61083.30
586.90	60949.89
587.06	61034.15
587.22	61066.92
587.38	61041.17
587.54	61247.14
587.70	61205.01
587.86	61151.18
588.02	61174.58
588.18	61319.70
588.34	61153.52
588.49	61183.94
