SpectraSuite Data File
++++++++++++++++++++++++++++++++++++
Date: Fri Oct 25 10:44:16 EDT 2013
User: price-jones
Dark Spectrum Present: No
Reference Spectrum Present: No
Number of Sampled Component Spectra: 1
Spectrometers: USB2+H05261
Integration Time (usec): 100000 (USB2+H05261)
Spectra Averaged: 1 (USB2+H05261)
Boxcar Smoothing: 0 (USB2+H05261)
Correct for Electrical Dark: No (USB2+H05261)
Strobe/Lamp Enabled: No (USB2+H05261)
Correct for Detector Non-linearity: No (USB2+H05261)
Correct for Stray Light: No (USB2+H05261)
Number of Pixels in Processed Spectrum: 2048
>>>>>Begin Processed Spectral Data<<<<<
365.73	156.82
365.92	156.82
366.12	156.82
366.32	63.19
366.52	30.43
366.72	84.26
366.91	77.24
367.11	39.79
367.31	35.11
367.51	0.00
367.70	0.00
367.90	51.49
368.10	23.41
368.30	21.06
368.49	0.00
368.69	51.49
368.89	4.68
369.09	49.15
369.28	98.30
369.48	107.66
369.68	112.35
369.87	98.30
370.07	81.92
370.27	138.09
370.47	175.54
370.66	411.93
370.86	498.53
371.06	411.93
371.25	500.87
371.45	463.43
371.65	517.26
371.84	404.91
372.04	451.72
372.24	456.40
372.44	400.23
372.63	505.56
372.83	519.60
373.03	575.77
373.22	552.37
373.42	533.64
373.62	461.09
373.81	545.34
374.01	580.45
374.21	582.79
374.40	550.03
374.60	526.62
374.79	543.00
374.99	575.77
375.19	566.41
375.38	589.82
375.58	613.22
375.78	636.63
375.97	622.58
376.17	685.78
376.37	566.41
376.56	627.26
376.76	571.09
376.95	620.24
377.15	704.50
377.35	692.80
377.54	688.12
377.74	636.63
377.93	592.16
378.13	645.99
378.33	573.43
378.52	660.03
378.72	690.46
378.91	674.07
379.11	622.58
379.31	582.79
379.50	690.46
379.70	685.78
379.89	720.88
380.09	683.44
380.28	667.05
380.48	725.57
380.68	734.93
380.87	615.56
381.07	725.57
381.26	788.76
381.46	725.57
381.65	711.52
381.85	671.73
382.04	662.37
382.24	725.57
382.43	716.20
382.63	692.80
382.83	709.18
383.02	795.78
383.22	765.36
383.41	660.03
383.61	734.93
383.80	835.57
384.00	819.19
384.19	704.50
384.39	837.91
384.58	788.76
384.78	706.84
384.97	805.14
385.17	814.51
385.36	786.42
385.56	741.95
385.75	802.80
385.95	748.97
386.14	887.06
386.34	807.48
386.53	887.06
386.72	779.40
386.92	884.72
387.11	875.36
387.31	842.59
387.50	898.77
387.70	854.30
387.89	887.06
388.09	837.91
388.28	887.06
388.48	837.91
388.67	1036.86
388.86	924.51
389.06	905.79
389.25	973.66
389.45	994.73
389.64	929.19
389.84	964.30
390.03	1006.43
390.22	1050.90
390.42	1036.86
390.61	1062.60
390.81	1015.79
391.00	917.49
391.19	1086.01
391.39	990.05
391.58	1043.88
391.78	1107.07
391.97	1055.58
392.16	1095.37
392.36	1025.15
392.55	992.39
392.75	999.41
392.94	1006.43
393.13	1053.24
393.33	966.64
393.52	1055.58
393.71	1062.60
393.91	1095.37
394.10	1102.39
394.29	1146.86
394.49	1100.05
394.68	1179.63
394.88	1174.95
395.07	1345.81
395.26	1254.53
395.46	1247.51
395.65	1235.80
395.84	1203.04
396.04	1238.14
396.23	1146.86
396.42	1139.84
396.62	1135.16
396.81	1186.65
397.00	1247.51
397.19	1345.81
397.39	1306.02
397.58	1277.93
397.77	1378.58
397.97	1497.94
398.16	1359.85
398.35	1430.07
398.55	1441.77
398.74	1584.54
398.93	1624.33
399.12	1561.14
399.32	1369.21
399.51	1514.33
399.70	1636.03
399.90	1432.41
400.09	1582.20
400.28	1575.18
400.47	1551.78
400.67	1586.88
400.86	1661.78
401.05	1706.25
401.24	1614.97
401.44	1734.34
401.63	1713.27
401.82	1713.27
402.01	1664.12
402.21	1668.80
402.40	1753.06
402.59	1739.02
402.78	1944.99
402.97	1776.47
403.17	1820.94
403.36	1839.66
403.55	1724.97
403.74	1837.32
403.93	1839.66
404.13	1856.04
404.32	1905.20
404.51	1842.00
404.70	1982.43
404.89	1900.52
405.09	2167.34
405.28	1884.13
405.47	1952.01
405.66	2024.56
405.85	1994.14
406.05	1893.49
406.24	1989.46
406.43	2031.58
406.62	1919.24
406.81	2090.10
407.00	2069.03
407.20	2073.71
407.39	2197.76
407.58	2092.44
407.77	2225.85
407.96	2221.17
408.15	2253.94
408.34	2235.21
408.54	2272.66
408.73	2429.48
408.92	2394.37
409.11	2314.79
409.30	2251.60
409.49	2317.13
409.68	2307.77
409.87	2270.32
410.07	2326.49
410.26	2298.41
410.45	2361.60
410.64	2392.03
410.83	2487.99
411.02	2553.52
411.21	2567.57
411.40	2605.02
411.59	2644.81
411.78	2733.75
411.98	2532.46
412.17	2663.53
412.36	2576.93
412.55	2644.81
412.74	2729.06
412.93	2717.36
413.12	2668.21
413.31	2902.26
413.50	2813.32
413.69	2874.18
413.88	2909.29
414.07	2904.60
414.26	2799.28
414.45	3023.97
414.64	3063.76
414.83	3080.14
415.02	3141.00
415.22	3190.15
415.41	3016.95
415.60	2988.86
415.79	3227.60
415.98	3145.68
416.17	3229.94
416.36	3248.66
416.55	3262.71
416.74	3241.64
416.93	3213.56
417.12	3304.84
417.31	3473.36
417.50	3251.00
417.69	3449.95
417.88	3346.97
418.07	3365.69
418.26	3412.50
418.45	3421.86
418.64	3653.58
418.83	3524.85
419.02	3442.93
419.21	3747.20
419.39	3595.06
419.58	3503.78
419.77	3398.46
419.96	3681.66
420.15	3719.11
420.34	3648.90
420.53	3728.47
420.72	3777.62
420.91	3836.14
421.10	3815.07
421.29	3880.61
421.48	3735.50
421.67	3808.05
421.86	3887.63
422.05	3880.61
422.24	3744.86
422.43	3669.96
422.61	3955.51
422.80	3852.52
422.99	3922.74
423.18	3962.53
423.37	3934.44
423.56	3864.22
423.75	3899.33
423.94	3861.88
424.13	3730.81
424.32	3861.88
424.50	3999.98
424.69	4056.15
424.88	3950.82
425.07	4053.81
425.26	3871.25
425.45	3871.25
425.64	3918.06
425.83	3887.63
426.01	3974.23
426.20	4086.58
426.39	3967.21
426.58	3978.91
426.77	3915.72
426.96	3990.61
427.15	4102.96
427.33	3995.29
427.52	4152.11
427.71	4093.60
427.90	4058.49
428.09	4154.45
428.28	4194.24
428.46	4147.43
428.65	4198.92
428.84	4156.79
429.03	4159.13
429.22	4140.41
429.40	4280.84
429.59	4154.45
429.78	3922.74
429.97	3852.52
430.16	4081.89
430.34	4079.55
430.53	4203.60
430.72	4067.85
430.91	4290.20
431.10	4376.80
431.28	4432.97
431.47	4688.09
431.66	4777.03
431.85	4447.02
432.03	4613.20
432.22	4671.71
432.41	4594.47
432.60	4709.16
432.79	4854.27
432.97	4798.10
433.16	4657.67
433.35	4699.80
433.54	4737.24
433.72	4664.69
433.91	4608.51
434.10	4704.48
434.28	4800.44
434.47	4784.06
434.66	4842.57
434.85	5022.79
435.03	4950.23
435.22	4828.53
435.41	5135.14
435.59	5111.73
435.78	5020.45
435.97	5167.90
436.16	5071.94
436.34	5095.35
436.53	5158.54
436.72	5121.09
436.90	5116.41
437.09	5193.65
437.28	5095.35
437.46	5191.31
437.65	5057.90
437.84	5139.82
438.02	5142.16
438.21	5219.39
438.40	5132.79
438.58	5397.28
438.77	5254.50
438.96	5427.70
439.14	5631.33
439.33	5516.64
439.52	5469.83
439.70	5682.82
439.89	5877.09
440.08	5617.29
440.26	5689.84
440.45	5621.97
440.63	5825.59
440.82	6010.50
441.01	5907.51
441.19	5956.66
441.38	6193.06
441.57	6305.40
441.75	6106.46
441.94	6286.68
442.12	6319.45
442.31	6162.63
442.50	6335.83
442.68	6394.34
442.87	6256.25
443.05	6256.25
443.24	6490.31
443.43	6394.34
443.61	6403.71
443.80	6565.20
443.98	6296.04
444.17	6167.31
444.35	6429.45
444.54	6520.73
444.73	6478.60
444.91	6396.68
445.10	6363.92
445.28	6530.09
445.47	6380.30
445.65	6333.49
445.84	6485.62
446.02	6686.91
446.21	6670.53
446.39	6679.89
446.58	6693.93
446.77	6707.98
446.95	6604.99
447.14	6857.77
447.32	6789.89
447.51	6747.76
447.69	6604.99
447.88	6696.27
448.06	6679.89
448.25	6867.13
448.43	6820.32
448.62	6801.60
448.80	6726.70
448.99	6759.47
449.17	6855.43
449.36	6820.32
449.54	6942.03
449.73	6904.58
449.91	7180.76
450.10	7126.93
450.28	7250.98
450.46	7246.30
450.65	7206.51
450.83	7101.19
451.02	7148.00
451.20	7232.26
451.39	7337.58
451.57	7159.70
451.76	7140.97
451.94	7349.28
452.13	7386.73
452.31	7290.77
452.49	7091.82
452.68	7269.70
452.86	7178.42
453.05	7304.81
453.23	7384.39
453.42	7548.23
453.60	7225.23
453.78	7412.48
453.97	7243.96
454.15	7487.37
454.34	7377.37
454.52	7538.87
454.70	7412.48
454.89	7452.27
455.07	7573.97
455.26	7707.38
455.44	7688.66
455.62	7786.96
455.81	7878.24
455.99	7730.79
456.17	7709.72
456.36	7843.14
456.54	7815.05
456.73	8039.74
456.91	7983.57
457.09	8170.81
457.28	8278.47
457.46	8191.88
457.64	8051.44
457.83	7868.88
458.01	7920.37
458.19	8259.75
458.38	8114.64
458.56	8315.92
458.74	8301.88
458.93	8322.94
459.11	8283.16
459.29	8243.37
459.48	8409.54
459.66	8166.13
459.84	8409.54
460.03	8573.38
460.21	8589.77
460.39	8390.82
460.57	8571.04
460.76	8549.98
460.94	8746.58
461.12	8596.79
461.31	8648.28
461.49	8823.82
461.67	8629.56
461.85	8741.90
462.04	8603.81
462.22	9071.92
462.40	8898.72
462.59	8908.08
462.77	8879.99
462.95	8954.89
463.13	9004.04
463.32	8945.53
463.50	9064.89
463.68	8781.69
463.86	8997.02
464.05	8779.35
464.23	8901.06
464.41	8929.14
464.59	8894.04
464.78	9397.25
464.96	9181.92
465.14	9064.89
465.32	9296.61
465.50	9090.64
465.69	9369.16
465.87	9261.50
466.05	9275.54
466.23	9078.94
466.41	9172.56
466.60	9366.82
466.78	9156.18
466.96	9294.27
467.14	9289.59
467.32	9280.22
467.51	9474.49
467.69	9254.48
467.87	9275.54
468.05	9378.53
468.23	9277.88
468.41	9355.12
468.60	9455.76
468.78	9518.96
468.96	9631.30
469.14	9715.56
469.32	9673.43
469.50	9446.40
469.69	9783.44
469.87	9675.77
470.05	9900.47
470.23	9671.09
470.41	9872.38
470.59	9837.27
470.77	9863.02
470.95	10026.86
471.14	9984.73
471.32	10125.16
471.50	10232.82
471.68	10391.98
471.86	10303.04
472.04	10195.37
472.22	10682.20
472.40	10377.94
472.58	10457.51
472.77	10324.10
472.95	10586.24
473.13	10813.28
473.31	10677.52
473.49	10473.90
473.67	10672.84
473.85	10839.02
474.03	10916.26
474.21	10902.22
474.39	11105.84
474.57	11049.67
474.75	10984.13
474.93	11173.72
475.12	11000.52
475.30	11124.57
475.48	11154.99
475.66	11325.85
475.84	11286.06
476.02	11456.92
476.20	11386.71
476.38	11630.12
476.56	12079.50
476.74	11857.15
476.92	11852.47
477.10	11782.26
477.28	12264.41
477.46	12098.23
477.64	12088.87
477.82	12608.47
478.00	12732.51
478.18	12561.66
478.36	12318.24
478.54	12568.68
478.72	12807.41
478.90	12952.52
479.08	13092.96
479.26	13329.35
479.44	13242.75
479.62	13376.16
479.80	13392.55
479.98	13263.82
480.16	13507.23
480.34	13565.74
480.52	13788.10
480.70	13872.36
480.88	13769.37
481.06	13989.38
481.24	13865.33
481.41	14265.57
481.59	14408.34
481.77	14319.40
481.95	14597.92
482.13	14698.56
482.31	14726.65
482.49	14956.02
482.67	14789.85
482.85	14743.03
483.03	15157.31
483.21	15281.36
483.39	15358.60
483.57	15288.38
483.74	15424.13
483.92	15775.21
484.10	15503.71
484.28	15859.47
484.46	15920.32
484.64	16042.03
484.82	16226.93
485.00	16210.55
485.18	16446.94
485.35	16430.56
485.53	15805.64
485.71	16149.70
485.89	16280.77
486.07	16573.33
486.25	16681.00
486.43	16910.37
486.61	17181.87
486.78	17055.48
486.96	17343.37
487.14	17862.97
487.32	17738.92
487.50	18270.22
487.68	18036.17
487.85	18579.17
488.03	18541.72
488.21	18338.10
488.39	18630.66
488.57	18286.61
488.75	18719.60
488.92	18937.27
489.10	19545.81
489.28	19403.04
489.46	19927.32
489.64	19768.16
489.81	20067.75
489.99	20315.85
490.17	20144.99
490.35	20369.68
490.53	20486.71
490.70	20489.05
490.88	20638.84
491.06	20877.58
491.24	20903.32
491.41	20741.83
491.59	20774.60
491.77	20830.77
491.95	21128.02
492.13	21420.58
492.30	21589.10
492.48	21692.08
492.66	21577.40
492.84	21528.25
493.01	22146.15
493.19	22001.04
493.37	22312.33
493.54	22263.18
493.72	22438.72
493.90	22459.78
494.08	22946.61
494.25	23047.26
494.43	23372.59
494.61	23477.91
494.79	23843.04
494.96	23414.72
495.14	23461.53
495.32	23475.57
495.49	23489.62
495.67	24109.86
495.85	23908.57
496.02	24156.67
496.20	24531.15
496.38	24315.83
496.55	24549.88
496.73	24805.00
496.91	24673.93
497.09	25032.03
497.26	25055.43
497.44	24971.18
497.62	25450.99
497.79	25275.45
497.97	25266.08
498.14	25582.06
498.32	25542.27
498.50	25862.92
498.67	26103.99
498.85	25752.91
499.03	26096.97
499.20	26178.89
499.38	26214.00
499.56	26422.31
499.73	26529.97
499.91	26789.77
500.08	26326.35
500.26	26679.77
500.44	26696.15
500.61	26593.17
500.79	26536.99
500.97	27337.46
501.14	26967.65
501.32	26948.93
501.49	27321.07
501.67	27290.65
501.84	27529.38
502.02	27140.85
502.20	27807.90
502.37	28215.16
502.55	27716.62
502.72	27974.08
502.90	28041.96
503.07	27854.72
503.25	27988.13
503.43	27803.22
503.60	27953.02
503.78	28402.40
503.95	28304.10
504.13	28650.50
504.30	28559.22
504.48	28889.23
504.65	28769.86
504.83	29156.05
505.01	29305.85
505.18	29600.76
505.36	29434.58
505.53	29385.43
505.71	29844.17
505.88	29518.84
506.06	29090.52
506.23	29685.01
506.41	29738.85
506.58	29586.71
506.76	29727.14
506.93	29883.96
507.11	30000.99
507.28	29956.52
507.46	30010.35
507.63	30113.33
507.81	30258.45
507.98	29820.77
508.16	30352.07
508.33	30974.65
508.50	30581.44
508.68	30848.26
508.85	31428.71
509.03	31342.11
509.20	31253.17
509.38	31030.82
509.55	31253.17
509.73	31515.31
509.90	31564.46
510.08	31381.90
510.25	31421.69
510.42	31482.55
510.60	31695.53
510.77	31847.67
510.95	31960.02
511.12	32116.83
511.30	31922.57
511.47	32570.90
511.64	32479.61
511.82	32545.15
511.99	32308.76
512.17	32327.48
512.34	32266.63
512.51	32552.17
512.69	32863.46
512.86	32535.79
513.04	33041.34
513.21	32921.98
513.38	32554.51
513.56	33083.47
513.73	32875.16
513.90	33556.26
514.08	33071.77
514.25	33586.69
514.43	33024.96
514.60	33024.96
514.77	33362.00
514.95	34022.03
515.12	33668.61
515.29	33848.83
515.47	33909.68
515.64	33998.62
515.81	33656.90
515.99	33956.49
516.16	33928.41
516.33	33387.74
516.51	33717.76
516.68	33448.60
516.85	33511.79
517.03	33450.94
517.20	34052.45
517.37	34450.35
517.54	34728.87
517.72	34323.96
517.89	34106.29
518.06	33876.91
518.24	34000.96
518.41	34448.00
518.58	34614.18
518.75	34553.33
518.93	34944.20
519.10	34946.54
519.27	35208.68
519.45	35314.00
519.62	35419.33
519.79	35414.65
519.96	35646.36
520.14	35690.83
520.31	35194.64
520.48	35627.63
520.65	35606.57
520.83	35910.84
521.00	35924.88
521.17	35751.68
521.34	36320.43
521.52	36290.01
521.69	36053.61
521.86	36318.09
522.03	36458.52
522.20	36205.75
522.38	36416.40
522.55	36868.12
522.72	36734.71
522.89	36914.93
523.07	36699.60
523.24	36737.05
523.41	36921.95
523.58	36886.84
523.75	37579.64
523.92	36985.15
524.10	37296.44
524.27	37488.36
524.44	37397.08
524.61	37467.30
524.78	37432.19
524.96	37610.07
525.13	37975.19
525.30	37570.28
525.47	38333.29
525.64	37677.94
525.81	38202.22
525.98	37432.19
526.16	37572.62
526.33	37387.72
526.50	37773.91
526.67	37649.86
526.84	37762.20
527.01	37443.89
527.18	37764.54
527.36	38103.92
527.53	38614.16
527.70	38593.09
527.87	38270.10
528.04	38122.65
528.21	38597.77
528.38	39164.18
528.55	38742.89
528.72	38820.13
528.89	39171.21
529.07	39236.74
529.24	39014.39
529.41	38859.91
529.58	38965.24
529.75	39143.12
529.92	39346.75
530.09	39306.96
530.26	39533.99
530.43	39042.48
530.60	39402.92
530.77	39091.63
530.94	39625.27
531.11	39304.62
531.28	39693.15
531.46	39606.55
531.63	39796.13
531.80	39096.31
531.97	39580.80
532.14	39751.66
532.31	39531.65
532.48	39491.86
532.65	39601.86
532.82	39700.17
532.99	39831.24
533.16	40034.86
533.33	39739.96
533.50	40238.49
533.67	40011.46
533.84	40032.52
534.01	39983.37
534.18	40402.33
534.35	40409.35
534.52	40329.77
534.69	40648.08
534.86	40411.69
535.03	40568.51
535.20	40739.36
535.37	41153.64
535.54	41081.08
535.71	41097.47
535.88	41024.91
536.05	40648.08
536.22	40840.01
536.38	40748.73
536.55	40545.10
536.72	40505.31
536.89	40381.26
537.06	40891.50
537.23	40999.16
537.40	41031.93
537.57	40924.27
537.74	41167.68
537.91	41205.13
538.08	41322.16
538.25	41116.19
538.42	41158.32
538.59	41418.12
538.75	41371.31
538.92	41591.32
539.09	41759.84
539.26	41507.06
539.43	41710.69
539.60	41631.11
539.77	41001.50
539.94	41893.25
540.11	41090.44
540.28	41495.36
540.44	41603.02
540.61	42024.32
540.78	41808.99
540.95	41776.22
541.12	41785.58
541.29	41659.20
541.46	41771.54
541.62	41766.86
541.79	42181.13
541.96	42019.64
542.13	42436.25
542.30	42026.66
542.47	42007.94
542.63	42305.18
542.80	42234.97
542.97	42443.27
543.14	42810.74
543.31	42843.51
543.48	42698.39
543.64	43213.31
543.81	42904.36
543.98	42609.45
544.15	43093.94
544.32	42705.41
544.48	43480.13
544.65	43021.39
544.82	43040.11
544.99	42576.69
545.16	42981.60
545.32	43096.28
545.49	43915.47
545.66	43606.52
545.83	43105.65
546.00	43487.15
546.16	43203.95
546.33	43239.06
546.50	42993.30
546.67	43428.64
546.83	43028.41
547.00	43356.08
547.17	43468.43
547.34	43161.82
547.50	43283.53
547.67	43201.61
547.84	43519.92
548.00	44039.52
548.17	44037.18
548.34	43653.33
548.51	44123.78
548.67	43564.39
548.84	44095.69
549.01	43814.83
549.18	43934.20
549.34	44369.54
549.51	44135.48
549.68	44137.82
549.84	44177.61
550.01	44058.24
550.18	44355.49
550.34	44208.04
550.51	44205.70
550.68	44357.83
550.84	43852.28
551.01	44406.98
551.18	44067.61
551.34	43927.17
551.51	44580.18
551.68	44102.71
551.84	44662.10
552.01	44315.70
552.18	44481.88
552.34	44294.64
552.51	44371.88
552.68	44231.44
552.84	44954.67
553.01	44898.50
553.18	44739.34
553.34	44584.86
553.51	44596.57
553.67	44601.25
553.84	44634.02
554.01	45062.33
554.17	44788.49
554.34	44769.77
554.51	45148.93
554.67	45179.36
554.84	44608.27
555.00	44795.51
555.17	44690.19
555.33	44971.05
555.50	44966.37
555.67	44966.37
555.83	44947.65
556.00	45132.55
556.16	45251.92
556.33	45031.91
556.50	44942.97
556.66	45097.44
556.83	44758.06
556.99	45193.40
557.16	45165.32
557.32	44928.92
557.49	45202.77
557.65	45125.53
557.82	45340.86
557.98	45343.20
558.15	45008.50
558.32	45617.04
558.48	45216.81
558.65	45303.41
558.81	44781.47
558.98	45361.92
559.14	45048.29
559.31	45237.87
559.47	45352.56
559.64	45432.14
559.80	45457.88
559.97	45352.56
560.13	45507.04
560.30	44875.09
560.46	45357.24
560.63	45731.73
560.79	45876.84
560.96	45654.49
561.12	45694.28
561.29	45476.61
561.45	45752.79
561.61	45595.98
561.78	45474.27
561.94	45226.17
562.11	45600.66
562.27	45839.39
562.44	45860.46
562.60	45425.12
562.77	45759.81
562.93	45909.61
563.10	46160.05
563.26	45439.16
563.42	45544.48
563.59	45296.39
563.75	45427.46
563.92	46155.36
564.08	45500.01
564.24	45743.43
564.41	45930.67
564.57	45944.72
564.74	46050.04
564.90	45991.53
565.07	46192.81
565.23	45670.87
565.39	45558.53
565.56	46078.13
565.72	45638.11
565.88	45668.53
566.05	45390.01
566.21	45680.24
566.38	45947.06
566.54	46323.88
566.70	46300.48
566.87	46291.12
567.03	46087.49
567.19	46258.35
567.36	46232.60
567.52	46232.60
567.68	46108.55
567.85	46150.68
568.01	46073.45
568.17	46031.32
568.34	45965.78
568.50	46176.43
568.66	45979.82
568.83	45961.10
568.99	45757.47
569.15	45811.31
569.32	45734.07
569.48	45691.94
569.64	46234.94
569.81	46323.88
569.97	46192.81
570.13	46138.98
570.30	45635.77
570.46	45488.31
570.62	45713.00
570.78	45713.00
570.95	45687.26
571.11	46075.79
571.27	45755.13
571.43	46050.04
571.60	46068.76
571.76	46183.45
571.92	46246.65
572.09	45911.95
572.25	46312.18
572.41	46000.89
572.57	46335.59
572.74	46330.90
572.90	45935.35
573.06	46265.37
573.22	46204.52
573.38	46199.83
573.55	45780.88
573.71	46197.49
573.87	46216.22
574.03	46202.18
574.20	45844.07
574.36	45897.91
574.52	46286.43
574.68	46052.38
574.84	46227.92
575.01	45940.04
575.17	46171.75
575.33	45481.29
575.49	46036.00
575.65	46225.58
575.82	46476.02
575.98	46436.23
576.14	46415.16
576.30	46096.85
576.46	46248.99
576.62	46117.92
576.79	46188.13
576.95	46080.47
577.11	46082.81
577.27	46354.31
577.43	46405.80
577.59	46480.70
577.75	45539.80
577.92	45811.31
578.08	45982.16
578.24	45949.40
578.40	46031.32
578.56	45993.87
578.72	46377.72
578.88	46745.18
579.04	46260.69
579.21	45925.99
579.37	46185.79
579.53	46134.30
579.69	46094.51
579.85	46256.01
580.01	46513.47
580.17	46230.26
580.33	46813.05
580.49	46691.35
580.65	46454.95
580.82	46293.46
580.98	46181.11
581.14	46230.26
581.30	46164.73
581.46	46705.39
581.62	46571.98
581.78	46438.57
581.94	46700.71
582.10	46335.59
582.26	46129.62
582.42	46164.73
582.58	46293.46
582.74	46700.71
582.90	46045.36
583.06	46356.65
583.22	46583.68
583.38	46768.58
583.54	46436.23
583.70	46043.02
583.86	46073.45
584.02	46230.26
584.18	46366.01
584.34	46129.62
584.50	46660.92
584.66	46253.67
584.82	46108.55
584.98	46667.94
585.14	46408.14
585.30	45841.73
585.46	46099.19
585.62	46431.55
585.78	46274.73
585.94	45839.39
586.10	46838.80
586.26	46354.31
586.42	46522.83
586.58	46351.97
586.74	46415.16
586.90	46550.91
587.06	46457.29
587.22	46415.16
587.38	45921.31
587.54	46141.32
587.70	46827.10
587.86	46504.10
588.02	46469.00
588.18	46122.60
588.34	46230.26
588.49	45853.44
588.65	45563.21
588.81	45689.60
588.97	45818.33
589.13	45661.51
589.29	46101.53
589.45	46007.91
589.61	46265.37
589.77	46646.88
589.93	46342.61
