SpectraSuite Data File
++++++++++++++++++++++++++++++++++++
Date: Fri Oct 25 11:34:20 EDT 2013
User: price-jones
Dark Spectrum Present: No
Reference Spectrum Present: No
Number of Sampled Component Spectra: 1
Spectrometers: USB2+H05261
Integration Time (usec): 100000 (USB2+H05261)
Spectra Averaged: 1 (USB2+H05261)
Boxcar Smoothing: 0 (USB2+H05261)
Correct for Electrical Dark: No (USB2+H05261)
Strobe/Lamp Enabled: No (USB2+H05261)
Correct for Detector Non-linearity: No (USB2+H05261)
Correct for Stray Light: No (USB2+H05261)
Number of Pixels in Processed Spectrum: 2048
>>>>>Begin Processed Spectral Data<<<<<
365.73	322.99
365.92	322.99
366.12	322.99
366.32	163.84
366.52	205.97
366.72	227.03
366.91	124.05
367.11	180.22
367.31	196.60
367.51	147.45
367.70	156.82
367.90	140.43
368.10	140.43
368.30	168.52
368.49	175.54
368.69	168.52
368.89	227.03
369.09	187.24
369.28	236.39
369.48	250.44
369.68	175.54
369.87	177.88
370.07	269.16
370.27	308.95
370.47	278.52
370.66	461.09
370.86	519.60
371.06	528.96
371.25	610.88
371.45	531.30
371.65	575.77
371.84	451.72
372.04	557.05
372.24	610.88
372.44	566.41
372.63	636.63
372.83	552.37
373.03	550.03
373.22	564.07
373.42	550.03
373.62	603.86
373.81	676.41
374.01	657.69
374.21	653.01
374.40	634.29
374.60	683.44
374.79	638.97
374.99	760.67
375.19	718.54
375.38	608.54
375.58	601.52
375.78	755.99
375.97	692.80
376.17	709.18
376.37	669.39
376.56	720.88
376.76	620.24
376.95	643.65
377.15	622.58
377.35	692.80
377.54	669.39
377.74	681.10
377.93	685.78
378.13	683.44
378.33	671.73
378.52	669.39
378.72	763.01
378.91	704.50
379.11	716.20
379.31	711.52
379.50	727.91
379.70	716.20
379.89	704.50
380.09	669.39
380.28	706.84
380.48	741.95
380.68	657.69
380.87	791.10
381.07	791.10
381.26	765.36
381.46	772.38
381.65	788.76
381.85	746.63
382.04	760.67
382.24	723.23
382.43	802.80
382.63	725.57
382.83	734.93
383.02	727.91
383.22	847.27
383.41	809.83
383.61	781.74
383.80	861.32
384.00	814.51
384.19	823.87
384.39	786.42
384.58	807.48
384.78	826.21
384.97	858.98
385.17	807.48
385.36	849.61
385.56	779.40
385.75	709.18
385.95	819.19
386.14	830.89
386.34	816.85
386.53	908.13
386.72	889.40
386.92	861.32
387.11	954.94
387.31	924.51
387.50	877.70
387.70	917.49
387.89	964.30
388.09	873.02
388.28	844.93
388.48	915.15
388.67	1008.77
388.86	926.85
389.06	901.11
389.25	926.85
389.45	973.66
389.64	950.26
389.84	947.92
390.03	964.30
390.22	952.60
390.42	933.87
390.61	844.93
390.81	861.32
391.00	994.73
391.19	976.00
391.39	957.28
391.58	938.55
391.78	990.05
391.97	1043.88
392.16	1057.92
392.36	1048.56
392.55	1036.86
392.75	985.37
392.94	957.28
393.13	1069.62
393.33	1020.47
393.52	1043.88
393.71	1001.75
393.91	1043.88
394.10	954.94
394.29	1090.69
394.49	1081.33
394.68	1083.67
394.88	1188.99
395.07	1107.07
395.26	1118.78
395.46	1181.97
395.65	1151.54
395.84	1130.48
396.04	1254.53
396.23	1235.80
396.42	1107.07
396.62	1165.59
396.81	1203.04
397.00	1104.73
397.19	1224.10
397.39	1228.78
397.58	1226.44
397.77	1036.86
397.97	1303.68
398.16	1200.69
398.35	1226.44
398.55	1149.20
398.74	1233.46
398.93	1350.49
399.12	1238.14
399.32	1224.10
399.51	1291.98
399.70	1306.02
399.90	1263.89
400.09	1247.51
400.28	1392.62
400.47	1378.58
400.67	1409.00
400.86	1385.60
401.05	1373.89
401.24	1376.24
401.44	1371.55
401.63	1413.68
401.82	1397.30
402.01	1507.30
402.21	1399.64
402.40	1392.62
402.59	1451.13
402.78	1469.86
402.97	1490.92
403.17	1432.41
403.36	1603.27
403.55	1511.99
403.74	1568.16
403.93	1593.90
404.13	1528.37
404.32	1589.22
404.51	1528.37
404.70	1626.67
404.89	1610.29
405.09	1699.23
405.28	1685.19
405.47	1523.69
405.66	1689.87
405.85	1671.14
406.05	1598.59
406.24	1699.23
406.43	1771.79
406.62	1769.44
406.81	1724.97
407.00	1715.61
407.20	1687.53
407.39	1755.40
407.58	1750.72
407.77	1788.17
407.96	1771.79
408.15	1753.06
408.34	1813.92
408.54	1970.73
408.73	1895.83
408.92	1907.54
409.11	1942.64
409.30	1940.30
409.49	1830.30
409.68	1937.96
409.87	2015.20
410.07	1956.69
410.26	1949.67
410.45	2066.69
410.64	1893.49
410.83	2176.70
411.02	2024.56
411.21	2113.50
411.40	2115.84
411.59	2132.23
411.78	2143.93
411.98	2099.46
412.17	2146.27
412.36	2157.97
412.55	2209.47
412.74	2284.36
412.93	2293.72
413.12	2207.13
413.31	2345.22
413.50	2328.83
413.69	2331.17
413.88	2338.20
414.07	2478.63
414.26	2480.97
414.45	2478.63
414.64	2480.97
414.83	2527.78
415.02	2530.12
415.22	2623.74
415.41	2562.89
415.60	2623.74
415.79	2527.78
415.98	2700.98
416.17	2712.68
416.36	2595.65
416.55	2696.30
416.74	2647.15
416.93	2677.57
417.12	2686.94
417.31	2815.66
417.50	2796.94
417.69	2759.49
417.88	2832.05
418.07	2860.13
418.26	2825.03
418.45	2932.69
418.64	3002.91
418.83	2904.60
419.02	3047.38
419.21	2979.50
419.39	2930.35
419.58	3059.08
419.77	2953.76
419.96	3157.38
420.15	3038.02
420.34	3101.21
420.53	3124.62
420.72	3150.36
420.91	3218.24
421.10	3066.10
421.29	3117.59
421.48	3129.30
421.67	3288.45
421.86	3194.83
422.05	3178.45
422.24	3087.17
422.43	3192.49
422.61	3255.69
422.80	3279.09
422.99	3239.30
423.18	3295.47
423.37	3361.01
423.56	3332.92
423.75	3323.56
423.94	3288.45
424.13	3117.59
424.32	3070.78
424.50	3417.18
424.69	3386.76
424.88	3503.78
425.07	3281.43
425.26	3286.11
425.45	3400.80
425.64	3302.50
425.83	3295.47
426.01	3353.99
426.20	3281.43
426.39	3461.65
426.58	3424.20
426.77	3332.92
426.96	3410.16
427.15	3370.37
427.33	3363.35
427.52	3506.12
427.71	3637.19
427.90	3531.87
428.09	3562.30
428.28	3592.72
428.46	3655.92
428.65	3538.89
428.84	3681.66
429.03	3611.45
429.22	3672.30
429.40	3562.30
429.59	3786.99
429.78	3651.24
429.97	3515.48
430.16	3686.34
430.34	3847.84
430.53	3878.27
430.72	3646.55
430.91	3709.75
431.10	3812.73
431.28	3817.41
431.47	3880.61
431.66	3838.48
431.85	3829.12
432.03	3941.46
432.22	3983.59
432.41	3819.75
432.60	3957.85
432.79	4112.32
432.97	4016.36
433.16	4002.32
433.35	3892.31
433.54	3981.25
433.72	4018.70
433.91	4086.58
434.10	4121.68
434.28	3995.29
434.47	4145.09
434.66	4131.05
434.85	4304.25
435.03	4252.75
435.22	4177.86
435.41	4402.55
435.59	4276.16
435.78	4301.90
435.97	4250.41
436.16	4369.78
436.34	4301.90
436.53	4353.40
436.72	4353.40
436.90	4304.25
437.09	4344.03
437.28	4402.55
437.46	4320.63
437.65	4493.83
437.84	4470.42
438.02	4458.72
438.21	4414.25
438.40	4517.23
438.58	4657.67
438.77	4634.26
438.96	4620.22
439.14	4538.30
439.33	4851.93
439.52	4873.00
439.70	4865.97
439.89	4725.54
440.08	4954.91
440.26	4826.18
440.45	4798.10
440.63	4830.87
440.82	5048.54
441.01	4840.23
441.19	5139.82
441.38	5097.69
441.57	5207.69
441.75	5233.44
441.94	5165.56
442.12	5259.18
442.31	5200.67
442.50	5270.89
442.68	5139.82
442.87	5238.12
443.05	5261.52
443.24	5511.96
443.43	5317.70
443.61	5467.49
443.80	5373.87
443.98	5322.38
444.17	5149.18
444.35	5383.23
444.54	5490.90
444.73	5399.62
444.91	5481.53
445.10	5331.74
445.28	5408.98
445.47	5373.87
445.65	5547.07
445.84	5589.20
446.02	5535.37
446.21	5521.32
446.39	5549.41
446.58	5591.54
446.77	5680.48
446.95	5568.13
447.14	5568.13
447.32	5680.48
447.51	5535.37
447.69	5465.15
447.88	5514.30
448.06	5486.22
448.25	5586.86
448.43	5518.98
448.62	5753.04
448.80	5621.97
448.99	5746.02
449.17	5834.96
449.36	5694.52
449.54	5682.82
449.73	5865.38
449.91	5912.19
450.10	5935.60
450.28	5863.04
450.46	5947.30
450.65	5919.21
450.83	5926.24
451.02	6134.54
451.20	6059.65
451.39	5944.96
451.57	6022.20
451.76	5853.68
451.94	6005.81
452.13	6200.08
452.31	6080.71
452.49	5996.45
452.68	6069.01
452.86	6171.99
453.05	6061.99
453.23	6141.57
453.42	6083.05
453.60	6108.80
453.78	6305.40
453.97	6160.29
454.15	6122.84
454.34	6267.95
454.52	6303.06
454.70	6293.70
454.89	6207.10
455.07	6340.51
455.26	6361.58
455.44	6651.80
455.62	6319.45
455.81	6548.82
455.99	6537.12
456.17	6558.18
456.36	6445.84
456.54	6525.41
456.73	6658.82
456.91	6806.28
457.09	6827.34
457.28	6832.02
457.46	6668.19
457.64	6860.11
457.83	7026.29
458.01	6698.61
458.19	7091.82
458.38	6946.71
458.56	6953.73
458.74	7028.63
458.93	6897.56
459.11	7103.53
459.29	7059.06
459.48	7063.74
459.66	7201.83
459.84	7213.53
460.03	7337.58
460.21	7105.87
460.39	7117.57
460.57	7232.26
460.76	7164.38
460.94	7262.68
461.12	7091.82
461.31	7265.02
461.49	7171.40
461.67	7304.81
461.85	7616.10
462.04	7232.26
462.22	7772.92
462.40	7712.07
462.59	7302.47
462.77	7351.62
462.95	7686.32
463.13	7513.12
463.32	7536.52
463.50	7655.89
463.68	7667.60
463.86	7595.04
464.05	7510.78
464.23	7625.47
464.41	7854.84
464.59	7660.57
464.78	7819.73
464.96	7791.64
465.14	7810.37
465.32	8049.10
465.50	7772.92
465.69	7859.52
465.87	7950.80
466.05	7922.71
466.23	7981.23
466.41	8124.00
466.60	8105.28
466.78	7941.44
466.96	7864.20
467.14	7845.48
467.32	7999.95
467.51	8058.46
467.69	7852.50
467.87	8037.40
468.05	8154.43
468.23	8098.25
468.41	8194.22
468.60	8079.53
468.78	8131.02
468.96	8301.88
469.14	8496.14
469.32	8468.06
469.50	8159.11
469.69	8451.67
469.87	8568.70
470.05	8362.73
470.23	8496.14
470.41	8514.87
470.59	8631.90
470.77	8596.79
470.95	8645.94
471.14	8671.68
471.32	8336.99
471.50	8734.88
471.68	8662.32
471.86	8753.60
472.04	8826.16
472.22	8922.12
472.40	8922.12
472.58	9097.66
472.77	9041.49
472.95	9121.07
473.13	9320.01
473.31	9320.01
473.49	9095.32
473.67	9067.24
473.85	9275.54
474.03	9289.59
474.21	9453.42
474.39	9626.62
474.57	9467.47
474.75	9549.39
474.93	9359.80
475.12	9497.89
475.30	9537.68
475.48	9544.70
475.66	9748.33
475.84	9792.80
476.02	9977.70
476.20	9956.64
476.38	9977.70
476.56	10363.89
476.74	10132.18
476.92	10080.69
477.10	10174.31
477.28	10387.30
477.46	10204.74
477.64	10581.56
477.82	10707.95
478.00	10616.67
478.18	10778.17
478.36	10817.96
478.54	11066.05
478.72	10960.73
478.90	11178.40
479.08	11122.23
479.26	11206.48
479.44	11309.47
479.62	11529.48
479.80	11573.95
479.98	11398.41
480.16	11737.79
480.34	11496.71
480.52	11763.53
480.70	11740.13
480.88	11651.19
481.06	11850.13
481.24	11962.48
481.41	12100.57
481.59	12226.96
481.77	12283.13
481.95	12463.35
482.13	12414.20
482.31	12685.70
482.49	12945.50
482.67	12901.03
482.85	12966.57
483.03	13207.64
483.21	13160.83
483.39	13481.49
483.57	13411.27
483.74	13287.22
483.92	13572.77
484.10	13509.57
484.28	13870.01
484.46	13888.74
484.64	14188.33
484.82	13947.25
485.00	14162.58
485.18	14508.98
485.35	14740.69
485.53	14209.39
485.71	14768.78
485.89	14937.30
486.07	14773.46
486.25	14939.64
486.43	15002.83
486.61	15337.53
486.78	15304.76
486.96	15260.29
487.14	15634.78
487.32	15538.82
487.50	15704.99
487.68	15894.58
487.85	16130.97
488.03	16362.69
488.21	16460.99
488.39	16505.46
488.57	16582.70
488.75	16484.39
488.92	16713.77
489.10	17128.04
489.28	16767.60
489.46	17329.33
489.64	17280.18
489.81	17488.48
489.99	17727.22
490.17	17401.88
490.35	17963.61
490.53	17933.18
490.70	17767.01
490.88	18143.83
491.06	18031.49
491.24	18434.06
491.41	18340.44
491.59	18476.19
491.77	18635.35
491.95	18817.91
492.13	18995.79
492.30	18927.91
492.48	18967.70
492.66	19323.46
492.84	19129.20
493.01	19733.06
493.19	19342.19
493.37	19772.85
493.54	19782.21
493.72	19894.55
493.90	19962.43
494.08	20088.82
494.25	20114.56
494.43	20379.04
494.61	20547.56
494.79	20465.64
494.96	20737.15
495.14	20585.01
495.32	21062.48
495.49	21125.68
495.67	20987.58
495.85	21678.04
496.02	21610.17
496.20	21357.39
496.38	21713.15
496.55	21912.10
496.73	22085.30
496.91	22108.70
497.09	22171.89
497.26	22258.49
497.44	22022.10
497.62	22347.44
497.79	22712.56
497.97	22572.13
498.14	22838.95
498.32	22920.87
498.50	23108.11
498.67	23082.36
498.85	22731.28
499.03	23253.22
499.20	23323.44
499.38	23386.63
499.56	23431.10
499.73	23498.98
499.91	23924.96
500.08	23878.15
500.26	23538.77
500.44	24210.50
500.61	23941.34
500.79	23971.77
500.97	24222.20
501.14	24486.68
501.32	24407.11
501.49	24765.21
501.67	24655.20
501.84	24683.29
502.02	24570.94
502.20	24505.41
502.37	25113.95
502.55	25034.37
502.72	25085.86
502.90	25350.34
503.07	25076.50
503.25	25151.40
503.43	25345.66
503.60	25366.73
503.78	25792.70
503.95	25404.17
504.13	25642.91
504.30	25731.85
504.48	25905.05
504.65	25678.02
504.83	25963.56
505.01	26342.73
505.18	26106.34
505.36	26183.57
505.53	26225.70
505.71	26485.50
505.88	26506.57
506.06	26295.92
506.23	26829.56
506.41	26356.77
506.58	26892.76
506.76	27021.48
506.93	27182.98
507.11	27171.28
507.28	27138.51
507.46	27239.15
507.63	27332.78
507.81	27641.73
507.98	27175.96
508.16	27751.73
508.33	27887.48
508.50	27840.67
508.68	28048.98
508.85	28011.53
509.03	27880.46
509.20	28240.90
509.38	28240.90
509.55	27978.76
509.73	28671.56
509.90	28278.35
510.08	28460.91
510.25	28217.50
510.42	28657.52
510.60	28678.58
510.77	29095.20
510.95	29074.13
511.12	28655.18
511.30	28758.16
511.47	29179.46
511.64	29551.60
511.82	29296.49
511.99	29453.30
512.17	29411.17
512.34	29294.14
512.51	29895.66
512.69	29886.30
512.86	29855.87
513.04	29921.41
513.21	29961.20
513.38	29844.17
513.56	30368.45
513.73	30078.22
513.90	30352.07
514.08	30045.46
514.25	30553.35
514.43	30792.09
514.60	30630.59
514.77	30536.97
514.95	30815.49
515.12	30511.22
515.29	30490.16
515.47	30595.48
515.64	31129.12
515.81	30792.09
515.99	31309.35
516.16	31276.58
516.33	31218.07
516.51	31740.00
516.68	31449.78
516.85	31384.24
517.03	31428.71
517.20	31592.55
517.37	31805.54
517.54	31777.45
517.72	31634.68
517.89	31630.00
518.06	32004.49
518.24	32177.68
518.41	32032.57
518.58	31758.73
518.75	32114.49
518.93	32116.83
519.10	32275.99
519.27	32266.63
519.45	32716.01
519.62	32348.54
519.79	32519.40
519.96	32594.30
520.14	32952.40
520.31	32699.62
520.48	32741.75
520.65	32676.22
520.83	33273.06
521.00	33251.99
521.17	33010.92
521.34	33284.76
521.52	33259.01
521.69	33097.52
521.86	33008.58
522.03	33509.45
522.20	33783.29
522.38	33476.68
522.55	33759.89
522.72	33708.40
522.89	33832.44
523.07	33982.24
523.24	34169.48
523.41	33759.89
523.58	34007.98
523.75	34485.45
523.92	34286.51
524.10	34808.45
524.27	34590.78
524.44	34665.67
524.61	34696.10
524.78	34583.76
524.96	34892.71
525.13	34881.00
525.30	34911.43
525.47	34969.94
525.64	35122.08
525.81	34712.49
525.98	35248.47
526.16	34628.23
526.33	34696.10
526.50	35299.96
526.67	34967.60
526.84	35342.09
527.01	35115.06
527.18	35260.17
527.36	35297.62
527.53	35805.52
527.70	35697.85
527.87	35723.60
528.04	35459.12
528.21	35503.59
528.38	35859.35
528.55	36037.23
528.72	36116.81
528.89	36140.21
529.07	35892.12
529.24	36062.97
529.41	36376.61
529.58	36266.60
529.75	36107.44
529.92	36133.19
530.09	36205.75
530.26	36418.74
530.43	36538.10
530.60	36407.03
530.77	36514.70
530.94	36573.21
531.11	36498.31
531.28	36617.68
531.46	36732.37
531.63	36954.72
531.80	36863.44
531.97	37273.03
532.14	37020.25
532.31	37280.05
532.48	37340.91
532.65	37109.19
532.82	37148.98
532.99	37263.67
533.16	37106.85
533.33	37420.48
533.50	37677.94
533.67	37752.84
533.84	37151.32
534.01	37722.41
534.18	37619.43
534.35	37928.38
534.52	37748.16
534.69	38073.49
534.86	38244.35
535.03	38033.71
535.20	37792.63
535.37	38068.81
535.54	37979.87
535.71	38103.92
535.88	38515.86
536.05	38518.20
536.22	38085.20
536.38	38036.05
536.55	38260.74
536.72	37909.66
536.89	38330.95
537.06	38242.01
537.23	38567.35
537.40	38543.94
537.57	38462.02
537.74	38576.71
537.91	38672.67
538.08	38937.15
538.25	38452.66
538.42	38686.71
538.59	39152.48
538.75	39182.91
538.92	39323.34
539.09	39543.35
539.26	38883.32
539.43	39246.10
539.60	39395.90
539.77	39367.81
539.94	39400.58
540.11	39524.63
540.28	39707.19
540.44	39206.31
540.61	39526.97
540.78	39381.85
540.95	39718.89
541.12	39166.52
541.29	39580.80
541.46	39704.85
541.62	39559.73
541.79	39718.89
541.96	39938.90
542.13	39337.38
542.30	39859.32
542.47	40072.31
542.63	39934.22
542.80	40212.74
542.97	40685.53
543.14	40421.05
543.31	40065.29
543.48	40524.04
543.64	40814.26
543.81	40870.43
543.98	40411.69
544.15	40713.62
544.32	40942.99
544.48	41284.71
544.65	40701.92
544.82	40900.86
544.99	40566.16
545.16	41043.63
545.32	40947.67
545.49	41017.89
545.66	41017.89
545.83	41095.13
546.00	41258.96
546.16	41460.25
546.33	41268.33
546.50	41172.36
546.67	41654.51
546.83	41205.13
547.00	41251.94
547.17	41340.88
547.34	41345.56
547.50	41858.14
547.67	41794.95
547.84	41268.33
548.00	41706.01
548.17	41806.65
548.34	41633.45
548.51	41734.09
548.67	41645.15
548.84	41546.85
549.01	41911.97
549.18	41738.77
549.34	41757.50
549.51	42108.58
549.68	42134.32
549.84	41986.87
550.01	42096.88
550.18	42192.84
550.34	42139.00
550.51	42284.12
550.68	42206.88
550.84	42029.00
551.01	42412.85
551.18	42373.06
551.34	42293.48
551.51	42445.62
551.68	41785.58
551.84	42279.44
552.01	42588.39
552.18	42583.71
552.34	42464.34
552.51	42356.67
552.68	42237.31
552.84	42541.58
553.01	43058.84
553.18	42504.13
553.34	42761.59
553.51	42637.54
553.67	42827.12
553.84	43021.39
554.01	42883.30
554.17	42976.92
554.34	43297.57
554.51	43051.81
554.67	43466.09
554.84	43634.61
555.00	43035.43
555.17	42916.06
555.33	43414.60
555.50	43187.56
555.67	43477.79
555.83	43604.18
556.00	43381.83
556.16	43999.73
556.33	43438.00
556.50	43426.30
556.66	43459.07
556.83	43473.11
556.99	43786.74
557.16	43531.62
557.32	43880.36
557.49	43709.50
557.65	43482.47
557.82	44039.52
557.98	43398.21
558.15	43646.31
558.32	43990.37
558.48	43290.55
558.65	44149.53
558.81	43821.85
558.98	43964.62
559.14	43615.88
559.31	43365.45
559.47	43716.53
559.64	43847.60
559.80	43636.95
559.97	43885.04
560.13	44081.65
560.30	43746.95
560.46	44395.28
560.63	44526.35
560.79	44144.84
560.96	44072.29
561.12	44210.38
561.29	44524.01
561.45	44362.51
561.61	43973.98
561.78	43889.73
561.94	44685.51
562.11	44210.38
562.27	44357.83
562.44	44514.65
562.60	44839.98
562.77	44762.75
562.93	44397.62
563.10	44446.77
563.26	44182.29
563.42	44856.37
563.59	44086.33
563.75	44261.87
563.92	44493.58
564.08	44208.04
564.24	44720.62
564.41	44573.16
564.57	44622.31
564.74	44737.00
564.90	44559.12
565.07	44634.02
565.23	44484.22
565.39	44781.47
565.56	44886.79
565.72	44505.29
565.88	44587.21
566.05	45148.93
566.21	44692.53
566.38	44877.43
566.54	44807.22
566.70	44554.44
566.87	44992.12
567.03	44720.62
567.19	45010.84
567.36	45230.85
567.52	44889.13
567.68	45165.32
567.85	45015.52
568.01	45085.74
568.17	44629.34
568.34	45155.96
568.50	45415.76
568.66	44802.53
568.83	44886.79
568.99	45415.76
569.15	45144.25
569.32	44495.92
569.48	45329.16
569.64	45507.04
569.81	45237.87
569.97	45254.26
570.13	45062.33
570.30	44554.44
570.46	45195.74
570.62	45141.91
570.78	45095.10
570.95	45052.97
571.11	45235.53
571.27	44980.42
571.43	44767.43
571.60	45359.58
571.76	45193.40
571.92	45282.34
572.09	45186.38
572.25	45338.52
572.41	45432.14
572.57	45581.93
572.74	45717.68
572.90	45305.75
573.06	45722.37
573.22	45724.71
573.38	45588.95
573.55	45474.27
573.71	45900.25
573.87	45612.36
574.03	45687.26
574.20	45677.90
574.36	45446.18
574.52	45743.43
574.68	45673.21
574.84	45888.54
575.01	45537.46
575.17	45244.90
575.33	45518.74
575.49	45415.76
575.65	45867.48
575.82	45808.96
575.98	45380.65
576.14	45691.94
576.30	46178.77
576.46	45759.81
576.62	45504.70
576.79	45785.56
576.95	45078.72
577.11	45209.79
577.27	45750.45
577.43	45752.79
577.59	45254.26
577.75	45537.46
577.92	45275.32
578.08	45785.56
578.24	45354.90
578.40	45677.90
578.56	46036.00
578.72	45790.24
578.88	45834.71
579.04	45705.98
579.21	45329.16
579.37	45581.93
579.53	45820.67
579.69	45928.33
579.85	45450.86
580.01	45968.12
580.17	45762.15
580.33	45881.52
580.49	45797.26
580.65	45668.53
580.82	45656.83
580.98	45640.45
581.14	45525.76
581.30	45731.73
581.46	45724.71
581.62	45865.14
581.78	45722.37
581.94	46033.66
582.10	45942.38
582.26	45820.67
582.42	45668.53
582.58	45698.96
582.74	45876.84
582.90	46073.45
583.06	45963.44
583.22	45659.17
583.38	45961.10
583.54	45832.37
583.70	45881.52
583.86	45830.03
584.02	45778.54
584.18	46019.61
584.34	45755.13
584.50	46333.24
584.66	46298.14
584.82	46033.66
584.98	46361.33
585.14	46026.63
585.30	45556.19
585.46	46054.72
585.62	45839.39
585.78	45610.02
585.94	46075.79
586.10	45867.48
586.26	45841.73
586.42	45876.84
586.58	46146.00
586.74	45846.41
586.90	45521.08
587.06	46218.56
587.22	45907.27
587.38	46094.51
587.54	45977.48
587.70	46454.95
587.86	46204.52
588.02	46045.36
588.18	45701.30
588.34	46026.63
588.49	45717.68
588.65	45785.56
588.81	45677.90
588.97	45944.72
589.13	45656.83
589.29	46012.59
589.45	46579.00
589.61	46012.59
589.77	46209.20
589.93	46220.90
590.08	46396.44
