SpectraSuite Data File
++++++++++++++++++++++++++++++++++++
Date: Fri Oct 25 11:26:31 EDT 2013
User: price-jones
Dark Spectrum Present: No
Reference Spectrum Present: No
Number of Sampled Component Spectra: 1
Spectrometers: USB2+H05261
Integration Time (usec): 100000 (USB2+H05261)
Spectra Averaged: 1 (USB2+H05261)
Boxcar Smoothing: 0 (USB2+H05261)
Correct for Electrical Dark: No (USB2+H05261)
Strobe/Lamp Enabled: No (USB2+H05261)
Correct for Detector Non-linearity: No (USB2+H05261)
Correct for Stray Light: No (USB2+H05261)
Number of Pixels in Processed Spectrum: 2048
>>>>>Begin Processed Spectral Data<<<<<
365.73	294.91
365.92	294.91
366.12	294.91
366.32	194.26
366.52	145.11
366.72	191.92
366.91	131.07
367.11	191.92
367.31	198.95
367.51	140.43
367.70	138.09
367.90	107.66
368.10	95.96
368.30	159.16
368.49	180.22
368.69	142.77
368.89	163.84
369.09	191.92
369.28	180.22
369.48	135.75
369.68	154.48
369.87	243.42
370.07	173.20
370.27	238.73
370.47	325.33
370.66	557.05
370.86	638.97
371.06	683.44
371.25	720.88
371.45	585.13
371.65	704.50
371.84	716.20
372.04	657.69
372.24	760.67
372.44	725.57
372.63	727.91
372.83	716.20
373.03	744.29
373.22	770.04
373.42	812.17
373.62	781.74
373.81	814.51
374.01	793.44
374.21	805.14
374.40	755.99
374.60	823.87
374.79	830.89
374.99	791.10
375.19	903.45
375.38	858.98
375.58	809.83
375.78	908.13
375.97	863.66
376.17	870.68
376.37	887.06
376.56	908.13
376.76	791.10
376.95	901.11
377.15	896.43
377.35	788.76
377.54	915.15
377.74	954.94
377.93	912.81
378.13	856.64
378.33	905.79
378.52	903.45
378.72	976.00
378.91	908.13
379.11	901.11
379.31	1039.20
379.50	889.40
379.70	957.28
379.89	980.68
380.09	1025.15
380.28	1015.79
380.48	978.34
380.68	990.05
380.87	966.64
381.07	1083.67
381.26	1043.88
381.46	1006.43
381.65	1064.94
381.85	1078.99
382.04	908.13
382.24	1121.12
382.43	1123.46
382.63	1128.14
382.83	1027.50
383.02	1137.50
383.22	1104.73
383.41	1090.69
383.61	1123.46
383.80	1149.20
384.00	1116.44
384.19	1109.41
384.39	1181.97
384.58	1135.16
384.78	1158.57
384.97	1186.65
385.17	1144.52
385.36	1086.01
385.56	1174.95
385.75	1128.14
385.95	1214.74
386.14	1193.67
386.34	1165.59
386.53	1252.19
386.72	1163.25
386.92	1273.25
387.11	1313.04
387.31	1158.57
387.50	1179.63
387.70	1291.98
387.89	1219.42
388.09	1338.79
388.28	1317.72
388.48	1313.04
388.67	1327.08
388.86	1345.81
389.06	1399.64
389.25	1275.59
389.45	1341.13
389.64	1280.27
389.84	1348.15
390.03	1345.81
390.22	1376.24
390.42	1420.71
390.61	1359.85
390.81	1411.34
391.00	1420.71
391.19	1371.55
391.39	1495.60
391.58	1418.36
391.78	1514.33
391.97	1462.83
392.16	1582.20
392.36	1551.78
392.55	1544.75
392.75	1357.51
392.94	1476.88
393.13	1554.12
393.33	1561.14
393.52	1598.59
393.71	1657.10
393.91	1706.25
394.10	1589.22
394.29	1657.10
394.49	1591.56
394.68	1680.50
394.88	1556.46
395.07	1685.19
395.26	1675.82
395.46	1755.40
395.65	1636.03
395.84	1652.42
396.04	1771.79
396.23	1757.74
396.42	1802.21
396.62	1907.54
396.81	1746.04
397.00	1734.34
397.19	1792.85
397.39	1769.44
397.58	1806.89
397.77	1816.26
397.97	1867.75
398.16	1886.47
398.35	1961.37
398.55	1898.17
398.74	1909.88
398.93	1947.33
399.12	1930.94
399.32	1914.56
399.51	1933.28
399.70	1982.43
399.90	1928.60
400.09	1956.69
400.28	2094.78
400.47	2052.65
400.67	2092.44
400.86	2097.12
401.05	2188.40
401.24	1956.69
401.44	2064.35
401.63	2174.36
401.82	2120.53
402.01	2218.83
402.21	2209.47
402.40	2270.32
402.59	2186.06
402.78	2221.17
402.97	2228.19
403.17	2235.21
403.36	2422.45
403.55	2275.00
403.74	2352.24
403.93	2363.94
404.13	2363.94
404.32	2424.80
404.51	2333.51
404.70	2485.65
404.89	2448.20
405.09	2476.29
405.28	2492.67
405.47	2523.10
405.66	2492.67
405.85	2560.55
406.05	2558.21
406.24	2602.68
406.43	2502.03
406.62	2551.18
406.81	2633.10
407.00	2532.46
407.20	2583.95
407.39	2600.34
407.58	2745.45
407.77	2717.36
407.96	2841.41
408.15	2825.03
408.34	2775.88
408.54	2810.98
408.73	2771.19
408.92	2796.94
409.11	2808.64
409.30	2857.79
409.49	2902.26
409.68	2850.77
409.87	2972.48
410.07	2963.12
410.26	3061.42
410.45	3047.38
410.64	3021.63
410.83	3136.32
411.02	3028.65
411.21	3419.52
411.40	3129.30
411.59	3204.19
411.78	3274.41
411.98	3178.45
412.17	3262.71
412.36	3337.60
412.55	3311.86
412.74	3290.79
412.93	3384.41
413.12	3379.73
413.31	3679.32
413.50	3426.54
413.69	3487.40
413.88	3644.21
414.07	3538.89
414.26	3777.62
414.45	3789.33
414.64	3740.18
414.83	3679.32
415.02	3728.47
415.22	3974.23
415.41	3819.75
415.60	3878.27
415.79	4018.70
415.98	3985.93
416.17	4088.92
416.36	4007.00
416.55	4053.81
416.74	4241.05
416.93	4168.49
417.12	4212.96
417.31	4161.47
417.50	4234.03
417.69	4255.09
417.88	4297.22
418.07	4329.99
418.26	4269.14
418.45	4306.59
418.64	4554.68
418.83	4432.97
419.02	4531.28
419.21	4706.82
419.39	4594.47
419.58	4381.48
419.77	4526.60
419.96	4531.28
420.15	4580.43
420.34	4760.65
420.53	4624.90
420.72	4711.50
420.91	4669.37
421.10	4770.01
421.29	4732.56
421.48	4786.40
421.67	4802.78
421.86	4777.03
422.05	4671.71
422.24	4873.00
422.43	4978.32
422.61	4844.91
422.80	4987.68
422.99	4971.30
423.18	5069.60
423.37	5060.24
423.56	4933.85
423.75	5050.88
423.94	4807.46
424.13	4713.84
424.32	4802.78
424.50	5041.51
424.69	5029.81
424.88	5177.26
425.07	5032.15
425.26	4858.95
425.45	5032.15
425.64	4992.36
425.83	5090.67
426.01	5116.41
426.20	5062.58
426.39	4997.04
426.58	5160.88
426.77	5167.90
426.96	5188.97
427.15	5193.65
427.33	5186.63
427.52	5114.07
427.71	5310.68
427.90	5167.90
428.09	5235.78
428.28	5444.09
428.46	5284.93
428.65	5530.69
428.84	5619.63
429.03	5455.79
429.22	5373.87
429.40	5607.92
429.59	5533.03
429.78	5334.08
429.97	5416.00
430.16	5565.79
430.34	5598.56
430.53	5631.33
430.72	5760.06
430.91	5636.01
431.10	5654.73
431.28	5877.09
431.47	5799.85
431.66	5827.93
431.85	5699.20
432.03	5970.71
432.22	5928.58
432.41	6038.58
432.60	6015.18
432.79	5944.96
432.97	6122.84
433.16	5987.09
433.35	5977.73
433.54	6186.04
433.72	6143.91
433.91	6204.76
434.10	6066.67
434.28	5975.39
434.47	6436.47
434.66	6349.87
434.85	6422.43
435.03	6331.15
435.22	6181.35
435.41	6413.07
435.59	6310.08
435.78	6368.60
435.97	6438.81
436.16	6441.15
436.34	6384.98
436.53	6497.33
436.72	6757.13
436.90	6537.12
437.09	6497.33
437.28	6476.26
437.46	6516.05
437.65	6848.41
437.84	6829.68
438.02	6890.54
438.21	6960.75
438.40	6761.81
438.58	7150.34
438.77	7016.93
438.96	7005.22
439.14	7187.79
439.33	7080.12
439.52	7239.28
439.70	7229.91
439.89	7480.35
440.08	7445.24
440.26	7428.86
440.45	7456.95
440.63	7686.32
440.82	7588.02
441.01	7487.37
441.19	7751.85
441.38	7712.07
441.57	7695.68
441.75	7737.81
441.94	7815.05
442.12	7878.24
442.31	8156.77
442.50	8091.23
442.68	8013.99
442.87	7990.59
443.05	8065.49
443.24	8248.05
443.43	8238.69
443.61	8180.17
443.80	8407.20
443.98	8095.91
444.17	7777.60
444.35	8159.11
444.54	8259.75
444.73	8486.78
444.91	8332.31
445.10	8468.06
445.28	8367.42
445.47	8241.03
445.65	8336.99
445.84	8580.40
446.02	8465.72
446.21	8533.59
446.39	8369.76
446.58	8449.33
446.77	8444.65
446.95	8205.92
447.14	8580.40
447.32	8559.34
447.51	8416.57
447.69	8573.38
447.88	8554.66
448.06	8573.38
448.25	8587.43
448.43	8664.66
448.62	8788.71
448.80	8662.32
448.99	8585.08
449.17	8826.16
449.36	8936.17
449.54	8947.87
449.73	9011.06
449.91	9060.21
450.10	8990.00
450.28	9085.96
450.46	9116.39
450.65	9018.08
450.83	9163.20
451.02	9018.08
451.20	9118.73
451.39	9366.82
451.57	9034.47
451.76	9125.75
451.94	9228.73
452.13	9495.55
452.31	9348.10
452.49	9263.84
452.68	9348.10
452.86	9453.42
453.05	9362.14
453.23	9310.65
453.42	9444.06
453.60	9317.67
453.78	9542.36
453.97	9575.13
454.15	9692.16
454.34	9446.40
454.52	9720.24
454.70	9738.97
454.89	9572.79
455.07	9933.23
455.26	9914.51
455.44	9989.41
455.62	9886.42
455.81	9809.19
455.99	10015.15
456.17	10047.92
456.36	10050.26
456.54	10321.76
456.73	10509.01
456.91	10588.58
457.09	10410.70
457.28	10651.78
457.46	10424.75
457.64	10607.31
457.83	10551.14
458.01	10370.91
458.19	10574.54
458.38	10759.44
458.56	10747.74
458.74	10682.20
458.93	10679.86
459.11	10848.38
459.29	10902.22
459.48	10778.17
459.66	10977.11
459.84	10850.72
460.03	11110.52
460.21	11035.63
460.39	10874.13
460.57	10839.02
460.76	11241.59
460.94	11487.35
461.12	11274.36
461.31	11407.77
461.49	11133.93
461.67	11405.43
461.85	11480.33
462.04	11414.79
462.22	11506.07
462.40	11782.26
462.59	11433.52
462.77	11634.80
462.95	11775.24
463.13	11641.82
463.32	11632.46
463.50	11751.83
463.68	11833.75
463.86	11946.09
464.05	11744.81
464.23	11864.18
464.41	11770.55
464.59	11854.81
464.78	12222.28
464.96	12114.61
465.14	12065.46
465.32	12147.38
465.50	12037.38
465.69	12112.27
465.87	12231.64
466.05	12283.13
466.23	12196.53
466.41	12395.48
466.60	12702.09
466.78	12276.11
466.96	12196.53
467.14	12327.60
467.32	12753.58
467.51	12332.28
467.69	12285.47
467.87	12592.08
468.05	12692.73
468.23	12170.79
468.41	12395.48
468.60	12748.90
468.78	12812.09
468.96	12432.93
469.14	12823.80
469.32	12989.97
469.50	12430.59
469.69	13114.02
469.87	13289.56
470.05	13167.85
470.23	13242.75
470.41	13401.91
470.59	13327.01
470.77	13277.86
470.95	13497.87
471.14	13540.00
471.32	13011.04
471.50	13818.52
471.68	13659.37
471.86	13806.82
472.04	13703.84
472.22	13825.54
472.40	13827.88
472.58	13776.39
472.77	14068.96
472.95	14005.77
473.13	14759.42
473.31	14066.62
473.49	14335.78
473.67	14427.06
473.85	14391.95
474.03	14597.92
474.21	14574.52
474.39	14672.82
474.57	14918.57
474.75	14881.13
474.93	14860.06
475.12	14799.21
475.30	15370.30
475.48	15091.77
475.66	15227.53
475.84	14956.02
476.02	15665.21
476.20	15562.22
476.38	15784.57
476.56	16444.60
476.74	16156.72
476.92	16063.10
477.10	15620.74
477.28	16411.84
477.46	16126.29
477.64	16346.30
477.82	16688.02
478.00	17132.72
478.18	16746.53
478.36	16994.63
478.54	17212.30
478.72	17341.03
478.90	17401.88
479.08	17427.63
479.26	17790.41
479.44	17769.35
479.62	17998.72
479.80	18345.12
479.98	18462.15
480.16	18686.84
480.34	18251.50
480.52	18733.65
480.70	18977.06
480.88	18284.26
481.06	19089.41
481.24	19159.63
481.41	19337.51
481.59	19456.87
481.77	19536.45
481.95	19765.82
482.13	19866.47
482.31	19814.98
482.49	20168.40
482.67	20238.61
482.85	20767.57
483.03	20833.11
483.21	20886.94
483.39	21116.31
483.57	21109.29
483.74	21195.89
483.92	21488.46
484.10	21483.78
484.28	21912.10
484.46	22136.79
484.64	22375.52
484.82	22122.74
485.00	22373.18
485.18	23161.94
485.35	23321.10
485.53	23173.64
485.71	23126.83
485.89	23695.58
486.07	23648.77
486.25	23812.61
486.43	23784.52
486.61	24245.61
486.78	24077.09
486.96	24624.78
487.14	24662.22
487.32	24924.36
487.50	24746.48
487.68	25029.69
487.85	25216.93
488.03	25675.68
488.21	25797.38
488.39	25792.70
488.57	25912.07
488.75	26389.54
488.92	26698.49
489.10	26455.08
489.28	26969.99
489.46	27335.12
489.64	26930.20
489.81	27648.75
489.99	27796.20
490.17	27828.97
490.35	28418.78
490.53	28191.75
490.70	28510.07
490.88	28613.05
491.06	29163.08
491.24	28746.46
491.41	29305.85
491.59	29134.99
491.77	29844.17
491.95	29916.73
492.13	30043.12
492.30	30017.37
492.48	30118.01
492.66	30415.26
492.84	30536.97
493.01	30834.22
493.19	31002.74
493.37	31131.47
493.54	31166.57
493.72	31363.18
493.90	31452.12
494.08	31644.04
494.25	32404.72
494.43	32383.65
494.61	32428.12
494.79	32776.86
494.96	32470.25
495.14	32929.00
495.32	33455.62
495.49	33549.24
495.67	33448.60
495.85	33706.05
496.02	34209.27
496.20	34227.99
496.38	34319.28
496.55	34316.93
496.73	34558.01
496.91	34597.80
497.09	35178.25
497.26	35358.47
497.44	35529.33
497.62	35297.62
497.79	35749.34
497.97	35786.79
498.14	35887.43
498.32	36266.60
498.50	36240.86
498.67	37254.31
498.85	36615.34
499.03	36844.71
499.20	37123.24
499.38	36961.74
499.56	37343.25
499.73	37214.52
499.91	37312.82
500.08	37919.02
500.26	37308.14
500.44	37841.78
500.61	37916.68
500.79	37792.63
500.97	37787.95
501.14	38679.69
501.32	38691.40
501.49	38932.47
501.67	38913.75
501.84	39573.78
502.02	38930.13
502.20	39047.16
502.37	39669.74
502.55	39173.55
502.72	39470.79
502.90	39704.85
503.07	39882.73
503.25	39840.60
503.43	40053.59
503.60	40566.16
503.78	40608.29
503.95	40608.29
504.13	40615.32
504.30	40704.26
504.48	40629.36
504.65	40844.69
504.83	41111.51
505.01	41488.34
505.18	41127.89
505.36	41900.27
505.53	41605.36
505.71	41521.10
505.88	42122.62
506.06	41397.06
506.23	42068.79
506.41	41687.28
506.58	42646.90
506.76	42656.26
506.93	42487.74
507.11	42377.74
507.28	42579.03
507.46	42815.42
507.63	43182.88
507.81	42979.26
507.98	43079.90
508.16	43543.33
508.33	43470.77
508.50	43892.07
508.68	43856.96
508.85	43997.39
509.03	43625.25
509.20	44186.97
509.38	44404.64
509.55	44570.82
509.73	44535.71
509.90	44336.77
510.08	44786.15
510.25	45137.23
510.42	44992.12
510.60	44945.31
510.77	45413.41
510.95	45368.94
511.12	45366.60
511.30	45705.98
511.47	45621.72
511.64	45780.88
511.82	46019.61
511.99	45918.97
512.17	46253.67
512.34	46075.79
512.51	46562.62
512.69	46532.19
512.86	46740.50
513.04	46829.44
513.21	46820.08
513.38	47150.09
513.56	47051.79
513.73	46803.69
513.90	47398.19
514.08	47283.50
514.25	47599.47
514.43	47576.07
514.60	47744.59
514.77	47613.52
514.95	47721.18
515.12	47758.63
515.29	47753.95
515.47	48282.91
515.64	48268.87
515.81	47700.12
515.99	48622.29
516.16	48381.21
516.33	48495.90
516.51	48720.59
516.68	48439.73
516.85	48982.73
517.03	48898.47
517.20	49195.72
517.37	49055.29
517.54	48961.67
517.72	49174.66
517.89	49397.01
518.06	49186.36
518.24	49366.58
518.41	49415.73
518.58	49701.28
518.75	49439.14
518.93	49928.31
519.10	49701.28
519.27	50007.89
519.45	50061.72
519.62	50288.75
519.79	50028.95
519.96	50188.11
520.14	50382.37
520.31	50216.19
520.48	50644.51
520.65	50452.59
520.83	50616.43
521.00	50883.25
521.17	50738.13
521.34	51028.36
521.52	51201.56
521.69	50918.35
521.86	51466.04
522.03	51484.76
522.20	51592.43
522.38	51395.82
522.55	51557.32
522.72	51351.35
522.89	51590.09
523.07	51782.01
523.24	51765.63
523.41	51840.53
523.58	51433.27
523.75	52114.37
523.92	52006.70
524.10	52046.49
524.27	52275.87
524.44	52067.56
524.61	52191.61
524.78	52339.06
524.96	52224.37
525.13	52697.16
525.30	52626.95
525.47	52664.39
525.64	52568.43
525.81	52765.04
525.98	53043.56
526.16	52886.74
526.33	52725.25
526.50	53361.87
526.67	52875.04
526.84	53034.20
527.01	53008.45
527.18	52858.66
527.36	53305.70
527.53	53443.79
527.70	53607.63
527.87	53528.05
528.04	53389.96
528.21	53792.53
528.38	53338.47
528.55	53759.76
528.72	53483.58
528.89	53490.60
529.07	53432.09
529.24	53521.03
529.41	53696.57
529.58	53911.90
529.75	53893.18
529.92	53928.28
530.09	54047.65
530.26	54131.91
530.43	54330.86
530.60	54131.91
530.77	54323.83
530.94	54181.06
531.11	53907.22
531.28	54075.74
531.46	54403.41
531.63	54363.62
531.80	54396.39
531.97	54466.61
532.14	54607.04
532.31	54578.95
532.48	54705.34
532.65	55054.08
532.82	54726.41
532.99	54639.81
533.16	54536.82
533.33	55037.70
533.50	55330.26
533.67	54897.27
533.84	54672.57
534.01	54768.54
534.18	55025.99
534.35	55426.23
534.52	55222.60
534.69	55337.29
534.86	55339.63
535.03	55227.28
535.20	55121.96
535.37	55428.57
535.54	55348.99
535.71	55332.60
535.88	55800.71
536.05	55671.98
536.22	55737.52
536.38	55875.61
536.55	55634.53
536.72	55524.53
536.89	55583.04
537.06	55564.32
537.23	55917.74
537.40	55629.85
537.57	55789.01
537.74	55856.88
537.91	56041.79
538.08	55994.98
538.25	55828.80
538.42	56020.72
538.59	56189.24
538.75	55959.87
538.92	56198.60
539.09	56540.32
539.26	56203.28
539.43	56411.59
539.60	56299.25
539.77	56435.00
539.94	56720.54
540.11	56273.50
540.28	56409.25
540.44	56425.64
540.61	56526.28
540.78	56596.49
540.95	56327.33
541.12	56423.29
541.29	56603.52
541.46	56664.37
541.62	56596.49
541.79	56633.94
541.96	56367.12
542.13	56729.90
542.30	56828.21
542.47	57071.62
542.63	56828.21
542.80	56940.55
542.97	57179.29
543.14	57289.29
543.31	57062.26
543.48	57343.12
543.64	57492.92
543.81	57312.70
543.98	57719.95
544.15	57336.10
544.32	57616.97
544.48	57715.27
544.65	57446.11
544.82	57539.73
544.99	57455.47
545.16	57588.88
545.32	57446.11
545.49	57879.11
545.66	57640.37
545.83	57839.32
546.00	58038.26
546.16	57696.55
546.33	57813.57
546.50	57427.38
546.67	57860.38
546.83	57623.99
547.00	57998.48
547.17	57787.83
547.34	57979.75
547.50	57921.24
547.67	58279.34
547.84	58127.20
548.00	58169.33
548.17	58253.59
548.34	58188.06
548.51	58560.20
548.67	58284.02
548.84	58237.21
549.01	58141.25
549.18	58239.55
549.34	58328.49
549.51	58412.75
549.68	58394.03
549.84	58574.25
550.01	58562.54
550.18	58223.17
550.34	58436.16
550.51	58508.71
550.68	58255.93
550.84	58363.60
551.01	58677.23
551.18	58731.06
551.34	58628.08
551.51	58693.61
551.68	58815.32
551.84	58831.71
552.01	58710.00
552.18	58695.95
552.34	58504.03
552.51	58969.80
552.68	58752.13
552.84	58637.44
553.01	59173.42
553.18	58997.88
553.34	59056.40
553.51	58855.11
553.67	58857.45
553.84	59054.06
554.01	59103.21
554.17	59021.29
554.34	59297.47
554.51	59208.53
554.67	59145.34
554.84	59283.43
555.00	59077.46
555.17	59023.63
555.33	59133.63
555.50	58997.88
555.67	59014.27
555.83	59185.13
556.00	59133.63
556.16	59494.08
556.33	59538.55
556.50	59145.34
556.66	59590.04
556.83	59327.90
556.99	59416.84
557.16	59571.32
557.32	59578.34
557.49	59723.45
557.65	59480.03
557.82	59604.08
557.98	59447.27
558.15	59538.55
558.32	59709.41
558.48	59388.75
558.65	59634.51
558.81	59753.88
558.98	59688.34
559.14	59812.39
559.31	59641.53
559.47	59756.22
559.64	60086.23
559.80	59728.13
559.97	59657.91
560.13	59798.35
560.30	59688.34
560.46	59749.20
560.63	59985.59
560.79	59812.39
560.96	60116.66
561.12	60018.36
561.29	60037.08
561.45	59962.18
561.61	59805.37
561.78	59920.05
561.94	59891.97
562.11	60030.06
562.27	60058.15
562.44	60128.36
562.60	60388.16
562.77	60009.00
562.93	60053.47
563.10	60224.32
563.26	59955.16
563.42	60238.37
563.59	60137.72
563.75	60104.96
563.92	59927.08
564.08	60060.49
564.24	60130.70
564.41	60310.92
564.57	60233.69
564.74	60212.62
564.90	60383.48
565.07	60102.62
565.23	60268.79
565.39	60247.73
565.56	60175.17
565.72	60409.23
565.88	60292.20
566.05	60093.25
566.21	60168.15
566.38	60264.11
566.54	60308.58
566.70	60439.65
566.87	60353.05
567.03	60257.09
567.19	60589.45
567.36	60523.91
567.52	60470.08
567.68	60537.96
567.85	60629.24
568.01	60554.34
568.17	60601.15
568.34	60570.72
568.50	60413.91
568.66	60460.72
568.83	60577.75
568.99	60420.93
569.15	60654.98
569.32	60657.32
569.48	60392.84
569.64	60640.94
569.81	60460.72
569.97	60343.69
570.13	60411.57
570.30	60289.86
570.46	60523.91
570.62	60645.62
570.78	60533.28
570.95	60608.17
571.11	60685.41
571.27	60568.38
571.43	60491.15
571.60	60657.32
571.76	60762.65
571.92	60662.00
572.09	60624.56
572.25	60687.75
572.41	60542.64
572.57	60846.91
572.74	60788.39
572.90	60587.11
573.06	60687.75
573.22	60839.89
573.38	60673.71
573.55	60748.60
573.71	60942.87
573.87	60931.17
574.03	60631.58
574.20	60865.63
574.36	60849.25
574.52	60956.91
574.68	60736.90
574.84	60996.70
575.01	60949.89
575.17	60851.59
575.33	60706.47
575.49	60926.49
575.65	60846.91
575.82	60760.31
575.98	60935.85
576.14	61024.79
576.30	60926.49
576.46	60928.83
576.62	60722.86
576.79	60985.00
576.95	60764.99
577.11	60823.50
577.27	60760.31
577.43	60764.99
577.59	60832.86
577.75	60769.67
577.92	60846.91
578.08	60872.65
578.24	60989.68
578.40	61036.49
578.56	61144.16
578.72	60715.84
578.88	60975.64
579.04	61125.43
579.21	60966.27
579.37	61073.94
579.53	61174.58
579.69	60783.71
579.85	60760.31
580.01	60807.12
580.17	60853.93
580.33	60987.34
580.49	61127.77
580.65	61062.24
580.82	61179.26
580.98	61031.81
581.14	60926.49
581.30	61111.39
581.46	60903.08
581.62	60903.08
581.78	60926.49
581.94	61017.77
582.10	60959.25
582.26	61125.43
582.42	61024.79
582.58	61041.17
582.74	60952.23
582.90	61106.71
583.06	61139.47
583.22	60811.80
583.38	60889.04
583.54	61080.96
583.70	61221.39
583.86	61432.04
584.02	61134.79
584.18	61179.26
584.34	61001.38
584.50	60905.42
584.66	60933.51
584.82	60959.25
584.98	61251.82
585.14	61008.40
585.30	61003.72
585.46	61111.39
585.62	61080.96
585.78	61263.52
585.94	60823.50
586.10	61034.15
586.26	61127.77
586.42	61015.43
586.58	61158.20
586.74	61102.03
586.90	61144.16
587.06	61055.21
587.22	61357.14
587.38	61144.16
587.54	61116.07
587.70	61298.63
587.86	61190.97
588.02	61097.34
588.18	61389.91
588.34	61132.45
588.49	61296.29
