SpectraSuite Data File
++++++++++++++++++++++++++++++++++++
Date: Fri Oct 25 10:48:33 EDT 2013
User: price-jones
Dark Spectrum Present: No
Reference Spectrum Present: No
Number of Sampled Component Spectra: 1
Spectrometers: USB2+H05261
Integration Time (usec): 100000 (USB2+H05261)
Spectra Averaged: 1 (USB2+H05261)
Boxcar Smoothing: 0 (USB2+H05261)
Correct for Electrical Dark: No (USB2+H05261)
Strobe/Lamp Enabled: No (USB2+H05261)
Correct for Detector Non-linearity: No (USB2+H05261)
Correct for Stray Light: No (USB2+H05261)
Number of Pixels in Processed Spectrum: 2048
>>>>>Begin Processed Spectral Data<<<<<
365.73	182.56
365.92	182.56
366.12	182.56
366.32	39.79
366.52	77.24
366.72	105.32
366.91	7.02
367.11	14.04
367.31	86.60
367.51	21.06
367.70	79.58
367.90	67.88
368.10	56.17
368.30	0.00
368.49	39.79
368.69	100.64
368.89	16.38
369.09	74.90
369.28	49.15
369.48	46.81
369.68	86.60
369.87	131.07
370.07	126.39
370.27	152.13
370.47	243.42
370.66	475.13
370.86	386.19
371.06	503.22
371.25	531.30
371.45	533.64
371.65	545.34
371.84	393.21
372.04	484.49
372.24	437.68
372.44	521.94
372.63	568.75
372.83	479.81
373.03	524.28
373.22	571.09
373.42	613.22
373.62	641.31
373.81	484.49
374.01	545.34
374.21	538.32
374.40	564.07
374.60	610.88
374.79	601.52
374.99	608.54
375.19	655.35
375.38	603.86
375.58	608.54
375.78	631.94
375.97	601.52
376.17	692.80
376.37	629.60
376.56	634.29
376.76	692.80
376.95	671.73
377.15	589.82
377.35	671.73
377.54	667.05
377.74	662.37
377.93	704.50
378.13	774.72
378.33	713.86
378.52	690.46
378.72	711.52
378.91	690.46
379.11	720.88
379.31	643.65
379.50	620.24
379.70	781.74
379.89	699.82
380.09	772.38
380.28	763.01
380.48	739.61
380.68	737.27
380.87	720.88
381.07	692.80
381.26	786.42
381.46	760.67
381.65	727.91
381.85	688.12
382.04	758.33
382.24	676.41
382.43	706.84
382.63	826.21
382.83	793.44
383.02	816.85
383.22	828.55
383.41	753.65
383.61	692.80
383.80	814.51
384.00	786.42
384.19	788.76
384.39	866.00
384.58	791.10
384.78	877.70
384.97	875.36
385.17	835.57
385.36	875.36
385.56	887.06
385.75	835.57
385.95	856.64
386.14	915.15
386.34	908.13
386.53	917.49
386.72	933.87
386.92	912.81
387.11	938.55
387.31	889.40
387.50	898.77
387.70	961.96
387.89	929.19
388.09	922.17
388.28	950.26
388.48	896.43
388.67	908.13
388.86	875.36
389.06	1011.11
389.25	1041.54
389.45	1104.73
389.64	1027.50
389.84	990.05
390.03	1057.92
390.22	1032.18
390.42	1027.50
390.61	997.07
390.81	1135.16
391.00	1097.71
391.19	1093.03
391.39	1104.73
391.58	1090.69
391.78	1041.54
391.97	1128.14
392.16	1086.01
392.36	1043.88
392.55	1086.01
392.75	1046.22
392.94	1083.67
393.13	1139.84
393.33	1053.24
393.52	1193.67
393.71	1188.99
393.91	1144.52
394.10	1198.35
394.29	1273.25
394.49	1245.16
394.68	1240.48
394.88	1184.31
395.07	1334.11
395.26	1291.98
395.46	1287.29
395.65	1268.57
395.84	1275.59
396.04	1350.49
396.23	1240.48
396.42	1207.72
396.62	1135.16
396.81	1179.63
397.00	1275.59
397.19	1289.64
397.39	1371.55
397.58	1376.24
397.77	1497.94
397.97	1406.66
398.16	1521.35
398.35	1537.73
398.55	1519.01
398.74	1535.39
398.93	1500.28
399.12	1549.43
399.32	1490.92
399.51	1572.84
399.70	1558.80
399.90	1556.46
400.09	1607.95
400.28	1727.32
400.47	1699.23
400.67	1652.42
400.86	1769.44
401.05	1682.85
401.24	1703.91
401.44	1753.06
401.63	1795.19
401.82	1743.70
402.01	1837.32
402.21	1853.70
402.40	1785.83
402.59	1851.36
402.78	1769.44
402.97	1842.00
403.17	1802.21
403.36	1853.70
403.55	1795.19
403.74	1980.09
403.93	1893.49
404.13	1921.58
404.32	1987.11
404.51	1966.05
404.70	2019.88
404.89	1952.01
405.09	2057.33
405.28	1998.82
405.47	2043.29
405.66	2092.44
405.85	1919.24
406.05	1968.39
406.24	2036.27
406.43	2043.29
406.62	2188.40
406.81	2181.38
407.00	2087.76
407.20	2085.42
407.39	2132.23
407.58	2251.60
407.77	2286.70
407.96	2354.58
408.15	2326.49
408.34	2242.23
408.54	2221.17
408.73	2321.81
408.92	2417.77
409.11	2340.54
409.30	2429.48
409.49	2279.68
409.68	2373.30
409.87	2340.54
410.07	2284.36
410.26	2537.14
410.45	2441.18
410.64	2506.71
410.83	2558.21
411.02	2569.91
411.21	2733.75
411.40	2588.63
411.59	2567.57
411.78	2640.12
411.98	2724.38
412.17	2761.83
412.36	2836.73
412.55	2747.79
412.74	2764.17
412.93	2843.75
413.12	2752.47
413.31	2974.82
413.50	2981.84
413.69	2972.48
413.88	2949.08
414.07	3122.27
414.26	3077.80
414.45	2991.20
414.64	3063.76
414.83	3061.42
415.02	3066.10
415.22	3194.83
415.41	3183.13
415.60	3152.70
415.79	3239.30
415.98	3332.92
416.17	3515.48
416.36	3295.47
416.55	3356.33
416.74	3346.97
416.93	3365.69
417.12	3276.75
417.31	3442.93
417.50	3405.48
417.69	3499.10
417.88	3552.93
418.07	3559.95
418.26	3588.04
418.45	3620.81
418.64	3625.49
418.83	3595.06
419.02	3559.95
419.21	3709.75
419.39	3646.55
419.58	3653.58
419.77	3496.76
419.96	3740.18
420.15	3817.41
420.34	3772.94
420.53	3967.21
420.72	3943.80
420.91	3969.55
421.10	3803.37
421.29	3960.19
421.48	3913.38
421.67	4009.34
421.86	3894.65
422.05	3976.57
422.24	3819.75
422.43	3904.01
422.61	4004.66
422.80	4095.94
422.99	4100.62
423.18	3969.55
423.37	4163.81
423.56	3911.04
423.75	4002.32
423.94	3922.74
424.13	3871.25
424.32	3946.14
424.50	4109.98
424.69	4039.76
424.88	4095.94
425.07	4149.77
425.26	4002.32
425.45	3992.95
425.64	3894.65
425.83	4081.89
426.01	4219.99
426.20	4168.49
426.39	4198.92
426.58	4067.85
426.77	4201.26
426.96	4159.13
427.15	4109.98
427.33	4109.98
427.52	4133.39
427.71	4227.01
427.90	4252.75
428.09	4252.75
428.28	4271.48
428.46	4322.97
428.65	4341.69
428.84	4444.68
429.03	4521.92
429.22	4224.67
429.40	4124.02
429.59	4418.93
429.78	3927.42
429.97	3934.44
430.16	4166.15
430.34	4042.11
430.53	4236.37
430.72	4283.18
430.91	4248.07
431.10	4409.57
431.28	4753.63
431.47	4765.33
431.66	4835.55
431.85	4720.86
432.03	4683.41
432.22	4753.63
432.41	4805.12
432.60	4788.74
432.79	4667.03
432.97	4954.91
433.16	4861.29
433.35	4748.95
433.54	4788.74
433.72	4772.35
433.91	4793.42
434.10	4847.25
434.28	4915.12
434.47	4912.78
434.66	4908.10
434.85	5008.75
435.03	5104.71
435.22	5221.74
435.41	5203.01
435.59	5231.10
435.78	5310.68
435.97	5320.04
436.16	5296.63
436.34	5324.72
436.53	5322.38
436.72	5369.19
436.90	5341.10
437.09	5313.02
437.28	5352.81
437.46	5247.48
437.65	5334.08
437.84	5284.93
438.02	5446.43
438.21	5270.89
438.40	5163.22
438.58	5341.10
438.77	5453.45
438.96	5413.66
439.14	5537.71
439.33	5893.47
439.52	5937.94
439.70	5844.32
439.89	5853.68
440.08	5926.24
440.26	5818.57
440.45	5832.62
440.63	6066.67
440.82	5984.75
441.01	6136.88
441.19	6209.44
441.38	6193.06
441.57	6256.25
441.75	6258.59
441.94	6436.47
442.12	6434.13
442.31	6436.47
442.50	6293.70
442.68	6612.01
442.87	6527.75
443.05	6483.28
443.24	6764.15
443.43	6588.61
443.61	6633.08
443.80	6745.42
443.98	6537.12
444.17	6633.08
444.35	6656.48
444.54	6792.23
444.73	6609.67
444.91	6588.61
445.10	6487.96
445.28	6738.40
445.47	6567.54
445.65	6633.08
445.84	6497.33
446.02	6860.11
446.21	6747.76
446.39	6836.70
446.58	6750.10
446.77	6773.51
446.95	6633.08
447.14	6895.22
447.32	6981.82
447.51	6778.19
447.69	6850.75
447.88	6712.66
448.06	6925.65
448.25	6857.77
448.43	6834.36
448.62	7023.95
448.80	6935.01
448.99	6979.48
449.17	7103.53
449.36	7005.22
449.54	7180.76
449.73	7206.51
449.91	7360.98
450.10	7323.54
450.28	7414.82
450.46	7400.77
450.65	7417.16
450.83	7316.51
451.02	7269.70
451.20	7470.99
451.39	7468.65
451.57	7290.77
451.76	7431.20
451.94	7424.18
452.13	7419.50
452.31	7337.58
452.49	7311.83
452.68	7445.24
452.86	7279.07
453.05	7414.82
453.23	7503.76
453.42	7419.50
453.60	7309.49
453.78	7695.68
453.97	7485.03
454.15	7597.38
454.34	7510.78
454.52	7838.45
454.70	7777.60
454.89	7597.38
455.07	7623.12
455.26	7887.61
455.44	7896.97
455.62	7922.71
455.81	7915.69
455.99	8004.63
456.17	8098.25
456.36	7971.86
456.54	8109.96
456.73	8109.96
456.91	8266.77
457.09	8271.45
457.28	8496.14
457.46	8294.86
457.64	8393.16
457.83	8257.41
458.01	8264.43
458.19	8388.48
458.38	8397.84
458.56	8573.38
458.74	8496.14
458.93	8517.21
459.11	8437.63
459.29	8451.67
459.48	8610.83
459.66	8388.48
459.84	8629.56
460.03	8554.66
460.21	8690.41
460.39	8788.71
460.57	8545.30
460.76	8723.18
460.94	8805.10
461.12	8865.95
461.31	9022.77
461.49	8772.33
461.67	8943.19
461.85	9174.90
462.04	8997.02
462.22	9406.61
462.40	9394.91
462.59	9156.18
462.77	9055.53
462.95	9238.09
463.13	8896.38
463.32	9301.29
463.50	9263.84
463.68	9298.95
463.86	9235.75
464.05	9165.54
464.23	9247.46
464.41	9256.82
464.59	9057.87
464.78	9549.39
464.96	9397.25
465.14	9364.48
465.32	9418.32
465.50	9397.25
465.69	9593.86
465.87	9582.15
466.05	9521.30
466.23	9577.47
466.41	9509.60
466.60	9891.10
466.78	9352.78
466.96	9497.89
467.14	9495.55
467.32	9743.65
467.51	9792.80
467.69	9507.26
467.87	9832.59
468.05	9870.04
468.23	9727.27
468.41	9757.69
468.60	9617.26
468.78	9767.06
468.96	9771.74
469.14	10094.73
469.32	9844.29
469.50	9837.27
469.69	9853.66
469.87	9973.02
470.05	9994.09
470.23	10076.01
470.41	10125.16
470.59	10036.22
470.77	10303.04
470.95	10305.38
471.14	10452.83
471.32	10361.55
471.50	10574.54
471.68	10750.08
471.86	10569.86
472.04	10389.64
472.22	10897.53
472.40	10424.75
472.58	10736.04
472.77	10682.20
472.95	11140.95
473.13	11002.86
473.31	10766.46
473.49	10932.64
473.67	10712.63
473.85	11063.71
474.03	11229.89
474.21	11391.39
474.39	11569.27
474.57	11213.51
474.75	11391.39
474.93	11342.24
475.12	11428.84
475.30	11541.18
475.48	11480.33
475.66	11590.33
475.84	11431.18
476.02	11625.44
476.20	11609.06
476.38	11929.71
476.56	12212.92
476.74	12035.03
476.92	11997.59
477.10	12011.63
477.28	12432.93
477.46	12266.75
477.64	12592.08
477.82	12645.91
478.00	12734.85
478.18	12802.73
478.36	12725.49
478.54	12940.82
478.72	13233.39
478.90	13071.89
479.08	13799.80
479.26	13490.85
479.44	13446.38
479.62	13713.20
479.80	13771.71
479.98	13727.24
480.16	13816.18
480.34	13893.42
480.52	14066.62
480.70	14115.77
480.88	13825.54
481.06	14064.28
481.24	14171.94
481.41	14796.87
481.59	14890.49
481.77	14712.61
481.95	14911.55
482.13	14771.12
482.31	14923.26
482.49	15400.72
482.67	15140.93
482.85	15161.99
483.03	15690.95
483.21	15477.96
483.39	15791.59
483.57	15791.59
483.74	15903.94
483.92	15983.52
484.10	15903.94
484.28	16248.00
484.46	16594.40
484.64	16814.41
484.82	16379.07
485.00	16589.72
485.18	17109.32
485.35	16917.39
485.53	16723.13
485.71	16641.21
485.89	16737.17
486.07	17006.33
486.25	16793.34
486.43	17261.45
486.61	17706.15
486.78	17809.14
486.96	17783.39
487.14	18087.66
487.32	18036.17
487.50	18403.63
487.68	18530.02
487.85	18965.36
488.03	18888.12
488.21	19089.41
488.39	19096.43
488.57	19136.22
488.75	19201.76
488.92	19545.81
489.10	20116.90
489.28	19969.45
489.46	20093.50
489.64	20081.80
489.81	20786.30
489.99	20526.50
490.17	20709.06
490.35	20922.05
490.53	20807.36
490.70	21015.67
490.88	20893.96
491.06	21563.36
491.24	21233.34
491.41	21352.71
491.59	21317.60
491.77	21195.89
491.95	21759.96
492.13	21923.80
492.30	21961.25
492.48	22199.98
492.66	22195.30
492.84	22412.97
493.01	22822.56
493.19	22710.22
493.37	22801.50
493.54	22855.33
493.72	23274.29
493.90	23236.84
494.08	23660.48
494.25	24044.32
494.43	23789.20
494.61	23948.36
494.79	24123.90
494.96	24056.03
495.14	24175.39
495.32	24320.51
495.49	24240.93
495.67	24414.13
495.85	24599.03
496.02	24781.59
496.20	25132.67
496.38	25071.82
496.55	25181.82
496.73	25806.75
496.91	25741.21
497.09	25294.17
497.26	25666.31
497.44	25507.16
497.62	25727.17
497.79	26136.76
497.97	25668.66
498.14	26382.52
498.32	26141.44
498.50	26321.66
498.67	26281.88
498.85	26925.52
499.03	26808.50
499.20	26724.24
499.38	26831.90
499.56	27007.44
499.73	26834.24
499.91	27498.95
500.08	27222.77
500.26	26782.75
500.44	27246.18
500.61	27072.98
500.79	27267.24
500.97	27175.96
501.14	28119.20
501.32	27871.10
501.49	27639.39
501.67	27873.44
501.84	28290.06
502.02	28215.16
502.20	28376.66
502.37	28292.40
502.55	28556.88
502.72	28811.99
502.90	28638.80
503.07	28987.53
503.25	28694.97
503.43	28737.10
503.60	29062.43
503.78	28889.23
503.95	28973.49
504.13	29401.81
504.30	29567.99
504.48	29029.66
504.65	29645.23
504.83	29795.02
505.01	30221.00
505.18	29947.15
505.36	30309.94
505.53	29734.17
505.71	30611.87
505.88	30396.54
506.06	30368.45
506.23	30288.87
506.41	30359.09
506.58	30738.26
506.76	30562.72
506.93	30733.57
507.11	30558.03
507.28	30740.60
507.46	30721.87
507.63	30654.00
507.81	30944.22
507.98	30670.38
508.16	31218.07
508.33	31440.42
508.50	31445.10
508.68	31798.52
508.85	31943.63
509.03	31501.27
509.20	31955.33
509.38	31604.25
509.55	32140.24
509.73	31896.82
509.90	32826.01
510.08	32060.66
510.25	32268.97
510.42	32514.72
510.60	32687.92
510.77	32704.31
510.95	32818.99
511.12	32126.19
511.30	32924.32
511.47	33226.24
511.64	33207.52
511.82	33209.86
511.99	33123.26
512.17	33015.60
512.34	32975.81
512.51	32779.20
512.69	33315.19
512.86	33567.96
513.04	33804.36
513.21	33820.74
513.38	33596.05
513.56	33928.41
513.73	33472.00
513.90	33734.14
514.08	33933.09
514.25	33846.49
514.43	33867.55
514.60	34080.54
514.77	33640.52
514.95	34649.29
515.12	34340.34
515.29	34237.36
515.47	34602.48
515.64	34782.70
515.81	34373.11
515.99	34653.97
516.16	34756.96
516.33	34316.93
516.51	34506.52
516.68	34553.33
516.85	34015.01
517.03	33979.90
517.20	34864.62
517.37	35227.40
517.54	35395.92
517.72	35543.38
517.89	34586.10
518.06	35311.66
518.24	34703.12
518.41	34581.42
518.58	35421.67
518.75	35288.26
518.93	35449.75
519.10	35496.56
519.27	35580.82
519.45	36229.15
519.62	35864.03
519.79	36301.71
519.96	35826.58
520.14	36669.17
520.31	36095.74
520.48	36409.37
520.65	36285.33
520.83	36453.84
521.00	36910.25
521.17	36568.53
521.34	37249.63
521.52	37013.23
521.69	37151.32
521.86	37200.47
522.03	37092.81
522.20	36987.49
522.38	37579.64
522.55	37450.91
522.72	37244.94
522.89	36854.08
523.07	37631.13
523.24	36879.82
523.41	37635.81
523.58	37649.86
523.75	37862.85
523.92	38462.02
524.10	38263.08
524.27	38415.21
524.44	38380.10
524.61	37998.60
524.78	38082.86
524.96	37956.47
525.13	38778.00
525.30	38637.56
525.47	38845.87
525.64	38417.55
525.81	38157.75
525.98	38595.43
526.16	38291.16
526.33	37780.93
526.50	38314.57
526.67	38373.08
526.84	38265.42
527.01	38686.71
527.18	38696.08
527.36	39227.38
527.53	38635.22
527.70	39643.99
527.87	39463.77
528.04	39398.24
528.21	39358.45
528.38	39316.32
528.55	39580.80
528.72	39466.11
528.89	39922.52
529.07	39615.91
529.24	39323.34
529.41	39611.23
529.58	39215.68
529.75	39302.28
529.92	39950.60
530.09	40163.59
530.26	39845.28
530.43	40215.08
530.60	40107.42
530.77	40034.86
530.94	40732.34
531.11	40184.66
531.28	40465.52
531.46	40442.12
531.63	40704.26
531.80	40481.91
531.97	40261.90
532.14	40432.75
532.31	40072.31
532.48	40297.00
532.65	40463.18
532.82	40357.86
532.99	40748.73
533.16	40547.44
533.33	40594.25
533.50	40907.88
533.67	40847.03
533.84	40814.26
534.01	40975.76
534.18	40954.69
534.35	41455.57
534.52	41329.18
534.69	41097.47
534.86	41373.65
535.03	41214.49
535.20	41745.80
535.37	41626.43
535.54	42377.74
535.71	41647.49
535.88	41481.31
536.05	41408.76
536.22	41619.41
536.38	41848.78
536.55	41640.47
536.72	42136.66
536.89	41488.34
537.06	41897.93
537.23	41958.78
537.40	42274.76
537.57	42050.06
537.74	42330.93
537.91	42302.84
538.08	41883.89
538.25	41998.57
538.42	42010.28
538.59	42426.89
538.75	42246.67
538.92	42216.24
539.09	42527.53
539.26	42150.71
539.43	42454.98
539.60	43007.34
539.77	42789.67
539.94	42635.20
540.11	42115.60
540.28	42604.77
540.44	42522.85
540.61	42344.97
540.78	42405.83
540.95	42408.17
541.12	42387.10
541.29	42782.65
541.46	42412.85
541.62	42993.30
541.79	42911.38
541.96	42967.55
542.13	42873.93
542.30	43217.99
542.47	43278.85
542.63	43264.80
542.80	43229.69
542.97	43175.86
543.14	43828.87
543.31	43545.67
543.48	43782.06
543.64	44088.67
543.81	44027.82
543.98	43772.70
544.15	43426.30
544.32	43714.19
544.48	43896.75
544.65	43999.73
544.82	43882.70
544.99	43643.97
545.16	44076.97
545.32	43498.86
545.49	44388.26
545.66	44561.46
545.83	44259.53
546.00	43950.58
546.16	44203.36
546.33	44264.21
546.50	43758.66
546.67	44231.44
546.83	43838.23
547.00	43863.98
547.17	44715.93
547.34	43983.35
547.50	44463.16
547.67	44809.56
547.84	44495.92
548.00	44889.13
548.17	44514.65
548.34	44676.15
548.51	45003.82
548.67	45078.72
548.84	44634.02
549.01	44678.49
549.18	44847.00
549.34	44762.75
549.51	44928.92
549.68	44854.03
549.84	44839.98
550.01	45095.10
550.18	44577.84
550.34	44657.42
550.51	44821.26
550.68	44790.83
550.84	44271.23
551.01	44865.73
551.18	45097.44
551.34	45057.65
551.51	45083.40
551.68	45418.10
551.84	45504.70
552.01	45345.54
552.18	45375.97
552.34	45202.77
552.51	45268.30
552.68	45013.18
552.84	45581.93
553.01	45724.71
553.18	45301.07
553.34	45872.16
553.51	45034.25
553.67	45261.28
553.84	46014.93
554.01	45642.79
554.17	45762.15
554.34	45890.88
554.51	45584.27
554.67	45722.37
554.84	45595.98
555.00	45469.59
555.17	45539.80
555.33	45984.51
555.50	45703.64
555.67	45628.74
555.83	45808.96
556.00	45991.53
556.16	46141.32
556.33	45991.53
556.50	45785.56
556.66	45839.39
556.83	45439.16
556.99	46178.77
557.16	46202.18
557.32	46031.32
557.49	46028.98
557.65	46057.06
557.82	46260.69
557.98	45947.06
558.15	45918.97
558.32	45916.63
558.48	46124.94
558.65	46190.47
558.81	46389.42
558.98	46000.89
559.14	46026.63
559.31	46115.58
559.47	46529.85
559.64	46731.14
559.80	46078.13
559.97	46043.02
560.13	46209.20
560.30	46103.87
560.46	46366.01
560.63	46171.75
560.79	46113.23
560.96	46604.75
561.12	46422.19
561.29	46497.08
561.45	46396.44
561.61	46665.60
561.78	46403.46
561.94	46192.81
562.11	46117.92
562.27	46307.50
562.44	46586.02
562.60	46658.58
562.77	46777.95
562.93	46389.42
563.10	46700.71
563.26	46389.42
563.42	46988.60
563.59	46672.62
563.75	46457.29
563.92	46733.48
564.08	46815.40
564.24	46972.21
564.41	47096.26
564.57	46586.02
564.74	46548.57
564.90	46873.91
565.07	46651.56
565.23	47021.36
565.39	46742.84
565.56	46927.74
565.72	46794.33
565.88	46602.41
566.05	46508.79
566.21	46398.78
566.38	46850.50
566.54	47107.96
566.70	46749.86
566.87	47187.54
567.03	46665.60
567.19	47274.14
567.36	47117.32
567.52	46787.31
567.68	46892.63
567.85	46644.54
568.01	46759.22
568.17	46913.70
568.34	46745.18
568.50	46422.19
568.66	46595.38
568.83	47065.83
568.99	46707.73
569.15	46679.64
569.32	47065.83
569.48	46965.19
569.64	46892.63
569.81	47224.99
569.97	46925.40
570.13	47014.34
570.30	46604.75
570.46	46665.60
570.62	46838.80
570.78	46527.51
570.95	46747.52
571.11	46988.60
571.27	46899.65
571.43	46904.34
571.60	46930.08
571.76	46829.44
571.92	46700.71
572.09	46639.86
572.25	47248.39
572.41	47126.69
572.57	46887.95
572.74	47428.62
572.90	47318.61
573.06	47070.51
573.22	46866.89
573.38	47182.86
573.55	47009.66
573.71	46923.06
573.87	47250.74
574.03	46827.10
574.20	47021.36
574.36	47131.37
574.52	47351.38
574.68	47199.24
574.84	46890.29
575.01	46892.63
575.17	46862.21
575.33	47260.10
575.49	46775.61
575.65	47571.39
575.82	47178.18
575.98	47166.48
576.14	47337.33
576.30	47044.77
576.46	46997.96
576.62	46799.01
576.79	47173.50
576.95	46522.83
577.11	47199.24
577.27	46932.42
577.43	47107.96
577.59	47019.02
577.75	47281.16
577.92	46719.43
578.08	46740.50
578.24	46574.32
578.40	46747.52
578.56	46997.96
578.72	46986.25
578.88	47313.93
579.04	47283.50
579.21	47004.98
579.37	46913.70
579.53	47133.71
579.69	46787.31
579.85	47285.84
580.01	47119.66
580.17	47421.59
580.33	47533.94
580.49	47482.45
580.65	47599.47
580.82	47662.67
580.98	46787.31
581.14	46848.16
581.30	47299.89
581.46	47248.39
581.62	46972.21
581.78	46831.78
581.94	47058.81
582.10	47552.66
582.26	47019.02
582.42	47414.57
582.58	47515.22
582.74	46941.78
582.90	47227.33
583.06	47250.74
583.22	47302.23
583.38	47426.28
583.54	46937.10
583.70	47227.33
583.86	47386.49
584.02	47175.84
584.18	47196.90
584.34	47316.27
584.50	46873.91
584.66	47117.32
584.82	46595.38
584.98	47339.68
585.14	47171.16
585.30	47182.86
585.46	47398.19
585.62	46836.46
585.78	47105.62
585.94	46646.88
586.10	47065.83
586.26	47159.45
586.42	47342.02
586.58	46920.72
586.74	47384.15
586.90	46927.74
587.06	47098.60
587.22	47594.79
587.38	47489.47
587.54	47592.45
587.70	47547.98
587.86	46684.33
588.02	47014.34
588.18	47374.78
588.34	47063.49
588.49	46777.95
588.65	46471.34
588.81	46855.18
588.97	47103.28
589.13	46527.51
589.29	46803.69
589.45	47091.58
589.61	47014.34
589.77	47082.22
