SpectraSuite Data File
++++++++++++++++++++++++++++++++++++
Date: Fri Oct 25 11:25:31 EDT 2013
User: price-jones
Dark Spectrum Present: No
Reference Spectrum Present: No
Number of Sampled Component Spectra: 1
Spectrometers: USB2+H05261
Integration Time (usec): 100000 (USB2+H05261)
Spectra Averaged: 1 (USB2+H05261)
Boxcar Smoothing: 0 (USB2+H05261)
Correct for Electrical Dark: No (USB2+H05261)
Strobe/Lamp Enabled: No (USB2+H05261)
Correct for Detector Non-linearity: No (USB2+H05261)
Correct for Stray Light: No (USB2+H05261)
Number of Pixels in Processed Spectrum: 2048
>>>>>Begin Processed Spectral Data<<<<<
365.73	142.77
365.92	142.77
366.12	142.77
366.32	149.79
366.52	152.13
366.72	166.18
366.91	166.18
367.11	147.45
367.31	117.03
367.51	105.32
367.70	159.16
367.90	175.54
368.10	105.32
368.30	175.54
368.49	152.13
368.69	107.66
368.89	149.79
369.09	177.88
369.28	131.07
369.48	168.52
369.68	142.77
369.87	245.76
370.07	217.67
370.27	287.89
370.47	325.33
370.66	575.77
370.86	650.67
371.06	660.03
371.25	678.76
371.45	662.37
371.65	594.50
371.84	655.35
372.04	716.20
372.24	718.54
372.44	704.50
372.63	723.23
372.83	812.17
373.03	767.70
373.22	685.78
373.42	765.36
373.62	814.51
373.81	828.55
374.01	819.19
374.21	774.72
374.40	727.91
374.60	802.80
374.79	711.52
374.99	866.00
375.19	873.02
375.38	866.00
375.58	863.66
375.78	976.00
375.97	837.91
376.17	968.98
376.37	905.79
376.56	912.81
376.76	812.17
376.95	739.61
377.15	1032.18
377.35	901.11
377.54	901.11
377.74	875.36
377.93	882.38
378.13	849.61
378.33	947.92
378.52	912.81
378.72	1029.84
378.91	929.19
379.11	908.13
379.31	908.13
379.50	931.53
379.70	1074.31
379.89	1001.75
380.09	1018.13
380.28	954.94
380.48	980.68
380.68	950.26
380.87	1034.52
381.07	1071.97
381.26	1132.82
381.46	992.39
381.65	1076.65
381.85	1132.82
382.04	1001.75
382.24	1135.16
382.43	1116.44
382.63	1088.35
382.83	1109.41
383.02	1153.88
383.22	1107.07
383.41	1029.84
383.61	1107.07
383.80	1123.46
384.00	1207.72
384.19	1128.14
384.39	1076.65
384.58	1142.18
384.78	1193.67
384.97	1146.86
385.17	1196.01
385.36	1151.54
385.56	1184.31
385.75	1125.80
385.95	1177.29
386.14	1123.46
386.34	1217.08
386.53	1174.95
386.72	1114.10
386.92	1235.80
387.11	1193.67
387.31	1149.20
387.50	1228.78
387.70	1231.12
387.89	1282.61
388.09	1212.40
388.28	1259.21
388.48	1221.76
388.67	1341.13
388.86	1303.68
389.06	1336.45
389.25	1306.02
389.45	1228.78
389.64	1296.66
389.84	1394.96
390.03	1357.51
390.22	1411.34
390.42	1373.89
390.61	1327.08
390.81	1352.83
391.00	1366.87
391.19	1387.94
391.39	1486.24
391.58	1476.88
391.78	1397.30
391.97	1509.65
392.16	1411.34
392.36	1458.15
392.55	1467.52
392.75	1530.71
392.94	1547.09
393.13	1488.58
393.33	1409.00
393.52	1526.03
393.71	1509.65
393.91	1582.20
394.10	1605.61
394.29	1558.80
394.49	1507.30
394.68	1724.97
394.88	1542.41
395.07	1638.38
395.26	1668.80
395.46	1610.29
395.65	1603.27
395.84	1666.46
396.04	1764.76
396.23	1659.44
396.42	1717.95
396.62	1788.17
396.81	1818.60
397.00	1748.38
397.19	1781.15
397.39	1827.96
397.58	1832.64
397.77	1790.51
397.97	1912.22
398.16	1905.20
398.35	1816.26
398.55	1879.45
398.74	1881.79
398.93	1961.37
399.12	1961.37
399.32	1872.43
399.51	1989.46
399.70	1902.86
399.90	2029.24
400.09	2038.61
400.28	2022.22
400.47	2139.25
400.67	2050.31
400.86	2080.74
401.05	2134.57
401.24	2054.99
401.44	2059.67
401.63	2031.58
401.82	2153.29
402.01	2155.63
402.21	2129.89
402.40	2181.38
402.59	2160.31
402.78	2190.74
402.97	2338.20
403.17	2370.96
403.36	2179.04
403.55	2270.32
403.74	2251.60
403.93	2321.81
404.13	2260.96
404.32	2312.45
404.51	2253.94
404.70	2363.94
404.89	2431.82
405.09	2443.52
405.28	2546.50
405.47	2422.45
405.66	2525.44
405.85	2476.29
406.05	2375.64
406.24	2649.49
406.43	2588.63
406.62	2595.65
406.81	2733.75
407.00	2541.82
407.20	2511.39
407.39	2588.63
407.58	2726.72
407.77	2684.59
407.96	2747.79
408.15	2740.77
408.34	2689.28
408.54	2719.70
408.73	2860.13
408.92	2832.05
409.11	2860.13
409.30	2937.37
409.49	2899.92
409.68	2897.58
409.87	2885.88
410.07	3094.19
410.26	2970.14
410.45	2939.71
410.64	2977.16
410.83	3028.65
411.02	3145.68
411.21	3091.85
411.40	3105.89
411.59	3192.49
411.78	3171.43
411.98	3143.34
412.17	3253.34
412.36	3056.74
412.55	3361.01
412.74	3482.72
412.93	3332.92
413.12	3325.90
413.31	3456.97
413.50	3503.78
413.69	3440.59
413.88	3431.23
414.07	3550.59
414.26	3529.53
414.45	3611.45
414.64	3676.98
414.83	3714.43
415.02	3817.41
415.22	3887.63
415.41	3815.07
415.60	3868.91
415.79	3983.59
415.98	3892.31
416.17	3943.80
416.36	3999.98
416.55	4046.79
416.74	4067.85
416.93	4014.02
417.12	4161.47
417.31	4124.02
417.50	4051.47
417.69	4273.82
417.88	4264.46
418.07	4259.78
418.26	4203.60
418.45	4269.14
418.64	4383.82
418.83	4390.84
419.02	4339.35
419.21	4440.00
419.39	4517.23
419.58	4421.27
419.77	4454.04
419.96	4599.15
420.15	4531.28
420.34	4580.43
420.53	4531.28
420.72	4650.64
420.91	4655.33
421.10	4617.88
421.29	4732.56
421.48	4629.58
421.67	4842.57
421.86	4781.71
422.05	4767.67
422.24	4837.89
422.43	4765.33
422.61	4812.14
422.80	4922.15
422.99	4917.47
423.18	5041.51
423.37	4945.55
423.56	4830.87
423.75	4812.14
423.94	4809.80
424.13	4578.09
424.32	4807.46
424.50	4990.02
424.69	5085.98
424.88	5135.14
425.07	4961.94
425.26	4891.72
425.45	4835.55
425.64	4880.02
425.83	4943.21
426.01	5114.07
426.20	5093.01
426.39	5053.22
426.58	5085.98
426.77	4980.66
426.96	4931.51
427.15	5118.75
427.33	5116.41
427.52	5069.60
427.71	5135.14
427.90	4971.30
428.09	5270.89
428.28	5219.39
428.46	5355.15
428.65	5298.97
428.84	5397.28
429.03	5523.66
429.22	5406.64
429.40	5430.04
429.59	5385.57
429.78	5408.98
429.97	5177.26
430.16	5521.32
430.34	5549.41
430.53	5540.05
430.72	5743.67
430.91	5598.56
431.10	5715.59
431.28	5671.12
431.47	5680.48
431.66	5860.70
431.85	5612.60
432.03	5860.70
432.22	5937.94
432.41	5832.62
432.60	5921.56
432.79	5951.98
432.97	5959.00
433.16	6129.86
433.35	5776.44
433.54	6087.73
433.72	6239.87
433.91	6012.84
434.10	6045.60
434.28	6136.88
434.47	6349.87
434.66	6052.63
434.85	6335.83
435.03	6359.24
435.22	6204.76
435.41	6464.56
435.59	6265.61
435.78	6452.86
435.97	6389.66
436.16	6389.66
436.34	6291.36
436.53	6387.32
436.72	6642.44
436.90	6434.13
437.09	6722.02
437.28	6408.39
437.46	6581.59
437.65	6642.44
437.84	6689.25
438.02	6633.08
438.21	6778.19
438.40	6560.52
438.58	6937.35
438.77	6839.05
438.96	6935.01
439.14	7068.42
439.33	7049.69
439.52	7215.87
439.70	7218.21
439.89	7382.05
440.08	7428.86
440.26	7279.07
440.45	7325.88
440.63	7459.29
440.82	7391.41
441.01	7368.01
441.19	7428.86
441.38	7779.94
441.57	7667.60
441.75	7653.55
441.94	8011.65
442.12	7833.77
442.31	7946.12
442.50	7964.84
442.68	8051.44
442.87	7866.54
443.05	8093.57
443.24	8002.29
443.43	7978.89
443.61	8102.93
443.80	8226.98
443.98	7927.39
444.17	7742.49
444.35	8102.93
444.54	8346.35
444.73	8205.92
444.91	8198.90
445.10	8432.95
445.28	8376.78
445.47	8346.35
445.65	8407.20
445.84	8613.17
446.02	8442.31
446.21	8257.41
446.39	8243.37
446.58	8592.11
446.77	8461.04
446.95	8226.98
447.14	8318.26
447.32	8472.74
447.51	8381.46
447.69	8332.31
447.88	8566.36
448.06	8589.77
448.25	8395.50
448.43	8533.59
448.62	8554.66
448.80	8439.97
448.99	8657.64
449.17	8690.41
449.36	8601.47
449.54	8769.99
449.73	8894.04
449.91	8894.04
450.10	8910.42
450.28	9092.98
450.46	8917.44
450.65	9071.92
450.83	8922.12
451.02	8748.92
451.20	9055.53
451.39	9097.66
451.57	8917.44
451.76	9139.79
451.94	9076.60
452.13	9355.12
452.31	9057.87
452.49	9378.53
452.68	9369.16
452.86	9364.48
453.05	9312.99
453.23	9247.46
453.42	9207.67
453.60	9191.28
453.78	9596.20
453.97	9418.32
454.15	9514.28
454.34	9460.45
454.52	9652.37
454.70	9570.45
454.89	9593.86
455.07	9863.02
455.26	9832.59
455.44	9778.76
455.62	9706.20
455.81	9942.60
455.99	9963.66
456.17	9881.74
456.36	10064.30
456.54	10078.35
456.73	10153.24
456.91	10551.14
457.09	10424.75
457.28	10459.85
457.46	10244.52
457.64	10284.31
457.83	10307.72
458.01	10375.59
458.19	10492.62
458.38	10401.34
458.56	10726.68
458.74	10562.84
458.93	10794.55
459.11	10438.79
459.29	10569.86
459.48	10656.46
459.66	10710.29
459.84	10810.93
460.03	10869.45
460.21	10787.53
460.39	10956.05
460.57	10855.40
460.76	10988.82
460.94	11054.35
461.12	11033.29
461.31	11304.79
461.49	11012.22
461.67	11012.22
461.85	11295.43
462.04	11274.36
462.22	11936.73
462.40	11676.93
462.59	11407.77
462.77	11363.30
462.95	11611.40
463.13	11510.75
463.32	11721.40
463.50	11559.91
463.68	11859.49
463.86	11850.13
464.05	11461.60
464.23	11665.23
464.41	11960.14
464.59	11576.29
464.78	12109.93
464.96	11838.43
465.14	11763.53
465.32	11843.11
465.50	12196.53
465.69	11974.18
465.87	12095.89
466.05	12163.76
466.23	12287.81
466.41	12123.98
466.60	12182.49
466.78	12248.02
466.96	12109.93
467.14	12079.50
467.32	12201.21
467.51	12360.37
467.69	12135.68
467.87	12367.39
468.05	12615.49
468.23	12505.48
468.41	12402.50
468.60	12547.61
468.78	12704.43
468.96	12449.31
469.14	12587.40
469.32	13109.34
469.50	12716.13
469.69	12865.92
469.87	13130.41
470.05	13018.06
470.23	12999.34
470.41	13123.38
470.59	13036.78
470.77	13289.56
470.95	13067.21
471.14	13460.42
471.32	13013.38
471.50	13556.38
471.68	13308.29
471.86	13633.62
472.04	13575.11
472.22	13973.00
472.40	13565.74
472.58	13776.39
472.77	13984.70
472.95	13865.33
473.13	14422.38
473.31	13827.88
473.49	14242.16
473.67	14141.52
473.85	14270.25
474.03	14576.86
474.21	14604.94
474.39	14434.08
474.57	14544.09
474.75	14796.87
474.93	14967.73
475.12	14991.13
475.30	15042.62
475.48	15049.64
475.66	15040.28
475.84	15059.01
476.02	15218.16
476.20	15304.76
476.38	15726.06
476.56	15861.81
476.74	15765.85
476.92	15723.72
477.10	15775.21
477.28	16084.16
477.46	16079.48
477.64	16229.27
477.82	16500.78
478.00	16662.27
478.18	16683.34
478.36	16629.51
478.54	16996.97
478.72	17256.77
478.90	17312.94
479.08	17064.85
479.26	17528.27
479.44	17717.86
479.62	17947.23
479.80	17755.30
479.98	18019.78
480.16	18682.16
480.34	18157.88
480.52	18221.07
480.70	18391.93
480.88	18249.16
481.06	18569.81
481.24	18677.48
481.41	18909.19
481.59	19278.99
481.77	19239.20
481.95	19538.79
482.13	19590.28
482.31	19569.22
482.49	20013.92
482.67	19943.70
482.85	20416.49
483.03	20421.17
483.21	20697.36
483.39	20695.02
483.57	20673.95
483.74	20879.92
483.92	20992.26
484.10	21287.17
484.28	21612.51
484.46	22087.64
484.64	22040.82
484.82	21858.26
485.00	22469.14
485.18	22127.42
485.35	22569.79
485.53	22785.12
485.71	22728.94
485.89	23321.10
486.07	23190.03
486.25	23360.89
486.43	23349.18
486.61	23843.04
486.78	23826.65
486.96	23852.40
487.14	24409.45
487.32	24400.08
487.50	24652.86
487.68	24793.29
487.85	24978.20
488.03	25127.99
488.21	25893.35
488.39	25570.35
488.57	26019.74
488.75	25649.93
488.92	25982.29
489.10	26567.42
489.28	26665.72
489.46	27089.36
489.64	26820.20
489.81	27318.73
489.99	27360.86
490.17	27466.19
490.35	27901.53
490.53	27974.08
490.70	28119.20
490.88	28102.81
491.06	28662.20
491.24	28570.92
491.41	28776.89
491.59	29020.30
491.77	29240.31
491.95	29160.73
492.13	29380.74
492.30	29497.77
492.48	29680.33
492.66	30043.12
492.84	30068.86
493.01	30600.16
493.19	30632.93
493.37	30712.51
493.54	30937.20
493.72	31182.96
493.90	31159.55
494.08	31285.94
494.25	32060.66
494.43	31606.59
494.61	32299.39
494.79	32271.31
494.96	31859.37
495.14	32325.14
495.32	32711.33
495.49	32634.09
495.67	33275.40
495.85	33275.40
496.02	33333.91
496.20	33940.11
496.38	33872.23
496.55	33907.34
496.73	34955.90
496.91	34375.45
497.09	34330.98
497.26	34602.48
497.44	35082.29
497.62	34885.68
497.79	35466.14
497.97	35328.05
498.14	35964.67
498.32	36023.19
498.50	36128.51
498.67	36151.91
498.85	36119.15
499.03	36779.18
499.20	36336.82
499.38	36507.68
499.56	36713.64
499.73	37048.34
499.91	36924.29
500.08	37296.44
500.26	37024.93
500.44	37268.35
500.61	37411.12
500.79	37195.79
500.97	38036.05
501.14	38572.03
501.32	38216.27
501.49	38272.44
501.67	38270.10
501.84	38609.48
502.02	38094.56
502.20	38330.95
502.37	39220.36
502.55	39232.06
502.72	39325.68
502.90	39508.24
503.07	38862.26
503.25	39248.44
503.43	39311.64
503.60	39768.04
503.78	39966.99
503.95	40091.04
504.13	40367.22
504.30	40442.12
504.48	40299.34
504.65	40416.37
504.83	40947.67
505.01	41092.79
505.18	41256.62
505.36	41268.33
505.53	41095.13
505.71	40989.80
505.88	41422.80
506.06	41001.50
506.23	41771.54
506.41	41680.26
506.58	41706.01
506.76	41879.21
506.93	42401.14
507.11	42279.44
507.28	41989.21
507.46	42572.00
507.63	42714.78
507.81	43021.39
507.98	42469.02
508.16	42880.95
508.33	43239.06
508.50	43407.58
508.68	42855.21
508.85	43562.05
509.03	43711.84
509.20	43559.71
509.38	43903.77
509.55	43997.39
509.73	44126.12
509.90	44531.03
510.08	44327.41
510.25	44465.50
510.42	44514.65
510.60	44851.69
510.77	44751.04
510.95	45193.40
511.12	44835.30
511.30	45106.80
511.47	45450.86
511.64	45249.58
511.82	45886.20
511.99	45237.87
512.17	45911.95
512.34	45497.67
512.51	46057.06
512.69	46096.85
512.86	46143.66
513.04	46684.33
513.21	46209.20
513.38	46696.03
513.56	46953.49
513.73	47077.54
513.90	46852.84
514.08	46579.00
514.25	46894.97
514.43	46953.49
514.60	47342.02
514.77	46820.08
514.95	47402.87
515.12	47208.61
515.29	47054.13
515.47	47672.03
515.64	48250.14
515.81	47742.25
515.99	47988.00
516.16	48566.12
516.33	47962.26
516.51	48795.49
516.68	48346.11
516.85	48083.97
517.03	48252.48
517.20	48182.27
517.37	48463.13
517.54	48978.05
517.72	48683.14
517.89	48643.35
518.06	48690.16
518.24	48830.60
518.41	49193.38
518.58	49057.63
518.75	49120.82
518.93	49427.43
519.10	49315.09
519.27	49673.19
519.45	49427.43
519.62	49771.49
519.79	49691.91
519.96	49675.53
520.14	50246.62
520.31	49904.90
520.48	49998.52
520.65	50216.19
520.83	50546.21
521.00	50361.31
521.17	50417.48
521.34	50487.70
521.52	50829.41
521.69	50754.52
521.86	50632.81
522.03	51114.96
522.20	51065.81
522.38	51098.58
522.55	51033.04
522.72	50862.18
522.89	51112.62
523.07	51180.49
523.24	51508.17
523.41	51489.45
523.58	51051.76
523.75	51618.17
523.92	51452.00
524.10	51573.70
524.27	51739.88
524.44	51564.34
524.61	51826.48
524.78	52299.27
524.96	51995.00
525.13	51992.66
525.30	52154.16
525.47	52149.48
525.64	52392.89
525.81	52055.85
525.98	52612.90
526.16	52411.62
526.33	52378.85
526.50	52608.22
526.67	52516.94
526.84	52645.67
527.01	52549.71
527.18	52868.02
527.36	52783.76
527.53	53050.58
527.70	53113.78
527.87	53301.02
528.04	53066.97
528.21	53385.28
528.38	53223.78
528.55	53226.12
528.72	53181.65
528.89	53158.25
529.07	53361.87
529.24	53226.12
529.41	53558.48
529.58	53588.91
529.75	53504.65
529.92	53750.40
530.09	53635.72
530.26	53635.72
530.43	53790.19
530.60	53619.33
530.77	53523.37
530.94	53701.25
531.11	53741.04
531.28	53687.21
531.46	53951.69
531.63	54064.03
531.80	53904.88
531.97	54113.19
532.14	54295.75
532.31	54188.08
532.48	54337.88
532.65	54567.25
532.82	54267.66
532.99	54588.31
533.16	54485.33
533.33	54595.34
533.50	54707.68
533.67	54625.76
533.84	54590.66
534.01	54775.56
534.18	54796.62
534.35	55121.96
534.52	54841.09
534.69	55124.30
534.86	55227.28
535.03	54887.90
535.20	55049.40
535.37	55243.66
535.54	55119.62
535.71	54937.05
535.88	55400.48
536.05	55143.02
536.22	55407.50
536.38	55480.06
536.55	55327.92
536.72	55426.23
536.89	55388.78
537.06	55484.74
537.23	55669.64
537.40	55444.95
537.57	55463.67
537.74	55716.45
537.91	55711.77
538.08	55866.25
538.25	55606.45
538.42	55634.53
538.59	55997.32
538.75	55601.77
538.92	55774.97
539.09	56009.02
539.26	55971.57
539.43	56144.77
539.60	56332.01
539.77	56175.20
539.94	55894.33
540.11	56170.52
540.28	56301.59
540.44	56217.33
540.61	56240.73
540.78	56018.38
540.95	56285.20
541.12	56147.11
541.29	56261.80
541.46	56097.96
541.62	56196.26
541.79	56523.94
541.96	56184.56
542.13	56500.53
542.30	56301.59
542.47	56603.52
542.63	56884.38
542.80	56467.76
542.97	56853.95
543.14	56725.22
543.31	57052.90
543.48	56776.72
543.64	57380.57
543.81	57176.95
543.98	57050.56
544.15	57254.18
544.32	57308.02
544.48	57193.33
544.65	57036.51
544.82	57174.61
544.99	57336.10
545.16	57443.77
545.32	57352.49
545.49	57434.41
545.66	57743.36
545.83	57333.76
546.00	57418.02
546.16	57577.18
546.33	57382.91
546.50	57354.83
546.67	57731.65
546.83	57293.97
547.00	57506.96
547.17	57645.05
547.34	57551.43
547.50	57766.76
547.67	58082.73
547.84	57862.72
548.00	58017.20
548.17	58075.71
548.34	57888.47
548.51	57951.66
548.67	58019.54
548.84	57822.93
549.01	58000.82
549.18	58054.65
549.34	58171.67
549.51	57989.11
549.68	58117.84
549.84	58007.84
550.01	58281.68
550.18	58071.03
550.34	58562.54
550.51	58335.51
550.68	58183.38
550.84	58277.00
551.01	58347.21
551.18	58307.43
551.34	58534.46
551.51	58363.60
551.68	58401.05
551.84	58450.20
552.01	58394.03
552.18	58508.71
552.34	58321.47
552.51	58576.59
552.68	58148.27
552.84	58595.31
553.01	58691.27
553.18	58714.68
553.34	58681.91
553.51	58604.67
553.67	58691.27
553.84	58859.79
554.01	58756.81
554.17	58920.65
554.34	58820.00
554.51	58892.56
554.67	58801.28
554.84	58894.90
555.00	59044.69
555.17	58777.87
555.33	58885.54
555.50	58913.62
555.67	58932.35
555.83	58702.98
556.00	58993.20
556.16	59058.74
556.33	59084.48
556.50	58859.79
556.66	59255.34
556.83	59068.10
556.99	59288.11
557.16	59477.69
557.32	59220.23
557.49	59320.88
557.65	59327.90
557.82	59124.27
557.98	59405.14
558.15	59257.68
558.32	59409.82
558.48	59168.74
558.65	59306.83
558.81	59437.90
558.98	59086.82
559.14	59451.95
559.31	59578.34
559.47	59695.36
559.64	59571.32
559.80	59393.43
559.97	59400.46
560.13	59454.29
560.30	59604.08
560.46	59526.84
560.63	59723.45
560.79	59711.75
560.96	59639.19
561.12	59678.98
561.29	59716.43
561.45	59683.66
561.61	59646.21
561.78	59554.93
561.94	59627.49
562.11	59704.73
562.27	59934.10
562.44	59976.23
562.60	59753.88
562.77	59739.83
562.93	59833.46
563.10	59966.87
563.26	59714.09
563.42	59976.23
563.59	59716.43
563.75	59840.48
563.92	59882.61
564.08	59889.63
564.24	59803.03
564.41	60030.06
564.57	60044.10
564.74	59842.82
564.90	60130.70
565.07	59936.44
565.23	59903.67
565.39	59943.46
565.56	60219.64
565.72	60009.00
565.88	60095.60
566.05	59994.95
566.21	60032.40
566.38	59955.16
566.54	60229.01
566.70	60140.07
566.87	60266.45
567.03	59973.89
567.19	60250.07
567.36	60074.53
567.52	60102.62
567.68	60376.46
567.85	60212.62
568.01	60308.58
568.17	59969.21
568.34	60133.04
568.50	60374.12
568.66	60172.83
568.83	60142.41
568.99	60175.17
569.15	60111.98
569.32	60238.37
569.48	60191.56
569.64	60397.52
569.81	60137.72
569.97	60177.51
570.13	60299.22
570.30	60282.84
570.46	60229.01
570.62	60346.03
570.78	60425.61
570.95	60409.23
571.11	60313.26
571.27	60362.42
571.43	60411.57
571.60	60385.82
571.76	60465.40
571.92	60477.10
572.09	60549.66
572.25	60404.55
572.41	60425.61
572.57	60172.83
572.74	60528.59
572.90	60528.59
573.06	60624.56
573.22	60353.05
573.38	60402.21
573.55	60535.62
573.71	60753.29
573.87	60495.83
574.03	60547.32
574.20	60500.51
574.36	60521.57
574.52	60521.57
574.68	60493.49
574.84	60657.32
575.01	60533.28
575.17	60591.79
575.33	60540.30
575.49	60404.55
575.65	60678.39
575.82	60629.24
575.98	60711.16
576.14	60898.40
576.30	60605.83
576.46	60533.28
576.62	60605.83
576.79	60610.51
576.95	60596.47
577.11	60762.65
577.27	60636.26
577.43	60596.47
577.59	60832.86
577.75	60601.15
577.92	60577.75
578.08	60467.74
578.24	60718.18
578.40	60935.85
578.56	60816.48
578.72	60739.24
578.88	60762.65
579.04	61003.72
579.21	60802.44
579.37	60893.72
579.53	60945.21
579.69	60542.64
579.85	60622.22
580.01	60449.02
580.17	60561.36
580.33	60753.29
580.49	60790.73
580.65	60697.11
580.82	60788.39
580.98	60505.19
581.14	60725.20
581.30	60968.61
581.46	60823.50
581.62	60886.70
581.78	60734.56
581.94	60900.74
582.10	60685.41
582.26	60741.58
582.42	60772.01
582.58	60690.09
582.74	60753.29
582.90	60786.05
583.06	60772.01
583.22	60617.53
583.38	60654.98
583.54	60952.23
583.70	60928.83
583.86	60786.05
584.02	60610.51
584.18	60900.74
584.34	60938.19
584.50	60671.37
584.66	60617.53
584.82	60631.58
584.98	61017.77
585.14	60942.87
585.30	60748.60
585.46	60959.25
585.62	60996.70
585.78	61071.60
585.94	60594.13
586.10	61038.83
586.26	60802.44
586.42	60985.00
586.58	60867.97
586.74	60931.17
586.90	60956.91
587.06	60837.54
587.22	60942.87
587.38	61006.06
587.54	60935.85
587.70	61050.53
587.86	60874.99
588.02	60985.00
588.18	61064.58
588.34	60818.82
