SpectraSuite Data File
++++++++++++++++++++++++++++++++++++
Date: Fri Oct 25 11:25:25 EDT 2013
User: price-jones
Dark Spectrum Present: No
Reference Spectrum Present: No
Number of Sampled Component Spectra: 1
Spectrometers: USB2+H05261
Integration Time (usec): 100000 (USB2+H05261)
Spectra Averaged: 1 (USB2+H05261)
Boxcar Smoothing: 0 (USB2+H05261)
Correct for Electrical Dark: No (USB2+H05261)
Strobe/Lamp Enabled: No (USB2+H05261)
Correct for Detector Non-linearity: No (USB2+H05261)
Correct for Stray Light: No (USB2+H05261)
Number of Pixels in Processed Spectrum: 2048
>>>>>Begin Processed Spectral Data<<<<<
365.73	212.99
365.92	212.99
366.12	212.99
366.32	198.95
366.52	161.50
366.72	105.32
366.91	110.01
367.11	131.07
367.31	152.13
367.51	138.09
367.70	91.28
367.90	138.09
368.10	142.77
368.30	217.67
368.49	133.41
368.69	135.75
368.89	133.41
369.09	138.09
369.28	203.63
369.48	117.03
369.68	205.97
369.87	152.13
370.07	262.14
370.27	255.12
370.47	278.52
370.66	559.39
370.86	641.31
371.06	662.37
371.25	732.59
371.45	697.48
371.65	669.39
371.84	713.86
372.04	685.78
372.24	704.50
372.44	690.46
372.63	723.23
372.83	786.42
373.03	805.14
373.22	692.80
373.42	758.33
373.62	828.55
373.81	861.32
374.01	828.55
374.21	739.61
374.40	800.46
374.60	821.53
374.79	870.68
374.99	823.87
375.19	851.96
375.38	856.64
375.58	870.68
375.78	849.61
375.97	826.21
376.17	823.87
376.37	856.64
376.56	849.61
376.76	915.15
376.95	816.85
377.15	882.38
377.35	882.38
377.54	847.27
377.74	933.87
377.93	936.21
378.13	924.51
378.33	952.60
378.52	821.53
378.72	936.21
378.91	959.62
379.11	994.73
379.31	964.30
379.50	933.87
379.70	983.02
379.89	994.73
380.09	1032.18
380.28	950.26
380.48	1025.15
380.68	983.02
380.87	1053.24
381.07	978.34
381.26	1008.77
381.46	994.73
381.65	1062.60
381.85	1093.03
382.04	1041.54
382.24	926.85
382.43	1046.22
382.63	1078.99
382.83	1006.43
383.02	1046.22
383.22	1165.59
383.41	1048.56
383.61	1011.11
383.80	1137.50
384.00	1071.97
384.19	1095.37
384.39	999.41
384.58	1135.16
384.78	1153.88
384.97	1149.20
385.17	1146.86
385.36	1149.20
385.56	1135.16
385.75	1184.31
385.95	1160.91
386.14	1128.14
386.34	1228.78
386.53	1186.65
386.72	1146.86
386.92	1188.99
387.11	1254.53
387.31	1151.54
387.50	1219.42
387.70	1320.06
387.89	1249.85
388.09	1282.61
388.28	1324.74
388.48	1317.72
388.67	1207.72
388.86	1282.61
389.06	1322.40
389.25	1284.95
389.45	1394.96
389.64	1401.98
389.84	1327.08
390.03	1394.96
390.22	1317.72
390.42	1322.40
390.61	1413.68
390.81	1441.77
391.00	1366.87
391.19	1460.49
391.39	1369.21
391.58	1444.11
391.78	1430.07
391.97	1380.92
392.16	1425.39
392.36	1589.22
392.55	1467.52
392.75	1446.45
392.94	1530.71
393.13	1533.05
393.33	1434.75
393.52	1486.24
393.71	1624.33
393.91	1561.14
394.10	1495.60
394.29	1500.28
394.49	1671.14
394.68	1596.25
394.88	1732.00
395.07	1607.95
395.26	1666.46
395.46	1778.81
395.65	1750.72
395.84	1671.14
396.04	1748.38
396.23	1769.44
396.42	1778.81
396.62	1806.89
396.81	1832.64
397.00	1771.79
397.19	1727.32
397.39	1757.74
397.58	1727.32
397.77	1830.30
397.97	1858.39
398.16	1851.36
398.35	1989.46
398.55	1764.76
398.74	1900.52
398.93	1874.77
399.12	1853.70
399.32	1792.85
399.51	1966.05
399.70	1888.81
399.90	1879.45
400.09	2017.54
400.28	1944.99
400.47	1982.43
400.67	2087.76
400.86	2054.99
401.05	2155.63
401.24	2129.89
401.44	2038.61
401.63	2143.93
401.82	2125.21
402.01	2141.59
402.21	2143.93
402.40	2235.21
402.59	2209.47
402.78	2160.31
402.97	2251.60
403.17	2235.21
403.36	2284.36
403.55	2242.23
403.74	2298.41
403.93	2340.54
404.13	2347.56
404.32	2361.60
404.51	2298.41
404.70	2452.88
404.89	2328.83
405.09	2293.72
405.28	2509.05
405.47	2427.14
405.66	2422.45
405.85	2408.41
406.05	2443.52
406.24	2392.03
406.43	2539.48
406.62	2642.46
406.81	2679.91
407.00	2576.93
407.20	2647.15
407.39	2490.33
407.58	2630.76
407.77	2677.57
407.96	2820.35
408.15	2810.98
408.34	2672.89
408.54	2853.11
408.73	2693.96
408.92	2736.09
409.11	2899.92
409.30	2925.67
409.49	2946.73
409.68	2848.43
409.87	2967.80
410.07	2864.82
410.26	2942.05
410.45	3019.29
410.64	2988.86
410.83	2946.73
411.02	3171.43
411.21	3229.94
411.40	3211.22
411.59	3119.93
411.78	3199.51
411.98	3183.13
412.17	3173.77
412.36	3236.96
412.55	3318.88
412.74	3363.35
412.93	3344.63
413.12	3372.71
413.31	3527.19
413.50	3485.06
413.69	3377.39
413.88	3641.87
414.07	3604.42
414.26	3581.02
414.45	3571.66
414.64	3585.70
414.83	3709.75
415.02	3798.69
415.22	3864.22
415.41	3777.62
415.60	3847.84
415.79	3826.78
415.98	3939.12
416.17	3864.22
416.36	3920.40
416.55	3964.87
416.74	3995.29
416.93	4002.32
417.12	4121.68
417.31	4081.89
417.50	4161.47
417.69	4177.86
417.88	4334.67
418.07	4257.43
418.26	4189.56
418.45	4365.10
418.64	4360.42
418.83	4353.40
419.02	4468.08
419.21	4362.76
419.39	4430.63
419.58	4510.21
419.77	4521.92
419.96	4599.15
420.15	4585.11
420.34	4533.62
420.53	4608.51
420.72	4535.96
420.91	4657.67
421.10	4559.36
421.29	4826.18
421.48	4526.60
421.67	4784.06
421.86	4730.22
422.05	4765.33
422.24	4725.54
422.43	4837.89
422.61	4999.38
422.80	4943.21
422.99	4849.59
423.18	4901.08
423.37	4896.40
423.56	4896.40
423.75	4795.76
423.94	4919.81
424.13	4608.51
424.32	4816.82
424.50	4861.29
424.69	4957.25
424.88	5043.85
425.07	4947.89
425.26	4765.33
425.45	4877.68
425.64	4833.21
425.83	4917.47
426.01	5053.22
426.20	4931.51
426.39	4933.85
426.58	5081.30
426.77	5057.90
426.96	5097.69
427.15	4978.32
427.33	5210.03
427.52	5001.72
427.71	5193.65
427.90	5273.23
428.09	5219.39
428.28	5277.91
428.46	5097.69
428.65	5376.21
428.84	5385.57
429.03	5626.65
429.22	5518.98
429.40	5533.03
429.59	5357.49
429.78	5228.76
429.97	5172.58
430.16	5537.71
430.34	5465.15
430.53	5619.63
430.72	5661.76
430.91	5603.24
431.10	5617.29
431.28	5502.60
431.47	5659.42
431.66	5923.90
431.85	5764.74
432.03	5811.55
432.22	6012.84
432.41	5940.28
432.60	5944.96
432.79	5926.24
432.97	6174.33
433.16	6031.56
433.35	6031.56
433.54	5959.00
433.72	6160.29
433.91	6134.54
434.10	6029.22
434.28	6029.22
434.47	6015.18
434.66	6162.63
434.85	6157.95
435.03	6193.06
435.22	6181.35
435.41	6340.51
435.59	6384.98
435.78	6429.45
435.97	6478.60
436.16	6480.94
436.34	6375.62
436.53	6523.07
436.72	6677.55
436.90	6267.95
437.09	6429.45
437.28	6382.64
437.46	6527.75
437.65	6525.41
437.84	6686.91
438.02	6782.87
438.21	6604.99
438.40	6700.95
438.58	7028.63
438.77	6942.03
438.96	6935.01
439.14	6890.54
439.33	7012.24
439.52	7246.30
439.70	7117.57
439.89	7379.71
440.08	7253.32
440.26	7435.88
440.45	7403.11
440.63	7295.45
440.82	7555.25
441.01	7449.93
441.19	7370.35
441.38	7569.29
441.57	7719.09
441.75	7786.96
441.94	8105.28
442.12	7826.75
442.31	7845.48
442.50	7981.23
442.68	7901.65
442.87	8098.25
443.05	8063.15
443.24	8234.00
443.43	8156.77
443.61	8255.07
443.80	8493.80
443.98	8065.49
444.17	7805.69
444.35	7971.86
444.54	8379.12
444.73	8222.30
444.91	8077.19
445.10	8175.49
445.28	8266.77
445.47	8184.85
445.65	8372.10
445.84	8280.82
446.02	8376.78
446.21	8390.82
446.39	8388.48
446.58	8304.22
446.77	8456.36
446.95	8189.53
447.14	8400.18
447.32	8521.89
447.51	8367.42
447.69	8388.48
447.88	8444.65
448.06	8685.73
448.25	8507.85
448.43	8479.76
448.62	8264.43
448.80	8465.72
448.99	8528.91
449.17	8674.03
449.36	8493.80
449.54	8697.43
449.73	8819.14
449.91	8812.12
450.10	9032.13
450.28	8922.12
450.46	8910.42
450.65	8746.58
450.83	8821.48
451.02	8938.51
451.20	9184.26
451.39	9135.11
451.57	9095.32
451.76	9146.81
451.94	9041.49
452.13	9102.34
452.31	9092.98
452.49	9270.86
452.68	9188.94
452.86	9273.20
453.05	9275.54
453.23	9352.78
453.42	9142.13
453.60	9329.38
453.78	9483.85
453.97	9254.48
454.15	9507.26
454.34	9493.21
454.52	9535.34
454.70	9479.17
454.89	9685.14
455.07	9767.06
455.26	9771.74
455.44	9966.00
455.62	9635.99
455.81	9832.59
455.99	9792.80
456.17	9907.49
456.36	9844.29
456.54	9853.66
456.73	10113.45
456.91	10284.31
457.09	10228.14
457.28	10382.62
457.46	10307.72
457.64	10244.52
457.83	10471.56
458.01	10239.84
458.19	10532.41
458.38	10595.61
458.56	10602.63
458.74	10314.74
458.93	10593.26
459.11	10520.71
459.29	10373.25
459.48	10738.38
459.66	10567.52
459.84	11152.65
460.03	10972.43
460.21	10733.70
460.39	10733.70
460.57	10984.13
460.76	11070.73
460.94	11185.42
461.12	11021.58
461.31	10937.32
461.49	10885.83
461.67	10871.79
461.85	11587.99
462.04	11173.72
462.22	11623.10
462.40	11367.98
462.59	11360.96
462.77	11417.13
462.95	11445.22
463.13	11686.29
463.32	11552.88
463.50	11583.31
463.68	11791.62
463.86	11676.93
464.05	11634.80
464.23	11763.53
464.41	11765.87
464.59	11492.03
464.78	11868.86
464.96	12002.27
465.14	11676.93
465.32	12079.50
465.50	12032.69
465.69	12138.02
465.87	12095.89
466.05	12006.95
466.23	11915.67
466.41	12278.45
466.60	12346.33
466.78	12138.02
466.96	11990.56
467.14	12044.40
467.32	12290.15
467.51	12355.69
467.69	11981.20
467.87	12051.42
468.05	12475.06
468.23	12166.10
468.41	12301.86
468.60	12360.37
468.78	12393.14
468.96	12676.34
469.14	12634.21
469.32	12908.05
469.50	12582.72
469.69	12592.08
469.87	12985.29
470.05	12877.63
470.23	12994.65
470.41	13057.85
470.59	13502.55
470.77	12821.45
470.95	13111.68
471.14	13486.17
471.32	12776.98
471.50	13518.93
471.68	13446.38
471.86	13652.34
472.04	13593.83
472.22	14038.53
472.40	13467.44
472.58	13682.77
472.77	14047.90
472.95	14085.34
473.13	14274.93
473.31	13804.48
473.49	13877.04
473.67	13928.53
473.85	14167.26
474.03	14466.85
474.21	14398.98
474.39	14644.73
474.57	14707.93
474.75	14618.99
474.93	15056.67
475.12	14719.63
475.30	15260.29
475.48	15063.69
475.66	14930.28
475.84	14869.42
476.02	15147.95
476.20	15136.24
476.38	15379.66
476.56	15974.16
476.74	15587.97
476.92	15594.99
477.10	15756.49
477.28	15810.32
477.46	16407.16
477.64	16189.49
477.82	16177.78
478.00	16720.79
478.18	16823.77
478.36	16624.83
478.54	16957.18
478.72	16879.94
478.90	17071.87
479.08	17397.20
479.26	17413.59
479.44	17570.40
479.62	17525.93
479.80	18097.02
479.98	18019.78
480.16	18405.97
480.34	18164.90
480.52	18389.59
480.70	18539.38
480.88	18328.74
481.06	18707.90
481.24	18796.84
481.41	18986.43
481.59	19082.39
481.77	19161.97
481.95	19358.57
482.13	19304.74
482.31	19417.08
482.49	20123.93
482.67	19913.28
482.85	20360.32
483.03	20542.88
483.21	20645.87
483.39	20690.34
483.57	20718.42
483.74	20980.56
483.92	21226.32
484.10	21373.77
484.28	21458.03
484.46	21743.58
484.64	22043.17
484.82	21954.22
485.00	21986.99
485.18	22185.94
485.35	22691.49
485.53	22551.06
485.71	22682.13
485.89	23211.09
486.07	22810.86
486.25	23094.07
486.43	23463.87
486.61	23655.79
486.78	24133.26
486.96	23969.43
487.14	24294.76
487.32	24329.87
487.50	24519.45
487.68	24760.53
487.85	25163.10
488.03	25411.20
488.21	25282.47
488.39	25481.41
488.57	25621.84
488.75	26001.01
488.92	26518.27
489.10	26370.82
489.28	26476.14
489.46	26876.37
489.64	26902.12
489.81	27166.60
489.99	27330.44
490.17	27672.15
490.35	27758.75
490.53	27906.21
490.70	28126.22
490.88	27964.72
491.06	28683.27
491.24	28517.09
491.41	28847.10
491.59	28769.86
491.77	29015.62
491.95	29071.79
492.13	29387.77
492.30	29813.74
492.48	29645.23
492.66	29930.77
492.84	30331.00
493.01	30340.36
493.19	30263.13
493.37	30740.60
493.54	30850.60
493.72	31515.31
493.90	30829.54
494.08	31405.31
494.25	31737.66
494.43	31945.97
494.61	31835.97
494.79	32067.68
494.96	32072.36
495.14	32629.41
495.32	32751.12
495.49	32751.12
495.67	32877.51
495.85	33104.54
496.02	33149.01
496.20	33851.17
496.38	33727.12
496.55	33619.46
496.73	34569.71
496.91	34178.84
497.09	34361.40
497.26	34979.31
497.44	34436.30
497.62	34824.83
497.79	35023.78
497.97	35082.29
498.14	35386.56
498.32	35306.98
498.50	35660.40
498.67	36400.01
498.85	36128.51
499.03	36414.05
499.20	36285.33
499.38	36348.52
499.56	36730.03
499.73	36746.41
499.91	37013.23
500.08	37357.29
500.26	37099.83
500.44	37160.69
500.61	37610.07
500.79	37862.85
500.97	37862.85
501.14	38227.97
501.32	38075.84
501.49	38185.84
501.67	38288.82
501.84	38665.65
502.02	38110.94
502.20	38829.49
502.37	39112.69
502.55	39241.42
502.72	39510.58
502.90	39051.84
503.07	39257.81
503.25	39295.25
503.43	39056.52
503.60	39800.81
503.78	39959.97
503.95	39447.39
504.13	40189.34
504.30	40179.98
504.48	40079.33
504.65	40116.78
504.83	40727.66
505.01	40608.29
505.18	41153.64
505.36	40832.99
505.53	40931.29
505.71	40975.76
505.88	40919.59
506.06	41141.94
506.23	41771.54
506.41	41596.00
506.58	41787.92
506.76	41944.74
506.93	41720.05
507.11	41776.22
507.28	42216.24
507.46	42185.82
507.63	42897.34
507.81	42859.89
507.98	42106.24
508.16	42749.88
508.33	42951.17
508.50	43210.97
508.68	43538.65
508.85	43349.06
509.03	43468.43
509.20	43512.90
509.38	43810.15
509.55	44261.87
509.73	43817.17
509.90	44346.13
510.08	43777.38
510.25	44421.03
510.42	44596.57
510.60	44500.61
510.77	44818.92
510.95	44868.07
511.12	44919.56
511.30	44626.99
511.47	45050.63
511.64	45233.19
511.82	45357.24
511.99	45322.13
512.17	45591.30
512.34	45378.31
512.51	45579.59
512.69	45993.87
512.86	45659.17
513.04	46422.19
513.21	46138.98
513.38	46277.07
513.56	46696.03
513.73	46272.39
513.90	46450.27
514.08	46574.32
514.25	46806.03
514.43	46836.46
514.60	47112.64
514.77	46836.46
514.95	47271.80
515.12	47360.74
515.29	47077.54
515.47	47835.87
515.64	47604.16
515.81	47702.46
515.99	47735.23
516.16	48250.14
516.33	48095.67
516.51	48137.80
516.68	48212.70
516.85	48266.53
517.03	47852.25
517.20	48626.97
517.37	48729.95
517.54	48200.99
517.72	48666.76
517.89	48952.30
518.06	48790.81
518.24	49008.48
518.41	48556.75
518.58	48942.94
518.75	48896.13
518.93	49308.07
519.10	48877.41
519.27	49427.43
519.45	49478.92
519.62	49614.68
519.79	49720.00
519.96	49652.12
520.14	49598.29
520.31	49841.71
520.48	50270.03
520.65	49853.41
520.83	50548.55
521.00	50733.45
521.17	50321.52
521.34	50590.68
521.52	50754.52
521.69	50337.90
521.86	50855.16
522.03	50616.43
522.20	51058.79
522.38	50768.56
522.55	51075.17
522.72	51086.87
522.89	50972.19
523.07	51168.79
523.24	51051.76
523.41	51583.07
523.58	51100.92
523.75	51358.38
523.92	51508.17
524.10	51730.52
524.27	51796.06
524.44	51571.36
524.61	51660.30
524.78	51540.94
524.96	51683.71
525.13	52025.43
525.30	52088.62
525.47	52399.91
525.64	51877.97
525.81	52259.48
525.98	52348.42
526.16	52229.05
526.33	52121.39
526.50	52659.71
526.67	52484.17
526.84	52343.74
527.01	52552.05
527.18	52711.20
527.36	52388.21
527.53	52601.20
527.70	53097.39
527.87	52905.47
528.04	52924.19
528.21	53038.88
528.38	52914.83
528.55	53427.41
528.72	53162.93
528.89	53167.61
529.07	52985.05
529.24	53059.94
529.41	53542.10
529.58	53387.62
529.75	53471.88
529.92	53460.18
530.09	53509.33
530.26	53645.08
530.43	53717.64
530.60	53373.58
530.77	53649.76
530.94	53769.13
531.11	53616.99
531.28	53954.03
531.46	53923.60
531.63	53956.37
531.80	54085.10
531.97	54150.63
532.14	53965.73
532.31	54227.87
532.48	54094.46
532.65	54461.93
532.82	54337.88
532.99	54391.71
533.16	54513.42
533.33	54534.48
533.50	54761.51
533.67	54490.01
533.84	54377.67
534.01	54705.34
534.18	54679.60
534.35	54915.99
534.52	54632.78
534.69	54913.65
534.86	54906.63
535.03	54763.85
535.20	54763.85
535.37	54993.23
535.54	55000.25
535.71	54913.65
535.88	55040.04
536.05	55201.53
536.22	55068.12
536.38	55334.95
536.55	55215.58
536.72	55351.33
536.89	55304.52
537.06	55379.42
537.23	55341.97
537.40	55168.77
537.57	55660.28
537.74	55454.31
537.91	55690.71
538.08	55894.33
538.25	55671.98
538.42	55749.22
538.59	55735.18
538.75	55398.14
538.92	55753.90
539.09	56069.87
539.26	55723.47
539.43	55632.19
539.60	56233.71
539.77	56142.43
539.94	56179.88
540.11	55924.76
540.28	56210.31
540.44	56236.05
540.61	56250.09
540.78	56097.96
540.95	55915.40
541.12	55976.25
541.29	56371.80
541.46	56310.95
541.62	56214.99
541.79	56329.67
541.96	55945.83
542.13	56411.59
542.30	56285.20
542.47	56636.28
542.63	56657.35
542.80	56746.29
542.97	56776.72
543.14	56877.36
543.31	56802.46
543.48	57059.92
543.64	57254.18
543.81	57345.47
543.98	56919.49
544.15	56994.39
544.32	57015.45
544.48	57298.65
544.65	56868.00
544.82	57057.58
544.99	57148.86
545.16	57216.74
545.32	57064.60
545.49	57455.47
545.66	57513.98
545.83	57315.04
546.00	57649.74
546.16	57425.04
546.33	57382.91
546.50	57317.38
546.67	57481.22
546.83	57364.19
547.00	57387.60
547.17	57659.10
547.34	57602.92
547.50	57551.43
547.67	57888.47
547.84	57794.85
548.00	57771.44
548.17	57993.79
548.34	57860.38
548.51	57729.31
548.67	58017.20
548.84	57963.37
549.01	57998.48
549.18	58066.35
549.34	57836.98
549.51	58021.88
549.68	58192.74
549.84	58071.03
550.01	58071.03
550.18	57954.00
550.34	58181.04
550.51	58309.77
550.68	58358.92
550.84	58127.20
551.01	58377.64
551.18	58227.85
551.34	58251.25
551.51	58295.72
551.68	58358.92
551.84	58358.92
552.01	58169.33
552.18	58562.54
552.34	58218.49
552.51	58473.60
552.68	58365.94
552.84	58382.32
553.01	58742.77
553.18	58410.41
553.34	58707.66
553.51	58625.74
553.67	58639.78
553.84	58906.60
554.01	58754.47
554.17	58719.36
554.34	58836.39
554.51	58763.83
554.67	58770.85
554.84	59004.91
555.00	58822.34
555.17	58843.41
555.33	58782.55
555.50	58749.79
555.67	58887.88
555.83	58679.57
556.00	58721.70
556.16	59065.76
556.33	59021.29
556.50	58862.13
556.66	59110.23
556.83	59028.31
556.99	59121.93
557.16	59330.24
557.32	59412.16
557.49	59355.99
557.65	59185.13
557.82	59201.51
557.98	59309.18
558.15	59348.96
558.32	59311.52
558.48	59089.16
558.65	59288.11
558.81	59344.28
558.98	59332.58
559.14	59395.77
559.31	59346.62
559.47	59346.62
559.64	59480.03
559.80	59487.06
559.97	59646.21
560.13	59398.12
560.30	59222.58
560.46	59468.33
560.63	59489.40
560.79	59388.75
560.96	59697.70
561.12	59267.05
561.29	59664.94
561.45	59707.07
561.61	59730.47
561.78	59538.55
561.94	59578.34
562.11	59365.35
562.27	59627.49
562.44	59758.56
562.60	59700.04
562.77	59751.54
562.93	59531.53
563.10	59753.88
563.26	59798.35
563.42	59980.91
563.59	59791.33
563.75	59735.15
563.92	59845.16
564.08	59760.90
564.24	59852.18
564.41	59901.33
564.57	59922.40
564.74	59791.33
564.90	59842.82
565.07	59880.27
565.23	59859.20
565.39	59861.54
565.56	59980.91
565.72	59957.50
565.88	59835.80
566.05	60013.68
566.21	59927.08
566.38	60060.49
566.54	60151.77
566.70	60322.63
566.87	60175.17
567.03	59936.44
567.19	60079.21
567.36	60097.94
567.52	60058.15
567.68	60552.00
567.85	60053.47
568.01	60348.37
568.17	60198.58
568.34	60224.32
568.50	60214.96
568.66	59959.84
568.83	60156.45
568.99	60170.49
569.15	60285.18
569.32	60231.35
569.48	60041.76
569.64	60224.32
569.81	60257.09
569.97	60154.11
570.13	60477.10
570.30	60020.70
570.46	60336.67
570.62	60257.09
570.78	60296.88
570.95	60037.08
571.11	60364.76
571.27	60299.22
571.43	60247.73
571.60	60203.26
571.76	60303.90
571.92	60289.86
572.09	60217.30
572.25	60264.11
572.41	60350.71
572.57	60346.03
572.74	60687.75
572.90	60425.61
573.06	60444.33
573.22	60467.74
573.38	60243.05
573.55	60383.48
573.71	60640.94
573.87	60498.17
574.03	60420.93
574.20	60505.19
574.36	60371.78
574.52	60353.05
574.68	60610.51
574.84	60491.15
575.01	60561.36
575.17	60591.79
575.33	60346.03
575.49	60486.46
575.65	60528.59
575.82	60722.86
575.98	60552.00
576.14	60647.96
576.30	60629.24
576.46	60701.79
576.62	60413.91
576.79	60584.77
576.95	60547.32
577.11	60516.89
577.27	60673.71
577.43	60346.03
577.59	60509.87
577.75	60460.72
577.92	60516.89
578.08	60563.70
578.24	60685.41
578.40	60905.42
578.56	60685.41
578.72	60626.90
578.88	60746.26
579.04	60842.23
579.21	60706.47
579.37	60706.47
579.53	60638.60
579.69	60392.84
579.85	60488.80
580.01	60449.02
580.17	60680.73
580.33	60949.89
580.49	60811.80
580.65	60776.69
580.82	60643.28
580.98	60692.43
581.14	60673.71
581.30	60746.26
581.46	60727.54
581.62	60786.05
581.78	60659.66
581.94	60839.89
582.10	60577.75
582.26	60743.92
582.42	60678.39
582.58	60561.36
582.74	60690.09
582.90	60825.84
583.06	60645.62
583.22	60783.71
583.38	60727.54
583.54	60699.45
583.70	60914.78
583.86	60900.74
584.02	60725.20
584.18	60898.40
584.34	60870.31
584.50	60781.37
584.66	60591.79
584.82	60790.73
584.98	60999.04
585.14	60870.31
585.30	60802.44
585.46	60942.87
585.62	60825.84
585.78	60734.56
585.94	60823.50
586.10	60823.50
586.26	60776.69
586.42	60945.21
586.58	61015.43
586.74	60828.18
586.90	60809.46
587.06	60772.01
587.22	61092.66
587.38	60811.80
587.54	60786.05
587.70	60816.48
587.86	60842.23
588.02	60582.43
588.18	60935.85
588.34	60781.37
588.49	61048.19
