SpectraSuite Data File
++++++++++++++++++++++++++++++++++++
Date: Fri Oct 25 11:33:31 EDT 2013
User: price-jones
Dark Spectrum Present: No
Reference Spectrum Present: No
Number of Sampled Component Spectra: 1
Spectrometers: USB2+H05261
Integration Time (usec): 100000 (USB2+H05261)
Spectra Averaged: 1 (USB2+H05261)
Boxcar Smoothing: 0 (USB2+H05261)
Correct for Electrical Dark: No (USB2+H05261)
Strobe/Lamp Enabled: No (USB2+H05261)
Correct for Detector Non-linearity: No (USB2+H05261)
Correct for Stray Light: No (USB2+H05261)
Number of Pixels in Processed Spectrum: 2048
>>>>>Begin Processed Spectral Data<<<<<
365.73	290.23
365.92	290.23
366.12	290.23
366.32	191.92
366.52	208.31
366.72	229.37
366.91	182.56
367.11	128.73
367.31	63.19
367.51	241.08
367.70	154.48
367.90	210.65
368.10	110.01
368.30	229.37
368.49	173.20
368.69	173.20
368.89	142.77
369.09	229.37
369.28	205.97
369.48	315.97
369.68	177.88
369.87	241.08
370.07	299.59
370.27	266.82
370.47	292.57
370.66	470.45
370.86	482.15
371.06	535.98
371.25	477.47
371.45	589.82
371.65	545.34
371.84	568.75
372.04	538.32
372.24	601.52
372.44	496.19
372.63	615.56
372.83	554.71
373.03	540.66
373.22	521.94
373.42	589.82
373.62	622.58
373.81	561.73
374.01	669.39
374.21	688.12
374.40	599.18
374.60	645.99
374.79	578.11
374.99	629.60
375.19	603.86
375.38	641.31
375.58	601.52
375.78	688.12
375.97	622.58
376.17	713.86
376.37	643.65
376.56	641.31
376.76	683.44
376.95	692.80
377.15	669.39
377.35	653.01
377.54	671.73
377.74	578.11
377.93	634.29
378.13	699.82
378.33	648.33
378.52	730.25
378.72	755.99
378.91	767.70
379.11	678.76
379.31	760.67
379.50	645.99
379.70	760.67
379.89	702.16
380.09	671.73
380.28	690.46
380.48	730.25
380.68	669.39
380.87	798.12
381.07	816.85
381.26	805.14
381.46	777.06
381.65	770.04
381.85	751.31
382.04	819.19
382.24	727.91
382.43	774.72
382.63	772.38
382.83	734.93
383.02	805.14
383.22	755.99
383.41	739.61
383.61	802.80
383.80	866.00
384.00	725.57
384.19	823.87
384.39	816.85
384.58	854.30
384.78	774.72
384.97	828.55
385.17	823.87
385.36	772.38
385.56	802.80
385.75	826.21
385.95	844.93
386.14	854.30
386.34	837.91
386.53	863.66
386.72	861.32
386.92	868.34
387.11	903.45
387.31	873.02
387.50	940.90
387.70	828.55
387.89	873.02
388.09	889.40
388.28	940.90
388.48	912.81
388.67	931.53
388.86	924.51
389.06	903.45
389.25	894.08
389.45	929.19
389.64	940.90
389.84	992.39
390.03	1039.20
390.22	999.41
390.42	964.30
390.61	976.00
390.81	1027.50
391.00	1029.84
391.19	950.26
391.39	1057.92
391.58	1029.84
391.78	1027.50
391.97	1022.81
392.16	1083.67
392.36	1107.07
392.55	992.39
392.75	1062.60
392.94	1046.22
393.13	1104.73
393.33	1121.12
393.52	1008.77
393.71	1046.22
393.91	1041.54
394.10	1102.39
394.29	1104.73
394.49	1060.26
394.68	1153.88
394.88	1135.16
395.07	1114.10
395.26	1076.65
395.46	1130.48
395.65	1142.18
395.84	1238.14
396.04	1247.51
396.23	1240.48
396.42	1132.82
396.62	1259.21
396.81	1247.51
397.00	1200.69
397.19	1221.76
397.39	1137.50
397.58	1245.16
397.77	1179.63
397.97	1191.33
398.16	1310.70
398.35	1334.11
398.55	1277.93
398.74	1320.06
398.93	1306.02
399.12	1240.48
399.32	1270.91
399.51	1233.46
399.70	1299.00
399.90	1301.34
400.09	1387.94
400.28	1366.87
400.47	1387.94
400.67	1441.77
400.86	1390.28
401.05	1404.32
401.24	1427.73
401.44	1430.07
401.63	1462.83
401.82	1418.36
402.01	1427.73
402.21	1380.92
402.40	1535.39
402.59	1444.11
402.78	1519.01
402.97	1540.07
403.17	1444.11
403.36	1465.18
403.55	1486.24
403.74	1551.78
403.93	1624.33
404.13	1544.75
404.32	1657.10
404.51	1596.25
404.70	1577.52
404.89	1575.18
405.09	1783.49
405.28	1783.49
405.47	1657.10
405.66	1722.63
405.85	1739.02
406.05	1645.40
406.24	1614.97
406.43	1703.91
406.62	1781.15
406.81	1811.57
407.00	1764.76
407.20	1708.59
407.39	1797.53
407.58	1816.26
407.77	1797.53
407.96	1769.44
408.15	1891.15
408.34	1757.74
408.54	1870.09
408.73	1895.83
408.92	1937.96
409.11	1912.22
409.30	1949.67
409.49	2015.20
409.68	1973.07
409.87	2099.46
410.07	2010.52
410.26	2003.50
410.45	1975.41
410.64	2054.99
410.83	2064.35
411.02	2019.88
411.21	2214.15
411.40	2127.55
411.59	2155.63
411.78	2157.97
411.98	2211.81
412.17	2153.29
412.36	2235.21
412.55	2363.94
412.74	2267.98
412.93	2349.90
413.12	2312.45
413.31	2445.86
413.50	2289.04
413.69	2326.49
413.88	2434.16
414.07	2326.49
414.26	2483.31
414.45	2392.03
414.64	2420.11
414.83	2520.76
415.02	2562.89
415.22	2679.91
415.41	2651.83
415.60	2614.38
415.79	2661.19
415.98	2661.19
416.17	2675.23
416.36	2651.83
416.55	2738.43
416.74	2803.96
416.93	2843.75
417.12	2829.71
417.31	2878.86
417.50	2878.86
417.69	2953.76
417.88	2913.97
418.07	2860.13
418.26	2977.16
418.45	2871.84
418.64	3056.74
418.83	2993.55
419.02	3009.93
419.21	3021.63
419.39	3073.12
419.58	2995.89
419.77	3016.95
419.96	3094.19
420.15	3183.13
420.34	3143.34
420.53	2925.67
420.72	3232.28
420.91	3192.49
421.10	3274.41
421.29	3194.83
421.48	3290.79
421.67	3173.77
421.86	3297.81
422.05	3375.05
422.24	3187.81
422.43	3248.66
422.61	3267.39
422.80	3307.18
422.99	3513.14
423.18	3293.13
423.37	3438.25
423.56	3412.50
423.75	3375.05
423.94	3258.03
424.13	3253.34
424.32	3241.64
424.50	3438.25
424.69	3531.87
424.88	3389.10
425.07	3391.44
425.26	3389.10
425.45	3543.57
425.64	3377.39
425.83	3353.99
426.01	3349.31
426.20	3361.01
426.39	3414.84
426.58	3473.36
426.77	3361.01
426.96	3393.78
427.15	3440.59
427.33	3658.26
427.52	3534.21
427.71	3623.15
427.90	3576.34
428.09	3660.60
428.28	3566.98
428.46	3712.09
428.65	3648.90
428.84	3707.41
429.03	3744.86
429.22	3742.52
429.40	3676.98
429.59	3791.67
429.78	3709.75
429.97	3590.38
430.16	3721.45
430.34	3831.46
430.53	3899.33
430.72	3857.20
430.91	3784.65
431.10	3805.71
431.28	3925.08
431.47	4030.40
431.66	3999.98
431.85	3882.95
432.03	4074.87
432.22	4100.62
432.41	4077.21
432.60	4098.28
432.79	4077.21
432.97	4081.89
433.16	4234.03
433.35	3967.21
433.54	4238.71
433.72	4161.47
433.91	4201.26
434.10	4133.39
434.28	4102.96
434.47	4194.24
434.66	4369.78
434.85	4156.79
435.03	4339.35
435.22	4198.92
435.41	4440.00
435.59	4393.19
435.78	4337.01
435.97	4341.69
436.16	4432.97
436.34	4346.37
436.53	4360.42
436.72	4486.81
436.90	4503.19
437.09	4454.04
437.28	4435.32
437.46	4578.09
437.65	4545.32
437.84	4592.13
438.02	4521.92
438.21	4547.66
438.40	4568.73
438.58	4781.71
438.77	4681.07
438.96	4861.29
439.14	4702.14
439.33	4835.55
439.52	4765.33
439.70	5032.15
439.89	4887.04
440.08	4954.91
440.26	4901.08
440.45	4992.36
440.63	5214.71
440.82	5109.39
441.01	4983.00
441.19	5060.24
441.38	5217.05
441.57	5317.70
441.75	5228.76
441.94	5369.19
442.12	5418.34
442.31	5500.26
442.50	5516.64
442.68	5217.05
442.87	5518.98
443.05	5537.71
443.24	5413.66
443.43	5497.92
443.61	5575.16
443.80	5621.97
443.98	5329.40
444.17	5364.51
444.35	5509.62
444.54	5605.58
444.73	5554.09
444.91	5570.48
445.10	5636.01
445.28	5322.38
445.47	5598.56
445.65	5486.22
445.84	5612.60
446.02	5729.63
446.21	5687.50
446.39	5558.77
446.58	5837.30
446.77	5731.97
446.95	5647.71
447.14	5734.31
447.32	5851.34
447.51	5827.93
447.69	5621.97
447.88	5652.39
448.06	5818.57
448.25	5750.70
448.43	5921.56
448.62	5884.11
448.80	5785.80
448.99	5727.29
449.17	5935.60
449.36	5813.89
449.54	5909.85
449.73	6022.20
449.91	6054.97
450.10	5975.39
450.28	6080.71
450.46	5959.00
450.65	6134.54
450.83	6026.88
451.02	5951.98
451.20	6249.23
451.39	6181.35
451.57	6150.93
451.76	6043.26
451.94	6235.19
452.13	6333.49
452.31	6228.17
452.49	6284.34
452.68	6263.27
452.86	6422.43
453.05	6394.34
453.23	6401.37
453.42	6298.38
453.60	6408.39
453.78	6251.57
453.97	6333.49
454.15	6296.04
454.34	6282.00
454.52	6626.06
454.70	6387.32
454.89	6537.12
455.07	6579.25
455.26	6574.56
455.44	6614.35
455.62	6637.76
455.81	6579.25
455.99	6817.98
456.17	6722.02
456.36	6686.91
456.54	6869.47
456.73	6904.58
456.91	6932.67
457.09	7068.42
457.28	7073.10
457.46	6953.73
457.64	7068.42
457.83	7023.95
458.01	6986.50
458.19	7178.42
458.38	7166.72
458.56	7155.02
458.74	7253.32
458.93	7077.78
459.11	7316.51
459.29	7087.14
459.48	7183.10
459.66	7332.90
459.84	7351.62
460.03	7499.08
460.21	7576.31
460.39	7442.90
460.57	7440.56
460.76	7382.05
460.94	7557.59
461.12	7316.51
461.31	7480.35
461.49	7545.89
461.67	7648.87
461.85	7786.96
462.04	7604.40
462.22	8065.49
462.40	7644.19
462.59	7660.57
462.77	7672.28
462.95	7793.98
463.13	7751.85
463.32	7716.75
463.50	7911.01
463.68	7957.82
463.86	8011.65
464.05	7941.44
464.23	7934.42
464.41	7925.05
464.59	7789.30
464.78	8156.77
464.96	8067.83
465.14	7768.24
465.32	8112.30
465.50	8081.87
465.69	8126.34
465.87	8035.06
466.05	8107.62
466.23	8056.12
466.41	8173.15
466.60	8297.20
466.78	8063.15
466.96	8098.25
467.14	8285.50
467.32	8070.17
467.51	8681.05
467.69	8241.03
467.87	8222.30
468.05	8194.22
468.23	8299.54
468.41	8538.27
468.60	8430.61
468.78	8753.60
468.96	8276.13
469.14	8617.85
469.32	8545.30
469.50	8416.57
469.69	8769.99
469.87	8784.03
470.05	8826.16
470.23	8828.50
470.41	8931.48
470.59	8657.64
470.77	8826.16
470.95	8840.20
471.14	9053.19
471.32	8643.60
471.50	8997.02
471.68	9001.70
471.86	9053.19
472.04	8961.91
472.22	9392.57
472.40	9027.45
472.58	9179.58
472.77	9308.31
472.95	9418.32
473.13	9458.10
473.31	9329.38
473.49	9556.41
473.67	9345.76
473.85	9568.11
474.03	9797.48
474.21	9666.41
474.39	9675.77
474.57	9692.16
474.75	9935.57
474.93	9944.94
475.12	9973.02
475.30	9956.64
475.48	9968.34
475.66	10258.57
475.84	10338.15
476.02	10235.16
476.20	10391.98
476.38	10406.02
476.56	10422.41
476.74	10530.07
476.92	10668.16
477.10	10410.70
477.28	10665.82
477.46	10471.56
477.64	10799.23
477.82	10991.16
478.00	10979.45
478.18	10977.11
478.36	11307.13
478.54	11468.62
478.72	11396.07
478.90	11351.60
479.08	11477.99
479.26	11531.82
479.44	11541.18
479.62	11639.48
479.80	11721.40
479.98	11941.41
480.16	12299.52
480.34	12168.45
480.52	12170.79
480.70	12196.53
480.88	12308.88
481.06	12273.77
481.24	12332.28
481.41	12564.00
481.59	12723.15
481.77	12746.56
481.95	12947.84
482.13	13001.68
482.31	12872.95
482.49	13392.55
482.67	13200.62
482.85	13399.57
483.03	13703.84
483.21	13516.59
483.39	13687.45
483.57	13802.14
483.74	13951.93
483.92	14045.55
484.10	13823.20
484.28	14106.41
484.46	14279.61
484.64	14843.68
484.82	14237.48
485.00	14523.02
485.18	15061.35
485.35	14960.70
485.53	15140.93
485.71	15063.69
485.89	15396.04
486.07	14988.79
486.25	15227.53
486.43	15513.07
486.61	15524.77
486.78	15861.81
486.96	16098.20
487.14	16393.11
487.32	16095.86
487.50	16058.42
487.68	16170.76
487.85	16526.52
488.03	16575.67
488.21	17048.46
488.39	16847.18
488.57	16912.71
488.75	17088.25
488.92	17429.97
489.10	17153.79
489.28	17572.74
489.46	17813.82
489.64	17554.02
489.81	17998.72
489.99	18237.45
490.17	18211.71
490.35	18202.35
490.53	18422.36
490.70	18548.75
490.88	18260.86
491.06	18853.02
491.24	18747.69
491.41	19049.62
491.59	18862.38
491.77	19185.37
491.95	19442.83
492.13	19789.23
492.30	19604.33
492.48	19651.14
492.66	19868.81
492.84	20067.75
493.01	20093.50
493.19	20166.06
493.37	20475.01
493.54	20500.75
493.72	20407.13
493.90	20460.96
494.08	20596.71
494.25	20954.82
494.43	20908.01
494.61	21221.64
494.79	21041.42
494.96	21202.91
495.14	21242.70
495.32	22019.76
495.49	21818.47
495.67	21820.81
495.85	22066.57
496.02	22284.24
496.20	22328.71
496.38	22167.21
496.55	22052.53
496.73	22885.76
496.91	22649.36
497.09	22670.43
497.26	22984.06
497.44	23000.44
497.62	23105.77
497.79	23435.78
497.97	23133.86
498.14	23463.87
498.32	23843.04
498.50	23707.29
498.67	23796.23
498.85	23709.63
499.03	24049.00
499.20	23798.57
499.38	24315.83
499.56	24091.13
499.73	24353.27
499.91	24294.76
500.08	24718.40
500.26	24121.56
500.44	24751.17
500.61	25022.67
500.79	24671.59
500.97	25053.09
501.14	25032.03
501.32	25221.61
501.49	25039.05
501.67	25270.76
501.84	25963.56
502.02	25614.82
502.20	25458.01
502.37	25687.38
502.55	25600.78
502.72	25933.14
502.90	25802.07
503.07	25717.81
503.25	25905.05
503.43	25921.43
503.60	26265.49
503.78	26080.59
503.95	26256.13
504.13	26335.71
504.30	26754.66
504.48	26632.96
504.65	26941.91
504.83	26948.93
505.01	27325.75
505.18	26951.27
505.36	27295.33
505.53	27199.37
505.71	27182.98
505.88	27232.13
506.06	27206.39
506.23	27725.99
506.41	27831.31
506.58	27601.94
506.76	27646.41
506.93	27536.40
507.11	27845.35
507.28	27828.97
507.46	27744.71
507.63	28676.24
507.81	28425.81
507.98	27756.41
508.16	28264.31
508.33	28650.50
508.50	28863.49
508.68	28498.36
508.85	28868.17
509.03	28327.50
509.20	28870.51
509.38	29036.69
509.55	28744.12
509.73	29228.61
509.90	29453.30
510.08	29326.91
510.25	29525.86
510.42	29673.31
510.60	29450.96
510.77	29993.97
510.95	30078.22
511.12	29806.72
511.30	29865.24
511.47	29977.58
511.64	30085.25
511.82	30183.55
511.99	30120.35
512.17	30293.55
512.34	30010.35
512.51	30888.05
512.69	30838.90
512.86	30588.46
513.04	31079.97
513.21	30850.60
513.38	30918.48
513.56	31133.81
513.73	30920.82
513.90	31077.63
514.08	30876.35
514.25	31543.40
514.43	31391.26
514.60	31599.57
514.77	31681.49
514.95	31693.19
515.12	31700.22
515.29	31676.81
515.47	31630.00
515.64	31997.46
515.81	32095.77
515.99	32065.34
516.16	32404.72
516.33	32584.94
516.51	32264.28
516.68	31805.54
516.85	32177.68
517.03	32800.27
517.20	32903.25
517.37	32818.99
517.54	32840.06
517.72	32723.03
517.89	32594.30
518.06	33003.89
518.24	32645.79
518.41	32538.13
518.58	33301.14
518.75	33116.24
518.93	33500.09
519.10	33371.36
519.27	33380.72
519.45	33474.34
519.62	33366.68
519.79	33905.00
519.96	33532.86
520.14	33947.13
520.31	33546.90
520.48	33804.36
520.65	34171.82
520.83	34312.25
521.00	34316.93
521.17	34291.19
521.34	34419.92
521.52	34457.37
521.69	34167.14
521.86	34181.18
522.03	34773.34
522.20	34227.99
522.38	35482.52
522.55	34979.31
522.72	34873.98
522.89	35047.18
523.07	35323.36
523.24	35269.53
523.41	35260.17
523.58	35189.95
523.75	35072.93
523.92	35255.49
524.10	35154.85
524.27	35309.32
524.44	35758.70
524.61	35431.03
524.78	35747.00
524.96	35618.27
525.13	35864.03
525.30	36156.60
525.47	36048.93
525.64	36254.90
525.81	36282.98
525.98	36077.02
526.16	36395.33
526.33	36294.69
526.50	36355.54
526.67	36170.64
526.84	36332.14
527.01	36500.65
527.18	36367.24
527.36	36545.12
527.53	36851.73
527.70	37273.03
527.87	37078.77
528.04	36959.40
528.21	36505.34
528.38	36685.56
528.55	37144.30
528.72	37062.38
528.89	37617.09
529.07	37448.57
529.24	37064.72
529.41	37352.61
529.58	37415.80
529.75	37518.79
529.92	37343.25
530.09	37542.19
530.26	37525.81
530.43	37642.84
530.60	37612.41
530.77	37689.65
530.94	37895.61
531.11	38117.96
531.28	37481.34
531.46	38031.36
531.63	38345.00
531.80	38061.79
531.97	38085.20
532.14	38237.33
532.31	38134.35
532.48	38424.57
532.65	38656.29
532.82	38239.67
532.99	38684.37
533.16	38508.83
533.33	38625.86
533.50	38511.17
533.67	38976.94
533.84	38604.80
534.01	38548.62
534.18	39012.05
534.35	38810.76
534.52	39222.70
534.69	39445.05
534.86	39112.69
535.03	38724.16
535.20	39337.38
535.37	39321.00
535.54	39445.05
535.71	39239.08
535.88	39255.46
536.05	39351.43
536.22	39800.81
536.38	39510.58
536.55	39426.32
536.72	39285.89
536.89	39718.89
537.06	39768.04
537.23	40004.44
537.40	39723.57
537.57	39845.28
537.74	39674.42
537.91	39943.58
538.08	39922.52
538.25	39578.46
538.42	39882.73
538.59	40765.11
538.75	39782.09
538.92	40304.02
539.09	40746.39
539.26	40428.07
539.43	40505.31
539.60	40388.28
539.77	40840.01
539.94	40954.69
540.11	40385.94
540.28	40788.52
540.44	40683.19
540.61	40617.66
540.78	40931.29
540.95	40950.01
541.12	40772.13
541.29	40861.07
541.46	40762.77
541.62	41106.83
541.79	41099.81
541.96	40940.65
542.13	40975.76
542.30	40987.46
542.47	41139.60
542.63	40898.52
542.80	41221.52
542.97	41661.54
543.14	41944.74
543.31	41586.64
543.48	41954.10
543.64	42089.85
543.81	41635.79
543.98	41921.34
544.15	41694.30
544.32	41837.08
544.48	42515.83
544.65	42122.62
544.82	41998.57
544.99	41918.99
545.16	42110.92
545.32	42064.11
545.49	42958.19
545.66	42660.94
545.83	42773.29
546.00	42504.13
546.16	42190.50
546.33	42218.58
546.50	42321.57
546.67	42714.78
546.83	42426.89
547.00	42813.08
547.17	42457.32
547.34	42607.11
547.50	42810.74
547.67	43229.69
547.84	42738.18
548.00	43311.61
548.17	43075.22
548.34	43241.40
548.51	43580.78
548.67	43208.63
548.84	42939.47
549.01	43182.88
549.18	43194.59
549.34	43381.83
549.51	43342.04
549.68	43721.21
549.84	43454.39
550.01	43753.97
550.18	43040.11
550.34	43306.93
550.51	43786.74
550.68	43480.13
550.84	43416.94
551.01	43625.25
551.18	43220.33
551.34	43482.47
551.51	43812.49
551.68	44105.06
551.84	43777.38
552.01	43274.16
552.18	43423.96
552.34	44083.99
552.51	44172.93
552.68	43868.66
552.84	44025.48
553.01	44404.64
553.18	43854.62
553.34	44299.32
553.51	44275.91
553.67	43973.98
553.84	44130.80
554.01	44259.53
554.17	44032.50
554.34	44357.83
554.51	44428.05
554.67	44589.55
554.84	44477.20
555.00	44423.37
555.17	44266.55
555.33	44526.35
555.50	44453.79
555.67	44697.21
555.83	44907.86
556.00	44626.99
556.16	45132.55
556.33	44732.32
556.50	44636.36
556.66	44875.09
556.83	44603.59
556.99	45216.81
557.16	45172.34
557.32	44914.88
557.49	44802.53
557.65	44725.30
557.82	45265.96
557.98	45233.19
558.15	44783.81
558.32	44942.97
558.48	44865.73
558.65	45226.17
558.81	45457.88
558.98	45146.59
559.14	45361.92
559.31	45062.33
559.47	45095.10
559.64	45256.60
559.80	45202.77
559.97	45642.79
560.13	45006.16
560.30	45134.89
560.46	46185.79
560.63	45450.86
560.79	45757.47
560.96	46075.79
561.12	45572.57
561.29	45904.93
561.45	45537.46
561.61	45429.80
561.78	45759.81
561.94	45586.61
562.11	45443.84
562.27	45696.62
562.44	45785.56
562.60	45603.00
562.77	46028.98
562.93	45455.54
563.10	46120.26
563.26	45794.92
563.42	45984.51
563.59	45832.37
563.75	45841.73
563.92	46178.77
564.08	45691.94
564.24	45956.42
564.41	46047.70
564.57	45921.31
564.74	45865.14
564.90	46174.09
565.07	45801.94
565.23	45780.88
565.39	46127.28
565.56	46204.52
565.72	45940.04
565.88	46183.45
566.05	46216.22
566.21	46171.75
566.38	46344.95
566.54	46204.52
566.70	46401.12
566.87	46394.10
567.03	45841.73
567.19	46148.34
567.36	45970.46
567.52	46206.86
567.68	46064.08
567.85	46248.99
568.01	46321.54
568.17	46162.39
568.34	46326.22
568.50	46681.98
568.66	46040.68
568.83	46115.58
568.99	46623.47
569.15	46068.76
569.32	46628.15
569.48	46209.20
569.64	46801.35
569.81	46691.35
569.97	46660.92
570.13	47021.36
570.30	46024.29
570.46	46696.03
570.62	46925.40
570.78	46784.97
570.95	46525.17
571.11	47030.72
571.27	46862.21
571.43	46571.98
571.60	46265.37
571.76	46806.03
571.92	46632.83
572.09	46443.25
572.25	46450.27
572.41	46454.95
572.57	46590.70
572.74	47119.66
572.90	46440.91
573.06	46965.19
573.22	46759.22
573.38	47152.43
573.55	46988.60
573.71	46913.70
573.87	47330.31
574.03	47021.36
574.20	47683.73
574.36	46679.64
574.52	47391.17
574.68	46567.30
574.84	46911.36
575.01	47012.00
575.17	47199.24
575.33	46796.67
575.49	46803.69
575.65	46946.47
575.82	47159.45
575.98	46412.82
576.14	47430.96
576.30	47320.95
576.46	47122.01
576.62	46857.52
576.79	46829.44
576.95	46469.00
577.11	46621.13
577.27	47210.95
577.43	46838.80
577.59	47129.03
577.75	47051.79
577.92	46642.20
578.08	47159.45
578.24	46974.55
578.40	47220.31
578.56	47309.25
578.72	47182.86
578.88	46770.93
579.04	47454.36
579.21	47208.61
579.37	47068.17
579.53	47224.99
579.69	47012.00
579.85	47374.78
580.01	46986.25
580.17	46918.38
580.33	46993.28
580.49	47358.40
580.65	47023.70
580.82	47037.75
580.98	47084.56
581.14	47033.07
581.30	47187.54
581.46	46979.23
581.62	47145.41
581.78	46944.12
581.94	47206.26
582.10	46904.34
582.26	47187.54
582.42	46869.23
582.58	47178.18
582.74	47356.06
582.90	47480.11
583.06	47243.71
583.22	47021.36
583.38	47192.22
583.54	47325.63
583.70	47327.97
583.86	47536.28
584.02	47164.14
584.18	47650.97
584.34	47737.57
584.50	47381.80
584.66	47533.94
584.82	47491.81
584.98	47763.31
585.14	47306.91
585.30	46932.42
585.46	47084.56
585.62	47150.09
585.78	47241.37
585.94	47063.49
586.10	46958.17
586.26	47117.32
586.42	47241.37
586.58	47468.40
586.74	47112.64
586.90	46934.76
587.06	47281.16
587.22	47232.01
587.38	47164.14
587.54	47608.84
587.70	47625.22
587.86	47512.88
588.02	47379.46
588.18	47716.50
588.34	47377.12
588.49	47945.87
588.65	46651.56
588.81	47468.40
588.97	47262.44
589.13	47227.33
589.29	47363.08
589.45	47372.44
589.61	47587.77
589.77	47608.84
589.93	47681.39
590.08	47604.16
