SpectraSuite Data File
++++++++++++++++++++++++++++++++++++
Date: Fri Oct 25 10:43:32 EDT 2013
User: price-jones
Dark Spectrum Present: No
Reference Spectrum Present: No
Number of Sampled Component Spectra: 1
Spectrometers: USB2+H05261
Integration Time (usec): 100000 (USB2+H05261)
Spectra Averaged: 1 (USB2+H05261)
Boxcar Smoothing: 0 (USB2+H05261)
Correct for Electrical Dark: No (USB2+H05261)
Strobe/Lamp Enabled: No (USB2+H05261)
Correct for Detector Non-linearity: No (USB2+H05261)
Correct for Stray Light: No (USB2+H05261)
Number of Pixels in Processed Spectrum: 2048
>>>>>Begin Processed Spectral Data<<<<<
365.73	126.39
365.92	126.39
366.12	126.39
366.32	114.69
366.52	0.00
366.72	28.09
366.91	0.00
367.11	25.75
367.31	25.75
367.51	44.47
367.70	21.06
367.90	0.00
368.10	9.36
368.30	67.88
368.49	0.00
368.69	37.45
368.89	0.00
369.09	14.04
369.28	74.90
369.48	28.09
369.68	112.35
369.87	124.05
370.07	100.64
370.27	42.13
370.47	180.22
370.66	337.04
370.86	395.55
371.06	425.98
371.25	425.98
371.45	402.57
371.65	404.91
371.84	416.62
372.04	386.19
372.24	521.94
372.44	451.72
372.63	521.94
372.83	461.09
373.03	510.24
373.22	430.66
373.42	528.96
373.62	543.00
373.81	526.62
374.01	575.77
374.21	589.82
374.40	510.24
374.60	610.88
374.79	535.98
374.99	528.96
375.19	636.63
375.38	566.41
375.58	627.26
375.78	613.22
375.97	657.69
376.17	608.54
376.37	629.60
376.56	648.33
376.76	695.14
376.95	620.24
377.15	636.63
377.35	636.63
377.54	622.58
377.74	660.03
377.93	641.31
378.13	695.14
378.33	690.46
378.52	648.33
378.72	617.90
378.91	610.88
379.11	653.01
379.31	678.76
379.50	641.31
379.70	739.61
379.89	695.14
380.09	725.57
380.28	641.31
380.48	709.18
380.68	699.82
380.87	676.41
381.07	657.69
381.26	704.50
381.46	648.33
381.65	702.16
381.85	723.23
382.04	725.57
382.24	711.52
382.43	767.70
382.63	739.61
382.83	671.73
383.02	753.65
383.22	730.25
383.41	657.69
383.61	753.65
383.80	720.88
384.00	765.36
384.19	889.40
384.39	891.74
384.58	730.25
384.78	791.10
384.97	770.04
385.17	809.83
385.36	819.19
385.56	746.63
385.75	739.61
385.95	851.96
386.14	851.96
386.34	814.51
386.53	873.02
386.72	807.48
386.92	751.31
387.11	800.46
387.31	812.17
387.50	891.74
387.70	919.83
387.89	917.49
388.09	919.83
388.28	856.64
388.48	936.21
388.67	901.11
388.86	917.49
389.06	978.34
389.25	961.96
389.45	983.02
389.64	983.02
389.84	973.66
390.03	987.71
390.22	985.37
390.42	1057.92
390.61	1011.11
390.81	1013.45
391.00	1053.24
391.19	1093.03
391.39	1128.14
391.58	1027.50
391.78	1121.12
391.97	1050.90
392.16	1025.15
392.36	990.05
392.55	919.83
392.75	978.34
392.94	908.13
393.13	978.34
393.33	1015.79
393.52	1032.18
393.71	1071.97
393.91	1039.20
394.10	1006.43
394.29	1107.07
394.49	1093.03
394.68	1228.78
394.88	1238.14
395.07	1181.97
395.26	1097.71
395.46	1200.69
395.65	1308.36
395.84	1217.08
396.04	1256.87
396.23	1142.18
396.42	1118.78
396.62	1210.06
396.81	1221.76
397.00	1196.01
397.19	1149.20
397.39	1401.98
397.58	1359.85
397.77	1392.62
397.97	1376.24
398.16	1387.94
398.35	1423.05
398.55	1453.47
398.74	1469.86
398.93	1558.80
399.12	1476.88
399.32	1479.22
399.51	1502.62
399.70	1638.38
399.90	1488.58
400.09	1549.43
400.28	1598.59
400.47	1540.07
400.67	1647.74
400.86	1614.97
401.05	1734.34
401.24	1612.63
401.44	1746.04
401.63	1717.95
401.82	1743.70
402.01	1577.52
402.21	1614.97
402.40	1736.68
402.59	1832.64
402.78	1633.69
402.97	1708.59
403.17	1710.93
403.36	1643.06
403.55	1914.56
403.74	1907.54
403.93	1846.68
404.13	1839.66
404.32	1856.04
404.51	1856.04
404.70	1902.86
404.89	1863.07
405.09	1900.52
405.28	1968.39
405.47	1987.11
405.66	1797.53
405.85	2111.16
406.05	1984.77
406.24	1907.54
406.43	1987.11
406.62	2132.23
406.81	2080.74
407.00	2015.20
407.20	2033.93
407.39	2026.90
407.58	2134.57
407.77	2146.27
407.96	2214.15
408.15	2258.62
408.34	2099.46
408.54	2328.83
408.73	2349.90
408.92	2424.80
409.11	2342.88
409.30	2396.71
409.49	2347.56
409.68	2319.47
409.87	2307.77
410.07	2293.72
410.26	2328.83
410.45	2382.67
410.64	2450.54
410.83	2462.24
411.02	2555.86
411.21	2581.61
411.40	2586.29
411.59	2640.12
411.78	2546.50
411.98	2527.78
412.17	2661.19
412.36	2715.02
412.55	2626.08
412.74	2775.88
412.93	2635.44
413.12	2630.76
413.31	2825.03
413.50	2839.07
413.69	2857.79
413.88	2799.28
414.07	2925.67
414.26	2923.33
414.45	2878.86
414.64	2918.65
414.83	2972.48
415.02	2953.76
415.22	3042.70
415.41	3052.06
415.60	3187.81
415.79	3159.72
415.98	3211.22
416.17	3187.81
416.36	3162.06
416.55	3288.45
416.74	3304.84
416.93	3213.56
417.12	3344.63
417.31	3438.25
417.50	3311.86
417.69	3269.73
417.88	3475.70
418.07	3323.56
418.26	3456.97
418.45	3471.01
418.64	3676.98
418.83	3478.04
419.02	3571.66
419.21	3545.91
419.39	3651.24
419.58	3623.15
419.77	3625.49
419.96	3700.39
420.15	3541.23
420.34	3667.62
420.53	3667.62
420.72	3840.82
420.91	3770.60
421.10	3831.46
421.29	3824.44
421.48	3768.26
421.67	3691.02
421.86	3695.71
422.05	3786.99
422.24	3702.73
422.43	3808.05
422.61	3859.54
422.80	3735.50
422.99	3794.01
423.18	3964.87
423.37	3941.46
423.56	3892.31
423.75	4021.04
423.94	3859.54
424.13	3644.21
424.32	3684.00
424.50	3983.59
424.69	4121.68
424.88	3911.04
425.07	3824.44
425.26	3817.41
425.45	3957.85
425.64	3920.40
425.83	3843.16
426.01	4042.11
426.20	4100.62
426.39	4009.34
426.58	3985.93
426.77	3873.59
426.96	3936.78
427.15	3983.59
427.33	4018.70
427.52	3915.72
427.71	4084.23
427.90	4091.26
428.09	4212.96
428.28	4133.39
428.46	4145.09
428.65	4119.34
428.84	4159.13
429.03	4294.88
429.22	3981.25
429.40	4100.62
429.59	4140.41
429.78	3969.55
429.97	3899.33
430.16	4032.74
430.34	3854.86
430.53	4100.62
430.72	4222.33
430.91	4126.36
431.10	4397.87
431.28	4397.87
431.47	4587.45
431.66	4671.71
431.85	4301.90
432.03	4617.88
432.22	4493.83
432.41	4559.36
432.60	4688.09
432.79	4690.43
432.97	4800.44
433.16	4624.90
433.35	4638.94
433.54	4526.60
433.72	4685.75
433.91	4519.57
434.10	4751.29
434.28	4849.59
434.47	4833.21
434.66	4826.18
434.85	5011.09
435.03	4774.69
435.22	4847.25
435.41	5053.22
435.59	4917.47
435.78	5064.92
435.97	5022.79
436.16	5125.77
436.34	5067.26
436.53	5254.50
436.72	5247.48
436.90	5064.92
437.09	5198.33
437.28	5008.75
437.46	5078.96
437.65	5142.16
437.84	5172.58
438.02	5167.90
438.21	5125.77
438.40	5200.67
438.58	5390.25
438.77	5448.77
438.96	5373.87
439.14	5504.94
439.33	5493.24
439.52	5387.91
439.70	5617.29
439.89	5621.97
440.08	5589.20
440.26	5771.76
440.45	5605.58
440.63	5832.62
440.82	5928.58
441.01	5891.13
441.19	5877.09
441.38	6019.86
441.57	5973.05
441.75	6183.70
441.94	6359.24
442.12	6406.05
442.31	6317.11
442.50	6282.00
442.68	6162.63
442.87	6253.91
443.05	6230.51
443.24	6459.88
443.43	6382.64
443.61	6518.39
443.80	6569.88
443.98	6368.60
444.17	6188.38
444.35	6544.14
444.54	6537.12
444.73	6450.52
444.91	6476.26
445.10	6462.22
445.28	6436.47
445.47	6429.45
445.65	6518.39
445.84	6459.88
446.02	6621.38
446.21	6392.00
446.39	6553.50
446.58	6476.26
446.77	6677.55
446.95	6384.98
447.14	6649.46
447.32	6740.74
447.51	6544.14
447.69	6668.19
447.88	6684.57
448.06	6757.13
448.25	6581.59
448.43	6700.95
448.62	6670.53
448.80	6544.14
448.99	6794.58
449.17	6738.40
449.36	6775.85
449.54	6876.49
449.73	6899.90
449.91	6970.12
450.10	7014.59
450.28	7213.53
450.46	7169.06
450.65	7220.55
450.83	7194.81
451.02	7190.13
451.20	7133.95
451.39	7309.49
451.57	7040.33
451.76	7040.33
451.94	7215.87
452.13	7405.46
452.31	6960.75
452.49	7108.21
452.68	7159.70
452.86	7267.36
453.05	7346.94
453.23	7300.13
453.42	7375.03
453.60	7148.00
453.78	7396.09
453.97	7337.58
454.15	7424.18
454.34	7201.83
454.52	7744.83
454.70	7529.50
454.89	7679.30
455.07	7466.31
455.26	7538.87
455.44	7501.42
455.62	7728.45
455.81	7616.10
455.99	7901.65
456.17	7796.32
456.36	7660.57
456.54	7868.88
456.73	7873.56
456.91	8126.34
457.09	8002.29
457.28	8306.56
457.46	7775.26
457.64	8138.04
457.83	8145.06
458.01	7976.55
458.19	8147.40
458.38	8131.02
458.56	8299.54
458.74	8198.90
458.93	8098.25
459.11	8315.92
459.29	8250.39
459.48	8201.24
459.66	8159.11
459.84	8304.22
460.03	8376.78
460.21	8325.29
460.39	8496.14
460.57	8421.25
460.76	8519.55
460.94	8702.11
461.12	8629.56
461.31	8557.00
461.49	8748.92
461.67	8683.39
461.85	8800.41
462.04	8802.75
462.22	9282.56
462.40	8847.22
462.59	8863.61
462.77	8922.12
462.95	8957.23
463.13	9008.72
463.32	9114.05
463.50	8908.08
463.68	8912.76
463.86	8858.93
464.05	8826.16
464.23	8835.52
464.41	8802.75
464.59	8842.54
464.78	9191.28
464.96	8987.66
465.14	9193.62
465.32	9156.18
465.50	9123.41
465.69	9156.18
465.87	9207.67
466.05	9090.64
466.23	9071.92
466.41	9329.38
466.60	9348.10
466.78	9013.40
466.96	9312.99
467.14	9383.21
467.32	9406.61
467.51	9479.17
467.69	9268.52
467.87	9191.28
468.05	9453.42
468.23	9448.74
468.41	9327.03
468.60	9341.08
468.78	9619.60
468.96	9453.42
469.14	9467.47
469.32	9554.07
469.50	9495.55
469.69	9596.20
469.87	9799.82
470.05	9848.97
470.23	9898.13
470.41	9521.30
470.59	9898.13
470.77	9926.21
470.95	9998.77
471.14	9928.55
471.32	10073.67
471.50	10469.22
471.68	10506.66
471.86	10183.67
472.04	10324.10
472.22	10567.52
472.40	10300.70
472.58	10223.46
472.77	10438.79
472.95	10399.00
473.13	10775.83
473.31	10544.11
473.49	10532.41
473.67	10621.35
473.85	10733.70
474.03	10867.11
474.21	10895.19
474.39	10953.71
474.57	10841.36
474.75	11147.97
474.93	11014.56
475.12	11152.65
475.30	11171.38
475.48	10927.96
475.66	11346.92
475.84	11225.21
476.02	11506.07
476.20	11342.24
476.38	11426.50
476.56	11826.73
476.74	11714.38
476.92	11756.51
477.10	11723.74
477.28	11939.07
477.46	12095.89
477.64	12208.23
477.82	12367.39
478.00	12461.01
478.18	12409.52
478.36	12456.33
478.54	12669.32
478.72	12786.35
478.90	12868.27
479.08	13263.82
479.26	12879.97
479.44	12877.63
479.62	13125.72
479.80	13214.66
479.98	13418.29
480.16	13626.60
480.34	13635.96
480.52	13394.89
480.70	13839.59
480.88	13476.80
481.06	13799.80
481.24	13785.76
481.41	14118.11
481.59	14113.43
481.77	14427.06
481.95	14232.80
482.13	14553.45
482.31	14553.45
482.49	14843.68
482.67	14663.46
482.85	14857.72
483.03	15117.52
483.21	15419.45
483.39	15302.42
483.57	15143.27
483.74	15274.34
483.92	15765.85
484.10	15566.90
484.28	15885.22
484.46	16032.67
484.64	16184.80
484.82	16065.44
485.00	16276.09
485.18	16346.30
485.35	16535.88
485.53	16018.63
485.71	15941.39
485.89	16458.65
486.07	16210.55
486.25	16369.71
486.43	16865.90
486.61	16856.54
486.78	17076.55
486.96	17530.61
487.14	17530.61
487.32	17444.01
487.50	17919.14
487.68	17839.56
487.85	18073.62
488.03	18216.39
488.21	18340.44
488.39	18459.81
488.57	18310.01
488.75	18384.91
488.92	18913.87
489.10	19089.41
489.28	19054.30
489.46	19604.33
489.64	19363.25
489.81	19803.27
489.99	20154.35
490.17	20123.93
490.35	20044.35
490.53	20025.62
490.70	20226.91
490.88	20245.63
491.06	20755.87
491.24	20751.19
491.41	20788.64
491.59	20776.94
491.77	20624.80
491.95	20713.74
492.13	21118.65
492.30	21448.67
492.48	21600.80
492.66	21710.81
492.84	22171.89
493.01	21961.25
493.19	21984.65
493.37	22281.90
493.54	22045.51
493.72	22450.42
493.90	22396.59
494.08	22588.51
494.25	22970.02
494.43	23140.88
494.61	23534.09
494.79	23084.70
494.96	23372.59
495.14	23470.89
495.32	23700.26
495.49	23480.25
495.67	23704.95
495.85	23843.04
496.02	24374.34
496.20	23929.64
496.38	24072.41
496.55	24278.38
496.73	24744.14
496.91	24732.44
497.09	24797.98
497.26	25287.15
497.44	24463.28
497.62	25095.22
497.79	25156.08
497.97	24802.66
498.14	25146.72
498.32	25579.71
498.50	25750.57
498.67	25883.98
498.85	25921.43
499.03	25940.16
499.20	26380.18
499.38	25965.90
499.56	26258.47
499.73	26160.17
499.91	26253.79
500.08	26160.17
500.26	26314.64
500.44	26511.25
500.61	26717.22
500.79	26361.45
500.97	26703.17
501.14	26974.67
501.32	26941.91
501.49	26876.37
501.67	27168.94
501.84	26981.70
502.02	27250.86
502.20	27433.42
502.37	27550.45
502.55	27789.18
502.72	27599.60
502.90	27913.23
503.07	27770.46
503.25	28091.11
503.43	27447.46
503.60	27704.92
503.78	27838.33
503.95	28158.99
504.13	28196.43
504.30	28250.27
504.48	28341.55
504.65	28760.50
504.83	28542.83
505.01	29132.65
505.18	28584.96
505.36	29263.72
505.53	29181.80
505.71	29483.73
505.88	29610.12
506.06	29397.13
506.23	29556.28
506.41	29507.13
506.58	29600.76
506.76	29764.59
506.93	29525.86
507.11	29680.33
507.28	29621.82
507.46	29820.77
507.63	29773.95
507.81	30080.56
507.98	29797.36
508.16	30534.63
508.33	30560.37
508.50	30703.15
508.68	30700.81
508.85	31103.38
509.03	30794.43
509.20	31002.74
509.38	31037.84
509.55	30869.33
509.73	31356.16
509.90	31388.92
510.08	31012.10
510.25	30904.43
510.42	31517.65
510.60	31775.11
510.77	31903.84
510.95	32086.40
511.12	31639.36
511.30	32128.53
511.47	31974.06
511.64	32341.52
511.82	32175.34
511.99	32168.32
512.17	31971.72
512.34	31995.12
512.51	32250.24
512.69	32456.21
512.86	32479.61
513.04	32549.83
513.21	32549.83
513.38	32788.56
513.56	32439.82
513.73	32444.51
513.90	32723.03
514.08	32645.79
514.25	33202.84
514.43	32807.29
514.60	32954.74
514.77	32978.15
514.95	33811.38
515.12	33462.64
515.29	33266.03
515.47	33359.66
515.64	33724.78
515.81	33567.96
515.99	33689.67
516.16	33656.90
516.33	33684.99
516.51	33617.11
516.68	32800.27
516.85	32891.55
517.03	33500.09
517.20	33610.09
517.37	33968.19
517.54	34089.90
517.72	33703.71
517.89	33518.81
518.06	33823.08
518.24	33659.24
518.41	34073.52
518.58	34333.32
518.75	34141.39
518.93	34642.27
519.10	34293.53
519.27	34710.14
519.45	34487.79
519.62	35449.75
519.79	34955.90
519.96	35005.05
520.14	35304.64
520.31	34895.05
520.48	35119.74
520.65	35388.90
520.83	35480.18
521.00	35433.37
521.17	35896.80
521.34	35693.17
521.52	36006.80
521.69	36039.57
521.86	35955.31
522.03	35981.06
522.20	36079.36
522.38	35962.33
522.55	36189.36
522.72	36304.05
522.89	36341.50
523.07	36400.01
523.24	36308.73
523.41	36737.05
523.58	36435.12
523.75	37008.55
523.92	37015.57
524.10	37055.36
524.27	36943.02
524.44	37385.38
524.61	37401.76
524.78	37301.12
524.96	37359.63
525.13	37055.36
525.30	37397.08
525.47	37942.42
525.64	37441.55
525.81	37174.73
525.98	37053.02
526.16	37200.47
526.33	37460.27
526.50	36961.74
526.67	36776.84
526.84	37102.17
527.01	37319.84
527.18	37661.56
527.36	37617.09
527.53	38333.29
527.70	38237.33
527.87	37949.45
528.04	38216.27
528.21	38108.60
528.38	38195.20
528.55	38258.40
528.72	38852.89
528.89	38923.11
529.07	38326.27
529.24	38906.73
529.41	38373.08
529.58	38099.24
529.75	38309.89
529.92	38663.31
530.09	38932.47
530.26	38698.42
530.43	39140.78
530.60	38672.67
530.77	38873.96
530.94	39033.11
531.11	39091.63
531.28	38866.94
531.46	38944.17
531.63	39529.31
531.80	39206.31
531.97	39302.28
532.14	39213.34
532.31	39035.45
532.48	39063.54
532.65	39625.27
532.82	39335.04
532.99	39571.44
533.16	39679.10
533.33	39269.51
533.50	40041.88
533.67	39880.39
533.84	39667.40
534.01	39332.70
534.18	39356.11
534.35	40112.10
534.52	40233.81
534.69	40032.52
534.86	40575.53
535.03	40034.86
535.20	40533.40
535.37	41319.82
535.54	40863.41
535.71	40093.38
535.88	40620.00
536.05	40013.80
536.22	40519.35
536.38	40425.73
536.55	40582.55
536.72	40390.62
536.89	39957.63
537.06	40531.06
537.23	40931.29
537.40	40594.25
537.57	41006.19
537.74	40603.61
537.91	41249.60
538.08	40751.07
538.25	40879.80
538.42	40875.12
538.59	41333.86
538.75	40603.61
538.92	41294.07
539.09	41106.83
539.26	40882.14
539.43	41001.50
539.60	40788.52
539.77	41221.52
539.94	41387.69
540.11	40952.35
540.28	41338.54
540.44	41532.81
540.61	41336.20
540.78	41092.79
540.95	41261.30
541.12	41092.79
541.29	41181.73
541.46	41619.41
541.62	41338.54
541.79	41750.48
541.96	41560.89
542.13	41202.79
542.30	41656.85
542.47	41916.65
542.63	41860.48
542.80	42113.26
542.97	42038.36
543.14	42302.84
543.31	42447.96
543.48	42330.93
543.64	42492.43
543.81	42705.41
543.98	42740.52
544.15	42522.85
544.32	43136.07
544.48	43189.91
544.65	42534.56
544.82	42712.44
544.99	42450.30
545.16	42799.04
545.32	42354.33
545.49	43072.88
545.66	43166.50
545.83	42904.36
546.00	42944.15
546.16	42740.52
546.33	42902.02
546.50	42969.90
546.67	42836.48
546.83	42686.69
547.00	42691.37
547.17	43098.62
547.34	42784.99
547.50	42581.37
547.67	43473.11
547.84	42738.18
548.00	43328.00
548.17	43180.54
548.34	43648.65
548.51	43604.18
548.67	43697.80
548.84	43370.13
549.01	43318.64
549.18	43505.88
549.34	43316.29
549.51	43454.39
549.68	43407.58
549.84	43700.14
550.01	43763.34
550.18	43414.60
550.34	43711.84
550.51	43613.54
550.68	43475.45
550.84	43358.42
551.01	43789.08
551.18	43950.58
551.34	43625.25
551.51	43791.42
551.68	43810.15
551.84	43915.47
552.01	43981.01
552.18	43695.46
552.34	43725.89
552.51	43962.28
552.68	43861.64
552.84	44222.08
553.01	44058.24
553.18	43990.37
553.34	44236.12
553.51	43978.67
553.67	44423.37
553.84	44570.82
554.01	44163.57
554.17	44456.14
554.34	44507.63
554.51	44343.79
554.67	44531.03
554.84	44547.42
555.00	44509.97
555.17	44135.48
555.33	44863.39
555.50	44737.00
555.67	44149.53
555.83	44465.50
556.00	44678.49
556.16	45050.63
556.33	44566.14
556.50	44533.37
556.66	44437.41
556.83	44151.87
556.99	44842.32
557.16	44760.40
557.32	44638.70
557.49	44748.70
557.65	44722.96
557.82	44849.35
557.98	44954.67
558.15	44975.73
558.32	44842.32
558.48	44921.90
558.65	45118.51
558.81	44596.57
558.98	45235.53
559.14	44615.29
559.31	44889.13
559.47	44650.40
559.64	45148.93
559.80	45177.02
559.97	44921.90
560.13	45144.25
560.30	45006.16
560.46	44996.80
560.63	45553.85
560.79	45277.66
560.96	45251.92
561.12	45249.58
561.29	45022.54
561.45	45027.23
561.61	45109.14
561.78	44779.13
561.94	45134.89
562.11	44854.03
562.27	45015.52
562.44	45415.76
562.60	45399.37
562.77	45006.16
562.93	45446.18
563.10	45270.64
563.26	44994.46
563.42	45165.32
563.59	45415.76
563.75	45174.68
563.92	45600.66
564.08	45441.50
564.24	45453.20
564.41	45352.56
564.57	45289.37
564.74	44978.07
564.90	45790.24
565.07	45509.38
565.23	45284.68
565.39	45268.30
565.56	45401.71
565.72	44779.13
565.88	45434.48
566.05	45265.96
566.21	45364.26
566.38	44765.09
566.54	45340.86
566.70	45411.07
566.87	45867.48
567.03	45907.27
567.19	45670.87
567.36	45897.91
567.52	45668.53
567.68	45347.88
567.85	45254.26
568.01	45703.64
568.17	45687.26
568.34	45729.39
568.50	45291.71
568.66	45373.63
568.83	45771.52
568.99	45123.19
569.15	45502.35
569.32	45343.20
569.48	45258.94
569.64	46054.72
569.81	45766.84
569.97	45656.83
570.13	45605.34
570.30	45518.74
570.46	45668.53
570.62	45247.24
570.78	45233.19
570.95	45425.12
571.11	45607.68
571.27	45291.71
571.43	45500.01
571.60	45790.24
571.76	45659.17
571.92	45663.85
572.09	45778.54
572.25	45387.67
572.41	45694.28
572.57	45792.58
572.74	45883.86
572.90	45787.90
573.06	46012.59
573.22	45626.40
573.38	45675.55
573.55	45390.01
573.71	46314.52
573.87	46061.74
574.03	45282.34
574.20	45652.15
574.36	45778.54
574.52	45881.52
574.68	45883.86
574.84	45773.86
575.01	45698.96
575.17	45565.55
575.33	45886.20
575.49	45436.82
575.65	45830.03
575.82	45570.23
575.98	45656.83
576.14	45947.06
576.30	45989.19
576.46	45443.84
576.62	45474.27
576.79	45560.87
576.95	45544.48
577.11	45649.81
577.27	45574.91
577.43	46066.42
577.59	45366.60
577.75	45567.89
577.92	45184.04
578.08	45586.61
578.24	45097.44
578.40	45532.78
578.56	45553.85
578.72	45544.48
578.88	45977.48
579.04	45806.62
579.21	45425.12
579.37	45607.68
579.53	46010.25
579.69	45485.97
579.85	45666.19
580.01	45689.60
580.17	45743.43
580.33	45701.30
580.49	45951.74
580.65	45549.17
580.82	45762.15
580.98	45507.04
581.14	45848.75
581.30	45893.22
581.46	45748.11
581.62	45916.63
581.78	45717.68
581.94	45881.52
582.10	45738.75
582.26	45811.31
582.42	45794.92
582.58	45872.16
582.74	45394.69
582.90	45635.77
583.06	45944.72
583.22	45752.79
583.38	45837.05
583.54	46082.81
583.70	46040.68
583.86	45996.21
584.02	45752.79
584.18	45659.17
584.34	45745.77
584.50	45890.88
584.66	45638.11
584.82	45930.67
584.98	45907.27
585.14	46335.59
585.30	45338.52
585.46	45867.48
585.62	45322.13
585.78	45511.72
585.94	45502.35
586.10	45565.55
586.26	45497.67
586.42	46335.59
586.58	45567.89
586.74	46160.05
586.90	45546.82
587.06	45914.29
587.22	45778.54
587.38	46024.29
587.54	46131.96
587.70	45771.52
587.86	45717.68
588.02	45773.86
588.18	45972.80
588.34	45478.95
588.49	45151.27
588.65	45059.99
588.81	45172.34
588.97	45731.73
589.13	45242.56
589.29	45380.65
589.45	45471.93
589.61	45780.88
589.77	45970.46
589.93	45834.71
590.08	45837.05
