SpectraSuite Data File
++++++++++++++++++++++++++++++++++++
Date: Fri Oct 25 11:34:37 EDT 2013
User: price-jones
Dark Spectrum Present: No
Reference Spectrum Present: No
Number of Sampled Component Spectra: 1
Spectrometers: USB2+H05261
Integration Time (usec): 100000 (USB2+H05261)
Spectra Averaged: 1 (USB2+H05261)
Boxcar Smoothing: 0 (USB2+H05261)
Correct for Electrical Dark: No (USB2+H05261)
Strobe/Lamp Enabled: No (USB2+H05261)
Correct for Detector Non-linearity: No (USB2+H05261)
Correct for Stray Light: No (USB2+H05261)
Number of Pixels in Processed Spectrum: 2048
>>>>>Begin Processed Spectral Data<<<<<
365.73	304.27
365.92	304.27
366.12	304.27
366.32	241.08
366.52	194.26
366.72	161.50
366.91	159.16
367.11	177.88
367.31	196.60
367.51	175.54
367.70	203.63
367.90	191.92
368.10	154.48
368.30	177.88
368.49	173.20
368.69	250.44
368.89	180.22
369.09	163.84
369.28	231.71
369.48	241.08
369.68	201.29
369.87	287.89
370.07	184.90
370.27	245.76
370.47	299.59
370.66	514.92
370.86	491.51
371.06	545.34
371.25	566.41
371.45	507.90
371.65	638.97
371.84	486.83
372.04	538.32
372.24	559.39
372.44	564.07
372.63	660.03
372.83	564.07
373.03	587.47
373.22	617.90
373.42	603.86
373.62	575.77
373.81	594.50
374.01	650.67
374.21	650.67
374.40	627.26
374.60	650.67
374.79	641.31
374.99	685.78
375.19	678.76
375.38	582.79
375.58	613.22
375.78	636.63
375.97	650.67
376.17	674.07
376.37	690.46
376.56	610.88
376.76	615.56
376.95	636.63
377.15	667.05
377.35	648.33
377.54	681.10
377.74	641.31
377.93	706.84
378.13	678.76
378.33	753.65
378.52	746.63
378.72	681.10
378.91	697.48
379.11	685.78
379.31	662.37
379.50	690.46
379.70	711.52
379.89	718.54
380.09	734.93
380.28	727.91
380.48	732.59
380.68	711.52
380.87	676.41
381.07	763.01
381.26	772.38
381.46	671.73
381.65	744.29
381.85	718.54
382.04	842.59
382.24	819.19
382.43	732.59
382.63	737.27
382.83	755.99
383.02	716.20
383.22	739.61
383.41	819.19
383.61	819.19
383.80	823.87
384.00	802.80
384.19	816.85
384.39	791.10
384.58	814.51
384.78	844.93
384.97	861.32
385.17	805.14
385.36	753.65
385.56	772.38
385.75	861.32
385.95	819.19
386.14	861.32
386.34	868.34
386.53	856.64
386.72	751.31
386.92	896.43
387.11	828.55
387.31	922.17
387.50	751.31
387.70	812.17
387.89	837.91
388.09	919.83
388.28	910.47
388.48	917.49
388.67	931.53
388.86	891.74
389.06	905.79
389.25	938.55
389.45	936.21
389.64	896.43
389.84	842.59
390.03	940.90
390.22	950.26
390.42	889.40
390.61	922.17
390.81	877.70
391.00	903.45
391.19	1011.11
391.39	933.87
391.58	961.96
391.78	1006.43
391.97	919.83
392.16	987.71
392.36	1004.09
392.55	1004.09
392.75	1027.50
392.94	940.90
393.13	1043.88
393.33	992.39
393.52	1039.20
393.71	1025.15
393.91	1057.92
394.10	936.21
394.29	1074.31
394.49	1083.67
394.68	1060.26
394.88	1130.48
395.07	1100.05
395.26	1083.67
395.46	1107.07
395.65	1135.16
395.84	1121.12
396.04	1224.10
396.23	1245.16
396.42	1118.78
396.62	1151.54
396.81	1245.16
397.00	1121.12
397.19	1198.35
397.39	1118.78
397.58	1156.22
397.77	1224.10
397.97	1076.65
398.16	1287.29
398.35	1165.59
398.55	1217.08
398.74	1249.85
398.93	1308.36
399.12	1352.83
399.32	1282.61
399.51	1282.61
399.70	1334.11
399.90	1350.49
400.09	1345.81
400.28	1411.34
400.47	1268.57
400.67	1301.34
400.86	1383.26
401.05	1383.26
401.24	1380.92
401.44	1303.68
401.63	1439.43
401.82	1371.55
402.01	1390.28
402.21	1413.68
402.40	1481.56
402.59	1439.43
402.78	1451.13
402.97	1500.28
403.17	1519.01
403.36	1430.07
403.55	1563.48
403.74	1490.92
403.93	1561.14
404.13	1526.03
404.32	1507.30
404.51	1593.90
404.70	1530.71
404.89	1584.54
405.09	1617.31
405.28	1668.80
405.47	1593.90
405.66	1647.74
405.85	1638.38
406.05	1699.23
406.24	1650.08
406.43	1727.32
406.62	1757.74
406.81	1783.49
407.00	1619.65
407.20	1732.00
407.39	1734.34
407.58	1849.02
407.77	1863.07
407.96	1884.13
408.15	1727.32
408.34	1823.28
408.54	1776.47
408.73	1902.86
408.92	1776.47
409.11	1895.83
409.30	2029.24
409.49	1956.69
409.68	1867.75
409.87	1956.69
410.07	1905.20
410.26	1900.52
410.45	1933.28
410.64	2043.29
410.83	1954.35
411.02	2003.50
411.21	2026.90
411.40	1989.46
411.59	2036.27
411.78	2129.89
411.98	2026.90
412.17	2113.50
412.36	2211.81
412.55	2106.48
412.74	2136.91
412.93	2225.85
413.12	2190.74
413.31	2258.62
413.50	2305.43
413.69	2394.37
413.88	2312.45
414.07	2282.02
414.26	2399.05
414.45	2401.39
414.64	2356.92
414.83	2511.39
415.02	2567.57
415.22	2562.89
415.41	2438.84
415.60	2597.99
415.79	2623.74
415.98	2684.59
416.17	2686.94
416.36	2689.28
416.55	2558.21
416.74	2635.44
416.93	2614.38
417.12	2658.85
417.31	2712.68
417.50	2766.51
417.69	2972.48
417.88	2712.68
418.07	2768.85
418.26	2874.18
418.45	2827.37
418.64	2920.99
418.83	3014.61
419.02	2981.84
419.21	2937.37
419.39	2988.86
419.58	2846.09
419.77	2925.67
419.96	3124.62
420.15	3141.00
420.34	2995.89
420.53	2949.08
420.72	3169.09
420.91	3000.57
421.10	3180.79
421.29	3155.04
421.48	3091.85
421.67	2988.86
421.86	3166.74
422.05	3122.27
422.24	3178.45
422.43	3136.32
422.61	3185.47
422.80	3190.15
422.99	3094.19
423.18	3246.32
423.37	3403.14
423.56	3274.41
423.75	3286.11
423.94	3157.38
424.13	2995.89
424.32	3173.77
424.50	3274.41
424.69	3260.37
424.88	3316.54
425.07	3435.91
425.26	3204.19
425.45	3232.28
425.64	3227.60
425.83	3279.09
426.01	3269.73
426.20	3073.12
426.39	3311.86
426.58	3349.31
426.77	3288.45
426.96	3419.52
427.15	3372.71
427.33	3382.07
427.52	3452.29
427.71	3403.14
427.90	3520.17
428.09	3438.25
428.28	3686.34
428.46	3637.19
428.65	3426.54
428.84	3639.53
429.03	3634.85
429.22	3421.86
429.40	3541.23
429.59	3625.49
429.78	3471.01
429.97	3508.46
430.16	3616.13
430.34	3599.74
430.53	3658.26
430.72	3641.87
430.91	3845.50
431.10	3574.00
431.28	3676.98
431.47	3892.31
431.66	3782.31
431.85	3772.94
432.03	3887.63
432.22	3801.03
432.41	3899.33
432.60	3859.54
432.79	3864.22
432.97	3882.95
433.16	3953.16
433.35	3805.71
433.54	4032.74
433.72	4065.51
433.91	4028.06
434.10	4042.11
434.28	4016.36
434.47	4063.17
434.66	4042.11
434.85	4037.42
435.03	4028.06
435.22	4091.26
435.41	4166.15
435.59	4287.86
435.78	4238.71
435.97	4145.09
436.16	4182.54
436.34	4374.46
436.53	4341.69
436.72	4465.74
436.90	4287.86
437.09	4318.29
437.28	4248.07
437.46	4234.03
437.65	4252.75
437.84	4390.84
438.02	4423.61
438.21	4355.74
438.40	4423.61
438.58	4440.00
438.77	4526.60
438.96	4379.14
439.14	4610.86
439.33	4510.21
439.52	4704.48
439.70	4695.11
439.89	4784.06
440.08	4697.46
440.26	4748.95
440.45	4816.82
440.63	4678.73
440.82	4987.68
441.01	4826.18
441.19	4957.25
441.38	5083.64
441.57	5083.64
441.75	5041.51
441.94	5266.21
442.12	5261.52
442.31	5259.18
442.50	5203.01
442.68	5085.98
442.87	5041.51
443.05	5259.18
443.24	5493.24
443.43	5153.86
443.61	5181.95
443.80	5432.38
443.98	5231.10
444.17	5107.05
444.35	5259.18
444.54	5273.23
444.73	5268.55
444.91	5294.29
445.10	5376.21
445.28	5380.89
445.47	5373.87
445.65	5296.63
445.84	5380.89
446.02	5474.51
446.21	5397.28
446.39	5460.47
446.58	5516.64
446.77	5437.06
446.95	5156.20
447.14	5504.94
447.32	5518.98
447.51	5493.24
447.69	5380.89
447.88	5453.45
448.06	5554.09
448.25	5448.77
448.43	5446.43
448.62	5547.07
448.80	5390.25
448.99	5687.50
449.17	5678.14
449.36	5526.00
449.54	5626.65
449.73	5710.91
449.91	5720.27
450.10	5743.67
450.28	5804.53
450.46	5872.40
450.65	5696.86
450.83	5823.25
451.02	5809.21
451.20	5863.04
451.39	5771.76
451.57	5846.66
451.76	5750.70
451.94	5933.26
452.13	5977.73
452.31	6001.13
452.49	5963.68
452.68	6134.54
452.86	5949.64
453.05	6122.84
453.23	6094.76
453.42	6162.63
453.60	6003.47
453.78	6214.12
453.97	6134.54
454.15	6078.37
454.34	6249.23
454.52	6164.97
454.70	6265.61
454.89	6291.36
455.07	6204.76
455.26	6253.91
455.44	6537.12
455.62	6307.74
455.81	6434.13
455.99	6359.24
456.17	6502.01
456.36	6251.57
456.54	6537.12
456.73	6499.67
456.91	6689.25
457.09	6803.94
457.28	6736.06
457.46	6551.16
457.64	6633.08
457.83	6672.87
458.01	6679.89
458.19	6778.19
458.38	6607.33
458.56	7035.65
458.74	6698.61
458.93	6822.66
459.11	6902.24
459.29	6724.36
459.48	6911.60
459.66	6895.22
459.84	6911.60
460.03	7002.88
460.21	6946.71
460.39	7070.76
460.57	7239.28
460.76	7033.31
460.94	7204.17
461.12	7068.42
461.31	7026.29
461.49	7005.22
461.67	7082.46
461.85	7169.06
462.04	7070.76
462.22	7709.72
462.40	7353.96
462.59	7337.58
462.77	7258.00
462.95	7330.56
463.13	7332.90
463.32	7377.37
463.50	7454.61
463.68	7421.84
463.86	7475.67
464.05	7323.54
464.23	7363.33
464.41	7564.61
464.59	7536.52
464.78	7798.66
464.96	7487.37
465.14	7470.99
465.32	7552.91
465.50	7702.70
465.69	7737.81
465.87	7819.73
466.05	7726.11
466.23	7702.70
466.41	7702.70
466.60	7901.65
466.78	7716.75
466.96	7747.17
467.14	7920.37
467.32	7962.50
467.51	8042.08
467.69	7805.69
467.87	7999.95
468.05	7967.18
468.23	7861.86
468.41	7894.63
468.60	7850.16
468.78	8226.98
468.96	7922.71
469.14	8086.55
469.32	8140.38
469.50	7960.16
469.69	8098.25
469.87	8379.12
470.05	8334.65
470.23	8472.74
470.41	8381.46
470.59	8353.37
470.77	8292.52
470.95	8393.16
471.14	8446.99
471.32	8355.71
471.50	8503.17
471.68	8564.02
471.86	8622.53
472.04	8627.21
472.22	8837.86
472.40	8498.49
472.58	8641.26
472.77	8667.00
472.95	8791.05
473.13	9186.60
473.31	8854.25
473.49	8882.33
473.67	8982.98
473.85	8971.27
474.03	9357.46
474.21	9224.05
474.39	9493.21
474.57	9373.85
474.75	9298.95
474.93	9378.53
475.12	9242.78
475.30	9472.15
475.48	9357.46
475.66	9617.26
475.84	9507.26
476.02	9593.86
476.20	9657.05
476.38	9811.53
476.56	9933.23
476.74	9914.51
476.92	9792.80
477.10	9872.38
477.28	9975.36
477.46	10040.90
477.64	10293.68
477.82	10499.64
478.00	10593.26
478.18	10352.19
478.36	10553.48
478.54	10773.49
478.72	10654.12
478.90	11012.22
479.08	10974.77
479.26	11028.60
479.44	11101.16
479.62	10881.15
479.80	11262.66
479.98	11487.35
480.16	11534.16
480.34	11459.26
480.52	11473.31
480.70	11625.44
480.88	11735.45
481.06	11896.94
481.24	11805.66
481.41	11918.01
481.59	11910.99
481.77	12175.47
481.95	12023.33
482.13	12339.30
482.31	12287.81
482.49	12676.34
482.67	12671.66
482.85	12662.30
483.03	12844.86
483.21	13092.96
483.39	12966.57
483.57	12943.16
483.74	13289.56
483.92	13446.38
484.10	13111.68
484.28	13401.91
484.46	13827.88
484.64	13860.65
484.82	13706.18
485.00	13884.06
485.18	14164.92
485.35	14139.18
485.53	14391.95
485.71	14607.28
485.89	14513.66
486.07	14544.09
486.25	14576.86
486.43	14441.11
486.61	14855.38
486.78	15129.22
486.96	15000.49
487.14	15260.29
487.32	15206.46
487.50	15426.47
487.68	15660.52
487.85	15962.45
488.03	15960.11
488.21	16023.31
488.39	15903.94
488.57	16154.38
488.75	16070.12
488.92	16650.57
489.10	16758.24
489.28	16245.66
489.46	16812.07
489.64	16608.44
489.81	17195.92
489.99	17006.33
490.17	17212.30
490.35	17298.90
490.53	17331.67
490.70	17689.77
490.88	17474.44
491.06	17982.34
491.24	18228.09
491.41	18008.08
491.59	17975.31
491.77	17965.95
491.95	18129.79
492.13	18527.68
492.30	18466.83
492.48	18412.99
492.66	18780.46
492.84	18764.07
493.01	18820.25
493.19	19112.81
493.37	19222.82
493.54	19286.01
493.72	19321.12
493.90	19400.70
494.08	19669.86
494.25	19440.49
494.43	19639.44
494.61	19992.86
494.79	20437.56
494.96	19957.75
495.14	20315.85
495.32	20496.07
495.49	20498.41
495.67	20489.05
495.85	20709.06
496.02	20760.55
496.20	21095.25
496.38	21081.21
496.55	20798.00
496.73	21912.10
496.91	21315.26
497.09	21476.76
497.26	21689.74
497.44	21561.02
497.62	21979.97
497.79	22235.09
497.97	21802.09
498.14	22256.15
498.32	22370.84
498.50	22462.12
498.67	22712.56
498.85	22331.05
499.03	22707.88
499.20	22944.27
499.38	22981.72
499.56	22813.20
499.73	22988.74
499.91	22970.02
500.08	23508.34
500.26	23073.00
500.44	23295.35
500.61	23583.24
500.79	23730.69
500.97	23758.78
501.14	23714.31
501.32	24011.56
501.49	23882.83
501.67	23981.13
501.84	24252.63
502.02	24074.75
502.20	24142.63
502.37	24528.81
502.55	24187.10
502.72	24470.30
502.90	24353.27
503.07	24503.07
503.25	24411.79
503.43	24538.18
503.60	24830.74
503.78	24587.33
503.95	25111.61
504.13	25167.78
504.30	24987.56
504.48	25366.73
504.65	25207.57
504.83	25565.67
505.01	25553.97
505.18	25736.53
505.36	25954.20
505.53	25972.92
505.71	25750.57
505.88	26045.48
506.06	25905.05
506.23	25963.56
506.41	26082.93
506.58	26010.37
506.76	26026.76
506.93	26391.88
507.11	26324.01
507.28	26265.49
507.46	26703.17
507.63	26693.81
507.81	27023.83
507.98	26630.62
508.16	26728.92
508.33	27115.11
508.50	26899.78
508.68	26881.05
508.85	27498.95
509.03	27049.57
509.20	27592.58
509.38	27819.61
509.55	27803.22
509.73	27751.73
509.90	27784.50
510.08	27704.92
510.25	27733.01
510.42	27679.18
510.60	27878.12
510.77	28273.67
510.95	28428.15
511.12	28208.14
511.30	28194.09
511.47	28652.84
511.64	28512.41
511.82	28683.27
511.99	28896.25
512.17	28704.33
512.34	28687.95
512.51	29212.23
512.69	29041.37
512.86	29032.00
513.04	29340.96
513.21	29462.66
513.38	29509.47
513.56	29139.67
513.73	29631.18
513.90	29270.74
514.08	29560.97
514.25	29654.59
514.43	29907.37
514.60	29710.76
514.77	29806.72
514.95	29804.38
515.12	29830.13
515.29	29970.56
515.47	29914.39
515.64	30663.36
515.81	30604.84
515.99	30333.34
516.16	30433.99
516.33	30551.01
516.51	30885.71
516.68	30398.88
516.85	30607.19
517.03	30740.60
517.20	30885.71
517.37	30579.10
517.54	31182.96
517.72	31094.02
517.89	30932.52
518.06	31194.66
518.24	31119.76
518.41	31335.09
518.58	31117.42
518.75	31000.40
518.93	31571.49
519.10	31417.01
519.27	31517.65
519.45	31793.84
519.62	31487.23
519.79	31578.51
519.96	31756.39
520.14	31859.37
520.31	31831.29
520.48	32224.50
520.65	32266.63
520.83	32758.14
521.00	32507.70
521.17	32737.07
521.34	32701.96
521.52	32428.12
521.69	32802.61
521.86	32582.60
522.03	32781.54
522.20	32877.51
522.38	33287.10
522.55	33141.99
522.72	32851.76
522.89	32807.29
523.07	33273.06
523.24	33024.96
523.41	33195.82
523.58	33453.28
523.75	33486.04
523.92	33731.80
524.10	33495.41
524.27	33652.22
524.44	33659.24
524.61	33764.57
524.78	33759.89
524.96	34174.16
525.13	34089.90
525.30	34206.93
525.47	34370.77
525.64	34251.40
525.81	34452.69
525.98	34433.96
526.16	34293.53
526.33	34293.53
526.50	34787.38
526.67	34417.58
526.84	34604.82
527.01	34499.50
527.18	34536.94
527.36	34831.85
527.53	35019.10
527.70	35112.72
527.87	34710.14
528.04	35119.74
528.21	34988.67
528.38	35023.78
528.55	35023.78
528.72	34986.33
528.89	35143.14
529.07	35171.23
529.24	35388.90
529.41	35332.73
529.58	35220.38
529.75	35220.38
529.92	35594.87
530.09	35161.87
530.26	35351.45
530.43	35594.87
530.60	35360.81
530.77	35789.13
530.94	35817.22
531.11	35452.09
531.28	36030.21
531.46	36025.53
531.63	36240.86
531.80	35833.60
531.97	36292.35
532.14	36074.68
532.31	36383.63
532.48	36161.28
532.65	36598.96
532.82	36011.48
532.99	36416.40
533.16	35892.12
533.33	36723.01
533.50	36921.95
533.67	36636.41
533.84	36598.96
534.01	36481.93
534.18	36711.30
534.35	37038.98
534.52	36727.69
534.69	37303.46
534.86	37296.44
535.03	36947.70
535.20	37141.96
535.37	36730.03
535.54	37460.27
535.71	37205.16
535.88	37502.40
536.05	37378.36
536.22	37809.01
536.38	37392.40
536.55	37242.60
536.72	37151.32
536.89	37303.46
537.06	37270.69
537.23	37790.29
537.40	37516.45
537.57	37179.41
537.74	37345.59
537.91	37848.80
538.08	37956.47
538.25	37794.97
538.42	37694.33
538.59	38375.42
538.75	38153.07
538.92	38270.10
539.09	38256.06
539.26	38473.73
539.43	38721.82
539.60	38644.59
539.77	38394.15
539.94	38361.38
540.11	38026.68
540.28	38335.63
540.44	38527.56
540.61	38258.40
540.78	38190.52
540.95	38438.62
541.12	38852.89
541.29	38623.52
541.46	38387.13
541.62	38841.19
541.79	39274.19
541.96	38724.16
542.13	38852.89
542.30	38888.00
542.47	39108.01
542.63	38925.45
542.80	39716.55
542.97	39690.80
543.14	39716.55
543.31	39667.40
543.48	39800.81
543.64	39658.04
543.81	39716.55
543.98	39814.85
544.15	39538.67
544.32	40100.40
544.48	39969.33
544.65	39819.53
544.82	39927.20
544.99	39983.37
545.16	40133.17
545.32	40212.74
545.49	40570.85
545.66	40364.88
545.83	40198.70
546.00	40694.89
546.16	39854.64
546.33	40137.85
546.50	39917.84
546.67	40385.94
546.83	39852.30
547.00	40112.10
547.17	40215.08
547.34	40559.14
547.50	40678.51
547.67	40535.74
547.84	40498.29
548.00	40526.38
548.17	41284.71
548.34	41153.64
548.51	41626.43
548.67	40940.65
548.84	40870.43
549.01	40652.76
549.18	41055.34
549.34	41167.68
549.51	41216.83
549.68	41177.04
549.84	41177.04
550.01	41060.02
550.18	40554.46
550.34	41502.38
550.51	41338.54
550.68	41488.34
550.84	41022.57
551.01	41457.91
551.18	41310.46
551.34	41092.79
551.51	41296.41
551.68	41507.06
551.84	41434.50
552.01	41588.98
552.18	41450.89
552.34	41488.34
552.51	41851.12
552.68	41378.33
552.84	41937.72
553.01	41329.18
553.18	41502.38
553.34	41998.57
553.51	41942.40
553.67	41991.55
553.84	42532.22
554.01	41727.07
554.17	41743.45
554.34	41909.63
554.51	42223.26
554.67	42141.35
554.84	42094.53
555.00	42295.82
555.17	41935.38
555.33	42335.61
555.50	42167.09
555.67	41832.39
555.83	42043.04
556.00	42586.05
556.16	42822.44
556.33	42990.96
556.50	42284.12
556.66	42628.18
556.83	42188.16
556.99	42799.04
557.16	42759.25
557.32	42635.20
557.49	42803.72
557.65	42799.04
557.82	42527.53
557.98	42986.28
558.15	42918.40
558.32	42834.14
558.48	42932.45
558.65	42522.85
558.81	42852.87
558.98	42710.10
559.14	42775.63
559.31	43239.06
559.47	42752.23
559.64	42887.98
559.80	43302.25
559.97	43236.72
560.13	42770.95
560.30	43126.71
560.46	43161.82
560.63	43112.67
560.79	43035.43
560.96	43210.97
561.12	43180.54
561.29	43438.00
561.45	43269.48
561.61	43456.73
561.78	43292.89
561.94	43311.61
562.11	42981.60
562.27	43077.56
562.44	43381.83
562.60	43232.04
562.77	43892.07
562.93	42775.63
563.10	43873.34
563.26	43030.75
563.42	43868.66
563.59	43487.15
563.75	43461.41
563.92	43297.57
564.08	43257.78
564.24	43119.69
564.41	43578.43
564.57	43807.81
564.74	43730.57
564.90	43360.76
565.07	43615.88
565.23	43414.60
565.39	43683.76
565.56	43737.59
565.72	43531.62
565.88	43585.46
566.05	43826.53
566.21	43611.20
566.38	43817.17
566.54	44030.16
566.70	43868.66
566.87	43976.33
567.03	43807.81
567.19	44072.29
567.36	43732.91
567.52	43885.04
567.68	44378.90
567.85	43931.86
568.01	44119.10
568.17	43597.16
568.34	43597.16
568.50	44154.21
568.66	44086.33
568.83	43962.28
568.99	43714.19
569.15	44107.40
569.32	44095.69
569.48	43929.51
569.64	44582.52
569.81	44472.52
569.97	44346.13
570.13	44322.72
570.30	44177.61
570.46	44495.92
570.62	44135.48
570.78	44142.50
570.95	44163.57
571.11	44643.38
571.27	44107.40
571.43	44217.40
571.60	44385.92
571.76	43945.90
571.92	43941.22
572.09	44549.76
572.25	44385.92
572.41	44243.15
572.57	44369.54
572.74	44996.80
572.90	44439.75
573.06	44254.85
573.22	44669.12
573.38	44825.94
573.55	44821.26
573.71	45127.87
573.87	44832.96
574.03	44596.57
574.20	44687.85
574.36	44343.79
574.52	44905.52
574.68	44556.78
574.84	44472.52
575.01	44755.72
575.17	44395.28
575.33	44500.61
575.49	44025.48
575.65	45048.29
575.82	44556.78
575.98	44519.33
576.14	44788.49
576.30	44619.97
576.46	44765.09
576.62	44301.66
576.79	44479.54
576.95	44753.38
577.11	44552.10
577.27	44320.38
577.43	44793.17
577.59	44549.76
577.75	44865.73
577.92	44119.10
578.08	44727.64
578.24	44718.28
578.40	44926.58
578.56	44786.15
578.72	44807.22
578.88	44603.59
579.04	44224.42
579.21	44268.89
579.37	44800.19
579.53	44847.00
579.69	44545.08
579.85	44680.83
580.01	44669.12
580.17	44708.91
580.33	44973.39
580.49	44933.60
580.65	44905.52
580.82	44959.35
580.98	44957.01
581.14	44320.38
581.30	44825.94
581.46	44751.04
581.62	44896.16
581.78	44540.39
581.94	45008.50
582.10	44863.39
582.26	44907.86
582.42	44439.75
582.58	45195.74
582.74	44985.10
582.90	44612.95
583.06	45081.06
583.22	44535.71
583.38	44889.13
583.54	44858.71
583.70	44971.05
583.86	45116.17
584.02	44828.28
584.18	45069.36
584.34	45244.90
584.50	45244.90
584.66	44818.92
584.82	44825.94
584.98	45464.91
585.14	45319.79
585.30	44589.55
585.46	44729.98
585.62	44601.25
585.78	44959.35
585.94	44676.15
586.10	44961.69
586.26	44982.76
586.42	44959.35
586.58	44699.55
586.74	44678.49
586.90	45081.06
587.06	45057.65
587.22	45155.96
587.38	44851.69
587.54	45120.85
587.70	45408.73
587.86	45247.24
588.02	45027.23
588.18	44905.52
588.34	44952.33
588.49	44992.12
588.65	44870.41
588.81	44982.76
588.97	45022.54
589.13	44917.22
589.29	45036.59
589.45	45528.10
589.61	45375.97
589.77	45312.77
589.93	44975.73
590.08	45275.32
590.24	44863.39
