SpectraSuite Data File
++++++++++++++++++++++++++++++++++++
Date: Fri Oct 25 11:22:58 EDT 2013
User: price-jones
Dark Spectrum Present: No
Reference Spectrum Present: No
Number of Sampled Component Spectra: 1
Spectrometers: USB2+H05261
Integration Time (usec): 100000 (USB2+H05261)
Spectra Averaged: 1 (USB2+H05261)
Boxcar Smoothing: 0 (USB2+H05261)
Correct for Electrical Dark: No (USB2+H05261)
Strobe/Lamp Enabled: No (USB2+H05261)
Correct for Detector Non-linearity: No (USB2+H05261)
Correct for Stray Light: No (USB2+H05261)
Number of Pixels in Processed Spectrum: 2048
>>>>>Begin Processed Spectral Data<<<<<
365.73	220.01
365.92	220.01
366.12	220.01
366.32	161.50
366.52	175.54
366.72	112.35
366.91	65.54
367.11	128.73
367.31	88.94
367.51	105.32
367.70	107.66
367.90	177.88
368.10	77.24
368.30	128.73
368.49	110.01
368.69	102.98
368.89	131.07
369.09	56.17
369.28	189.58
369.48	205.97
369.68	147.45
369.87	238.73
370.07	135.75
370.27	217.67
370.47	332.36
370.66	566.41
370.86	655.35
371.06	713.86
371.25	734.93
371.45	685.78
371.65	606.20
371.84	589.82
372.04	622.58
372.24	713.86
372.44	669.39
372.63	746.63
372.83	697.48
373.03	716.20
373.22	774.72
373.42	683.44
373.62	713.86
373.81	758.33
374.01	866.00
374.21	809.83
374.40	802.80
374.60	828.55
374.79	833.23
374.99	851.96
375.19	873.02
375.38	840.25
375.58	795.78
375.78	819.19
375.97	805.14
376.17	905.79
376.37	819.19
376.56	856.64
376.76	863.66
376.95	861.32
377.15	866.00
377.35	910.47
377.54	924.51
377.74	833.23
377.93	856.64
378.13	976.00
378.33	908.13
378.52	884.72
378.72	968.98
378.91	973.66
379.11	943.24
379.31	943.24
379.50	954.94
379.70	966.64
379.89	957.28
380.09	1043.88
380.28	1060.26
380.48	978.34
380.68	966.64
380.87	1013.45
381.07	978.34
381.26	1043.88
381.46	1015.79
381.65	1086.01
381.85	1018.13
382.04	1036.86
382.24	1114.10
382.43	1001.75
382.63	1041.54
382.83	1067.28
383.02	1139.84
383.22	1100.05
383.41	1074.31
383.61	1015.79
383.80	1170.27
384.00	1078.99
384.19	1069.62
384.39	1191.33
384.58	1174.95
384.78	1128.14
384.97	1191.33
385.17	1029.84
385.36	1160.91
385.56	1177.29
385.75	1107.07
385.95	1193.67
386.14	1247.51
386.34	1247.51
386.53	1137.50
386.72	1137.50
386.92	1226.44
387.11	1289.64
387.31	1259.21
387.50	1259.21
387.70	1247.51
387.89	1273.25
388.09	1329.42
388.28	1240.48
388.48	1226.44
388.67	1275.59
388.86	1299.00
389.06	1397.30
389.25	1343.47
389.45	1249.85
389.64	1355.17
389.84	1392.62
390.03	1334.11
390.22	1462.83
390.42	1373.89
390.61	1387.94
390.81	1397.30
391.00	1401.98
391.19	1411.34
391.39	1453.47
391.58	1401.98
391.78	1542.41
391.97	1537.73
392.16	1411.34
392.36	1502.62
392.55	1605.61
392.75	1563.48
392.94	1542.41
393.13	1533.05
393.33	1614.97
393.52	1526.03
393.71	1600.93
393.91	1591.56
394.10	1598.59
394.29	1551.78
394.49	1617.31
394.68	1593.90
394.88	1612.63
395.07	1710.93
395.26	1743.70
395.46	1647.74
395.65	1732.00
395.84	1640.72
396.04	1748.38
396.23	1724.97
396.42	1739.02
396.62	1788.17
396.81	1860.73
397.00	1771.79
397.19	1846.68
397.39	1743.70
397.58	1799.87
397.77	1696.89
397.97	1933.28
398.16	1874.77
398.35	1940.30
398.55	1832.64
398.74	1996.48
398.93	1947.33
399.12	1935.62
399.32	1867.75
399.51	1881.79
399.70	1987.11
399.90	1989.46
400.09	2062.01
400.28	2012.86
400.47	1994.14
400.67	2099.46
400.86	2113.50
401.05	2092.44
401.24	2167.34
401.44	2176.70
401.63	2057.33
401.82	2148.61
402.01	2204.78
402.21	2244.57
402.40	2256.28
402.59	2202.44
402.78	2162.66
402.97	2260.96
403.17	2225.85
403.36	2251.60
403.55	2258.62
403.74	2427.14
403.93	2305.43
404.13	2260.96
404.32	2436.50
404.51	2368.62
404.70	2417.77
404.89	2396.71
405.09	2455.22
405.28	2450.54
405.47	2530.12
405.66	2483.31
405.85	2619.06
406.05	2595.65
406.24	2537.14
406.43	2590.97
406.62	2560.55
406.81	2581.61
407.00	2551.18
407.20	2614.38
407.39	2675.23
407.58	2661.19
407.77	2726.72
407.96	2801.62
408.15	2759.49
408.34	2778.22
408.54	2736.09
408.73	2766.51
408.92	2878.86
409.11	2869.50
409.30	2972.48
409.49	2832.05
409.68	2918.65
409.87	2977.16
410.07	3012.27
410.26	2986.52
410.45	3035.67
410.64	3157.38
410.83	3159.72
411.02	3054.40
411.21	3255.69
411.40	3176.11
411.59	3176.11
411.78	3101.21
411.98	3108.23
412.17	3349.31
412.36	3365.69
412.55	3452.29
412.74	3520.17
412.93	3393.78
413.12	3337.60
413.31	3548.25
413.50	3529.53
413.69	3566.98
413.88	3655.92
414.07	3496.76
414.26	3719.11
414.45	3817.41
414.64	3723.79
414.83	3772.94
415.02	3777.62
415.22	3796.35
415.41	3826.78
415.60	3796.35
415.79	3925.08
415.98	3981.25
416.17	4023.38
416.36	3967.21
416.55	4079.55
416.74	4145.09
416.93	3967.21
417.12	4201.26
417.31	4128.70
417.50	4215.30
417.69	4273.82
417.88	4259.78
418.07	4334.67
418.26	4311.27
418.45	4435.32
418.64	4411.91
418.83	4390.84
419.02	4444.68
419.21	4479.79
419.39	4578.09
419.58	4461.06
419.77	4374.46
419.96	4547.66
420.15	4535.96
420.34	4596.81
420.53	4554.68
420.72	4613.20
420.91	4725.54
421.10	4645.96
421.29	4762.99
421.48	4594.47
421.67	4809.80
421.86	4718.52
422.05	4873.00
422.24	4746.61
422.43	4788.74
422.61	4812.14
422.80	4908.10
422.99	4896.40
423.18	5001.72
423.37	5085.98
423.56	4882.36
423.75	4917.47
423.94	4898.74
424.13	4641.28
424.32	4847.25
424.50	5109.39
424.69	5151.52
424.88	5170.24
425.07	5118.75
425.26	4884.70
425.45	5081.30
425.64	4919.81
425.83	4880.02
426.01	5153.86
426.20	5048.54
426.39	5064.92
426.58	5254.50
426.77	5114.07
426.96	5252.16
427.15	5263.86
427.33	5331.74
427.52	5130.45
427.71	5200.67
427.90	5252.16
428.09	5366.85
428.28	5406.64
428.46	5418.34
428.65	5352.81
428.84	5565.79
429.03	5619.63
429.22	5425.36
429.40	5556.43
429.59	5495.58
429.78	5458.13
429.97	5394.93
430.16	5575.16
430.34	5593.88
430.53	5696.86
430.72	5811.55
430.91	5710.91
431.10	5575.16
431.28	5781.12
431.47	5785.80
431.66	5898.15
431.85	5961.34
432.03	6101.78
432.22	6064.33
432.41	5961.34
432.60	5963.68
432.79	5900.49
432.97	5963.68
433.16	5996.45
433.35	6038.58
433.54	6270.30
433.72	6291.36
433.91	6134.54
434.10	6260.93
434.28	6282.00
434.47	6183.70
434.66	6244.55
434.85	6361.58
435.03	6478.60
435.22	6244.55
435.41	6520.73
435.59	6427.11
435.78	6469.24
435.97	6377.96
436.16	6415.41
436.34	6483.28
436.53	6644.78
436.72	6752.45
436.90	6532.44
437.09	6619.04
437.28	6420.09
437.46	6642.44
437.65	6541.80
437.84	6654.14
438.02	6567.54
438.21	6794.58
438.40	6771.17
438.58	7049.69
438.77	6998.20
438.96	6965.43
439.14	6993.52
439.33	7218.21
439.52	7269.70
439.70	7138.63
439.89	7414.82
440.08	7311.83
440.26	7520.14
440.45	7492.05
440.63	7522.48
440.82	7864.20
441.01	7644.19
441.19	7644.19
441.38	7779.94
441.57	7716.75
441.75	7948.46
441.94	7801.01
442.12	7906.33
442.31	8025.70
442.50	8072.51
442.68	8009.31
442.87	8175.49
443.05	8154.43
443.24	8175.49
443.43	8238.69
443.61	8369.76
443.80	8664.66
443.98	8252.73
444.17	7932.08
444.35	8264.43
444.54	8411.89
444.73	8318.26
444.91	8407.20
445.10	8395.50
445.28	8353.37
445.47	8304.22
445.65	8395.50
445.84	8655.30
446.02	8629.56
446.21	8568.70
446.39	8542.96
446.58	8477.42
446.77	8636.58
446.95	8376.78
447.14	8388.48
447.32	8683.39
447.51	8549.98
447.69	8524.23
447.88	8723.18
448.06	8566.36
448.25	8510.19
448.43	8730.20
448.62	8849.57
448.80	8697.43
448.99	8903.40
449.17	8830.84
449.36	8720.84
449.54	9008.72
449.73	8992.34
449.91	9174.90
450.10	8870.63
450.28	9207.67
450.46	8912.76
450.65	9020.42
450.83	9205.33
451.02	9139.79
451.20	9280.22
451.39	9210.01
451.57	9067.24
451.76	9090.64
451.94	9254.48
452.13	9362.14
452.31	9266.18
452.49	9317.67
452.68	9287.25
452.86	9352.78
453.05	9518.96
453.23	9760.03
453.42	9394.91
453.60	9453.42
453.78	9605.56
453.97	9551.73
454.15	9493.21
454.34	9682.80
454.52	9699.18
454.70	9724.93
454.89	9788.12
455.07	9994.09
455.26	9893.44
455.44	9909.83
455.62	9710.88
455.81	9851.31
455.99	10167.29
456.17	10202.40
456.36	10012.81
456.54	10387.30
456.73	10352.19
456.91	10506.66
457.09	10558.16
457.28	10619.01
457.46	10394.32
457.64	10499.64
457.83	10670.50
458.01	10518.37
458.19	10654.12
458.38	10616.67
458.56	10946.69
458.74	10670.50
458.93	10799.23
459.11	11154.99
459.29	10719.65
459.48	10794.55
459.66	10813.28
459.84	10993.50
460.03	10995.84
460.21	11171.38
460.39	10967.75
460.57	11122.23
460.76	11463.94
460.94	11136.27
461.12	11192.44
461.31	11211.17
461.49	11342.24
461.67	11391.39
461.85	11538.84
462.04	11311.81
462.22	11669.91
462.40	11740.13
462.59	11585.65
462.77	11508.41
462.95	11859.49
463.13	11946.09
463.32	11840.77
463.50	11786.94
463.68	11873.54
463.86	11997.59
464.05	11646.51
464.23	11637.14
464.41	12077.16
464.59	11929.71
464.78	12290.15
464.96	11981.20
465.14	12053.76
465.32	12109.93
465.50	12166.10
465.69	12365.05
465.87	12095.89
466.05	12266.75
466.23	12182.49
466.41	12369.73
466.60	12425.90
466.78	12252.70
466.96	12477.40
467.14	12418.88
467.32	12442.29
467.51	12498.46
467.69	12283.13
467.87	12400.16
468.05	12674.00
468.23	12762.94
468.41	12486.76
468.60	12606.13
468.78	12992.31
468.96	12718.47
469.14	12788.69
469.32	12982.95
469.50	12683.36
469.69	13247.43
469.87	13174.88
470.05	13263.82
470.23	13200.62
470.41	13390.20
470.59	13549.36
470.77	13364.46
470.95	13268.50
471.14	13507.23
471.32	13305.95
471.50	13565.74
471.68	13848.95
471.86	13844.27
472.04	13617.24
472.22	14171.94
472.40	13715.54
472.58	13867.67
472.77	14146.20
472.95	14530.05
473.13	14506.64
473.31	14160.24
473.49	14420.04
473.67	14265.57
473.85	14391.95
474.03	14539.41
474.21	14918.57
474.39	14979.43
474.57	15091.77
474.75	14916.23
474.93	15187.74
475.12	15208.80
475.30	15136.24
475.48	15082.41
475.66	15183.06
475.84	15389.02
476.02	15482.64
476.20	15573.92
476.38	15786.91
476.56	16240.98
476.74	16224.59
476.92	15922.66
477.10	16039.69
477.28	16072.46
477.46	16201.19
477.64	16390.77
477.82	16580.36
478.00	17074.21
478.18	16975.91
478.36	17160.81
478.54	17235.70
478.72	17245.07
478.90	17642.96
479.08	17769.35
479.26	17851.27
479.44	17837.22
479.62	17977.65
479.80	18188.30
479.98	18207.03
480.16	18607.26
480.34	18604.92
480.52	18726.63
480.70	18597.90
480.88	18293.63
481.06	18909.19
481.24	18658.75
481.41	19150.26
481.59	19796.25
481.77	19754.12
481.95	19747.10
482.13	19777.53
482.31	19714.33
482.49	20535.86
482.67	20009.24
482.85	20634.16
483.03	20732.47
483.21	20854.17
483.39	21326.96
483.57	21083.55
483.74	21448.67
483.92	21584.42
484.10	21713.15
484.28	21820.81
484.46	22005.72
484.64	22649.36
484.82	22073.59
485.00	22352.12
485.18	22960.66
485.35	23218.11
485.53	22871.72
485.71	22981.72
485.89	23459.19
486.07	23655.79
486.25	23559.83
486.43	23735.37
486.61	23653.45
486.78	24304.12
486.96	24372.00
487.14	24847.13
487.32	24917.34
487.50	25270.76
487.68	25315.23
487.85	25504.82
488.03	25558.65
488.21	26544.02
488.39	25898.03
488.57	25813.77
488.75	26284.22
488.92	26597.85
489.10	26881.05
489.28	27349.16
489.46	27587.89
489.64	26991.06
489.81	27955.36
489.99	28013.87
490.17	28009.19
490.35	28692.63
490.53	28423.47
490.70	28589.64
490.88	28318.14
491.06	28734.76
491.24	28933.70
491.41	29039.03
491.59	29291.80
491.77	29350.32
491.95	29832.47
492.13	29921.41
492.30	30506.54
492.48	30794.43
492.66	30705.49
492.84	30230.36
493.01	30803.79
493.19	30951.24
493.37	31391.26
493.54	31304.67
493.72	31793.84
493.90	31370.20
494.08	31807.88
494.25	32409.40
494.43	32252.58
494.61	32587.28
494.79	32718.35
494.96	32842.40
495.14	33027.30
495.32	33469.66
495.49	33617.11
495.67	33181.77
495.85	33869.89
496.02	33790.31
496.20	33823.08
496.38	34384.81
496.55	34794.40
496.73	34930.16
496.91	34562.69
497.09	34668.02
497.26	35456.78
497.44	35576.14
497.62	35938.93
497.79	36027.87
497.97	35995.10
498.14	36285.33
498.32	36596.62
498.50	36411.71
498.67	36634.06
498.85	36994.51
499.03	37006.21
499.20	37008.55
499.38	37296.44
499.56	37350.27
499.73	37598.37
499.91	37614.75
500.08	37989.24
500.26	37544.53
500.44	38075.84
500.61	38316.91
500.79	38036.05
500.97	38443.30
501.14	38932.47
501.32	38794.38
501.49	38742.89
501.67	39398.24
501.84	39201.63
502.02	38789.70
502.20	39496.54
502.37	39339.72
502.55	39405.26
502.72	39541.01
502.90	39845.28
503.07	39679.10
503.25	39620.59
503.43	40388.28
503.60	40229.13
503.78	40453.82
503.95	40364.88
504.13	40692.55
504.30	41570.25
504.48	40533.40
504.65	41282.37
504.83	41481.31
505.01	41783.24
505.18	41242.58
505.36	41963.46
505.53	41848.78
505.71	42227.95
505.88	42492.43
506.06	41926.02
506.23	42078.15
506.41	42080.49
506.58	42113.26
506.76	42600.09
506.93	42906.70
507.11	42340.29
507.28	42946.49
507.46	43157.14
507.63	43119.69
507.81	43433.32
507.98	43058.84
508.16	43566.73
508.33	43365.45
508.50	44016.11
508.68	43971.64
508.85	44392.94
509.03	44041.86
509.20	44243.15
509.38	44685.51
509.55	44814.24
509.73	44444.43
509.90	45113.83
510.08	44350.81
510.25	44655.08
510.42	45071.70
510.60	45179.36
510.77	45272.98
510.95	45577.25
511.12	45839.39
511.30	45453.20
511.47	45996.21
511.64	45876.84
511.82	46454.95
511.99	45738.75
512.17	46071.10
512.34	45909.61
512.51	46775.61
512.69	46710.07
512.86	46656.24
513.04	46878.59
513.21	47070.51
513.38	47021.36
513.56	47358.40
513.73	47089.24
513.90	47346.70
514.08	47208.61
514.25	47597.13
514.43	47775.02
514.60	47473.09
514.77	47842.89
514.95	47973.96
515.12	48032.47
515.29	47805.44
515.47	48196.31
515.64	48669.10
515.81	48519.31
515.99	48254.82
516.16	48870.39
516.33	48582.50
516.51	48933.58
516.68	48528.67
516.85	48788.47
517.03	49298.70
517.20	49441.48
517.37	48868.05
517.54	49106.78
517.72	49277.64
517.89	49462.54
518.06	49631.06
518.24	49347.86
518.41	49731.70
518.58	49663.83
518.75	49794.90
518.93	49684.89
519.10	50106.19
519.27	50094.49
519.45	49909.58
519.62	50040.65
519.79	50370.67
519.96	50347.26
520.14	50202.15
520.31	50363.65
520.48	50726.43
520.65	50696.00
520.83	50808.35
521.00	50972.19
521.17	50817.71
521.34	50960.48
521.52	51138.36
521.69	51246.03
521.86	51274.12
522.03	51285.82
522.20	51758.61
522.38	51856.91
522.55	51622.86
522.72	51735.20
522.89	51969.26
523.07	51739.88
523.24	52053.51
523.41	52107.35
523.58	51667.33
523.75	52130.75
523.92	52222.03
524.10	52006.70
524.27	52079.26
524.44	52456.09
524.61	52266.50
524.78	52538.01
524.96	52748.65
525.13	52767.38
525.30	52980.37
525.47	52758.02
525.64	52793.12
525.81	52519.28
525.98	52996.75
526.16	52889.09
526.33	52982.71
526.50	53179.31
526.67	52945.26
526.84	53155.91
527.01	52980.37
527.18	53104.41
527.36	53158.25
527.53	53282.30
527.70	53579.54
527.87	53560.82
528.04	53394.64
528.21	53628.69
528.38	53497.62
528.55	53773.81
528.72	53492.94
528.89	53762.11
529.07	53368.90
529.24	53689.55
529.41	53979.78
529.58	53963.39
529.75	53822.96
529.92	54127.23
530.09	54291.07
530.26	54288.73
530.43	54426.82
530.60	54078.08
530.77	54255.96
530.94	54351.92
531.11	54082.76
531.28	54457.24
531.46	54475.97
531.63	54773.22
531.80	54656.19
531.97	54557.89
532.14	54646.83
532.31	54803.64
532.48	54817.69
532.65	54684.28
532.82	54417.46
532.99	54850.45
533.16	55107.91
533.33	54962.80
533.50	55346.65
533.67	55089.19
533.84	54958.12
534.01	55189.83
534.18	55594.74
534.35	55327.92
534.52	55374.73
534.69	55510.49
534.86	55550.27
535.03	55363.03
535.20	55428.57
535.37	55309.20
535.54	55311.54
535.71	55419.20
535.88	55641.56
536.05	55749.22
536.22	55971.57
536.38	55922.42
536.55	55962.21
536.72	55922.42
536.89	55931.78
537.06	55884.97
537.23	55936.46
537.40	55660.28
537.57	56016.04
537.74	56114.34
537.91	55980.93
538.08	56032.42
538.25	55875.61
538.42	56020.72
538.59	56390.53
538.75	56149.45
538.92	56254.78
539.09	56477.13
539.26	56376.48
539.43	56343.72
539.60	56353.08
539.77	56666.71
539.94	56823.53
540.11	56624.58
540.28	56605.86
540.44	56594.15
540.61	56633.94
540.78	56332.01
540.95	56687.78
541.12	56662.03
541.29	56823.53
541.46	56718.20
541.62	56594.15
541.79	56818.84
541.96	56523.94
542.13	56987.36
542.30	56757.99
542.47	56952.26
542.63	57219.08
542.80	57132.48
542.97	57118.43
543.14	57513.98
543.31	57488.24
543.48	57521.01
543.64	57792.51
543.81	57535.05
543.98	57509.30
544.15	57602.92
544.32	57773.78
544.48	58038.26
544.65	57457.81
544.82	57570.16
544.99	57567.82
545.16	57705.91
545.32	57684.84
545.49	57738.68
545.66	57979.75
545.83	57829.96
546.00	57783.15
546.16	57907.19
546.33	57881.45
546.50	57579.52
546.67	57928.26
546.83	57708.25
547.00	57918.90
547.17	57914.22
547.34	58054.65
547.50	58164.65
547.67	58403.39
547.84	58344.87
548.00	58478.28
548.17	58443.18
548.34	58269.98
548.51	58520.41
548.67	58326.15
548.84	58497.01
549.01	58396.37
549.18	58284.02
549.34	58440.84
549.51	58520.41
549.68	58494.67
549.84	58611.70
550.01	58576.59
550.18	58504.03
550.34	58714.68
550.51	58674.89
550.68	58548.50
550.84	58433.81
551.01	58702.98
551.18	58681.91
551.34	58948.73
551.51	58733.40
551.68	58817.66
551.84	58763.83
552.01	58550.84
552.18	59030.65
552.34	58843.41
552.51	58911.28
552.68	58859.79
552.84	58897.24
553.01	59117.25
553.18	59236.62
553.34	58944.05
553.51	58862.13
553.67	58930.01
553.84	59290.45
554.01	59084.48
554.17	59082.14
554.34	59267.05
554.51	59093.85
554.67	59318.54
554.84	59089.16
555.00	59154.70
555.17	59037.67
555.33	59245.98
555.50	59164.06
555.67	59262.36
555.83	59126.61
556.00	59274.07
556.16	59463.65
556.33	59545.57
556.50	59550.25
556.66	59636.85
556.83	59370.03
556.99	59657.91
557.16	59662.60
557.32	59819.41
557.49	59784.30
557.65	59487.06
557.82	59449.61
557.98	59805.37
558.15	59512.80
558.32	59746.86
558.48	59519.82
558.65	59611.10
558.81	59662.60
558.98	59880.27
559.14	59774.94
559.31	59749.20
559.47	59924.74
559.64	60048.78
559.80	59971.55
559.97	60069.85
560.13	59711.75
560.30	59711.75
560.46	60074.53
560.63	60009.00
560.79	60072.19
560.96	60104.96
561.12	60177.51
561.29	59987.93
561.45	60126.02
561.61	60018.36
561.78	59971.55
561.94	60004.31
562.11	59945.80
562.27	60334.33
562.44	60161.13
562.60	60179.85
562.77	60025.38
562.93	59955.16
563.10	60224.32
563.26	60144.75
563.42	60491.15
563.59	60203.26
563.75	60168.15
563.92	60116.66
564.08	60254.75
564.24	60397.52
564.41	60224.32
564.57	60360.08
564.74	60350.71
564.90	60355.39
565.07	60521.57
565.23	60427.95
565.39	60254.75
565.56	60477.10
565.72	60275.82
565.88	60320.29
566.05	60350.71
566.21	60336.67
566.38	60425.61
566.54	60451.36
566.70	60460.72
566.87	60706.47
567.03	60369.44
567.19	60598.81
567.36	60376.46
567.52	60554.34
567.68	60739.24
567.85	60657.32
568.01	60762.65
568.17	60552.00
568.34	60577.75
568.50	60566.04
568.66	60350.71
568.83	60617.53
568.99	60395.18
569.15	60671.37
569.32	60622.22
569.48	60537.96
569.64	60797.76
569.81	60484.12
569.97	60495.83
570.13	60542.64
570.30	60542.64
570.46	60961.59
570.62	60898.40
570.78	60757.97
570.95	60654.98
571.11	60722.86
571.27	60795.42
571.43	60980.32
571.60	60886.70
571.76	60818.82
571.92	61034.15
572.09	60767.33
572.25	60676.05
572.41	60830.52
572.57	60687.75
572.74	60933.51
572.90	60748.60
573.06	60732.22
573.22	60772.01
573.38	60865.63
573.55	60896.06
573.71	61017.77
573.87	60769.67
574.03	60589.45
574.20	60783.71
574.36	60882.02
574.52	60797.76
574.68	60807.12
574.84	61038.83
575.01	60818.82
575.17	60786.05
575.33	60844.57
575.49	61001.38
575.65	60970.96
575.82	61003.72
575.98	60874.99
576.14	61300.97
576.30	60992.02
576.46	61052.87
576.62	60701.79
576.79	60949.89
576.95	61045.85
577.11	60959.25
577.27	61057.56
577.43	60956.91
577.59	60837.54
577.75	60809.46
577.92	60809.46
578.08	60977.98
578.24	60832.86
578.40	61024.79
578.56	61111.39
578.72	60924.14
578.88	61219.05
579.04	61237.78
579.21	61045.85
579.37	61343.10
579.53	61254.16
579.69	60947.55
579.85	61106.71
580.01	61237.78
580.17	60889.04
580.33	60973.30
580.49	61024.79
580.65	60956.91
580.82	61120.75
580.98	60985.00
581.14	60865.63
581.30	61134.79
581.46	61190.97
581.62	60938.19
581.78	61268.20
581.94	61186.28
582.10	60999.04
582.26	61202.67
582.42	61137.13
582.58	61153.52
582.74	61090.32
582.90	61146.50
583.06	61293.95
583.22	61097.34
583.38	61071.60
583.54	61298.63
583.70	61130.11
583.86	61307.99
584.02	61104.37
584.18	61146.50
584.34	61207.35
584.50	61013.08
584.66	61179.26
584.82	60968.61
584.98	61205.01
585.14	61380.55
585.30	61057.56
585.46	61099.68
585.62	61188.63
585.78	61275.22
585.94	61190.97
586.10	61361.82
586.26	61097.34
586.42	61303.31
586.58	61347.78
586.74	61202.67
586.90	61141.81
587.06	61233.10
587.22	61261.18
587.38	61151.18
587.54	61375.87
587.70	61577.15
587.86	61359.48
588.02	61258.84
588.18	61574.81
588.34	61181.60
588.49	61052.87
