SpectraSuite Data File
++++++++++++++++++++++++++++++++++++
Date: Fri Oct 25 10:44:06 EDT 2013
User: price-jones
Dark Spectrum Present: No
Reference Spectrum Present: No
Number of Sampled Component Spectra: 1
Spectrometers: USB2+H05261
Integration Time (usec): 100000 (USB2+H05261)
Spectra Averaged: 1 (USB2+H05261)
Boxcar Smoothing: 0 (USB2+H05261)
Correct for Electrical Dark: No (USB2+H05261)
Strobe/Lamp Enabled: No (USB2+H05261)
Correct for Detector Non-linearity: No (USB2+H05261)
Correct for Stray Light: No (USB2+H05261)
Number of Pixels in Processed Spectrum: 2048
>>>>>Begin Processed Spectral Data<<<<<
365.73	65.54
365.92	65.54
366.12	65.54
366.32	30.43
366.52	37.45
366.72	51.49
366.91	21.06
367.11	32.77
367.31	0.00
367.51	11.70
367.70	0.00
367.90	100.64
368.10	0.00
368.30	0.00
368.49	37.45
368.69	84.26
368.89	0.00
369.09	7.02
369.28	91.28
369.48	30.43
369.68	35.11
369.87	0.00
370.07	53.83
370.27	170.86
370.47	159.16
370.66	402.57
370.86	430.66
371.06	489.17
371.25	510.24
371.45	491.51
371.65	454.06
371.84	456.40
372.04	486.83
372.24	484.49
372.44	489.17
372.63	528.96
372.83	566.41
373.03	517.26
373.22	468.11
373.42	589.82
373.62	547.69
373.81	531.30
374.01	540.66
374.21	521.94
374.40	540.66
374.60	617.90
374.79	603.86
374.99	587.47
375.19	627.26
375.38	648.33
375.58	580.45
375.78	561.73
375.97	608.54
376.17	634.29
376.37	589.82
376.56	620.24
376.76	617.90
376.95	657.69
377.15	657.69
377.35	676.41
377.54	699.82
377.74	622.58
377.93	608.54
378.13	634.29
378.33	692.80
378.52	692.80
378.72	631.94
378.91	669.39
379.11	723.23
379.31	641.31
379.50	662.37
379.70	737.27
379.89	629.60
380.09	732.59
380.28	734.93
380.48	667.05
380.68	636.63
380.87	692.80
381.07	594.50
381.26	711.52
381.46	683.44
381.65	697.48
381.85	774.72
382.04	662.37
382.24	748.97
382.43	739.61
382.63	645.99
382.83	734.93
383.02	807.48
383.22	746.63
383.41	688.12
383.61	751.31
383.80	777.06
384.00	849.61
384.19	812.17
384.39	770.04
384.58	706.84
384.78	840.25
384.97	844.93
385.17	751.31
385.36	866.00
385.56	772.38
385.75	809.83
385.95	849.61
386.14	880.04
386.34	828.55
386.53	826.21
386.72	809.83
386.92	877.70
387.11	821.53
387.31	837.91
387.50	828.55
387.70	854.30
387.89	826.21
388.09	849.61
388.28	835.57
388.48	877.70
388.67	919.83
388.86	880.04
389.06	933.87
389.25	959.62
389.45	1004.09
389.64	997.07
389.84	1034.52
390.03	957.28
390.22	1020.47
390.42	1057.92
390.61	1008.77
390.81	1034.52
391.00	1090.69
391.19	1062.60
391.39	1029.84
391.58	1137.50
391.78	1081.33
391.97	1095.37
392.16	938.55
392.36	1062.60
392.55	1121.12
392.75	1034.52
392.94	1043.88
393.13	1067.28
393.33	1050.90
393.52	994.73
393.71	1048.56
393.91	1107.07
394.10	1114.10
394.29	1093.03
394.49	1130.48
394.68	1193.67
394.88	1238.14
395.07	1301.34
395.26	1212.40
395.46	1275.59
395.65	1306.02
395.84	1284.95
396.04	1214.74
396.23	1247.51
396.42	1100.05
396.62	1172.61
396.81	1266.23
397.00	1226.44
397.19	1299.00
397.39	1345.81
397.58	1303.68
397.77	1315.38
397.97	1394.96
398.16	1355.17
398.35	1462.83
398.55	1533.05
398.74	1479.22
398.93	1519.01
399.12	1568.16
399.32	1523.69
399.51	1544.75
399.70	1600.93
399.90	1605.61
400.09	1568.16
400.28	1528.37
400.47	1584.54
400.67	1640.72
400.86	1722.63
401.05	1638.38
401.24	1694.55
401.44	1596.25
401.63	1729.66
401.82	1717.95
402.01	1685.19
402.21	1783.49
402.40	1760.08
402.59	1778.81
402.78	1781.15
402.97	1685.19
403.17	1823.28
403.36	1914.56
403.55	1781.15
403.74	1902.86
403.93	1874.77
404.13	1802.21
404.32	1884.13
404.51	1942.64
404.70	1895.83
404.89	1933.28
405.09	2057.33
405.28	2015.20
405.47	1968.39
405.66	1912.22
405.85	2090.10
406.05	2078.40
406.24	1935.62
406.43	2005.84
406.62	2064.35
406.81	2050.31
407.00	2134.57
407.20	2026.90
407.39	2015.20
407.58	2162.66
407.77	2174.36
407.96	2242.23
408.15	2183.72
408.34	2305.43
408.54	2258.62
408.73	2296.07
408.92	2235.21
409.11	2239.89
409.30	2249.25
409.49	2225.85
409.68	2214.15
409.87	2211.81
410.07	2431.82
410.26	2434.16
410.45	2385.01
410.64	2331.17
410.83	2572.25
411.02	2462.24
411.21	2726.72
411.40	2574.59
411.59	2595.65
411.78	2768.85
411.98	2656.51
412.17	2679.91
412.36	2722.04
412.55	2743.11
412.74	2794.60
412.93	2810.98
413.12	2808.64
413.31	2878.86
413.50	2750.13
413.69	2946.73
413.88	2911.63
414.07	3016.95
414.26	2981.84
414.45	2899.92
414.64	3009.93
414.83	3033.33
415.02	3112.91
415.22	3096.53
415.41	3197.17
415.60	3038.02
415.79	3208.87
415.98	3246.32
416.17	3283.77
416.36	3246.32
416.55	3248.66
416.74	3330.58
416.93	3253.34
417.12	3300.16
417.31	3375.05
417.50	3267.39
417.69	3419.52
417.88	3426.54
418.07	3431.23
418.26	3368.03
418.45	3489.74
418.64	3562.30
418.83	3578.68
419.02	3604.42
419.21	3543.57
419.39	3655.92
419.58	3627.83
419.77	3681.66
419.96	3702.73
420.15	3665.28
420.34	3559.95
420.53	3836.14
420.72	3691.02
420.91	3826.78
421.10	3843.16
421.29	3960.19
421.48	3698.05
421.67	3868.91
421.86	3826.78
422.05	3761.24
422.24	3826.78
422.43	3946.14
422.61	3889.97
422.80	4039.76
422.99	3829.12
423.18	3997.64
423.37	3988.27
423.56	3854.86
423.75	3836.14
423.94	3948.48
424.13	3798.69
424.32	3735.50
424.50	3789.33
424.69	4030.40
424.88	4098.28
425.07	3932.10
425.26	3927.42
425.45	3941.46
425.64	4067.85
425.83	3953.16
426.01	4032.74
426.20	4028.06
426.39	4149.77
426.58	4042.11
426.77	3971.89
426.96	4060.83
427.15	3913.38
427.33	4145.09
427.52	4032.74
427.71	4084.23
427.90	4175.52
428.09	4105.30
428.28	4201.26
428.46	4161.47
428.65	4100.62
428.84	4477.44
429.03	4337.01
429.22	4117.00
429.40	4222.33
429.59	4140.41
429.78	4072.53
429.97	3922.74
430.16	4051.47
430.34	4046.79
430.53	4074.87
430.72	4156.79
430.91	4210.62
431.10	4376.80
431.28	4447.02
431.47	4678.73
431.66	4732.56
431.85	4638.94
432.03	4575.75
432.22	4533.62
432.41	4575.75
432.60	4681.07
432.79	4685.75
432.97	4931.51
433.16	4765.33
433.35	4662.35
433.54	4746.61
433.72	4774.69
433.91	4660.01
434.10	4744.27
434.28	4704.48
434.47	4912.78
434.66	4912.78
434.85	4901.08
435.03	5018.11
435.22	5015.77
435.41	5130.45
435.59	5188.97
435.78	5198.33
435.97	5235.78
436.16	5184.29
436.34	5200.67
436.53	5221.74
436.72	5313.02
436.90	5135.14
437.09	5095.35
437.28	5064.92
437.46	5210.03
437.65	5118.75
437.84	5266.21
438.02	5275.57
438.21	5221.74
438.40	5093.01
438.58	5408.98
438.77	5514.30
438.96	5472.17
439.14	5504.94
439.33	5790.49
439.52	5682.82
439.70	5696.86
439.89	5823.25
440.08	5638.35
440.26	5624.31
440.45	5830.27
440.63	5802.19
440.82	5926.24
441.01	5874.74
441.19	5893.47
441.38	6069.01
441.57	6120.50
441.75	6099.44
441.94	6368.60
442.12	6436.47
442.31	6389.66
442.50	6300.72
442.68	6324.13
442.87	6317.11
443.05	6415.41
443.24	6511.37
443.43	6448.18
443.61	6523.07
443.80	6640.10
443.98	6480.94
444.17	6223.48
444.35	6651.80
444.54	6555.84
444.73	6541.80
444.91	6511.37
445.10	6431.79
445.28	6593.29
445.47	6509.03
445.65	6256.25
445.84	6401.37
446.02	6616.69
446.21	6504.35
446.39	6621.38
446.58	6796.92
446.77	6705.63
446.95	6635.42
447.14	6707.98
447.32	6960.75
447.51	6815.64
447.69	6726.70
447.88	6703.29
448.06	6581.59
448.25	6799.26
448.43	6738.40
448.62	6747.76
448.80	6846.07
448.99	6839.05
449.17	6792.23
449.36	6665.85
449.54	6995.86
449.73	7150.34
449.91	7136.29
450.10	7066.08
450.28	7250.98
450.46	7084.80
450.65	7353.96
450.83	7288.43
451.02	7253.32
451.20	7255.66
451.39	7428.86
451.57	7269.70
451.76	7131.61
451.94	7328.22
452.13	7321.20
452.31	7225.23
452.49	7185.44
452.68	7304.81
452.86	7220.55
453.05	7279.07
453.23	7258.00
453.42	7325.88
453.60	7311.83
453.78	7590.36
453.97	7435.88
454.15	7496.74
454.34	7463.97
454.52	7676.96
454.70	7658.23
454.89	7576.31
455.07	7529.50
455.26	7679.30
455.44	7911.01
455.62	7562.27
455.81	7751.85
455.99	7798.66
456.17	7941.44
456.36	7908.67
456.54	8023.36
456.73	8021.02
456.91	8105.28
457.09	8149.75
457.28	8241.03
457.46	8004.63
457.64	8269.11
457.83	8154.43
458.01	7999.95
458.19	8285.50
458.38	8175.49
458.56	8372.10
458.74	8271.45
458.93	8409.54
459.11	8105.28
459.29	8435.29
459.48	8320.60
459.66	8276.13
459.84	8458.70
460.03	8699.77
460.21	8472.74
460.39	8547.64
460.57	8685.73
460.76	8690.41
460.94	8760.63
461.12	8837.86
461.31	8704.45
461.49	8788.71
461.67	8615.51
461.85	8896.38
462.04	9027.45
462.22	9369.16
462.40	9118.73
462.59	8826.16
462.77	8847.22
462.95	9036.81
463.13	9132.77
463.32	8999.36
463.50	8835.52
463.68	8980.64
463.86	9160.86
464.05	8891.70
464.23	9142.13
464.41	9153.84
464.59	8964.25
464.78	9308.31
464.96	9121.07
465.14	9057.87
465.32	9074.26
465.50	9310.65
465.69	9460.45
465.87	9362.14
466.05	9315.33
466.23	9217.03
466.41	9291.93
466.60	9261.50
466.78	9415.98
466.96	9240.44
467.14	9317.67
467.32	9387.89
467.51	9404.27
467.69	9284.91
467.87	9474.49
468.05	9568.11
468.23	9401.93
468.41	9462.79
468.60	9469.81
468.78	9668.75
468.96	9626.62
469.14	9762.37
469.32	10003.45
469.50	9760.03
469.69	9944.94
469.87	9858.34
470.05	10040.90
470.23	9937.91
470.41	9937.91
470.59	9926.21
470.77	9933.23
470.95	9928.55
471.14	10352.19
471.32	10001.11
471.50	10492.62
471.68	10218.78
471.86	10443.47
472.04	10518.37
472.22	10459.85
472.40	10324.10
472.58	10370.91
472.77	10387.30
472.95	10541.77
473.13	11005.20
473.31	10420.06
473.49	10389.64
473.67	10761.78
473.85	10871.79
474.03	11016.90
474.21	11063.71
474.39	10965.41
474.57	11138.61
474.75	11145.63
474.93	10949.03
475.12	11227.55
475.30	11548.20
475.48	11421.81
475.66	11286.06
475.84	11323.51
476.02	11412.45
476.20	11590.33
476.38	11681.61
476.56	12131.00
476.74	11641.82
476.92	11744.81
477.10	11925.03
477.28	11955.46
477.46	11941.41
477.64	12259.73
477.82	12697.41
478.00	12697.41
478.18	12587.40
478.36	12856.56
478.54	12547.61
478.72	12718.47
478.90	13001.68
479.08	13109.34
479.26	13121.04
479.44	13404.25
479.62	13312.97
479.80	13429.99
479.98	13596.17
480.16	13628.94
480.34	13570.43
480.52	13884.06
480.70	13928.53
480.88	13678.09
481.06	13980.02
481.24	14125.13
481.41	14298.33
481.59	14485.58
481.77	14443.45
481.95	14572.18
482.13	14520.68
482.31	14628.35
482.49	15070.71
482.67	14850.70
482.85	15192.42
483.03	15126.88
483.21	15342.21
483.39	15761.17
483.57	15733.08
483.74	15578.61
483.92	15796.28
484.10	15726.06
484.28	16020.97
484.46	16065.44
484.64	16493.76
484.82	16215.23
485.00	16140.33
485.18	16587.38
485.35	16549.93
485.53	16453.97
485.71	16205.87
485.89	16748.87
486.07	16510.14
486.25	16755.90
486.43	16994.63
486.61	17135.06
486.78	17177.19
486.96	17521.25
487.14	17699.13
487.32	17605.51
487.50	18017.44
487.68	18363.84
487.85	18359.16
488.03	18579.17
488.21	18850.67
488.39	18635.35
488.57	18504.28
488.75	18986.43
488.92	19157.28
489.10	19447.51
489.28	19580.92
489.46	19976.47
489.64	20173.08
489.81	20299.47
489.99	20460.96
490.17	20329.89
490.35	20451.60
490.53	20542.88
490.70	20622.46
490.88	20702.04
491.06	20966.52
491.24	20980.56
491.41	20900.98
491.59	21167.80
491.77	20844.81
491.95	21231.00
492.13	21366.75
492.30	21600.80
492.48	21874.65
492.66	21912.10
492.84	21937.84
493.01	22038.48
493.19	22111.04
493.37	22284.24
493.54	22499.57
493.72	22647.02
493.90	22700.86
494.08	23274.29
494.25	23335.14
494.43	23276.63
494.61	23676.86
494.79	23803.25
494.96	23353.87
495.14	23585.58
495.32	23946.02
495.49	23733.03
495.67	24002.19
495.85	24182.42
496.02	24500.73
496.20	24238.59
496.38	24636.48
496.55	24659.88
496.73	25095.22
496.91	24926.71
497.09	25076.50
497.26	25408.86
497.44	24938.41
497.62	25130.33
497.79	25563.33
497.97	25411.20
498.14	25685.04
498.32	25764.62
498.50	25568.01
498.67	26373.16
498.85	26157.83
499.03	26506.57
499.20	26309.96
499.38	26314.64
499.56	26794.45
499.73	26686.79
499.91	26700.83
500.08	27051.91
500.26	26464.44
500.44	27175.96
500.61	26906.80
500.79	26651.68
500.97	27089.36
501.14	27175.96
501.32	27302.35
501.49	27325.75
501.67	27161.92
501.84	27564.49
502.02	27494.27
502.20	27864.08
502.37	27850.03
502.55	27971.74
502.72	28353.25
502.90	28060.68
503.07	28512.41
503.25	28418.78
503.43	28271.33
503.60	28074.73
503.78	28432.83
503.95	28491.34
504.13	28758.16
504.30	28912.64
504.48	28418.78
504.65	29022.64
504.83	29125.63
505.01	29483.73
505.18	29186.48
505.36	29685.01
505.53	29273.08
505.71	29642.88
505.88	29991.62
506.06	29347.98
506.23	30387.18
506.41	29745.87
506.58	29898.00
506.76	30052.48
506.93	30424.62
507.11	29832.47
507.28	30113.33
507.46	29792.68
507.63	30274.83
507.81	30644.63
507.98	30288.87
508.16	30508.88
508.33	30810.81
508.50	30974.65
508.68	31166.57
508.85	31512.97
509.03	30883.37
509.20	31555.10
509.38	31180.62
509.55	31395.95
509.73	31665.11
509.90	31723.62
510.08	31302.32
510.25	31505.95
510.42	31924.91
510.60	32315.78
510.77	32173.00
510.95	32432.80
511.12	32027.89
511.30	32540.47
511.47	32498.34
511.64	32666.86
511.82	32980.49
511.99	32512.38
512.17	32496.00
512.34	32474.93
512.51	32783.88
512.69	33015.60
512.86	33153.69
513.04	33188.80
513.21	33088.15
513.38	32870.48
513.56	33497.75
513.73	32980.49
513.90	33184.12
514.08	32896.23
514.25	33390.08
514.43	33605.41
514.60	33881.60
514.77	33844.15
514.95	33703.71
515.12	33579.67
515.29	33385.40
515.47	34417.58
515.64	34120.33
515.81	34160.12
515.99	34080.54
516.16	34312.25
516.33	33631.16
516.51	33839.47
516.68	33865.21
516.85	33387.74
517.03	33933.09
517.20	33844.15
517.37	34405.88
517.54	34735.89
517.72	34771.00
517.89	34174.16
518.06	34181.18
518.24	34754.61
518.41	34583.76
518.58	34848.24
518.75	34550.99
518.93	35044.84
519.10	34979.31
519.27	35496.56
519.45	35651.04
519.62	35480.18
519.79	35522.31
519.96	35372.52
520.14	35967.01
520.31	35735.30
520.48	35655.72
520.65	35899.14
520.83	36048.93
521.00	36116.81
521.17	35770.41
521.34	35770.41
521.52	36182.34
521.69	36580.23
521.86	36851.73
522.03	36439.80
522.20	36608.32
522.38	36638.75
522.55	36762.79
522.72	37256.65
522.89	36493.63
523.07	37167.71
523.24	36428.10
523.41	37125.58
523.58	36924.29
523.75	37666.24
523.92	37535.17
524.10	37511.77
524.27	37736.46
524.44	37425.17
524.61	37656.88
524.78	37457.93
524.96	37703.69
525.13	37881.57
525.30	37523.47
525.47	37797.31
525.64	38047.75
525.81	38010.30
525.98	37652.20
526.16	37481.34
526.33	37532.83
526.50	37687.31
526.67	37303.46
526.84	37483.68
527.01	37483.68
527.18	37876.89
527.36	38022.00
527.53	38707.78
527.70	38934.81
527.87	38724.16
528.04	38752.25
528.21	38995.67
528.38	38593.09
528.55	39098.65
528.72	39164.18
528.89	39618.25
529.07	39082.27
529.24	39077.58
529.41	39199.29
529.58	38836.51
529.75	39079.92
529.92	39569.10
530.09	39182.91
530.26	39299.94
530.43	39423.98
530.60	39257.81
530.77	39447.39
530.94	39519.95
531.11	39283.55
531.28	39854.64
531.46	40229.13
531.63	40027.84
531.80	40107.42
531.97	39929.54
532.14	39395.90
532.31	39386.54
532.48	39541.01
532.65	39849.96
532.82	39962.31
532.99	39597.18
533.16	39821.87
533.33	40514.67
533.50	40367.22
533.67	40788.52
533.84	40156.57
534.01	40458.50
534.18	40404.67
534.35	40687.87
534.52	40577.87
534.69	40662.13
534.86	40685.53
535.03	40711.28
535.20	41134.92
535.37	41464.93
535.54	41322.16
535.71	40947.67
535.88	41062.36
536.05	40793.20
536.22	41013.21
536.38	40842.35
536.55	40720.64
536.72	40573.19
536.89	40678.51
537.06	40966.40
537.23	41305.77
537.40	40907.88
537.57	41163.00
537.74	41294.07
537.91	41422.80
538.08	41624.09
538.25	41233.22
538.42	41359.61
538.59	41670.90
538.75	41118.53
538.92	41565.57
539.09	41677.92
539.26	41656.85
539.43	41464.93
539.60	41757.50
539.77	41621.75
539.94	41823.03
540.11	41586.64
540.28	41495.36
540.44	41769.20
540.61	41647.49
540.78	41567.91
540.95	42359.02
541.12	41928.36
541.29	41881.55
541.46	41918.99
541.62	42234.97
541.79	42373.06
541.96	42103.90
542.13	42115.60
542.30	41921.34
542.47	42602.43
542.63	42490.09
542.80	42213.90
542.97	42895.00
543.14	42796.70
543.31	42934.79
543.48	42864.57
543.64	43480.13
543.81	43335.02
543.98	43187.56
544.15	42590.73
544.32	43337.36
544.48	43131.39
544.65	43309.27
544.82	42997.98
544.99	43201.61
545.16	43398.21
545.32	43068.20
545.49	43878.02
545.66	43840.57
545.83	44140.16
546.00	44210.38
546.16	43381.83
546.33	43335.02
546.50	43194.59
546.67	43571.41
546.83	43180.54
547.00	43442.68
547.17	43335.02
547.34	43550.35
547.50	43849.94
547.67	43763.34
547.84	43552.69
548.00	43775.04
548.17	44107.40
548.34	44032.50
548.51	44205.70
548.67	44292.30
548.84	43985.69
549.01	43854.62
549.18	44058.24
549.34	43936.54
549.51	44083.99
549.68	44325.07
549.84	44268.89
550.01	44573.16
550.18	44423.37
550.34	44381.24
550.51	44428.05
550.68	44311.02
550.84	43981.01
551.01	44339.11
551.18	44397.62
551.34	44481.88
551.51	44568.48
551.68	44959.35
551.84	44339.11
552.01	44737.00
552.18	44556.78
552.34	44105.06
552.51	44531.03
552.68	44664.44
552.84	44907.86
553.01	45436.82
553.18	44978.07
553.34	44683.17
553.51	44547.42
553.67	44971.05
553.84	44849.35
554.01	44720.62
554.17	44973.39
554.34	45551.51
554.51	44828.28
554.67	44861.05
554.84	45001.48
555.00	44554.44
555.17	44790.83
555.33	45038.93
555.50	44868.07
555.67	45174.68
555.83	44772.11
556.00	45244.90
556.16	45284.68
556.33	44980.42
556.50	45301.07
556.66	44938.29
556.83	45034.25
556.99	45095.10
557.16	45345.54
557.32	45773.86
557.49	45872.16
557.65	45113.83
557.82	45214.47
557.98	45303.41
558.15	45390.01
558.32	45453.20
558.48	45399.37
558.65	45235.53
558.81	44907.86
558.98	45282.34
559.14	45294.05
559.31	45298.73
559.47	45968.12
559.64	45628.74
559.80	45628.74
559.97	45495.33
560.13	45162.98
560.30	45874.50
560.46	45715.34
560.63	45537.46
560.79	45675.55
560.96	46225.58
561.12	45642.79
561.29	45745.77
561.45	45827.69
561.61	45806.62
561.78	45455.54
561.94	45825.35
562.11	45289.37
562.27	45668.53
562.44	45411.07
562.60	45677.90
562.77	45921.31
562.93	46075.79
563.10	46120.26
563.26	45036.59
563.42	45846.41
563.59	45867.48
563.75	45698.96
563.92	46241.96
564.08	45895.56
564.24	45902.59
564.41	46033.66
564.57	45659.17
564.74	45886.20
564.90	45633.42
565.07	45991.53
565.23	45654.49
565.39	46003.23
565.56	45925.99
565.72	45680.24
565.88	45769.18
566.05	46127.28
566.21	46230.26
566.38	45682.58
566.54	45813.65
566.70	46113.23
566.87	46506.44
567.03	45738.75
567.19	46637.51
567.36	46148.34
567.52	46167.07
567.68	45881.52
567.85	46129.62
568.01	46504.10
568.17	45783.22
568.34	46209.20
568.50	45930.67
568.66	46052.38
568.83	45963.44
568.99	45638.11
569.15	46045.36
569.32	45851.09
569.48	46005.57
569.64	46007.91
569.81	46349.63
569.97	46286.43
570.13	46534.53
570.30	45937.69
570.46	46164.73
570.62	45776.20
570.78	45961.10
570.95	45886.20
571.11	46349.63
571.27	46167.07
571.43	46225.58
571.60	46246.65
571.76	46330.90
571.92	46223.24
572.09	46108.55
572.25	46017.27
572.41	46366.01
572.57	46532.19
572.74	46625.81
572.90	46431.55
573.06	46108.55
573.22	46134.30
573.38	46183.45
573.55	46059.40
573.71	46752.20
573.87	46312.18
574.03	46473.68
574.20	46719.43
574.36	46445.59
574.52	46270.05
574.68	46436.23
574.84	46536.87
575.01	46284.09
575.17	46476.02
575.33	45851.09
575.49	46047.70
575.65	46171.75
575.82	46536.87
575.98	46068.76
576.14	46515.81
576.30	46611.77
576.46	46199.83
576.62	46394.10
576.79	46485.38
576.95	45921.31
577.11	46237.28
577.27	46160.05
577.43	46248.99
577.59	46141.32
577.75	46263.03
577.92	45808.96
578.08	46000.89
578.24	46279.41
578.40	46178.77
578.56	46211.54
578.72	46494.74
578.88	46520.49
579.04	46763.90
579.21	46270.05
579.37	46344.95
579.53	46546.23
579.69	46356.65
579.85	46354.31
580.01	46653.90
580.17	46506.44
580.33	46389.42
580.49	46272.39
580.65	46515.81
580.82	46469.00
580.98	46424.53
581.14	46366.01
581.30	46721.77
581.46	46691.35
581.62	46906.68
581.78	46651.56
581.94	46773.27
582.10	46064.08
582.26	46590.70
582.42	46717.09
582.58	46263.03
582.74	46426.87
582.90	46363.67
583.06	46333.24
583.22	46583.68
583.38	46808.37
583.54	46527.51
583.70	46735.82
583.86	46686.67
584.02	46380.06
584.18	46740.50
584.34	46588.36
584.50	46663.26
584.66	46312.18
584.82	46316.86
584.98	46602.41
585.14	46344.95
585.30	46487.72
585.46	46440.91
585.62	46316.86
585.78	45968.12
585.94	45820.67
586.10	46515.81
586.26	46513.47
586.42	46796.67
586.58	46684.33
586.74	46836.46
586.90	46335.59
587.06	46344.95
587.22	46735.82
587.38	46408.14
587.54	46497.08
587.70	46525.17
587.86	46564.96
588.02	46419.84
588.18	46576.66
588.34	46113.23
588.49	45874.50
588.65	45755.13
588.81	45743.43
588.97	46078.13
589.13	46005.57
589.29	46155.36
589.45	46415.16
589.61	46534.53
589.77	46885.61
589.93	46588.36
