SpectraSuite Data File
++++++++++++++++++++++++++++++++++++
Date: Fri Oct 25 10:43:43 EDT 2013
User: price-jones
Dark Spectrum Present: No
Reference Spectrum Present: No
Number of Sampled Component Spectra: 1
Spectrometers: USB2+H05261
Integration Time (usec): 100000 (USB2+H05261)
Spectra Averaged: 1 (USB2+H05261)
Boxcar Smoothing: 0 (USB2+H05261)
Correct for Electrical Dark: No (USB2+H05261)
Strobe/Lamp Enabled: No (USB2+H05261)
Correct for Detector Non-linearity: No (USB2+H05261)
Correct for Stray Light: No (USB2+H05261)
Number of Pixels in Processed Spectrum: 2048
>>>>>Begin Processed Spectral Data<<<<<
365.73	91.28
365.92	91.28
366.12	91.28
366.32	49.15
366.52	25.75
366.72	39.79
366.91	56.17
367.11	37.45
367.31	32.77
367.51	0.00
367.70	21.06
367.90	0.00
368.10	0.00
368.30	0.00
368.49	0.00
368.69	25.75
368.89	37.45
369.09	37.45
369.28	84.26
369.48	65.54
369.68	56.17
369.87	159.16
370.07	133.41
370.27	117.03
370.47	227.03
370.66	365.12
370.86	390.87
371.06	411.93
371.25	451.72
371.45	465.77
371.65	395.55
371.84	451.72
372.04	465.77
372.24	526.62
372.44	482.15
372.63	510.24
372.83	554.71
373.03	498.53
373.22	489.17
373.42	561.73
373.62	554.71
373.81	533.64
374.01	479.81
374.21	514.92
374.40	573.43
374.60	559.39
374.79	603.86
374.99	589.82
375.19	587.47
375.38	610.88
375.58	685.78
375.78	608.54
375.97	587.47
376.17	631.94
376.37	624.92
376.56	645.99
376.76	550.03
376.95	592.16
377.15	587.47
377.35	657.69
377.54	592.16
377.74	660.03
377.93	634.29
378.13	681.10
378.33	589.82
378.52	657.69
378.72	699.82
378.91	720.88
379.11	716.20
379.31	648.33
379.50	657.69
379.70	596.84
379.89	650.67
380.09	627.26
380.28	678.76
380.48	690.46
380.68	676.41
380.87	653.01
381.07	692.80
381.26	723.23
381.46	669.39
381.65	734.93
381.85	634.29
382.04	648.33
382.24	711.52
382.43	709.18
382.63	681.10
382.83	725.57
383.02	709.18
383.22	744.29
383.41	599.18
383.61	720.88
383.80	697.48
384.00	840.25
384.19	753.65
384.39	779.40
384.58	779.40
384.78	748.97
384.97	875.36
385.17	781.74
385.36	739.61
385.56	823.87
385.75	788.76
385.95	755.99
386.14	819.19
386.34	734.93
386.53	873.02
386.72	875.36
386.92	844.93
387.11	875.36
387.31	837.91
387.50	842.59
387.70	910.47
387.89	896.43
388.09	924.51
388.28	812.17
388.48	889.40
388.67	1029.84
388.86	945.58
389.06	922.17
389.25	898.77
389.45	968.98
389.64	891.74
389.84	994.73
390.03	1004.09
390.22	1018.13
390.42	994.73
390.61	947.92
390.81	992.39
391.00	973.66
391.19	1013.45
391.39	987.71
391.58	1095.37
391.78	1135.16
391.97	1011.11
392.16	1015.79
392.36	1069.62
392.55	1015.79
392.75	968.98
392.94	964.30
393.13	952.60
393.33	999.41
393.52	990.05
393.71	1111.75
393.91	1114.10
394.10	1142.18
394.29	1165.59
394.49	1107.07
394.68	1221.76
394.88	1165.59
395.07	1191.33
395.26	1371.55
395.46	1252.19
395.65	1153.88
395.84	1181.97
396.04	1205.38
396.23	1210.06
396.42	1095.37
396.62	1153.88
396.81	1252.19
397.00	1184.31
397.19	1280.27
397.39	1397.30
397.58	1394.96
397.77	1362.19
397.97	1409.00
398.16	1387.94
398.35	1334.11
398.55	1500.28
398.74	1469.86
398.93	1558.80
399.12	1462.83
399.32	1343.47
399.51	1533.05
399.70	1521.35
399.90	1619.65
400.09	1544.75
400.28	1659.44
400.47	1582.20
400.67	1696.89
400.86	1617.31
401.05	1659.44
401.24	1706.25
401.44	1668.80
401.63	1701.57
401.82	1689.87
402.01	1666.46
402.21	1750.72
402.40	1748.38
402.59	1682.85
402.78	1668.80
402.97	1762.42
403.17	1764.76
403.36	1769.44
403.55	1827.96
403.74	1802.21
403.93	1928.60
404.13	1839.66
404.32	1856.04
404.51	1853.70
404.70	1895.83
404.89	1884.13
405.09	1944.99
405.28	1949.67
405.47	1940.30
405.66	1886.47
405.85	2111.16
406.05	1970.73
406.24	2022.22
406.43	2073.71
406.62	2043.29
406.81	2047.97
407.00	2040.95
407.20	2012.86
407.39	2120.53
407.58	2134.57
407.77	2160.31
407.96	2195.42
408.15	2214.15
408.34	2207.13
408.54	2150.95
408.73	2296.07
408.92	2272.66
409.11	2312.45
409.30	2303.09
409.49	2258.62
409.68	2172.02
409.87	2293.72
410.07	2216.49
410.26	2410.75
410.45	2338.20
410.64	2413.09
410.83	2504.37
411.02	2464.58
411.21	2560.55
411.40	2609.70
411.59	2612.04
411.78	2626.08
411.98	2614.38
412.17	2726.72
412.36	2719.70
412.55	2766.51
412.74	2773.53
412.93	2733.75
413.12	2712.68
413.31	2885.88
413.50	2864.82
413.69	2832.05
413.88	2796.94
414.07	2991.20
414.26	2902.26
414.45	2846.09
414.64	2916.31
414.83	3012.27
415.02	3136.32
415.22	3005.25
415.41	2937.37
415.60	3026.31
415.79	3197.17
415.98	3276.75
416.17	3316.54
416.36	3131.64
416.55	3138.66
416.74	3325.90
416.93	3192.49
417.12	3372.71
417.31	3403.14
417.50	3403.14
417.69	3435.91
417.88	3527.19
418.07	3421.86
418.26	3396.12
418.45	3353.99
418.64	3520.17
418.83	3478.04
419.02	3562.30
419.21	3599.74
419.39	3435.91
419.58	3644.21
419.77	3487.40
419.96	3543.57
420.15	3648.90
420.34	3740.18
420.53	3627.83
420.72	3850.18
420.91	3833.80
421.10	3660.60
421.29	3911.04
421.48	3833.80
421.67	3838.48
421.86	3833.80
422.05	3779.97
422.24	3812.73
422.43	3742.52
422.61	3852.52
422.80	3922.74
422.99	4037.42
423.18	3906.35
423.37	3932.10
423.56	3864.22
423.75	3936.78
423.94	3864.22
424.13	3632.51
424.32	3660.60
424.50	3808.05
424.69	3978.91
424.88	4058.49
425.07	3843.16
425.26	3880.61
425.45	3857.20
425.64	3955.51
425.83	3939.12
426.01	3976.57
426.20	4011.68
426.39	3967.21
426.58	3934.44
426.77	4093.60
426.96	3911.04
427.15	3955.51
427.33	4021.04
427.52	4021.04
427.71	4098.28
427.90	4219.99
428.09	4154.45
428.28	4234.03
428.46	4147.43
428.65	4037.42
428.84	4163.81
429.03	4241.05
429.22	4142.75
429.40	4245.73
429.59	4086.58
429.78	4060.83
429.97	3922.74
430.16	4044.45
430.34	4180.20
430.53	4269.14
430.72	4128.70
430.91	4196.58
431.10	4344.03
431.28	4496.17
431.47	4578.09
431.66	4706.82
431.85	4547.66
432.03	4477.44
432.22	4596.81
432.41	4505.53
432.60	4709.16
432.79	4751.29
432.97	4629.58
433.16	4702.14
433.35	4704.48
433.54	4713.84
433.72	4685.75
433.91	4669.37
434.10	4681.07
434.28	4718.52
434.47	4762.99
434.66	4844.91
434.85	5008.75
435.03	4875.34
435.22	4954.91
435.41	4985.34
435.59	5050.88
435.78	4983.00
435.97	5165.56
436.16	5093.01
436.34	4980.66
436.53	5076.62
436.72	5172.58
436.90	5034.49
437.09	5172.58
437.28	5039.17
437.46	5036.83
437.65	5041.51
437.84	5177.26
438.02	5069.60
438.21	5160.88
438.40	4940.87
438.58	5198.33
438.77	5313.02
438.96	5383.23
439.14	5556.43
439.33	5696.86
439.52	5621.97
439.70	5533.03
439.89	5638.35
440.08	5671.12
440.26	5755.38
440.45	5692.18
440.63	5865.38
440.82	5949.64
441.01	5841.98
441.19	5951.98
441.38	6111.14
441.57	5987.09
441.75	6164.97
441.94	6181.35
442.12	6267.95
442.31	6401.37
442.50	6242.21
442.68	6232.85
442.87	6197.74
443.05	6326.47
443.24	6249.23
443.43	6335.83
443.61	6450.52
443.80	6682.23
443.98	6359.24
444.17	6104.12
444.35	6574.56
444.54	6612.01
444.73	6576.91
444.91	6518.39
445.10	6382.64
445.28	6443.49
445.47	6319.45
445.65	6333.49
445.84	6473.92
446.02	6504.35
446.21	6567.54
446.39	6483.28
446.58	6864.79
446.77	6647.12
446.95	6586.27
447.14	6686.91
447.32	6794.58
447.51	6665.85
447.69	6506.69
447.88	6670.53
448.06	6754.79
448.25	6642.44
448.43	6747.76
448.62	6595.63
448.80	6661.16
448.99	6827.34
449.17	6906.92
449.36	6722.02
449.54	6977.14
449.73	7098.84
449.91	7082.46
450.10	6918.62
450.28	7138.63
450.46	7145.66
450.65	7070.76
450.83	7152.68
451.02	7260.34
451.20	7183.10
451.39	7297.79
451.57	7204.17
451.76	7002.88
451.94	7260.34
452.13	7279.07
452.31	7119.91
452.49	6862.45
452.68	7325.88
452.86	7159.70
453.05	7208.85
453.23	7318.86
453.42	7227.57
453.60	7365.67
453.78	7274.38
453.97	7243.96
454.15	7276.73
454.34	7325.88
454.52	7377.37
454.70	7662.91
454.89	7325.88
455.07	7447.58
455.26	7541.21
455.44	7669.94
455.62	7634.83
455.81	7494.40
455.99	7808.03
456.17	7908.67
456.36	7960.16
456.54	7873.56
456.73	7913.35
456.91	8093.57
457.09	8002.29
457.28	8049.10
457.46	7915.69
457.64	8037.40
457.83	8119.32
458.01	8135.70
458.19	8205.92
458.38	8126.34
458.56	8161.45
458.74	8219.96
458.93	8327.63
459.11	8166.13
459.29	8271.45
459.48	8259.75
459.66	8201.24
459.84	8372.10
460.03	8519.55
460.21	8379.12
460.39	8381.46
460.57	8671.68
460.76	8624.87
460.94	8692.75
461.12	8713.81
461.31	8547.64
461.49	8528.91
461.67	8554.66
461.85	8858.93
462.04	8777.01
462.22	9254.48
462.40	9032.13
462.59	8938.51
462.77	8997.02
462.95	9165.54
463.13	8814.46
463.32	8718.50
463.50	8975.95
463.68	8751.26
463.86	8870.63
464.05	8798.07
464.23	8821.48
464.41	9020.42
464.59	8987.66
464.78	9046.17
464.96	8994.68
465.14	8835.52
465.32	9067.24
465.50	9200.65
465.69	9172.56
465.87	9067.24
466.05	9137.45
466.23	8908.08
466.41	9130.43
466.60	9413.63
466.78	9046.17
466.96	9188.94
467.14	9104.68
467.32	9315.33
467.51	9490.87
467.69	8858.93
467.87	9399.59
468.05	9401.93
468.23	9579.81
468.41	9404.27
468.60	9397.25
468.78	9675.77
468.96	9495.55
469.14	9575.13
469.32	9537.68
469.50	9570.45
469.69	9577.47
469.87	9738.97
470.05	9785.78
470.23	9755.35
470.41	9631.30
470.59	9874.72
470.77	9944.94
470.95	10115.80
471.14	10059.62
471.32	10031.54
471.50	10024.51
471.68	10204.74
471.86	10195.37
472.04	10452.83
472.22	10569.86
472.40	10186.01
472.58	10321.76
472.77	10457.51
472.95	10520.71
473.13	10759.44
473.31	10445.81
473.49	10619.01
473.67	10471.56
473.85	10705.61
474.03	10738.38
474.21	11035.63
474.39	11131.59
474.57	10991.16
474.75	10977.11
474.93	11293.08
475.12	11222.87
475.30	11096.48
475.48	11059.03
475.66	11407.77
475.84	11185.42
476.02	11295.43
476.20	11346.92
476.38	11548.20
476.56	11943.75
476.74	11639.48
476.92	11740.13
477.10	11857.15
477.28	11988.22
477.46	11843.11
477.64	12491.44
477.82	12484.42
478.00	12304.20
478.18	12152.06
478.36	12521.87
478.54	12531.23
478.72	12755.92
478.90	12442.29
479.08	13111.68
479.26	13099.98
479.44	12936.14
479.62	13235.73
479.80	13177.22
479.98	13228.71
480.16	13380.84
480.34	13654.69
480.52	13926.19
480.70	13441.70
480.88	13418.29
481.06	13764.69
481.24	13891.08
481.41	14342.80
481.59	14595.58
481.77	14354.51
481.95	14424.72
482.13	14382.59
482.31	14778.14
482.49	14654.09
482.67	15054.33
482.85	14665.80
483.03	15246.25
483.21	15147.95
483.39	15461.58
483.57	15255.61
483.74	15346.89
483.92	15463.92
484.10	15122.20
484.28	15885.22
484.46	16095.86
484.64	16386.09
484.82	16077.14
485.00	16081.82
485.18	16264.38
485.35	16484.39
485.53	16248.00
485.71	16152.04
485.89	16362.69
486.07	16112.25
486.25	16645.89
486.43	16720.79
486.61	17039.10
486.78	17338.69
486.96	17298.90
487.14	17612.53
487.32	17628.92
487.50	17937.87
487.68	18368.52
487.85	18164.90
488.03	18443.42
488.21	18164.90
488.39	18724.29
488.57	18618.96
488.75	18869.40
488.92	18904.51
489.10	19346.87
489.28	19381.98
489.46	19555.18
489.64	19854.76
489.81	20219.89
489.99	20311.17
490.17	19840.72
490.35	20423.51
490.53	20486.71
490.70	20294.79
490.88	20428.20
491.06	20699.70
491.24	20697.36
491.41	20671.61
491.59	20702.04
491.77	20711.40
491.95	21092.91
492.13	20900.98
492.30	21451.01
492.48	21586.76
492.66	21694.43
492.84	21675.70
493.01	21764.64
493.19	21809.11
493.37	22059.55
493.54	22286.58
493.72	22384.88
493.90	22494.89
494.08	22696.17
494.25	23257.90
494.43	23183.01
494.61	23393.65
494.79	23271.95
494.96	23360.89
495.14	23751.76
495.32	23557.49
495.49	23463.87
495.67	23700.26
495.85	24027.94
496.02	24156.67
496.20	24196.46
496.38	24676.27
496.55	24489.03
496.73	24989.90
496.91	24582.65
497.09	24802.66
497.26	25074.16
497.44	24737.12
497.62	25142.03
497.79	25144.38
497.97	24809.68
498.14	25130.33
498.32	25357.36
498.50	25450.99
498.67	25993.99
498.85	26118.04
499.03	25888.67
499.20	25781.00
499.38	26132.08
499.56	26223.36
499.73	26476.14
499.91	26700.83
500.08	26419.97
500.26	26267.83
500.44	26356.77
500.61	26314.64
500.79	26632.96
500.97	26787.43
501.14	27044.89
501.32	26637.64
501.49	27152.55
501.67	27218.09
501.84	27229.79
502.02	26888.07
502.20	27082.34
502.37	27637.05
502.55	27651.09
502.72	27866.42
502.90	27702.58
503.07	27805.56
503.25	28329.84
503.43	27805.56
503.60	27747.05
503.78	28034.94
503.95	27971.74
504.13	28350.91
504.30	28678.58
504.48	28390.70
504.65	28753.48
504.83	28856.46
505.01	29034.35
505.18	29134.99
505.36	28973.49
505.53	29083.50
505.71	29502.45
505.88	29652.25
506.06	29001.58
506.23	29741.19
506.41	29420.53
506.58	29874.60
506.76	30033.75
506.93	29820.77
507.11	29996.31
507.28	29949.50
507.46	29907.37
507.63	30045.46
507.81	29958.86
507.98	30263.13
508.16	30225.68
508.33	30843.58
508.50	30764.00
508.68	30874.01
508.85	30806.13
509.03	30581.44
509.20	30852.94
509.38	31178.28
509.55	31314.03
509.73	30976.99
509.90	30892.73
510.08	31072.95
510.25	30859.96
510.42	31337.43
510.60	31768.09
510.77	31529.36
510.95	31662.77
511.12	31861.71
511.30	31770.43
511.47	32128.53
511.64	32566.21
511.82	32355.57
511.99	32023.21
512.17	32589.62
512.34	32301.73
512.51	32575.58
512.69	32177.68
512.86	32397.70
513.04	32739.41
513.21	32783.88
513.38	32929.00
513.56	32996.87
513.73	32570.90
513.90	33195.82
514.08	33362.00
514.25	33406.47
514.43	32929.00
514.60	33228.59
514.77	33509.45
514.95	33399.44
515.12	33762.23
515.29	33563.28
515.47	33600.73
515.64	34136.71
515.81	33900.32
515.99	33799.68
516.16	33684.99
516.33	33359.66
516.51	33329.23
516.68	33167.73
516.85	33474.34
517.03	33521.15
517.20	33954.15
517.37	34099.26
517.54	34265.44
517.72	33865.21
517.89	33497.75
518.06	33792.65
518.24	33928.41
518.41	34569.71
518.58	34281.83
518.75	34384.81
518.93	34579.07
519.10	34085.22
519.27	34848.24
519.45	34850.58
519.62	35143.14
519.79	35236.77
519.96	35033.14
520.14	35438.05
520.31	35304.64
520.48	35489.54
520.65	35463.80
520.83	35793.81
521.00	35679.13
521.17	35929.56
521.34	35571.46
521.52	35828.92
521.69	36170.64
521.86	36055.95
522.03	36133.19
522.20	36011.48
522.38	36540.44
522.55	36098.08
522.72	36285.33
522.89	36404.69
523.07	36542.78
523.24	36474.91
523.41	36882.16
523.58	36470.23
523.75	37467.30
523.92	36943.02
524.10	37003.87
524.27	37584.32
524.44	36795.56
524.61	37453.25
524.78	37127.92
524.96	37329.20
525.13	37275.37
525.30	37495.38
525.47	37706.03
525.64	37408.78
525.81	37462.61
525.98	37038.98
526.16	37153.66
526.33	37324.52
526.50	37085.79
526.67	37053.02
526.84	37041.32
527.01	37226.22
527.18	37354.95
527.36	37787.95
527.53	38061.79
527.70	38436.28
527.87	38052.43
528.04	38075.84
528.21	38328.61
528.38	38213.93
528.55	38501.81
528.72	38749.91
528.89	38883.32
529.07	38132.01
529.24	38134.35
529.41	38848.21
529.58	37890.93
529.75	38632.88
529.92	38569.69
530.09	39196.95
530.26	38724.16
530.43	39309.30
530.60	38871.62
530.77	39126.74
530.94	39704.85
531.11	39089.29
531.28	39290.57
531.46	39498.88
531.63	39463.77
531.80	39276.53
531.97	39189.93
532.14	39913.16
532.31	39335.04
532.48	39522.29
532.65	39445.05
532.82	39431.01
532.99	39875.71
533.16	39381.85
533.33	39606.55
533.50	39915.50
533.67	40025.50
533.84	39498.88
534.01	40297.00
534.18	39913.16
534.35	40236.15
534.52	40170.61
534.69	40046.57
534.86	40659.79
535.03	40446.80
535.20	40713.62
535.37	40863.41
535.54	41015.55
535.71	40671.49
535.88	40744.05
536.05	40549.78
536.22	40711.28
536.38	40776.81
536.55	40435.10
536.72	40409.35
536.89	40416.37
537.06	40306.37
537.23	41179.39
537.40	41163.00
537.57	41268.33
537.74	40896.18
537.91	41432.16
538.08	41144.28
538.25	40790.86
538.42	41137.26
538.59	41406.42
538.75	40882.14
538.92	41151.30
539.09	41301.09
539.26	41202.79
539.43	41085.76
539.60	41347.90
539.77	41291.73
539.94	41315.14
540.11	41165.34
540.28	41041.29
540.44	41694.30
540.61	41474.29
540.78	40751.07
540.95	41528.13
541.12	41563.23
541.29	41846.44
541.46	41514.08
541.62	41610.04
541.79	41787.92
541.96	41193.43
542.13	41535.15
542.30	42033.68
542.47	42061.77
542.63	42024.32
542.80	42241.99
542.97	42373.06
543.14	42478.38
543.31	42476.04
543.48	42494.77
543.64	42679.67
543.81	42855.21
543.98	42824.78
544.15	42623.50
544.32	42810.74
544.48	43051.81
544.65	42876.27
544.82	42719.46
544.99	42588.39
545.16	43009.68
545.32	42843.51
545.49	43274.16
545.66	43430.98
545.83	42698.39
546.00	43571.41
546.16	43243.74
546.33	43044.79
546.50	42958.19
546.67	43725.89
546.83	42696.05
547.00	43194.59
547.17	42951.17
547.34	43126.71
547.50	42986.28
547.67	43426.30
547.84	43138.41
548.00	44126.12
548.17	43852.28
548.34	43393.53
548.51	43828.87
548.67	44051.22
548.84	44069.95
549.01	43297.57
549.18	43356.08
549.34	43590.14
549.51	43768.02
549.68	43971.64
549.84	44086.33
550.01	44130.80
550.18	43583.12
550.34	44201.02
550.51	43882.70
550.68	43739.93
550.84	43531.62
551.01	44144.84
551.18	43611.20
551.34	43683.76
551.51	44463.16
551.68	44198.68
551.84	44004.41
552.01	44182.29
552.18	43723.55
552.34	43878.02
552.51	44243.15
552.68	44332.09
552.84	44481.88
553.01	44432.73
553.18	44280.60
553.34	44299.32
553.51	44102.71
553.67	44395.28
553.84	44641.04
554.01	44556.78
554.17	44645.72
554.34	44830.62
554.51	44739.34
554.67	45062.33
554.84	44252.51
555.00	44198.68
555.17	44594.23
555.33	44800.19
555.50	44762.75
555.67	44425.71
555.83	44535.71
556.00	44577.84
556.16	45586.61
556.33	44776.79
556.50	45109.14
556.66	44966.37
556.83	44266.55
556.99	44601.25
557.16	44992.12
557.32	44781.47
557.49	45422.78
557.65	44996.80
557.82	44828.28
557.98	44889.13
558.15	45251.92
558.32	45027.23
558.48	44381.24
558.65	44851.69
558.81	44664.44
558.98	44664.44
559.14	45083.40
559.31	44933.60
559.47	44643.38
559.64	45165.32
559.80	45095.10
559.97	45230.85
560.13	45160.64
560.30	45069.36
560.46	45291.71
560.63	45111.49
560.79	45523.42
560.96	45670.87
561.12	45397.03
561.29	44797.85
561.45	45284.68
561.61	45174.68
561.78	45186.38
561.94	45296.39
562.11	44893.82
562.27	45216.81
562.44	45411.07
562.60	46136.64
562.77	45434.48
562.93	45127.87
563.10	45631.08
563.26	44739.34
563.42	45280.00
563.59	45401.71
563.75	45595.98
563.92	45518.74
564.08	45537.46
564.24	45572.57
564.41	45315.11
564.57	45642.79
564.74	45251.92
564.90	45294.05
565.07	45621.72
565.23	45373.63
565.39	45565.55
565.56	45539.80
565.72	45425.12
565.88	45352.56
566.05	45336.18
566.21	45483.63
566.38	45787.90
566.54	45911.95
566.70	45848.75
566.87	45666.19
567.03	46043.02
567.19	45607.68
567.36	45928.33
567.52	45420.44
567.68	45940.04
567.85	45696.62
568.01	45691.94
568.17	45530.44
568.34	45436.82
568.50	45762.15
568.66	45766.84
568.83	45514.06
568.99	45261.28
569.15	45804.28
569.32	45741.09
569.48	45469.59
569.64	45923.65
569.81	45738.75
569.97	45364.26
570.13	45586.61
570.30	45570.23
570.46	45422.78
570.62	45614.70
570.78	45429.80
570.95	45888.54
571.11	45485.97
571.27	45485.97
571.43	45036.59
571.60	45921.31
571.76	45605.34
571.92	46110.89
572.09	46014.93
572.25	46089.83
572.41	45612.36
572.57	46108.55
572.74	46045.36
572.90	45930.67
573.06	46028.98
573.22	46012.59
573.38	45305.75
573.55	45511.72
573.71	46129.62
573.87	46146.00
574.03	45572.57
574.20	46138.98
574.36	45907.27
574.52	45771.52
574.68	45834.71
574.84	45801.94
575.01	46124.94
575.17	45680.24
575.33	45429.80
575.49	45600.66
575.65	46272.39
575.82	45572.57
575.98	46295.80
576.14	46181.11
576.30	46115.58
576.46	45823.01
576.62	45750.45
576.79	45624.06
576.95	45907.27
577.11	45813.65
577.27	45750.45
577.43	46150.68
577.59	45588.95
577.75	45516.40
577.92	45759.81
578.08	45574.91
578.24	46026.63
578.40	45918.97
578.56	45918.97
578.72	45656.83
578.88	46384.74
579.04	46347.29
579.21	45500.01
579.37	45907.27
579.53	45986.85
579.69	45759.81
579.85	45942.38
580.01	46131.96
580.17	46005.57
580.33	45755.13
580.49	46169.41
580.65	46232.60
580.82	45958.76
580.98	45827.69
581.14	45998.55
581.30	45909.61
581.46	46202.18
581.62	46300.48
581.78	46010.25
581.94	46380.06
582.10	45689.60
582.26	46408.14
582.42	46122.60
582.58	46124.94
582.74	45860.46
582.90	46082.81
583.06	46567.30
583.22	46370.69
583.38	46337.93
583.54	46490.06
583.70	45972.80
583.86	46012.59
584.02	45925.99
584.18	45879.18
584.34	45787.90
584.50	45804.28
584.66	46199.83
584.82	45808.96
584.98	46349.63
585.14	46450.27
585.30	45617.04
585.46	46344.95
585.62	45682.58
585.78	45858.12
585.94	46174.09
586.10	46225.58
586.26	45801.94
586.42	46314.52
586.58	46178.77
586.74	45998.55
586.90	46021.95
587.06	46274.73
587.22	46085.15
587.38	45916.63
587.54	46204.52
587.70	46326.22
587.86	46450.27
588.02	45720.02
588.18	46623.47
588.34	45872.16
588.49	45546.82
588.65	45928.33
588.81	45633.42
588.97	45572.57
589.13	46064.08
589.29	45956.42
589.45	46134.30
589.61	46419.84
589.77	46548.57
589.93	46206.86
590.08	46646.88
