SpectraSuite Data File
++++++++++++++++++++++++++++++++++++
Date: Fri Oct 25 11:25:46 EDT 2013
User: price-jones
Dark Spectrum Present: No
Reference Spectrum Present: No
Number of Sampled Component Spectra: 1
Spectrometers: USB2+H05261
Integration Time (usec): 100000 (USB2+H05261)
Spectra Averaged: 1 (USB2+H05261)
Boxcar Smoothing: 0 (USB2+H05261)
Correct for Electrical Dark: No (USB2+H05261)
Strobe/Lamp Enabled: No (USB2+H05261)
Correct for Detector Non-linearity: No (USB2+H05261)
Correct for Stray Light: No (USB2+H05261)
Number of Pixels in Processed Spectrum: 2048
>>>>>Begin Processed Spectral Data<<<<<
365.73	224.69
365.92	224.69
366.12	224.69
366.32	208.31
366.52	126.39
366.72	177.88
366.91	110.01
367.11	147.45
367.31	161.50
367.51	170.86
367.70	156.82
367.90	147.45
368.10	180.22
368.30	163.84
368.49	168.52
368.69	161.50
368.89	154.48
369.09	177.88
369.28	217.67
369.48	147.45
369.68	163.84
369.87	175.54
370.07	180.22
370.27	187.24
370.47	252.78
370.66	638.97
370.86	653.01
371.06	594.50
371.25	767.70
371.45	657.69
371.65	660.03
371.84	690.46
372.04	631.94
372.24	725.57
372.44	678.76
372.63	772.38
372.83	678.76
373.03	807.48
373.22	744.29
373.42	786.42
373.62	723.23
373.81	746.63
374.01	798.12
374.21	795.78
374.40	779.40
374.60	840.25
374.79	833.23
374.99	802.80
375.19	854.30
375.38	844.93
375.58	784.08
375.78	912.81
375.97	901.11
376.17	828.55
376.37	858.98
376.56	833.23
376.76	919.83
376.95	938.55
377.15	917.49
377.35	861.32
377.54	961.96
377.74	898.77
377.93	898.77
378.13	952.60
378.33	903.45
378.52	908.13
378.72	933.87
378.91	1006.43
379.11	924.51
379.31	912.81
379.50	917.49
379.70	954.94
379.89	1029.84
380.09	945.58
380.28	924.51
380.48	1057.92
380.68	933.87
380.87	947.92
381.07	1097.71
381.26	1029.84
381.46	1001.75
381.65	973.66
381.85	1163.25
382.04	1032.18
382.24	1004.09
382.43	1048.56
382.63	1032.18
382.83	1036.86
383.02	1069.62
383.22	1158.57
383.41	1008.77
383.61	1097.71
383.80	1102.39
384.00	1036.86
384.19	1135.16
384.39	1086.01
384.58	1095.37
384.78	1123.46
384.97	1137.50
385.17	1111.75
385.36	1114.10
385.56	1170.27
385.75	1242.82
385.95	1137.50
386.14	1146.86
386.34	1277.93
386.53	1203.04
386.72	1217.08
386.92	1294.32
387.11	1287.29
387.31	1345.81
387.50	1217.08
387.70	1306.02
387.89	1289.64
388.09	1219.42
388.28	1303.68
388.48	1289.64
388.67	1308.36
388.86	1177.29
389.06	1263.89
389.25	1357.51
389.45	1371.55
389.64	1364.53
389.84	1418.36
390.03	1341.13
390.22	1350.49
390.42	1355.17
390.61	1355.17
390.81	1404.32
391.00	1397.30
391.19	1542.41
391.39	1373.89
391.58	1413.68
391.78	1474.54
391.97	1479.22
392.16	1500.28
392.36	1605.61
392.55	1504.96
392.75	1535.39
392.94	1481.56
393.13	1643.06
393.33	1490.92
393.52	1504.96
393.71	1556.46
393.91	1582.20
394.10	1586.88
394.29	1603.27
394.49	1631.35
394.68	1661.78
394.88	1687.53
395.07	1736.68
395.26	1687.53
395.46	1659.44
395.65	1678.16
395.84	1748.38
396.04	1727.32
396.23	1727.32
396.42	1764.76
396.62	1722.63
396.81	1767.10
397.00	1713.27
397.19	1839.66
397.39	1795.19
397.58	1858.39
397.77	1750.72
397.97	1860.73
398.16	1804.55
398.35	1778.81
398.55	1825.62
398.74	1846.68
398.93	1905.20
399.12	1949.67
399.32	1867.75
399.51	1928.60
399.70	1893.49
399.90	1902.86
400.09	1947.33
400.28	2052.65
400.47	2017.54
400.67	2104.14
400.86	2026.90
401.05	2073.71
401.24	2019.88
401.44	2228.19
401.63	2176.70
401.82	2132.23
402.01	2064.35
402.21	2209.47
402.40	2225.85
402.59	2160.31
402.78	2141.59
402.97	2216.49
403.17	2342.88
403.36	2169.68
403.55	2305.43
403.74	2356.92
403.93	2293.72
404.13	2457.56
404.32	2385.01
404.51	2495.01
404.70	2319.47
404.89	2464.58
405.09	2504.37
405.28	2516.08
405.47	2506.71
405.66	2513.74
405.85	2560.55
406.05	2476.29
406.24	2614.38
406.43	2438.84
406.62	2609.70
406.81	2616.72
407.00	2572.25
407.20	2635.44
407.39	2684.59
407.58	2614.38
407.77	2715.02
407.96	2757.15
408.15	2782.90
408.34	2836.73
408.54	2832.05
408.73	2801.62
408.92	2764.17
409.11	2841.41
409.30	2909.29
409.49	2778.22
409.68	2850.77
409.87	2951.42
410.07	2984.18
410.26	2888.22
410.45	2988.86
410.64	2993.55
410.83	3007.59
411.02	3133.98
411.21	3225.26
411.40	3166.74
411.59	3279.09
411.78	3075.46
411.98	3272.07
412.17	3185.47
412.36	3307.18
412.55	3318.88
412.74	3445.27
412.93	3396.12
413.12	3384.41
413.31	3461.65
413.50	3496.76
413.69	3468.67
413.88	3400.80
414.07	3588.04
414.26	3545.91
414.45	3597.40
414.64	3555.27
414.83	3620.81
415.02	3777.62
415.22	3817.41
415.41	3908.69
415.60	3901.67
415.79	3838.48
415.98	3990.61
416.17	4002.32
416.36	3995.29
416.55	3904.01
416.74	4051.47
416.93	4011.68
417.12	4149.77
417.31	4215.30
417.50	4079.55
417.69	4297.22
417.88	4236.37
418.07	4187.22
418.26	4205.94
418.45	4395.53
418.64	4486.81
418.83	4353.40
419.02	4362.76
419.21	4477.44
419.39	4606.17
419.58	4390.84
419.77	4521.92
419.96	4475.10
420.15	4676.39
420.34	4566.39
420.53	4720.86
420.72	4690.43
420.91	4613.20
421.10	4669.37
421.29	4713.84
421.48	4620.22
421.67	4809.80
421.86	4762.99
422.05	4739.58
422.24	4720.86
422.43	4917.47
422.61	4898.74
422.80	4952.57
422.99	4849.59
423.18	4786.40
423.37	4973.64
423.56	4975.98
423.75	4943.21
423.94	4802.78
424.13	4676.39
424.32	4767.67
424.50	4997.04
424.69	5181.95
424.88	4983.00
425.07	4748.95
425.26	4807.46
425.45	4968.96
425.64	4975.98
425.83	4954.91
426.01	5048.54
426.20	5076.62
426.39	4945.55
426.58	5128.11
426.77	5146.84
426.96	5032.15
427.15	5132.79
427.33	5132.79
427.52	5097.69
427.71	5249.82
427.90	5263.86
428.09	5184.29
428.28	5313.02
428.46	5294.29
428.65	5167.90
428.84	5460.47
429.03	5434.72
429.22	5226.42
429.40	5437.06
429.59	5397.28
429.78	5371.53
429.97	5158.54
430.16	5582.18
430.34	5614.95
430.53	5664.10
430.72	5547.07
430.91	5554.09
431.10	5479.19
431.28	5687.50
431.47	5811.55
431.66	5736.65
431.85	5757.72
432.03	5891.13
432.22	6085.39
432.41	5886.45
432.60	5865.38
432.79	5963.68
432.97	5966.03
433.16	5984.75
433.35	5926.24
433.54	6083.05
433.72	6001.13
433.91	6069.01
434.10	6157.95
434.28	5982.41
434.47	6282.00
434.66	6282.00
434.85	6209.44
435.03	6384.98
435.22	6263.27
435.41	6246.89
435.59	6235.19
435.78	6406.05
435.97	6387.32
436.16	6211.78
436.34	6352.21
436.53	6445.84
436.72	6633.08
436.90	6441.15
437.09	6548.82
437.28	6532.44
437.46	6478.60
437.65	6703.29
437.84	6672.87
438.02	6628.40
438.21	6825.00
438.40	6705.63
438.58	6977.14
438.77	6904.58
438.96	6871.81
439.14	7180.76
439.33	7108.21
439.52	7199.49
439.70	7176.08
439.89	7204.17
440.08	7368.01
440.26	7302.47
440.45	7358.64
440.63	7274.38
440.82	7571.63
441.01	7325.88
441.19	7534.18
441.38	7667.60
441.57	7655.89
441.75	7740.15
441.94	7903.99
442.12	7829.09
442.31	7873.56
442.50	7992.93
442.68	7861.86
442.87	7882.92
443.05	8065.49
443.24	8163.79
443.43	8128.68
443.61	8292.52
443.80	8210.60
443.98	8053.78
444.17	7742.49
444.35	8102.93
444.54	8121.66
444.73	8339.33
444.91	8271.45
445.10	8446.99
445.28	8365.07
445.47	8212.94
445.65	8477.42
445.84	8421.25
446.02	8351.03
446.21	8454.02
446.39	8248.05
446.58	8542.96
446.77	8578.06
446.95	8292.52
447.14	8290.18
447.32	8442.31
447.51	8521.89
447.69	8280.82
447.88	8514.87
448.06	8397.84
448.25	8524.23
448.43	8603.81
448.62	8477.42
448.80	8603.81
448.99	8685.73
449.17	8779.35
449.36	8493.80
449.54	8798.07
449.73	8959.57
449.91	8870.63
450.10	8875.31
450.28	9071.92
450.46	9020.42
450.65	8915.10
450.83	9039.15
451.02	9001.70
451.20	9207.67
451.39	9240.44
451.57	9029.79
451.76	9233.41
451.94	9095.32
452.13	9308.31
452.31	9102.34
452.49	9226.39
452.68	9437.04
452.86	9432.36
453.05	9408.95
453.23	9444.06
453.42	9261.50
453.60	9254.48
453.78	9504.92
453.97	9296.61
454.15	9406.61
454.34	9350.44
454.52	9722.59
454.70	9619.60
454.89	9593.86
455.07	9722.59
455.26	9865.36
455.44	9923.87
455.62	9806.84
455.81	9886.42
455.99	9856.00
456.17	9963.66
456.36	10129.84
456.54	10005.79
456.73	10066.64
456.91	10260.91
457.09	10157.92
457.28	10637.73
457.46	10558.16
457.64	10396.66
457.83	10452.83
458.01	10361.55
458.19	10773.49
458.38	10391.98
458.56	10672.84
458.74	10366.23
458.93	10738.38
459.11	10705.61
459.29	10717.31
459.48	10839.02
459.66	10946.69
459.84	10714.97
460.03	11073.07
460.21	11026.26
460.39	10942.00
460.57	10960.73
460.76	11049.67
460.94	10974.77
461.12	11187.76
461.31	11133.93
461.49	11110.52
461.67	11152.65
461.85	11260.32
462.04	11171.38
462.22	11587.99
462.40	11372.66
462.59	11332.87
462.77	11583.31
462.95	11702.68
463.13	11590.33
463.32	11632.46
463.50	11583.31
463.68	11875.88
463.86	11604.38
464.05	11473.31
464.23	11644.17
464.41	12126.32
464.59	11613.74
464.78	11936.73
464.96	11997.59
465.14	11847.79
465.32	11906.31
465.50	12060.78
465.69	11974.18
465.87	12236.32
466.05	12053.76
466.23	12107.59
466.41	12163.76
466.60	12404.84
466.78	12058.44
466.96	12229.30
467.14	12208.23
467.32	12325.26
467.51	12711.45
467.69	12168.45
467.87	12374.41
468.05	12620.17
468.23	12482.08
468.41	12379.09
468.60	12610.81
468.78	12496.12
468.96	12573.36
469.14	12734.85
469.32	12627.19
469.50	12556.97
469.69	12669.32
469.87	13069.55
470.05	12840.18
470.23	13071.89
470.41	12954.87
470.59	13109.34
470.77	13139.77
470.95	13071.89
471.14	13406.59
471.32	12865.92
471.50	13221.69
471.68	13214.66
471.86	13589.15
472.04	13823.20
472.22	14094.71
472.40	13640.64
472.58	13809.16
472.77	13795.12
472.95	13937.89
473.13	14480.89
473.31	14211.73
473.49	14420.04
473.67	14024.49
473.85	13980.02
474.03	14476.21
474.21	14293.65
474.39	14834.32
474.57	14626.01
474.75	14864.74
474.93	14764.10
475.12	14892.83
475.30	14991.13
475.48	15094.11
475.66	14820.27
475.84	15080.07
476.02	15166.67
476.20	15353.91
476.38	15639.46
476.56	16123.95
476.74	15957.77
476.92	15616.05
477.10	15744.78
477.28	16100.55
477.46	16470.35
477.64	16205.87
477.82	16500.78
478.00	16540.57
478.18	16505.46
478.36	16652.91
478.54	16931.44
478.72	17048.46
478.90	17284.86
479.08	17254.43
479.26	17263.79
479.44	17383.16
479.62	17774.03
479.80	17937.87
479.98	17947.23
480.16	18420.02
480.34	17853.61
480.52	18590.88
480.70	18544.06
480.88	18305.33
481.06	18607.26
481.24	18897.49
481.41	18831.95
481.59	19030.90
481.77	19229.84
481.95	19234.52
482.13	19358.57
482.31	19789.23
482.49	19969.45
482.67	19946.05
482.85	20285.42
483.03	20449.26
483.21	20882.26
483.39	20507.77
483.57	20842.47
483.74	20992.26
483.92	21195.89
484.10	21099.93
484.28	21582.08
484.46	22185.94
484.64	22089.98
484.82	21958.91
485.00	22178.92
485.18	22403.61
485.35	22867.03
485.53	22698.52
485.71	22883.42
485.89	23377.27
486.07	23330.46
486.25	23173.64
486.43	23506.00
486.61	23997.51
486.78	23592.60
486.96	24065.39
487.14	24297.10
487.32	24449.24
487.50	24599.03
487.68	24744.14
487.85	24968.84
488.03	25476.73
488.21	25575.03
488.39	25771.64
488.57	25802.07
488.75	26036.12
488.92	26387.20
489.10	26574.44
489.28	26593.17
489.46	27026.17
489.64	26988.72
489.81	27651.09
489.99	27452.14
490.17	27896.85
490.35	27812.59
490.53	27974.08
490.70	28105.15
490.88	28236.22
491.06	28596.67
491.24	28741.78
491.41	28961.79
491.59	28854.12
491.77	29158.39
491.95	29830.13
492.13	29280.10
492.30	29977.58
492.48	29734.17
492.66	30040.78
492.84	30235.04
493.01	30632.93
493.19	30625.91
493.37	30878.69
493.54	30932.52
493.72	31091.68
493.90	30958.27
494.08	31906.18
494.25	31936.61
494.43	31892.14
494.61	31957.67
494.79	32243.22
494.96	32545.15
495.14	32645.79
495.32	33055.39
495.49	32650.47
495.67	33141.99
495.85	33380.72
496.02	33331.57
496.20	33881.60
496.38	34089.90
496.55	33717.76
496.73	34948.88
496.91	34223.31
497.09	34766.32
497.26	34993.35
497.44	34539.29
497.62	35047.18
497.79	35456.78
497.97	35384.22
498.14	35463.80
498.32	35971.69
498.50	35941.27
498.67	36407.03
498.85	36194.04
499.03	36779.18
499.20	36610.66
499.38	36793.22
499.56	37006.21
499.73	37113.87
499.91	37158.34
500.08	37141.96
500.26	37085.79
500.44	37549.21
500.61	37862.85
500.79	37631.13
500.97	38132.01
501.14	38335.63
501.32	38883.32
501.49	38412.87
501.67	38710.12
501.84	39033.11
502.02	38691.40
502.20	38726.50
502.37	39129.08
502.55	38632.88
502.72	39384.19
502.90	39117.37
503.07	39501.22
503.25	39335.04
503.43	39501.22
503.60	40170.61
503.78	39852.30
503.95	40039.54
504.13	40657.45
504.30	40437.44
504.48	40306.37
504.65	40631.70
504.83	40460.84
505.01	41228.54
505.18	40631.70
505.36	41151.30
505.53	40809.58
505.71	41069.38
505.88	41724.73
506.06	41165.34
506.23	41268.33
506.41	41425.14
506.58	41567.91
506.76	42117.94
506.93	42415.19
507.11	41467.27
507.28	42382.42
507.46	42162.41
507.63	42925.42
507.81	42857.55
507.98	42719.46
508.16	43016.71
508.33	43086.92
508.50	43363.11
508.68	43814.83
508.85	43927.17
509.03	43428.64
509.20	43775.04
509.38	43496.52
509.55	44088.67
509.73	44294.64
509.90	44414.01
510.08	44608.27
510.25	44460.82
510.42	44388.26
510.60	44865.73
510.77	45097.44
510.95	45209.79
511.12	44854.03
511.30	44739.34
511.47	45184.04
511.64	45476.61
511.82	45425.12
511.99	45483.63
512.17	45654.49
512.34	45961.10
512.51	46340.27
512.69	45989.19
512.86	45998.55
513.04	46307.50
513.21	46291.12
513.38	46286.43
513.56	46789.65
513.73	46564.96
513.90	46784.97
514.08	46663.26
514.25	47065.83
514.43	47236.69
514.60	47356.06
514.77	46794.33
514.95	47796.08
515.12	47269.46
515.29	47473.09
515.47	47615.86
515.64	48350.79
515.81	47597.13
515.99	47889.70
516.16	47859.27
516.33	48140.14
516.51	48329.72
516.68	48121.41
516.85	48189.29
517.03	48254.82
517.20	48624.63
517.37	48296.95
517.54	48608.25
517.72	48924.22
517.89	48821.23
518.06	48973.37
518.24	48626.97
518.41	48985.07
518.58	49233.17
518.75	48980.39
518.93	49336.15
519.10	49015.50
519.27	49551.48
519.45	49593.61
519.62	49776.17
519.79	49869.79
519.96	49745.75
520.14	49808.94
520.31	49982.14
520.48	50412.80
520.65	50012.57
520.83	50431.52
521.00	50578.98
521.17	50230.24
521.34	50387.05
521.52	50412.80
521.69	50539.19
521.86	50595.36
522.03	50880.91
522.20	51056.45
522.38	51110.28
522.55	51114.96
522.72	51150.07
522.89	51079.85
523.07	51515.19
523.24	51386.46
523.41	51426.25
523.58	50939.42
523.75	51728.18
523.92	51557.32
524.10	51901.38
524.27	51831.16
524.44	51782.01
524.61	51828.82
524.78	52020.75
524.96	52163.52
525.13	52257.14
525.30	52207.99
525.47	52245.44
525.64	52097.98
525.81	52629.29
525.98	52313.31
526.16	52306.29
526.33	52484.17
526.50	52956.96
526.67	52467.79
526.84	52507.58
527.01	52596.52
527.18	52821.21
527.36	52383.53
527.53	52664.39
527.70	53176.97
527.87	53268.25
528.04	52954.62
528.21	53198.04
528.38	53338.47
528.55	53303.36
528.72	53422.73
528.89	53254.21
529.07	53226.12
529.24	53179.31
529.41	53502.31
529.58	53455.50
529.75	53408.68
529.92	53797.21
530.09	53734.02
530.26	53727.00
530.43	53904.88
530.60	53635.72
530.77	53752.74
530.94	53876.79
531.11	53890.83
531.28	53729.34
531.46	53815.94
531.63	54047.65
531.80	54101.48
531.97	54040.63
532.14	54482.99
532.31	54562.57
532.48	54777.90
532.65	54728.75
532.82	54405.75
532.99	54553.21
533.16	54223.19
533.33	54803.64
533.50	54473.63
533.67	54759.17
533.84	54557.89
534.01	54583.63
534.18	54726.41
534.35	55388.78
534.52	54885.56
534.69	54955.78
534.86	55072.81
535.03	55000.25
535.20	54953.44
535.37	55178.13
535.54	55283.45
535.71	54951.10
535.88	55414.52
536.05	55433.25
536.22	55618.15
536.38	55730.50
536.55	55583.04
536.72	55402.82
536.89	55262.39
537.06	55463.67
537.23	55601.77
537.40	55407.50
537.57	55714.11
537.74	55480.06
537.91	55821.78
538.08	55634.53
538.25	55564.32
538.42	55941.14
538.59	55842.84
538.75	55765.60
538.92	55903.70
539.09	56030.08
539.26	56002.00
539.43	55746.88
539.60	55973.91
539.77	56011.36
539.94	56219.67
540.11	55983.27
540.28	56231.37
540.44	56175.20
540.61	56156.47
540.78	56343.72
540.95	56236.05
541.12	56264.14
541.29	56339.04
541.46	56254.78
541.62	56652.67
541.79	56385.85
541.96	56289.88
542.13	56292.22
542.30	56491.17
542.47	56596.49
542.63	56772.03
542.80	56940.55
542.97	56865.66
543.14	57031.83
543.31	56947.57
543.48	57020.13
543.64	57333.76
543.81	57174.61
543.98	57453.13
544.15	57226.10
544.32	57340.78
544.48	57490.58
544.65	57064.60
544.82	57233.12
544.99	57083.33
545.16	57315.04
545.32	57261.21
545.49	57537.39
545.66	57565.48
545.83	57602.92
546.00	57560.79
546.16	57336.10
546.33	57317.38
546.50	57408.66
546.67	57553.77
546.83	57296.31
547.00	57778.46
547.17	57467.17
547.34	57631.01
547.50	57818.25
547.67	57811.23
547.84	57820.59
548.00	57916.56
548.17	57937.62
548.34	57773.78
548.51	58157.63
548.67	57949.32
548.84	58064.01
549.01	57729.31
549.18	58021.88
549.34	57881.45
549.51	58178.70
549.68	58316.79
549.84	58049.97
550.01	58333.17
550.18	58101.46
550.34	58387.00
550.51	58295.72
550.68	58234.87
550.84	58106.14
551.01	58508.71
551.18	58220.83
551.34	58335.51
551.51	58335.51
551.68	58440.84
551.84	58040.60
552.01	58468.92
552.18	58368.28
552.34	58396.37
552.51	58639.78
552.68	58307.43
552.84	58585.95
553.01	58848.09
553.18	58695.95
553.34	58791.92
553.51	58354.24
553.67	58862.13
553.84	58810.64
554.01	58721.70
554.17	58892.56
554.34	58789.58
554.51	58918.31
554.67	58805.96
554.84	58834.05
555.00	58990.86
555.17	58791.92
555.33	58820.00
555.50	58731.06
555.67	58805.96
555.83	58855.11
556.00	59000.22
556.16	59423.86
556.33	58951.07
556.50	59084.48
556.66	59086.82
556.83	58908.94
556.99	59304.49
557.16	59311.52
557.32	59288.11
557.49	59531.53
557.65	59194.49
557.82	59192.15
557.98	59283.43
558.15	59325.56
558.32	59407.48
558.48	59313.86
558.65	59468.33
558.81	59316.20
558.98	59519.82
559.14	59611.10
559.31	59522.16
559.47	59533.87
559.64	59433.22
559.80	59463.65
559.97	59597.06
560.13	59515.14
560.30	59552.59
560.46	59608.76
560.63	59662.60
560.79	59646.21
560.96	59576.00
561.12	59613.44
561.29	59643.87
561.45	59716.43
561.61	59674.30
561.78	59550.25
561.94	59587.70
562.11	59468.33
562.27	59634.51
562.44	59891.97
562.60	59906.01
562.77	59732.81
562.93	59744.51
563.10	59793.67
563.26	59810.05
563.42	60245.39
563.59	59973.89
563.75	60001.97
563.92	59777.28
564.08	59756.22
564.24	59983.25
564.41	60030.06
564.57	60032.40
564.74	60074.53
564.90	60081.55
565.07	60013.68
565.23	60095.60
565.39	59915.37
565.56	59994.95
565.72	60133.04
565.88	60044.10
566.05	59898.99
566.21	60154.11
566.38	60004.31
566.54	60247.73
566.70	60130.70
566.87	60331.99
567.03	59730.47
567.19	60385.82
567.36	60081.55
567.52	60226.66
567.68	60392.84
567.85	60331.99
568.01	60229.01
568.17	60217.30
568.34	60109.64
568.50	60037.08
568.66	60210.28
568.83	60247.73
568.99	60317.95
569.15	60126.02
569.32	60306.24
569.48	60198.58
569.64	60385.82
569.81	60207.94
569.97	60231.35
570.13	60198.58
570.30	60116.66
570.46	60402.21
570.62	60170.49
570.78	60247.73
570.95	60217.30
571.11	60519.23
571.27	60427.95
571.43	60399.86
571.60	60444.33
571.76	60491.15
571.92	60566.04
572.09	60308.58
572.25	60425.61
572.41	60376.46
572.57	60348.37
572.74	60498.17
572.90	60535.62
573.06	60406.89
573.22	60514.55
573.38	60456.04
573.55	60549.66
573.71	60790.73
573.87	60561.36
574.03	60458.38
574.20	60633.92
574.36	60364.76
574.52	60596.47
574.68	60582.43
574.84	60746.26
575.01	60823.50
575.17	60636.26
575.33	60533.28
575.49	60552.00
575.65	60451.36
575.82	60615.19
575.98	60673.71
576.14	60804.78
576.30	60741.58
576.46	60638.60
576.62	60654.98
576.79	60491.15
576.95	60456.04
577.11	60809.46
577.27	60750.94
577.43	60872.65
577.59	60561.36
577.75	60657.32
577.92	60573.06
578.08	60563.70
578.24	60734.56
578.40	60891.38
578.56	60844.57
578.72	60580.09
578.88	60933.51
579.04	60769.67
579.21	60711.16
579.37	60877.33
579.53	60645.62
579.69	60570.72
579.85	60640.94
580.01	60437.31
580.17	60750.94
580.33	60774.35
580.49	60587.11
580.65	60839.89
580.82	60774.35
580.98	60582.43
581.14	60821.16
581.30	61076.28
581.46	60769.67
581.62	60788.39
581.78	60584.77
581.94	60669.03
582.10	60713.50
582.26	60694.77
582.42	60968.61
582.58	60725.20
582.74	60692.43
582.90	60725.20
583.06	60956.91
583.22	60495.83
583.38	60907.76
583.54	60853.93
583.70	60863.29
583.86	60989.68
584.02	60788.39
584.18	60893.72
584.34	60842.23
584.50	60898.40
584.66	60851.59
584.82	60734.56
584.98	60933.51
585.14	60764.99
585.30	60907.76
585.46	60992.02
585.62	60966.27
585.78	61102.03
585.94	60720.52
586.10	60753.29
586.26	60811.80
586.42	60863.29
586.58	60811.80
586.74	60893.72
586.90	60889.04
587.06	60818.82
587.22	60975.64
587.38	60879.67
587.54	60837.54
587.70	60992.02
587.86	60938.19
588.02	60863.29
588.18	61158.20
588.34	60818.82
588.49	61069.26
