SpectraSuite Data File
++++++++++++++++++++++++++++++++++++
Date: Fri Oct 25 11:24:04 EDT 2013
User: price-jones
Dark Spectrum Present: No
Reference Spectrum Present: No
Number of Sampled Component Spectra: 1
Spectrometers: USB2+H05261
Integration Time (usec): 100000 (USB2+H05261)
Spectra Averaged: 1 (USB2+H05261)
Boxcar Smoothing: 0 (USB2+H05261)
Correct for Electrical Dark: No (USB2+H05261)
Strobe/Lamp Enabled: No (USB2+H05261)
Correct for Detector Non-linearity: No (USB2+H05261)
Correct for Stray Light: No (USB2+H05261)
Number of Pixels in Processed Spectrum: 2048
>>>>>Begin Processed Spectral Data<<<<<
365.73	320.65
365.92	320.65
366.12	320.65
366.32	201.29
366.52	133.41
366.72	100.64
366.91	74.90
367.11	140.43
367.31	86.60
367.51	156.82
367.70	114.69
367.90	159.16
368.10	161.50
368.30	175.54
368.49	159.16
368.69	135.75
368.89	156.82
369.09	110.01
369.28	161.50
369.48	227.03
369.68	175.54
369.87	189.58
370.07	135.75
370.27	212.99
370.47	287.89
370.66	636.63
370.86	699.82
371.06	704.50
371.25	727.91
371.45	678.76
371.65	650.67
371.84	662.37
372.04	676.41
372.24	730.25
372.44	664.71
372.63	695.14
372.83	739.61
373.03	741.95
373.22	755.99
373.42	744.29
373.62	688.12
373.81	746.63
374.01	777.06
374.21	884.72
374.40	758.33
374.60	760.67
374.79	793.44
374.99	709.18
375.19	823.87
375.38	816.85
375.58	816.85
375.78	830.89
375.97	791.10
376.17	842.59
376.37	854.30
376.56	842.59
376.76	842.59
376.95	931.53
377.15	854.30
377.35	898.77
377.54	875.36
377.74	912.81
377.93	877.70
378.13	1008.77
378.33	837.91
378.52	1027.50
378.72	994.73
378.91	994.73
379.11	936.21
379.31	954.94
379.50	976.00
379.70	1062.60
379.89	1018.13
380.09	968.98
380.28	1046.22
380.48	959.62
380.68	1064.94
380.87	964.30
381.07	1027.50
381.26	992.39
381.46	1006.43
381.65	980.68
381.85	976.00
382.04	1050.90
382.24	1025.15
382.43	1076.65
382.63	1116.44
382.83	980.68
383.02	1104.73
383.22	1114.10
383.41	1153.88
383.61	1102.39
383.80	1139.84
384.00	1146.86
384.19	1132.82
384.39	1097.71
384.58	1109.41
384.78	1151.54
384.97	1160.91
385.17	1170.27
385.36	1118.78
385.56	1226.44
385.75	1170.27
385.95	1242.82
386.14	1212.40
386.34	1107.07
386.53	1144.52
386.72	1184.31
386.92	1196.01
387.11	1231.12
387.31	1280.27
387.50	1282.61
387.70	1266.23
387.89	1240.48
388.09	1306.02
388.28	1284.95
388.48	1282.61
388.67	1299.00
388.86	1294.32
389.06	1317.72
389.25	1366.87
389.45	1465.18
389.64	1303.68
389.84	1376.24
390.03	1320.06
390.22	1409.00
390.42	1378.58
390.61	1329.42
390.81	1390.28
391.00	1359.85
391.19	1507.30
391.39	1444.11
391.58	1472.20
391.78	1530.71
391.97	1404.32
392.16	1355.17
392.36	1570.50
392.55	1540.07
392.75	1511.99
392.94	1572.84
393.13	1504.96
393.33	1521.35
393.52	1603.27
393.71	1549.43
393.91	1530.71
394.10	1636.03
394.29	1689.87
394.49	1626.67
394.68	1673.48
394.88	1589.22
395.07	1762.42
395.26	1600.93
395.46	1624.33
395.65	1673.48
395.84	1729.66
396.04	1736.68
396.23	1715.61
396.42	1734.34
396.62	1813.92
396.81	1827.96
397.00	1764.76
397.19	1732.00
397.39	1849.02
397.58	1893.49
397.77	1809.23
397.97	1837.32
398.16	1849.02
398.35	1942.64
398.55	1851.36
398.74	2012.86
398.93	2008.18
399.12	1954.35
399.32	1928.60
399.51	1954.35
399.70	2012.86
399.90	1900.52
400.09	2012.86
400.28	1998.82
400.47	2134.57
400.67	2113.50
400.86	2190.74
401.05	2043.29
401.24	2059.67
401.44	2167.34
401.63	2125.21
401.82	2172.02
402.01	2195.42
402.21	2230.53
402.40	2200.10
402.59	2249.25
402.78	2195.42
402.97	2317.13
403.17	2340.54
403.36	2235.21
403.55	2249.25
403.74	2221.17
403.93	2401.39
404.13	2429.48
404.32	2469.27
404.51	2253.94
404.70	2380.32
404.89	2459.90
405.09	2523.10
405.28	2420.11
405.47	2429.48
405.66	2420.11
405.85	2602.68
406.05	2576.93
406.24	2640.12
406.43	2602.68
406.62	2640.12
406.81	2684.59
407.00	2480.97
407.20	2733.75
407.39	2705.66
407.58	2778.22
407.77	2719.70
407.96	2766.51
408.15	2768.85
408.34	2630.76
408.54	2656.51
408.73	2813.32
408.92	2761.83
409.11	2864.82
409.30	2801.62
409.49	2778.22
409.68	2883.54
409.87	2949.08
410.07	2981.84
410.26	3038.02
410.45	3098.87
410.64	3204.19
410.83	3150.36
411.02	3007.59
411.21	3255.69
411.40	3145.68
411.59	3122.27
411.78	3091.85
411.98	3236.96
412.17	3279.09
412.36	3297.81
412.55	3358.67
412.74	3503.78
412.93	3363.35
413.12	3351.65
413.31	3611.45
413.50	3557.61
413.69	3513.14
413.88	3562.30
414.07	3676.98
414.26	3616.13
414.45	3789.33
414.64	3702.73
414.83	3719.11
415.02	3864.22
415.22	3838.48
415.41	3868.91
415.60	3955.51
415.79	3889.97
415.98	3929.76
416.17	3983.59
416.36	3974.23
416.55	3974.23
416.74	4100.62
416.93	4011.68
417.12	4194.24
417.31	4297.22
417.50	4227.01
417.69	4271.48
417.88	4257.43
418.07	4177.86
418.26	4292.54
418.45	4320.63
418.64	4432.97
418.83	4344.03
419.02	4449.36
419.21	4617.88
419.39	4521.92
419.58	4535.96
419.77	4489.15
419.96	4573.41
420.15	4552.34
420.34	4699.80
420.53	4585.11
420.72	4711.50
420.91	4657.67
421.10	4713.84
421.29	4814.48
421.48	4692.77
421.67	4681.07
421.86	4702.14
422.05	4760.65
422.24	4830.87
422.43	4999.38
422.61	4791.08
422.80	4938.53
422.99	4985.34
423.18	4889.38
423.37	5025.13
423.56	4961.94
423.75	4894.06
423.94	4856.61
424.13	4765.33
424.32	4802.78
424.50	5032.15
424.69	5027.47
424.88	5093.01
425.07	4898.74
425.26	4950.23
425.45	5032.15
425.64	5004.07
425.83	5114.07
426.01	5116.41
426.20	5128.11
426.39	5036.83
426.58	4968.96
426.77	5179.61
426.96	5245.14
427.15	5069.60
427.33	5254.50
427.52	5296.63
427.71	5130.45
427.90	5275.57
428.09	5254.50
428.28	5390.25
428.46	5373.87
428.65	5455.79
428.84	5495.58
429.03	5643.03
429.22	5448.77
429.40	5423.02
429.59	5617.29
429.78	5291.95
429.97	5315.36
430.16	5462.81
430.34	5568.13
430.53	5605.58
430.72	5591.54
430.91	5722.61
431.10	5713.25
431.28	5797.51
431.47	5797.51
431.66	5785.80
431.85	5694.52
432.03	5863.04
432.22	5980.07
432.41	5951.98
432.60	5858.36
432.79	5944.96
432.97	5891.13
433.16	5968.37
433.35	5975.39
433.54	6052.63
433.72	6143.91
433.91	6108.80
434.10	6382.64
434.28	6169.65
434.47	6289.02
434.66	6328.81
434.85	6263.27
435.03	6539.46
435.22	6324.13
435.41	6696.27
435.59	6394.34
435.78	6384.98
435.97	6527.75
436.16	6504.35
436.34	6478.60
436.53	6490.31
436.72	6841.39
436.90	6530.09
437.09	6747.76
437.28	6602.65
437.46	6558.18
437.65	6881.18
437.84	6689.25
438.02	6633.08
438.21	6899.90
438.40	6813.30
438.58	7019.27
438.77	6951.39
438.96	7105.87
439.14	7136.29
439.33	7410.14
439.52	7201.83
439.70	7232.26
439.89	7454.61
440.08	7382.05
440.26	7506.10
440.45	7438.22
440.63	7576.31
440.82	7620.78
441.01	7480.35
441.19	7393.75
441.38	7772.92
441.57	7723.77
441.75	7824.41
441.94	8044.42
442.12	7901.65
442.31	8264.43
442.50	8149.75
442.68	7957.82
442.87	8051.44
443.05	8177.83
443.24	8198.90
443.43	8107.62
443.61	8301.88
443.80	8528.91
443.98	8065.49
444.17	8042.08
444.35	8299.54
444.54	8439.97
444.73	8297.20
444.91	8320.60
445.10	8491.46
445.28	8428.27
445.47	8435.29
445.65	8500.83
445.84	8475.08
446.02	8411.89
446.21	8561.68
446.39	8540.61
446.58	8713.81
446.77	8568.70
446.95	8491.46
447.14	8589.77
447.32	8559.34
447.51	8533.59
447.69	8505.51
447.88	8549.98
448.06	8568.70
448.25	8634.24
448.43	8484.44
448.62	8767.65
448.80	8533.59
448.99	8631.90
449.17	8957.23
449.36	8659.98
449.54	8898.72
449.73	9008.72
449.91	9207.67
450.10	8978.30
450.28	9149.15
450.46	9102.34
450.65	9088.30
450.83	8879.99
451.02	9118.73
451.20	9179.58
451.39	9207.67
451.57	9060.21
451.76	9200.65
451.94	9226.39
452.13	9394.91
452.31	9266.18
452.49	9343.42
452.68	9423.00
452.86	9406.61
453.05	9444.06
453.23	9755.35
453.42	9415.98
453.60	9448.74
453.78	9509.60
453.97	9476.83
454.15	9474.49
454.34	9575.13
454.52	9905.15
454.70	9703.86
454.89	9891.10
455.07	9753.01
455.26	9916.85
455.44	10008.13
455.62	10122.82
455.81	9788.12
455.99	9980.04
456.17	10101.75
456.36	10157.92
456.54	10076.01
456.73	10291.34
456.91	10485.60
457.09	10576.88
457.28	10560.50
457.46	10160.27
457.64	10537.09
457.83	10436.45
458.01	10342.83
458.19	10792.21
458.38	10457.51
458.56	10649.44
458.74	10937.32
458.93	10773.49
459.11	10668.16
459.29	10731.36
459.48	10778.17
459.66	10839.02
459.84	10981.79
460.03	11283.72
460.21	10867.11
460.39	11033.29
460.57	11082.44
460.76	10984.13
460.94	11344.58
461.12	11180.74
461.31	11098.82
461.49	11213.51
461.67	11166.70
461.85	11538.84
462.04	11286.06
462.22	11644.17
462.40	11751.83
462.59	11653.53
462.77	11669.91
462.95	11604.38
463.13	11695.66
463.32	11852.47
463.50	11822.05
463.68	11808.00
463.86	11920.35
464.05	11712.04
464.23	11808.00
464.41	11948.43
464.59	11747.15
464.78	11915.67
464.96	11995.25
465.14	11950.78
465.32	12006.95
465.50	12215.26
465.69	12414.20
465.87	12203.55
466.05	12241.00
466.23	12325.26
466.41	12517.18
466.60	12521.87
466.78	12320.58
466.96	12435.27
467.14	12379.09
467.32	12470.37
467.51	12585.06
467.69	12395.48
467.87	12561.66
468.05	12805.07
468.23	12531.23
468.41	12503.14
468.60	12936.14
468.78	12755.92
468.96	12725.49
469.14	12894.01
469.32	13050.83
469.50	12709.11
469.69	12894.01
469.87	13207.64
470.05	13088.28
470.23	13425.31
470.41	13118.70
470.59	13273.18
470.77	13331.69
470.95	13493.19
471.14	13549.36
471.32	13413.61
471.50	13762.35
471.68	13668.73
471.86	13886.40
472.04	13846.61
472.22	14078.32
472.40	13736.60
472.58	13956.61
472.77	14195.35
472.95	14141.52
473.13	14487.92
473.31	13893.42
473.49	14328.76
473.67	14024.49
473.85	14277.27
474.03	14815.59
474.21	14773.46
474.39	14651.75
474.57	14588.56
474.75	14707.93
474.93	15201.78
475.12	15246.25
475.30	15302.42
475.48	15143.27
475.66	15227.53
475.84	15328.17
476.02	15545.84
476.20	15433.49
476.38	15693.29
476.56	16203.53
476.74	16278.43
476.92	16196.51
477.10	16058.42
477.28	16130.97
477.46	16297.15
477.64	16360.34
477.82	16582.70
478.00	17252.09
478.18	16812.07
478.36	17085.91
478.54	17275.49
478.72	17322.30
478.90	17427.63
479.08	17968.29
479.26	17558.70
479.44	18256.18
479.62	17783.39
479.80	18331.08
479.98	17982.34
480.16	18670.45
480.34	18572.15
480.52	18654.07
480.70	18923.23
480.88	18405.97
481.06	19082.39
481.24	18927.91
481.41	19403.04
481.59	19204.10
481.77	19644.12
481.95	19824.34
482.13	20109.88
482.31	19885.19
482.49	20769.91
482.67	20276.06
482.85	20805.02
483.03	20762.89
483.21	20905.66
483.39	20837.79
483.57	21074.18
483.74	21252.06
483.92	21488.46
484.10	21289.51
484.28	21848.90
484.46	22066.57
484.64	22625.96
484.82	22298.28
485.00	22560.42
485.18	23098.75
485.35	23147.90
485.53	23283.65
485.71	23061.30
485.89	23789.20
486.07	23555.15
486.25	23538.77
486.43	23910.91
486.61	23845.38
486.78	24308.80
486.96	24449.24
487.14	24968.84
487.32	24812.02
487.50	25106.93
487.68	25261.40
487.85	25596.10
488.03	25696.74
488.21	26071.23
488.39	26111.02
488.57	26349.75
488.75	26422.31
488.92	26501.89
489.10	27035.53
489.28	26848.29
489.46	27440.44
489.64	27604.28
489.81	27889.82
489.99	28226.86
490.17	28037.28
490.35	28456.23
490.53	28549.85
490.70	28357.93
490.88	28517.09
491.06	28924.34
491.24	28861.15
491.41	29310.53
491.59	29476.71
491.77	29439.26
491.95	29659.27
492.13	30103.97
492.30	30209.29
492.48	30616.55
492.66	30176.53
492.84	30513.56
493.01	30656.34
493.19	30878.69
493.37	31091.68
493.54	31461.48
493.72	31573.83
493.90	31864.05
494.08	31655.75
494.25	32095.77
494.43	32004.49
494.61	32446.85
494.79	32343.86
494.96	32554.51
495.14	33127.94
495.32	33497.75
495.49	33387.74
495.67	33511.79
495.85	33944.79
496.02	34171.82
496.20	33991.60
496.38	34419.92
496.55	34178.84
496.73	34799.08
496.91	34548.65
497.09	35140.80
497.26	34831.85
497.44	34955.90
497.62	35440.39
497.79	36093.40
497.97	35901.48
498.14	36343.84
498.32	36456.18
498.50	36507.68
498.67	36971.10
498.85	36727.69
499.03	37057.70
499.20	37036.64
499.38	37422.83
499.56	37734.12
499.73	37368.99
499.91	37762.20
500.08	38115.62
500.26	37455.59
500.44	37757.52
500.61	38377.76
500.79	38211.59
500.97	38499.47
501.14	38618.84
501.32	38754.59
501.49	39173.55
501.67	39035.45
501.84	39330.36
502.02	38871.62
502.20	39533.99
502.37	39332.70
502.55	39337.38
502.72	39608.89
502.90	39648.68
503.07	39646.33
503.25	39651.02
503.43	40002.10
503.60	40229.13
503.78	40299.34
503.95	40701.92
504.13	40350.84
504.30	40952.35
504.48	40596.59
504.65	41120.87
504.83	41626.43
505.01	41860.48
505.18	41413.44
505.36	41713.03
505.53	40891.50
505.71	41703.67
505.88	42078.15
506.06	41638.13
506.23	42438.59
506.41	42066.45
506.58	42396.46
506.76	42476.04
506.93	42127.30
507.11	42766.27
507.28	43021.39
507.46	43538.65
507.63	43241.40
507.81	43353.74
507.98	43220.33
508.16	43430.98
508.33	43910.79
508.50	43784.40
508.68	43686.10
508.85	43927.17
509.03	44095.69
509.20	44465.50
509.38	44886.79
509.55	44446.77
509.73	45076.38
509.90	44704.23
510.08	45127.87
510.25	44772.11
510.42	44610.61
510.60	45485.97
510.77	45350.22
510.95	45668.53
511.12	45785.56
511.30	45626.40
511.47	45757.47
511.64	46124.94
511.82	46146.00
511.99	45633.42
512.17	46131.96
512.34	46094.51
512.51	46092.17
512.69	46817.74
512.86	46358.99
513.04	47370.10
513.21	46586.02
513.38	46953.49
513.56	47316.27
513.73	47192.22
513.90	47271.80
514.08	46927.74
514.25	47257.76
514.43	47426.28
514.60	47346.70
514.77	47566.71
514.95	47812.46
515.12	48020.77
515.29	48023.11
515.47	48128.44
515.64	48378.87
515.81	48163.54
515.99	48643.35
516.16	48769.74
516.33	48561.44
516.51	49151.25
516.68	48729.95
516.85	49022.52
517.03	48854.00
517.20	49120.82
517.37	49359.56
517.54	49029.54
517.72	49244.87
517.89	49282.32
518.06	49434.45
518.24	49523.40
518.41	49652.12
518.58	49373.60
518.75	49666.17
518.93	49918.95
519.10	49820.64
519.27	49738.72
519.45	49904.90
519.62	49947.03
519.79	50244.28
519.96	49947.03
520.14	50307.47
520.31	50473.65
520.48	50597.70
520.65	50801.33
520.83	50843.46
521.00	50801.33
521.17	50618.77
521.34	50913.67
521.52	51290.50
521.69	50967.51
521.86	51178.15
522.03	51440.29
522.20	51463.70
522.38	51615.83
522.55	51601.79
522.72	51679.03
522.89	51599.45
523.07	51980.96
523.24	51800.74
523.41	51739.88
523.58	51519.87
523.75	52240.76
523.92	51955.21
524.10	52315.65
524.27	52470.13
524.44	52151.82
524.61	52343.74
524.78	52247.78
524.96	52657.37
525.13	52301.61
525.30	52559.07
525.47	52322.68
525.64	52776.74
525.81	52809.51
525.98	52732.27
526.16	52783.76
526.33	52783.76
526.50	53247.19
526.67	52931.22
526.84	53198.04
527.01	53277.61
527.18	53191.01
527.36	52842.27
527.53	53113.78
527.70	53626.35
527.87	53708.27
528.04	53242.51
528.21	53750.40
528.38	53532.73
528.55	53762.11
528.72	53631.04
528.89	53750.40
529.07	53869.77
529.24	53677.85
529.41	54117.87
529.58	53872.11
529.75	53900.20
529.92	54019.56
530.09	54349.58
530.26	54167.02
530.43	54162.34
530.60	53785.51
530.77	54176.38
530.94	54227.87
531.11	54291.07
531.28	54288.73
531.46	54681.94
531.63	54560.23
531.80	54349.58
531.97	54604.70
532.14	54719.38
532.31	54738.11
532.48	54602.36
532.65	54780.24
532.82	54604.70
532.99	54986.21
533.16	54721.72
533.33	55000.25
533.50	54908.97
533.67	54897.27
533.84	54766.20
534.01	55121.96
534.18	55082.17
534.35	55416.86
534.52	55033.02
534.69	55662.62
534.86	55414.52
535.03	55353.67
535.20	55079.83
535.37	55529.21
535.54	55466.02
535.71	55468.36
535.88	55559.64
536.05	55583.04
536.22	55941.14
536.38	55716.45
536.55	55739.86
536.72	55957.53
536.89	55845.18
537.06	56013.70
537.23	55891.99
537.40	55899.01
537.57	55770.28
537.74	55707.09
537.91	56093.28
538.08	56062.85
538.25	55920.08
538.42	56065.19
538.59	56233.71
538.75	56013.70
538.92	56226.69
539.09	56395.21
539.26	56308.61
539.43	56112.00
539.60	56229.03
539.77	56404.57
539.94	56484.15
540.11	56645.65
540.28	56498.19
540.44	56683.09
540.61	56640.96
540.78	56245.41
540.95	56526.28
541.12	56678.41
541.29	56570.75
541.46	56797.78
541.62	56853.95
541.79	56804.80
541.96	56470.11
542.13	56935.87
542.30	56933.53
542.47	56933.53
542.63	57001.41
542.80	57343.12
542.97	57249.50
543.14	57340.78
543.31	57263.55
543.48	57406.32
543.64	57542.07
543.81	57649.74
543.98	57654.42
544.15	57605.26
544.32	57598.24
544.48	58014.86
544.65	57205.03
544.82	57677.82
544.99	57312.70
545.16	57766.76
545.32	57766.76
545.49	57939.96
545.66	58134.23
545.83	57998.48
546.00	57818.25
546.16	58010.18
546.33	57724.63
546.50	57705.91
546.67	57893.15
546.83	57839.32
547.00	58150.61
547.17	57993.79
547.34	57921.24
547.50	58286.36
547.67	58237.21
547.84	58253.59
548.00	58255.93
548.17	58426.79
548.34	58269.98
548.51	58365.94
548.67	58337.85
548.84	58143.59
549.01	58295.72
549.18	58300.40
549.34	58445.52
549.51	58497.01
549.68	58426.79
549.84	58642.12
550.01	58452.54
550.18	58468.92
550.34	58733.40
550.51	58721.70
550.68	58548.50
550.84	58384.66
551.01	58787.24
551.18	58513.39
551.34	58599.99
551.51	58719.36
551.68	58834.05
551.84	58637.44
552.01	58618.72
552.18	58953.41
552.34	58885.54
552.51	58958.09
552.68	58616.38
552.84	58700.64
553.01	59002.56
553.18	58899.58
553.34	59086.82
553.51	58918.31
553.67	59098.53
553.84	59117.25
554.01	59072.78
554.17	59182.79
554.34	59271.73
554.51	59135.98
554.67	59454.29
554.84	59255.34
555.00	58974.48
555.17	59152.36
555.33	59355.99
555.50	59025.97
555.67	59330.24
555.83	59016.61
556.00	59327.90
556.16	59554.93
556.33	59597.06
556.50	59320.88
556.66	59353.65
556.83	59199.17
556.99	59678.98
557.16	59709.41
557.32	59833.46
557.49	59791.33
557.65	59594.72
557.82	59482.37
557.98	59409.82
558.15	59465.99
558.32	59772.60
558.48	59604.08
558.65	59767.92
558.81	59714.09
558.98	59744.51
559.14	59896.65
559.31	59770.26
559.47	59805.37
559.64	59758.56
559.80	59784.30
559.97	60093.25
560.13	59803.03
560.30	59884.95
560.46	59749.20
560.63	60004.31
560.79	59882.61
560.96	60048.78
561.12	60011.34
561.29	59978.57
561.45	59992.61
561.61	59999.63
561.78	59973.89
561.94	59917.71
562.11	60126.02
562.27	59875.58
562.44	60149.43
562.60	60172.83
562.77	60016.02
562.93	60020.70
563.10	60027.72
563.26	60013.68
563.42	60317.95
563.59	60205.60
563.75	60144.75
563.92	60177.51
564.08	60109.64
564.24	60395.18
564.41	60271.14
564.57	60292.20
564.74	60313.26
564.90	60449.02
565.07	60165.81
565.23	60353.05
565.39	60210.28
565.56	60287.52
565.72	60331.99
565.88	60458.38
566.05	60413.91
566.21	60348.37
566.38	60247.73
566.54	60420.93
566.70	60175.17
566.87	60493.49
567.03	60214.96
567.19	60378.80
567.36	60463.06
567.52	60582.43
567.68	60762.65
567.85	60512.21
568.01	60594.13
568.17	60566.04
568.34	60636.26
568.50	60533.28
568.66	60472.42
568.83	60570.72
568.99	60530.93
569.15	60608.17
569.32	60587.11
569.48	60664.35
569.64	60640.94
569.81	60676.05
569.97	60727.54
570.13	60746.26
570.30	60542.64
570.46	60650.30
570.62	60617.53
570.78	60851.59
570.95	60498.17
571.11	60907.76
571.27	60907.76
571.43	60732.22
571.60	60933.51
571.76	60790.73
571.92	60767.33
572.09	60802.44
572.25	60872.65
572.41	60748.60
572.57	60786.05
572.74	60856.27
572.90	60842.23
573.06	60893.72
573.22	60786.05
573.38	60884.36
573.55	60837.54
573.71	61097.34
573.87	60844.57
574.03	60732.22
574.20	60825.84
574.36	60753.29
574.52	61052.87
574.68	61095.00
574.84	61087.98
575.01	60938.19
575.17	60893.72
575.33	60802.44
575.49	60844.57
575.65	60835.20
575.82	61146.50
575.98	60851.59
576.14	60938.19
576.30	60975.64
576.46	60867.97
576.62	60718.18
576.79	60755.63
576.95	60708.82
577.11	60837.54
577.27	60952.23
577.43	60891.38
577.59	60725.20
577.75	60891.38
577.92	60879.67
578.08	60935.85
578.24	60996.70
578.40	61029.47
578.56	61071.60
578.72	60898.40
578.88	61083.30
579.04	61167.56
579.21	61127.77
579.37	61010.74
579.53	61073.94
579.69	60907.76
579.85	60893.72
580.01	60931.17
580.17	60877.33
580.33	61109.05
580.49	61237.78
580.65	61113.73
580.82	60956.91
580.98	61024.79
581.14	60992.02
581.30	60977.98
581.46	60828.18
581.62	61240.12
581.78	61031.81
581.94	61104.37
582.10	61069.26
582.26	61041.17
582.42	61109.05
582.58	61020.11
582.74	61041.17
582.90	61165.22
583.06	61036.49
583.22	60938.19
583.38	61073.94
583.54	61116.07
583.70	61160.54
583.86	61242.46
584.02	61183.94
584.18	61202.67
584.34	61186.28
584.50	61045.85
584.66	61038.83
584.82	60774.35
584.98	61207.35
585.14	61027.13
585.30	61062.24
585.46	61193.31
585.62	61169.90
585.78	61375.87
585.94	60966.27
586.10	61254.16
586.26	61076.28
586.42	61228.41
586.58	61167.56
586.74	61233.10
586.90	61216.71
587.06	61172.24
587.22	61286.93
587.38	61200.33
587.54	61263.52
587.70	61382.89
587.86	61071.60
588.02	61080.96
588.18	61291.61
588.34	61212.03
588.49	61226.07
