SpectraSuite Data File
++++++++++++++++++++++++++++++++++++
Date: Fri Oct 25 10:44:55 EDT 2013
User: price-jones
Dark Spectrum Present: No
Reference Spectrum Present: No
Number of Sampled Component Spectra: 1
Spectrometers: USB2+H05261
Integration Time (usec): 100000 (USB2+H05261)
Spectra Averaged: 1 (USB2+H05261)
Boxcar Smoothing: 0 (USB2+H05261)
Correct for Electrical Dark: No (USB2+H05261)
Strobe/Lamp Enabled: No (USB2+H05261)
Correct for Detector Non-linearity: No (USB2+H05261)
Correct for Stray Light: No (USB2+H05261)
Number of Pixels in Processed Spectrum: 2048
>>>>>Begin Processed Spectral Data<<<<<
365.73	77.24
365.92	77.24
366.12	77.24
366.32	9.36
366.52	0.00
366.72	81.92
366.91	46.81
367.11	39.79
367.31	28.09
367.51	100.64
367.70	21.06
367.90	0.00
368.10	18.72
368.30	21.06
368.49	14.04
368.69	2.34
368.89	11.70
369.09	86.60
369.28	16.38
369.48	2.34
369.68	74.90
369.87	105.32
370.07	56.17
370.27	114.69
370.47	189.58
370.66	388.53
370.86	334.70
371.06	404.91
371.25	489.17
371.45	470.45
371.65	479.81
371.84	430.66
372.04	496.19
372.24	454.06
372.44	451.72
372.63	461.09
372.83	451.72
373.03	528.96
373.22	437.68
373.42	470.45
373.62	479.81
373.81	505.56
374.01	545.34
374.21	505.56
374.40	559.39
374.60	557.05
374.79	538.32
374.99	531.30
375.19	606.20
375.38	606.20
375.58	517.26
375.78	596.84
375.97	547.69
376.17	601.52
376.37	514.92
376.56	540.66
376.76	500.87
376.95	587.47
377.15	580.45
377.35	552.37
377.54	650.67
377.74	657.69
377.93	543.00
378.13	610.88
378.33	634.29
378.52	580.45
378.72	641.31
378.91	594.50
379.11	620.24
379.31	615.56
379.50	566.41
379.70	603.86
379.89	702.16
380.09	617.90
380.28	683.44
380.48	627.26
380.68	636.63
380.87	599.18
381.07	615.56
381.26	648.33
381.46	718.54
381.65	732.59
381.85	594.50
382.04	573.43
382.24	711.52
382.43	617.90
382.63	573.43
382.83	713.86
383.02	664.71
383.22	657.69
383.41	692.80
383.61	739.61
383.80	748.97
384.00	636.63
384.19	713.86
384.39	683.44
384.58	688.12
384.78	662.37
384.97	734.93
385.17	802.80
385.36	674.07
385.56	650.67
385.75	683.44
385.95	774.72
386.14	821.53
386.34	791.10
386.53	795.78
386.72	772.38
386.92	779.40
387.11	786.42
387.31	791.10
387.50	835.57
387.70	844.93
387.89	772.38
388.09	849.61
388.28	777.06
388.48	863.66
388.67	861.32
388.86	791.10
389.06	858.98
389.25	826.21
389.45	915.15
389.64	908.13
389.84	891.74
390.03	889.40
390.22	983.02
390.42	880.04
390.61	912.81
390.81	987.71
391.00	917.49
391.19	882.38
391.39	936.21
391.58	882.38
391.78	931.53
391.97	938.55
392.16	945.58
392.36	952.60
392.55	936.21
392.75	840.25
392.94	959.62
393.13	905.79
393.33	926.85
393.52	964.30
393.71	1025.15
393.91	1032.18
394.10	1029.84
394.29	987.71
394.49	1008.77
394.68	1078.99
394.88	1135.16
395.07	1139.84
395.26	1153.88
395.46	1104.73
395.65	1196.01
395.84	1153.88
396.04	1219.42
396.23	1064.94
396.42	1055.58
396.62	1139.84
396.81	1062.60
397.00	1137.50
397.19	1097.71
397.39	1144.52
397.58	1174.95
397.77	1081.33
397.97	1221.76
398.16	1294.32
398.35	1334.11
398.55	1252.19
398.74	1287.29
398.93	1362.19
399.12	1291.98
399.32	1322.40
399.51	1280.27
399.70	1345.81
399.90	1366.87
400.09	1401.98
400.28	1380.92
400.47	1476.88
400.67	1385.60
400.86	1406.66
401.05	1460.49
401.24	1430.07
401.44	1390.28
401.63	1528.37
401.82	1472.20
402.01	1462.83
402.21	1437.09
402.40	1476.88
402.59	1519.01
402.78	1528.37
402.97	1558.80
403.17	1472.20
403.36	1678.16
403.55	1619.65
403.74	1593.90
403.93	1675.82
404.13	1668.80
404.32	1680.50
404.51	1584.54
404.70	1652.42
404.89	1591.56
405.09	1710.93
405.28	1732.00
405.47	1701.57
405.66	1647.74
405.85	1687.53
406.05	1675.82
406.24	1886.47
406.43	1767.10
406.62	1839.66
406.81	1954.35
407.00	1785.83
407.20	1907.54
407.39	1898.17
407.58	1865.41
407.77	1940.30
407.96	1895.83
408.15	1902.86
408.34	1870.09
408.54	2038.61
408.73	1947.33
408.92	2083.08
409.11	2052.65
409.30	2064.35
409.49	1973.07
409.68	1956.69
409.87	1998.82
410.07	2111.16
410.26	2097.12
410.45	2165.00
410.64	2040.95
410.83	2155.63
411.02	2303.09
411.21	2291.38
411.40	2300.75
411.59	2200.10
411.78	2225.85
411.98	2319.47
412.17	2408.41
412.36	2251.60
412.55	2335.85
412.74	2410.75
412.93	2406.07
413.12	2427.14
413.31	2621.40
413.50	2499.69
413.69	2530.12
413.88	2520.76
414.07	2609.70
414.26	2558.21
414.45	2565.23
414.64	2572.25
414.83	2729.06
415.02	2708.00
415.22	2661.19
415.41	2757.15
415.60	2719.70
415.79	2834.39
415.98	2820.35
416.17	2761.83
416.36	2813.32
416.55	2773.53
416.74	2862.48
416.93	2876.52
417.12	2876.52
417.31	2899.92
417.50	2939.71
417.69	3045.04
417.88	3089.51
418.07	3014.61
418.26	2899.92
418.45	3073.12
418.64	3272.07
418.83	3251.00
419.02	3204.19
419.21	3112.91
419.39	3218.24
419.58	2995.89
419.77	3049.72
419.96	3234.62
420.15	3166.74
420.34	3262.71
420.53	3318.88
420.72	3349.31
420.91	3382.07
421.10	3351.65
421.29	3365.69
421.48	3321.22
421.67	3473.36
421.86	3403.14
422.05	3321.22
422.24	3393.78
422.43	3487.40
422.61	3475.70
422.80	3419.52
422.99	3566.98
423.18	3536.55
423.37	3501.44
423.56	3492.08
423.75	3618.47
423.94	3384.41
424.13	3325.90
424.32	3368.03
424.50	3489.74
424.69	3494.42
424.88	3545.91
425.07	3337.60
425.26	3461.65
425.45	3592.72
425.64	3522.51
425.83	3501.44
426.01	3655.92
426.20	3487.40
426.39	3595.06
426.58	3583.36
426.77	3602.08
426.96	3508.46
427.15	3564.64
427.33	3531.87
427.52	3590.38
427.71	3637.19
427.90	3688.68
428.09	3604.42
428.28	3721.45
428.46	3805.71
428.65	3758.90
428.84	3758.90
429.03	3728.47
429.22	3660.60
429.40	3833.80
429.59	3733.15
429.78	3604.42
429.97	3529.53
430.16	3618.47
430.34	3829.12
430.53	3829.12
430.72	3871.25
430.91	3995.29
431.10	3929.76
431.28	4018.70
431.47	4079.55
431.66	4095.94
431.85	4102.96
432.03	4117.00
432.22	4273.82
432.41	4255.09
432.60	4203.60
432.79	4224.67
432.97	4344.03
433.16	4231.69
433.35	4014.02
433.54	4067.85
433.72	4229.35
433.91	4161.47
434.10	4334.67
434.28	4311.27
434.47	4315.95
434.66	4409.57
434.85	4442.34
435.03	4428.29
435.22	4320.63
435.41	4601.49
435.59	4713.84
435.78	4444.68
435.97	4545.32
436.16	4587.45
436.34	4376.80
436.53	4554.68
436.72	4678.73
436.90	4587.45
437.09	4681.07
437.28	4589.79
437.46	4521.92
437.65	4685.75
437.84	4671.71
438.02	4807.46
438.21	4739.58
438.40	4545.32
438.58	4793.42
438.77	4861.29
438.96	4779.37
439.14	4985.34
439.33	5020.45
439.52	5125.77
439.70	5259.18
439.89	5195.99
440.08	5186.63
440.26	5226.42
440.45	5107.05
440.63	5069.60
440.82	5404.30
441.01	5270.89
441.19	5277.91
441.38	5486.22
441.57	5380.89
441.75	5605.58
441.94	5568.13
442.12	5511.96
442.31	5776.44
442.50	5612.60
442.68	5731.97
442.87	5526.00
443.05	5666.44
443.24	5727.29
443.43	5743.67
443.61	5788.14
443.80	6010.50
443.98	5657.07
444.17	5701.54
444.35	5933.26
444.54	5860.70
444.73	5710.91
444.91	5755.38
445.10	5757.72
445.28	5750.70
445.47	5706.23
445.65	5699.20
445.84	5923.90
446.02	5856.02
446.21	5837.30
446.39	5804.53
446.58	5954.32
446.77	5994.11
446.95	5783.46
447.14	5834.96
447.32	6087.73
447.51	5996.45
447.69	5935.60
447.88	5980.07
448.06	6038.58
448.25	5933.26
448.43	6076.03
448.62	5921.56
448.80	5984.75
448.99	6015.18
449.17	6303.06
449.36	5961.34
449.54	6277.32
449.73	6410.73
449.91	6312.42
450.10	6207.10
450.28	6279.66
450.46	6249.23
450.65	6366.26
450.83	6333.49
451.02	6284.34
451.20	6377.96
451.39	6366.26
451.57	6509.03
451.76	6427.11
451.94	6396.68
452.13	6675.21
452.31	6483.28
452.49	6335.83
452.68	6745.42
452.86	6377.96
453.05	6750.10
453.23	6551.16
453.42	6565.20
453.60	6586.27
453.78	6633.08
453.97	6647.12
454.15	6712.66
454.34	6600.31
454.52	6757.13
454.70	6881.18
454.89	6766.49
455.07	6820.32
455.26	6855.43
455.44	7066.08
455.62	6855.43
455.81	6988.84
455.99	6881.18
456.17	7096.50
456.36	6839.05
456.54	7068.42
456.73	7005.22
456.91	7330.56
457.09	7225.23
457.28	7286.09
457.46	7150.34
457.64	7335.24
457.83	7274.38
458.01	7023.95
458.19	7358.64
458.38	7171.40
458.56	7311.83
458.74	7452.27
458.93	7414.82
459.11	7447.58
459.29	7304.81
459.48	7604.40
459.66	7363.33
459.84	7454.61
460.03	7499.08
460.21	7606.74
460.39	7691.00
460.57	7662.91
460.76	7686.32
460.94	7735.47
461.12	7873.56
461.31	7899.31
461.49	7815.05
461.67	7782.28
461.85	8049.10
462.04	7801.01
462.22	8215.28
462.40	7868.88
462.59	8030.38
462.77	7866.54
462.95	7815.05
463.13	8074.85
463.32	7955.48
463.50	7913.35
463.68	8018.68
463.86	8058.46
464.05	8107.62
464.23	8182.51
464.41	8205.92
464.59	7913.35
464.78	8238.69
464.96	8283.16
465.14	8278.47
465.32	8276.13
465.50	8397.84
465.69	8175.49
465.87	8226.98
466.05	8327.63
466.23	8241.03
466.41	8407.20
466.60	8428.27
466.78	8159.11
466.96	8329.97
467.14	8266.77
467.32	8285.50
467.51	8479.76
467.69	8196.56
467.87	8500.83
468.05	8610.83
468.23	8500.83
468.41	8547.64
468.60	8739.56
468.78	8617.85
468.96	8531.25
469.14	8748.92
469.32	8664.66
469.50	8667.00
469.69	8961.91
469.87	8800.41
470.05	8915.10
470.23	8903.40
470.41	9036.81
470.59	8912.76
470.77	8765.31
470.95	9109.36
471.14	8936.17
471.32	9177.24
471.50	9275.54
471.68	9291.93
471.86	9163.20
472.04	9324.69
472.22	9474.49
472.40	9132.77
472.58	9425.34
472.77	9486.19
472.95	9371.50
473.13	9858.34
473.31	9446.40
473.49	9516.62
473.67	9614.92
473.85	9769.40
474.03	9795.14
474.21	10031.54
474.39	10008.13
474.57	10047.92
474.75	10281.97
474.93	10054.94
475.12	10078.35
475.30	10214.10
475.48	10017.49
475.66	10157.92
475.84	10244.52
476.02	10408.36
476.20	10263.25
476.38	10511.35
476.56	10939.66
476.74	10665.82
476.92	10729.02
477.10	10628.37
477.28	10888.17
477.46	10918.60
477.64	11084.78
477.82	11119.89
478.00	11211.17
478.18	11480.33
478.36	11272.02
478.54	11281.38
478.72	11337.56
478.90	11653.53
479.08	11676.93
479.26	12009.29
479.44	11887.58
479.62	12112.27
479.80	12049.08
479.98	12365.05
480.16	12343.99
480.34	12367.39
480.52	12631.87
480.70	12404.84
480.88	12329.94
481.06	12547.61
481.24	12994.65
481.41	12849.54
481.59	13135.09
481.77	12889.33
481.95	13067.21
482.13	12854.22
482.31	13319.99
482.49	13327.01
482.67	13544.68
482.85	13710.86
483.03	13745.97
483.21	13642.98
483.39	13998.74
483.57	13865.33
483.74	14178.97
483.92	14265.57
484.10	14083.00
484.28	14345.14
484.46	14710.27
484.64	14581.54
484.82	14462.17
485.00	14785.16
485.18	15016.88
485.35	15131.56
485.53	15073.05
485.71	14946.66
485.89	15279.02
486.07	15115.18
486.25	15239.23
486.43	15360.94
486.61	15545.84
486.78	15634.78
486.96	15955.43
487.14	16114.59
487.32	16212.89
487.50	16149.70
487.68	16643.55
487.85	16744.19
488.03	17013.35
488.21	16854.20
488.39	16938.46
488.57	17013.35
488.75	17062.51
488.92	17355.07
489.10	17841.90
489.28	17561.04
489.46	17788.07
489.64	17972.97
489.81	18216.39
489.99	18600.24
490.17	18380.23
490.35	18635.35
490.53	18693.86
490.70	18871.74
490.88	18764.07
491.06	18979.40
491.24	18757.05
491.41	18899.83
491.59	18960.68
491.77	19328.14
491.95	19267.29
492.13	19538.79
492.30	19578.58
492.48	19927.32
492.66	19922.64
492.84	19838.38
493.01	19924.98
493.19	19892.21
493.37	20201.16
493.54	20603.74
493.72	20343.94
493.90	20620.12
494.08	21207.59
494.25	21128.02
494.43	20905.66
494.61	21422.92
494.79	21324.62
494.96	21305.90
495.14	21448.67
495.32	21781.03
495.49	21654.64
495.67	21818.47
495.85	22082.95
496.02	22333.39
496.20	22436.38
496.38	22277.22
496.55	22492.55
496.73	22895.12
496.91	22895.12
497.09	22862.35
497.26	22988.74
497.44	22855.33
497.62	23360.89
497.79	23225.14
497.97	23396.00
498.14	23503.66
498.32	23770.48
498.50	23297.69
498.67	23786.86
498.85	23960.06
499.03	24194.12
499.20	23824.31
499.38	24060.71
499.56	24252.63
499.73	24259.65
499.91	24184.76
500.08	24474.98
500.26	24348.59
500.44	24645.84
500.61	24692.65
500.79	24526.47
500.97	24966.49
501.14	25099.90
501.32	25170.12
501.49	24727.76
501.67	25055.43
501.84	25144.38
502.02	25406.52
502.20	25680.36
502.37	25963.56
502.55	25434.60
502.72	25881.64
502.90	25589.08
503.07	25771.64
503.25	25874.62
503.43	25825.47
503.60	26139.10
503.78	26054.84
503.95	26005.69
504.13	25708.44
504.30	26867.01
504.48	26380.18
504.65	26948.93
504.83	26625.93
505.01	26902.12
505.18	26705.51
505.36	26899.78
505.53	26766.37
505.71	27505.98
505.88	27358.52
506.06	27087.02
506.23	27171.28
506.41	27571.51
506.58	27178.30
506.76	27555.13
506.93	27740.03
507.11	27903.87
507.28	27615.98
507.46	27625.34
507.63	27709.60
507.81	27838.33
507.98	27735.35
508.16	28669.22
508.33	28442.19
508.50	28280.69
508.68	28489.00
508.85	28823.70
509.03	28641.14
509.20	28428.15
509.38	28863.49
509.55	29034.35
509.73	29186.48
509.90	29240.31
510.08	29186.48
510.25	29010.94
510.42	29371.38
510.60	29488.41
510.77	29507.13
510.95	29628.84
511.12	29261.38
511.30	29848.85
511.47	30068.86
511.64	30073.54
511.82	30157.80
511.99	29876.94
512.17	30008.01
512.34	30057.16
512.51	30382.49
512.69	30000.99
512.86	30476.12
513.04	30560.37
513.21	30572.08
513.38	30637.61
513.56	30333.34
513.73	30572.08
513.90	30780.39
514.08	31021.46
514.25	30885.71
514.43	30967.63
514.60	30925.50
514.77	30969.97
514.95	31309.35
515.12	31314.03
515.29	31171.25
515.47	31606.59
515.64	31534.04
515.81	31328.07
515.99	31283.60
516.16	31634.68
516.33	31325.73
516.51	31618.30
516.68	30890.39
516.85	31644.04
517.03	31459.14
517.20	31653.40
517.37	32079.38
517.54	31964.70
517.72	32154.28
517.89	32093.43
518.06	31847.67
518.24	32175.34
518.41	32009.17
518.58	32163.64
518.75	32163.64
518.93	32622.39
519.10	32945.38
519.27	33027.30
519.45	32809.63
519.62	32671.54
519.79	32404.72
519.96	32912.61
520.14	33029.64
520.31	32622.39
520.48	33097.52
520.65	32711.33
520.83	33687.33
521.00	33521.15
521.17	33930.75
521.34	33584.35
521.52	33687.33
521.69	33677.97
521.86	33486.04
522.03	33865.21
522.20	34174.16
522.38	33881.60
522.55	34141.39
522.72	34448.00
522.89	34115.65
523.07	34272.46
523.24	34553.33
523.41	34792.06
523.58	34274.80
523.75	34487.79
523.92	34471.41
524.10	34965.26
524.27	34675.04
524.44	34913.77
524.61	34508.86
524.78	35096.33
524.96	34810.79
525.13	35756.36
525.30	35239.11
525.47	35510.61
525.64	35374.86
525.81	35442.73
525.98	35040.16
526.16	35009.73
526.33	35026.12
526.50	35475.50
526.67	35065.91
526.84	35634.66
527.01	35416.99
527.18	35885.09
527.36	35505.93
527.53	36102.76
527.70	36156.60
527.87	36067.66
528.04	35981.06
528.21	36044.25
528.38	35962.33
528.55	36580.23
528.72	35732.96
528.89	36552.15
529.07	36280.64
529.24	36273.62
529.41	36189.36
529.58	36542.78
529.75	36292.35
529.92	36479.59
530.09	36814.29
530.26	36568.53
530.43	36549.81
530.60	36971.10
530.77	36107.44
530.94	37263.67
531.11	36769.82
531.28	36959.40
531.46	36975.78
531.63	37031.96
531.80	37055.36
531.97	37216.86
532.14	37134.94
532.31	36950.04
532.48	36931.31
532.65	37273.03
532.82	37055.36
532.99	37654.54
533.16	37024.93
533.33	37804.33
533.50	37799.65
533.67	37748.16
533.84	37450.91
534.01	37495.38
534.18	37270.69
534.35	37497.72
534.52	38078.18
534.69	37895.61
534.86	37965.83
535.03	37713.05
535.20	38129.67
535.37	38389.47
535.54	37949.45
535.71	38012.64
535.88	37717.73
536.05	38202.22
536.22	38169.46
536.38	38754.59
536.55	38375.42
536.72	38279.46
536.89	38309.89
537.06	38127.33
537.23	38808.42
537.40	38630.54
537.57	38817.78
537.74	38218.61
537.91	38974.60
538.08	38909.07
538.25	38497.13
538.42	38712.46
538.59	39100.99
538.75	38628.20
538.92	39047.16
539.09	39009.71
539.26	38649.27
539.43	38934.81
539.60	38817.78
539.77	38918.43
539.94	39342.06
540.11	39133.76
540.28	39323.34
540.44	39225.04
540.61	39381.85
540.78	39484.84
540.95	39541.01
541.12	38852.89
541.29	39496.54
541.46	39229.72
541.62	39559.73
541.79	40032.52
541.96	39442.71
542.13	39679.10
542.30	39477.82
542.47	39622.93
542.63	39618.25
542.80	39978.69
542.97	40271.26
543.14	40074.65
543.31	40334.45
543.48	40280.62
543.64	40524.04
543.81	40758.09
543.98	40491.27
544.15	40261.90
544.32	40659.79
544.48	40942.99
544.65	40470.20
544.82	40451.48
544.99	40437.44
545.16	40505.31
545.32	40357.86
545.49	40893.84
545.66	41249.60
545.83	40884.48
546.00	41020.23
546.16	40954.69
546.33	40446.80
546.50	40470.20
546.67	41134.92
546.83	40650.42
547.00	41551.53
547.17	41195.77
547.34	40676.17
547.50	41289.39
547.67	41188.75
547.84	40727.66
548.00	41748.14
548.17	41635.79
548.34	41317.48
548.51	41947.08
548.67	41574.94
548.84	41195.77
549.01	41640.47
549.18	40989.80
549.34	41123.21
549.51	41493.02
549.68	41902.61
549.84	41640.47
550.01	41886.23
550.18	41727.07
550.34	41713.03
550.51	41904.95
550.68	41567.91
550.84	41645.15
551.01	42146.03
551.18	41441.53
551.34	42384.76
551.51	42185.82
551.68	41801.97
551.84	41811.33
552.01	42064.11
552.18	42274.76
552.34	42141.35
552.51	42672.65
552.68	41853.46
552.84	42108.58
553.01	42515.83
553.18	42293.48
553.34	42106.24
553.51	41734.09
553.67	42344.97
553.84	42314.55
554.01	42532.22
554.17	42887.98
554.34	42429.23
554.51	42583.71
554.67	42822.44
554.84	42497.11
555.00	42773.29
555.17	42204.54
555.33	42410.51
555.50	42274.76
555.67	42387.10
555.83	42623.50
556.00	42850.53
556.16	43636.95
556.33	42492.43
556.50	42438.59
556.66	42859.89
556.83	42176.45
556.99	43585.46
557.16	43241.40
557.32	42843.51
557.49	43217.99
557.65	42796.70
557.82	42639.88
557.98	43072.88
558.15	42932.45
558.32	42876.27
558.48	42672.65
558.65	43084.58
558.81	42660.94
558.98	42700.73
559.14	43042.45
559.31	42878.61
559.47	43356.08
559.64	43131.39
559.80	43482.47
559.97	43213.31
560.13	43014.37
560.30	42967.55
560.46	42969.90
560.63	43416.94
560.79	43166.50
560.96	43587.80
561.12	43510.56
561.29	43014.37
561.45	43023.73
561.61	43475.45
561.78	43454.39
561.94	43115.01
562.11	43288.21
562.27	43236.72
562.44	43599.50
562.60	43700.14
562.77	43487.15
562.93	43388.85
563.10	44100.37
563.26	43510.56
563.42	43611.20
563.59	43360.76
563.75	43412.26
563.92	43728.23
564.08	43899.09
564.24	43618.22
564.41	43784.40
564.57	43611.20
564.74	43583.12
564.90	43594.82
565.07	43992.71
565.23	43606.52
565.39	43777.38
565.56	43494.18
565.72	43522.26
565.88	43723.55
566.05	43765.68
566.21	43625.25
566.38	43697.80
566.54	43697.80
566.70	43964.62
566.87	44238.47
567.03	43915.47
567.19	44088.67
567.36	44240.81
567.52	43625.25
567.68	44151.87
567.85	44098.03
568.01	43625.25
568.17	44201.02
568.34	44025.48
568.50	43814.83
568.66	43852.28
568.83	44107.40
568.99	43679.08
569.15	43901.43
569.32	43976.33
569.48	43714.19
569.64	44151.87
569.81	43915.47
569.97	43966.96
570.13	44266.55
570.30	43566.73
570.46	43423.96
570.62	43915.47
570.78	43667.37
570.95	43931.86
571.11	44168.25
571.27	43735.25
571.43	44158.89
571.60	43988.03
571.76	43681.42
571.92	44250.17
572.09	43955.26
572.25	44069.95
572.41	43934.20
572.57	43983.35
572.74	44430.39
572.90	44212.72
573.06	44334.43
573.22	44170.59
573.38	44243.15
573.55	43643.97
573.71	44161.23
573.87	44282.94
574.03	43927.17
574.20	44098.03
574.36	44313.36
574.52	44388.26
574.68	44280.60
574.84	44254.85
575.01	44472.52
575.17	43835.89
575.33	43660.35
575.49	43849.94
575.65	44182.29
575.82	44872.75
575.98	44493.58
576.14	44250.17
576.30	43913.13
576.46	44332.09
576.62	43852.28
576.79	44046.54
576.95	44109.74
577.11	44198.68
577.27	44245.49
577.43	44589.55
577.59	44154.21
577.75	44182.29
577.92	43807.81
578.08	44418.69
578.24	43793.76
578.40	43849.94
578.56	44034.84
578.72	44414.01
578.88	44573.16
579.04	44645.72
579.21	44453.79
579.37	44622.31
579.53	44280.60
579.69	44156.55
579.85	44201.02
580.01	43931.86
580.17	44346.13
580.33	44542.74
580.49	44296.98
580.65	44545.08
580.82	44360.17
580.98	44282.94
581.14	43887.39
581.30	44629.34
581.46	44341.45
581.62	44634.02
581.78	44189.31
581.94	44732.32
582.10	44259.53
582.26	44940.63
582.42	44147.18
582.58	44332.09
582.74	44224.42
582.90	44587.21
583.06	44737.00
583.22	44704.23
583.38	45013.18
583.54	44657.42
583.70	44406.98
583.86	44678.49
584.02	44259.53
584.18	44781.47
584.34	44268.89
584.50	44521.67
584.66	44318.04
584.82	44332.09
584.98	44484.22
585.14	44442.09
585.30	44135.48
585.46	44580.18
585.62	44313.36
585.78	44329.75
585.94	44224.42
586.10	44577.84
586.26	44304.00
586.42	44636.36
586.58	44516.99
586.74	44729.98
586.90	44453.79
587.06	44327.41
587.22	44334.43
587.38	44360.17
587.54	44573.16
587.70	44533.37
587.86	44612.95
588.02	44624.65
588.18	44800.19
588.34	44636.36
588.49	44259.53
588.65	43924.83
588.81	44343.79
588.97	44329.75
589.13	44320.38
589.29	44383.58
589.45	44411.67
589.61	44875.09
589.77	44425.71
589.93	44949.99
590.08	44804.88
590.24	45127.87
590.40	44556.78
