SpectraSuite Data File
++++++++++++++++++++++++++++++++++++
Date: Fri Oct 25 11:26:02 EDT 2013
User: price-jones
Dark Spectrum Present: No
Reference Spectrum Present: No
Number of Sampled Component Spectra: 1
Spectrometers: USB2+H05261
Integration Time (usec): 100000 (USB2+H05261)
Spectra Averaged: 1 (USB2+H05261)
Boxcar Smoothing: 0 (USB2+H05261)
Correct for Electrical Dark: No (USB2+H05261)
Strobe/Lamp Enabled: No (USB2+H05261)
Correct for Detector Non-linearity: No (USB2+H05261)
Correct for Stray Light: No (USB2+H05261)
Number of Pixels in Processed Spectrum: 2048
>>>>>Begin Processed Spectral Data<<<<<
365.73	255.12
365.92	255.12
366.12	255.12
366.32	152.13
366.52	182.56
366.72	154.48
366.91	145.11
367.11	142.77
367.31	145.11
367.51	163.84
367.70	72.56
367.90	128.73
368.10	112.35
368.30	126.39
368.49	161.50
368.69	175.54
368.89	142.77
369.09	194.26
369.28	203.63
369.48	152.13
369.68	234.05
369.87	224.69
370.07	257.46
370.27	215.33
370.47	393.21
370.66	599.18
370.86	627.26
371.06	650.67
371.25	699.82
371.45	669.39
371.65	702.16
371.84	760.67
372.04	627.26
372.24	723.23
372.44	737.27
372.63	706.84
372.83	765.36
373.03	816.85
373.22	786.42
373.42	739.61
373.62	770.04
373.81	875.36
374.01	891.74
374.21	833.23
374.40	753.65
374.60	788.76
374.79	894.08
374.99	849.61
375.19	830.89
375.38	807.48
375.58	842.59
375.78	870.68
375.97	952.60
376.17	919.83
376.37	950.26
376.56	847.27
376.76	798.12
376.95	894.08
377.15	954.94
377.35	868.34
377.54	887.06
377.74	835.57
377.93	828.55
378.13	954.94
378.33	919.83
378.52	908.13
378.72	931.53
378.91	915.15
379.11	978.34
379.31	987.71
379.50	1041.54
379.70	1055.58
379.89	1025.15
380.09	947.92
380.28	1041.54
380.48	1046.22
380.68	959.62
380.87	936.21
381.07	1076.65
381.26	1022.81
381.46	1069.62
381.65	1083.67
381.85	1043.88
382.04	1013.45
382.24	1036.86
382.43	1151.54
382.63	1036.86
382.83	1104.73
383.02	1081.33
383.22	1104.73
383.41	1095.37
383.61	1132.82
383.80	1095.37
384.00	1174.95
384.19	1055.58
384.39	1160.91
384.58	1128.14
384.78	1165.59
384.97	1125.80
385.17	1160.91
385.36	1217.08
385.56	1214.74
385.75	1146.86
385.95	1188.99
386.14	1270.91
386.34	1252.19
386.53	1247.51
386.72	1191.33
386.92	1233.46
387.11	1303.68
387.31	1224.10
387.50	1196.01
387.70	1270.91
387.89	1191.33
388.09	1252.19
388.28	1320.06
388.48	1238.14
388.67	1327.08
388.86	1270.91
389.06	1233.46
389.25	1315.38
389.45	1338.79
389.64	1273.25
389.84	1399.64
390.03	1345.81
390.22	1474.54
390.42	1401.98
390.61	1331.76
390.81	1399.64
391.00	1418.36
391.19	1437.09
391.39	1418.36
391.58	1462.83
391.78	1462.83
391.97	1519.01
392.16	1462.83
392.36	1577.52
392.55	1446.45
392.75	1486.24
392.94	1504.96
393.13	1568.16
393.33	1507.30
393.52	1561.14
393.71	1575.18
393.91	1554.12
394.10	1495.60
394.29	1579.86
394.49	1603.27
394.68	1659.44
394.88	1563.48
395.07	1596.25
395.26	1659.44
395.46	1687.53
395.65	1612.63
395.84	1830.30
396.04	1762.42
396.23	1727.32
396.42	1750.72
396.62	1813.92
396.81	1734.34
397.00	1755.40
397.19	1797.53
397.39	1839.66
397.58	1825.62
397.77	1795.19
397.97	1912.22
398.16	1895.83
398.35	1877.11
398.55	1923.92
398.74	1886.47
398.93	1898.17
399.12	1914.56
399.32	1893.49
399.51	1966.05
399.70	1984.77
399.90	1975.41
400.09	1975.41
400.28	1961.37
400.47	2026.90
400.67	2108.82
400.86	2183.72
401.05	2099.46
401.24	2085.42
401.44	2183.72
401.63	2092.44
401.82	2165.00
402.01	2129.89
402.21	2167.34
402.40	2228.19
402.59	2183.72
402.78	2211.81
402.97	2305.43
403.17	2190.74
403.36	2232.87
403.55	2291.38
403.74	2438.84
403.93	2415.43
404.13	2317.13
404.32	2389.69
404.51	2286.70
404.70	2445.86
404.89	2431.82
405.09	2363.94
405.28	2534.80
405.47	2459.90
405.66	2534.80
405.85	2569.91
406.05	2480.97
406.24	2586.29
406.43	2581.61
406.62	2558.21
406.81	2740.77
407.00	2555.86
407.20	2548.84
407.39	2609.70
407.58	2761.83
407.77	2661.19
407.96	2654.17
408.15	2792.26
408.34	2766.51
408.54	2899.92
408.73	2693.96
408.92	2771.19
409.11	2731.41
409.30	2843.75
409.49	2892.90
409.68	2885.88
409.87	3012.27
410.07	3054.40
410.26	2988.86
410.45	3033.33
410.64	3009.93
410.83	3129.30
411.02	3068.44
411.21	3234.62
411.40	3098.87
411.59	3290.79
411.78	3328.24
411.98	3152.70
412.17	3115.25
412.36	3398.46
412.55	3262.71
412.74	3419.52
412.93	3337.60
413.12	3204.19
413.31	3524.85
413.50	3503.78
413.69	3510.80
413.88	3515.48
414.07	3578.68
414.26	3653.58
414.45	3705.07
414.64	3611.45
414.83	3700.39
415.02	3702.73
415.22	3646.55
415.41	3906.35
415.60	3803.37
415.79	3878.27
415.98	3906.35
416.17	3992.95
416.36	4044.45
416.55	3885.29
416.74	4049.13
416.93	4016.36
417.12	4159.13
417.31	4079.55
417.50	4163.81
417.69	4318.29
417.88	4154.45
418.07	4243.39
418.26	4355.74
418.45	4299.56
418.64	4400.21
418.83	4301.90
419.02	4395.53
419.21	4627.24
419.39	4552.34
419.58	4449.36
419.77	4341.69
419.96	4655.33
420.15	4652.98
420.34	4507.87
420.53	4554.68
420.72	4760.65
420.91	4615.54
421.10	4610.86
421.29	4837.89
421.48	4767.67
421.67	4856.61
421.86	4844.91
422.05	4805.12
422.24	4723.20
422.43	4816.82
422.61	4931.51
422.80	4915.12
422.99	4945.55
423.18	4861.29
423.37	4959.60
423.56	4950.23
423.75	4814.48
423.94	4880.02
424.13	4645.96
424.32	4844.91
424.50	5011.09
424.69	4957.25
424.88	4971.30
425.07	4910.44
425.26	4901.08
425.45	4894.06
425.64	4821.50
425.83	4802.78
426.01	4968.96
426.20	5170.24
426.39	5046.20
426.58	5060.24
426.77	4992.36
426.96	5071.94
427.15	5039.17
427.33	5203.01
427.52	5268.55
427.71	5315.36
427.90	5135.14
428.09	5165.56
428.28	5231.10
428.46	5245.14
428.65	5308.34
428.84	5481.53
429.03	5518.98
429.22	5472.17
429.40	5451.11
429.59	5446.43
429.78	5373.87
429.97	5095.35
430.16	5413.66
430.34	5533.03
430.53	5626.65
430.72	5692.18
430.91	5650.05
431.10	5596.22
431.28	5708.57
431.47	5757.72
431.66	5837.30
431.85	5664.10
432.03	5959.00
432.22	6036.24
432.41	6017.52
432.60	5951.98
432.79	5830.27
432.97	6045.60
433.16	5895.81
433.35	5984.75
433.54	6167.31
433.72	6057.31
433.91	6059.65
434.10	6218.80
434.28	6179.01
434.47	6186.04
434.66	6125.18
434.85	6246.89
435.03	6279.66
435.22	6228.17
435.41	6485.62
435.59	6303.06
435.78	6506.69
435.97	6403.71
436.16	6462.22
436.34	6284.34
436.53	6527.75
436.72	6586.27
436.90	6392.00
437.09	6686.91
437.28	6413.07
437.46	6633.08
437.65	6597.97
437.84	6733.72
438.02	6633.08
438.21	6876.49
438.40	6724.36
438.58	6916.28
438.77	7222.89
438.96	7035.65
439.14	6939.69
439.33	7199.49
439.52	7082.46
439.70	7260.34
439.89	7272.04
440.08	7265.02
440.26	7360.98
440.45	7314.17
440.63	7508.44
440.82	7754.19
441.01	7513.12
441.19	7562.27
441.38	7775.26
441.57	7698.02
441.75	7831.43
441.94	8135.70
442.12	7913.35
442.31	8140.38
442.50	8175.49
442.68	7857.18
442.87	8021.02
443.05	7990.59
443.24	8009.31
443.43	8163.79
443.61	8021.02
443.80	8290.18
443.98	8072.51
444.17	7747.17
444.35	8367.42
444.54	8358.05
444.73	8234.00
444.91	8437.63
445.10	8091.23
445.28	8184.85
445.47	8140.38
445.65	8219.96
445.84	8334.65
446.02	8428.27
446.21	8505.51
446.39	8243.37
446.58	8280.82
446.77	8376.78
446.95	8276.13
447.14	8451.67
447.32	8505.51
447.51	8475.08
447.69	8241.03
447.88	8468.06
448.06	8524.23
448.25	8559.34
448.43	8491.46
448.62	8685.73
448.80	8486.78
448.99	8814.46
449.17	8870.63
449.36	8589.77
449.54	8952.55
449.73	8762.97
449.91	8959.57
450.10	8933.82
450.28	9221.71
450.46	9050.85
450.65	9146.81
450.83	9067.24
451.02	9011.06
451.20	9130.43
451.39	9130.43
451.57	8882.33
451.76	8910.42
451.94	9254.48
452.13	9294.27
452.31	9259.16
452.49	9060.21
452.68	9383.21
452.86	9317.67
453.05	9437.04
453.23	9387.89
453.42	9331.72
453.60	9572.79
453.78	9635.99
453.97	9430.02
454.15	9530.66
454.34	9362.14
454.52	9767.06
454.70	9570.45
454.89	9671.09
455.07	9753.01
455.26	9921.53
455.44	9867.70
455.62	9966.00
455.81	9769.40
455.99	10036.22
456.17	10270.27
456.36	9935.57
456.54	10127.50
456.73	10162.61
456.91	10181.33
457.09	10289.00
457.28	10377.94
457.46	10335.81
457.64	10555.82
457.83	10649.44
458.01	10399.00
458.19	10553.48
458.38	10387.30
458.56	10714.97
458.74	10733.70
458.93	10778.17
459.11	10682.20
459.29	10743.06
459.48	10876.47
459.66	10703.27
459.84	10846.04
460.03	10897.53
460.21	10909.24
460.39	10965.41
460.57	11073.07
460.76	11220.53
460.94	11265.00
461.12	11126.91
461.31	11101.16
461.49	11171.38
461.67	11082.44
461.85	11309.47
462.04	11131.59
462.22	11747.15
462.40	11463.94
462.59	11536.50
462.77	11487.35
462.95	11459.26
463.13	11515.44
463.32	11672.25
463.50	11613.74
463.68	11683.95
463.86	11953.12
464.05	11583.31
464.23	11552.88
464.41	11796.30
464.59	11447.56
464.78	12100.57
464.96	11899.28
465.14	11737.79
465.32	12004.61
465.50	12067.80
465.69	12343.99
465.87	12006.95
466.05	12126.32
466.23	12210.57
466.41	12470.37
466.60	12402.50
466.78	12327.60
466.96	12032.69
467.14	12332.28
467.32	12416.54
467.51	12468.03
467.69	12379.09
467.87	12444.63
468.05	12788.69
468.23	12297.17
468.41	12531.23
468.60	12507.82
468.78	12566.34
468.96	12669.32
469.14	12800.39
469.32	13050.83
469.50	12631.87
469.69	12896.35
469.87	13207.64
470.05	12996.99
470.23	13184.24
470.41	12966.57
470.59	13186.58
470.77	13146.79
470.95	13235.73
471.14	13502.55
471.32	13025.08
471.50	13806.82
471.68	13722.56
471.86	13673.41
472.04	13638.30
472.22	14136.84
472.40	13582.13
472.58	13886.40
472.77	14059.60
472.95	14143.86
473.13	14583.88
473.31	13951.93
473.49	14083.00
473.67	14281.95
473.85	14300.67
474.03	14539.41
474.21	14427.06
474.39	14710.27
474.57	14656.43
474.75	15049.64
474.93	14860.06
475.12	14883.47
475.30	15080.07
475.48	14871.76
475.66	14930.28
475.84	14846.02
476.02	15246.25
476.20	15309.44
476.38	15737.76
476.56	16042.03
476.74	15625.42
476.92	15812.66
477.10	15824.36
477.28	16142.67
477.46	15995.22
477.64	16208.21
477.82	16313.53
478.00	16854.20
478.18	16664.61
478.36	16980.59
478.54	17146.76
478.72	17221.66
478.90	17322.30
479.08	17551.68
479.26	17481.46
479.44	17554.02
479.62	17671.04
479.80	18071.28
479.98	18302.99
480.16	18607.26
480.34	18288.95
480.52	18551.09
480.70	18703.22
480.88	18265.54
481.06	18878.76
481.24	18808.54
481.41	19236.86
481.59	18916.21
481.77	19421.77
481.95	19569.22
482.13	19569.22
482.31	19648.80
482.49	20348.62
482.67	20194.14
482.85	20311.17
483.03	20601.40
483.21	20549.90
483.39	20800.34
483.57	20772.25
483.74	21432.29
483.92	21359.73
484.10	20994.61
484.28	21792.73
484.46	22092.32
484.64	22176.58
484.82	22033.80
485.00	22242.11
485.18	22775.75
485.35	22974.70
485.53	22911.50
485.71	22932.57
485.89	23220.45
486.07	23307.05
486.25	23337.48
486.43	23379.61
486.61	23506.00
486.78	23985.81
486.96	24238.59
487.14	24666.91
487.32	24376.68
487.50	24992.24
487.68	24891.60
487.85	25062.46
488.03	25682.70
488.21	25652.27
488.39	25448.64
488.57	25912.07
488.75	26206.98
488.92	26356.77
489.10	26647.00
489.28	26724.24
489.46	26705.51
489.64	27218.09
489.81	27690.88
489.99	27576.19
490.17	27639.39
490.35	28095.79
490.53	28002.17
490.70	28283.03
490.88	28531.13
491.06	29015.62
491.24	28826.04
491.41	28809.65
491.59	29371.38
491.77	29010.94
491.95	29558.63
492.13	29436.92
492.30	29954.18
492.48	29649.91
492.66	30185.89
492.84	30338.02
493.01	30614.21
493.19	30773.36
493.37	30834.22
493.54	31351.48
493.72	31119.76
493.90	31145.51
494.08	31583.19
494.25	32308.76
494.43	31983.42
494.61	32053.64
494.79	32393.01
494.96	32027.89
495.14	32692.60
495.32	33226.24
495.49	33095.18
495.67	33015.60
495.85	33193.48
496.02	33720.10
496.20	33998.62
496.38	33752.87
496.55	34000.96
496.73	34724.19
496.91	34361.40
497.09	34733.55
497.26	34693.76
497.44	34951.22
497.62	35255.49
497.79	35693.17
497.97	35688.49
498.14	35793.81
498.32	36121.49
498.50	36091.06
498.67	36685.56
498.85	36194.04
499.03	36954.72
499.20	36610.66
499.38	36849.39
499.56	36994.51
499.73	36968.76
499.91	37469.64
500.08	37523.47
500.26	37067.06
500.44	37647.52
500.61	37652.20
500.79	37441.55
500.97	37912.00
501.14	38679.69
501.32	38440.96
501.49	38499.47
501.67	38174.14
501.84	38951.20
502.02	38560.33
502.20	39056.52
502.37	39093.97
502.55	39187.59
502.72	39358.45
502.90	39138.44
503.07	39690.80
503.25	39578.46
503.43	39309.30
503.60	40013.80
503.78	40102.74
503.95	40280.62
504.13	40252.53
504.30	40713.62
504.48	40294.66
504.65	40603.61
504.83	41048.32
505.01	41525.78
505.18	41263.64
505.36	41509.40
505.53	41207.47
505.71	41357.27
505.88	41743.45
506.06	41205.13
506.23	41806.65
506.41	41448.55
506.58	41928.36
506.76	42328.59
506.93	42335.61
507.11	42160.07
507.28	42387.10
507.46	42674.99
507.63	42457.32
507.81	43480.13
507.98	42574.34
508.16	43049.47
508.33	43377.15
508.50	43730.57
508.68	43318.64
508.85	43997.39
509.03	43524.60
509.20	43913.13
509.38	44336.77
509.55	44165.91
509.73	44470.18
509.90	44112.08
510.08	44282.94
510.25	44612.95
510.42	44587.21
510.60	44832.96
510.77	45006.16
510.95	45137.23
511.12	45013.18
511.30	44912.54
511.47	45057.65
511.64	45544.48
511.82	45413.41
511.99	45696.62
512.17	45888.54
512.34	45600.66
512.51	46122.60
512.69	46181.11
512.86	46373.03
513.04	46562.62
513.21	46529.85
513.38	46761.56
513.56	46988.60
513.73	46735.82
513.90	46913.70
514.08	46822.42
514.25	47234.35
514.43	47255.42
514.60	47695.44
514.77	47264.78
514.95	47634.58
515.12	47374.78
515.29	47327.97
515.47	47580.75
515.64	47580.75
515.81	47882.68
515.99	47767.99
516.16	48013.75
516.33	47971.62
516.51	48652.72
516.68	48353.13
516.85	48318.02
517.03	48870.39
517.20	48931.24
517.37	48608.25
517.54	48715.91
517.72	48641.01
517.89	48535.69
518.06	49179.34
518.24	48694.85
518.41	49223.81
518.58	49462.54
518.75	49392.33
518.93	49387.64
519.10	49148.91
519.27	49914.26
519.45	49598.29
519.62	49610.00
519.79	49766.81
519.96	50143.64
520.14	49895.54
520.31	49911.92
520.48	50309.82
520.65	50155.34
520.83	50618.77
521.00	50609.40
521.17	50543.87
521.34	50529.83
521.52	50394.07
521.69	50916.01
521.86	50791.97
522.03	51154.75
522.20	51264.75
522.38	51547.96
522.55	51124.32
522.72	51056.45
522.89	51391.14
523.07	51683.71
523.24	51496.47
523.41	51611.15
523.58	51318.59
523.75	51166.45
523.92	51683.71
524.10	51964.57
524.27	51772.65
524.44	52109.69
524.61	51756.27
524.78	52025.43
524.96	52278.21
525.13	52303.95
525.30	52217.35
525.47	52231.40
525.64	52341.40
525.81	52566.09
525.98	52449.06
526.16	52732.27
526.33	52708.86
526.50	52729.93
526.67	52662.05
526.84	52570.77
527.01	52896.11
527.18	52797.80
527.36	52669.08
527.53	52828.23
527.70	53359.53
527.87	53165.27
528.04	53214.42
528.21	53258.89
528.38	53521.03
528.55	53249.53
528.72	53478.90
528.89	53422.73
529.07	53389.96
529.24	53373.58
529.41	53808.92
529.58	53389.96
529.75	53993.82
529.92	53909.56
530.09	53591.25
530.26	53682.53
530.43	53947.01
530.60	53780.83
530.77	53502.31
530.94	53883.81
531.11	53996.16
531.28	53827.64
531.46	54003.18
531.63	54134.25
531.80	54277.02
531.97	54209.15
532.14	54174.04
532.31	54314.47
532.48	54314.47
532.65	54431.50
532.82	54468.95
532.99	54677.25
533.16	54466.61
533.33	54798.96
533.50	54782.58
533.67	54829.39
533.84	54452.56
534.01	54665.55
534.18	54733.43
534.35	55384.10
534.52	55023.65
534.69	55152.38
534.86	55084.51
535.03	54698.32
535.20	55065.78
535.37	55117.28
535.54	55229.62
535.71	55288.13
535.88	55449.63
536.05	55215.58
536.22	55723.47
536.38	55320.90
536.55	55288.13
536.72	55660.28
536.89	55501.12
537.06	55620.49
537.23	55508.14
537.40	55477.72
537.57	55463.67
537.74	55714.11
537.91	55849.86
538.08	55721.13
538.25	55529.21
538.42	55915.40
538.59	55856.88
538.75	55636.87
538.92	55891.99
539.09	56018.38
539.26	56011.36
539.43	55950.51
539.60	56002.00
539.77	56114.34
539.94	56114.34
540.11	56233.71
540.28	56388.19
540.44	56432.66
540.61	56507.55
540.78	56451.38
540.95	56545.00
541.12	56376.48
541.29	56523.94
541.46	56409.25
541.62	56275.84
541.79	56601.18
541.96	56296.91
542.13	56519.26
542.30	56622.24
542.47	56690.12
542.63	56755.65
542.80	56853.95
542.97	57116.09
543.14	57083.33
543.31	57127.80
543.48	57123.11
543.64	57427.38
543.81	57319.72
543.98	57113.75
544.15	56945.23
544.32	57525.69
544.48	57516.32
544.65	57251.84
544.82	57338.44
544.99	57198.01
545.16	57427.38
545.32	57347.81
545.49	57474.20
545.66	57497.60
545.83	57623.99
546.00	57888.47
546.16	57429.72
546.33	57595.90
546.50	57340.78
546.67	57565.48
546.83	57616.97
547.00	57584.20
547.17	57521.01
547.34	57822.93
547.50	57921.24
547.67	58148.27
547.84	57855.70
548.00	58071.03
548.17	58148.27
548.34	58026.56
548.51	58216.14
548.67	58033.58
548.84	57872.09
549.01	58164.65
549.18	58195.08
549.34	58136.57
549.51	58122.52
549.68	58157.63
549.84	58450.20
550.01	58415.09
550.18	58152.95
550.34	58506.37
550.51	58342.53
550.68	58356.58
550.84	58162.31
551.01	58330.83
551.18	58344.87
551.34	58412.75
551.51	58562.54
551.68	58651.48
551.84	58539.14
552.01	58564.88
552.18	58588.29
552.34	58349.56
552.51	58829.37
552.68	58499.35
552.84	58642.12
553.01	58908.94
553.18	58728.72
553.34	58834.05
553.51	58677.23
553.67	58787.24
553.84	58688.93
554.01	58862.13
554.17	58834.05
554.34	59107.89
554.51	59068.10
554.67	58827.02
554.84	58965.12
555.00	58885.54
555.17	58995.54
555.33	58941.71
555.50	58878.52
555.67	59086.82
555.83	58810.64
556.00	59035.33
556.16	59344.28
556.33	59147.68
556.50	59133.63
556.66	59222.58
556.83	58850.43
556.99	59320.88
557.16	59505.78
557.32	59433.22
557.49	59664.94
557.65	59276.41
557.82	59470.67
557.98	59234.28
558.15	59512.80
558.32	59480.03
558.48	59351.30
558.65	59433.22
558.81	59447.27
558.98	59377.05
559.14	59475.35
559.31	59608.76
559.47	59529.19
559.64	59620.47
559.80	59639.19
559.97	59728.13
560.13	59613.44
560.30	59592.38
560.46	59798.35
560.63	59774.94
560.79	59599.40
560.96	59796.01
561.12	59625.15
561.29	59721.11
561.45	59688.34
561.61	59788.98
561.78	59704.73
561.94	59744.51
562.11	59730.47
562.27	59714.09
562.44	59955.16
562.60	60097.94
562.77	59856.86
562.93	59728.13
563.10	60020.70
563.26	59845.16
563.42	60055.81
563.59	60172.83
563.75	59863.88
563.92	59866.22
564.08	59903.67
564.24	60257.09
564.41	59796.01
564.57	60182.19
564.74	60072.19
564.90	59803.03
565.07	60093.25
565.23	59938.78
565.39	60076.87
565.56	60184.54
565.72	60067.51
565.88	60034.74
566.05	59913.03
566.21	59990.27
566.38	60137.72
566.54	60097.94
566.70	60144.75
566.87	60133.04
567.03	59948.14
567.19	60378.80
567.36	60191.56
567.52	60207.94
567.68	60666.69
567.85	60257.09
568.01	60362.42
568.17	60348.37
568.34	60390.50
568.50	60168.15
568.66	60395.18
568.83	60264.11
568.99	60329.65
569.15	60507.53
569.32	60303.90
569.48	60303.90
569.64	60493.49
569.81	60374.12
569.97	60289.86
570.13	60460.72
570.30	60240.71
570.46	60451.36
570.62	60374.12
570.78	60507.53
570.95	60252.41
571.11	60544.98
571.27	60519.23
571.43	60638.60
571.60	60516.89
571.76	60364.76
571.92	60392.84
572.09	60561.36
572.25	60608.17
572.41	60493.49
572.57	60526.25
572.74	60559.02
572.90	60502.85
573.06	60498.17
573.22	60523.91
573.38	60797.76
573.55	60615.19
573.71	60584.77
573.87	60477.10
574.03	60495.83
574.20	60727.54
574.36	60575.40
574.52	60596.47
574.68	60638.60
574.84	60577.75
575.01	60701.79
575.17	60622.22
575.33	60636.26
575.49	60409.23
575.65	60683.07
575.82	60776.69
575.98	60753.29
576.14	60931.17
576.30	60678.39
576.46	60537.96
576.62	60669.03
576.79	60612.85
576.95	60523.91
577.11	60849.25
577.27	60956.91
577.43	60638.60
577.59	60617.53
577.75	60643.28
577.92	60683.07
578.08	60626.90
578.24	60706.47
578.40	60903.08
578.56	60746.26
578.72	60800.10
578.88	60882.02
579.04	60865.63
579.21	60809.46
579.37	60926.49
579.53	60926.49
579.69	60603.49
579.85	60521.57
580.01	60580.09
580.17	60601.15
580.33	60959.25
580.49	60793.07
580.65	60893.72
580.82	60821.16
580.98	60547.32
581.14	60683.07
581.30	60814.14
581.46	60772.01
581.62	60776.69
581.78	60912.44
581.94	60985.00
582.10	61006.06
582.26	60589.45
582.42	60739.24
582.58	60924.14
582.74	60877.33
582.90	60720.52
583.06	60870.31
583.22	60694.77
583.38	60879.67
583.54	60846.91
583.70	60776.69
583.86	61027.13
584.02	60835.20
584.18	60900.74
584.34	60987.34
584.50	60713.50
584.66	60697.11
584.82	61080.96
584.98	61134.79
585.14	60992.02
585.30	60676.05
585.46	61146.50
585.62	60809.46
585.78	60893.72
585.94	60746.26
586.10	61069.26
586.26	60879.67
586.42	60992.02
586.58	60860.95
586.74	61141.81
586.90	61111.39
587.06	60809.46
587.22	61197.99
587.38	60900.74
587.54	60996.70
587.70	61127.77
587.86	60975.64
588.02	61120.75
588.18	61062.24
588.34	60896.06
