SpectraSuite Data File
++++++++++++++++++++++++++++++++++++
Date: Fri Oct 25 11:34:24 EDT 2013
User: price-jones
Dark Spectrum Present: No
Reference Spectrum Present: No
Number of Sampled Component Spectra: 1
Spectrometers: USB2+H05261
Integration Time (usec): 100000 (USB2+H05261)
Spectra Averaged: 1 (USB2+H05261)
Boxcar Smoothing: 0 (USB2+H05261)
Correct for Electrical Dark: No (USB2+H05261)
Strobe/Lamp Enabled: No (USB2+H05261)
Correct for Detector Non-linearity: No (USB2+H05261)
Correct for Stray Light: No (USB2+H05261)
Number of Pixels in Processed Spectrum: 2048
>>>>>Begin Processed Spectral Data<<<<<
365.73	294.91
365.92	294.91
366.12	294.91
366.32	248.10
366.52	159.16
366.72	163.84
366.91	222.35
367.11	102.98
367.31	152.13
367.51	191.92
367.70	175.54
367.90	245.76
368.10	159.16
368.30	163.84
368.49	145.11
368.69	187.24
368.89	191.92
369.09	161.50
369.28	170.86
369.48	187.24
369.68	238.73
369.87	266.82
370.07	259.80
370.27	257.46
370.47	367.46
370.66	449.38
370.86	573.43
371.06	587.47
371.25	627.26
371.45	575.77
371.65	507.90
371.84	472.79
372.04	533.64
372.24	521.94
372.44	589.82
372.63	599.18
372.83	578.11
373.03	540.66
373.22	521.94
373.42	578.11
373.62	580.45
373.81	648.33
374.01	592.16
374.21	589.82
374.40	582.79
374.60	608.54
374.79	613.22
374.99	653.01
375.19	645.99
375.38	683.44
375.58	667.05
375.78	627.26
375.97	631.94
376.17	758.33
376.37	662.37
376.56	662.37
376.76	653.01
376.95	622.58
377.15	737.27
377.35	692.80
377.54	690.46
377.74	629.60
377.93	578.11
378.13	629.60
378.33	720.88
378.52	739.61
378.72	704.50
378.91	699.82
379.11	716.20
379.31	702.16
379.50	685.78
379.70	730.25
379.89	688.12
380.09	683.44
380.28	791.10
380.48	741.95
380.68	678.76
380.87	732.59
381.07	777.06
381.26	739.61
381.46	765.36
381.65	711.52
381.85	638.97
382.04	772.38
382.24	683.44
382.43	697.48
382.63	791.10
382.83	753.65
383.02	737.27
383.22	772.38
383.41	746.63
383.61	786.42
383.80	919.83
384.00	802.80
384.19	819.19
384.39	877.70
384.58	767.70
384.78	798.12
384.97	819.19
385.17	802.80
385.36	784.08
385.56	795.78
385.75	746.63
385.95	880.04
386.14	842.59
386.34	821.53
386.53	866.00
386.72	856.64
386.92	837.91
387.11	833.23
387.31	828.55
387.50	856.64
387.70	807.48
387.89	936.21
388.09	915.15
388.28	873.02
388.48	837.91
388.67	847.27
388.86	919.83
389.06	994.73
389.25	952.60
389.45	950.26
389.64	929.19
389.84	938.55
390.03	861.32
390.22	1008.77
390.42	938.55
390.61	922.17
390.81	1020.47
391.00	957.28
391.19	964.30
391.39	926.85
391.58	1020.47
391.78	976.00
391.97	1032.18
392.16	997.07
392.36	1032.18
392.55	964.30
392.75	983.02
392.94	957.28
393.13	1046.22
393.33	1029.84
393.52	1074.31
393.71	1132.82
393.91	1078.99
394.10	1034.52
394.29	1027.50
394.49	1123.46
394.68	1025.15
394.88	1083.67
395.07	1008.77
395.26	983.02
395.46	1062.60
395.65	1217.08
395.84	1114.10
396.04	1146.86
396.23	1151.54
396.42	1165.59
396.62	1203.04
396.81	1315.38
397.00	1214.74
397.19	1160.91
397.39	1282.61
397.58	1228.78
397.77	1247.51
397.97	1177.29
398.16	1231.12
398.35	1289.64
398.55	1212.40
398.74	1233.46
398.93	1242.82
399.12	1200.69
399.32	1350.49
399.51	1224.10
399.70	1355.17
399.90	1207.72
400.09	1324.74
400.28	1371.55
400.47	1294.32
400.67	1376.24
400.86	1399.64
401.05	1390.28
401.24	1348.15
401.44	1425.39
401.63	1310.70
401.82	1348.15
402.01	1394.96
402.21	1455.81
402.40	1376.24
402.59	1427.73
402.78	1409.00
402.97	1369.21
403.17	1551.78
403.36	1486.24
403.55	1516.67
403.74	1500.28
403.93	1547.09
404.13	1526.03
404.32	1526.03
404.51	1607.95
404.70	1596.25
404.89	1579.86
405.09	1610.29
405.28	1636.03
405.47	1638.38
405.66	1650.08
405.85	1586.88
406.05	1617.31
406.24	1736.68
406.43	1722.63
406.62	1785.83
406.81	1743.70
407.00	1699.23
407.20	1746.04
407.39	1762.42
407.58	1874.77
407.77	1788.17
407.96	1774.13
408.15	1816.26
408.34	1809.23
408.54	1842.00
408.73	1865.41
408.92	1839.66
409.11	1944.99
409.30	1970.73
409.49	1893.49
409.68	1900.52
409.87	1933.28
410.07	1980.09
410.26	1947.33
410.45	1895.83
410.64	2064.35
410.83	2083.08
411.02	2146.27
411.21	2113.50
411.40	2036.27
411.59	2150.95
411.78	2150.95
411.98	2232.87
412.17	2232.87
412.36	2143.93
412.55	2242.23
412.74	2256.28
412.93	2258.62
413.12	2333.51
413.31	2356.92
413.50	2347.56
413.69	2279.68
413.88	2455.22
414.07	2399.05
414.26	2415.43
414.45	2375.64
414.64	2541.82
414.83	2448.20
415.02	2579.27
415.22	2525.44
415.41	2581.61
415.60	2530.12
415.79	2595.65
415.98	2614.38
416.17	2654.17
416.36	2590.97
416.55	2647.15
416.74	2696.30
416.93	2628.42
417.12	2806.30
417.31	2761.83
417.50	2752.47
417.69	2836.73
417.88	2846.09
418.07	2846.09
418.26	2832.05
418.45	2820.35
418.64	2843.75
418.83	2913.97
419.02	2991.20
419.21	2883.54
419.39	3007.59
419.58	2939.71
419.77	2869.50
419.96	3030.99
420.15	3014.61
420.34	3082.49
420.53	3045.04
420.72	3141.00
420.91	3162.06
421.10	3133.98
421.29	3206.53
421.48	3222.92
421.67	3276.75
421.86	3141.00
422.05	3206.53
422.24	3080.14
422.43	3155.04
422.61	3227.60
422.80	3368.03
422.99	3365.69
423.18	3316.54
423.37	3318.88
423.56	3323.56
423.75	3232.28
423.94	3126.96
424.13	3143.34
424.32	3318.88
424.50	3307.18
424.69	3454.63
424.88	3346.97
425.07	3358.67
425.26	3351.65
425.45	3276.75
425.64	3370.37
425.83	3295.47
426.01	3251.00
426.20	3433.57
426.39	3433.57
426.58	3248.66
426.77	3440.59
426.96	3452.29
427.15	3328.24
427.33	3428.88
427.52	3449.95
427.71	3545.91
427.90	3501.44
428.09	3522.51
428.28	3623.15
428.46	3529.53
428.65	3548.25
428.84	3592.72
429.03	3737.84
429.22	3529.53
429.40	3527.19
429.59	3602.08
429.78	3522.51
429.97	3501.44
430.16	3590.38
430.34	3684.00
430.53	3744.86
430.72	3749.54
430.91	3758.90
431.10	3808.05
431.28	3751.88
431.47	3854.86
431.66	3852.52
431.85	3660.60
432.03	3894.65
432.22	3992.95
432.41	3845.50
432.60	3913.38
432.79	3939.12
432.97	4037.42
433.16	3953.16
433.35	3786.99
433.54	4058.49
433.72	4154.45
433.91	4159.13
434.10	4028.06
434.28	4152.11
434.47	4081.89
434.66	4131.05
434.85	4276.16
435.03	4215.30
435.22	4161.47
435.41	4278.50
435.59	4177.86
435.78	4280.84
435.97	4301.90
436.16	4264.46
436.34	4451.70
436.53	4304.25
436.72	4367.44
436.90	4285.52
437.09	4283.18
437.28	4329.99
437.46	4243.39
437.65	4322.97
437.84	4491.49
438.02	4528.94
438.21	4498.51
438.40	4353.40
438.58	4711.50
438.77	4575.75
438.96	4746.61
439.14	4636.60
439.33	4704.48
439.52	4704.48
439.70	4688.09
439.89	4842.57
440.08	4884.70
440.26	4887.04
440.45	4854.27
440.63	4880.02
440.82	4880.02
441.01	4816.82
441.19	5020.45
441.38	4936.19
441.57	5022.79
441.75	5055.56
441.94	5142.16
442.12	5219.39
442.31	5245.14
442.50	5287.27
442.68	5247.48
442.87	5252.16
443.05	5282.59
443.24	5427.70
443.43	5380.89
443.61	5289.61
443.80	5638.35
443.98	5195.99
444.17	5200.67
444.35	5352.81
444.54	5596.22
444.73	5418.34
444.91	5462.81
445.10	5334.08
445.28	5383.23
445.47	5467.49
445.65	5317.70
445.84	5411.32
446.02	5624.31
446.21	5600.90
446.39	5533.03
446.58	5446.43
446.77	5565.79
446.95	5533.03
447.14	5507.28
447.32	5734.31
447.51	5563.45
447.69	5549.41
447.88	5664.10
448.06	5675.80
448.25	5621.97
448.43	5757.72
448.62	5685.16
448.80	5605.58
448.99	5584.52
449.17	5825.59
449.36	5738.99
449.54	5689.84
449.73	5919.21
449.91	5865.38
450.10	5853.68
450.28	5902.83
450.46	5893.47
450.65	5916.87
450.83	5912.19
451.02	5841.98
451.20	5970.71
451.39	6022.20
451.57	5909.85
451.76	5956.66
451.94	6029.22
452.13	5987.09
452.31	6111.14
452.49	6108.80
452.68	6274.98
452.86	6012.84
453.05	6083.05
453.23	6242.21
453.42	6092.41
453.60	6179.01
453.78	6272.64
453.97	6300.72
454.15	6237.53
454.34	6214.12
454.52	6342.85
454.70	6333.49
454.89	6354.55
455.07	6289.02
455.26	6389.66
455.44	6494.99
455.62	6490.31
455.81	6485.62
455.99	6607.33
456.17	6441.15
456.36	6520.73
456.54	6586.27
456.73	6675.21
456.91	6857.77
457.09	6810.96
457.28	6864.79
457.46	6628.40
457.64	6703.29
457.83	6878.83
458.01	6612.01
458.19	6984.16
458.38	6864.79
458.56	6822.66
458.74	6981.82
458.93	6939.69
459.11	6867.13
459.29	6869.47
459.48	7049.69
459.66	7042.67
459.84	6949.05
460.03	7087.14
460.21	7274.38
460.39	7260.34
460.57	7185.44
460.76	7218.21
460.94	7201.83
461.12	7274.38
461.31	7047.35
461.49	7112.89
461.67	7262.68
461.85	7379.71
462.04	7393.75
462.22	7901.65
462.40	7541.21
462.59	7396.09
462.77	7520.14
462.95	7524.82
463.13	7562.27
463.32	7393.75
463.50	7581.00
463.68	7571.63
463.86	7667.60
464.05	7482.69
464.23	7712.07
464.41	7618.44
464.59	7573.97
464.78	7871.22
464.96	7758.88
465.14	7705.04
465.32	7702.70
465.50	7817.39
465.69	7695.68
465.87	7826.75
466.05	7833.77
466.23	8077.19
466.41	7922.71
466.60	7950.80
466.78	7885.26
466.96	7978.89
467.14	8013.99
467.32	7927.39
467.51	8032.72
467.69	7761.22
467.87	7941.44
468.05	8093.57
468.23	7929.74
468.41	8074.85
468.60	8140.38
468.78	7988.25
468.96	8154.43
469.14	8159.11
469.32	8418.91
469.50	8379.12
469.69	8231.66
469.87	8341.67
470.05	8475.08
470.23	8372.10
470.41	8482.10
470.59	8435.29
470.77	8437.63
470.95	8505.51
471.14	8755.94
471.32	8519.55
471.50	8887.01
471.68	8751.26
471.86	8884.67
472.04	8732.54
472.22	8814.46
472.40	8706.79
472.58	8819.14
472.77	8863.61
472.95	8938.51
473.13	9235.75
473.31	9043.83
473.49	8896.38
473.67	9144.47
473.85	9135.11
474.03	9214.69
474.21	9451.08
474.39	9273.20
474.57	9380.87
474.75	9671.09
474.93	9551.73
475.12	9654.71
475.30	9575.13
475.48	9598.54
475.66	9806.84
475.84	9685.14
476.02	9715.56
476.20	9872.38
476.38	9797.48
476.56	10258.57
476.74	10162.61
476.92	10010.47
477.10	10125.16
477.28	10483.26
477.46	9989.41
477.64	10420.06
477.82	10366.23
478.00	10846.04
478.18	10572.20
478.36	10876.47
478.54	11063.71
478.72	10909.24
478.90	11105.84
479.08	11344.58
479.26	11283.72
479.44	11269.68
479.62	11187.76
479.80	11613.74
479.98	11456.92
480.16	11630.12
480.34	11499.05
480.52	11866.52
480.70	11737.79
480.88	11712.04
481.06	11868.86
481.24	11719.06
481.41	12180.15
481.59	12369.73
481.77	12339.30
481.95	12414.20
482.13	12613.15
482.31	12332.28
482.49	12943.16
482.67	12713.79
482.85	12725.49
483.03	12943.16
483.21	13254.45
483.39	13273.18
483.57	13067.21
483.74	13525.96
483.92	13593.83
484.10	13437.02
484.28	14087.68
484.46	13909.80
484.64	14092.37
484.82	13855.97
485.00	13949.59
485.18	14508.98
485.35	14707.93
485.53	14286.63
485.71	14506.64
485.89	14848.36
486.07	14771.12
486.25	14766.44
486.43	14778.14
486.61	15098.80
486.78	15059.01
486.96	15300.08
487.14	15407.75
487.32	15372.64
487.50	15515.41
487.68	15974.16
487.85	15758.83
488.03	15915.64
488.21	16372.05
488.39	16173.10
488.57	16402.47
488.75	16489.07
488.92	16875.26
489.10	16760.58
489.28	16893.99
489.46	16989.95
489.64	17081.23
489.81	17334.01
489.99	17460.40
490.17	17338.69
490.35	17797.43
490.53	17767.01
490.70	17855.95
490.88	17869.99
491.06	17764.67
491.24	18263.20
491.41	18340.44
491.59	18141.49
491.77	18347.46
491.95	18389.59
492.13	18775.78
492.30	18850.67
492.48	18902.17
492.66	19126.86
492.84	19105.79
493.01	19646.46
493.19	19520.07
493.37	19601.99
493.54	19503.68
493.72	20020.94
493.90	19906.26
494.08	19796.25
494.25	19978.81
494.43	20411.81
494.61	20563.95
494.79	20702.04
494.96	20435.22
495.14	20601.40
495.32	20636.50
495.49	20961.84
495.67	21076.52
495.85	21039.08
496.02	21177.17
496.20	21469.73
496.38	21701.45
496.55	21694.43
496.73	22244.45
496.91	21764.64
497.09	21834.86
497.26	21858.26
497.44	21809.11
497.62	22120.40
497.79	22597.87
497.97	22249.13
498.14	22630.64
498.32	22558.08
498.50	22838.95
498.67	23143.22
498.85	23014.49
499.03	22850.65
499.20	22946.61
499.38	23679.20
499.56	23346.84
499.73	23585.58
499.91	23742.39
500.08	23658.14
500.26	23557.49
500.44	23878.15
500.61	23978.79
500.79	23901.55
500.97	23871.12
501.14	24301.78
501.32	24407.11
501.49	24004.53
501.67	24353.27
501.84	24386.04
502.02	24734.78
502.20	24767.55
502.37	24788.61
502.55	24713.72
502.72	24987.56
502.90	25165.44
503.07	24854.15
503.25	25085.86
503.43	24905.64
503.60	25434.60
503.78	25233.32
503.95	25284.81
504.13	25497.80
504.30	25673.34
504.48	25738.87
504.65	25621.84
504.83	25710.78
505.01	25905.05
505.18	25933.14
505.36	26560.40
505.53	25949.52
505.71	26384.86
505.88	26181.23
506.06	26239.75
506.23	26492.52
506.41	26211.66
506.58	26775.73
506.76	26768.71
506.93	27110.43
507.11	26806.16
507.28	27250.86
507.46	26972.33
507.63	26984.04
507.81	27417.04
507.98	26909.14
508.16	27304.69
508.33	27686.20
508.50	27564.49
508.68	27580.87
508.85	28039.62
509.03	27611.30
509.20	27779.82
509.38	28149.62
509.55	27997.49
509.73	28191.75
509.90	28383.68
510.08	28636.45
510.25	28095.79
510.42	28650.50
510.60	28709.01
510.77	28505.38
510.95	28727.74
511.12	28629.43
511.30	28746.46
511.47	29050.73
511.64	29097.54
511.82	29116.26
511.99	28947.75
512.17	29170.10
512.34	29167.76
512.51	29308.19
512.69	29738.85
512.86	29242.65
513.04	29876.94
513.21	29532.88
513.38	29582.03
513.56	30134.40
513.73	29762.25
513.90	29935.45
514.08	29865.24
514.25	30122.69
514.43	30061.84
514.60	30263.13
514.77	30522.93
514.95	30747.62
515.12	30412.92
515.29	30331.00
515.47	30551.01
515.64	30866.98
515.81	30754.64
515.99	30782.73
516.16	31061.25
516.33	30773.36
516.51	30958.27
516.68	31094.02
516.85	31271.90
517.03	31297.64
517.20	31246.15
517.37	31314.03
517.54	31475.52
517.72	31892.14
517.89	31709.58
518.06	31674.47
518.24	31871.07
518.41	31632.34
518.58	31613.62
518.75	31545.74
518.93	31936.61
519.10	32135.56
519.27	32353.23
519.45	32107.47
519.62	32357.91
519.79	32402.38
519.96	32685.58
520.14	32634.09
520.31	32268.97
520.48	32940.70
520.65	32491.32
520.83	32905.59
521.00	33301.14
521.17	32975.81
521.34	32987.51
521.52	33130.28
521.69	33127.94
521.86	33612.43
522.03	33532.86
522.20	33450.94
522.38	33216.88
522.55	33673.29
522.72	33579.67
522.89	33675.63
523.07	33804.36
523.24	34150.76
523.41	33710.74
523.58	34171.82
523.75	34129.69
523.92	34162.46
524.10	34176.50
524.27	34092.24
524.44	34323.96
524.61	34314.59
524.78	34501.84
524.96	34628.23
525.13	34843.56
525.30	34752.27
525.47	34588.44
525.64	34686.74
525.81	34855.26
525.98	34895.05
526.16	34831.85
526.33	34719.51
526.50	35531.67
526.67	35255.49
526.84	34958.24
527.01	35424.01
527.18	35337.41
527.36	35538.69
527.53	35501.25
527.70	35536.35
527.87	35625.29
528.04	35489.54
528.21	35749.34
528.38	35505.93
528.55	35681.47
528.72	35934.24
528.89	35796.15
529.07	35669.76
529.24	35789.13
529.41	36154.26
529.58	36189.36
529.75	35772.75
529.92	36666.83
530.09	36053.61
530.26	36107.44
530.43	36561.51
530.60	36095.74
530.77	36091.06
530.94	36390.65
531.11	36416.40
531.28	36336.82
531.46	36837.69
531.63	36011.48
531.80	36683.22
531.97	36556.83
532.14	36734.71
532.31	36659.81
532.48	37242.60
532.65	37092.81
532.82	37120.90
532.99	37024.93
533.16	36858.76
533.33	37113.87
533.50	37305.80
533.67	37612.41
533.84	37247.29
534.01	37418.14
534.18	37130.26
534.35	37696.67
534.52	37230.90
534.69	37717.73
534.86	37804.33
535.03	37947.11
535.20	38082.86
535.37	38094.56
535.54	37886.25
535.71	37954.13
535.88	37766.88
536.05	38066.47
536.22	38059.45
536.38	37830.08
536.55	38249.03
536.72	37919.02
536.89	37816.04
537.06	38417.55
537.23	38272.44
537.40	38115.62
537.57	38466.70
537.74	38373.08
537.91	38405.85
538.08	38611.82
538.25	38302.87
538.42	38440.96
538.59	38859.91
538.75	38745.23
538.92	38843.53
539.09	38969.92
539.26	38754.59
539.43	38780.34
539.60	38843.53
539.77	38803.74
539.94	39133.76
540.11	39318.66
540.28	39503.56
540.44	38909.07
540.61	38822.47
540.78	38979.28
540.95	39246.10
541.12	39068.22
541.29	39349.09
541.46	39548.03
541.62	39346.75
541.79	40308.71
541.96	39210.99
542.13	39461.43
542.30	39625.27
542.47	39590.16
542.63	39849.96
542.80	40121.46
542.97	40250.19
543.14	39896.77
543.31	39861.66
543.48	40519.35
543.64	40329.77
543.81	40299.34
543.98	40442.12
544.15	40004.44
544.32	40783.83
544.48	40772.13
544.65	40575.53
544.82	40493.61
544.99	40418.71
545.16	40786.18
545.32	40353.18
545.49	41167.68
545.66	41017.89
545.83	41001.50
546.00	41160.66
546.16	41071.72
546.33	40704.26
546.50	40708.94
546.67	41411.10
546.83	40531.06
547.00	40875.12
547.17	41380.67
547.34	40940.65
547.50	41198.11
547.67	41766.86
547.84	41280.03
548.00	41596.00
548.17	41525.78
548.34	41036.61
548.51	41975.17
548.67	41710.69
548.84	41415.78
549.01	41928.36
549.18	41223.86
549.34	41574.94
549.51	42124.96
549.68	41528.13
549.84	41998.57
550.01	42075.81
550.18	41830.05
550.34	41968.15
550.51	42103.90
550.68	42153.05
550.84	41448.55
551.01	41993.89
551.18	41921.34
551.34	42232.63
551.51	42131.98
551.68	42157.73
551.84	42167.09
552.01	41806.65
552.18	42375.40
552.34	42157.73
552.51	42796.70
552.68	42078.15
552.84	42082.83
553.01	42115.60
553.18	42492.43
553.34	42611.79
553.51	42476.04
553.67	42782.65
553.84	43077.56
554.01	42815.42
554.17	42665.63
554.34	42366.04
554.51	42674.99
554.67	43290.55
554.84	43115.01
555.00	42789.67
555.17	42639.88
555.33	42871.59
555.50	42707.76
555.67	43005.00
555.83	43096.28
556.00	43091.60
556.16	43405.23
556.33	43342.04
556.50	43096.28
556.66	43297.57
556.83	43110.33
556.99	43498.86
557.16	43241.40
557.32	43335.02
557.49	43395.87
557.65	43051.81
557.82	43590.14
557.98	43426.30
558.15	43360.76
558.32	43714.19
558.48	43304.59
558.65	43648.65
558.81	43793.76
558.98	43407.58
559.14	43487.15
559.31	43658.01
559.47	43498.86
559.64	43381.83
559.80	43243.74
559.97	44142.50
560.13	43552.69
560.30	43805.47
560.46	44018.46
560.63	44105.06
560.79	43878.02
560.96	43955.26
561.12	43721.21
561.29	44002.07
561.45	44177.61
561.61	43936.54
561.78	44105.06
561.94	44046.54
562.11	44222.08
562.27	44055.90
562.44	44189.31
562.60	44044.20
562.77	44250.17
562.93	43782.06
563.10	44238.47
563.26	44285.28
563.42	44601.25
563.59	44484.22
563.75	43985.69
563.92	44435.07
564.08	44425.71
564.24	44444.43
564.41	44135.48
564.57	44615.29
564.74	44179.95
564.90	43906.11
565.07	44172.93
565.23	44362.51
565.39	44252.51
565.56	44638.70
565.72	44268.89
565.88	44428.05
566.05	44402.30
566.21	44769.77
566.38	44397.62
566.54	44856.37
566.70	44659.76
566.87	44327.41
567.03	44804.88
567.19	44699.55
567.36	44619.97
567.52	44416.35
567.68	45020.20
567.85	44854.03
568.01	44868.07
568.17	44622.31
568.34	44828.28
568.50	45020.20
568.66	44294.64
568.83	44631.68
568.99	44708.91
569.15	45420.44
569.32	44519.33
569.48	44699.55
569.64	45277.66
569.81	44729.98
569.97	44893.82
570.13	45141.91
570.30	44926.58
570.46	45249.58
570.62	45010.84
570.78	45158.30
570.95	44985.10
571.11	44933.60
571.27	44685.51
571.43	45237.87
571.60	44594.23
571.76	44807.22
571.92	45305.75
572.09	44863.39
572.25	44917.22
572.41	45057.65
572.57	45368.94
572.74	45261.28
572.90	44926.58
573.06	45139.57
573.22	45158.30
573.38	45687.26
573.55	45525.76
573.71	45523.42
573.87	45298.73
574.03	45450.86
574.20	45258.94
574.36	45193.40
574.52	45394.69
574.68	44966.37
574.84	45385.33
575.01	45193.40
575.17	45593.64
575.33	45441.50
575.49	45085.74
575.65	44893.82
575.82	45326.81
575.98	45113.83
576.14	45469.59
576.30	45450.86
576.46	45324.47
576.62	44910.20
576.79	45598.32
576.95	44882.11
577.11	44669.12
577.27	45492.99
577.43	45663.85
577.59	45492.99
577.75	45076.38
577.92	44767.43
578.08	44980.42
578.24	45240.21
578.40	45556.19
578.56	45518.74
578.72	45390.01
578.88	45364.26
579.04	45544.48
579.21	45162.98
579.37	45432.14
579.53	45794.92
579.69	45312.77
579.85	45071.70
580.01	45492.99
580.17	45371.28
580.33	45312.77
580.49	45254.26
580.65	45446.18
580.82	45647.47
580.98	45298.73
581.14	45167.66
581.30	45413.41
581.46	45635.77
581.62	45532.78
581.78	45336.18
581.94	45741.09
582.10	45776.20
582.26	45364.26
582.42	45291.71
582.58	45612.36
582.74	45397.03
582.90	45312.77
583.06	45600.66
583.22	45633.42
583.38	45464.91
583.54	45331.50
583.70	45904.93
583.86	45813.65
584.02	45532.78
584.18	46087.49
584.34	46038.34
584.50	46071.10
584.66	45523.42
584.82	45757.47
584.98	46138.98
585.14	45682.58
585.30	45069.36
585.46	45315.11
585.62	45343.20
585.78	45577.25
585.94	45525.76
586.10	45741.09
586.26	45333.84
586.42	45476.61
586.58	45567.89
586.74	45380.65
586.90	45481.29
587.06	45305.75
587.22	45741.09
587.38	45804.28
587.54	45645.13
587.70	45883.86
587.86	45546.82
588.02	45680.24
588.18	46073.45
588.34	45923.65
588.49	45586.61
588.65	45509.38
588.81	45993.87
588.97	45736.41
589.13	45881.52
589.29	45649.81
589.45	46429.21
589.61	45649.81
589.77	46017.27
589.93	45762.15
590.08	46075.79
