SpectraSuite Data File
++++++++++++++++++++++++++++++++++++
Date: Fri Oct 25 11:34:37 EDT 2013
User: price-jones
Dark Spectrum Present: No
Reference Spectrum Present: No
Number of Sampled Component Spectra: 1
Spectrometers: USB2+H05261
Integration Time (usec): 100000 (USB2+H05261)
Spectra Averaged: 1 (USB2+H05261)
Boxcar Smoothing: 0 (USB2+H05261)
Correct for Electrical Dark: No (USB2+H05261)
Strobe/Lamp Enabled: No (USB2+H05261)
Correct for Detector Non-linearity: No (USB2+H05261)
Correct for Stray Light: No (USB2+H05261)
Number of Pixels in Processed Spectrum: 2048
>>>>>Begin Processed Spectral Data<<<<<
365.73	266.82
365.92	266.82
366.12	266.82
366.32	217.67
366.52	245.76
366.72	163.84
366.91	189.58
367.11	159.16
367.31	147.45
367.51	198.95
367.70	124.05
367.90	170.86
368.10	159.16
368.30	168.52
368.49	182.56
368.69	215.33
368.89	227.03
369.09	215.33
369.28	168.52
369.48	147.45
369.68	257.46
369.87	229.37
370.07	184.90
370.27	241.08
370.47	351.08
370.66	425.98
370.86	465.77
371.06	566.41
371.25	594.50
371.45	465.77
371.65	566.41
371.84	482.15
372.04	559.39
372.24	573.43
372.44	601.52
372.63	596.84
372.83	613.22
373.03	608.54
373.22	634.29
373.42	603.86
373.62	559.39
373.81	622.58
374.01	669.39
374.21	657.69
374.40	669.39
374.60	685.78
374.79	690.46
374.99	615.56
375.19	685.78
375.38	690.46
375.58	685.78
375.78	681.10
375.97	653.01
376.17	620.24
376.37	704.50
376.56	589.82
376.76	622.58
376.95	631.94
377.15	734.93
377.35	713.86
377.54	662.37
377.74	713.86
377.93	624.92
378.13	725.57
378.33	711.52
378.52	676.41
378.72	662.37
378.91	653.01
379.11	765.36
379.31	683.44
379.50	676.41
379.70	737.27
379.89	739.61
380.09	664.71
380.28	774.72
380.48	720.88
380.68	744.29
380.87	702.16
381.07	805.14
381.26	807.48
381.46	681.10
381.65	772.38
381.85	784.08
382.04	746.63
382.24	718.54
382.43	737.27
382.63	770.04
382.83	755.99
383.02	770.04
383.22	837.91
383.41	723.23
383.61	809.83
383.80	821.53
384.00	734.93
384.19	774.72
384.39	835.57
384.58	755.99
384.78	791.10
384.97	744.29
385.17	758.33
385.36	847.27
385.56	753.65
385.75	786.42
385.95	849.61
386.14	840.25
386.34	844.93
386.53	814.51
386.72	866.00
386.92	856.64
387.11	828.55
387.31	912.81
387.50	873.02
387.70	891.74
387.89	863.66
388.09	819.19
388.28	945.58
388.48	779.40
388.67	880.04
388.86	915.15
389.06	856.64
389.25	861.32
389.45	901.11
389.64	933.87
389.84	863.66
390.03	854.30
390.22	887.06
390.42	929.19
390.61	992.39
390.81	940.90
391.00	844.93
391.19	964.30
391.39	992.39
391.58	976.00
391.78	954.94
391.97	997.07
392.16	1013.45
392.36	1064.94
392.55	1064.94
392.75	990.05
392.94	987.71
393.13	1006.43
393.33	1013.45
393.52	1036.86
393.71	1095.37
393.91	1102.39
394.10	957.28
394.29	1053.24
394.49	1046.22
394.68	1067.28
394.88	1109.41
395.07	1100.05
395.26	1128.14
395.46	1146.86
395.65	1128.14
395.84	1095.37
396.04	1242.82
396.23	1191.33
396.42	1174.95
396.62	1165.59
396.81	1205.38
397.00	1179.63
397.19	1149.20
397.39	1198.35
397.58	1221.76
397.77	1118.78
397.97	1245.16
398.16	1158.57
398.35	1240.48
398.55	1167.93
398.74	1153.88
398.93	1270.91
399.12	1275.59
399.32	1196.01
399.51	1245.16
399.70	1355.17
399.90	1327.08
400.09	1380.92
400.28	1247.51
400.47	1320.06
400.67	1394.96
400.86	1411.34
401.05	1280.27
401.24	1373.89
401.44	1359.85
401.63	1378.58
401.82	1427.73
402.01	1341.13
402.21	1418.36
402.40	1481.56
402.59	1416.02
402.78	1406.66
402.97	1448.79
403.17	1387.94
403.36	1511.99
403.55	1404.32
403.74	1490.92
403.93	1589.22
404.13	1540.07
404.32	1500.28
404.51	1500.28
404.70	1593.90
404.89	1469.86
405.09	1612.63
405.28	1565.82
405.47	1612.63
405.66	1554.12
405.85	1636.03
406.05	1689.87
406.24	1645.40
406.43	1732.00
406.62	1687.53
406.81	1696.89
407.00	1568.16
407.20	1591.56
407.39	1778.81
407.58	1701.57
407.77	1727.32
407.96	1853.70
408.15	1849.02
408.34	1795.19
408.54	1809.23
408.73	1816.26
408.92	1956.69
409.11	1809.23
409.30	1975.41
409.49	1846.68
409.68	1923.92
409.87	2017.54
410.07	2005.84
410.26	1947.33
410.45	1940.30
410.64	2026.90
410.83	2022.22
411.02	1991.80
411.21	2015.20
411.40	2040.95
411.59	2066.69
411.78	2160.31
411.98	1984.77
412.17	2073.71
412.36	2188.40
412.55	2148.61
412.74	2193.08
412.93	2232.87
413.12	2225.85
413.31	2270.32
413.50	2291.38
413.69	2263.30
413.88	2424.80
414.07	2328.83
414.26	2298.41
414.45	2385.01
414.64	2469.27
414.83	2441.18
415.02	2492.67
415.22	2537.14
415.41	2480.97
415.60	2436.50
415.79	2466.92
415.98	2642.46
416.17	2663.53
416.36	2621.40
416.55	2612.04
416.74	2722.04
416.93	2705.66
417.12	2684.59
417.31	2677.57
417.50	2663.53
417.69	2792.26
417.88	2806.30
418.07	2881.20
418.26	2787.58
418.45	2818.00
418.64	2972.48
418.83	2853.11
419.02	2970.14
419.21	2909.29
419.39	2960.78
419.58	2963.12
419.77	2920.99
419.96	2998.23
420.15	3126.96
420.34	2963.12
420.53	3014.61
420.72	3133.98
420.91	3073.12
421.10	3084.83
421.29	3119.93
421.48	3000.57
421.67	3077.80
421.86	3110.57
422.05	3152.70
422.24	3150.36
422.43	3243.98
422.61	3227.60
422.80	3201.85
422.99	3194.83
423.18	3255.69
423.37	3243.98
423.56	3330.58
423.75	3178.45
423.94	3131.64
424.13	3131.64
424.32	3087.17
424.50	3428.88
424.69	3358.67
424.88	3236.96
425.07	3272.07
425.26	3297.81
425.45	3155.04
425.64	3227.60
425.83	3253.34
426.01	3295.47
426.20	3255.69
426.39	3351.65
426.58	3332.92
426.77	3288.45
426.96	3438.25
427.15	3414.84
427.33	3562.30
427.52	3410.16
427.71	3538.89
427.90	3492.08
428.09	3382.07
428.28	3658.26
428.46	3531.87
428.65	3538.89
428.84	3653.58
429.03	3744.86
429.22	3590.38
429.40	3517.83
429.59	3602.08
429.78	3562.30
429.97	3379.73
430.16	3581.02
430.34	3714.43
430.53	3620.81
430.72	3644.21
430.91	3662.94
431.10	3686.34
431.28	3625.49
431.47	3819.75
431.66	3707.41
431.85	3669.96
432.03	3950.82
432.22	3971.89
432.41	3904.01
432.60	3794.01
432.79	3934.44
432.97	3988.27
433.16	3995.29
433.35	3899.33
433.54	4044.45
433.72	4091.26
433.91	4030.40
434.10	4086.58
434.28	4035.08
434.47	4046.79
434.66	4121.68
434.85	4161.47
435.03	4189.56
435.22	4046.79
435.41	4198.92
435.59	4168.49
435.78	4189.56
435.97	4264.46
436.16	4264.46
436.34	4173.18
436.53	4079.55
436.72	4369.78
436.90	4313.61
437.09	4243.39
437.28	4234.03
437.46	4201.26
437.65	4341.69
437.84	4468.08
438.02	4416.59
438.21	4425.95
438.40	4325.31
438.58	4596.81
438.77	4489.15
438.96	4440.00
439.14	4535.96
439.33	4498.51
439.52	4620.22
439.70	4596.81
439.89	4760.65
440.08	4765.33
440.26	4685.75
440.45	4767.67
440.63	4896.40
440.82	4966.62
441.01	4863.63
441.19	4887.04
441.38	4964.28
441.57	5011.09
441.75	5034.49
441.94	5214.71
442.12	4994.70
442.31	5221.74
442.50	5170.24
442.68	5111.73
442.87	5254.50
443.05	5018.11
443.24	5252.16
443.43	5242.80
443.61	5247.48
443.80	5397.28
443.98	5275.57
444.17	4933.85
444.35	5418.34
444.54	5310.68
444.73	5294.29
444.91	5315.36
445.10	5526.00
445.28	5434.72
445.47	5380.89
445.65	5401.96
445.84	5399.62
446.02	5462.81
446.21	5345.78
446.39	5294.29
446.58	5343.44
446.77	5280.25
446.95	5357.49
447.14	5371.53
447.32	5425.36
447.51	5589.20
447.69	5446.43
447.88	5502.60
448.06	5493.24
448.25	5425.36
448.43	5488.56
448.62	5455.79
448.80	5518.98
448.99	5357.49
449.17	5406.64
449.36	5596.22
449.54	5778.78
449.73	5760.06
449.91	5792.83
450.10	5652.39
450.28	5870.06
450.46	5795.17
450.65	5804.53
450.83	5823.25
451.02	5769.42
451.20	6005.81
451.39	5757.72
451.57	5966.03
451.76	5795.17
451.94	5930.92
452.13	5996.45
452.31	5930.92
452.49	5872.40
452.68	5949.64
452.86	6024.54
453.05	6080.71
453.23	6090.07
453.42	6200.08
453.60	6169.65
453.78	6029.22
453.97	5968.37
454.15	5907.51
454.34	6157.95
454.52	6113.48
454.70	6282.00
454.89	6193.06
455.07	6066.67
455.26	6338.17
455.44	6345.19
455.62	6342.85
455.81	6380.30
455.99	6340.51
456.17	6342.85
456.36	6450.52
456.54	6347.53
456.73	6562.86
456.91	6658.82
457.09	6757.13
457.28	6759.47
457.46	6612.01
457.64	6675.21
457.83	6710.32
458.01	6668.19
458.19	6850.75
458.38	6745.42
458.56	6696.27
458.74	6743.08
458.93	6766.49
459.11	6782.87
459.29	6806.28
459.48	6771.17
459.66	6829.68
459.84	6925.65
460.03	7077.78
460.21	6883.52
460.39	6974.80
460.57	6970.12
460.76	7002.88
460.94	7159.70
461.12	7178.42
461.31	7131.61
461.49	7131.61
461.67	7232.26
461.85	7344.60
462.04	7148.00
462.22	7772.92
462.40	7302.47
462.59	7197.15
462.77	7424.18
462.95	7316.51
463.13	7269.70
463.32	7417.16
463.50	7534.18
463.68	7606.74
463.86	7552.91
464.05	7267.36
464.23	7489.71
464.41	7620.78
464.59	7309.49
464.78	7557.59
464.96	7705.04
465.14	7346.94
465.32	7508.44
465.50	7555.25
465.69	7627.81
465.87	7648.87
466.05	7803.35
466.23	7793.98
466.41	7765.90
466.60	7967.18
466.78	7609.08
466.96	7789.30
467.14	7754.19
467.32	7943.78
467.51	7824.41
467.69	7719.09
467.87	7903.99
468.05	7918.03
468.23	7714.41
468.41	7859.52
468.60	7854.84
468.78	7882.92
468.96	7995.27
469.14	7988.25
469.32	8304.22
469.50	7932.08
469.69	8081.87
469.87	8407.20
470.05	8344.01
470.23	8325.29
470.41	8339.33
470.59	8299.54
470.77	8252.73
470.95	8285.50
471.14	8692.75
471.32	8437.63
471.50	8594.45
471.68	8428.27
471.86	8346.35
472.04	8638.92
472.22	8751.26
472.40	8542.96
472.58	8690.41
472.77	8676.37
472.95	8791.05
473.13	9062.55
473.31	8816.80
473.49	8982.98
473.67	8945.53
473.85	9135.11
474.03	9202.99
474.21	8980.64
474.39	9320.01
474.57	9081.28
474.75	9308.31
474.93	9308.31
475.12	9245.12
475.30	9500.23
475.48	9509.60
475.66	9455.76
475.84	9628.96
476.02	9743.65
476.20	9809.19
476.38	9813.87
476.56	10029.20
476.74	9839.61
476.92	9905.15
477.10	10052.60
477.28	10111.11
477.46	10101.75
477.64	10258.57
477.82	10326.44
478.00	10478.58
478.18	10466.88
478.36	10710.29
478.54	10909.24
478.72	10750.08
478.90	11030.94
479.08	10839.02
479.26	11208.83
479.44	11126.91
479.62	11199.46
479.80	11337.56
479.98	11435.86
480.16	11480.33
480.34	11229.89
480.52	11592.67
480.70	11705.02
480.88	11459.26
481.06	11847.79
481.24	11800.98
481.41	12109.93
481.59	11936.73
481.77	12131.00
481.95	12147.38
482.13	12362.71
482.31	12372.07
482.49	12465.69
482.67	12613.15
482.85	12858.90
483.03	12809.75
483.21	12975.93
483.39	13041.46
483.57	13156.15
483.74	13247.43
483.92	13217.01
484.10	12964.23
484.28	13479.15
484.46	13528.30
484.64	13891.08
484.82	13589.15
485.00	13687.45
485.18	14073.64
485.35	14356.85
485.53	14075.98
485.71	14256.20
485.89	14483.24
486.07	14565.15
486.25	14616.65
486.43	14508.98
486.61	14813.25
486.78	15021.56
486.96	15192.42
487.14	15192.42
487.32	15363.28
487.50	14944.32
487.68	15576.27
487.85	15702.65
488.03	15665.21
488.21	16030.33
488.39	15971.82
488.57	16032.67
488.75	16336.94
488.92	16369.71
489.10	16856.54
489.28	16449.28
489.46	16727.81
489.64	16517.16
489.81	17118.68
489.99	17535.29
490.17	17256.77
490.35	17399.54
490.53	17371.46
490.70	17448.69
490.88	17535.29
491.06	17596.15
491.24	17640.62
491.41	17912.12
491.59	18052.55
491.77	17947.23
491.95	18471.51
492.13	18288.95
492.30	18675.13
492.48	18546.40
492.66	18633.00
492.84	18675.13
493.01	18988.77
493.19	19176.01
493.37	19330.48
493.54	19094.09
493.72	19606.67
493.90	19480.28
494.08	19688.59
494.25	19674.54
494.43	19814.98
494.61	20081.80
494.79	20159.03
494.96	19976.47
495.14	19829.02
495.32	20549.90
495.49	20650.55
495.67	20683.31
495.85	20538.20
496.02	20879.92
496.20	20994.61
496.38	21242.70
496.55	21060.14
496.73	21797.41
496.91	21523.57
497.09	21638.25
497.26	21673.36
497.44	21553.99
497.62	21790.39
497.79	21933.16
497.97	21968.27
498.14	22583.83
498.32	22415.31
498.50	22494.89
498.67	22515.95
498.85	22057.21
499.03	22803.84
499.20	22602.55
499.38	22696.17
499.56	23073.00
499.73	23009.81
499.91	23166.62
500.08	23372.59
500.26	23398.34
500.44	23592.60
500.61	23234.50
500.79	23358.55
500.97	23718.99
501.14	23882.83
501.32	24175.39
501.49	23817.29
501.67	23770.48
501.84	24074.75
502.02	24126.24
502.20	24011.56
502.37	24058.37
502.55	24196.46
502.72	24112.20
502.90	24355.61
503.07	24346.25
503.25	24617.75
503.43	24521.79
503.60	24713.72
503.78	24849.47
503.95	25125.65
504.13	25287.15
504.30	25310.55
504.48	25298.85
504.65	25289.49
504.83	25453.33
505.01	25582.06
505.18	25551.63
505.36	25568.01
505.53	25785.68
505.71	25481.41
505.88	26031.44
506.06	25619.50
506.23	26335.71
506.41	25905.05
506.58	26316.98
506.76	26071.23
506.93	26111.02
507.11	26211.66
507.28	26321.66
507.46	26321.66
507.63	26675.09
507.81	27084.68
507.98	26403.58
508.16	26918.50
508.33	26965.31
508.50	27204.05
508.68	26721.90
508.85	27398.31
509.03	27538.74
509.20	27466.19
509.38	27545.76
509.55	27824.29
509.73	27786.84
509.90	27962.38
510.08	27468.53
510.25	27716.62
510.42	27868.76
510.60	27920.25
510.77	28325.16
510.95	28474.96
511.12	28318.14
511.30	28151.96
511.47	28458.57
511.64	28680.92
511.82	28697.31
511.99	28510.07
512.17	28940.72
512.34	28587.30
512.51	28797.95
512.69	29156.05
512.86	29163.08
513.04	29362.02
513.21	28973.49
513.38	29546.92
513.56	29579.69
513.73	29202.86
513.90	29399.47
514.08	29511.81
514.25	29647.57
514.43	29654.59
514.60	29715.44
514.77	29806.72
514.95	29823.11
515.12	29773.95
515.29	30068.86
515.47	30632.93
515.64	30382.49
515.81	30015.03
515.99	30237.38
516.16	30579.10
516.33	30548.67
516.51	30972.31
516.68	30841.24
516.85	30857.62
517.03	30815.49
517.20	30756.98
517.37	30780.39
517.54	31232.11
517.72	31002.74
517.89	30796.77
518.06	31222.75
518.24	31316.37
518.41	30944.22
518.58	31068.27
518.75	31246.15
518.93	31234.45
519.10	31740.00
519.27	31473.18
519.45	31744.69
519.62	31372.54
519.79	31646.38
519.96	31835.97
520.14	31604.25
520.31	31775.11
520.48	31934.27
520.65	32065.34
520.83	32587.28
521.00	32563.87
521.17	32137.90
521.34	32758.14
521.52	32823.67
521.69	32545.15
521.86	32404.72
522.03	32900.91
522.20	33092.83
522.38	33268.37
522.55	33064.75
522.72	32716.01
522.89	33207.52
523.07	33631.16
523.24	32973.47
523.41	33429.87
523.58	33462.64
523.75	33237.95
523.92	33376.04
524.10	33722.44
524.27	33750.52
524.44	33259.01
524.61	33652.22
524.78	33846.49
524.96	34066.50
525.13	33956.49
525.30	34237.36
525.47	34031.39
525.64	34007.98
525.81	34160.12
525.98	34389.49
526.16	34490.13
526.33	33773.93
526.50	34600.14
526.67	34235.02
526.84	34417.58
527.01	34492.47
527.18	34436.30
527.36	34373.11
527.53	34733.55
527.70	35688.49
527.87	34738.23
528.04	34820.15
528.21	35126.76
528.38	34888.03
528.55	35058.88
528.72	35342.09
528.89	35089.31
529.07	34707.80
529.24	35175.91
529.41	35756.36
529.58	35353.79
529.75	35290.60
529.92	35227.40
530.09	35758.70
530.26	35306.98
530.43	35438.05
530.60	35522.31
530.77	35576.14
530.94	35957.65
531.11	35723.60
531.28	35814.88
531.46	35922.54
531.63	36280.64
531.80	35959.99
531.97	36084.04
532.14	36254.90
532.31	35931.90
532.48	36252.56
532.65	36678.54
532.82	36287.67
532.99	36355.54
533.16	36519.38
533.33	36161.28
533.50	36947.70
533.67	36521.72
533.84	36629.38
534.01	37106.85
534.18	36236.17
534.35	36879.82
534.52	36788.54
534.69	37315.16
534.86	37083.45
535.03	36821.31
535.20	37221.54
535.37	37376.01
535.54	37074.09
535.71	37277.71
535.88	37319.84
536.05	37406.44
536.22	36882.16
536.38	37766.88
536.55	37296.44
536.72	37460.27
536.89	37497.72
537.06	37502.40
537.23	37907.32
537.40	37493.04
537.57	37354.95
537.74	37579.64
537.91	38029.02
538.08	37584.32
538.25	37684.97
538.42	37624.11
538.59	38000.94
538.75	38073.49
538.92	38087.54
539.09	38253.72
539.26	37895.61
539.43	38169.46
539.60	38124.99
539.77	38466.70
539.94	38878.64
540.11	38298.19
540.28	38731.18
540.44	38396.49
540.61	38352.02
540.78	38389.47
540.95	38735.87
541.12	38216.27
541.29	38656.29
541.46	38649.27
541.62	38780.34
541.79	38712.46
541.96	38426.92
542.13	39089.29
542.30	38794.38
542.47	39037.80
542.63	39133.76
542.80	39210.99
542.97	39674.42
543.14	39522.29
543.31	39274.19
543.48	39519.95
543.64	39646.33
543.81	39878.05
543.98	39431.01
544.15	39782.09
544.32	39791.45
544.48	40114.44
544.65	39779.74
544.82	39812.51
544.99	39688.46
545.16	40308.71
545.32	40076.99
545.49	39859.32
545.66	40030.18
545.83	40107.42
546.00	40158.91
546.16	40058.27
546.33	40147.21
546.50	40123.80
546.67	40437.44
546.83	39442.71
547.00	39861.66
547.17	40416.37
547.34	40184.66
547.50	40360.20
547.67	40673.83
547.84	40282.96
548.00	40701.92
548.17	40765.11
548.34	40968.74
548.51	41165.34
548.67	41045.97
548.84	40849.37
549.01	40563.82
549.18	40903.20
549.34	41397.06
549.51	41366.63
549.68	41240.24
549.84	40584.89
550.01	41186.41
550.18	40861.07
550.34	41048.32
550.51	41212.15
550.68	41521.10
550.84	40781.49
551.01	41296.41
551.18	41256.62
551.34	41617.07
551.51	41619.41
551.68	41584.30
551.84	41141.94
552.01	41191.09
552.18	41773.88
552.34	41256.62
552.51	41242.58
552.68	41806.65
552.84	41111.51
553.01	42087.51
553.18	41734.09
553.34	41806.65
553.51	41773.88
553.67	41935.38
553.84	41918.99
554.01	41631.11
554.17	42036.02
554.34	41755.16
554.51	42080.49
554.67	42476.04
554.84	42014.96
555.00	42124.96
555.17	42195.18
555.33	42239.65
555.50	42155.39
555.67	42085.17
555.83	42256.03
556.00	42267.73
556.16	42909.04
556.33	42726.48
556.50	42464.34
556.66	42033.68
556.83	42129.64
556.99	42808.40
557.16	43112.67
557.32	42593.07
557.49	42806.06
557.65	42246.67
557.82	42632.86
557.98	42906.70
558.15	42410.51
558.32	42918.40
558.48	42745.20
558.65	42380.08
558.81	42941.81
558.98	42862.23
559.14	42923.08
559.31	42733.50
559.47	42911.38
559.64	42653.92
559.80	43026.07
559.97	43381.83
560.13	42377.74
560.30	42920.74
560.46	43583.12
560.63	43201.61
560.79	43409.92
560.96	43222.67
561.12	43180.54
561.29	42806.06
561.45	43594.82
561.61	42916.06
561.78	43421.62
561.94	43433.32
562.11	43454.39
562.27	43248.42
562.44	43037.77
562.60	43049.47
562.77	43201.61
562.93	43430.98
563.10	43529.28
563.26	43501.20
563.42	44046.54
563.59	43384.17
563.75	43337.36
563.92	43805.47
564.08	43405.23
564.24	43505.88
564.41	43292.89
564.57	43723.55
564.74	43552.69
564.90	43381.83
565.07	43412.26
565.23	43634.61
565.39	43730.57
565.56	43917.81
565.72	43779.72
565.88	43550.35
566.05	43709.50
566.21	43775.04
566.38	44067.61
566.54	43683.76
566.70	44142.50
566.87	43840.57
567.03	43753.97
567.19	44051.22
567.36	44048.88
567.52	43889.73
567.68	44027.82
567.85	44055.90
568.01	44306.34
568.17	44013.77
568.34	43915.47
568.50	44112.08
568.66	43721.21
568.83	44282.94
568.99	43957.60
569.15	43913.13
569.32	43838.23
569.48	43908.45
569.64	44355.49
569.81	44044.20
569.97	44212.72
570.13	44182.29
570.30	43948.24
570.46	44224.42
570.62	44304.00
570.78	43899.09
570.95	43943.56
571.11	44381.24
571.27	44680.83
571.43	43962.28
571.60	44423.37
571.76	43761.00
571.92	44114.42
572.09	43915.47
572.25	44154.21
572.41	43988.03
572.57	44191.65
572.74	44842.32
572.90	44587.21
573.06	44385.92
573.22	44453.79
573.38	44729.98
573.55	44514.65
573.71	44891.48
573.87	44945.31
574.03	44100.37
574.20	44528.69
574.36	44091.01
574.52	44744.02
574.68	44706.57
574.84	44830.62
575.01	44779.13
575.17	44615.29
575.33	44055.90
575.49	44598.91
575.65	44910.20
575.82	44460.82
575.98	44751.04
576.14	44589.55
576.30	44893.82
576.46	44472.52
576.62	44692.53
576.79	45111.49
576.95	44355.49
577.11	44308.68
577.27	44236.12
577.43	44512.31
577.59	44774.45
577.75	44540.39
577.92	44374.22
578.08	44634.02
578.24	44406.98
578.40	44938.29
578.56	44844.66
578.72	44428.05
578.88	45045.95
579.04	44687.85
579.21	44048.88
579.37	44765.09
579.53	44910.20
579.69	44573.16
579.85	44584.86
580.01	44699.55
580.17	44416.35
580.33	44762.75
580.49	44783.81
580.65	44790.83
580.82	44811.90
580.98	44587.21
581.14	44713.59
581.30	44390.60
581.46	44643.38
581.62	44861.05
581.78	44498.26
581.94	44875.09
582.10	44781.47
582.26	45256.60
582.42	44713.59
582.58	44933.60
582.74	45099.78
582.90	44821.26
583.06	45361.92
583.22	44636.36
583.38	45319.79
583.54	44231.44
583.70	45067.02
583.86	45450.86
584.02	44961.69
584.18	45244.90
584.34	45228.51
584.50	45041.27
584.66	45167.66
584.82	44935.95
584.98	45104.46
585.14	45254.26
585.30	44875.09
585.46	45081.06
585.62	45258.94
585.78	45418.10
585.94	44509.97
586.10	44989.78
586.26	44921.90
586.42	44720.62
586.58	44818.92
586.74	44966.37
586.90	45226.17
587.06	44886.79
587.22	45186.38
587.38	44926.58
587.54	44968.71
587.70	44992.12
587.86	45329.16
588.02	44486.56
588.18	44912.54
588.34	44978.07
588.49	45268.30
588.65	44999.14
588.81	44863.39
588.97	44793.17
589.13	44877.43
589.29	45146.59
589.45	45251.92
589.61	45167.66
589.77	45546.82
589.93	45181.70
590.08	45567.89
590.24	45469.59
