SpectraSuite Data File
++++++++++++++++++++++++++++++++++++
Date: Fri Oct 25 11:23:51 EDT 2013
User: price-jones
Dark Spectrum Present: No
Reference Spectrum Present: No
Number of Sampled Component Spectra: 1
Spectrometers: USB2+H05261
Integration Time (usec): 100000 (USB2+H05261)
Spectra Averaged: 1 (USB2+H05261)
Boxcar Smoothing: 0 (USB2+H05261)
Correct for Electrical Dark: No (USB2+H05261)
Strobe/Lamp Enabled: No (USB2+H05261)
Correct for Detector Non-linearity: No (USB2+H05261)
Correct for Stray Light: No (USB2+H05261)
Number of Pixels in Processed Spectrum: 2048
>>>>>Begin Processed Spectral Data<<<<<
365.73	205.97
365.92	205.97
366.12	205.97
366.32	194.26
366.52	126.39
366.72	163.84
366.91	149.79
367.11	91.28
367.31	117.03
367.51	128.73
367.70	23.41
367.90	88.94
368.10	156.82
368.30	177.88
368.49	114.69
368.69	154.48
368.89	180.22
369.09	147.45
369.28	161.50
369.48	212.99
369.68	212.99
369.87	124.05
370.07	189.58
370.27	259.80
370.47	313.63
370.66	507.90
370.86	620.24
371.06	699.82
371.25	653.01
371.45	650.67
371.65	727.91
371.84	676.41
372.04	603.86
372.24	734.93
372.44	706.84
372.63	781.74
372.83	671.73
373.03	835.57
373.22	819.19
373.42	748.97
373.62	737.27
373.81	732.59
374.01	739.61
374.21	863.66
374.40	784.08
374.60	753.65
374.79	774.72
374.99	847.27
375.19	816.85
375.38	875.36
375.58	767.70
375.78	812.17
375.97	873.02
376.17	840.25
376.37	915.15
376.56	837.91
376.76	880.04
376.95	826.21
377.15	826.21
377.35	894.08
377.54	917.49
377.74	903.45
377.93	903.45
378.13	889.40
378.33	938.55
378.52	880.04
378.72	938.55
378.91	976.00
379.11	912.81
379.31	912.81
379.50	844.93
379.70	938.55
379.89	961.96
380.09	1032.18
380.28	1008.77
380.48	999.41
380.68	1006.43
380.87	926.85
381.07	964.30
381.26	1032.18
381.46	992.39
381.65	983.02
381.85	1008.77
382.04	983.02
382.24	1032.18
382.43	1060.26
382.63	1036.86
382.83	1107.07
383.02	1090.69
383.22	1121.12
383.41	1043.88
383.61	1128.14
383.80	1151.54
384.00	1048.56
384.19	1104.73
384.39	1069.62
384.58	1221.76
384.78	1097.71
384.97	1233.46
385.17	1188.99
385.36	1198.35
385.56	1174.95
385.75	1196.01
385.95	1156.22
386.14	1235.80
386.34	1310.70
386.53	1235.80
386.72	1235.80
386.92	1313.04
387.11	1263.89
387.31	1329.42
387.50	1203.04
387.70	1240.48
387.89	1177.29
388.09	1156.22
388.28	1224.10
388.48	1327.08
388.67	1282.61
388.86	1282.61
389.06	1277.93
389.25	1329.42
389.45	1343.47
389.64	1380.92
389.84	1359.85
390.03	1348.15
390.22	1404.32
390.42	1322.40
390.61	1387.94
390.81	1327.08
391.00	1420.71
391.19	1486.24
391.39	1397.30
391.58	1462.83
391.78	1490.92
391.97	1458.15
392.16	1488.58
392.36	1528.37
392.55	1364.53
392.75	1509.65
392.94	1458.15
393.13	1472.20
393.33	1600.93
393.52	1502.62
393.71	1556.46
393.91	1607.95
394.10	1572.84
394.29	1596.25
394.49	1586.88
394.68	1614.97
394.88	1643.06
395.07	1727.32
395.26	1671.14
395.46	1753.06
395.65	1603.27
395.84	1792.85
396.04	1771.79
396.23	1724.97
396.42	1689.87
396.62	1732.00
396.81	1767.10
397.00	1717.95
397.19	1790.51
397.39	1785.83
397.58	1783.49
397.77	1921.58
397.97	1872.43
398.16	1813.92
398.35	1886.47
398.55	1860.73
398.74	1968.39
398.93	1942.64
399.12	1856.04
399.32	1914.56
399.51	1952.01
399.70	1961.37
399.90	2038.61
400.09	2069.03
400.28	1980.09
400.47	2076.06
400.67	2188.40
400.86	2071.37
401.05	2069.03
401.24	2090.10
401.44	2204.78
401.63	2087.76
401.82	2141.59
402.01	2209.47
402.21	2162.66
402.40	2101.80
402.59	2167.34
402.78	2174.36
402.97	2190.74
403.17	2202.44
403.36	2207.13
403.55	2277.34
403.74	2370.96
403.93	2300.75
404.13	2305.43
404.32	2354.58
404.51	2342.88
404.70	2401.39
404.89	2377.98
405.09	2464.58
405.28	2450.54
405.47	2487.99
405.66	2516.08
405.85	2532.46
406.05	2492.67
406.24	2516.08
406.43	2612.04
406.62	2562.89
406.81	2642.46
407.00	2588.63
407.20	2644.81
407.39	2743.11
407.58	2768.85
407.77	2757.15
407.96	2752.47
408.15	2801.62
408.34	2726.72
408.54	2806.30
408.73	2782.90
408.92	2829.71
409.11	2986.52
409.30	2930.35
409.49	2885.88
409.68	2888.22
409.87	2862.48
410.07	3040.36
410.26	3033.33
410.45	2993.55
410.64	2963.12
410.83	3056.74
411.02	3148.02
411.21	3279.09
411.40	3157.38
411.59	3126.96
411.78	3155.04
411.98	3183.13
412.17	3204.19
412.36	3332.92
412.55	3475.70
412.74	3583.36
412.93	3515.48
413.12	3445.27
413.31	3571.66
413.50	3438.25
413.69	3590.38
413.88	3529.53
414.07	3641.87
414.26	3653.58
414.45	3653.58
414.64	3758.90
414.83	3772.94
415.02	3824.44
415.22	3847.84
415.41	3751.88
415.60	3976.57
415.79	3894.65
415.98	4025.72
416.17	4004.66
416.36	3899.33
416.55	3801.03
416.74	4077.21
416.93	4112.32
417.12	4243.39
417.31	4081.89
417.50	4250.41
417.69	4243.39
417.88	4266.80
418.07	4245.73
418.26	4280.84
418.45	4381.48
418.64	4498.51
418.83	4547.66
419.02	4479.79
419.21	4557.02
419.39	4519.57
419.58	4510.21
419.77	4615.54
419.96	4652.98
420.15	4688.09
420.34	4475.10
420.53	4606.17
420.72	4784.06
420.91	4692.77
421.10	4713.84
421.29	4781.71
421.48	4695.11
421.67	4891.72
421.86	4880.02
422.05	4807.46
422.24	4777.03
422.43	4842.57
422.61	4793.42
422.80	4917.47
422.99	4896.40
423.18	4997.04
423.37	5083.64
423.56	5074.28
423.75	4983.00
423.94	4966.62
424.13	4629.58
424.32	4702.14
424.50	5060.24
424.69	5123.43
424.88	4950.23
425.07	5046.20
425.26	5036.83
425.45	4945.55
425.64	4922.15
425.83	4875.34
426.01	4978.32
426.20	5118.75
426.39	5032.15
426.58	5067.26
426.77	5235.78
426.96	5212.37
427.15	5067.26
427.33	5163.22
427.52	5109.39
427.71	5249.82
427.90	5163.22
428.09	5282.59
428.28	5355.15
428.46	5392.59
428.65	5252.16
428.84	5568.13
429.03	5563.45
429.22	5177.26
429.40	5406.64
429.59	5523.66
429.78	5334.08
429.97	5390.25
430.16	5563.45
430.34	5659.42
430.53	5654.73
430.72	5568.13
430.91	5612.60
431.10	5633.67
431.28	5900.49
431.47	5846.66
431.66	5954.32
431.85	5710.91
432.03	6008.16
432.22	5996.45
432.41	5893.47
432.60	5937.94
432.79	5959.00
432.97	6031.56
433.16	6003.47
433.35	5951.98
433.54	6029.22
433.72	6022.20
433.91	6038.58
434.10	6115.82
434.28	6176.67
434.47	6223.48
434.66	6221.14
434.85	6300.72
435.03	6368.60
435.22	6181.35
435.41	6520.73
435.59	6530.09
435.78	6450.52
435.97	6356.90
436.16	6445.84
436.34	6497.33
436.53	6328.81
436.72	6789.89
436.90	6576.91
437.09	6677.55
437.28	6450.52
437.46	6612.01
437.65	6827.34
437.84	6799.26
438.02	6902.24
438.21	6862.45
438.40	6670.53
438.58	7112.89
438.77	6988.84
438.96	7007.56
439.14	7094.16
439.33	7082.46
439.52	7255.66
439.70	7267.36
439.89	7309.49
440.08	7407.80
440.26	7311.83
440.45	7375.03
440.63	7541.21
440.82	7592.70
441.01	7578.65
441.19	7686.32
441.38	7590.36
441.57	7641.85
441.75	7843.14
441.94	8009.31
442.12	7957.82
442.31	8154.43
442.50	7932.08
442.68	7978.89
442.87	8086.55
443.05	8163.79
443.24	8264.43
443.43	8311.24
443.61	8170.81
443.80	8613.17
443.98	8231.66
444.17	7779.94
444.35	8404.86
444.54	8390.82
444.73	8421.25
444.91	8374.44
445.10	8489.12
445.28	8318.26
445.47	8381.46
445.65	8454.02
445.84	8681.05
446.02	8451.67
446.21	8402.52
446.39	8493.80
446.58	8507.85
446.77	8559.34
446.95	8248.05
447.14	8734.88
447.32	8526.57
447.51	8561.68
447.69	8409.54
447.88	8449.33
448.06	8592.11
448.25	8561.68
448.43	8692.75
448.62	8594.45
448.80	8774.67
448.99	8638.92
449.17	8762.97
449.36	8690.41
449.54	8905.74
449.73	9046.17
449.91	9008.72
450.10	8922.12
450.28	9046.17
450.46	9064.89
450.65	8992.34
450.83	9144.47
451.02	9004.04
451.20	9312.99
451.39	9163.20
451.57	9144.47
451.76	9053.19
451.94	9249.80
452.13	9460.45
452.31	9474.49
452.49	9008.72
452.68	9291.93
452.86	9441.72
453.05	9554.07
453.23	9514.28
453.42	9418.32
453.60	9603.22
453.78	9596.20
453.97	9631.30
454.15	9577.47
454.34	9614.92
454.52	9738.97
454.70	9724.93
454.89	9928.55
455.07	9928.55
455.26	9851.31
455.44	9980.04
455.62	9783.44
455.81	9813.87
455.99	9956.64
456.17	10008.13
456.36	10115.80
456.54	10190.69
456.73	10328.78
456.91	10651.78
457.09	10637.73
457.28	10523.05
457.46	10403.68
457.64	10511.35
457.83	10546.45
458.01	10621.35
458.19	10761.78
458.38	10677.52
458.56	10951.37
458.74	10530.07
458.93	10743.06
459.11	10691.57
459.29	10841.36
459.48	10523.05
459.66	10862.43
459.84	10920.94
460.03	10850.72
460.21	10998.18
460.39	11166.70
460.57	11164.36
460.76	11459.26
460.94	11335.21
461.12	11185.42
461.31	11178.40
461.49	11211.17
461.67	10939.66
461.85	11786.94
462.04	11316.49
462.22	11833.75
462.40	11815.02
462.59	11580.97
462.77	11564.59
462.95	11641.82
463.13	11559.91
463.32	11726.08
463.50	11517.78
463.68	11831.41
463.86	12077.16
464.05	11822.05
464.23	11705.02
464.41	11920.35
464.59	11831.41
464.78	12269.09
464.96	12039.72
465.14	12252.70
465.32	12126.32
465.50	12046.74
465.69	12205.89
465.87	12039.72
466.05	12149.72
466.23	12339.30
466.41	12362.71
466.60	12526.55
466.78	12566.34
466.96	12133.34
467.14	12280.79
467.32	12489.10
467.51	12493.78
467.69	12226.96
467.87	12542.93
468.05	12414.20
468.23	12453.99
468.41	12528.89
468.60	12758.26
468.78	12861.24
468.96	12573.36
469.14	12830.82
469.32	13085.94
469.50	12828.48
469.69	13006.36
469.87	13249.77
470.05	13249.77
470.23	13165.51
470.41	13209.98
470.59	13425.31
470.77	13144.45
470.95	13420.63
471.14	13717.88
471.32	13476.80
471.50	13647.66
471.68	13575.11
471.86	13652.34
472.04	13745.97
472.22	14239.82
472.40	13713.20
472.58	13687.45
472.77	13881.72
472.95	14244.50
473.13	14436.42
473.31	14036.19
473.49	14223.44
473.67	13998.74
473.85	14324.08
474.03	14803.89
474.21	14965.39
474.39	14689.20
474.57	14902.19
474.75	14754.74
474.93	15117.52
475.12	14941.98
475.30	15187.74
475.48	15185.40
475.66	15236.89
475.84	15002.83
476.02	15620.74
476.20	15611.37
476.38	15882.88
476.56	16173.10
476.74	16079.48
476.92	15925.00
477.10	15875.85
477.28	16262.04
477.46	16215.23
477.64	16369.71
477.82	16512.48
478.00	16947.82
478.18	17163.15
478.36	17329.33
478.54	17069.53
478.72	17130.38
478.90	17554.02
479.08	17717.86
479.26	17666.36
479.44	17860.63
479.62	18071.28
479.80	18115.75
479.98	18345.12
480.16	18658.75
480.34	18321.71
480.52	18745.35
480.70	18602.58
480.88	18827.27
481.06	18721.95
481.24	18712.58
481.41	19267.29
481.59	19646.46
481.77	19529.43
481.95	19714.33
482.13	20046.69
482.31	19887.53
482.49	20231.59
482.67	20446.92
482.85	20439.90
483.03	20524.16
483.21	20982.90
483.39	21231.00
483.57	20989.92
483.74	21242.70
483.92	21612.51
484.10	21479.10
484.28	22134.45
484.46	22104.02
484.64	22356.80
484.82	22356.80
485.00	22539.36
485.18	22829.59
485.35	23091.73
485.53	22876.40
485.71	23070.66
485.89	23833.68
486.07	23388.97
486.25	23419.40
486.43	23723.67
486.61	23861.76
486.78	24114.54
486.96	24559.24
487.14	24713.72
487.32	24535.84
487.50	25006.28
487.68	25057.78
487.85	25621.84
488.03	25860.58
488.21	25724.83
488.39	25921.43
488.57	25741.21
488.75	26398.90
488.92	26464.44
489.10	26916.16
489.28	26637.64
489.46	27150.21
489.64	27119.79
489.81	27543.42
489.99	27807.90
490.17	28006.85
490.35	28198.77
490.53	28353.25
490.70	28467.94
490.88	28381.34
491.06	28760.50
491.24	29032.00
491.41	29291.80
491.59	29591.39
491.77	29638.20
491.95	29729.48
492.13	29928.43
492.30	29811.40
492.48	30134.40
492.66	30366.11
492.84	29977.58
493.01	30724.21
493.19	30693.79
493.37	31477.86
493.54	31541.06
493.72	31496.59
493.90	31587.87
494.08	31742.35
494.25	32051.30
494.43	32283.01
494.61	32486.64
494.79	32594.30
494.96	32624.73
495.14	32952.40
495.32	33701.37
495.49	32933.68
495.67	33563.28
495.85	33319.87
496.02	33809.04
496.20	34085.22
496.38	34323.96
496.55	34216.29
496.73	34955.90
496.91	34979.31
497.09	35150.17
497.26	35007.39
497.44	35138.46
497.62	35503.59
497.79	36037.23
497.97	35861.69
498.14	36465.55
498.32	36467.89
498.50	36222.13
498.67	36680.88
498.85	36222.13
499.03	36748.75
499.20	37123.24
499.38	37024.93
499.56	37015.57
499.73	37715.39
499.91	37736.46
500.08	37944.76
500.26	37668.58
500.44	38103.92
500.61	38099.24
500.79	37790.29
500.97	38529.90
501.14	38572.03
501.32	39068.22
501.49	38698.42
501.67	38548.62
501.84	39236.74
502.02	39199.29
502.20	39110.35
502.37	39346.75
502.55	39756.34
502.72	39917.84
502.90	40065.29
503.07	39971.67
503.25	40098.06
503.43	39681.44
503.60	40325.09
503.78	40465.52
503.95	40407.01
504.13	40669.15
504.30	41010.87
504.48	40168.27
504.65	40968.74
504.83	41507.06
505.01	41134.92
505.18	41331.52
505.36	41567.91
505.53	41406.42
505.71	41385.35
505.88	41937.72
506.06	42117.94
506.23	42209.22
506.41	41968.15
506.58	42237.31
506.76	42487.74
506.93	42485.40
507.11	42431.57
507.28	42932.45
507.46	42801.38
507.63	43267.14
507.81	43438.00
507.98	42885.64
508.16	43323.32
508.33	43791.42
508.50	43648.65
508.68	43580.78
508.85	44634.02
509.03	43957.60
509.20	44144.84
509.38	44587.21
509.55	44594.23
509.73	44568.48
509.90	44767.43
510.08	44608.27
510.25	44753.38
510.42	44797.85
510.60	45202.77
510.77	45701.30
510.95	45385.33
511.12	45172.34
511.30	45188.72
511.47	45649.81
511.64	45659.17
511.82	45705.98
511.99	45778.54
512.17	45921.31
512.34	46155.36
512.51	46586.02
512.69	46796.67
512.86	46625.81
513.04	46719.43
513.21	46625.81
513.38	47257.76
513.56	47023.70
513.73	46941.78
513.90	47381.80
514.08	47086.90
514.25	47578.41
514.43	47215.63
514.60	47653.31
514.77	47306.91
514.95	48055.88
515.12	47749.27
515.29	47622.88
515.47	48133.12
515.64	48179.93
515.81	48217.38
515.99	48638.67
516.16	48479.52
516.33	48523.99
516.51	48706.55
516.68	48608.25
516.85	48755.70
517.03	49076.35
517.20	49251.89
517.37	48910.17
517.54	48886.77
517.72	49226.15
517.89	49226.15
518.06	49652.12
518.24	49572.55
518.41	49357.22
518.58	49497.65
518.75	49579.57
518.93	49780.85
519.10	49940.01
519.27	49965.76
519.45	49993.84
519.62	50251.30
519.79	50248.96
519.96	50349.60
520.14	50298.11
520.31	50239.60
520.48	50365.99
520.65	50422.16
520.83	51070.49
521.00	51035.38
521.17	50920.70
521.34	51229.65
521.52	50993.25
521.69	51082.19
521.86	50983.89
522.03	51606.47
522.20	51583.07
522.38	51882.66
522.55	51571.36
522.72	51412.21
522.89	51683.71
523.07	51763.29
523.24	51892.02
523.41	51779.67
523.58	51459.02
523.75	52198.63
523.92	51875.63
524.10	51676.69
524.27	52315.65
524.44	52053.51
524.61	52203.31
524.78	52229.05
524.96	52292.25
525.13	52423.32
525.30	52648.01
525.47	52523.96
525.64	52678.44
525.81	52659.71
525.98	52545.03
526.16	52800.15
526.33	52783.76
526.50	53188.67
526.67	53104.41
526.84	52760.36
527.01	53186.33
527.18	53057.60
527.36	53207.40
527.53	53317.40
527.70	53579.54
527.87	53469.54
528.04	53366.55
528.21	53436.77
528.38	53633.38
528.55	53787.85
528.72	53366.55
528.89	53731.68
529.07	53593.59
529.24	53668.48
529.41	53696.57
529.58	53944.67
529.75	53668.48
529.92	54035.95
530.09	54162.34
530.26	54148.29
530.43	54026.59
530.60	53972.75
530.77	53888.49
530.94	54305.11
531.11	54363.62
531.28	54461.93
531.46	54562.57
531.63	54354.26
531.80	54459.58
531.97	54529.80
532.14	54244.26
532.31	54798.96
532.48	54653.85
532.65	54693.64
532.82	54714.70
532.99	54731.09
533.16	54698.32
533.33	54925.35
533.50	55086.85
533.67	55161.75
533.84	54712.36
534.01	55056.42
534.18	54848.11
534.35	55311.54
534.52	55285.79
534.69	55360.69
534.86	55377.08
535.03	55164.09
535.20	55014.29
535.37	55288.13
535.54	55451.97
535.71	55664.96
535.88	55363.03
536.05	55416.86
536.22	55650.92
536.38	55522.19
536.55	55662.62
536.72	55695.39
536.89	55655.60
537.06	55704.75
537.23	56090.94
537.40	55814.76
537.57	55796.03
537.74	56231.37
537.91	56198.60
538.08	56196.26
538.25	56081.58
538.42	55952.85
538.59	56287.54
538.75	56081.58
538.92	56282.86
539.09	56514.58
539.26	56449.04
539.43	56282.86
539.60	56332.01
539.77	56172.86
539.94	56542.66
540.11	56463.08
540.28	56612.88
540.44	56502.87
540.61	56395.21
540.78	56790.76
540.95	56519.26
541.12	56640.96
541.29	56690.12
541.46	56516.92
541.62	56563.73
541.79	56619.90
541.96	56608.20
542.13	56722.88
542.30	56547.34
542.47	57167.58
542.63	56966.30
542.80	56931.19
542.97	57153.54
543.14	57312.70
543.31	57237.80
543.48	57268.23
543.64	57495.26
543.81	57415.68
543.98	57528.03
544.15	57455.47
544.32	57586.54
544.48	57815.91
544.65	57530.37
544.82	57647.39
544.99	57343.12
545.16	57668.46
545.32	57638.03
545.49	57879.11
545.66	57911.88
545.83	57932.94
546.00	57982.09
546.16	57806.55
546.33	57607.61
546.50	57701.23
546.67	57855.70
546.83	57340.78
547.00	58269.98
547.17	57696.55
547.34	57965.71
547.50	57876.77
547.67	58342.53
547.84	57930.60
548.00	58262.96
548.17	58358.92
548.34	58251.25
548.51	58396.37
548.67	58468.92
548.84	58358.92
549.01	58251.25
549.18	58344.87
549.34	58347.21
549.51	58489.99
549.68	58543.82
549.84	58546.16
550.01	58480.63
550.18	58375.30
550.34	58571.91
550.51	58688.93
550.68	58560.20
550.84	58508.71
551.01	58812.98
551.18	58738.08
551.34	58677.23
551.51	58642.12
551.68	58672.55
551.84	58562.54
552.01	58749.79
552.18	58805.96
552.34	58754.47
552.51	58901.92
552.68	58644.46
552.84	58815.32
553.01	58873.84
553.18	58784.90
553.34	58997.88
553.51	58796.60
553.67	58965.12
553.84	58946.39
554.01	58955.75
554.17	59323.22
554.34	59175.76
554.51	59061.08
554.67	59021.29
554.84	59079.80
555.00	59021.29
555.17	59086.82
555.33	59086.82
555.50	59025.97
555.67	59021.29
555.83	59206.19
556.00	59309.18
556.16	59463.65
556.33	59512.80
556.50	59206.19
556.66	59634.51
556.83	59201.51
556.99	59370.03
557.16	59540.89
557.32	59559.61
557.49	59744.51
557.65	59398.12
557.82	59554.93
557.98	59519.82
558.15	59456.63
558.32	59639.19
558.48	59613.44
558.65	59674.30
558.81	59611.10
558.98	59716.43
559.14	59840.48
559.31	59676.64
559.47	59870.90
559.64	59861.54
559.80	59831.11
559.97	59784.30
560.13	59639.19
560.30	59901.33
560.46	59873.24
560.63	59796.01
560.79	59901.33
560.96	60186.88
561.12	59990.27
561.29	60058.15
561.45	59973.89
561.61	59906.01
561.78	59903.67
561.94	59901.33
562.11	59969.21
562.27	60093.25
562.44	59994.95
562.60	60224.32
562.77	60254.75
562.93	59943.46
563.10	60327.31
563.26	59948.14
563.42	60273.48
563.59	60130.70
563.75	60076.87
563.92	60121.34
564.08	60163.47
564.24	60252.41
564.41	60385.82
564.57	60186.88
564.74	60257.09
564.90	60303.90
565.07	60165.81
565.23	60126.02
565.39	60287.52
565.56	60364.76
565.72	60236.03
565.88	60427.95
566.05	60238.37
566.21	60374.12
566.38	60322.63
566.54	60289.86
566.70	60540.30
566.87	60500.51
567.03	60423.27
567.19	60680.73
567.36	60486.46
567.52	60367.10
567.68	60533.28
567.85	60282.84
568.01	60535.62
568.17	60423.27
568.34	60657.32
568.50	60425.61
568.66	60411.57
568.83	60547.32
568.99	60523.91
569.15	60420.93
569.32	60582.43
569.48	60608.17
569.64	60746.26
569.81	60502.85
569.97	60500.51
570.13	60657.32
570.30	60692.43
570.46	60360.08
570.62	60858.61
570.78	60666.69
570.95	60767.33
571.11	60584.77
571.27	60804.78
571.43	60690.09
571.60	60669.03
571.76	60802.44
571.92	60633.92
572.09	60566.04
572.25	60781.37
572.41	60865.63
572.57	60561.36
572.74	60914.78
572.90	60678.39
573.06	60769.67
573.22	60673.71
573.38	60882.02
573.55	60760.31
573.71	60938.19
573.87	60732.22
574.03	60589.45
574.20	60704.13
574.36	60704.13
574.52	60788.39
574.68	60921.80
574.84	60926.49
575.01	60725.20
575.17	60753.29
575.33	60772.01
575.49	60739.24
575.65	60856.27
575.82	60952.23
575.98	60973.30
576.14	61244.80
576.30	61123.09
576.46	61083.30
576.62	60809.46
576.79	60989.68
576.95	60757.97
577.11	61055.21
577.27	60945.21
577.43	60774.35
577.59	60959.25
577.75	60732.22
577.92	60842.23
578.08	60970.96
578.24	60945.21
578.40	61080.96
578.56	61240.12
578.72	61062.24
578.88	61148.84
579.04	61195.65
579.21	61141.81
579.37	60999.04
579.53	61258.84
579.69	60884.36
579.85	60931.17
580.01	60949.89
580.17	60952.23
580.33	61181.60
580.49	61010.74
580.65	60961.59
580.82	60804.78
580.98	60872.65
581.14	61036.49
581.30	60970.96
581.46	61209.69
581.62	61062.24
581.78	60924.14
581.94	61158.20
582.10	61130.11
582.26	61153.52
582.42	60994.36
582.58	60989.68
582.74	61024.79
582.90	60999.04
583.06	61080.96
583.22	60809.46
583.38	61186.28
583.54	61134.79
583.70	61008.40
583.86	61317.35
584.02	60889.04
584.18	61350.12
584.34	61092.66
584.50	61095.00
584.66	61048.19
584.82	61127.77
584.98	61071.60
585.14	61176.92
585.30	61041.17
585.46	60954.57
585.62	61251.82
585.78	61300.97
585.94	61041.17
586.10	61132.45
586.26	61296.29
586.42	61286.93
586.58	61359.48
586.74	61312.67
586.90	61076.28
587.06	61160.54
587.22	61310.33
587.38	61277.57
587.54	61097.34
587.70	61476.51
587.86	61106.71
588.02	61113.73
588.18	61329.06
588.34	61127.77
588.49	61134.79
