SpectraSuite Data File
++++++++++++++++++++++++++++++++++++
Date: Fri Oct 25 10:47:54 EDT 2013
User: price-jones
Dark Spectrum Present: No
Reference Spectrum Present: No
Number of Sampled Component Spectra: 1
Spectrometers: USB2+H05261
Integration Time (usec): 100000 (USB2+H05261)
Spectra Averaged: 1 (USB2+H05261)
Boxcar Smoothing: 0 (USB2+H05261)
Correct for Electrical Dark: No (USB2+H05261)
Strobe/Lamp Enabled: No (USB2+H05261)
Correct for Detector Non-linearity: No (USB2+H05261)
Correct for Stray Light: No (USB2+H05261)
Number of Pixels in Processed Spectrum: 2048
>>>>>Begin Processed Spectral Data<<<<<
365.73	135.75
365.92	135.75
366.12	135.75
366.32	77.24
366.52	56.17
366.72	63.19
366.91	53.83
367.11	65.54
367.31	84.26
367.51	56.17
367.70	0.00
367.90	84.26
368.10	86.60
368.30	77.24
368.49	49.15
368.69	60.85
368.89	81.92
369.09	58.51
369.28	42.13
369.48	88.94
369.68	79.58
369.87	135.75
370.07	37.45
370.27	128.73
370.47	241.08
370.66	414.27
370.86	397.89
371.06	376.83
371.25	514.92
371.45	404.91
371.65	409.59
371.84	407.25
372.04	472.79
372.24	442.36
372.44	437.68
372.63	550.03
372.83	463.43
373.03	524.28
373.22	526.62
373.42	514.92
373.62	589.82
373.81	526.62
374.01	519.60
374.21	533.64
374.40	540.66
374.60	571.09
374.79	547.69
374.99	496.19
375.19	554.71
375.38	575.77
375.58	594.50
375.78	557.05
375.97	603.86
376.17	613.22
376.37	559.39
376.56	538.32
376.76	589.82
376.95	573.43
377.15	660.03
377.35	617.90
377.54	554.71
377.74	613.22
377.93	592.16
378.13	657.69
378.33	653.01
378.52	657.69
378.72	596.84
378.91	645.99
379.11	645.99
379.31	631.94
379.50	657.69
379.70	620.24
379.89	697.48
380.09	660.03
380.28	592.16
380.48	559.39
380.68	627.26
380.87	685.78
381.07	702.16
381.26	643.65
381.46	723.23
381.65	660.03
381.85	706.84
382.04	720.88
382.24	587.47
382.43	713.86
382.63	671.73
382.83	751.31
383.02	620.24
383.22	657.69
383.41	629.60
383.61	718.54
383.80	718.54
384.00	706.84
384.19	751.31
384.39	770.04
384.58	730.25
384.78	746.63
384.97	798.12
385.17	770.04
385.36	734.93
385.56	863.66
385.75	786.42
385.95	774.72
386.14	788.76
386.34	727.91
386.53	861.32
386.72	746.63
386.92	805.14
387.11	807.48
387.31	772.38
387.50	835.57
387.70	720.88
387.89	812.17
388.09	842.59
388.28	814.51
388.48	837.91
388.67	936.21
388.86	866.00
389.06	861.32
389.25	863.66
389.45	870.68
389.64	816.85
389.84	966.64
390.03	940.90
390.22	980.68
390.42	915.15
390.61	903.45
390.81	961.96
391.00	1020.47
391.19	992.39
391.39	978.34
391.58	1020.47
391.78	971.32
391.97	926.85
392.16	1018.13
392.36	999.41
392.55	945.58
392.75	1029.84
392.94	891.74
393.13	990.05
393.33	870.68
393.52	1006.43
393.71	1029.84
393.91	987.71
394.10	1076.65
394.29	1015.79
394.49	1025.15
394.68	1179.63
394.88	1137.50
395.07	1128.14
395.26	1165.59
395.46	1163.25
395.65	1137.50
395.84	1062.60
396.04	1165.59
396.23	1153.88
396.42	1128.14
396.62	1128.14
396.81	1076.65
397.00	1224.10
397.19	1132.82
397.39	1135.16
397.58	1247.51
397.77	1282.61
397.97	1235.80
398.16	1270.91
398.35	1308.36
398.55	1284.95
398.74	1338.79
398.93	1394.96
399.12	1357.51
399.32	1273.25
399.51	1270.91
399.70	1282.61
399.90	1317.72
400.09	1411.34
400.28	1411.34
400.47	1376.24
400.67	1427.73
400.86	1462.83
401.05	1444.11
401.24	1488.58
401.44	1420.71
401.63	1542.41
401.82	1469.86
402.01	1474.54
402.21	1528.37
402.40	1549.43
402.59	1521.35
402.78	1591.56
402.97	1570.50
403.17	1551.78
403.36	1605.61
403.55	1710.93
403.74	1640.72
403.93	1570.50
404.13	1600.93
404.32	1645.40
404.51	1542.41
404.70	1652.42
404.89	1579.86
405.09	1610.29
405.28	1732.00
405.47	1689.87
405.66	1774.13
405.85	1727.32
406.05	1816.26
406.24	1846.68
406.43	1802.21
406.62	1799.87
406.81	1867.75
407.00	1839.66
407.20	1736.68
407.39	1790.51
407.58	1954.35
407.77	1870.09
407.96	1954.35
408.15	2036.27
408.34	2118.18
408.54	2054.99
408.73	2036.27
408.92	2040.95
409.11	2076.06
409.30	2003.50
409.49	2043.29
409.68	2101.80
409.87	2050.31
410.07	2005.84
410.26	2106.48
410.45	2076.06
410.64	2193.08
410.83	2200.10
411.02	2209.47
411.21	2298.41
411.40	2230.53
411.59	2303.09
411.78	2347.56
411.98	2321.81
412.17	2258.62
412.36	2345.22
412.55	2413.09
412.74	2490.33
412.93	2530.12
413.12	2399.05
413.31	2385.01
413.50	2452.88
413.69	2469.27
413.88	2574.59
414.07	2478.63
414.26	2677.57
414.45	2565.23
414.64	2555.86
414.83	2710.34
415.02	2658.85
415.22	2745.45
415.41	2731.41
415.60	2848.43
415.79	2796.94
415.98	2888.22
416.17	2883.54
416.36	2939.71
416.55	2876.52
416.74	2944.39
416.93	2766.51
417.12	2998.23
417.31	2993.55
417.50	2832.05
417.69	3136.32
417.88	3028.65
418.07	3087.17
418.26	3056.74
418.45	3030.99
418.64	3325.90
418.83	3117.59
419.02	3192.49
419.21	3222.92
419.39	3218.24
419.58	3269.73
419.77	3119.93
419.96	3197.17
420.15	3297.81
420.34	3316.54
420.53	3260.37
420.72	3524.85
420.91	3405.48
421.10	3318.88
421.29	3487.40
421.48	3426.54
421.67	3382.07
421.86	3311.86
422.05	3419.52
422.24	3440.59
422.43	3370.37
422.61	3541.23
422.80	3515.48
422.99	3482.72
423.18	3578.68
423.37	3669.96
423.56	3646.55
423.75	3485.06
423.94	3377.39
424.13	3337.60
424.32	3405.48
424.50	3466.33
424.69	3536.55
424.88	3632.51
425.07	3613.79
425.26	3548.25
425.45	3449.95
425.64	3454.63
425.83	3499.10
426.01	3550.59
426.20	3688.68
426.39	3620.81
426.58	3520.17
426.77	3485.06
426.96	3662.94
427.15	3552.93
427.33	3630.17
427.52	3679.32
427.71	3693.37
427.90	3693.37
428.09	3754.22
428.28	3653.58
428.46	3847.84
428.65	3871.25
428.84	3845.50
429.03	3810.39
429.22	3662.94
429.40	3857.20
429.59	3765.92
429.78	3658.26
429.97	3662.94
430.16	3723.79
430.34	3723.79
430.53	3878.27
430.72	3845.50
430.91	3824.44
431.10	3934.44
431.28	4011.68
431.47	4060.83
431.66	4084.23
431.85	3967.21
432.03	4042.11
432.22	4161.47
432.41	4182.54
432.60	4252.75
432.79	4109.98
432.97	4362.76
433.16	4353.40
433.35	4257.43
433.54	4149.77
433.72	4194.24
433.91	4245.73
434.10	4306.59
434.28	4362.76
434.47	4313.61
434.66	4498.51
434.85	4437.66
435.03	4458.72
435.22	4421.27
435.41	4517.23
435.59	4477.44
435.78	4564.04
435.97	4557.02
436.16	4603.83
436.34	4498.51
436.53	4594.47
436.72	4704.48
436.90	4505.53
437.09	4690.43
437.28	4507.87
437.46	4727.88
437.65	4524.26
437.84	4662.35
438.02	4727.88
438.21	4739.58
438.40	4699.80
438.58	4821.50
438.77	4793.42
438.96	4664.69
439.14	4844.91
439.33	5109.39
439.52	5104.71
439.70	5006.41
439.89	5153.86
440.08	5095.35
440.26	5116.41
440.45	5121.09
440.63	5275.57
440.82	5322.38
441.01	5322.38
441.19	5437.06
441.38	5387.91
441.57	5500.26
441.75	5345.78
441.94	5605.58
442.12	5558.77
442.31	5727.29
442.50	5549.41
442.68	5612.60
442.87	5778.78
443.05	5568.13
443.24	5750.70
443.43	5533.03
443.61	5694.52
443.80	5951.98
443.98	5636.01
444.17	5511.96
444.35	5778.78
444.54	5837.30
444.73	5839.64
444.91	5980.07
445.10	5907.51
445.28	5853.68
445.47	5783.46
445.65	5699.20
445.84	5907.51
446.02	5785.80
446.21	5825.59
446.39	5797.51
446.58	6036.24
446.77	5935.60
446.95	5703.89
447.14	5980.07
447.32	5921.56
447.51	6026.88
447.69	5919.21
447.88	6043.26
448.06	6024.54
448.25	6022.20
448.43	6087.73
448.62	5956.66
448.80	5940.28
448.99	6090.07
449.17	6101.78
449.36	6246.89
449.54	6445.84
449.73	6274.98
449.91	6176.67
450.10	6181.35
450.28	6319.45
450.46	6434.13
450.65	6415.41
450.83	6244.55
451.02	6375.62
451.20	6506.69
451.39	6548.82
451.57	6450.52
451.76	6478.60
451.94	6443.49
452.13	6392.00
452.31	6408.39
452.49	6260.93
452.68	6413.07
452.86	6436.47
453.05	6541.80
453.23	6759.47
453.42	6551.16
453.60	6532.44
453.78	6506.69
453.97	6541.80
454.15	6518.39
454.34	6499.67
454.52	6815.64
454.70	6834.36
454.89	6803.94
455.07	6768.83
455.26	6724.36
455.44	6829.68
455.62	6998.20
455.81	6930.33
455.99	6920.96
456.17	7037.99
456.36	7082.46
456.54	7089.48
456.73	7028.63
456.91	7180.76
457.09	7407.80
457.28	7314.17
457.46	7199.49
457.64	7393.75
457.83	7288.43
458.01	7206.51
458.19	7538.87
458.38	7407.80
458.56	7461.63
458.74	7449.93
458.93	7344.60
459.11	7314.17
459.29	7517.80
459.48	7590.36
459.66	7290.77
459.84	7611.42
460.03	7707.38
460.21	7571.63
460.39	7398.43
460.57	7662.91
460.76	7646.53
460.94	7754.19
461.12	7833.77
461.31	7810.37
461.49	7758.88
461.67	7854.84
461.85	8009.31
462.04	7866.54
462.22	8376.78
462.40	8046.76
462.59	7852.50
462.77	7939.10
462.95	8051.44
463.13	7988.25
463.32	7974.21
463.50	8184.85
463.68	8030.38
463.86	8156.77
464.05	7981.23
464.23	7901.65
464.41	8318.26
464.59	7971.86
464.78	8332.31
464.96	8269.11
465.14	8170.81
465.32	8493.80
465.50	8292.52
465.69	8369.76
465.87	8210.60
466.05	8273.79
466.23	8341.67
466.41	8348.69
466.60	8461.04
466.78	8444.65
466.96	8308.90
467.14	8395.50
467.32	8617.85
467.51	8599.13
467.69	8280.82
467.87	8531.25
468.05	8580.40
468.23	8355.71
468.41	8498.49
468.60	8699.77
468.78	8732.54
468.96	8535.93
469.14	8652.96
469.32	8814.46
469.50	8648.28
469.69	8795.73
469.87	8894.04
470.05	8791.05
470.23	8793.39
470.41	8879.99
470.59	8903.40
470.77	8931.48
470.95	8978.30
471.14	9153.84
471.32	9060.21
471.50	9247.46
471.68	9411.29
471.86	9277.88
472.04	9254.48
472.22	9577.47
472.40	9195.96
472.58	9453.42
472.77	9331.72
472.95	9547.05
473.13	9830.25
473.31	9392.57
473.49	9528.32
473.67	9380.87
473.85	9734.29
474.03	9792.80
474.21	9799.82
474.39	9982.38
474.57	10017.49
474.75	10120.48
474.93	10064.30
475.12	10200.05
475.30	10197.71
475.48	10256.23
475.66	10078.35
475.84	10120.48
476.02	10399.00
476.20	10377.94
476.38	10420.06
476.56	10689.23
476.74	10822.64
476.92	10700.93
477.10	10794.55
477.28	10949.03
477.46	10909.24
477.64	11124.57
477.82	11250.96
478.00	11424.15
478.18	11440.54
478.36	11197.12
478.54	11639.48
478.72	11449.90
478.90	11489.69
479.08	11779.92
479.26	11922.69
479.44	11793.96
479.62	12063.12
479.80	12152.06
479.98	12100.57
480.16	12250.36
480.34	12404.84
480.52	12299.52
480.70	12491.44
480.88	12386.12
481.06	12695.07
481.24	12606.13
481.41	12924.44
481.59	12931.46
481.77	13025.08
481.95	13125.72
482.13	13350.42
482.31	13221.69
482.49	13366.80
482.67	13628.94
482.85	13687.45
483.03	13767.03
483.21	13984.70
483.39	14040.87
483.57	14310.04
483.74	14232.80
483.92	14218.75
484.10	14326.42
484.28	14443.45
484.46	14511.32
484.64	14775.80
484.82	14532.39
485.00	14738.35
485.18	14913.89
485.35	15005.17
485.53	15073.05
485.71	15241.57
485.89	15218.16
486.07	15030.92
486.25	15229.87
486.43	15475.62
486.61	15580.95
486.78	15726.06
486.96	15990.54
487.14	15910.96
487.32	16145.02
487.50	16400.13
487.68	16301.83
487.85	16730.15
488.03	16751.21
488.21	16964.20
488.39	16957.18
488.57	17163.15
488.75	17287.20
488.92	17577.42
489.10	17734.24
489.28	17544.66
489.46	17980.00
489.64	17914.46
489.81	18427.04
489.99	18483.21
490.17	18129.79
490.35	18546.40
490.53	18682.16
490.70	18633.00
490.88	18773.44
491.06	18988.77
491.24	18939.62
491.41	19037.92
491.59	19117.50
491.77	19040.26
491.95	19248.57
492.13	19543.47
492.30	19616.03
492.48	19793.91
492.66	19934.34
492.84	19990.52
493.01	20231.59
493.19	20133.29
493.37	20343.94
493.54	20568.63
493.72	20676.29
493.90	20788.64
494.08	21205.25
494.25	21546.97
494.43	21097.59
494.61	21535.27
494.79	21558.67
494.96	21397.18
495.14	21331.64
495.32	21628.89
495.49	21872.31
495.67	21715.49
495.85	22036.14
496.02	21940.18
496.20	22471.48
496.38	22143.81
496.55	22745.33
496.73	22731.28
496.91	22422.33
497.09	22796.82
497.26	22754.69
497.44	22991.08
497.62	23199.39
497.79	23442.81
497.97	23250.88
498.14	23604.30
498.32	23580.90
498.50	23838.36
498.67	23672.18
498.85	24016.24
499.03	24175.39
499.20	24053.69
499.38	24261.99
499.56	24039.64
499.73	24266.67
499.91	24507.75
500.08	24751.17
500.26	24458.60
500.44	24755.85
500.61	24683.29
500.79	24364.98
500.97	24950.11
501.14	24926.71
501.32	25172.46
501.49	25156.08
501.67	25340.98
501.84	25083.52
502.02	25458.01
502.20	25549.29
502.37	25788.02
502.55	25806.75
502.72	25909.73
502.90	25933.14
503.07	25701.42
503.25	26204.64
503.43	25951.86
503.60	26125.06
503.78	26047.82
503.95	26118.04
504.13	26558.06
504.30	26649.34
504.48	26199.96
504.65	26635.30
504.83	26965.31
505.01	26899.78
505.18	27131.49
505.36	27220.43
505.53	27143.19
505.71	27410.01
505.88	27564.49
506.06	27344.48
506.23	27480.23
506.41	27784.50
506.58	27339.80
506.76	27513.00
506.93	27894.50
507.11	27803.22
507.28	28034.94
507.46	27941.32
507.63	27964.72
507.81	28208.14
507.98	27971.74
508.16	28290.06
508.33	28407.08
508.50	28292.40
508.68	28322.82
508.85	28540.49
509.03	28603.69
509.20	28919.66
509.38	28947.75
509.55	29235.63
509.73	29048.39
509.90	29142.01
510.08	29118.60
510.25	28968.81
510.42	29303.51
510.60	29614.80
510.77	29387.77
510.95	30171.85
511.12	29666.29
511.30	29610.12
511.47	29951.84
511.64	30103.97
511.82	30221.00
511.99	29745.87
512.17	29956.52
512.34	29905.02
512.51	30359.09
512.69	30602.50
512.86	30518.25
513.04	30632.93
513.21	30979.33
513.38	30644.63
513.56	30801.45
513.73	30548.67
513.90	30625.91
514.08	31002.74
514.25	30962.95
514.43	31140.83
514.60	31243.81
514.77	30892.73
514.95	31515.31
515.12	31002.74
515.29	31512.97
515.47	31232.11
515.64	31644.04
515.81	31227.43
515.99	31466.16
516.16	31384.24
516.33	31716.60
516.51	31910.86
516.68	31555.10
516.85	31545.74
517.03	31550.42
517.20	32081.72
517.37	32009.17
517.54	32594.30
517.72	31929.59
517.89	32409.40
518.06	31950.65
518.24	32074.70
518.41	32217.47
518.58	32367.27
518.75	32659.84
518.93	32954.74
519.10	32500.68
519.27	32741.75
519.45	33036.66
519.62	32978.15
519.79	33427.53
519.96	33254.33
520.14	33422.85
520.31	33134.96
520.48	33326.89
520.65	32818.99
520.83	33682.65
521.00	34005.64
521.17	33237.95
521.34	33373.70
521.52	34078.20
521.69	34370.77
521.86	34452.69
522.03	33853.51
522.20	33928.41
522.38	34431.62
522.55	34443.32
522.72	34223.31
522.89	34204.59
523.07	34455.03
523.24	34127.35
523.41	34651.63
523.58	34869.30
523.75	34459.71
523.92	34703.12
524.10	34682.06
524.27	35321.02
524.44	34909.09
524.61	35030.80
524.78	35257.83
524.96	35356.13
525.13	35306.98
525.30	35449.75
525.47	35709.55
525.64	35042.50
525.81	35498.91
525.98	35143.14
526.16	35367.84
526.33	35058.88
526.50	35494.22
526.67	35463.80
526.84	35236.77
527.01	35477.84
527.18	35608.91
527.36	36109.78
527.53	35943.61
527.70	35952.97
527.87	36212.77
528.04	35477.84
528.21	36093.40
528.38	36261.92
528.55	36325.11
528.72	36439.80
528.89	36392.99
529.07	36315.75
529.24	36367.24
529.41	36772.16
529.58	36109.78
529.75	36538.10
529.92	36992.17
530.09	37099.83
530.26	36655.13
530.43	37038.98
530.60	36643.43
530.77	36926.63
530.94	36840.03
531.11	36828.33
531.28	37053.02
531.46	37528.15
531.63	37083.45
531.80	37219.20
531.97	37598.37
532.14	37193.45
532.31	36943.02
532.48	37095.15
532.65	37479.00
532.82	37273.03
532.99	37350.27
533.16	37132.60
533.33	37347.93
533.50	37694.33
533.67	37628.79
533.84	37778.59
534.01	37479.00
534.18	37696.67
534.35	38518.20
534.52	37904.98
534.69	37996.26
534.86	38216.27
535.03	37954.13
535.20	38515.86
535.37	38464.36
535.54	38677.35
535.71	38293.50
535.88	38789.70
536.05	37937.74
536.22	38478.41
536.38	38256.06
536.55	38302.87
536.72	38789.70
536.89	38447.98
537.06	38689.06
537.23	38838.85
537.40	38691.40
537.57	38768.63
537.74	38972.26
537.91	39009.71
538.08	39051.84
538.25	38422.23
538.42	39063.54
538.59	39033.11
538.75	38792.04
538.92	39009.71
539.09	39260.15
539.26	39075.24
539.43	39276.53
539.60	39330.36
539.77	39208.65
539.94	39145.46
540.11	39384.19
540.28	39555.05
540.44	39365.47
540.61	39431.01
540.78	39218.02
540.95	39414.62
541.12	39372.49
541.29	39335.04
541.46	39384.19
541.62	39566.76
541.79	39655.70
541.96	39428.66
542.13	39538.67
542.30	39906.13
542.47	40161.25
542.63	40009.12
542.80	40385.94
542.97	40135.51
543.14	40804.90
543.31	40404.67
543.48	40446.80
543.64	41186.41
543.81	40835.33
543.98	40596.59
544.15	40350.84
544.32	40362.54
544.48	41001.50
544.65	40861.07
544.82	40648.08
544.99	40554.46
545.16	40540.42
545.32	40638.72
545.49	41258.96
545.66	41708.35
545.83	40584.89
546.00	41109.17
546.16	40858.73
546.33	40973.42
546.50	40774.47
546.67	41074.06
546.83	40737.02
547.00	40650.42
547.17	40641.06
547.34	41244.92
547.50	41509.40
547.67	41612.38
547.84	41612.38
548.00	41858.14
548.17	41605.36
548.34	40994.48
548.51	41401.74
548.67	41532.81
548.84	41862.82
549.01	41696.64
549.18	41722.39
549.34	41411.10
549.51	42157.73
549.68	42227.95
549.84	41687.28
550.01	42204.54
550.18	41792.61
550.34	42188.16
550.51	42033.68
550.68	41989.21
550.84	41563.23
551.01	42029.00
551.18	42010.28
551.34	41823.03
551.51	41961.12
551.68	42036.02
551.84	41986.87
552.01	41991.55
552.18	42302.84
552.34	41942.40
552.51	42373.06
552.68	42447.96
552.84	42143.69
553.01	42892.66
553.18	42600.09
553.34	42574.34
553.51	42302.84
553.67	42377.74
553.84	42784.99
554.01	42796.70
554.17	42836.48
554.34	42452.64
554.51	42979.26
554.67	42902.02
554.84	42672.65
555.00	42227.95
555.17	42604.77
555.33	42679.67
555.50	43000.32
555.67	42742.86
555.83	42689.03
556.00	43145.44
556.16	43454.39
556.33	42909.04
556.50	42714.78
556.66	43386.51
556.83	42789.67
556.99	43346.72
557.16	43302.25
557.32	42780.31
557.49	43236.72
557.65	43016.71
557.82	42955.85
557.98	43239.06
558.15	43501.20
558.32	43117.35
558.48	43358.42
558.65	43063.52
558.81	43505.88
558.98	43012.02
559.14	43285.87
559.31	43147.78
559.47	43320.98
559.64	43250.76
559.80	43690.78
559.97	43868.66
560.13	43178.20
560.30	43187.56
560.46	43646.31
560.63	43646.31
560.79	44023.14
560.96	43859.30
561.12	43501.20
561.29	43800.79
561.45	43915.47
561.61	43697.80
561.78	43548.01
561.94	43517.58
562.11	43758.66
562.27	43662.69
562.44	43477.79
562.60	43952.92
562.77	44076.97
562.93	43840.57
563.10	43693.12
563.26	43814.83
563.42	43676.74
563.59	43810.15
563.75	43599.50
563.92	44044.20
564.08	44229.10
564.24	43728.23
564.41	44079.31
564.57	43955.26
564.74	44074.63
564.90	43971.64
565.07	43948.24
565.23	43615.88
565.39	43922.49
565.56	43894.41
565.72	43615.88
565.88	43899.09
566.05	43955.26
566.21	44065.27
566.38	43934.20
566.54	43910.79
566.70	44135.48
566.87	44734.66
567.03	44425.71
567.19	44495.92
567.36	44158.89
567.52	43995.05
567.68	44226.76
567.85	43948.24
568.01	43803.13
568.17	43707.16
568.34	44531.03
568.50	44341.45
568.66	44135.48
568.83	44156.55
568.99	43831.21
569.15	43910.79
569.32	44119.10
569.48	44224.42
569.64	44390.60
569.81	44142.50
569.97	44507.63
570.13	44294.64
570.30	43920.15
570.46	43950.58
570.62	44119.10
570.78	44236.12
570.95	44027.82
571.11	44177.61
571.27	44037.18
571.43	44949.99
571.60	44385.92
571.76	44357.83
571.92	44296.98
572.09	44023.14
572.25	43859.30
572.41	44318.04
572.57	44690.19
572.74	45067.02
572.90	44250.17
573.06	44624.65
573.22	44493.58
573.38	44308.68
573.55	44179.95
573.71	44715.93
573.87	44147.18
574.03	44463.16
574.20	44814.24
574.36	44481.88
574.52	44325.07
574.68	44634.02
574.84	44566.14
575.01	44715.93
575.17	44512.31
575.33	44044.20
575.49	44421.03
575.65	44641.04
575.82	44418.69
575.98	44619.97
576.14	44666.78
576.30	44299.32
576.46	44507.63
576.62	44800.19
576.79	44301.66
576.95	44521.67
577.11	44669.12
577.27	44428.05
577.43	44336.77
577.59	44416.35
577.75	44233.78
577.92	44154.21
578.08	44399.96
578.24	44240.81
578.40	44421.03
578.56	44446.77
578.72	44580.18
578.88	44542.74
579.04	44624.65
579.21	44521.67
579.37	44428.05
579.53	44856.37
579.69	44435.07
579.85	45069.36
580.01	44926.58
580.17	44776.79
580.33	44818.92
580.49	44957.01
580.65	44397.62
580.82	44744.02
580.98	44243.15
581.14	44289.96
581.30	44697.21
581.46	44542.74
581.62	44664.44
581.78	44622.31
581.94	45146.59
582.10	44755.72
582.26	44722.96
582.42	44449.11
582.58	44444.43
582.74	44568.48
582.90	44790.83
583.06	45123.19
583.22	44790.83
583.38	45038.93
583.54	44797.85
583.70	44989.78
583.86	44729.98
584.02	44821.26
584.18	44587.21
584.34	44847.00
584.50	44828.28
584.66	44631.68
584.82	44161.23
584.98	44641.04
585.14	44704.23
585.30	44989.78
585.46	44942.97
585.62	44877.43
585.78	44231.44
585.94	44222.08
586.10	44456.14
586.26	44353.15
586.42	44467.84
586.58	44608.27
586.74	44610.61
586.90	44580.18
587.06	44463.16
587.22	45003.82
587.38	44313.36
587.54	44980.42
587.70	44884.45
587.86	44992.12
588.02	44737.00
588.18	44739.34
588.34	44711.25
588.49	44617.63
588.65	44734.66
588.81	44617.63
588.97	44678.49
589.13	44516.99
589.29	44355.49
589.45	45067.02
589.61	44942.97
589.77	45088.08
589.93	45184.04
590.08	44594.23
590.24	44746.36
