SpectraSuite Data File
++++++++++++++++++++++++++++++++++++
Date: Fri Oct 25 11:34:43 EDT 2013
User: price-jones
Dark Spectrum Present: No
Reference Spectrum Present: No
Number of Sampled Component Spectra: 1
Spectrometers: USB2+H05261
Integration Time (usec): 100000 (USB2+H05261)
Spectra Averaged: 1 (USB2+H05261)
Boxcar Smoothing: 0 (USB2+H05261)
Correct for Electrical Dark: No (USB2+H05261)
Strobe/Lamp Enabled: No (USB2+H05261)
Correct for Detector Non-linearity: No (USB2+H05261)
Correct for Stray Light: No (USB2+H05261)
Number of Pixels in Processed Spectrum: 2048
>>>>>Begin Processed Spectral Data<<<<<
365.73	325.33
365.92	325.33
366.12	325.33
366.32	161.50
366.52	135.75
366.72	147.45
366.91	166.18
367.11	163.84
367.31	220.01
367.51	173.20
367.70	156.82
367.90	210.65
368.10	187.24
368.30	252.78
368.49	231.71
368.69	128.73
368.89	196.60
369.09	184.90
369.28	196.60
369.48	220.01
369.68	234.05
369.87	269.16
370.07	248.10
370.27	337.04
370.47	351.08
370.66	472.79
370.86	447.04
371.06	564.07
371.25	580.45
371.45	482.15
371.65	505.56
371.84	528.96
372.04	571.09
372.24	496.19
372.44	564.07
372.63	582.79
372.83	624.92
373.03	582.79
373.22	535.98
373.42	622.58
373.62	601.52
373.81	608.54
374.01	711.52
374.21	624.92
374.40	697.48
374.60	653.01
374.79	594.50
374.99	660.03
375.19	662.37
375.38	664.71
375.58	617.90
375.78	692.80
375.97	671.73
376.17	622.58
376.37	688.12
376.56	655.35
376.76	631.94
376.95	688.12
377.15	709.18
377.35	657.69
377.54	662.37
377.74	716.20
377.93	653.01
378.13	617.90
378.33	699.82
378.52	699.82
378.72	699.82
378.91	709.18
379.11	638.97
379.31	692.80
379.50	763.01
379.70	791.10
379.89	716.20
380.09	676.41
380.28	725.57
380.48	681.10
380.68	676.41
380.87	779.40
381.07	858.98
381.26	748.97
381.46	631.94
381.65	784.08
381.85	770.04
382.04	812.17
382.24	837.91
382.43	716.20
382.63	716.20
382.83	774.72
383.02	702.16
383.22	866.00
383.41	772.38
383.61	755.99
383.80	770.04
384.00	770.04
384.19	849.61
384.39	755.99
384.58	835.57
384.78	884.72
384.97	844.93
385.17	786.42
385.36	819.19
385.56	770.04
385.75	840.25
385.95	819.19
386.14	922.17
386.34	952.60
386.53	823.87
386.72	795.78
386.92	793.44
387.11	905.79
387.31	861.32
387.50	842.59
387.70	875.36
387.89	929.19
388.09	936.21
388.28	854.30
388.48	952.60
388.67	851.96
388.86	898.77
389.06	905.79
389.25	903.45
389.45	936.21
389.64	980.68
389.84	903.45
390.03	945.58
390.22	985.37
390.42	908.13
390.61	964.30
390.81	873.02
391.00	971.32
391.19	973.66
391.39	961.96
391.58	1039.20
391.78	940.90
391.97	990.05
392.16	1022.81
392.36	1095.37
392.55	976.00
392.75	1034.52
392.94	992.39
393.13	1074.31
393.33	1057.92
393.52	1100.05
393.71	1064.94
393.91	1067.28
394.10	999.41
394.29	1064.94
394.49	1029.84
394.68	1034.52
394.88	1088.35
395.07	1153.88
395.26	1088.35
395.46	1034.52
395.65	1104.73
395.84	1240.48
396.04	1128.14
396.23	1163.25
396.42	1193.67
396.62	1188.99
396.81	1144.52
397.00	1205.38
397.19	1193.67
397.39	1228.78
397.58	1153.88
397.77	1207.72
397.97	1160.91
398.16	1273.25
398.35	1263.89
398.55	1214.74
398.74	1282.61
398.93	1352.83
399.12	1261.55
399.32	1165.59
399.51	1291.98
399.70	1327.08
399.90	1352.83
400.09	1315.38
400.28	1376.24
400.47	1385.60
400.67	1259.21
400.86	1280.27
401.05	1355.17
401.24	1334.11
401.44	1327.08
401.63	1324.74
401.82	1289.64
402.01	1385.60
402.21	1462.83
402.40	1423.05
402.59	1437.09
402.78	1418.36
402.97	1362.19
403.17	1432.41
403.36	1434.75
403.55	1387.94
403.74	1411.34
403.93	1570.50
404.13	1519.01
404.32	1495.60
404.51	1497.94
404.70	1591.56
404.89	1554.12
405.09	1540.07
405.28	1689.87
405.47	1680.50
405.66	1694.55
405.85	1659.44
406.05	1586.88
406.24	1668.80
406.43	1694.55
406.62	1739.02
406.81	1790.51
407.00	1652.42
407.20	1619.65
407.39	1767.10
407.58	1750.72
407.77	1732.00
407.96	1860.73
408.15	1750.72
408.34	1844.34
408.54	1701.57
408.73	1820.94
408.92	1856.04
409.11	1928.60
409.30	1806.89
409.49	1905.20
409.68	1991.80
409.87	1818.60
410.07	1849.02
410.26	1982.43
410.45	2047.97
410.64	1977.75
410.83	2026.90
411.02	1963.71
411.21	2129.89
411.40	2026.90
411.59	2115.84
411.78	2181.38
411.98	2059.67
412.17	2066.69
412.36	2101.80
412.55	2211.81
412.74	2202.44
412.93	2225.85
413.12	2258.62
413.31	2333.51
413.50	2392.03
413.69	2300.75
413.88	2457.56
414.07	2380.32
414.26	2450.54
414.45	2424.80
414.64	2450.54
414.83	2438.84
415.02	2511.39
415.22	2480.97
415.41	2487.99
415.60	2462.24
415.79	2513.74
415.98	2492.67
416.17	2637.78
416.36	2684.59
416.55	2640.12
416.74	2679.91
416.93	2740.77
417.12	2717.36
417.31	2766.51
417.50	2691.62
417.69	2890.56
417.88	2801.62
418.07	2876.52
418.26	2853.11
418.45	2937.37
418.64	2832.05
418.83	2906.95
419.02	2960.78
419.21	3038.02
419.39	3073.12
419.58	2974.82
419.77	2953.76
419.96	2979.50
420.15	3110.57
420.34	3040.36
420.53	3009.93
420.72	3105.89
420.91	3066.10
421.10	3080.14
421.29	3178.45
421.48	3075.46
421.67	3075.46
421.86	3150.36
422.05	3157.38
422.24	3199.51
422.43	3096.53
422.61	3176.11
422.80	3096.53
422.99	3276.75
423.18	3180.79
423.37	3274.41
423.56	3222.92
423.75	3089.51
423.94	3206.53
424.13	3014.61
424.32	3173.77
424.50	3272.07
424.69	3344.63
424.88	3398.46
425.07	3330.58
425.26	3143.34
425.45	3199.51
425.64	3171.43
425.83	3330.58
426.01	3375.05
426.20	3330.58
426.39	3269.73
426.58	3318.88
426.77	3225.26
426.96	3384.41
427.15	3480.38
427.33	3393.78
427.52	3314.20
427.71	3480.38
427.90	3454.63
428.09	3559.95
428.28	3583.36
428.46	3524.85
428.65	3609.11
428.84	3585.70
429.03	3754.22
429.22	3466.33
429.40	3609.11
429.59	3632.51
429.78	3501.44
429.97	3566.98
430.16	3646.55
430.34	3630.17
430.53	3733.15
430.72	3737.84
430.91	3592.72
431.10	3588.04
431.28	3749.54
431.47	3721.45
431.66	3875.93
431.85	3758.90
432.03	3906.35
432.22	3969.55
432.41	3803.37
432.60	3901.67
432.79	3861.88
432.97	3854.86
433.16	3852.52
433.35	3953.16
433.54	4021.04
433.72	4107.64
433.91	4007.00
434.10	4081.89
434.28	3927.42
434.47	4051.47
434.66	4042.11
434.85	4053.81
435.03	3990.61
435.22	4035.08
435.41	4245.73
435.59	4140.41
435.78	4189.56
435.97	4109.98
436.16	4210.62
436.34	4170.83
436.53	4229.35
436.72	4259.78
436.90	4219.99
437.09	4327.65
437.28	4196.58
437.46	4255.09
437.65	4369.78
437.84	4252.75
438.02	4320.63
438.21	4411.91
438.40	4273.82
438.58	4540.64
438.77	4456.38
438.96	4592.13
439.14	4526.60
439.33	4634.26
439.52	4753.63
439.70	4624.90
439.89	4800.44
440.08	4788.74
440.26	4723.20
440.45	4812.14
440.63	4755.97
440.82	4884.70
441.01	4840.23
441.19	4931.51
441.38	4823.84
441.57	4961.94
441.75	5050.88
441.94	5207.69
442.12	5041.51
442.31	5305.99
442.50	5121.09
442.68	5008.75
442.87	5186.63
443.05	5406.64
443.24	5305.99
443.43	5212.37
443.61	5203.01
443.80	5425.36
443.98	5221.74
444.17	5076.62
444.35	5233.44
444.54	5425.36
444.73	5226.42
444.91	5362.17
445.10	5362.17
445.28	5413.66
445.47	5280.25
445.65	5416.00
445.84	5481.53
446.02	5446.43
446.21	5287.27
446.39	5348.12
446.58	5303.65
446.77	5511.96
446.95	5254.50
447.14	5362.17
447.32	5387.91
447.51	5584.52
447.69	5287.27
447.88	5465.15
448.06	5671.12
448.25	5507.28
448.43	5385.57
448.62	5563.45
448.80	5385.57
448.99	5416.00
449.17	5579.84
449.36	5652.39
449.54	5659.42
449.73	5720.27
449.91	5722.61
450.10	5708.57
450.28	5909.85
450.46	5825.59
450.65	5872.40
450.83	5874.74
451.02	5823.25
451.20	5954.32
451.39	5806.87
451.57	5797.51
451.76	5818.57
451.94	5783.46
452.13	5963.68
452.31	5963.68
452.49	5813.89
452.68	5928.58
452.86	5895.81
453.05	6047.94
453.23	6078.37
453.42	6022.20
453.60	5851.34
453.78	6005.81
453.97	6218.80
454.15	6155.61
454.34	6047.94
454.52	6127.52
454.70	6167.31
454.89	6115.82
455.07	6258.59
455.26	6200.08
455.44	6574.56
455.62	6436.47
455.81	6483.28
455.99	6492.65
456.17	6450.52
456.36	6427.11
456.54	6441.15
456.73	6574.56
456.91	6686.91
457.09	6724.36
457.28	6715.00
457.46	6576.91
457.64	6745.42
457.83	6846.07
458.01	6635.42
458.19	6867.13
458.38	6736.06
458.56	6733.72
458.74	6686.91
458.93	6766.49
459.11	6909.26
459.29	6867.13
459.48	6799.26
459.66	6853.09
459.84	6909.26
460.03	7070.76
460.21	6890.54
460.39	6951.39
460.57	7042.67
460.76	7007.56
460.94	7112.89
461.12	7030.97
461.31	7096.50
461.49	7178.42
461.67	7063.74
461.85	7253.32
462.04	7164.38
462.22	7412.48
462.40	7520.14
462.59	7316.51
462.77	7384.39
462.95	7323.54
463.13	7545.89
463.32	7328.22
463.50	7573.97
463.68	7454.61
463.86	7538.87
464.05	7360.98
464.23	7667.60
464.41	7489.71
464.59	7229.91
464.78	7777.60
464.96	7581.00
465.14	7564.61
465.32	7548.23
465.50	7644.19
465.69	7691.00
465.87	7665.25
466.05	7702.70
466.23	7688.66
466.41	7889.95
466.60	7978.89
466.78	7758.88
466.96	7648.87
467.14	7838.45
467.32	7822.07
467.51	7946.12
467.69	7763.56
467.87	7786.96
468.05	7962.50
468.23	7782.28
468.41	8072.51
468.60	8044.42
468.78	8051.44
468.96	8100.59
469.14	7978.89
469.32	8189.53
469.50	8081.87
469.69	8351.03
469.87	8201.24
470.05	8245.71
470.23	8205.92
470.41	8362.73
470.59	8397.84
470.77	8294.86
470.95	8269.11
471.14	8318.26
471.32	8442.31
471.50	8697.43
471.68	8592.11
471.86	8479.76
472.04	8678.71
472.22	8891.70
472.40	8622.53
472.58	8816.80
472.77	8870.63
472.95	8954.89
473.13	9142.13
473.31	9015.74
473.49	8784.03
473.67	8975.95
473.85	8868.29
474.03	9139.79
474.21	9228.73
474.39	9277.88
474.57	9338.74
474.75	9235.75
474.93	9401.93
475.12	9446.40
475.30	9460.45
475.48	9542.36
475.66	9474.49
475.84	9624.28
476.02	9757.69
476.20	9827.91
476.38	9654.71
476.56	9975.36
476.74	9973.02
476.92	9961.32
477.10	9949.62
477.28	10108.77
477.46	10317.08
477.64	10335.81
477.82	10415.38
478.00	10775.83
478.18	10399.00
478.36	10799.23
478.54	10839.02
478.72	10747.74
478.90	10824.98
479.08	10892.85
479.26	10799.23
479.44	11066.05
479.62	11030.94
479.80	11293.08
479.98	11274.36
480.16	11445.22
480.34	11358.62
480.52	11658.21
480.70	11702.68
480.88	11330.53
481.06	11721.40
481.24	11761.19
481.41	11908.65
481.59	11936.73
481.77	12079.50
481.95	12329.94
482.13	12397.82
482.31	12252.70
482.49	12720.81
482.67	12669.32
482.85	12713.79
483.03	13022.74
483.21	12912.74
483.39	12947.84
483.57	13043.81
483.74	12999.34
483.92	13135.09
484.10	13252.11
484.28	13586.81
484.46	13584.47
484.64	14113.43
484.82	13724.90
485.00	13909.80
485.18	14218.75
485.35	14190.67
485.53	14310.04
485.71	14295.99
485.89	14527.71
486.07	14504.30
486.25	14331.10
486.43	14686.86
486.61	14796.87
486.78	15005.17
486.96	15115.18
487.14	15365.62
487.32	15077.73
487.50	15356.25
487.68	15300.08
487.85	15768.19
488.03	15882.88
488.21	16315.87
488.39	16175.44
488.57	15871.17
488.75	16135.65
488.92	16280.77
489.10	16645.89
489.28	16608.44
489.46	16798.02
489.64	16767.60
489.81	17053.14
489.99	16966.54
490.17	17261.45
490.35	17383.16
490.53	17848.93
490.70	17694.45
490.88	17626.57
491.06	17858.29
491.24	17914.46
491.41	17998.72
491.59	18047.87
491.77	18108.72
491.95	18448.10
492.13	18347.46
492.30	18614.28
492.48	18759.39
492.66	18424.70
492.84	18719.60
493.01	19026.21
493.19	19168.99
493.37	19178.35
493.54	19133.88
493.72	19538.79
493.90	19342.19
494.08	19644.12
494.25	19974.13
494.43	19873.49
494.61	19634.75
494.79	20086.48
494.96	19885.19
495.14	20285.42
495.32	20528.84
495.49	20313.51
495.67	20528.84
495.85	21048.44
496.02	20475.01
496.20	20926.73
496.38	20929.07
496.55	21294.19
496.73	21706.13
496.91	21568.04
497.09	21495.48
497.26	21596.12
497.44	21752.94
497.62	21762.30
497.79	21916.78
497.97	22001.04
498.14	22302.96
498.32	22295.94
498.50	22075.93
498.67	22855.33
498.85	22560.42
499.03	22731.28
499.20	22562.76
499.38	22874.06
499.56	23016.83
499.73	23456.85
499.91	23178.33
500.08	23232.16
500.26	23049.60
500.44	23569.19
500.61	23513.02
500.79	23557.49
500.97	23569.19
501.14	23990.49
501.32	23817.29
501.49	23714.31
501.67	23934.32
501.84	24151.99
502.02	24098.16
502.20	24018.58
502.37	24517.11
502.55	24343.91
502.72	23892.19
502.90	24367.32
503.07	24182.42
503.25	24664.57
503.43	24669.25
503.60	24877.55
503.78	24840.11
503.95	24945.43
504.13	25135.01
504.30	25378.43
504.48	25142.03
504.65	25219.27
504.83	25472.05
505.01	25603.12
505.18	26061.87
505.36	25872.28
505.53	25844.20
505.71	25965.90
505.88	25860.58
506.06	25750.57
506.23	25989.31
506.41	25879.30
506.58	26436.35
506.76	26157.83
506.93	26174.21
507.11	26288.90
507.28	26806.16
507.46	26843.60
507.63	26665.72
507.81	26951.27
507.98	26675.09
508.16	26801.47
508.33	27112.77
508.50	26977.01
508.68	27138.51
508.85	27730.67
509.03	27402.99
509.20	27304.69
509.38	27494.27
509.55	27843.01
509.73	27793.86
509.90	27826.63
510.08	27796.20
510.25	27887.48
510.42	27976.42
510.60	28177.71
510.77	28327.50
510.95	28379.00
511.12	28056.00
511.30	28086.43
511.47	28936.04
511.64	28357.93
511.82	28547.51
511.99	28481.98
512.17	28720.71
512.34	28446.87
512.51	28793.27
512.69	29160.73
512.86	29235.63
513.04	29350.32
513.21	29017.96
513.38	29364.36
513.56	29724.80
513.73	29553.94
513.90	29532.88
514.08	29429.90
514.25	29638.20
514.43	29795.02
514.60	29895.66
514.77	29986.94
514.95	29993.97
515.12	29802.04
515.29	30008.01
515.47	30270.15
515.64	30286.53
515.81	30197.59
515.99	30258.45
516.16	30623.57
516.33	30426.96
516.51	30628.25
516.68	30700.81
516.85	30581.44
517.03	30852.94
517.20	30719.53
517.37	30752.30
517.54	30611.87
517.72	30881.03
517.89	31161.89
518.06	31023.80
518.24	30843.58
518.41	31014.44
518.58	31292.96
518.75	31253.17
518.93	31566.81
519.10	31302.32
519.27	31613.62
519.45	31571.49
519.62	31831.29
519.79	31950.65
519.96	31510.63
520.14	32084.06
520.31	31524.68
520.48	32233.86
520.65	31838.31
520.83	32503.02
521.00	32514.72
521.17	32547.49
521.34	32680.90
521.52	32456.21
521.69	32629.41
521.86	32982.83
522.03	32959.42
522.20	32926.66
522.38	33057.73
522.55	33172.41
522.72	33266.03
522.89	33411.15
523.07	33228.59
523.24	33053.05
523.41	33130.28
523.58	33305.82
523.75	33736.48
523.92	32987.51
524.10	33619.46
524.27	33696.69
524.44	33649.88
524.61	33986.92
524.78	33614.77
524.96	33853.51
525.13	33926.07
525.30	33977.56
525.47	34195.23
525.64	34288.85
525.81	34359.06
525.98	34288.85
526.16	34555.67
526.33	33972.88
526.50	34630.57
526.67	34309.91
526.84	34384.81
527.01	34443.32
527.18	34487.79
527.36	34300.55
527.53	34902.07
527.70	34794.40
527.87	35206.34
528.04	34593.12
528.21	34995.69
528.38	35023.78
528.55	35421.67
528.72	34991.01
528.89	35220.38
529.07	35370.18
529.24	35435.71
529.41	35150.17
529.58	35285.92
529.75	35475.50
529.92	35590.19
530.09	35402.94
530.26	35482.52
530.43	35592.53
530.60	35447.41
530.77	35363.15
530.94	35732.96
531.11	35765.73
531.28	35775.09
531.46	35370.18
531.63	36233.83
531.80	35651.04
531.97	36486.61
532.14	36121.49
532.31	36224.47
532.48	36495.97
532.65	36500.65
532.82	36650.45
532.99	36294.69
533.16	36811.95
533.33	36964.08
533.50	36329.80
533.67	36533.42
533.84	36332.14
534.01	36666.83
534.18	36741.73
534.35	37324.52
534.52	36837.69
534.69	37689.65
534.86	37132.60
535.03	37104.51
535.20	37067.06
535.37	37226.22
535.54	37504.74
535.71	37258.99
535.88	37127.92
536.05	37579.64
536.22	37507.08
536.38	37076.43
536.55	37539.85
536.72	37488.36
536.89	37347.93
537.06	37752.84
537.23	38019.66
537.40	37312.82
537.57	37778.59
537.74	37797.31
537.91	38052.43
538.08	37853.48
538.25	37668.58
538.42	37874.55
538.59	37780.93
538.75	38108.60
538.92	38220.95
539.09	38223.29
539.26	38050.09
539.43	37890.93
539.60	38370.74
539.77	38227.97
539.94	38609.48
540.11	38265.42
540.28	38122.65
540.44	38759.27
540.61	38749.91
540.78	38209.25
540.95	38572.03
541.12	38682.03
541.29	38382.45
541.46	38483.09
541.62	38815.44
541.79	39000.35
541.96	38925.45
542.13	38565.01
542.30	38803.74
542.47	39435.69
542.63	38834.17
542.80	39292.91
542.97	39819.53
543.14	39555.05
543.31	39632.29
543.48	39580.80
543.64	39545.69
543.81	39681.44
543.98	39466.11
544.15	39770.38
544.32	39714.21
544.48	40163.59
544.65	40004.44
544.82	39959.97
544.99	40020.82
545.16	39737.62
545.32	39583.14
545.49	40212.74
545.66	40313.39
545.83	40100.40
546.00	40470.20
546.16	40179.98
546.33	40437.44
546.50	40395.31
546.67	40397.65
546.83	39903.79
547.00	40224.45
547.17	40184.66
547.34	40299.34
547.50	40545.10
547.67	40683.19
547.84	40308.71
548.00	40584.89
548.17	41076.40
548.34	40526.38
548.51	41170.02
548.67	41060.02
548.84	40884.48
549.01	40751.07
549.18	40423.39
549.34	40917.25
549.51	41165.34
549.68	41263.64
549.84	41097.47
550.01	41287.05
550.18	41064.70
550.34	41027.25
550.51	41464.93
550.68	41518.76
550.84	41209.81
551.01	41677.92
551.18	41130.23
551.34	41090.44
551.51	41212.15
551.68	41317.48
551.84	41593.66
552.01	41226.20
552.18	41493.02
552.34	41088.10
552.51	41563.23
552.68	41429.82
552.84	41308.11
553.01	41869.84
553.18	41762.18
553.34	41661.54
553.51	41600.68
553.67	41841.76
553.84	42014.96
554.01	41972.83
554.17	41706.01
554.34	42199.86
554.51	42223.26
554.67	41706.01
554.84	42036.02
555.00	42288.80
555.17	41947.08
555.33	41991.55
555.50	42169.43
555.67	42305.18
555.83	41916.65
556.00	42344.97
556.16	42588.39
556.33	42897.34
556.50	42384.76
556.66	42178.79
556.83	42241.99
556.99	42380.08
557.16	42630.52
557.32	42724.14
557.49	42607.11
557.65	42572.00
557.82	42831.80
557.98	42995.64
558.15	42967.55
558.32	42703.07
558.48	42581.37
558.65	42766.27
558.81	42799.04
558.98	43217.99
559.14	42632.86
559.31	42897.34
559.47	42925.42
559.64	43171.18
559.80	42738.18
559.97	42810.74
560.13	42864.57
560.30	42733.50
560.46	42927.77
560.63	42958.19
560.79	43196.93
560.96	43416.94
561.12	43187.56
561.29	43068.20
561.45	43395.87
561.61	43281.19
561.78	43152.46
561.94	43264.80
562.11	43255.44
562.27	43105.65
562.44	43236.72
562.60	42958.19
562.77	43255.44
562.93	43178.20
563.10	43536.30
563.26	43269.48
563.42	43648.65
563.59	43468.43
563.75	43157.14
563.92	44025.48
564.08	43400.55
564.24	44004.41
564.41	43372.47
564.57	43562.05
564.74	43665.03
564.90	43356.08
565.07	43225.01
565.23	43742.27
565.39	43110.33
565.56	43299.91
565.72	43482.47
565.88	44081.65
566.05	43435.66
566.21	43812.49
566.38	44107.40
566.54	43981.01
566.70	43672.06
566.87	44109.74
567.03	43641.63
567.19	43878.02
567.36	43859.30
567.52	43650.99
567.68	44086.33
567.85	43761.00
568.01	43880.36
568.17	43952.92
568.34	43978.67
568.50	43840.57
568.66	43768.02
568.83	43901.43
568.99	43693.12
569.15	44252.51
569.32	44116.76
569.48	43625.25
569.64	44273.57
569.81	44179.95
569.97	43768.02
570.13	44528.69
570.30	44374.22
570.46	43810.15
570.62	44240.81
570.78	44381.24
570.95	44170.59
571.11	44449.11
571.27	44025.48
571.43	44081.65
571.60	44383.58
571.76	43913.13
571.92	44940.63
572.09	44037.18
572.25	44074.63
572.41	43852.28
572.57	44215.06
572.74	44603.59
572.90	44332.09
573.06	44203.36
573.22	44154.21
573.38	44301.66
573.55	44210.38
573.71	44472.52
573.87	44491.24
574.03	44278.25
574.20	44788.49
574.36	44641.04
574.52	44863.39
574.68	44102.71
574.84	44596.57
575.01	44629.34
575.17	44432.73
575.33	44631.68
575.49	44825.94
575.65	44460.82
575.82	44369.54
575.98	44634.02
576.14	44547.42
576.30	44835.30
576.46	44399.96
576.62	43995.05
576.79	44748.70
576.95	43665.03
577.11	44231.44
577.27	44626.99
577.43	44364.85
577.59	44198.68
577.75	44252.51
577.92	44318.04
578.08	44552.10
578.24	44610.61
578.40	44685.51
578.56	44570.82
578.72	44849.35
578.88	44547.42
579.04	44498.26
579.21	44535.71
579.37	44526.35
579.53	45085.74
579.69	44641.04
579.85	44701.89
580.01	44748.70
580.17	44327.41
580.33	44786.15
580.49	44844.66
580.65	44570.82
580.82	44582.52
580.98	44313.36
581.14	44467.84
581.30	44734.66
581.46	44575.50
581.62	44584.86
581.78	44369.54
581.94	44877.43
582.10	44584.86
582.26	44795.51
582.42	44917.22
582.58	44563.80
582.74	44786.15
582.90	44849.35
583.06	44531.03
583.22	44636.36
583.38	44830.62
583.54	44795.51
583.70	44980.42
583.86	44863.39
584.02	44739.34
584.18	44851.69
584.34	44938.29
584.50	44868.07
584.66	44706.57
584.82	45057.65
584.98	44980.42
585.14	45170.00
585.30	44666.78
585.46	45092.76
585.62	44619.97
585.78	45137.23
585.94	44435.07
586.10	44847.00
586.26	44395.28
586.42	44493.58
586.58	44856.37
586.74	44624.65
586.90	45052.97
587.06	44619.97
587.22	45291.71
587.38	44779.13
587.54	45287.03
587.70	44924.24
587.86	45083.40
588.02	45263.62
588.18	44954.67
588.34	45338.52
588.49	45392.35
588.65	45315.11
588.81	45305.75
588.97	45375.97
589.13	44790.83
589.29	45064.67
589.45	45158.30
589.61	45184.04
589.77	45109.14
589.93	44989.78
590.08	45256.60
590.24	45598.32
