SpectraSuite Data File
++++++++++++++++++++++++++++++++++++
Date: Fri Oct 25 11:25:10 EDT 2013
User: price-jones
Dark Spectrum Present: No
Reference Spectrum Present: No
Number of Sampled Component Spectra: 1
Spectrometers: USB2+H05261
Integration Time (usec): 100000 (USB2+H05261)
Spectra Averaged: 1 (USB2+H05261)
Boxcar Smoothing: 0 (USB2+H05261)
Correct for Electrical Dark: No (USB2+H05261)
Strobe/Lamp Enabled: No (USB2+H05261)
Correct for Detector Non-linearity: No (USB2+H05261)
Correct for Stray Light: No (USB2+H05261)
Number of Pixels in Processed Spectrum: 2048
>>>>>Begin Processed Spectral Data<<<<<
365.73	224.69
365.92	224.69
366.12	224.69
366.32	114.69
366.52	102.98
366.72	210.65
366.91	107.66
367.11	142.77
367.31	196.60
367.51	147.45
367.70	170.86
367.90	163.84
368.10	128.73
368.30	147.45
368.49	51.49
368.69	142.77
368.89	124.05
369.09	102.98
369.28	102.98
369.48	133.41
369.68	203.63
369.87	173.20
370.07	210.65
370.27	259.80
370.47	367.46
370.66	571.09
370.86	557.05
371.06	613.22
371.25	662.37
371.45	662.37
371.65	622.58
371.84	571.09
372.04	620.24
372.24	739.61
372.44	734.93
372.63	770.04
372.83	748.97
373.03	720.88
373.22	760.67
373.42	798.12
373.62	784.08
373.81	779.40
374.01	758.33
374.21	842.59
374.40	877.70
374.60	812.17
374.79	901.11
374.99	800.46
375.19	873.02
375.38	809.83
375.58	884.72
375.78	823.87
375.97	870.68
376.17	936.21
376.37	744.29
376.56	819.19
376.76	809.83
376.95	877.70
377.15	868.34
377.35	828.55
377.54	861.32
377.74	861.32
377.93	882.38
378.13	959.62
378.33	851.96
378.52	926.85
378.72	990.05
378.91	922.17
379.11	924.51
379.31	947.92
379.50	983.02
379.70	1020.47
379.89	1004.09
380.09	917.49
380.28	1015.79
380.48	966.64
380.68	898.77
380.87	1020.47
381.07	987.71
381.26	1011.11
381.46	1027.50
381.65	1006.43
381.85	1064.94
382.04	1039.20
382.24	1013.45
382.43	959.62
382.63	1046.22
382.83	1006.43
383.02	1130.48
383.22	1083.67
383.41	1074.31
383.61	1053.24
383.80	1153.88
384.00	1116.44
384.19	1086.01
384.39	1060.26
384.58	1163.25
384.78	1146.86
384.97	1191.33
385.17	1123.46
385.36	1177.29
385.56	1207.72
385.75	1275.59
385.95	1130.48
386.14	1144.52
386.34	1165.59
386.53	1123.46
386.72	1252.19
386.92	1160.91
387.11	1235.80
387.31	1210.06
387.50	1240.48
387.70	1254.53
387.89	1350.49
388.09	1249.85
388.28	1301.34
388.48	1343.47
388.67	1329.42
388.86	1205.38
389.06	1284.95
389.25	1364.53
389.45	1310.70
389.64	1217.08
389.84	1362.19
390.03	1401.98
390.22	1369.21
390.42	1359.85
390.61	1355.17
390.81	1359.85
391.00	1434.75
391.19	1614.97
391.39	1416.02
391.58	1409.00
391.78	1425.39
391.97	1483.90
392.16	1430.07
392.36	1502.62
392.55	1589.22
392.75	1579.86
392.94	1540.07
393.13	1549.43
393.33	1549.43
393.52	1551.78
393.71	1605.61
393.91	1495.60
394.10	1556.46
394.29	1554.12
394.49	1621.99
394.68	1600.93
394.88	1699.23
395.07	1645.40
395.26	1598.59
395.46	1610.29
395.65	1724.97
395.84	1598.59
396.04	1811.57
396.23	1743.70
396.42	1689.87
396.62	1692.21
396.81	1739.02
397.00	1790.51
397.19	1839.66
397.39	1790.51
397.58	1790.51
397.77	1813.92
397.97	1905.20
398.16	1853.70
398.35	1919.24
398.55	1877.11
398.74	1877.11
398.93	1940.30
399.12	1898.17
399.32	1797.53
399.51	1884.13
399.70	2073.71
399.90	1952.01
400.09	1947.33
400.28	2097.12
400.47	2033.93
400.67	2017.54
400.86	2111.16
401.05	2003.50
401.24	1996.48
401.44	2026.90
401.63	2024.56
401.82	2134.57
402.01	2113.50
402.21	2146.27
402.40	2265.64
402.59	2249.25
402.78	2237.55
402.97	2225.85
403.17	2202.44
403.36	2211.81
403.55	2377.98
403.74	2326.49
403.93	2389.69
404.13	2349.90
404.32	2305.43
404.51	2242.23
404.70	2394.37
404.89	2335.85
405.09	2417.77
405.28	2485.65
405.47	2462.24
405.66	2450.54
405.85	2499.69
406.05	2499.69
406.24	2544.16
406.43	2511.39
406.62	2562.89
406.81	2693.96
407.00	2600.34
407.20	2506.71
407.39	2668.21
407.58	2682.25
407.77	2708.00
407.96	2726.72
408.15	2729.06
408.34	2686.94
408.54	2668.21
408.73	2850.77
408.92	2867.16
409.11	2794.60
409.30	2780.56
409.49	2881.20
409.68	2820.35
409.87	2967.80
410.07	2988.86
410.26	3070.78
410.45	2923.33
410.64	3045.04
410.83	3117.59
411.02	3014.61
411.21	3133.98
411.40	3070.78
411.59	3089.51
411.78	3171.43
411.98	3117.59
412.17	3290.79
412.36	3178.45
412.55	3353.99
412.74	3379.73
412.93	3419.52
413.12	3337.60
413.31	3496.76
413.50	3478.04
413.69	3566.98
413.88	3501.44
414.07	3599.74
414.26	3639.53
414.45	3557.61
414.64	3637.19
414.83	3634.85
415.02	3765.92
415.22	3770.60
415.41	3749.54
415.60	3775.28
415.79	3882.95
415.98	3981.25
416.17	3899.33
416.36	3871.25
416.55	3953.16
416.74	3915.72
416.93	4124.02
417.12	4093.60
417.31	4229.35
417.50	4217.65
417.69	4269.14
417.88	4194.24
418.07	4180.20
418.26	4348.72
418.45	4154.45
418.64	4381.48
418.83	4348.72
419.02	4325.31
419.21	4582.77
419.39	4404.89
419.58	4414.25
419.77	4308.93
419.96	4578.09
420.15	4512.55
420.34	4519.57
420.53	4533.62
420.72	4636.60
420.91	4557.02
421.10	4580.43
421.29	4692.77
421.48	4545.32
421.67	4606.17
421.86	4690.43
422.05	4877.68
422.24	4655.33
422.43	4739.58
422.61	4812.14
422.80	4809.80
422.99	5029.81
423.18	4835.55
423.37	4971.30
423.56	4840.23
423.75	4870.65
423.94	4734.90
424.13	4507.87
424.32	4704.48
424.50	4863.63
424.69	4971.30
424.88	5027.47
425.07	4760.65
425.26	4894.06
425.45	5109.39
425.64	4896.40
425.83	5020.45
426.01	5085.98
426.20	4968.96
426.39	5107.05
426.58	5013.43
426.77	5193.65
426.96	5067.26
427.15	4997.04
427.33	5069.60
427.52	5074.28
427.71	5036.83
427.90	5181.95
428.09	5282.59
428.28	5327.06
428.46	5366.85
428.65	5172.58
428.84	5474.51
429.03	5509.62
429.22	5245.14
429.40	5423.02
429.59	5495.58
429.78	5217.05
429.97	5188.97
430.16	5558.77
430.34	5467.49
430.53	5542.39
430.72	5640.69
430.91	5413.66
431.10	5671.12
431.28	5617.29
431.47	5818.57
431.66	5902.83
431.85	5741.33
432.03	5863.04
432.22	5844.32
432.41	5816.23
432.60	5966.03
432.79	5987.09
432.97	5980.07
433.16	5872.40
433.35	5949.64
433.54	6003.47
433.72	6090.07
433.91	6019.86
434.10	6230.51
434.28	5940.28
434.47	6188.38
434.66	6225.82
434.85	6310.08
435.03	6282.00
435.22	6303.06
435.41	6354.55
435.59	6305.40
435.78	6394.34
435.97	6546.48
436.16	6485.62
436.34	6366.26
436.53	6581.59
436.72	6661.16
436.90	6253.91
437.09	6677.55
437.28	6380.30
437.46	6443.49
437.65	6476.26
437.84	6724.36
438.02	6810.96
438.21	6715.00
438.40	6619.04
438.58	7028.63
438.77	6937.35
438.96	7082.46
439.14	7108.21
439.33	6876.49
439.52	7098.84
439.70	7016.93
439.89	7288.43
440.08	7143.32
440.26	7269.70
440.45	7204.17
440.63	7520.14
440.82	7454.61
441.01	7342.26
441.19	7545.89
441.38	7700.36
441.57	7735.47
441.75	7768.24
441.94	7880.58
442.12	7859.52
442.31	7946.12
442.50	8081.87
442.68	7873.56
442.87	7875.90
443.05	7971.86
443.24	8149.75
443.43	8131.02
443.61	8245.71
443.80	8177.83
443.98	8065.49
444.17	7903.99
444.35	8067.83
444.54	8173.15
444.73	8372.10
444.91	8318.26
445.10	8236.35
445.28	8189.53
445.47	8212.94
445.65	8264.43
445.84	8278.47
446.02	8304.22
446.21	8304.22
446.39	8362.73
446.58	8390.82
446.77	8226.98
446.95	8234.00
447.14	8430.61
447.32	8304.22
447.51	8355.71
447.69	8430.61
447.88	8306.56
448.06	8329.97
448.25	8482.10
448.43	8538.27
448.62	8432.95
448.80	8402.52
448.99	8554.66
449.17	8510.19
449.36	8734.88
449.54	8730.20
449.73	8905.74
449.91	8908.08
450.10	8788.71
450.28	8961.91
450.46	8936.17
450.65	8805.10
450.83	8975.95
451.02	8973.61
451.20	9125.75
451.39	9128.09
451.57	8994.68
451.76	9114.05
451.94	9062.55
452.13	9282.56
452.31	9249.80
452.49	9029.79
452.68	9195.96
452.86	9163.20
453.05	9341.08
453.23	9331.72
453.42	9090.64
453.60	9273.20
453.78	9493.21
453.97	9261.50
454.15	9327.03
454.34	9369.16
454.52	9511.94
454.70	9657.05
454.89	9680.46
455.07	9760.03
455.26	9743.65
455.44	9863.02
455.62	9825.57
455.81	9624.28
455.99	9930.89
456.17	10052.60
456.36	9799.82
456.54	9881.74
456.73	10284.31
456.91	10321.76
457.09	10373.25
457.28	10373.25
457.46	10284.31
457.64	10597.95
457.83	10497.30
458.01	10384.96
458.19	10586.24
458.38	10516.03
458.56	10721.99
458.74	10616.67
458.93	10532.41
459.11	10541.77
459.29	10527.73
459.48	10684.55
459.66	10721.99
459.84	10621.35
460.03	11162.01
460.21	10710.29
460.39	10862.43
460.57	10956.05
460.76	10834.34
460.94	10960.73
461.12	11164.36
461.31	11129.25
461.49	11159.67
461.67	11126.91
461.85	11222.87
462.04	11243.93
462.22	11674.59
462.40	11550.54
462.59	11332.87
462.77	11417.13
462.95	11534.16
463.13	11421.81
463.32	11351.60
463.50	11602.04
463.68	11960.14
463.86	11583.31
464.05	11620.76
464.23	11520.12
464.41	11800.98
464.59	11370.32
464.78	11964.82
464.96	11932.05
465.14	11538.84
465.32	11920.35
465.50	11957.80
465.69	11955.46
465.87	12058.44
466.05	12116.95
466.23	11983.54
466.41	11983.54
466.60	12315.90
466.78	11850.13
466.96	12332.28
467.14	12166.10
467.32	12379.09
467.51	12411.86
467.69	11925.03
467.87	12383.77
468.05	12365.05
468.23	12386.12
468.41	12510.16
468.60	12524.21
468.78	12294.83
468.96	12671.66
469.14	12526.55
469.32	12837.84
469.50	12395.48
469.69	12692.73
469.87	12910.40
470.05	12987.63
470.23	13046.15
470.41	13118.70
470.59	13324.67
470.77	13338.71
470.95	13226.37
471.14	13561.06
471.32	13186.58
471.50	13364.46
471.68	13383.18
471.86	13771.71
472.04	13488.51
472.22	13818.52
472.40	13750.65
472.58	13661.71
472.77	13937.89
472.95	13923.85
473.13	14431.74
473.31	14038.53
473.49	14157.90
473.67	14115.77
473.85	14380.25
474.03	14532.39
474.21	14331.10
474.39	14558.13
474.57	14303.01
474.75	14813.25
474.93	14829.63
475.12	14799.21
475.30	14951.34
475.48	14803.89
475.66	14857.72
475.84	15016.88
476.02	15272.00
476.20	15365.62
476.38	15550.52
476.56	15852.45
476.74	15782.23
476.92	16004.58
477.10	15517.75
477.28	15969.48
477.46	16123.95
477.64	16336.94
477.82	16414.18
478.00	17018.04
478.18	16793.34
478.36	16758.24
478.54	16886.97
478.72	17284.86
478.90	17188.89
479.08	17547.00
479.26	17352.73
479.44	17577.42
479.62	17612.53
479.80	17781.05
479.98	18106.38
480.16	18235.11
480.34	18377.89
480.52	18387.25
480.70	18384.91
480.88	18302.99
481.06	18628.32
481.24	18534.70
481.41	19068.34
481.59	18998.13
481.77	19286.01
481.95	19276.65
482.13	19576.24
482.31	19281.33
482.49	20184.78
482.67	20086.48
482.85	20142.65
483.03	20610.76
483.21	20556.93
483.39	20842.47
483.57	20720.76
483.74	21050.78
483.92	20952.48
484.10	20945.45
484.28	21696.77
484.46	21876.99
484.64	21837.20
484.82	21907.41
485.00	22141.47
485.18	22541.70
485.35	22427.01
485.53	22647.02
485.71	22920.87
485.89	23260.24
486.07	23096.41
486.25	23131.51
486.43	23477.91
486.61	23625.37
486.78	23747.08
486.96	23964.75
487.14	24252.63
487.32	24301.78
487.50	24664.57
487.68	24725.42
487.85	25277.79
488.03	24994.58
488.21	25853.56
488.39	25443.96
488.57	26068.89
488.75	25614.82
488.92	26141.44
489.10	26354.43
489.28	26389.54
489.46	26761.69
489.64	27103.40
489.81	27398.31
489.99	27325.75
490.17	27529.38
490.35	27873.44
490.53	27938.97
490.70	28100.47
490.88	27901.53
491.06	28823.70
491.24	28257.29
491.41	29062.43
491.59	28886.89
491.77	29195.84
491.95	29242.65
492.13	29387.77
492.30	29717.78
492.48	29441.60
492.66	29937.79
492.84	30279.51
493.01	30326.32
493.19	30326.32
493.37	30459.73
493.54	30998.06
493.72	31302.32
493.90	31253.17
494.08	31519.99
494.25	31782.13
494.43	31449.78
494.61	32004.49
494.79	32290.03
494.96	32280.67
495.14	32407.06
495.32	32837.72
495.49	32779.20
495.67	33415.83
495.85	33392.42
496.02	33338.59
496.20	33806.70
496.38	33607.75
496.55	33769.25
496.73	34593.12
496.91	34485.45
497.09	34380.13
497.26	34429.28
497.44	34405.88
497.62	34955.90
497.79	35428.69
497.97	35030.80
498.14	35208.68
498.32	35786.79
498.50	35700.19
498.67	36273.62
498.85	35913.18
499.03	36180.00
499.20	36219.79
499.38	36460.87
499.56	36961.74
499.73	36973.44
499.91	36950.04
500.08	37535.17
500.26	37038.98
500.44	37469.64
500.61	37551.56
500.79	37216.86
500.97	37359.63
501.14	38082.86
501.32	38450.32
501.49	38143.71
501.67	38218.61
501.84	38829.49
502.02	38345.00
502.20	38719.48
502.37	38679.69
502.55	39110.35
502.72	39423.98
502.90	39189.93
503.07	39337.38
503.25	39599.52
503.43	39325.68
503.60	39828.90
503.78	40126.14
503.95	39964.65
504.13	40301.68
504.30	40432.75
504.48	40095.72
504.65	39966.99
504.83	40563.82
505.01	40458.50
505.18	40933.63
505.36	40800.22
505.53	41024.91
505.71	41357.27
505.88	41373.65
506.06	41186.41
506.23	41619.41
506.41	41425.14
506.58	42068.79
506.76	42036.02
506.93	41876.86
507.11	41874.52
507.28	42108.58
507.46	42031.34
507.63	42625.84
507.81	42892.66
507.98	42628.18
508.16	42815.42
508.33	43522.26
508.50	43152.46
508.68	43601.84
508.85	43615.88
509.03	43370.13
509.20	44013.77
509.38	44126.12
509.55	44247.83
509.73	43847.60
509.90	43922.49
510.08	44217.40
510.25	44130.80
510.42	44779.13
510.60	44472.52
510.77	44968.71
510.95	44917.22
511.12	45052.97
511.30	44839.98
511.47	45017.86
511.64	44942.97
511.82	45682.58
511.99	45064.67
512.17	45413.41
512.34	45446.18
512.51	46075.79
512.69	45708.32
512.86	46181.11
513.04	46220.90
513.21	45928.33
513.38	46089.83
513.56	46859.87
513.73	45890.88
513.90	46930.08
514.08	46677.30
514.25	46806.03
514.43	47150.09
514.60	46981.57
514.77	46955.83
514.95	47555.00
515.12	46909.02
515.29	47428.62
515.47	47695.44
515.64	47395.85
515.81	47384.15
515.99	47845.23
516.16	48467.81
516.33	47826.51
516.51	48186.95
516.68	47908.43
516.85	48226.74
517.03	48278.23
517.20	48521.65
517.37	48523.99
517.54	48474.84
517.72	48722.93
517.89	49195.72
518.06	48741.66
518.24	48507.60
518.41	48364.83
518.58	49165.29
518.75	48809.53
518.93	48994.43
519.10	49139.55
519.27	49200.40
519.45	49429.77
519.62	49441.48
519.79	49521.05
519.96	49759.79
520.14	49947.03
520.31	49544.46
520.48	50223.22
520.65	50082.78
520.83	50473.65
521.00	50667.92
521.17	50035.97
521.34	50595.36
521.52	50000.86
521.69	50597.70
521.86	50550.89
522.03	50646.85
522.20	50869.20
522.38	50899.63
522.55	51145.39
522.72	50932.40
522.89	50808.35
523.07	51381.78
523.24	51154.75
523.41	51571.36
523.58	51152.41
523.75	51576.04
523.92	51461.36
524.10	51700.09
524.27	51784.35
524.44	51873.29
524.61	51716.48
524.78	51948.19
524.96	51803.08
525.13	52090.96
525.30	52432.68
525.47	52151.82
525.64	52079.26
525.81	52186.92
525.98	52397.57
526.16	52156.50
526.33	52453.75
526.50	52612.90
526.67	52381.19
526.84	52666.73
527.01	52243.10
527.18	52530.98
527.36	52474.81
527.53	52825.89
527.70	52928.87
527.87	53015.47
528.04	52945.26
528.21	53331.45
528.38	53127.82
528.55	53324.43
528.72	53109.10
528.89	53127.82
529.07	52877.38
529.24	53010.79
529.41	53324.43
529.58	53242.51
529.75	53495.28
529.92	53776.15
530.09	53588.91
530.26	53818.28
530.43	53680.19
530.60	53624.01
530.77	53560.82
530.94	53827.64
531.11	53853.39
531.28	53916.58
531.46	53947.01
531.63	54068.72
531.80	54014.88
531.97	54145.95
532.14	54113.19
532.31	54239.57
532.48	54314.47
532.65	54316.81
532.82	54169.36
532.99	54394.05
533.16	54162.34
533.33	54653.85
533.50	54801.30
533.67	54660.87
533.84	54635.13
534.01	54759.17
534.18	54574.27
534.35	55260.05
534.52	54864.50
534.69	54733.43
534.86	54920.67
535.03	54578.95
535.20	54948.76
535.37	55304.52
535.54	54967.48
535.71	55098.55
535.88	55238.98
536.05	55107.91
536.22	55550.27
536.38	55154.72
536.55	55208.56
536.72	55173.45
536.89	55302.18
537.06	55271.75
537.23	55707.09
537.40	55346.65
537.57	55414.52
537.74	55714.11
537.91	55756.24
538.08	55728.16
538.25	55365.37
538.42	55868.59
538.59	56107.32
538.75	55538.57
538.92	55800.71
539.09	56051.15
539.26	55700.07
539.43	55632.19
539.60	56095.62
539.77	55812.41
539.94	56217.33
540.11	56076.90
540.28	56116.68
540.44	56222.01
540.61	56268.82
540.78	56236.05
540.95	56114.34
541.12	55985.61
541.29	56062.85
541.46	56329.67
541.62	56083.92
541.79	56439.68
541.96	56332.01
542.13	56186.90
542.30	56294.56
542.47	56676.07
542.63	56549.68
542.80	56601.18
542.97	56722.88
543.14	56893.74
543.31	56844.59
543.48	57090.35
543.64	57298.65
543.81	57104.39
543.98	57083.33
544.15	57015.45
544.32	57176.95
544.48	57373.55
544.65	57293.97
544.82	57055.24
544.99	56755.65
545.16	57375.89
545.32	57132.48
545.49	57403.98
545.66	57530.37
545.83	57406.32
546.00	57439.09
546.16	57371.21
546.33	57413.34
546.50	57176.95
546.67	57518.67
546.83	57359.51
547.00	57626.33
547.17	57574.84
547.34	57631.01
547.50	57909.53
547.67	57879.11
547.84	57879.11
548.00	57822.93
548.17	57937.62
548.34	57951.66
548.51	57907.19
548.67	57874.43
548.84	57836.98
549.01	58064.01
549.18	57944.64
549.34	57993.79
549.51	58099.12
549.68	58094.44
549.84	58110.82
550.01	58281.68
550.18	57848.68
550.34	58113.16
550.51	58253.59
550.68	58038.26
550.84	57961.03
551.01	58302.74
551.18	58298.06
551.34	58141.25
551.51	58387.00
551.68	58443.18
551.84	58300.40
552.01	58110.82
552.18	58569.57
552.34	58508.71
552.51	58532.12
552.68	58239.55
552.84	58354.24
553.01	58796.60
553.18	58417.43
553.34	58822.34
553.51	58431.47
553.67	58789.58
553.84	58691.27
554.01	58705.32
554.17	58890.22
554.34	58766.17
554.51	58679.57
554.67	58710.00
554.84	58815.32
555.00	58810.64
555.17	58803.62
555.33	58822.34
555.50	58777.87
555.67	58695.95
555.83	58688.93
556.00	58728.72
556.16	59360.67
556.33	58983.84
556.50	59124.27
556.66	59269.39
556.83	59058.74
556.99	59276.41
557.16	59381.73
557.32	59400.46
557.49	59538.55
557.65	59171.08
557.82	58986.18
557.98	59302.15
558.15	59217.89
558.32	59100.87
558.48	59248.32
558.65	59180.45
558.81	59433.22
558.98	59554.93
559.14	59391.09
559.31	59391.09
559.47	59629.83
559.64	59540.89
559.80	59405.14
559.97	59470.67
560.13	59262.36
560.30	59533.87
560.46	59571.32
560.63	59547.91
560.79	59395.77
560.96	59833.46
561.12	59746.86
561.29	59613.44
561.45	59629.83
561.61	59615.79
561.78	59646.21
561.94	59622.81
562.11	59550.25
562.27	59522.16
562.44	59917.71
562.60	59840.48
562.77	59676.64
562.93	59384.07
563.10	59941.12
563.26	59477.69
563.42	59985.59
563.59	59854.52
563.75	59767.92
563.92	59777.28
564.08	59793.67
564.24	59943.46
564.41	59901.33
564.57	59955.16
564.74	59913.03
564.90	60023.04
565.07	60030.06
565.23	60001.97
565.39	59763.24
565.56	60062.83
565.72	59880.27
565.88	59887.29
566.05	59854.52
566.21	59955.16
566.38	60020.70
566.54	60032.40
566.70	60051.12
566.87	60130.70
567.03	59863.88
567.19	60411.57
567.36	60076.87
567.52	60123.68
567.68	60193.90
567.85	60165.81
568.01	60257.09
568.17	60060.49
568.34	60266.45
568.50	60203.26
568.66	60037.08
568.83	60217.30
568.99	60001.97
569.15	60331.99
569.32	60238.37
569.48	60261.77
569.64	60275.82
569.81	60327.31
569.97	60247.73
570.13	60320.29
570.30	60116.66
570.46	60261.77
570.62	60245.39
570.78	60350.71
570.95	60310.92
571.11	60441.99
571.27	60261.77
571.43	60362.42
571.60	60322.63
571.76	60341.35
571.92	60355.39
572.09	60395.18
572.25	60488.80
572.41	60285.18
572.57	60343.69
572.74	60591.79
572.90	60254.75
573.06	60355.39
573.22	60481.78
573.38	60643.28
573.55	60451.36
573.71	60736.90
573.87	60486.46
574.03	60395.18
574.20	60498.17
574.36	60591.79
574.52	60425.61
574.68	60676.05
574.84	60692.43
575.01	60502.85
575.17	60369.44
575.33	60547.32
575.49	60285.18
575.65	60591.79
575.82	60657.32
575.98	60755.63
576.14	60774.35
576.30	60549.66
576.46	60453.70
576.62	60748.60
576.79	60605.83
576.95	60437.31
577.11	60486.46
577.27	60741.58
577.43	60657.32
577.59	60542.64
577.75	60690.09
577.92	60418.59
578.08	60610.51
578.24	60629.24
578.40	60694.77
578.56	60764.99
578.72	60643.28
578.88	60706.47
579.04	61034.15
579.21	60594.13
579.37	60795.42
579.53	60917.12
579.69	60467.74
579.85	60690.09
580.01	60706.47
580.17	60554.34
580.33	60893.72
580.49	60755.63
580.65	60718.18
580.82	60694.77
580.98	60795.42
581.14	60624.56
581.30	60921.80
581.46	60638.60
581.62	60788.39
581.78	60484.12
581.94	60774.35
582.10	60662.00
582.26	60779.03
582.42	60741.58
582.58	60626.90
582.74	60795.42
582.90	60596.47
583.06	60640.94
583.22	60680.73
583.38	60762.65
583.54	60544.98
583.70	60722.86
583.86	60802.44
584.02	60776.69
584.18	60746.26
584.34	60739.24
584.50	60767.33
584.66	60739.24
584.82	60739.24
584.98	60874.99
585.14	60874.99
585.30	60779.03
585.46	60992.02
585.62	60809.46
585.78	60898.40
585.94	60755.63
586.10	60882.02
586.26	60893.72
586.42	60837.54
586.58	60753.29
586.74	60832.86
586.90	60603.49
587.06	61029.47
587.22	60884.36
587.38	60772.01
587.54	61244.80
587.70	61066.92
587.86	60743.92
588.02	60994.36
588.18	60959.25
588.34	60781.37
588.49	60828.18
