SpectraSuite Data File
++++++++++++++++++++++++++++++++++++
Date: Fri Oct 25 11:26:15 EDT 2013
User: price-jones
Dark Spectrum Present: No
Reference Spectrum Present: No
Number of Sampled Component Spectra: 1
Spectrometers: USB2+H05261
Integration Time (usec): 100000 (USB2+H05261)
Spectra Averaged: 1 (USB2+H05261)
Boxcar Smoothing: 0 (USB2+H05261)
Correct for Electrical Dark: No (USB2+H05261)
Strobe/Lamp Enabled: No (USB2+H05261)
Correct for Detector Non-linearity: No (USB2+H05261)
Correct for Stray Light: No (USB2+H05261)
Number of Pixels in Processed Spectrum: 2048
>>>>>Begin Processed Spectral Data<<<<<
365.73	180.22
365.92	180.22
366.12	180.22
366.32	110.01
366.52	102.98
366.72	135.75
366.91	152.13
367.11	166.18
367.31	105.32
367.51	70.22
367.70	142.77
367.90	126.39
368.10	110.01
368.30	124.05
368.49	135.75
368.69	224.69
368.89	194.26
369.09	196.60
369.28	152.13
369.48	173.20
369.68	241.08
369.87	255.12
370.07	173.20
370.27	285.55
370.47	313.63
370.66	681.10
370.86	657.69
371.06	622.58
371.25	674.07
371.45	683.44
371.65	643.65
371.84	688.12
372.04	695.14
372.24	624.92
372.44	711.52
372.63	753.65
372.83	788.76
373.03	751.31
373.22	777.06
373.42	837.91
373.62	767.70
373.81	791.10
374.01	833.23
374.21	753.65
374.40	723.23
374.60	791.10
374.79	842.59
374.99	807.48
375.19	873.02
375.38	779.40
375.58	826.21
375.78	910.47
375.97	858.98
376.17	926.85
376.37	882.38
376.56	856.64
376.76	882.38
376.95	912.81
377.15	905.79
377.35	938.55
377.54	861.32
377.74	866.00
377.93	947.92
378.13	973.66
378.33	947.92
378.52	917.49
378.72	863.66
378.91	980.68
379.11	957.28
379.31	851.96
379.50	919.83
379.70	985.37
379.89	931.53
380.09	966.64
380.28	987.71
380.48	992.39
380.68	936.21
380.87	994.73
381.07	980.68
381.26	961.96
381.46	1050.90
381.65	1076.65
381.85	997.07
382.04	1032.18
382.24	1111.75
382.43	1081.33
382.63	1022.81
382.83	1107.07
383.02	1039.20
383.22	1184.31
383.41	1114.10
383.61	1107.07
383.80	1076.65
384.00	1107.07
384.19	1207.72
384.39	1158.57
384.58	1128.14
384.78	1128.14
384.97	1107.07
385.17	1123.46
385.36	1200.69
385.56	1205.38
385.75	1221.76
385.95	1144.52
386.14	1200.69
386.34	1212.40
386.53	1221.76
386.72	1327.08
386.92	1210.06
387.11	1338.79
387.31	1343.47
387.50	1284.95
387.70	1233.46
387.89	1308.36
388.09	1263.89
388.28	1235.80
388.48	1350.49
388.67	1350.49
388.86	1336.45
389.06	1277.93
389.25	1336.45
389.45	1474.54
389.64	1256.87
389.84	1380.92
390.03	1383.26
390.22	1263.89
390.42	1355.17
390.61	1371.55
390.81	1437.09
391.00	1441.77
391.19	1413.68
391.39	1502.62
391.58	1406.66
391.78	1469.86
391.97	1481.56
392.16	1565.82
392.36	1554.12
392.55	1570.50
392.75	1528.37
392.94	1472.20
393.13	1511.99
393.33	1437.09
393.52	1521.35
393.71	1476.88
393.91	1500.28
394.10	1575.18
394.29	1584.54
394.49	1614.97
394.68	1614.97
394.88	1661.78
395.07	1612.63
395.26	1610.29
395.46	1671.14
395.65	1715.61
395.84	1668.80
396.04	1806.89
396.23	1708.59
396.42	1785.83
396.62	1774.13
396.81	1675.82
397.00	1724.97
397.19	1760.08
397.39	1739.02
397.58	1825.62
397.77	1860.73
397.97	1860.73
398.16	1895.83
398.35	1853.70
398.55	1884.13
398.74	1830.30
398.93	1923.92
399.12	1818.60
399.32	1996.48
399.51	1919.24
399.70	1905.20
399.90	1921.58
400.09	1916.90
400.28	2029.24
400.47	2003.50
400.67	2122.87
400.86	2108.82
401.05	2036.27
401.24	2099.46
401.44	2139.25
401.63	2169.68
401.82	2153.29
402.01	2165.00
402.21	2209.47
402.40	2157.97
402.59	2242.23
402.78	2076.06
402.97	2195.42
403.17	2335.85
403.36	2139.25
403.55	2202.44
403.74	2312.45
403.93	2385.01
404.13	2340.54
404.32	2338.20
404.51	2450.54
404.70	2483.31
404.89	2377.98
405.09	2434.16
405.28	2377.98
405.47	2495.01
405.66	2424.80
405.85	2513.74
406.05	2544.16
406.24	2623.74
406.43	2553.52
406.62	2691.62
406.81	2696.30
407.00	2684.59
407.20	2684.59
407.39	2686.94
407.58	2754.81
407.77	2775.88
407.96	2715.02
408.15	2815.66
408.34	2637.78
408.54	2780.56
408.73	2778.22
408.92	2822.69
409.11	2857.79
409.30	2951.42
409.49	2862.48
409.68	2995.89
409.87	2923.33
410.07	3021.63
410.26	2906.95
410.45	3016.95
410.64	3077.80
410.83	3019.29
411.02	3096.53
411.21	3262.71
411.40	3150.36
411.59	3173.77
411.78	3110.57
411.98	3293.13
412.17	3267.39
412.36	3283.77
412.55	3304.84
412.74	3435.91
412.93	3370.37
413.12	3433.57
413.31	3393.78
413.50	3541.23
413.69	3466.33
413.88	3588.04
414.07	3630.17
414.26	3527.19
414.45	3679.32
414.64	3623.15
414.83	3801.03
415.02	3709.75
415.22	3784.65
415.41	3791.67
415.60	3763.58
415.79	3941.46
415.98	3929.76
416.17	4032.74
416.36	4004.66
416.55	3920.40
416.74	3915.72
416.93	3843.16
417.12	3887.63
417.31	4156.79
417.50	4161.47
417.69	4322.97
417.88	4210.62
418.07	4269.14
418.26	4105.30
418.45	4292.54
418.64	4486.81
418.83	4442.34
419.02	4404.89
419.21	4500.85
419.39	4510.21
419.58	4440.00
419.77	4334.67
419.96	4465.74
420.15	4512.55
420.34	4641.28
420.53	4547.66
420.72	4702.14
420.91	4606.17
421.10	4739.58
421.29	4828.53
421.48	4737.24
421.67	4795.76
421.86	4730.22
422.05	4652.98
422.24	4767.67
422.43	4819.16
422.61	4770.01
422.80	4830.87
422.99	4870.65
423.18	4844.91
423.37	4891.72
423.56	4922.15
423.75	4837.89
423.94	4833.21
424.13	4596.81
424.32	4711.50
424.50	4880.02
424.69	4992.36
424.88	5036.83
425.07	4961.94
425.26	4856.61
425.45	4894.06
425.64	4884.70
425.83	5015.77
426.01	4997.04
426.20	4983.00
426.39	5055.56
426.58	5128.11
426.77	5043.85
426.96	5001.72
427.15	5050.88
427.33	5097.69
427.52	5001.72
427.71	5195.99
427.90	5109.39
428.09	5301.31
428.28	5177.26
428.46	5181.95
428.65	5329.40
428.84	5338.76
429.03	5408.98
429.22	5242.80
429.40	5462.81
429.59	5542.39
429.78	5247.48
429.97	5268.55
430.16	5563.45
430.34	5371.53
430.53	5593.88
430.72	5612.60
430.91	5633.67
431.10	5488.56
431.28	5661.76
431.47	5893.47
431.66	5930.92
431.85	5717.93
432.03	5844.32
432.22	6008.16
432.41	5919.21
432.60	5884.11
432.79	5823.25
432.97	6120.50
433.16	5994.11
433.35	5757.72
433.54	6186.04
433.72	6141.57
433.91	6033.90
434.10	6113.48
434.28	6043.26
434.47	6148.59
434.66	6317.11
434.85	6359.24
435.03	6455.20
435.22	6228.17
435.41	6499.67
435.59	6387.32
435.78	6340.51
435.97	6310.08
436.16	6359.24
436.34	6443.49
436.53	6518.39
436.72	6672.87
436.90	6513.71
437.09	6597.97
437.28	6457.54
437.46	6616.69
437.65	6705.63
437.84	6658.82
438.02	6707.98
438.21	6722.02
438.40	6806.28
438.58	6864.79
438.77	7101.19
438.96	6935.01
439.14	7220.55
439.33	6967.77
439.52	7126.93
439.70	7218.21
439.89	7318.86
440.08	7353.96
440.26	7316.51
440.45	7447.58
440.63	7391.41
440.82	7520.14
441.01	7606.74
441.19	7559.93
441.38	7536.52
441.57	7754.19
441.75	7763.56
441.94	8037.40
442.12	7784.62
442.31	8049.10
442.50	8091.23
442.68	7903.99
442.87	7796.32
443.05	7948.46
443.24	8320.60
443.43	8217.62
443.61	8201.24
443.80	8493.80
443.98	7936.76
444.17	7672.28
444.35	8210.60
444.54	8201.24
444.73	8428.27
444.91	8505.51
445.10	8306.56
445.28	8306.56
445.47	8124.00
445.65	8416.57
445.84	8379.12
446.02	8507.85
446.21	8299.54
446.39	8301.88
446.58	8470.40
446.77	8538.27
446.95	8285.50
447.14	8334.65
447.32	8622.53
447.51	8517.21
447.69	8463.38
447.88	8540.61
448.06	8449.33
448.25	8484.44
448.43	8599.13
448.62	8629.56
448.80	8601.47
448.99	8582.74
449.17	8599.13
449.36	8594.45
449.54	8835.52
449.73	8943.19
449.91	9046.17
450.10	8737.22
450.28	8954.89
450.46	9139.79
450.65	8868.29
450.83	9025.11
451.02	8910.42
451.20	9219.37
451.39	9125.75
451.57	8929.14
451.76	9006.38
451.94	9137.45
452.13	9572.79
452.31	9376.19
452.49	9027.45
452.68	9341.08
452.86	9315.33
453.05	9404.27
453.23	9556.41
453.42	9469.81
453.60	9289.59
453.78	9713.22
453.97	9575.13
454.15	9547.05
454.34	9467.47
454.52	9720.24
454.70	9633.64
454.89	9460.45
455.07	9973.02
455.26	9923.87
455.44	9991.75
455.62	9825.57
455.81	9853.66
455.99	10078.35
456.17	10136.86
456.36	10064.30
456.54	10108.77
456.73	9987.07
456.91	10298.36
457.09	10303.04
457.28	10429.43
457.46	10186.01
457.64	10244.52
457.83	10291.34
458.01	10595.61
458.19	10714.97
458.38	10736.04
458.56	10588.58
458.74	10593.26
458.93	10363.89
459.11	10644.76
459.29	10712.63
459.48	10705.61
459.66	10682.20
459.84	10853.06
460.03	11000.52
460.21	10951.37
460.39	11000.52
460.57	11094.14
460.76	11049.67
460.94	11302.45
461.12	11176.06
461.31	11229.89
461.49	11225.21
461.67	11056.69
461.85	11447.56
462.04	11351.60
462.22	11545.86
462.40	11494.37
462.59	11506.07
462.77	11501.39
462.95	11405.43
463.13	11552.88
463.32	11506.07
463.50	11810.34
463.68	11943.75
463.86	11770.55
464.05	11496.71
464.23	11702.68
464.41	11845.45
464.59	11580.97
464.78	11983.54
464.96	11969.50
465.14	11852.47
465.32	12327.60
465.50	12128.66
465.69	11955.46
465.87	12028.01
466.05	11899.28
466.23	12161.42
466.41	12175.47
466.60	12358.03
466.78	12252.70
466.96	12177.81
467.14	12116.95
467.32	12397.82
467.51	12376.75
467.69	12107.59
467.87	12393.14
468.05	12587.40
468.23	12313.56
468.41	12241.00
468.60	12669.32
468.78	12535.91
468.96	12285.47
469.14	12718.47
469.32	12657.62
469.50	12631.87
469.69	12901.03
469.87	12971.25
470.05	13118.70
470.23	13043.81
470.41	12947.84
470.59	13301.26
470.77	13043.81
470.95	13158.49
471.14	13696.82
471.32	13387.86
471.50	13710.86
471.68	13544.68
471.86	13687.45
472.04	13645.32
472.22	13722.56
472.40	13720.22
472.58	13755.33
472.77	14068.96
472.95	13912.14
473.13	14462.17
473.31	14106.41
473.49	13965.98
473.67	14115.77
473.85	14200.03
474.03	14567.49
474.21	14630.69
474.39	14508.98
474.57	14626.01
474.75	14647.07
474.93	15073.05
475.12	14888.15
475.30	15112.84
475.48	14977.09
475.66	15332.85
475.84	15009.86
476.02	15407.75
476.20	15393.70
476.38	15489.67
476.56	15913.30
476.74	15796.28
476.92	15484.98
477.10	15716.70
477.28	16053.73
477.46	15946.07
477.64	16262.04
477.82	16678.66
478.00	16718.45
478.18	16908.03
478.36	17060.16
478.54	16961.86
478.72	16844.84
478.90	17476.78
479.08	17645.30
479.26	17509.55
479.44	17678.07
479.62	17846.58
479.80	18120.43
479.98	18345.12
480.16	18616.62
480.34	18115.75
480.52	18548.75
480.70	18326.39
480.88	18155.54
481.06	18752.37
481.24	18712.58
481.41	19030.90
481.59	19037.92
481.77	19592.62
481.95	19477.94
482.13	19571.56
482.31	19503.68
482.49	20081.80
482.67	20023.28
482.85	20460.96
483.03	20428.20
483.21	20823.75
483.39	20940.77
483.57	20592.03
483.74	20690.34
483.92	21256.75
484.10	21118.65
484.28	22022.10
484.46	21664.00
484.64	22066.57
484.82	22129.77
485.00	22064.23
485.18	22551.06
485.35	23026.19
485.53	22785.12
485.71	22862.35
485.89	23573.88
486.07	23260.24
486.25	23332.80
486.43	23494.30
486.61	23749.42
486.78	24046.66
486.96	24084.11
487.14	24669.25
487.32	24327.53
487.50	24730.10
487.68	25069.48
487.85	25130.33
488.03	25362.04
488.21	25912.07
488.39	25589.08
488.57	25839.51
488.75	26008.03
488.92	26108.68
489.10	26497.20
489.28	26625.93
489.46	26757.00
489.64	26785.09
489.81	27503.64
489.99	27627.68
490.17	27517.68
490.35	28416.44
490.53	28245.58
490.70	27917.91
490.88	28517.09
491.06	28999.24
491.24	28898.59
491.41	28823.70
491.59	29111.58
491.77	29046.05
491.95	29497.77
492.13	29397.13
492.30	29912.05
492.48	29841.83
492.66	29710.76
492.84	30483.14
493.01	30511.22
493.19	30543.99
493.37	30831.88
493.54	30866.98
493.72	31372.54
493.90	31204.02
494.08	31889.80
494.25	31627.66
494.43	31512.97
494.61	32175.34
494.79	32580.26
494.96	32011.51
495.14	32872.82
495.32	33071.77
495.49	32657.49
495.67	33394.76
495.85	33001.55
496.02	33577.33
496.20	33752.87
496.38	34178.84
496.55	34068.84
496.73	34202.25
496.91	34141.39
497.09	34644.61
497.26	34721.85
497.44	34663.33
497.62	34944.20
497.79	35461.46
497.97	35173.57
498.14	35613.59
498.32	35798.49
498.50	36208.09
498.67	36627.04
498.85	36070.00
499.03	36472.57
499.20	36748.75
499.38	36786.20
499.56	36807.26
499.73	37163.03
499.91	36708.96
500.08	37488.36
500.26	37184.09
500.44	37617.09
500.61	37497.72
500.79	37837.10
500.97	37900.29
501.14	38630.54
501.32	38417.55
501.49	38202.22
501.67	38536.92
501.84	38682.03
502.02	38768.63
502.20	38845.87
502.37	38829.49
502.55	39145.46
502.72	39278.87
502.90	39395.90
503.07	39395.90
503.25	39349.09
503.43	39564.42
503.60	40219.77
503.78	40041.88
503.95	40268.92
504.13	40240.83
504.30	40416.37
504.48	40133.17
504.65	40680.85
504.83	40439.78
505.01	41127.89
505.18	41221.52
505.36	41343.22
505.53	40844.69
505.71	41235.56
505.88	41776.22
506.06	41123.21
506.23	41748.14
506.41	41858.14
506.58	41752.82
506.76	41792.61
506.93	42548.60
507.11	42387.10
507.28	42469.02
507.46	42380.08
507.63	42740.52
507.81	43292.89
507.98	43096.28
508.16	43035.43
508.33	43342.04
508.50	43370.13
508.68	43452.05
508.85	43386.51
509.03	43557.37
509.20	43695.46
509.38	44556.78
509.55	44140.16
509.73	43959.94
509.90	44414.01
510.08	43861.64
510.25	44477.20
510.42	44739.34
510.60	44905.52
510.77	45001.48
510.95	44830.62
511.12	45425.12
511.30	44964.03
511.47	44884.45
511.64	45326.81
511.82	46005.57
511.99	45485.97
512.17	45652.15
512.34	45397.03
512.51	46026.63
512.69	46110.89
512.86	46260.69
513.04	46618.79
513.21	46492.40
513.38	46408.14
513.56	46937.10
513.73	46426.87
513.90	47044.77
514.08	46623.47
514.25	47051.79
514.43	47379.46
514.60	47398.19
514.77	46880.93
514.95	47697.78
515.12	47489.47
515.29	47800.76
515.47	47779.70
515.64	47859.27
515.81	47302.23
515.99	47903.74
516.16	48196.31
516.33	48243.12
516.51	48233.76
516.68	48294.61
516.85	48444.41
517.03	48975.71
517.20	48718.25
517.37	48566.12
517.54	48765.06
517.72	48594.20
517.89	48889.11
518.06	49013.16
518.24	48938.26
518.41	48893.79
518.58	49277.64
518.75	49368.92
518.93	49401.69
519.10	49242.53
519.27	49507.01
519.45	49605.31
519.62	49748.09
519.79	49696.59
519.96	49825.32
520.14	49705.96
520.31	49647.44
520.48	50007.89
520.65	50417.48
520.83	50513.44
521.00	50396.42
521.17	50356.63
521.34	50382.37
521.52	50857.50
521.69	50721.75
521.86	51166.45
522.03	50703.03
522.20	50934.74
522.38	51236.67
522.55	50714.73
522.72	51187.52
522.89	51147.73
523.07	51562.00
523.24	51456.68
523.41	51341.99
523.58	51440.29
523.75	51798.40
523.92	51365.40
524.10	51461.36
524.27	51547.96
524.44	52023.09
524.61	52317.99
524.78	51849.89
524.96	52072.24
525.13	52140.11
525.30	51929.47
525.47	52189.27
525.64	52257.14
525.81	52566.09
525.98	52580.13
526.16	52453.75
526.33	52280.55
526.50	52664.39
526.67	52615.24
526.84	52807.17
527.01	52699.50
527.18	52549.71
527.36	52697.16
527.53	52701.84
527.70	53155.91
527.87	53223.78
528.04	52942.92
528.21	53357.19
528.38	53127.82
528.55	53502.31
528.72	53408.68
528.89	53418.05
529.07	53235.48
529.24	53319.74
529.41	53654.44
529.58	53640.40
529.75	53244.85
529.92	53902.54
530.09	53834.66
530.26	53684.87
530.43	53670.82
530.60	53729.34
530.77	53684.87
530.94	53956.37
531.11	53879.13
531.28	53984.46
531.46	54195.10
531.63	54188.08
531.80	53986.80
531.97	54262.98
532.14	54618.74
532.31	54391.71
532.48	54302.77
532.65	54436.18
532.82	54351.92
532.99	54593.00
533.16	54440.86
533.33	54672.57
533.50	54735.77
533.67	54705.34
533.84	54564.91
534.01	54691.30
534.18	54920.67
534.35	55035.36
534.52	55023.65
534.69	55023.65
534.86	55276.43
535.03	54983.86
535.20	54878.54
535.37	54993.23
535.54	55185.15
535.71	55143.02
535.88	55393.46
536.05	55257.71
536.22	55386.44
536.38	55491.76
536.55	55437.93
536.72	55503.46
536.89	55203.88
537.06	55412.18
537.23	55519.85
537.40	55557.30
537.57	55512.83
537.74	55681.34
537.91	55896.67
538.08	55847.52
538.25	55466.02
538.42	55695.39
538.59	55973.91
538.75	55882.63
538.92	56205.62
539.09	56041.79
539.26	55966.89
539.43	56074.55
539.60	56107.32
539.77	56259.46
539.94	56126.05
540.11	56147.11
540.28	56182.22
540.44	56404.57
540.61	56392.87
540.78	56231.37
540.95	56413.93
541.12	56374.14
541.29	56329.67
541.46	56303.93
541.62	56505.21
541.79	56535.64
541.96	56133.07
542.13	56470.11
542.30	56722.88
542.47	56814.16
542.63	56842.25
542.80	56914.81
542.97	56966.30
543.14	57022.47
543.31	57034.17
543.48	57237.80
543.64	57322.06
543.81	57389.94
543.98	57176.95
544.15	56989.70
544.32	57389.94
544.48	57415.68
544.65	57249.50
544.82	57261.21
544.99	57109.07
545.16	57174.61
545.32	57162.90
545.49	57647.39
545.66	57689.52
545.83	57492.92
546.00	57570.16
546.16	57539.73
546.33	57160.56
546.50	57389.94
546.67	57755.06
546.83	57301.00
547.00	57738.68
547.17	57605.26
547.34	57495.26
547.50	57769.10
547.67	58127.20
547.84	57691.86
548.00	58052.31
548.17	58099.12
548.34	58143.59
548.51	58061.67
548.67	58162.31
548.84	57909.53
549.01	58064.01
549.18	58021.88
549.34	58089.76
549.51	58080.39
549.68	58305.09
549.84	58148.27
550.01	58007.84
550.18	58131.89
550.34	58471.26
550.51	58286.36
550.68	58211.46
550.84	58064.01
551.01	58431.47
551.18	58248.91
551.34	58475.94
551.51	58403.39
551.68	58728.72
551.84	58316.79
552.01	58253.59
552.18	58597.65
552.34	58323.81
552.51	58562.54
552.68	58314.45
552.84	58464.24
553.01	58876.18
553.18	58543.82
553.34	58841.07
553.51	58791.92
553.67	58681.91
553.84	58997.88
554.01	58834.05
554.17	58880.86
554.34	59168.74
554.51	58939.37
554.67	58983.84
554.84	58913.62
555.00	58897.24
555.17	58897.24
555.33	59014.27
555.50	58801.28
555.67	58829.37
555.83	58920.65
556.00	59189.81
556.16	59264.70
556.33	59161.72
556.50	58913.62
556.66	59086.82
556.83	58997.88
556.99	59360.67
557.16	59292.79
557.32	59463.65
557.49	59573.66
557.65	59250.66
557.82	59224.92
557.98	59255.34
558.15	59283.43
558.32	59339.60
558.48	59295.13
558.65	59334.92
558.81	59482.37
558.98	59463.65
559.14	59297.47
559.31	59573.66
559.47	59613.44
559.64	59442.59
559.80	59480.03
559.97	59561.95
560.13	59213.21
560.30	59494.08
560.46	59587.70
560.63	59627.49
560.79	59721.11
560.96	59882.61
561.12	59543.23
561.29	59578.34
561.45	59585.36
561.61	59868.56
561.78	59564.29
561.94	59697.70
562.11	59718.77
562.27	59735.15
562.44	59753.88
562.60	60016.02
562.77	60060.49
562.93	59770.26
563.10	59908.35
563.26	59873.24
563.42	59948.14
563.59	59927.08
563.75	60039.42
563.92	59992.61
564.08	59964.52
564.24	60067.51
564.41	60032.40
564.57	60041.76
564.74	60069.85
564.90	60121.34
565.07	60090.91
565.23	60011.34
565.39	59868.56
565.56	60179.85
565.72	60175.17
565.88	60102.62
566.05	60062.83
566.21	60011.34
566.38	59920.05
566.54	60147.09
566.70	60294.54
566.87	60175.17
567.03	59978.57
567.19	60343.69
567.36	60254.75
567.52	60076.87
567.68	60552.00
567.85	60212.62
568.01	60285.18
568.17	60135.38
568.34	60161.13
568.50	60219.64
568.66	60133.04
568.83	60437.31
568.99	60261.77
569.15	60189.22
569.32	60317.95
569.48	60266.45
569.64	60310.92
569.81	60273.48
569.97	60240.71
570.13	60339.01
570.30	60217.30
570.46	60200.92
570.62	60460.72
570.78	60252.41
570.95	60460.72
571.11	60851.59
571.27	60303.90
571.43	60336.67
571.60	60236.03
571.76	60535.62
571.92	60472.42
572.09	60420.93
572.25	60502.85
572.41	60547.32
572.57	60252.41
572.74	60540.30
572.90	60477.10
573.06	60413.91
573.22	60605.83
573.38	60491.15
573.55	60509.87
573.71	60729.88
573.87	60774.35
574.03	60441.99
574.20	60720.52
574.36	60622.22
574.52	60697.11
574.68	60601.15
574.84	60610.51
575.01	60687.75
575.17	60594.13
575.33	60617.53
575.49	60425.61
575.65	60736.90
575.82	60734.56
575.98	60540.30
576.14	60837.54
576.30	60528.59
576.46	60437.31
576.62	60589.45
576.79	60701.79
576.95	60402.21
577.11	60566.04
577.27	60748.60
577.43	60767.33
577.59	60650.30
577.75	60619.88
577.92	60542.64
578.08	60851.59
578.24	60860.95
578.40	60638.60
578.56	60858.61
578.72	60711.16
578.88	60933.51
579.04	60949.89
579.21	60790.73
579.37	60837.54
579.53	60879.67
579.69	60563.70
579.85	60603.49
580.01	60755.63
580.17	60664.35
580.33	60900.74
580.49	60858.61
580.65	60741.58
580.82	60591.79
580.98	60706.47
581.14	60650.30
581.30	60985.00
581.46	60779.03
581.62	60896.06
581.78	60729.88
581.94	60910.10
582.10	60650.30
582.26	60743.92
582.42	60828.18
582.58	60947.55
582.74	60760.31
582.90	60973.30
583.06	60914.78
583.22	60748.60
583.38	60786.05
583.54	60809.46
583.70	60741.58
583.86	60973.30
584.02	60879.67
584.18	61085.64
584.34	60867.97
584.50	60928.83
584.66	60762.65
584.82	60783.71
584.98	60977.98
585.14	60940.53
585.30	60706.47
585.46	61080.96
585.62	60919.46
585.78	60837.54
585.94	60753.29
586.10	60781.37
586.26	60987.34
586.42	60795.42
586.58	60970.96
586.74	61041.17
586.90	61001.38
587.06	60802.44
587.22	61003.72
587.38	60753.29
587.54	60996.70
587.70	61202.67
587.86	60961.59
588.02	60952.23
588.18	61013.08
588.34	60935.85
588.49	61045.85
