SpectraSuite Data File
++++++++++++++++++++++++++++++++++++
Date: Fri Oct 25 11:23:26 EDT 2013
User: price-jones
Dark Spectrum Present: No
Reference Spectrum Present: No
Number of Sampled Component Spectra: 1
Spectrometers: USB2+H05261
Integration Time (usec): 100000 (USB2+H05261)
Spectra Averaged: 1 (USB2+H05261)
Boxcar Smoothing: 0 (USB2+H05261)
Correct for Electrical Dark: No (USB2+H05261)
Strobe/Lamp Enabled: No (USB2+H05261)
Correct for Detector Non-linearity: No (USB2+H05261)
Correct for Stray Light: No (USB2+H05261)
Number of Pixels in Processed Spectrum: 2048
>>>>>Begin Processed Spectral Data<<<<<
365.73	166.18
365.92	166.18
366.12	166.18
366.32	102.98
366.52	161.50
366.72	194.26
366.91	133.41
367.11	121.71
367.31	65.54
367.51	88.94
367.70	173.20
367.90	177.88
368.10	124.05
368.30	159.16
368.49	128.73
368.69	168.52
368.89	177.88
369.09	161.50
369.28	135.75
369.48	91.28
369.68	161.50
369.87	196.60
370.07	198.95
370.27	180.22
370.47	386.19
370.66	650.67
370.86	631.94
371.06	648.33
371.25	755.99
371.45	720.88
371.65	674.07
371.84	695.14
372.04	732.59
372.24	746.63
372.44	697.48
372.63	765.36
372.83	835.57
373.03	741.95
373.22	765.36
373.42	765.36
373.62	758.33
373.81	798.12
374.01	753.65
374.21	784.08
374.40	737.27
374.60	767.70
374.79	758.33
374.99	823.87
375.19	821.53
375.38	875.36
375.58	816.85
375.78	880.04
375.97	908.13
376.17	929.19
376.37	842.59
376.56	908.13
376.76	823.87
376.95	880.04
377.15	931.53
377.35	908.13
377.54	887.06
377.74	835.57
377.93	919.83
378.13	933.87
378.33	971.32
378.52	905.79
378.72	903.45
378.91	933.87
379.11	866.00
379.31	903.45
379.50	877.70
379.70	983.02
379.89	1013.45
380.09	950.26
380.28	931.53
380.48	980.68
380.68	954.94
380.87	990.05
381.07	1011.11
381.26	997.07
381.46	978.34
381.65	947.92
381.85	1032.18
382.04	943.24
382.24	1043.88
382.43	1083.67
382.63	1041.54
382.83	1196.01
383.02	1020.47
383.22	1146.86
383.41	1100.05
383.61	1036.86
383.80	1153.88
384.00	1107.07
384.19	1153.88
384.39	1130.48
384.58	1109.41
384.78	1163.25
384.97	1090.69
385.17	1200.69
385.36	1121.12
385.56	1146.86
385.75	1156.22
385.95	1158.57
386.14	1174.95
386.34	1231.12
386.53	1198.35
386.72	1132.82
386.92	1233.46
387.11	1196.01
387.31	1233.46
387.50	1296.66
387.70	1275.59
387.89	1322.40
388.09	1165.59
388.28	1296.66
388.48	1259.21
388.67	1303.68
388.86	1341.13
389.06	1301.34
389.25	1273.25
389.45	1387.94
389.64	1324.74
389.84	1448.79
390.03	1380.92
390.22	1313.04
390.42	1373.89
390.61	1394.96
390.81	1488.58
391.00	1460.49
391.19	1401.98
391.39	1420.71
391.58	1481.56
391.78	1458.15
391.97	1411.34
392.16	1514.33
392.36	1526.03
392.55	1495.60
392.75	1568.16
392.94	1453.47
393.13	1544.75
393.33	1563.48
393.52	1514.33
393.71	1617.31
393.91	1514.33
394.10	1619.65
394.29	1556.46
394.49	1565.82
394.68	1619.65
394.88	1678.16
395.07	1652.42
395.26	1689.87
395.46	1717.95
395.65	1715.61
395.84	1706.25
396.04	1678.16
396.23	1795.19
396.42	1748.38
396.62	1760.08
396.81	1767.10
397.00	1734.34
397.19	1839.66
397.39	1687.53
397.58	1834.98
397.77	1748.38
397.97	1930.94
398.16	1809.23
398.35	1984.77
398.55	1788.17
398.74	1923.92
398.93	1940.30
399.12	1849.02
399.32	1905.20
399.51	1942.64
399.70	2015.20
399.90	1968.39
400.09	2054.99
400.28	2169.68
400.47	2015.20
400.67	2073.71
400.86	2064.35
401.05	2083.08
401.24	2129.89
401.44	2076.06
401.63	2122.87
401.82	2289.04
402.01	2289.04
402.21	2120.53
402.40	2106.48
402.59	2169.68
402.78	2209.47
402.97	2300.75
403.17	2260.96
403.36	2190.74
403.55	2293.72
403.74	2282.02
403.93	2399.05
404.13	2314.79
404.32	2410.75
404.51	2305.43
404.70	2485.65
404.89	2403.73
405.09	2394.37
405.28	2389.69
405.47	2438.84
405.66	2562.89
405.85	2480.97
406.05	2527.78
406.24	2558.21
406.43	2609.70
406.62	2537.14
406.81	2771.19
407.00	2574.59
407.20	2476.29
407.39	2633.10
407.58	2726.72
407.77	2780.56
407.96	2778.22
408.15	2729.06
408.34	2696.30
408.54	2841.41
408.73	2792.26
408.92	2878.86
409.11	2857.79
409.30	2848.43
409.49	2939.71
409.68	2801.62
409.87	2949.08
410.07	2902.26
410.26	3000.57
410.45	3012.27
410.64	3087.17
410.83	2988.86
411.02	3138.66
411.21	3258.03
411.40	3098.87
411.59	3218.24
411.78	3213.56
411.98	3187.81
412.17	3190.15
412.36	3400.80
412.55	3300.16
412.74	3386.76
412.93	3449.95
413.12	3295.47
413.31	3522.51
413.50	3485.06
413.69	3370.37
413.88	3527.19
414.07	3602.08
414.26	3634.85
414.45	3602.08
414.64	3756.56
414.83	3756.56
415.02	3817.41
415.22	3845.50
415.41	3817.41
415.60	3815.07
415.79	3768.26
415.98	4044.45
416.17	4011.68
416.36	3960.19
416.55	4109.98
416.74	4060.83
416.93	4114.66
417.12	4126.36
417.31	4091.26
417.50	4056.15
417.69	4072.53
417.88	4152.11
418.07	4320.63
418.26	4285.52
418.45	4259.78
418.64	4397.87
418.83	4519.57
419.02	4306.59
419.21	4477.44
419.39	4545.32
419.58	4402.55
419.77	4444.68
419.96	4503.19
420.15	4690.43
420.34	4545.32
420.53	4568.73
420.72	4767.67
420.91	4643.62
421.10	4814.48
421.29	4896.40
421.48	4809.80
421.67	4746.61
421.86	4739.58
422.05	4800.44
422.24	4786.40
422.43	4898.74
422.61	4751.29
422.80	4873.00
422.99	4994.70
423.18	5013.43
423.37	5081.30
423.56	5025.13
423.75	5123.43
423.94	4947.89
424.13	4585.11
424.32	4744.27
424.50	5071.94
424.69	5240.46
424.88	5245.14
425.07	4978.32
425.26	5085.98
425.45	5036.83
425.64	4936.19
425.83	4943.21
426.01	5217.05
426.20	5088.32
426.39	5069.60
426.58	5060.24
426.77	5048.54
426.96	5172.58
427.15	5064.92
427.33	5107.05
427.52	5018.11
427.71	5191.31
427.90	5254.50
428.09	5261.52
428.28	5467.49
428.46	5514.30
428.65	5315.36
428.84	5451.11
429.03	5497.92
429.22	5420.68
429.40	5472.17
429.59	5579.84
429.78	5387.91
429.97	5444.09
430.16	5666.44
430.34	5507.28
430.53	5668.78
430.72	5722.61
430.91	5598.56
431.10	5621.97
431.28	5687.50
431.47	5956.66
431.66	5895.81
431.85	5849.00
432.03	5846.66
432.22	6029.22
432.41	5951.98
432.60	5834.96
432.79	5856.02
432.97	5994.11
433.16	5975.39
433.35	6080.71
433.54	6092.41
433.72	6099.44
433.91	6118.16
434.10	6078.37
434.28	6258.59
434.47	6125.18
434.66	6179.01
434.85	6263.27
435.03	6228.17
435.22	6183.70
435.41	6612.01
435.59	6366.26
435.78	6431.79
435.97	6401.37
436.16	6553.50
436.34	6394.34
436.53	6546.48
436.72	6696.27
436.90	6455.20
437.09	6785.21
437.28	6483.28
437.46	6579.25
437.65	6719.68
437.84	6712.66
438.02	6764.15
438.21	6647.12
438.40	6827.34
438.58	7012.24
438.77	6860.11
438.96	6888.20
439.14	7225.23
439.33	7311.83
439.52	7351.62
439.70	7360.98
439.89	7269.70
440.08	7307.15
440.26	7304.81
440.45	7309.49
440.63	7468.65
440.82	7641.85
441.01	7527.16
441.19	7583.34
441.38	7728.45
441.57	7812.71
441.75	7777.60
441.94	7885.26
442.12	7859.52
442.31	7992.93
442.50	8044.42
442.68	8138.04
442.87	8116.98
443.05	8060.80
443.24	8355.71
443.43	8074.85
443.61	8173.15
443.80	8535.93
443.98	8065.49
444.17	7859.52
444.35	8184.85
444.54	8430.61
444.73	8402.52
444.91	8294.86
445.10	8121.66
445.28	8341.67
445.47	8320.60
445.65	8456.36
445.84	8306.56
446.02	8676.37
446.21	8465.72
446.39	8493.80
446.58	8472.74
446.77	8437.63
446.95	8163.79
447.14	8428.27
447.32	8496.14
447.51	8472.74
447.69	8528.91
447.88	8669.34
448.06	8683.39
448.25	8505.51
448.43	8594.45
448.62	8545.30
448.80	8713.81
448.99	8676.37
449.17	8667.00
449.36	8713.81
449.54	8856.59
449.73	9053.19
449.91	8887.01
450.10	8884.67
450.28	9001.70
450.46	9090.64
450.65	9135.11
450.83	9249.80
451.02	9254.48
451.20	9151.49
451.39	9039.15
451.57	9111.71
451.76	9181.92
451.94	9139.79
452.13	9261.50
452.31	9315.33
452.49	9254.48
452.68	9404.27
452.86	9268.52
453.05	9626.62
453.23	9439.38
453.42	9392.57
453.60	9364.48
453.78	9502.58
453.97	9348.10
454.15	9664.07
454.34	9338.74
454.52	9741.31
454.70	9701.52
454.89	9738.97
455.07	9963.66
455.26	9886.42
455.44	9816.21
455.62	9961.32
455.81	9944.94
455.99	10197.71
456.17	10101.75
456.36	10099.41
456.54	9893.44
456.73	10209.42
456.91	10384.96
457.09	10291.34
457.28	10555.82
457.46	10317.08
457.64	10441.13
457.83	10602.63
458.01	10775.83
458.19	10630.71
458.38	10569.86
458.56	10759.44
458.74	10703.27
458.93	10656.46
459.11	10609.65
459.29	10761.78
459.48	10839.02
459.66	10626.03
459.84	10902.22
460.03	11206.48
460.21	10883.49
460.39	11112.86
460.57	11286.06
460.76	11028.60
460.94	11145.63
461.12	11187.76
461.31	11323.51
461.49	11194.78
461.67	11140.95
461.85	11550.54
462.04	11480.33
462.22	11386.71
462.40	11454.58
462.59	11410.11
462.77	11583.31
462.95	11557.57
463.13	11669.91
463.32	11534.16
463.50	11557.57
463.68	11779.92
463.86	12016.31
464.05	11833.75
464.23	11625.44
464.41	11824.39
464.59	11887.58
464.78	12156.74
464.96	11920.35
465.14	11775.24
465.32	12131.00
465.50	12175.47
465.69	12219.94
465.87	12180.15
466.05	12189.51
466.23	12238.66
466.41	12119.29
466.60	12336.96
466.78	12063.12
466.96	12145.04
467.14	12367.39
467.32	12634.21
467.51	12393.14
467.69	12037.38
467.87	12631.87
468.05	12901.03
468.23	12414.20
468.41	12678.68
468.60	12596.76
468.78	12535.91
468.96	12531.23
469.14	12755.92
469.32	13076.57
469.50	12613.15
469.69	12954.87
469.87	12943.16
470.05	13193.60
470.23	13198.28
470.41	13355.10
470.59	13104.66
470.77	13123.38
470.95	13104.66
471.14	13404.25
471.32	13432.33
471.50	13481.49
471.68	13642.98
471.86	13731.92
472.04	13626.60
472.22	14193.01
472.40	13607.87
472.58	13748.31
472.77	13984.70
472.95	14415.36
473.13	14431.74
473.31	14029.17
473.49	14078.32
473.67	14141.52
473.85	14398.98
474.03	14745.38
474.21	14810.91
474.39	14752.40
474.57	14684.52
474.75	15002.83
474.93	14939.64
475.12	15248.59
475.30	15084.75
475.48	15119.86
475.66	15171.35
475.84	15112.84
476.02	15433.49
476.20	15346.89
476.38	15765.85
476.56	15899.26
476.74	15583.29
476.92	15974.16
477.10	15562.22
477.28	16381.41
477.46	16166.08
477.64	16437.58
477.82	16812.07
478.00	17242.73
478.18	16992.29
478.36	17090.59
478.54	17111.66
478.72	17174.85
478.90	17224.00
479.08	17610.19
479.26	17776.37
479.44	17755.30
479.62	17914.46
479.80	18256.18
479.98	18281.92
480.16	18724.29
480.34	18462.15
480.52	18735.99
480.70	18682.16
480.88	18595.56
481.06	18895.14
481.24	18874.08
481.41	18981.74
481.59	19564.54
481.77	19494.32
481.95	19700.29
482.13	19829.02
482.31	19723.69
482.49	20042.01
482.67	20107.54
482.85	20556.93
483.03	20540.54
483.21	20877.58
483.39	20767.57
483.57	20865.88
483.74	20896.30
483.92	21343.35
484.10	21371.43
484.28	21989.33
484.46	22162.53
484.64	22291.26
484.82	21986.99
485.00	22492.55
485.18	22714.90
485.35	23253.22
485.53	22672.77
485.71	23150.24
485.89	23295.35
486.07	23164.28
486.25	23440.47
486.43	23658.14
486.61	23997.51
486.78	24053.69
486.96	23992.83
487.14	24505.41
487.32	24893.94
487.50	24950.11
487.68	24959.47
487.85	25132.67
488.03	25469.71
488.21	25984.63
488.39	25979.95
488.57	25734.19
488.75	26321.66
488.92	26441.03
489.10	26544.02
489.28	26693.81
489.46	27182.98
489.64	27199.37
489.81	27735.35
489.99	27461.51
490.17	27278.94
490.35	28388.36
490.53	28381.34
490.70	28168.35
490.88	28278.35
491.06	28938.38
491.24	28877.53
491.41	29268.40
491.59	29614.80
491.77	28987.53
491.95	29635.86
492.13	29778.64
492.30	29677.99
492.48	29806.72
492.66	30506.54
492.84	30232.70
493.01	30686.76
493.19	30866.98
493.37	30852.94
493.54	30913.80
493.72	31501.27
493.90	31386.58
494.08	31592.55
494.25	32484.30
494.43	32355.57
494.61	32341.52
494.79	32788.56
494.96	32587.28
495.14	32870.48
495.32	33092.83
495.49	33099.86
495.67	33170.07
495.85	33696.69
496.02	33642.86
496.20	33897.98
496.38	34316.93
496.55	34005.64
496.73	34948.88
496.91	34588.44
497.09	34946.54
497.26	35040.16
497.44	35211.02
497.62	35276.55
497.79	35768.07
497.97	35283.58
498.14	35873.39
498.32	36336.82
498.50	36236.17
498.67	36875.14
498.85	36526.40
499.03	36938.33
499.20	36451.50
499.38	37298.78
499.56	37645.18
499.73	37481.34
499.91	37376.01
500.08	37984.55
500.26	37530.49
500.44	37750.50
500.61	38197.54
500.79	37720.07
500.97	38258.40
501.14	38340.32
501.32	38801.40
501.49	38614.16
501.67	38340.32
501.84	39447.39
502.02	38820.13
502.20	38827.15
502.37	39358.45
502.55	39262.49
502.72	39840.60
502.90	39435.69
503.07	39599.52
503.25	39784.43
503.43	39950.60
503.60	39739.96
503.78	40517.01
503.95	40334.45
504.13	40776.81
504.30	40509.99
504.48	40367.22
504.65	41074.06
504.83	41221.52
505.01	41703.67
505.18	41605.36
505.36	41450.89
505.53	41088.10
505.71	41879.21
505.88	42047.72
506.06	41511.74
506.23	42094.53
506.41	41813.67
506.58	42312.20
506.76	42363.70
506.93	42780.31
507.11	42630.52
507.28	43105.65
507.46	42689.03
507.63	42937.13
507.81	43203.95
507.98	43257.78
508.16	42880.95
508.33	43262.46
508.50	43800.79
508.68	43997.39
508.85	44037.18
509.03	43892.07
509.20	44102.71
509.38	44470.18
509.55	44650.40
509.73	44343.79
509.90	44975.73
510.08	44589.55
510.25	44849.35
510.42	44626.99
510.60	44861.05
510.77	44961.69
510.95	45649.81
511.12	45258.94
511.30	45272.98
511.47	45579.59
511.64	45661.51
511.82	45839.39
511.99	45478.95
512.17	46188.13
512.34	45921.31
512.51	46602.41
512.69	46658.58
512.86	46780.29
513.04	46862.21
513.21	46445.59
513.38	46691.35
513.56	46983.91
513.73	46845.82
513.90	46831.78
514.08	47009.66
514.25	47594.79
514.43	47356.06
514.60	47447.34
514.77	47536.28
514.95	47611.18
515.12	47447.34
515.29	47515.22
515.47	47861.61
515.64	48186.95
515.81	48086.31
515.99	48495.90
516.16	48861.02
516.33	48439.73
516.51	48554.41
516.68	48629.31
516.85	48528.67
517.03	48907.83
517.20	49038.90
517.37	48919.54
517.54	48952.30
517.72	48900.81
517.89	49106.78
518.06	48992.09
518.24	49270.62
518.41	49193.38
518.58	49532.76
518.75	49085.72
518.93	49586.59
519.10	49249.55
519.27	50134.28
519.45	49787.88
519.62	49982.14
519.79	50312.16
519.96	50089.80
520.14	50253.64
520.31	50234.92
520.48	50628.13
520.65	50075.76
520.83	50808.35
521.00	50312.16
521.17	50616.43
521.34	50731.11
521.52	50899.63
521.69	50564.93
521.86	50796.65
522.03	51157.09
522.20	51496.47
522.38	51562.00
522.55	51599.45
522.72	51437.95
522.89	51276.46
523.07	51812.44
523.24	51524.55
523.41	51533.92
523.58	51339.65
523.75	51690.73
523.92	52074.58
524.10	52186.92
524.27	52046.49
524.44	51852.23
524.61	52065.22
524.78	52121.39
524.96	52278.21
525.13	52278.21
525.30	52460.77
525.47	52413.96
525.64	52575.45
525.81	52538.01
525.98	52729.93
526.16	52652.69
526.33	52795.46
526.50	52975.69
526.67	52683.12
526.84	52999.09
527.01	52676.10
527.18	52919.51
527.36	53244.85
527.53	53333.79
527.70	53504.65
527.87	53272.93
528.04	53076.33
528.21	53326.77
528.38	53357.19
528.55	53893.18
528.72	53591.25
528.89	53680.19
529.07	53422.73
529.24	53396.98
529.41	53804.24
529.58	53785.51
529.75	53591.25
529.92	53851.05
530.09	53844.02
530.26	53783.17
530.43	53998.50
530.60	53818.28
530.77	53832.32
530.94	54160.00
531.11	54040.63
531.28	54183.40
531.46	54225.53
531.63	54461.93
531.80	54372.99
531.97	54578.95
532.14	54677.25
532.31	54546.18
532.48	54520.44
532.65	54726.41
532.82	54705.34
532.99	54637.47
533.16	54660.87
533.33	54855.14
533.50	55042.38
533.67	54782.58
533.84	54796.62
534.01	54969.82
534.18	54756.83
534.35	55393.46
534.52	55391.12
534.69	55299.84
534.86	55416.86
535.03	55248.35
535.20	55299.84
535.37	55430.91
535.54	55634.53
535.71	55353.67
535.88	55400.48
536.05	55774.97
536.22	55669.64
536.38	55636.87
536.55	55707.09
536.72	55629.85
536.89	55615.81
537.06	55646.24
537.23	55840.50
537.40	55674.32
537.57	55800.71
537.74	55746.88
537.91	55908.38
538.08	55840.50
538.25	55765.60
538.42	55941.14
538.59	56198.60
538.75	56140.09
538.92	56168.18
539.09	56280.52
539.26	56376.48
539.43	55999.66
539.60	56217.33
539.77	56257.12
539.94	56629.26
540.11	56456.06
540.28	56559.05
540.44	56610.54
540.61	56732.25
540.78	56336.69
540.95	56516.92
541.12	56453.72
541.29	56425.64
541.46	56633.94
541.62	56514.58
541.79	56659.69
541.96	56357.76
542.13	56783.74
542.30	56832.89
542.47	57003.75
542.63	56870.34
542.80	56788.42
542.97	57080.98
543.14	57059.92
543.31	57223.76
543.48	57389.94
543.64	57380.57
543.81	57539.73
543.98	57490.58
544.15	57319.72
544.32	57345.47
544.48	57628.67
544.65	57471.85
544.82	57455.47
544.99	57312.70
545.16	57633.35
545.32	57425.04
545.49	57612.29
545.66	57876.77
545.83	57748.04
546.00	57851.02
546.16	57544.41
546.33	57558.45
546.50	57535.05
546.67	57844.00
546.83	57565.48
547.00	57865.06
547.17	57939.96
547.34	57818.25
547.50	57977.41
547.67	58162.31
547.84	58145.93
548.00	58188.06
548.17	58316.79
548.34	58220.83
548.51	58241.89
548.67	58408.07
548.84	58307.43
549.01	58192.74
549.18	58300.40
549.34	58176.36
549.51	58176.36
549.68	58391.68
549.84	58506.37
550.01	58768.51
550.18	58213.80
550.34	58426.79
550.51	58419.77
550.68	58576.59
550.84	58389.34
551.01	58714.68
551.18	58672.55
551.34	58532.12
551.51	58688.93
551.68	58548.50
551.84	58731.06
552.01	58548.50
552.18	58880.86
552.34	58356.58
552.51	58749.79
552.68	58618.72
552.84	58651.48
553.01	59056.40
553.18	58899.58
553.34	59150.02
553.51	59009.59
553.67	58904.26
553.84	59079.80
554.01	59023.63
554.17	59192.15
554.34	59011.93
554.51	59075.12
554.67	59166.40
554.84	59004.91
555.00	59056.40
555.17	59089.16
555.33	58979.16
555.50	59157.04
555.67	59084.48
555.83	58904.26
556.00	59107.89
556.16	59370.03
556.33	59334.92
556.50	59304.49
556.66	59400.46
556.83	59084.48
556.99	59477.69
557.16	59566.63
557.32	59653.23
557.49	59632.17
557.65	59388.75
557.82	59292.79
557.98	59395.77
558.15	59430.88
558.32	59554.93
558.48	59323.22
558.65	59416.84
558.81	59360.67
558.98	59590.04
559.14	59557.27
559.31	59625.15
559.47	59758.56
559.64	59859.20
559.80	59793.67
559.97	59826.43
560.13	59674.30
560.30	59697.70
560.46	59753.88
560.63	59669.62
560.79	59898.99
560.96	59772.60
561.12	59826.43
561.29	59959.84
561.45	59992.61
561.61	60041.76
561.78	59915.37
561.94	59929.42
562.11	59908.35
562.27	59889.63
562.44	59999.63
562.60	60210.28
562.77	60137.72
562.93	59760.90
563.10	60130.70
563.26	59854.52
563.42	60257.09
563.59	59987.93
563.75	59915.37
563.92	60011.34
564.08	60182.19
564.24	60247.73
564.41	60214.96
564.57	60226.66
564.74	60268.79
564.90	60329.65
565.07	59997.29
565.23	60233.69
565.39	60367.10
565.56	60142.41
565.72	60030.06
565.88	60413.91
566.05	60177.51
566.21	60336.67
566.38	60383.48
566.54	60317.95
566.70	60308.58
566.87	60350.71
567.03	60259.43
567.19	60411.57
567.36	60383.48
567.52	60390.50
567.68	60357.74
567.85	60374.12
568.01	60460.72
568.17	60427.95
568.34	60544.98
568.50	60456.04
568.66	60537.96
568.83	60463.06
568.99	60547.32
569.15	60446.68
569.32	60383.48
569.48	60334.33
569.64	60598.81
569.81	60467.74
569.97	60385.82
570.13	60582.43
570.30	60556.68
570.46	60552.00
570.62	60472.42
570.78	60603.49
570.95	60432.63
571.11	60484.12
571.27	60577.75
571.43	60669.03
571.60	60954.57
571.76	60802.44
571.92	60781.37
572.09	60743.92
572.25	60807.12
572.41	60584.77
572.57	60580.09
572.74	60767.33
572.90	60566.04
573.06	60654.98
573.22	60683.07
573.38	60687.75
573.55	60802.44
573.71	61055.21
573.87	60746.26
574.03	60669.03
574.20	60664.35
574.36	60732.22
574.52	60755.63
574.68	60874.99
574.84	60804.78
575.01	60795.42
575.17	60657.32
575.33	60807.12
575.49	60566.04
575.65	60863.29
575.82	60977.98
575.98	60814.14
576.14	61158.20
576.30	60846.91
576.46	60755.63
576.62	60619.88
576.79	60818.82
576.95	60853.93
577.11	61022.45
577.27	60921.80
577.43	61013.08
577.59	60823.50
577.75	60783.71
577.92	60743.92
578.08	60772.01
578.24	61013.08
578.40	61057.56
578.56	60980.32
578.72	60874.99
578.88	61071.60
579.04	61045.85
579.21	60795.42
579.37	61069.26
579.53	61172.24
579.69	60870.31
579.85	60989.68
580.01	60933.51
580.17	60776.69
580.33	60926.49
580.49	61059.90
580.65	61059.90
580.82	61083.30
580.98	60910.10
581.14	60816.48
581.30	61106.71
581.46	60926.49
581.62	61090.32
581.78	60844.57
581.94	60914.78
582.10	61059.90
582.26	60867.97
582.42	60947.55
582.58	60959.25
582.74	61048.19
582.90	60985.00
583.06	61125.43
583.22	60919.46
583.38	60959.25
583.54	61200.33
583.70	60973.30
583.86	61102.03
584.02	60992.02
584.18	61095.00
584.34	61249.48
584.50	61127.77
584.66	60994.36
584.82	60741.58
584.98	61167.56
585.14	61240.12
585.30	60898.40
585.46	61354.80
585.62	61087.98
585.78	61087.98
585.94	61095.00
586.10	61123.09
586.26	61006.06
586.42	61169.90
586.58	61312.67
586.74	61057.56
586.90	61130.11
587.06	61085.64
587.22	61139.47
587.38	60903.08
587.54	61179.26
587.70	61284.59
587.86	61162.88
588.02	61291.61
588.18	61305.65
588.34	61183.94
588.49	60987.34
