SpectraSuite Data File
++++++++++++++++++++++++++++++++++++
Date: Fri Oct 25 10:44:13 EDT 2013
User: price-jones
Dark Spectrum Present: No
Reference Spectrum Present: No
Number of Sampled Component Spectra: 1
Spectrometers: USB2+H05261
Integration Time (usec): 100000 (USB2+H05261)
Spectra Averaged: 1 (USB2+H05261)
Boxcar Smoothing: 0 (USB2+H05261)
Correct for Electrical Dark: No (USB2+H05261)
Strobe/Lamp Enabled: No (USB2+H05261)
Correct for Detector Non-linearity: No (USB2+H05261)
Correct for Stray Light: No (USB2+H05261)
Number of Pixels in Processed Spectrum: 2048
>>>>>Begin Processed Spectral Data<<<<<
365.73	166.18
365.92	166.18
366.12	166.18
366.32	53.83
366.52	60.85
366.72	0.00
366.91	9.36
367.11	0.00
367.31	28.09
367.51	2.34
367.70	37.45
367.90	79.58
368.10	60.85
368.30	100.64
368.49	37.45
368.69	74.90
368.89	60.85
369.09	53.83
369.28	72.56
369.48	124.05
369.68	79.58
369.87	98.30
370.07	110.01
370.27	154.48
370.47	203.63
370.66	369.80
370.86	416.62
371.06	423.64
371.25	411.93
371.45	414.27
371.65	528.96
371.84	456.40
372.04	500.87
372.24	484.49
372.44	496.19
372.63	505.56
372.83	479.81
373.03	531.30
373.22	472.79
373.42	535.98
373.62	592.16
373.81	505.56
374.01	561.73
374.21	561.73
374.40	599.18
374.60	650.67
374.79	594.50
374.99	617.90
375.19	554.71
375.38	669.39
375.58	655.35
375.78	594.50
375.97	592.16
376.17	643.65
376.37	620.24
376.56	627.26
376.76	580.45
376.95	678.76
377.15	622.58
377.35	594.50
377.54	650.67
377.74	641.31
377.93	648.33
378.13	688.12
378.33	634.29
378.52	622.58
378.72	725.57
378.91	709.18
379.11	589.82
379.31	706.84
379.50	594.50
379.70	697.48
379.89	711.52
380.09	608.54
380.28	713.86
380.48	669.39
380.68	744.29
380.87	650.67
381.07	681.10
381.26	741.95
381.46	716.20
381.65	788.76
381.85	734.93
382.04	671.73
382.24	758.33
382.43	718.54
382.63	678.76
382.83	716.20
383.02	758.33
383.22	727.91
383.41	727.91
383.61	772.38
383.80	711.52
384.00	781.74
384.19	774.72
384.39	744.29
384.58	821.53
384.78	765.36
384.97	727.91
385.17	777.06
385.36	741.95
385.56	835.57
385.75	741.95
385.95	933.87
386.14	835.57
386.34	849.61
386.53	882.38
386.72	854.30
386.92	856.64
387.11	877.70
387.31	861.32
387.50	856.64
387.70	889.40
387.89	854.30
388.09	849.61
388.28	877.70
388.48	868.34
388.67	966.64
388.86	952.60
389.06	947.92
389.25	924.51
389.45	1027.50
389.64	1015.79
389.84	1034.52
390.03	999.41
390.22	980.68
390.42	945.58
390.61	945.58
390.81	1036.86
391.00	1025.15
391.19	1067.28
391.39	1095.37
391.58	1046.22
391.78	1078.99
391.97	1071.97
392.16	1067.28
392.36	1050.90
392.55	1022.81
392.75	1046.22
392.94	1022.81
393.13	1022.81
393.33	1081.33
393.52	1078.99
393.71	1036.86
393.91	1130.48
394.10	1116.44
394.29	1139.84
394.49	1074.31
394.68	1146.86
394.88	1210.06
395.07	1224.10
395.26	1174.95
395.46	1228.78
395.65	1226.44
395.84	1160.91
396.04	1261.55
396.23	1153.88
396.42	1142.18
396.62	1142.18
396.81	1233.46
397.00	1191.33
397.19	1252.19
397.39	1289.64
397.58	1418.36
397.77	1338.79
397.97	1385.60
398.16	1409.00
398.35	1420.71
398.55	1406.66
398.74	1486.24
398.93	1451.13
399.12	1441.77
399.32	1516.67
399.51	1509.65
399.70	1671.14
399.90	1500.28
400.09	1504.96
400.28	1586.88
400.47	1579.86
400.67	1607.95
400.86	1593.90
401.05	1654.76
401.24	1673.48
401.44	1650.08
401.63	1689.87
401.82	1631.35
402.01	1701.57
402.21	1671.14
402.40	1802.21
402.59	1659.44
402.78	1713.27
402.97	1809.23
403.17	1769.44
403.36	1842.00
403.55	1774.13
403.74	1895.83
403.93	1799.87
404.13	1879.45
404.32	1881.79
404.51	1860.73
404.70	1856.04
404.89	1888.81
405.09	1970.73
405.28	2001.16
405.47	1900.52
405.66	1909.88
405.85	2076.06
406.05	1923.92
406.24	1930.94
406.43	1994.14
406.62	1987.11
406.81	2143.93
407.00	2050.31
407.20	1998.82
407.39	1973.07
407.58	2106.48
407.77	2115.84
407.96	2181.38
408.15	2214.15
408.34	2190.74
408.54	2267.98
408.73	2263.30
408.92	2305.43
409.11	2279.68
409.30	2256.28
409.49	2195.42
409.68	2202.44
409.87	2235.21
410.07	2272.66
410.26	2277.34
410.45	2314.79
410.64	2389.69
410.83	2495.01
411.02	2457.56
411.21	2485.65
411.40	2534.80
411.59	2562.89
411.78	2600.34
411.98	2588.63
412.17	2675.23
412.36	2670.55
412.55	2672.89
412.74	2712.68
412.93	2736.09
413.12	2708.00
413.31	2885.88
413.50	2899.92
413.69	2738.43
413.88	2853.11
414.07	2920.99
414.26	2965.46
414.45	2930.35
414.64	2974.82
414.83	3073.12
415.02	3030.99
415.22	2993.55
415.41	3138.66
415.60	3084.83
415.79	3126.96
415.98	3293.13
416.17	3318.88
416.36	3112.91
416.55	3169.09
416.74	3262.71
416.93	3300.16
417.12	3243.98
417.31	3316.54
417.50	3215.90
417.69	3353.99
417.88	3412.50
418.07	3452.29
418.26	3445.27
418.45	3410.16
418.64	3531.87
418.83	3524.85
419.02	3410.16
419.21	3557.61
419.39	3667.62
419.58	3459.31
419.77	3576.34
419.96	3660.60
420.15	3836.14
420.34	3648.90
420.53	3648.90
420.72	3861.88
420.91	3684.00
421.10	3754.22
421.29	3845.50
421.48	3716.77
421.67	3805.71
421.86	3801.03
422.05	3817.41
422.24	3705.07
422.43	3723.79
422.61	3819.75
422.80	3775.28
422.99	3805.71
423.18	3925.08
423.37	3936.78
423.56	3990.61
423.75	3812.73
423.94	3801.03
424.13	3747.20
424.32	3840.82
424.50	3805.71
424.69	3864.22
424.88	3990.61
425.07	3726.13
425.26	3822.09
425.45	4011.68
425.64	3786.99
425.83	3920.40
426.01	3981.25
426.20	3985.93
426.39	3971.89
426.58	3925.08
426.77	3967.21
426.96	3913.38
427.15	3934.44
427.33	4037.42
427.52	3948.48
427.71	4025.72
427.90	4212.96
428.09	4203.60
428.28	4046.79
428.46	4086.58
428.65	4168.49
428.84	4168.49
429.03	4264.46
429.22	3946.14
429.40	4140.41
429.59	4100.62
429.78	3831.46
429.97	3815.07
430.16	3962.53
430.34	4091.26
430.53	3992.95
430.72	4203.60
430.91	4257.43
431.10	4278.50
431.28	4498.51
431.47	4451.70
431.66	4594.47
431.85	4503.19
432.03	4671.71
432.22	4781.71
432.41	4669.37
432.60	4578.09
432.79	4734.90
432.97	4770.01
433.16	4587.45
433.35	4617.88
433.54	4648.30
433.72	4624.90
433.91	4678.73
434.10	4755.97
434.28	4805.12
434.47	4755.97
434.66	4805.12
434.85	4922.15
435.03	4947.89
435.22	4858.95
435.41	5163.22
435.59	4929.17
435.78	5104.71
435.97	5027.47
436.16	5195.99
436.34	5048.54
436.53	4985.34
436.72	5139.82
436.90	4978.32
437.09	5011.09
437.28	5011.09
437.46	5107.05
437.65	5247.48
437.84	5146.84
438.02	5029.81
438.21	5071.94
438.40	5123.43
438.58	5481.53
438.77	5383.23
438.96	5392.59
439.14	5547.07
439.33	5647.71
439.52	5589.20
439.70	5551.75
439.89	5584.52
440.08	5607.92
440.26	5650.05
440.45	5591.54
440.63	5741.33
440.82	5755.38
441.01	5813.89
441.19	5923.90
441.38	6008.16
441.57	6094.76
441.75	5954.32
441.94	6253.91
442.12	6244.55
442.31	6237.53
442.50	6338.17
442.68	6324.13
442.87	6333.49
443.05	6235.19
443.24	6539.46
443.43	6413.07
443.61	6509.03
443.80	6583.93
443.98	6246.89
444.17	6171.99
444.35	6487.96
444.54	6724.36
444.73	6497.33
444.91	6445.84
445.10	6401.37
445.28	6298.38
445.47	6403.71
445.65	6392.00
445.84	6424.77
446.02	6445.84
446.21	6342.85
446.39	6420.09
446.58	6679.89
446.77	6663.51
446.95	6459.88
447.14	6612.01
447.32	6848.41
447.51	6565.20
447.69	6581.59
447.88	6553.50
448.06	6600.31
448.25	6588.61
448.43	6670.53
448.62	6651.80
448.80	6590.95
448.99	6722.02
449.17	6703.29
449.36	6890.54
449.54	6853.09
449.73	7105.87
449.91	7026.29
450.10	7047.35
450.28	7183.10
450.46	7164.38
450.65	7187.79
450.83	7283.75
451.02	7009.90
451.20	7316.51
451.39	7279.07
451.57	7215.87
451.76	7115.23
451.94	7129.27
452.13	7075.44
452.31	7098.84
452.49	6988.84
452.68	7243.96
452.86	6977.14
453.05	7447.58
453.23	7321.20
453.42	7103.53
453.60	7344.60
453.78	7323.54
453.97	7297.79
454.15	7595.04
454.34	7187.79
454.52	7459.29
454.70	7644.19
454.89	7489.71
455.07	7384.39
455.26	7435.88
455.44	7772.92
455.62	7641.85
455.81	7861.86
455.99	7915.69
456.17	7733.13
456.36	7749.51
456.54	7962.50
456.73	8013.99
456.91	8044.42
457.09	7960.16
457.28	8142.72
457.46	7962.50
457.64	8051.44
457.83	7946.12
458.01	7925.05
458.19	8212.94
458.38	8032.72
458.56	8346.35
458.74	8290.18
458.93	8215.28
459.11	8187.19
459.29	8271.45
459.48	8325.29
459.66	8278.47
459.84	8283.16
460.03	8524.23
460.21	8407.20
460.39	8435.29
460.57	8344.01
460.76	8437.63
460.94	8645.94
461.12	8592.11
461.31	8580.40
461.49	8367.42
461.67	8521.89
461.85	8683.39
462.04	8788.71
462.22	8959.57
462.40	8919.78
462.59	8819.14
462.77	8652.96
462.95	8961.91
463.13	8835.52
463.32	8940.85
463.50	8634.24
463.68	8887.01
463.86	8905.74
464.05	8863.61
464.23	8926.80
464.41	9221.71
464.59	8793.39
464.78	9151.49
464.96	9092.98
465.14	8905.74
465.32	8922.12
465.50	9158.52
465.69	9362.14
465.87	9107.02
466.05	9083.62
466.23	9135.11
466.41	9217.03
466.60	9315.33
466.78	9118.73
466.96	9245.12
467.14	9116.39
467.32	9451.08
467.51	9394.91
467.69	9008.72
467.87	9280.22
468.05	9315.33
468.23	9540.02
468.41	9308.31
468.60	9163.20
468.78	9514.28
468.96	9446.40
469.14	9544.70
469.32	9767.06
469.50	9465.13
469.69	9591.52
469.87	9757.69
470.05	9701.52
470.23	9809.19
470.41	9640.67
470.59	10059.62
470.77	9809.19
470.95	9923.87
471.14	10068.98
471.32	9900.47
471.50	10197.71
471.68	10211.76
471.86	10178.99
472.04	10303.04
472.22	10506.66
472.40	10059.62
472.58	10277.29
472.77	10422.41
472.95	10494.96
473.13	10890.51
473.31	10274.95
473.49	10298.36
473.67	10401.34
473.85	10644.76
474.03	10911.58
474.21	10981.79
474.39	10747.74
474.57	11056.69
474.75	10930.30
474.93	10981.79
475.12	11239.25
475.30	11108.18
475.48	10930.30
475.66	11122.23
475.84	11337.56
476.02	11321.17
476.20	11274.36
476.38	11473.31
476.56	11838.43
476.74	11705.02
476.92	11742.47
477.10	11693.32
477.28	11901.62
477.46	12102.91
477.64	12105.25
477.82	12463.35
478.00	12559.31
478.18	12365.05
478.36	12444.63
478.54	12589.74
478.72	12372.07
478.90	12617.83
479.08	12964.23
479.26	12989.97
479.44	13362.12
479.62	12865.92
479.80	13125.72
479.98	13280.20
480.16	13532.98
480.34	13404.25
480.52	13441.70
480.70	13598.51
480.88	13607.87
481.06	13767.03
481.24	13783.41
481.41	14183.65
481.59	14450.47
481.77	14434.08
481.95	14303.01
482.13	14382.59
482.31	14464.51
482.49	14892.83
482.67	14705.59
482.85	14824.95
483.03	15030.92
483.21	15609.03
483.39	15337.53
483.57	15227.53
483.74	15374.98
483.92	15367.96
484.10	15449.88
484.28	15555.20
484.46	15716.70
484.64	16259.70
484.82	16077.14
485.00	15779.89
485.18	16566.31
485.35	16343.96
485.53	16070.12
485.71	16266.72
485.89	16411.84
486.07	16042.03
486.25	16812.07
486.43	16854.20
486.61	16985.27
486.78	17050.80
486.96	17202.94
487.14	17741.26
487.32	17816.16
487.50	18003.40
487.68	18155.54
487.85	18324.05
488.03	18307.67
488.21	18600.24
488.39	18317.03
488.57	18677.48
488.75	18703.22
488.92	18918.55
489.10	19138.56
489.28	19374.95
489.46	19276.65
489.64	19283.67
489.81	20079.46
489.99	19861.79
490.17	20280.74
490.35	20030.30
490.53	20093.50
490.70	20334.57
490.88	20510.11
491.06	20769.91
491.24	20620.12
491.41	20641.18
491.59	20528.84
491.77	20570.97
491.95	21139.72
492.13	21280.15
492.30	21446.33
492.48	21848.90
492.66	21645.27
492.84	21823.16
493.01	21743.58
493.19	22019.76
493.37	22153.17
493.54	21956.57
493.72	22450.42
493.90	22366.16
494.08	22618.94
494.25	22937.25
494.43	23283.65
494.61	22946.61
494.79	23175.98
494.96	22944.27
495.14	23442.81
495.32	23445.15
495.49	23627.71
495.67	23676.86
495.85	23922.62
496.02	24196.46
496.20	24140.29
496.38	24397.74
496.55	24510.09
496.73	24805.00
496.91	24304.12
497.09	24940.75
497.26	25104.59
497.44	25043.73
497.62	25029.69
497.79	25132.67
497.97	25034.37
498.14	25284.81
498.32	25254.38
498.50	25453.33
498.67	25834.83
498.85	25685.04
499.03	26066.55
499.20	25816.11
499.38	26256.13
499.56	26368.48
499.73	25869.94
499.91	26214.00
500.08	26216.34
500.26	26122.72
500.44	26401.24
500.61	26340.39
500.79	26431.67
500.97	26958.29
501.14	27072.98
501.32	27255.54
501.49	26932.54
501.67	27157.24
501.84	27330.44
502.02	27281.28
502.20	27304.69
502.37	27910.89
502.55	27655.77
502.72	27611.30
502.90	28032.60
503.07	27754.07
503.25	28034.94
503.43	27784.50
503.60	28032.60
503.78	28084.09
503.95	28224.52
504.13	28383.68
504.30	28575.60
504.48	28627.09
504.65	28692.63
504.83	29149.03
505.01	29280.10
505.18	28922.00
505.36	29303.51
505.53	29179.46
505.71	29436.92
505.88	29551.60
506.06	29134.99
506.23	29340.96
506.41	29759.91
506.58	29422.87
506.76	29741.19
506.93	29687.36
507.11	30162.48
507.28	30157.80
507.46	29909.71
507.63	29905.02
507.81	30103.97
507.98	30122.69
508.16	30251.42
508.33	30354.41
508.50	30656.34
508.68	30679.74
508.85	31072.95
509.03	30483.14
509.20	30768.68
509.38	31129.12
509.55	30733.57
509.73	31187.64
509.90	31665.11
510.08	31519.99
510.25	31470.84
510.42	31379.56
510.60	31676.81
510.77	31517.65
510.95	31711.92
511.12	31896.82
511.30	32191.73
511.47	32472.59
511.64	32591.96
511.82	32535.79
511.99	32013.85
512.17	32245.56
512.34	32348.54
512.51	32451.53
512.69	32617.71
512.86	32320.46
513.04	32870.48
513.21	32804.95
513.38	32568.55
513.56	32802.61
513.73	32769.84
513.90	32823.67
514.08	33141.99
514.25	32929.00
514.43	33237.95
514.60	33373.70
514.77	32917.29
514.95	33542.22
515.12	33603.07
515.29	33303.48
515.47	33720.10
515.64	33907.34
515.81	33706.05
515.99	33610.09
516.16	33254.33
516.33	33612.43
516.51	33455.62
516.68	33010.92
516.85	33486.04
517.03	33654.56
517.20	33942.45
517.37	34071.18
517.54	34019.69
517.72	33919.04
517.89	34146.08
518.06	33390.08
518.24	34258.42
518.41	34120.33
518.58	34759.30
518.75	34520.56
518.93	34808.45
519.10	34405.88
519.27	34749.93
519.45	35157.19
519.62	34979.31
519.79	35379.54
519.96	35335.07
520.14	35402.94
520.31	34726.53
520.48	35501.25
520.65	35555.08
520.83	35330.39
521.00	35868.71
521.17	35632.32
521.34	35754.02
521.52	35917.86
521.69	35906.16
521.86	36451.50
522.03	36444.48
522.20	36236.17
522.38	36243.20
522.55	36172.98
522.72	36079.36
522.89	36219.79
523.07	36664.49
523.24	36336.82
523.41	36715.98
523.58	36582.57
523.75	37109.19
523.92	36875.14
524.10	37443.89
524.27	37275.37
524.44	37160.69
524.61	36996.85
524.78	37207.50
524.96	37560.92
525.13	37591.34
525.30	37675.60
525.47	38019.66
525.64	37706.03
525.81	37130.26
525.98	37427.51
526.16	37357.29
526.33	37165.37
526.50	37626.45
526.67	36671.51
526.84	36893.86
527.01	37301.12
527.18	37411.12
527.36	37780.93
527.53	38057.11
527.70	38405.85
527.87	38384.79
528.04	38014.98
528.21	38075.84
528.38	38202.22
528.55	38270.10
528.72	38190.52
528.89	39016.73
529.07	38520.54
529.24	38220.95
529.41	39044.82
529.58	38838.85
529.75	38955.88
529.92	39005.03
530.09	39260.15
530.26	39182.91
530.43	38857.57
530.60	38850.55
530.77	38820.13
530.94	39452.07
531.11	39189.93
531.28	39208.65
531.46	39564.42
531.63	39253.12
531.80	39173.55
531.97	39014.39
532.14	39416.96
532.31	38962.90
532.48	39264.83
532.65	39599.52
532.82	39227.38
532.99	39627.61
533.16	39494.20
533.33	39606.55
533.50	39971.67
533.67	39784.43
533.84	39522.29
534.01	39995.07
534.18	40105.08
534.35	40130.83
534.52	39800.81
534.69	40179.98
534.86	40797.88
535.03	40114.44
535.20	40355.52
535.37	40914.90
535.54	40603.61
535.71	40339.13
535.88	40858.73
536.05	40423.39
536.22	41163.00
536.38	40783.83
536.55	40629.36
536.72	40594.25
536.89	40446.80
537.06	40601.27
537.23	40495.95
537.40	40797.88
537.57	40964.06
537.74	40898.52
537.91	41062.36
538.08	40907.88
538.25	40858.73
538.42	40807.24
538.59	41242.58
538.75	40800.22
538.92	41064.70
539.09	40884.48
539.26	41469.61
539.43	40910.22
539.60	41174.70
539.77	41167.68
539.94	41216.83
540.11	41167.68
540.28	41467.27
540.44	41088.10
540.61	41214.49
540.78	41329.18
540.95	41340.88
541.12	40973.42
541.29	41757.50
541.46	41523.44
541.62	41940.06
541.79	41848.78
541.96	41537.49
542.13	41649.83
542.30	41776.22
542.47	41670.90
542.63	41921.34
542.80	41888.57
542.97	42363.70
543.14	42398.80
543.31	42464.34
543.48	42614.13
543.64	43002.66
543.81	42820.10
543.98	42246.67
544.15	42895.00
544.32	42630.52
544.48	43037.77
544.65	42595.41
544.82	43077.56
544.99	42789.67
545.16	43325.66
545.32	42618.81
545.49	43306.93
545.66	43150.12
545.83	43189.91
546.00	43606.52
546.16	43194.59
546.33	43295.23
546.50	42770.95
546.67	43239.06
546.83	42426.89
547.00	42759.25
547.17	43140.75
547.34	42923.08
547.50	42948.83
547.67	43622.90
547.84	43035.43
548.00	43379.49
548.17	43613.54
548.34	43831.21
548.51	43611.20
548.67	43627.59
548.84	43878.02
549.01	43477.79
549.18	43789.08
549.34	43569.07
549.51	43777.38
549.68	44135.48
549.84	43704.82
550.01	43835.89
550.18	43601.84
550.34	43936.54
550.51	43856.96
550.68	44079.31
550.84	43463.75
551.01	44069.95
551.18	44203.36
551.34	44168.25
551.51	44196.34
551.68	44236.12
551.84	44552.10
552.01	44023.14
552.18	44376.56
552.34	43920.15
552.51	44098.03
552.68	44362.51
552.84	44596.57
553.01	44325.07
553.18	44481.88
553.34	44189.31
553.51	44264.21
553.67	44388.26
553.84	44947.65
554.01	44706.57
554.17	44685.51
554.34	44844.66
554.51	44847.00
554.67	44903.18
554.84	44877.43
555.00	44802.53
555.17	44488.90
555.33	44844.66
555.50	44643.38
555.67	44769.77
555.83	44421.03
556.00	44626.99
556.16	45291.71
556.33	44697.21
556.50	45036.59
556.66	44839.98
556.83	45001.48
556.99	44931.26
557.16	44903.18
557.32	44952.33
557.49	44982.76
557.65	44851.69
557.82	45212.13
557.98	45118.51
558.15	45109.14
558.32	45291.71
558.48	44964.03
558.65	45048.29
558.81	44994.46
558.98	45186.38
559.14	45141.91
559.31	44900.84
559.47	45200.43
559.64	45237.87
559.80	45418.10
559.97	45111.49
560.13	45010.84
560.30	44919.56
560.46	45558.53
560.63	45170.00
560.79	45537.46
560.96	45553.85
561.12	45485.97
561.29	45399.37
561.45	45134.89
561.61	45478.95
561.78	44957.01
561.94	45088.08
562.11	45315.11
562.27	45776.20
562.44	45549.17
562.60	45624.06
562.77	45649.81
562.93	45628.74
563.10	45265.96
563.26	45076.38
563.42	45703.64
563.59	45294.05
563.75	45373.63
563.92	45460.23
564.08	45296.39
564.24	45518.74
564.41	45343.20
564.57	45099.78
564.74	45256.60
564.90	45783.22
565.07	45750.45
565.23	45762.15
565.39	45123.19
565.56	45893.22
565.72	45228.51
565.88	45914.29
566.05	45420.44
566.21	45666.19
566.38	45598.32
566.54	45881.52
566.70	45654.49
566.87	46064.08
567.03	45624.06
567.19	46485.38
567.36	46150.68
567.52	45731.73
567.68	45949.40
567.85	45727.05
568.01	45727.05
568.17	45542.14
568.34	45668.53
568.50	45759.81
568.66	45738.75
568.83	45900.25
568.99	45441.50
569.15	45635.77
569.32	45544.48
569.48	45682.58
569.64	46059.40
569.81	45851.09
569.97	46239.62
570.13	46281.75
570.30	45549.17
570.46	45846.41
570.62	45563.21
570.78	45694.28
570.95	45965.78
571.11	45734.07
571.27	45635.77
571.43	45614.70
571.60	45633.42
571.76	46078.13
571.92	45837.05
572.09	45708.32
572.25	45443.84
572.41	46099.19
572.57	46171.75
572.74	46330.90
572.90	45621.72
573.06	46085.15
573.22	45670.87
573.38	45879.18
573.55	45984.51
573.71	46131.96
573.87	45741.09
574.03	45586.61
574.20	46108.55
574.36	45619.38
574.52	45862.80
574.68	45872.16
574.84	46419.84
575.01	45881.52
575.17	46471.34
575.33	45860.46
575.49	45921.31
575.65	45949.40
575.82	45853.44
575.98	46033.66
576.14	46337.93
576.30	45612.36
576.46	46085.15
576.62	45553.85
576.79	45942.38
576.95	45560.87
577.11	45935.35
577.27	46082.81
577.43	46185.79
577.59	46124.94
577.75	45923.65
577.92	45357.24
578.08	45764.49
578.24	45567.89
578.40	45979.82
578.56	45808.96
578.72	46038.34
578.88	46089.83
579.04	46478.36
579.21	46183.45
579.37	46024.29
579.53	46146.00
579.69	45771.52
579.85	46241.96
580.01	46202.18
580.17	45790.24
580.33	46012.59
580.49	46080.47
580.65	46305.16
580.82	45865.14
580.98	45968.12
581.14	46312.18
581.30	45949.40
581.46	45633.42
581.62	45900.25
581.78	46377.72
581.94	46014.93
582.10	45607.68
582.26	46171.75
582.42	46057.06
582.58	46330.90
582.74	46415.16
582.90	46237.28
583.06	46377.72
583.22	46265.37
583.38	46295.80
583.54	46103.87
583.70	46307.50
583.86	45972.80
584.02	45851.09
584.18	46288.77
584.34	45853.44
584.50	45961.10
584.66	46443.25
584.82	45689.60
584.98	46560.28
585.14	46328.56
585.30	46026.63
585.46	46293.46
585.62	46167.07
585.78	46127.28
585.94	45916.63
586.10	46131.96
586.26	46202.18
586.42	46270.05
586.58	46260.69
586.74	46012.59
586.90	46305.16
587.06	46000.89
587.22	46122.60
587.38	46059.40
587.54	46279.41
587.70	46642.20
587.86	46490.06
588.02	46260.69
588.18	46342.61
588.34	46014.93
588.49	45591.30
588.65	45502.35
588.81	45055.31
588.97	45933.01
589.13	45223.83
589.29	46096.85
589.45	46073.45
589.61	46204.52
589.77	46461.97
589.93	46085.15
