SpectraSuite Data File
++++++++++++++++++++++++++++++++++++
Date: Fri Oct 25 10:43:27 EDT 2013
User: price-jones
Dark Spectrum Present: No
Reference Spectrum Present: No
Number of Sampled Component Spectra: 1
Spectrometers: USB2+H05261
Integration Time (usec): 100000 (USB2+H05261)
Spectra Averaged: 1 (USB2+H05261)
Boxcar Smoothing: 0 (USB2+H05261)
Correct for Electrical Dark: No (USB2+H05261)
Strobe/Lamp Enabled: No (USB2+H05261)
Correct for Detector Non-linearity: No (USB2+H05261)
Correct for Stray Light: No (USB2+H05261)
Number of Pixels in Processed Spectrum: 2048
>>>>>Begin Processed Spectral Data<<<<<
365.73	42.13
365.92	42.13
366.12	42.13
366.32	65.54
366.52	0.00
366.72	91.28
366.91	0.00
367.11	0.00
367.31	0.00
367.51	0.00
367.70	0.00
367.90	42.13
368.10	0.00
368.30	32.77
368.49	4.68
368.69	11.70
368.89	95.96
369.09	70.22
369.28	133.41
369.48	91.28
369.68	70.22
369.87	105.32
370.07	95.96
370.27	124.05
370.47	168.52
370.66	341.72
370.86	433.00
371.06	486.83
371.25	444.70
371.45	472.79
371.65	477.47
371.84	433.00
372.04	479.81
372.24	482.15
372.44	395.55
372.63	575.77
372.83	596.84
373.03	528.96
373.22	575.77
373.42	545.34
373.62	533.64
373.81	568.75
374.01	627.26
374.21	585.13
374.40	526.62
374.60	538.32
374.79	531.30
374.99	545.34
375.19	524.28
375.38	610.88
375.58	582.79
375.78	538.32
375.97	617.90
376.17	587.47
376.37	533.64
376.56	638.97
376.76	617.90
376.95	594.50
377.15	636.63
377.35	643.65
377.54	655.35
377.74	648.33
377.93	664.71
378.13	643.65
378.33	676.41
378.52	615.56
378.72	699.82
378.91	676.41
379.11	631.94
379.31	648.33
379.50	734.93
379.70	608.54
379.89	655.35
380.09	634.29
380.28	699.82
380.48	716.20
380.68	688.12
380.87	690.46
381.07	685.78
381.26	683.44
381.46	727.91
381.65	711.52
381.85	734.93
382.04	720.88
382.24	606.20
382.43	634.29
382.63	702.16
382.83	681.10
383.02	709.18
383.22	805.14
383.41	704.50
383.61	758.33
383.80	826.21
384.00	812.17
384.19	765.36
384.39	896.43
384.58	844.93
384.78	849.61
384.97	830.89
385.17	821.53
385.36	807.48
385.56	772.38
385.75	770.04
385.95	777.06
386.14	837.91
386.34	854.30
386.53	809.83
386.72	725.57
386.92	898.77
387.11	868.34
387.31	861.32
387.50	770.04
387.70	875.36
387.89	856.64
388.09	919.83
388.28	847.27
388.48	854.30
388.67	880.04
388.86	938.55
389.06	983.02
389.25	931.53
389.45	976.00
389.64	957.28
389.84	959.62
390.03	1001.75
390.22	1057.92
390.42	990.05
390.61	903.45
390.81	929.19
391.00	994.73
391.19	987.71
391.39	957.28
391.58	999.41
391.78	1090.69
391.97	1069.62
392.16	1018.13
392.36	999.41
392.55	1015.79
392.75	987.71
392.94	980.68
393.13	1102.39
393.33	1046.22
393.52	966.64
393.71	1015.79
393.91	964.30
394.10	1118.78
394.29	1247.51
394.49	1118.78
394.68	1247.51
394.88	1242.82
395.07	1284.95
395.26	1245.16
395.46	1270.91
395.65	1313.04
395.84	1146.86
396.04	1238.14
396.23	1160.91
396.42	1128.14
396.62	1114.10
396.81	1132.82
397.00	1270.91
397.19	1181.97
397.39	1317.72
397.58	1399.64
397.77	1352.83
397.97	1401.98
398.16	1434.75
398.35	1521.35
398.55	1488.58
398.74	1423.05
398.93	1474.54
399.12	1469.86
399.32	1413.68
399.51	1472.20
399.70	1547.09
399.90	1537.73
400.09	1570.50
400.28	1584.54
400.47	1624.33
400.67	1753.06
400.86	1668.80
401.05	1572.84
401.24	1640.72
401.44	1717.95
401.63	1692.21
401.82	1629.01
402.01	1710.93
402.21	1666.46
402.40	1755.40
402.59	1694.55
402.78	1694.55
402.97	1785.83
403.17	1792.85
403.36	1776.47
403.55	1778.81
403.74	1827.96
403.93	1771.79
404.13	1834.98
404.32	1907.54
404.51	1870.09
404.70	1851.36
404.89	1867.75
405.09	1912.22
405.28	2003.50
405.47	1944.99
405.66	1984.77
405.85	1914.56
406.05	1888.81
406.24	1907.54
406.43	1975.41
406.62	2066.69
406.81	2153.29
407.00	2066.69
407.20	2066.69
407.39	1989.46
407.58	2087.76
407.77	2172.02
407.96	2155.63
408.15	2207.13
408.34	2200.10
408.54	2157.97
408.73	2289.04
408.92	2349.90
409.11	2260.96
409.30	2162.66
409.49	2174.36
409.68	2218.83
409.87	2249.25
410.07	2326.49
410.26	2289.04
410.45	2354.58
410.64	2380.32
410.83	2457.56
411.02	2424.80
411.21	2476.29
411.40	2609.70
411.59	2609.70
411.78	2602.68
411.98	2612.04
412.17	2745.45
412.36	2689.28
412.55	2574.59
412.74	2747.79
412.93	2628.42
413.12	2679.91
413.31	2808.64
413.50	2796.94
413.69	2780.56
413.88	2771.19
414.07	2902.26
414.26	2881.20
414.45	2916.31
414.64	2853.11
414.83	2930.35
415.02	3105.89
415.22	3087.17
415.41	3115.25
415.60	2984.18
415.79	3201.85
415.98	3225.26
416.17	3258.03
416.36	3213.56
416.55	3105.89
416.74	3269.73
416.93	3208.87
417.12	3220.58
417.31	3323.56
417.50	3307.18
417.69	3372.71
417.88	3410.16
418.07	3393.78
418.26	3283.77
418.45	3288.45
418.64	3578.68
418.83	3377.39
419.02	3337.60
419.21	3501.44
419.39	3489.74
419.58	3389.10
419.77	3435.91
419.96	3569.32
420.15	3674.64
420.34	3574.00
420.53	3733.15
420.72	3735.50
420.91	3805.71
421.10	3709.75
421.29	3812.73
421.48	3700.39
421.67	3761.24
421.86	3719.11
422.05	3866.56
422.24	3719.11
422.43	3648.90
422.61	3695.71
422.80	3866.56
422.99	3880.61
423.18	3810.39
423.37	3763.58
423.56	3894.65
423.75	3798.69
423.94	3854.86
424.13	3552.93
424.32	3794.01
424.50	3805.71
424.69	3932.10
424.88	3911.04
425.07	3824.44
425.26	3763.58
425.45	3896.99
425.64	3882.95
425.83	3955.51
426.01	3859.54
426.20	3932.10
426.39	4063.17
426.58	3913.38
426.77	3920.40
426.96	3817.41
427.15	3810.39
427.33	3845.50
427.52	3948.48
427.71	4046.79
427.90	4102.96
428.09	4135.73
428.28	4079.55
428.46	4145.09
428.65	4021.04
428.84	4304.25
429.03	4271.48
429.22	4058.49
429.40	4114.66
429.59	4093.60
429.78	3836.14
429.97	3749.54
430.16	4028.06
430.34	3957.85
430.53	4131.05
430.72	4203.60
430.91	4084.23
431.10	4308.93
431.28	4566.39
431.47	4550.00
431.66	4538.30
431.85	4414.25
432.03	4727.88
432.22	4624.90
432.41	4524.26
432.60	4615.54
432.79	4589.79
432.97	4762.99
433.16	4510.21
433.35	4608.51
433.54	4552.34
433.72	4568.73
433.91	4615.54
434.10	4617.88
434.28	4781.71
434.47	4737.24
434.66	4774.69
434.85	4807.46
435.03	4814.48
435.22	4854.27
435.41	4971.30
435.59	4835.55
435.78	5107.05
435.97	5181.95
436.16	4887.04
436.34	5006.41
436.53	4980.66
436.72	5135.14
436.90	4793.42
437.09	5177.26
437.28	4961.94
437.46	5046.20
437.65	5067.26
437.84	5004.07
438.02	5036.83
438.21	4903.42
438.40	5100.03
438.58	5263.86
438.77	5308.34
438.96	5240.46
439.14	5549.41
439.33	5446.43
439.52	5561.11
439.70	5483.88
439.89	5523.66
440.08	5621.97
440.26	5614.95
440.45	5720.27
440.63	5603.24
440.82	5802.19
441.01	5865.38
441.19	5963.68
441.38	5856.02
441.57	6015.18
441.75	6228.17
441.94	6207.10
442.12	6164.97
442.31	6277.32
442.50	6274.98
442.68	6251.57
442.87	6286.68
443.05	6347.53
443.24	6289.02
443.43	6317.11
443.61	6265.61
443.80	6450.52
443.98	6410.73
444.17	6101.78
444.35	6403.71
444.54	6539.46
444.73	6480.94
444.91	6349.87
445.10	6499.67
445.28	6497.33
445.47	6127.52
445.65	6244.55
445.84	6574.56
446.02	6509.03
446.21	6560.52
446.39	6607.33
446.58	6497.33
446.77	6518.39
446.95	6399.02
447.14	6675.21
447.32	6672.87
447.51	6347.53
447.69	6417.75
447.88	6368.60
448.06	6604.99
448.25	6626.06
448.43	6801.60
448.62	6649.46
448.80	6740.74
448.99	6829.68
449.17	6782.87
449.36	6738.40
449.54	6881.18
449.73	6984.16
449.91	7148.00
450.10	7054.37
450.28	7253.32
450.46	7112.89
450.65	7143.32
450.83	7094.16
451.02	7042.67
451.20	6953.73
451.39	7173.74
451.57	7159.70
451.76	7091.82
451.94	7084.80
452.13	7220.55
452.31	7084.80
452.49	6911.60
452.68	7201.83
452.86	6932.67
453.05	7162.04
453.23	7126.93
453.42	7112.89
453.60	7220.55
453.78	7363.33
453.97	7288.43
454.15	7300.13
454.34	7145.66
454.52	7630.15
454.70	7372.69
454.89	7426.52
455.07	7522.48
455.26	7360.98
455.44	7548.23
455.62	7485.03
455.81	7616.10
455.99	7620.78
456.17	7775.26
456.36	7782.28
456.54	7838.45
456.73	7948.46
456.91	7929.74
457.09	7840.79
457.28	8196.56
457.46	8016.33
457.64	8121.66
457.83	8077.19
458.01	7868.88
458.19	8219.96
458.38	8004.63
458.56	8039.74
458.74	7990.59
458.93	8044.42
459.11	8329.97
459.29	7957.82
459.48	8140.38
459.66	8170.81
459.84	8402.52
460.03	8528.91
460.21	8418.91
460.39	8376.78
460.57	8196.56
460.76	8409.54
460.94	8367.42
461.12	8479.76
461.31	8428.27
461.49	8585.08
461.67	8578.06
461.85	8805.10
462.04	8557.00
462.22	9001.70
462.40	8662.32
462.59	8557.00
462.77	8688.07
462.95	8938.51
463.13	8849.57
463.32	8870.63
463.50	8802.75
463.68	8814.46
463.86	8879.99
464.05	8732.54
464.23	8823.82
464.41	8929.14
464.59	8826.16
464.78	9071.92
464.96	8938.51
465.14	8875.31
465.32	8997.02
465.50	9064.89
465.69	9116.39
465.87	9092.98
466.05	9224.05
466.23	8947.87
466.41	9205.33
466.60	9329.38
466.78	8954.89
466.96	9078.94
467.14	9156.18
467.32	9233.41
467.51	9298.95
467.69	9090.64
467.87	9160.86
468.05	9298.95
468.23	9268.52
468.41	9287.25
468.60	9420.66
468.78	9572.79
468.96	9380.87
469.14	9734.29
469.32	9563.43
469.50	9282.56
469.69	9699.18
469.87	9790.46
470.05	9750.67
470.23	9603.22
470.41	9584.49
470.59	9893.44
470.77	9755.35
470.95	9893.44
471.14	9886.42
471.32	9628.96
471.50	10076.01
471.68	10326.44
471.86	10106.43
472.04	10373.25
472.22	10410.70
472.40	10064.30
472.58	10253.89
472.77	10300.70
472.95	10328.78
473.13	10836.68
473.31	10429.43
473.49	10296.02
473.67	10562.84
473.85	10607.31
474.03	10890.51
474.21	10663.48
474.39	10834.34
474.57	10759.44
474.75	11068.39
474.93	10909.24
475.12	10965.41
475.30	11000.52
475.48	10951.37
475.66	11126.91
475.84	10937.32
476.02	11122.23
476.20	11197.12
476.38	11496.71
476.56	11667.57
476.74	11744.81
476.92	11651.19
477.10	11559.91
477.28	11765.87
477.46	11946.09
477.64	12063.12
477.82	12294.83
478.00	12182.49
478.18	12166.10
478.36	12393.14
478.54	12482.08
478.72	12549.95
478.90	12629.53
479.08	12676.34
479.26	12905.71
479.44	12915.08
479.62	12891.67
479.80	12741.88
479.98	13181.90
480.16	13448.72
480.34	13259.13
480.52	13472.12
480.70	13408.93
480.88	13458.08
481.06	13666.39
481.24	13738.94
481.41	14157.90
481.59	13984.70
481.77	14064.28
481.95	14029.17
482.13	14333.44
482.31	14359.19
482.49	14658.78
482.67	14626.01
482.85	14696.22
483.03	15047.30
483.21	15234.55
483.39	14876.44
483.57	15267.31
483.74	15150.29
483.92	15555.20
484.10	15337.53
484.28	15587.97
484.46	15681.59
484.64	16187.14
484.82	15836.06
485.00	15864.15
485.18	16255.02
485.35	16428.22
485.53	15861.81
485.71	15590.31
485.89	16278.43
486.07	15999.90
486.25	16587.38
486.43	16655.25
486.61	16475.03
486.78	16926.75
486.96	17308.26
487.14	17415.93
487.32	17554.02
487.50	17401.88
487.68	17944.89
487.85	18036.17
488.03	18094.68
488.21	18284.26
488.39	18157.88
488.57	18490.23
488.75	18408.31
488.92	18817.91
489.10	18672.79
489.28	19070.68
489.46	19384.32
489.64	19154.94
489.81	19742.42
489.99	20023.28
490.17	19660.50
490.35	20009.24
490.53	20013.92
490.70	20042.01
490.88	20056.05
491.06	20444.58
491.24	20432.88
491.41	20194.14
491.59	20493.73
491.77	20374.36
491.95	20716.08
492.13	21076.52
492.30	21348.03
492.48	21003.97
492.66	21495.48
492.84	21834.86
493.01	21823.16
493.19	21647.61
493.37	21905.07
493.54	22118.06
493.72	21865.28
493.90	22150.83
494.08	22628.30
494.25	22857.67
494.43	22927.89
494.61	22918.53
494.79	23150.24
494.96	23225.14
495.14	23061.30
495.32	23271.95
495.49	23407.70
495.67	23325.78
495.85	23887.51
496.02	23950.70
496.20	23873.46
496.38	24182.42
496.55	24159.01
496.73	24751.17
496.91	24191.78
497.09	24343.91
497.26	24666.91
497.44	24915.00
497.62	25113.95
497.79	25116.29
497.97	24828.40
498.14	25111.61
498.32	25205.23
498.50	25151.40
498.67	25455.67
498.85	25781.00
499.03	25710.78
499.20	26045.48
499.38	26153.15
499.56	26190.59
499.73	26068.89
499.91	25802.07
500.08	26190.59
500.26	25972.92
500.44	26361.45
500.61	26218.68
500.79	26422.31
500.97	26560.40
501.14	27028.51
501.32	26632.96
501.49	26506.57
501.67	26747.64
501.84	27190.00
502.02	27150.21
502.20	27161.92
502.37	27513.00
502.55	27487.25
502.72	27321.07
502.90	27835.99
503.07	27475.55
503.25	27789.18
503.43	27756.41
503.60	27812.59
503.78	27992.81
503.95	27644.07
504.13	28203.46
504.30	27992.81
504.48	27962.38
504.65	28266.65
504.83	28383.68
505.01	28367.29
505.18	29123.29
505.36	28779.23
505.53	28996.90
505.71	29039.03
505.88	29535.22
506.06	28914.98
506.23	29530.54
506.41	29053.07
506.58	29158.39
506.76	29415.85
506.93	29577.35
507.11	29586.71
507.28	29465.00
507.46	29610.12
507.63	29699.06
507.81	29989.28
507.98	29408.83
508.16	29823.11
508.33	30022.05
508.50	30195.25
508.68	30305.26
508.85	30665.70
509.03	30654.00
509.20	30768.68
509.38	31164.23
509.55	30967.63
509.73	31079.97
509.90	30944.22
510.08	31108.06
510.25	31260.20
510.42	31248.49
510.60	31342.11
510.77	31269.56
510.95	31613.62
511.12	31468.50
511.30	31702.56
511.47	31917.89
511.64	31903.84
511.82	31927.25
511.99	31948.31
512.17	32116.83
512.34	31817.24
512.51	32292.37
512.69	32481.95
512.86	32123.85
513.04	32488.98
513.21	32390.67
513.38	32449.19
513.56	32215.13
513.73	32290.03
513.90	32563.87
514.08	32694.94
514.25	32254.92
514.43	32673.88
514.60	32823.67
514.77	32863.46
514.95	33244.97
515.12	33003.89
515.29	33062.41
515.47	33750.52
515.64	33647.54
515.81	33406.47
515.99	33546.90
516.16	33759.89
516.33	33399.44
516.51	33198.16
516.68	32907.93
516.85	33069.43
517.03	32914.95
517.20	33745.84
517.37	33912.02
517.54	33905.00
517.72	33956.49
517.89	33209.86
518.06	33408.81
518.24	33347.95
518.41	33949.47
518.58	33944.79
518.75	34391.83
518.93	34368.43
519.10	34225.65
519.27	34520.56
519.45	34246.72
519.62	34979.31
519.79	35012.07
519.96	34501.84
520.14	34897.39
520.31	34813.13
520.48	34698.44
520.65	34939.52
520.83	35185.27
521.00	35421.67
521.17	35318.68
521.34	35299.96
521.52	35840.62
521.69	35283.58
521.86	35709.55
522.03	36023.19
522.20	35842.96
522.38	35938.93
522.55	36013.82
522.72	36095.74
522.89	35388.90
523.07	36486.61
523.24	36341.50
523.41	36491.29
523.58	36360.22
523.75	36947.70
523.92	36627.04
524.10	36535.76
524.27	37076.43
524.44	36645.77
524.61	36549.81
524.78	36725.35
524.96	36964.08
525.13	36935.99
525.30	37139.62
525.47	37244.94
525.64	36959.40
525.81	37156.00
525.98	36680.88
526.16	36811.95
526.33	36840.03
526.50	36875.14
526.67	36488.95
526.84	36811.95
527.01	36954.72
527.18	36879.82
527.36	37783.27
527.53	37970.51
527.70	38237.33
527.87	37460.27
528.04	37766.88
528.21	37773.91
528.38	37727.10
528.55	38059.45
528.72	38396.49
528.89	38323.93
529.07	38323.93
529.24	38169.46
529.41	38724.16
529.58	38384.79
529.75	38183.50
529.92	38623.52
530.09	38663.31
530.26	39044.82
530.43	38965.24
530.60	38569.69
530.77	38349.68
530.94	39154.82
531.11	38597.77
531.28	38916.09
531.46	38644.59
531.63	39208.65
531.80	38918.43
531.97	38850.55
532.14	39168.87
532.31	38419.89
532.48	38873.96
532.65	39220.36
532.82	38878.64
532.99	39072.90
533.16	38843.53
533.33	39208.65
533.50	39658.04
533.67	39636.97
533.84	39192.27
534.01	39292.91
534.18	39229.72
534.35	39756.34
534.52	39524.63
534.69	39592.50
534.86	40374.24
535.03	40109.76
535.20	39955.29
535.37	40570.85
535.54	40697.24
535.71	40172.96
535.88	40327.43
536.05	39849.96
536.22	40142.53
536.38	40360.20
536.55	39885.07
536.72	40449.14
536.89	40158.91
537.06	40116.78
537.23	40982.78
537.40	40575.53
537.57	40573.19
537.74	40594.25
537.91	40739.36
538.08	40830.65
538.25	40584.89
538.42	40903.20
538.59	41184.07
538.75	40638.72
538.92	40767.45
539.09	40879.80
539.26	41024.91
539.43	41092.79
539.60	40814.26
539.77	40790.86
539.94	41265.99
540.11	40933.63
540.28	41366.63
540.44	41006.19
540.61	41366.63
540.78	40800.22
540.95	41263.64
541.12	41146.62
541.29	41120.87
541.46	41097.47
541.62	41542.17
541.79	41521.10
541.96	41055.34
542.13	41064.70
542.30	41336.20
542.47	41375.99
542.63	41378.33
542.80	41663.88
542.97	42108.58
543.14	42206.88
543.31	42017.30
543.48	42260.71
543.64	43035.43
543.81	42443.27
543.98	42703.07
544.15	42279.44
544.32	41872.18
544.48	42536.90
544.65	42480.72
544.82	42307.52
544.99	41858.14
545.16	42363.70
545.32	41996.23
545.49	43058.84
545.66	42691.37
545.83	42794.36
546.00	42593.07
546.16	42572.00
546.33	42557.96
546.50	42742.86
546.67	42756.91
546.83	42199.86
547.00	42651.58
547.17	42426.89
547.34	42576.69
547.50	43136.07
547.67	43117.35
547.84	43164.16
548.00	43054.15
548.17	43058.84
548.34	43349.06
548.51	43618.22
548.67	43349.06
548.84	43475.45
549.01	43213.31
549.18	43105.65
549.34	43400.55
549.51	43182.88
549.68	43328.00
549.84	43463.75
550.01	43440.34
550.18	43482.47
550.34	43524.60
550.51	43496.52
550.68	43241.40
550.84	43014.37
551.01	43777.38
551.18	43281.19
551.34	43681.42
551.51	43936.54
551.68	44011.43
551.84	43789.08
552.01	43119.69
552.18	43807.81
552.34	43529.28
552.51	44102.71
552.68	44074.63
552.84	44027.82
553.01	44205.70
553.18	43824.19
553.34	43875.68
553.51	44025.48
553.67	44222.08
553.84	44318.04
554.01	44196.34
554.17	44231.44
554.34	44509.97
554.51	44034.84
554.67	44055.90
554.84	43887.39
555.00	43871.00
555.17	43915.47
555.33	44416.35
555.50	44243.15
555.67	44226.76
555.83	44163.57
556.00	44128.46
556.16	44641.04
556.33	44088.67
556.50	44020.80
556.66	44432.73
556.83	44217.40
556.99	44385.92
557.16	44790.83
557.32	44421.03
557.49	44919.56
557.65	44219.74
557.82	44261.87
557.98	44542.74
558.15	44287.62
558.32	44346.13
558.48	44414.01
558.65	44657.42
558.81	44638.70
558.98	44488.90
559.14	44509.97
559.31	44526.35
559.47	44662.10
559.64	44727.64
559.80	44481.88
559.97	45062.33
560.13	44353.15
560.30	44807.22
560.46	44619.97
560.63	44940.63
560.79	44858.71
560.96	45338.52
561.12	44568.48
561.29	44924.24
561.45	44701.89
561.61	44854.03
561.78	44842.32
561.94	44467.84
562.11	44535.71
562.27	44781.47
562.44	44900.84
562.60	44992.12
562.77	44687.85
562.93	45233.19
563.10	45240.21
563.26	44605.93
563.42	45406.39
563.59	45043.61
563.75	44877.43
563.92	45460.23
564.08	45418.10
564.24	45666.19
564.41	45230.85
564.57	45074.04
564.74	44912.54
564.90	45251.92
565.07	44928.92
565.23	45123.19
565.39	45050.63
565.56	45387.67
565.72	44774.45
565.88	45174.68
566.05	45457.88
566.21	45031.91
566.38	44933.60
566.54	45235.53
566.70	45212.13
566.87	45237.87
567.03	45858.12
567.19	45705.98
567.36	45223.83
567.52	45315.11
567.68	45507.04
567.85	45242.56
568.01	45326.81
568.17	45097.44
568.34	45380.65
568.50	45558.53
568.66	45256.60
568.83	45471.93
568.99	45081.06
569.15	45127.87
569.32	45485.97
569.48	45017.86
569.64	45158.30
569.81	45631.08
569.97	45549.17
570.13	45661.51
570.30	45172.34
570.46	44905.52
570.62	45254.26
570.78	44678.49
570.95	45167.66
571.11	45013.18
571.27	45212.13
571.43	45301.07
571.60	45247.24
571.76	45446.18
571.92	45244.90
572.09	45516.40
572.25	45584.27
572.41	45848.75
572.57	46162.39
572.74	46003.23
572.90	45382.99
573.06	45502.35
573.22	45542.14
573.38	45155.96
573.55	44828.28
573.71	45588.95
573.87	45497.67
574.03	45280.00
574.20	45329.16
574.36	45474.27
574.52	45097.44
574.68	45317.45
574.84	45399.37
575.01	44931.26
575.17	45272.98
575.33	45305.75
575.49	44978.07
575.65	45483.63
575.82	45883.86
575.98	45528.10
576.14	45556.19
576.30	45570.23
576.46	45312.77
576.62	45043.61
576.79	45488.31
576.95	45474.27
577.11	45663.85
577.27	45977.48
577.43	45170.00
577.59	45638.11
577.75	44982.76
577.92	45233.19
578.08	45237.87
578.24	44989.78
578.40	45333.84
578.56	45600.66
578.72	45558.53
578.88	45645.13
579.04	45488.31
579.21	45254.26
579.37	45713.00
579.53	45397.03
579.69	45600.66
579.85	45275.32
580.01	46036.00
580.17	45296.39
580.33	45930.67
580.49	45666.19
580.65	45546.82
580.82	45450.86
580.98	45532.78
581.14	45366.60
581.30	45759.81
581.46	45631.08
581.62	45841.73
581.78	45586.61
581.94	46057.06
582.10	45773.86
582.26	45921.31
582.42	45247.24
582.58	45485.97
582.74	45600.66
582.90	45687.26
583.06	45757.47
583.22	45750.45
583.38	45603.00
583.54	45968.12
583.70	46026.63
583.86	45397.03
584.02	45464.91
584.18	45918.97
584.34	45588.95
584.50	45720.02
584.66	46024.29
584.82	45420.44
584.98	45720.02
585.14	45701.30
585.30	45179.36
585.46	45696.62
585.62	45333.84
585.78	45647.47
585.94	45132.55
586.10	45624.06
586.26	45392.35
586.42	45881.52
586.58	45734.07
586.74	45439.16
586.90	45694.28
587.06	45411.07
587.22	45738.75
587.38	45701.30
587.54	45773.86
587.70	45867.48
587.86	45514.06
588.02	46021.95
588.18	45855.78
588.34	45233.19
588.49	45464.91
588.65	45092.76
588.81	45141.91
588.97	45310.43
589.13	45095.10
589.29	45158.30
589.45	45631.08
589.61	45551.51
589.77	45710.66
589.93	45598.32
590.08	46021.95
