SpectraSuite Data File
++++++++++++++++++++++++++++++++++++
Date: Fri Oct 25 11:26:07 EDT 2013
User: price-jones
Dark Spectrum Present: No
Reference Spectrum Present: No
Number of Sampled Component Spectra: 1
Spectrometers: USB2+H05261
Integration Time (usec): 100000 (USB2+H05261)
Spectra Averaged: 1 (USB2+H05261)
Boxcar Smoothing: 0 (USB2+H05261)
Correct for Electrical Dark: No (USB2+H05261)
Strobe/Lamp Enabled: No (USB2+H05261)
Correct for Detector Non-linearity: No (USB2+H05261)
Correct for Stray Light: No (USB2+H05261)
Number of Pixels in Processed Spectrum: 2048
>>>>>Begin Processed Spectral Data<<<<<
365.73	308.95
365.92	308.95
366.12	308.95
366.32	93.62
366.52	156.82
366.72	135.75
366.91	149.79
367.11	135.75
367.31	135.75
367.51	152.13
367.70	159.16
367.90	198.95
368.10	163.84
368.30	138.09
368.49	112.35
368.69	217.67
368.89	168.52
369.09	131.07
369.28	250.44
369.48	170.86
369.68	182.56
369.87	140.43
370.07	236.39
370.27	276.18
370.47	322.99
370.66	505.56
370.86	650.67
371.06	697.48
371.25	711.52
371.45	798.12
371.65	671.73
371.84	681.10
372.04	645.99
372.24	657.69
372.44	809.83
372.63	755.99
372.83	702.16
373.03	690.46
373.22	777.06
373.42	798.12
373.62	777.06
373.81	835.57
374.01	746.63
374.21	788.76
374.40	774.72
374.60	861.32
374.79	774.72
374.99	840.25
375.19	772.38
375.38	788.76
375.58	812.17
375.78	840.25
375.97	880.04
376.17	950.26
376.37	835.57
376.56	903.45
376.76	898.77
376.95	1008.77
377.15	894.08
377.35	966.64
377.54	844.93
377.74	990.05
377.93	952.60
378.13	896.43
378.33	873.02
378.52	964.30
378.72	985.37
378.91	1022.81
379.11	898.77
379.31	905.79
379.50	980.68
379.70	894.08
379.89	1062.60
380.09	1081.33
380.28	994.73
380.48	887.06
380.68	922.17
380.87	940.90
381.07	1022.81
381.26	1069.62
381.46	973.66
381.65	994.73
381.85	1022.81
382.04	1137.50
382.24	1008.77
382.43	1022.81
382.63	1088.35
382.83	1097.71
383.02	1142.18
383.22	1156.22
383.41	985.37
383.61	1041.54
383.80	1088.35
384.00	1086.01
384.19	1071.97
384.39	1273.25
384.58	1156.22
384.78	1123.46
384.97	1097.71
385.17	1128.14
385.36	1146.86
385.56	1146.86
385.75	1174.95
385.95	1160.91
386.14	1245.16
386.34	1170.27
386.53	1170.27
386.72	1174.95
386.92	1280.27
387.11	1338.79
387.31	1261.55
387.50	1252.19
387.70	1254.53
387.89	1273.25
388.09	1294.32
388.28	1273.25
388.48	1306.02
388.67	1327.08
388.86	1224.10
389.06	1280.27
389.25	1376.24
389.45	1397.30
389.64	1404.32
389.84	1495.60
390.03	1352.83
390.22	1446.45
390.42	1448.79
390.61	1394.96
390.81	1455.81
391.00	1481.56
391.19	1495.60
391.39	1497.94
391.58	1474.54
391.78	1406.66
391.97	1528.37
392.16	1418.36
392.36	1533.05
392.55	1521.35
392.75	1603.27
392.94	1556.46
393.13	1509.65
393.33	1565.82
393.52	1476.88
393.71	1664.12
393.91	1582.20
394.10	1657.10
394.29	1540.07
394.49	1561.14
394.68	1664.12
394.88	1561.14
395.07	1629.01
395.26	1717.95
395.46	1666.46
395.65	1692.21
395.84	1675.82
396.04	1755.40
396.23	1769.44
396.42	1717.95
396.62	1708.59
396.81	1832.64
397.00	1748.38
397.19	1727.32
397.39	1816.26
397.58	1816.26
397.77	1809.23
397.97	1849.02
398.16	1811.57
398.35	1823.28
398.55	1867.75
398.74	1872.43
398.93	1933.28
399.12	2036.27
399.32	1870.09
399.51	1944.99
399.70	2087.76
399.90	1952.01
400.09	1973.07
400.28	2066.69
400.47	2043.29
400.67	2104.14
400.86	2050.31
401.05	2148.61
401.24	2122.87
401.44	2062.01
401.63	2160.31
401.82	2211.81
402.01	2111.16
402.21	2118.18
402.40	2169.68
402.59	2230.53
402.78	2057.33
402.97	2270.32
403.17	2258.62
403.36	2373.30
403.55	2258.62
403.74	2438.84
403.93	2385.01
404.13	2277.34
404.32	2389.69
404.51	2373.30
404.70	2495.01
404.89	2429.48
405.09	2455.22
405.28	2534.80
405.47	2450.54
405.66	2513.74
405.85	2551.18
406.05	2436.50
406.24	2593.31
406.43	2539.48
406.62	2590.97
406.81	2675.23
407.00	2672.89
407.20	2672.89
407.39	2656.51
407.58	2642.46
407.77	2644.81
407.96	2792.26
408.15	2710.34
408.34	2712.68
408.54	2911.63
408.73	2789.92
408.92	2785.24
409.11	2967.80
409.30	2928.01
409.49	2733.75
409.68	2918.65
409.87	2965.46
410.07	3049.72
410.26	2911.63
410.45	3000.57
410.64	2935.03
410.83	3152.70
411.02	3089.51
411.21	2913.97
411.40	3227.60
411.59	3236.96
411.78	3115.25
411.98	3185.47
412.17	3197.17
412.36	3349.31
412.55	3283.77
412.74	3349.31
412.93	3403.14
413.12	3386.76
413.31	3641.87
413.50	3431.23
413.69	3391.44
413.88	3653.58
414.07	3599.74
414.26	3707.41
414.45	3669.96
414.64	3777.62
414.83	3667.62
415.02	3749.54
415.22	3747.20
415.41	3859.54
415.60	3815.07
415.79	3983.59
415.98	3974.23
416.17	4126.36
416.36	3936.78
416.55	4016.36
416.74	4058.49
416.93	4011.68
417.12	4084.23
417.31	4215.30
417.50	4056.15
417.69	4236.37
417.88	4292.54
418.07	4285.52
418.26	4369.78
418.45	4379.14
418.64	4470.42
418.83	4608.51
419.02	4524.26
419.21	4538.30
419.39	4617.88
419.58	4440.00
419.77	4292.54
419.96	4571.07
420.15	4503.19
420.34	4566.39
420.53	4596.81
420.72	4706.82
420.91	4657.67
421.10	4716.18
421.29	4936.19
421.48	4709.16
421.67	4765.33
421.86	4943.21
422.05	4774.69
422.24	4788.74
422.43	4821.50
422.61	4861.29
422.80	5069.60
422.99	4952.57
423.18	4952.57
423.37	5184.29
423.56	4936.19
423.75	4800.44
423.94	4798.10
424.13	4683.41
424.32	4755.97
424.50	5090.67
424.69	5053.22
424.88	4968.96
425.07	5085.98
425.26	4809.80
425.45	5053.22
425.64	4990.02
425.83	4945.55
426.01	5128.11
426.20	5048.54
426.39	5078.96
426.58	4903.42
426.77	4943.21
426.96	5139.82
427.15	5116.41
427.33	5158.54
427.52	5118.75
427.71	5210.03
427.90	5280.25
428.09	5451.11
428.28	5277.91
428.46	5357.49
428.65	5411.32
428.84	5640.69
429.03	5607.92
429.22	5481.53
429.40	5411.32
429.59	5357.49
429.78	5245.14
429.97	5261.52
430.16	5511.96
430.34	5589.20
430.53	5544.73
430.72	5575.16
430.91	5736.65
431.10	5472.17
431.28	5652.39
431.47	5596.22
431.66	5877.09
431.85	5738.99
432.03	6036.24
432.22	5914.53
432.41	5886.45
432.60	5980.07
432.79	6069.01
432.97	5909.85
433.16	5959.00
433.35	6141.57
433.54	6078.37
433.72	6164.97
433.91	6108.80
434.10	6036.24
434.28	5989.43
434.47	6118.16
434.66	6270.30
434.85	6274.98
435.03	6019.86
435.22	6445.84
435.41	6541.80
435.59	6473.92
435.78	6483.28
435.97	6499.67
436.16	6349.87
436.34	6530.09
436.53	6389.66
436.72	6415.41
436.90	6455.20
437.09	6663.51
437.28	6576.91
437.46	6443.49
437.65	6600.31
437.84	6686.91
438.02	6693.93
438.21	6920.96
438.40	6612.01
438.58	6902.24
438.77	6923.30
438.96	6981.82
439.14	7133.95
439.33	7241.62
439.52	7194.81
439.70	7197.15
439.89	7309.49
440.08	7215.87
440.26	7293.11
440.45	7262.68
440.63	7447.58
440.82	7461.63
441.01	7494.40
441.19	7644.19
441.38	7845.48
441.57	7613.76
441.75	8013.99
441.94	7777.60
442.12	7864.20
442.31	7815.05
442.50	7995.27
442.68	8058.46
442.87	8018.68
443.05	8060.80
443.24	8308.90
443.43	8051.44
443.61	8112.30
443.80	8484.44
443.98	8067.83
444.17	7772.92
444.35	8128.68
444.54	8236.35
444.73	8175.49
444.91	8533.59
445.10	8580.40
445.28	8374.44
445.47	8182.51
445.65	8177.83
445.84	8479.76
446.02	8472.74
446.21	8454.02
446.39	8416.57
446.58	8542.96
446.77	8533.59
446.95	8294.86
447.14	8425.93
447.32	8566.36
447.51	8402.52
447.69	8430.61
447.88	8620.19
448.06	8344.01
448.25	8496.14
448.43	8685.73
448.62	8465.72
448.80	8571.04
448.99	8816.80
449.17	8795.73
449.36	8608.49
449.54	8767.65
449.73	8985.32
449.91	8959.57
450.10	8863.61
450.28	9001.70
450.46	8987.66
450.65	8809.78
450.83	9083.62
451.02	8954.89
451.20	9413.63
451.39	9200.65
451.57	9240.44
451.76	8987.66
451.94	9317.67
452.13	9291.93
452.31	9268.52
452.49	9128.09
452.68	9324.69
452.86	9109.36
453.05	9327.03
453.23	9575.13
453.42	9231.07
453.60	9525.98
453.78	9544.70
453.97	9511.94
454.15	9467.47
454.34	9650.03
454.52	9703.86
454.70	9535.34
454.89	9645.35
455.07	9785.78
455.26	9839.61
455.44	9881.74
455.62	9774.08
455.81	9827.91
455.99	10001.11
456.17	10010.47
456.36	10026.86
456.54	10038.56
456.73	10108.77
456.91	10445.81
457.09	10223.46
457.28	10579.22
457.46	10492.62
457.64	10373.25
457.83	10422.41
458.01	10413.04
458.19	10817.96
458.38	10501.98
458.56	10654.12
458.74	10670.50
458.93	10581.56
459.11	10647.10
459.29	10857.75
459.48	10843.70
459.66	10574.54
459.84	10768.80
460.03	11033.29
460.21	11019.24
460.39	10913.92
460.57	10986.47
460.76	11164.36
460.94	10958.39
461.12	11112.86
461.31	11269.68
461.49	11192.44
461.67	11005.20
461.85	11393.73
462.04	11232.23
462.22	11674.59
462.40	11529.48
462.59	11398.41
462.77	11351.60
462.95	11595.01
463.13	11538.84
463.32	11529.48
463.50	11702.68
463.68	11772.89
463.86	11899.28
464.05	11421.81
464.23	11531.82
464.41	12035.03
464.59	11749.49
464.78	12161.42
464.96	11946.09
465.14	11667.57
465.32	11906.31
465.50	12131.00
465.69	12020.99
465.87	12133.34
466.05	12035.03
466.23	12238.66
466.41	12046.74
466.60	12484.42
466.78	12098.23
466.96	12177.81
467.14	12283.13
467.32	12407.18
467.51	12638.89
467.69	12067.80
467.87	12285.47
468.05	12573.36
468.23	12269.09
468.41	12596.76
468.60	12318.24
468.78	12601.44
468.96	12697.41
469.14	12870.61
469.32	13062.53
469.50	12636.55
469.69	12975.93
469.87	12954.87
470.05	13132.75
470.23	12809.75
470.41	13256.79
470.59	13469.78
470.77	13483.83
470.95	13462.76
471.14	13460.42
471.32	13270.84
471.50	13298.92
471.68	13565.74
471.86	13462.76
472.04	13516.59
472.22	14075.98
472.40	13650.00
472.58	13591.49
472.77	14188.33
472.95	14157.90
473.13	14527.71
473.31	14008.11
473.49	14075.98
473.67	14146.20
473.85	14305.35
474.03	14356.85
474.21	14860.06
474.39	14752.40
474.57	14455.15
474.75	14728.99
474.93	14867.08
475.12	14881.13
475.30	15126.88
475.48	14923.26
475.66	15173.69
475.84	15023.90
476.02	15372.64
476.20	15330.51
476.38	15679.25
476.56	16137.99
476.74	15815.00
476.92	15651.16
477.10	15625.42
477.28	16095.86
477.46	16067.78
477.64	16262.04
477.82	16360.34
478.00	16856.54
478.18	16678.66
478.36	17003.99
478.54	17270.81
478.72	16734.83
478.90	17539.97
479.08	17708.49
479.26	17619.55
479.44	17692.11
479.62	18045.53
479.80	18085.32
479.98	18160.22
480.16	18539.38
480.34	18288.95
480.52	18553.43
480.70	18422.36
480.88	18181.28
481.06	18431.72
481.24	18441.08
481.41	18930.25
481.59	19400.70
481.77	19377.30
481.95	19431.13
482.13	19915.62
482.31	19506.02
482.49	20187.12
482.67	20081.80
482.85	20547.56
483.03	20357.98
483.21	20482.03
483.39	20931.41
483.57	20624.80
483.74	21067.16
483.92	21364.41
484.10	21050.78
484.28	21977.63
484.46	21944.86
484.64	22267.86
484.82	21996.35
485.00	22155.51
485.18	22525.32
485.35	22934.91
485.53	22726.60
485.71	22955.97
485.89	23431.10
486.07	23168.96
486.25	23410.04
486.43	23917.93
486.61	23861.76
486.78	24067.73
486.96	23931.98
487.14	24629.46
487.32	24816.70
487.50	24484.34
487.68	24783.93
487.85	24851.81
488.03	25476.73
488.21	25923.77
488.39	25596.10
488.57	25862.92
488.75	26045.48
488.92	26424.65
489.10	26478.48
489.28	26565.08
489.46	27239.15
489.64	27040.21
489.81	27742.37
489.99	27534.06
490.17	27707.26
490.35	28013.87
490.53	28016.21
490.70	28322.82
490.88	28163.67
491.06	28584.96
491.24	28507.72
491.41	28978.17
491.59	29303.51
491.77	29486.07
491.95	29586.71
492.13	29544.58
492.30	30050.14
492.48	30106.31
492.66	30031.41
492.84	30389.52
493.01	30408.24
493.19	30693.79
493.37	31009.76
493.54	31299.98
493.72	31318.71
493.90	31154.87
494.08	31435.74
494.25	31732.98
494.43	31988.10
494.61	32301.73
494.79	32467.91
494.96	32304.07
495.14	32503.02
495.32	33200.50
495.49	32926.66
495.67	33247.31
495.85	33556.26
496.02	33586.69
496.20	33572.64
496.38	33846.49
496.55	34148.42
496.73	35199.32
496.91	34710.14
497.09	34675.04
497.26	34773.34
497.44	34675.04
497.62	35196.98
497.79	35761.05
497.97	35306.98
498.14	35845.30
498.32	36184.68
498.50	36037.23
498.67	36360.22
498.85	36760.45
499.03	36397.67
499.20	36540.44
499.38	36451.50
499.56	37067.06
499.73	36720.66
499.91	37450.91
500.08	37277.71
500.26	37390.06
500.44	38003.28
500.61	37752.84
500.79	37525.81
500.97	37837.10
501.14	38763.95
501.32	38518.20
501.49	38202.22
501.67	38515.86
501.84	39297.59
502.02	38677.35
502.20	38864.60
502.37	39175.89
502.55	39143.12
502.72	39541.01
502.90	39541.01
503.07	39133.76
503.25	39782.09
503.43	39042.48
503.60	40039.54
503.78	39920.18
503.95	40465.52
504.13	40409.35
504.30	40442.12
504.48	40243.17
504.65	40732.34
504.83	40861.07
505.01	41584.30
505.18	40975.76
505.36	40982.78
505.53	41053.00
505.71	41390.03
505.88	41600.68
506.06	41265.99
506.23	41942.40
506.41	42003.25
506.58	41780.90
506.76	41911.97
506.93	42417.53
507.11	42146.03
507.28	42492.43
507.46	42586.05
507.63	42784.99
507.81	43178.20
507.98	42777.97
508.16	42682.01
508.33	43711.84
508.50	43363.11
508.68	43393.53
508.85	43852.28
509.03	43648.65
509.20	43674.40
509.38	44341.45
509.55	44259.53
509.73	44437.41
509.90	45237.87
510.08	44486.56
510.25	44357.83
510.42	44577.84
510.60	44531.03
510.77	45123.19
510.95	45006.16
511.12	45500.01
511.30	44954.67
511.47	45207.45
511.64	45670.87
511.82	46153.02
511.99	45696.62
512.17	45958.76
512.34	45862.80
512.51	46799.01
512.69	46162.39
512.86	46396.44
513.04	46639.86
513.21	46625.81
513.38	46813.05
513.56	46721.77
513.73	46630.49
513.90	46738.16
514.08	47072.85
514.25	47042.43
514.43	47309.25
514.60	47262.44
514.77	47683.73
514.95	47657.99
515.12	47323.29
515.29	47442.66
515.47	47948.21
515.64	48067.58
515.81	47704.80
515.99	48027.79
516.16	48369.51
516.33	48299.30
516.51	48413.98
516.68	48303.98
516.85	48430.36
517.03	48708.89
517.20	48573.14
517.37	48811.87
517.54	48718.25
517.72	48783.79
517.89	49179.34
518.06	49132.53
518.24	49078.69
518.41	49088.06
518.58	48821.23
518.75	48982.73
518.93	49357.22
519.10	49324.45
519.27	49764.47
519.45	49687.23
519.62	49656.81
519.79	49563.18
519.96	49773.83
520.14	49935.33
520.31	49790.22
520.48	50433.86
520.65	50075.76
520.83	50408.12
521.00	50665.58
521.17	50244.28
521.34	50806.01
521.52	50447.91
521.69	50375.35
521.86	50911.33
522.03	50974.53
522.20	51236.67
522.38	51210.92
522.55	51707.12
522.72	51257.73
522.89	50962.82
523.07	51456.68
523.24	51650.94
523.41	51562.00
523.58	51199.22
523.75	51770.31
523.92	51365.40
524.10	51812.44
524.27	52067.56
524.44	51849.89
524.61	51995.00
524.78	51997.34
524.96	51959.89
525.13	52193.95
525.30	52444.38
525.47	52341.40
525.64	52458.43
525.81	52521.62
525.98	52851.64
526.16	52662.05
526.33	52432.68
526.50	52931.22
526.67	52598.86
526.84	52837.59
527.01	52875.04
527.18	53073.99
527.36	53158.25
527.53	53034.20
527.70	53205.06
527.87	53176.97
528.04	53083.35
528.21	53085.69
528.38	53418.05
528.55	53200.38
528.72	53366.55
528.89	53635.72
529.07	53495.28
529.24	53258.89
529.41	53483.58
529.58	53378.26
529.75	53448.47
529.92	53455.50
530.09	53900.20
530.26	53939.99
530.43	53755.08
530.60	53485.92
530.77	53811.26
530.94	54251.28
531.11	53914.24
531.28	54117.87
531.46	54333.20
531.63	54365.96
531.80	53867.43
531.97	54253.62
532.14	54312.13
532.31	54501.71
532.48	54504.06
532.65	54684.28
532.82	54611.72
532.99	54728.75
533.16	54609.38
533.33	54782.58
533.50	54878.54
533.67	54808.32
533.84	54574.27
534.01	54759.17
534.18	54967.48
534.35	55007.27
534.52	54614.06
534.69	55103.23
534.86	55000.25
535.03	55075.15
535.20	55250.69
535.37	55311.54
535.54	55372.39
535.71	55103.23
535.88	55246.00
536.05	55278.77
536.22	55674.32
536.38	55636.87
536.55	55561.98
536.72	55554.96
536.89	55297.50
537.06	55643.90
537.23	55625.17
537.40	55473.04
537.57	55657.94
537.74	55828.80
537.91	55861.57
538.08	55557.30
538.25	55552.62
538.42	55664.96
538.59	56161.15
538.75	55828.80
538.92	55849.86
539.09	56032.42
539.26	56102.64
539.43	56112.00
539.60	56245.41
539.77	56156.47
539.94	56444.36
540.11	56505.21
540.28	56268.82
540.44	56437.34
540.61	56360.10
540.78	56420.95
540.95	56526.28
541.12	56179.88
541.29	56484.15
541.46	56404.57
541.62	56488.83
541.79	56556.70
541.96	56561.39
542.13	56554.36
542.30	56678.41
542.47	56776.72
542.63	56757.99
542.80	57174.61
542.97	56970.98
543.14	57172.27
543.31	57198.01
543.48	57244.82
543.64	57219.08
543.81	57286.95
543.98	57277.59
544.15	57151.20
544.32	57380.57
544.48	57385.25
544.65	57375.89
544.82	57183.97
544.99	57193.33
545.16	57165.24
545.32	57198.01
545.49	57647.39
545.66	57801.87
545.83	57504.62
546.00	57661.44
546.16	57591.22
546.33	57499.94
546.50	57434.41
546.67	57932.94
546.83	57268.23
547.00	57818.25
547.17	57563.14
547.34	57731.65
547.50	57738.68
547.67	57818.25
547.84	57862.72
548.00	58047.63
548.17	58183.38
548.34	57853.36
548.51	58220.83
548.67	58075.71
548.84	58169.33
549.01	57979.75
549.18	57977.41
549.34	58103.80
549.51	58148.27
549.68	58227.85
549.84	58461.90
550.01	58408.07
550.18	58408.07
550.34	58286.36
550.51	58653.82
550.68	58518.07
550.84	58260.62
551.01	58379.98
551.18	58361.26
551.34	58424.45
551.51	58611.70
551.68	58506.37
551.84	58478.28
552.01	58508.71
552.18	58403.39
552.34	58454.88
552.51	58590.63
552.68	58405.73
552.84	58621.06
553.01	58836.39
553.18	58782.55
553.34	58869.15
553.51	58506.37
553.67	58721.70
553.84	58878.52
554.01	58990.86
554.17	58904.26
554.34	58981.50
554.51	58827.02
554.67	59063.42
554.84	59185.13
555.00	58951.07
555.17	58805.96
555.33	59103.21
555.50	58941.71
555.67	59025.97
555.83	59014.27
556.00	59072.78
556.16	59405.14
556.33	59175.76
556.50	59117.25
556.66	59412.16
556.83	59189.81
556.99	59491.74
557.16	59604.08
557.32	59393.43
557.49	59632.17
557.65	59145.34
557.82	59276.41
557.98	59414.50
558.15	59143.00
558.32	59381.73
558.48	59215.55
558.65	59316.20
558.81	59395.77
558.98	59477.69
559.14	59564.29
559.31	59482.37
559.47	59491.74
559.64	59664.94
559.80	59620.47
559.97	59723.45
560.13	59477.69
560.30	59709.41
560.46	59608.76
560.63	59793.67
560.79	59800.69
560.96	59737.49
561.12	59634.51
561.29	59693.02
561.45	59969.21
561.61	59917.71
561.78	59707.07
561.94	59723.45
562.11	59760.90
562.27	59678.98
562.44	60060.49
562.60	59891.97
562.77	59976.23
562.93	59901.33
563.10	59929.42
563.26	59894.31
563.42	60144.75
563.59	59803.03
563.75	59629.83
563.92	60119.00
564.08	59861.54
564.24	60193.90
564.41	60016.02
564.57	60264.11
564.74	60074.53
564.90	60058.15
565.07	60093.25
565.23	60184.54
565.39	59931.76
565.56	60261.77
565.72	60156.45
565.88	60058.15
566.05	60013.68
566.21	60207.94
566.38	60170.49
566.54	60156.45
566.70	60186.88
566.87	60341.35
567.03	59969.21
567.19	60418.59
567.36	60236.03
567.52	60001.97
567.68	60399.86
567.85	60229.01
568.01	60268.79
568.17	60280.50
568.34	60491.15
568.50	60341.35
568.66	60331.99
568.83	60362.42
568.99	60339.01
569.15	60411.57
569.32	60388.16
569.48	60357.74
569.64	60292.20
569.81	60582.43
569.97	60346.03
570.13	60463.06
570.30	60310.92
570.46	60371.78
570.62	60130.70
570.78	60535.62
570.95	60362.42
571.11	60659.66
571.27	60406.89
571.43	60491.15
571.60	60559.02
571.76	60449.02
571.92	60437.31
572.09	60734.56
572.25	60420.93
572.41	60432.63
572.57	60451.36
572.74	60846.91
572.90	60561.36
573.06	60472.42
573.22	60643.28
573.38	60596.47
573.55	60509.87
573.71	60907.76
573.87	60608.17
574.03	60699.45
574.20	60797.76
574.36	60603.49
574.52	60594.13
574.68	60645.62
574.84	60736.90
575.01	60619.88
575.17	60699.45
575.33	60505.19
575.49	60540.30
575.65	60603.49
575.82	60708.82
575.98	60678.39
576.14	60999.04
576.30	60750.94
576.46	60622.22
576.62	60729.88
576.79	60685.41
576.95	60582.43
577.11	60786.05
577.27	60657.32
577.43	60678.39
577.59	60570.72
577.75	60582.43
577.92	60647.96
578.08	60732.22
578.24	60802.44
578.40	60910.10
578.56	60821.16
578.72	60814.14
578.88	61001.38
579.04	61083.30
579.21	60797.76
579.37	61092.66
579.53	60942.87
579.69	60601.15
579.85	60750.94
580.01	60764.99
580.17	60757.97
580.33	61092.66
580.49	60896.06
580.65	60804.78
580.82	60896.06
580.98	60811.80
581.14	60779.03
581.30	60860.95
581.46	60626.90
581.62	60858.61
581.78	60858.61
581.94	60968.61
582.10	60683.07
582.26	60743.92
582.42	60685.41
582.58	60828.18
582.74	60811.80
582.90	60837.54
583.06	60872.65
583.22	60825.84
583.38	60772.01
583.54	60882.02
583.70	60940.53
583.86	60842.23
584.02	60687.75
584.18	60977.98
584.34	60772.01
584.50	60807.12
584.66	60690.09
584.82	60629.24
584.98	60975.64
585.14	60910.10
585.30	60970.96
585.46	60942.87
585.62	60987.34
585.78	61027.13
585.94	60865.63
586.10	60919.46
586.26	60903.08
586.42	61169.90
586.58	61031.81
586.74	60992.02
586.90	60968.61
587.06	60828.18
587.22	61223.73
587.38	60903.08
587.54	60970.96
587.70	61247.14
587.86	60994.36
588.02	60977.98
588.18	61160.54
588.34	61104.37
588.49	61001.38
