SpectraSuite Data File
++++++++++++++++++++++++++++++++++++
Date: Fri Oct 25 11:22:58 EDT 2013
User: price-jones
Dark Spectrum Present: No
Reference Spectrum Present: No
Number of Sampled Component Spectra: 1
Spectrometers: USB2+H05261
Integration Time (usec): 100000 (USB2+H05261)
Spectra Averaged: 1 (USB2+H05261)
Boxcar Smoothing: 0 (USB2+H05261)
Correct for Electrical Dark: No (USB2+H05261)
Strobe/Lamp Enabled: No (USB2+H05261)
Correct for Detector Non-linearity: No (USB2+H05261)
Correct for Stray Light: No (USB2+H05261)
Number of Pixels in Processed Spectrum: 2048
>>>>>Begin Processed Spectral Data<<<<<
365.73	220.01
365.92	220.01
366.12	220.01
366.32	117.03
366.52	95.96
366.72	126.39
366.91	124.05
367.11	93.62
367.31	168.52
367.51	121.71
367.70	91.28
367.90	135.75
368.10	98.30
368.30	107.66
368.49	98.30
368.69	173.20
368.89	126.39
369.09	175.54
369.28	112.35
369.48	147.45
369.68	173.20
369.87	201.29
370.07	205.97
370.27	166.18
370.47	292.57
370.66	550.03
370.86	645.99
371.06	624.92
371.25	615.56
371.45	603.86
371.65	699.82
371.84	720.88
372.04	657.69
372.24	685.78
372.44	732.59
372.63	760.67
372.83	631.94
373.03	723.23
373.22	779.40
373.42	837.91
373.62	765.36
373.81	793.44
374.01	786.42
374.21	781.74
374.40	737.27
374.60	856.64
374.79	861.32
374.99	828.55
375.19	908.13
375.38	898.77
375.58	816.85
375.78	908.13
375.97	887.06
376.17	882.38
376.37	894.08
376.56	863.66
376.76	793.44
376.95	807.48
377.15	961.96
377.35	903.45
377.54	943.24
377.74	901.11
377.93	945.58
378.13	849.61
378.33	917.49
378.52	943.24
378.72	891.74
378.91	884.72
379.11	880.04
379.31	894.08
379.50	950.26
379.70	945.58
379.89	957.28
380.09	1006.43
380.28	933.87
380.48	1029.84
380.68	947.92
380.87	1008.77
381.07	997.07
381.26	978.34
381.46	1015.79
381.65	1057.92
381.85	1064.94
382.04	1083.67
382.24	1053.24
382.43	1011.11
382.63	1060.26
382.83	1083.67
383.02	1102.39
383.22	1097.71
383.41	1097.71
383.61	1086.01
383.80	1144.52
384.00	1149.20
384.19	1177.29
384.39	1172.61
384.58	1081.33
384.78	1153.88
384.97	1071.97
385.17	1165.59
385.36	1177.29
385.56	1203.04
385.75	1231.12
385.95	1196.01
386.14	1221.76
386.34	1158.57
386.53	1109.41
386.72	1167.93
386.92	1299.00
387.11	1249.85
387.31	1198.35
387.50	1291.98
387.70	1336.45
387.89	1308.36
388.09	1291.98
388.28	1282.61
388.48	1310.70
388.67	1303.68
388.86	1268.57
389.06	1331.76
389.25	1376.24
389.45	1296.66
389.64	1352.83
389.84	1411.34
390.03	1420.71
390.22	1451.13
390.42	1392.62
390.61	1399.64
390.81	1394.96
391.00	1378.58
391.19	1434.75
391.39	1502.62
391.58	1479.22
391.78	1383.26
391.97	1551.78
392.16	1413.68
392.36	1570.50
392.55	1589.22
392.75	1526.03
392.94	1507.30
393.13	1523.69
393.33	1570.50
393.52	1638.38
393.71	1544.75
393.91	1523.69
394.10	1528.37
394.29	1444.11
394.49	1467.52
394.68	1736.68
394.88	1612.63
395.07	1661.78
395.26	1598.59
395.46	1668.80
395.65	1724.97
395.84	1703.91
396.04	1820.94
396.23	1760.08
396.42	1732.00
396.62	1769.44
396.81	1708.59
397.00	1741.36
397.19	1900.52
397.39	1820.94
397.58	1760.08
397.77	1827.96
397.97	1860.73
398.16	1818.60
398.35	1994.14
398.55	1865.41
398.74	1973.07
398.93	1926.26
399.12	1928.60
399.32	1858.39
399.51	1954.35
399.70	1928.60
399.90	1930.94
400.09	2101.80
400.28	2059.67
400.47	2040.95
400.67	2069.03
400.86	2036.27
401.05	2246.91
401.24	2120.53
401.44	2062.01
401.63	2197.76
401.82	2218.83
402.01	2038.61
402.21	2111.16
402.40	2195.42
402.59	2251.60
402.78	2242.23
402.97	2193.08
403.17	2314.79
403.36	2202.44
403.55	2298.41
403.74	2441.18
403.93	2417.77
404.13	2312.45
404.32	2413.09
404.51	2249.25
404.70	2410.75
404.89	2424.80
405.09	2590.97
405.28	2387.35
405.47	2427.14
405.66	2539.48
405.85	2647.15
406.05	2572.25
406.24	2548.84
406.43	2560.55
406.62	2628.42
406.81	2635.44
407.00	2668.21
407.20	2579.27
407.39	2661.19
407.58	2743.11
407.77	2712.68
407.96	2731.41
408.15	2813.32
408.34	2820.35
408.54	2883.54
408.73	2743.11
408.92	2890.56
409.11	2832.05
409.30	2883.54
409.49	2869.50
409.68	2923.33
409.87	2841.41
410.07	3009.93
410.26	3061.42
410.45	2977.16
410.64	2988.86
410.83	3028.65
411.02	3112.91
411.21	3199.51
411.40	3148.02
411.59	3052.06
411.78	3206.53
411.98	3171.43
412.17	3286.11
412.36	3323.56
412.55	3335.26
412.74	3297.81
412.93	3368.03
413.12	3356.33
413.31	3499.10
413.50	3435.91
413.69	3588.04
413.88	3684.00
414.07	3625.49
414.26	3695.71
414.45	3513.14
414.64	3716.77
414.83	3705.07
415.02	3772.94
415.22	3808.05
415.41	3728.47
415.60	3911.04
415.79	3981.25
415.98	3953.16
416.17	4072.53
416.36	4035.08
416.55	4039.76
416.74	4138.07
416.93	4135.73
417.12	4119.34
417.31	4086.58
417.50	4259.78
417.69	4344.03
417.88	4346.37
418.07	4315.95
418.26	4353.40
418.45	4381.48
418.64	4580.43
418.83	4449.36
419.02	4582.77
419.21	4592.13
419.39	4449.36
419.58	4552.34
419.77	4404.89
419.96	4660.01
420.15	4744.27
420.34	4582.77
420.53	4645.96
420.72	4559.36
420.91	4645.96
421.10	4821.50
421.29	4809.80
421.48	4786.40
421.67	4795.76
421.86	4823.84
422.05	4767.67
422.24	4791.08
422.43	4788.74
422.61	4858.95
422.80	4870.65
422.99	4882.36
423.18	5071.94
423.37	4908.10
423.56	4777.03
423.75	4915.12
423.94	4854.27
424.13	4652.98
424.32	4744.27
424.50	4990.02
424.69	5193.65
424.88	5069.60
425.07	5041.51
425.26	4908.10
425.45	4971.30
425.64	4931.51
425.83	5067.26
426.01	5163.22
426.20	5163.22
426.39	5123.43
426.58	5107.05
426.77	5153.86
426.96	5097.69
427.15	5118.75
427.33	5205.35
427.52	5193.65
427.71	5500.26
427.90	5322.38
428.09	5273.23
428.28	5179.61
428.46	5359.83
428.65	5366.85
428.84	5521.32
429.03	5603.24
429.22	5373.87
429.40	5645.37
429.59	5671.12
429.78	5542.39
429.97	5308.34
430.16	5455.79
430.34	5507.28
430.53	5771.76
430.72	5696.86
430.91	5547.07
431.10	5598.56
431.28	5785.80
431.47	5860.70
431.66	5872.40
431.85	5849.00
432.03	5989.43
432.22	6085.39
432.41	5935.60
432.60	6108.80
432.79	5987.09
432.97	6029.22
433.16	6104.12
433.35	6111.14
433.54	6045.60
433.72	6190.72
433.91	6066.67
434.10	6143.91
434.28	6242.21
434.47	6377.96
434.66	6249.23
434.85	6319.45
435.03	6352.21
435.22	6167.31
435.41	6384.98
435.59	6356.90
435.78	6282.00
435.97	6644.78
436.16	6471.58
436.34	6635.42
436.53	6602.65
436.72	6715.00
436.90	6445.84
437.09	6801.60
437.28	6553.50
437.46	6740.74
437.65	6764.15
437.84	6789.89
438.02	6913.94
438.21	6719.68
438.40	6771.17
438.58	6949.05
438.77	7157.36
438.96	6970.12
439.14	7267.36
439.33	7466.31
439.52	7138.63
439.70	7180.76
439.89	7246.30
440.08	7470.99
440.26	7356.30
440.45	7435.88
440.63	7581.00
440.82	7576.31
441.01	7407.80
441.19	7686.32
441.38	7695.68
441.57	7686.32
441.75	7850.16
441.94	7826.75
442.12	8266.77
442.31	7997.61
442.50	8056.12
442.68	8105.28
442.87	8056.12
443.05	8294.86
443.24	8177.83
443.43	8175.49
443.61	8280.82
443.80	8332.31
443.98	8297.20
444.17	7878.24
444.35	8219.96
444.54	8346.35
444.73	8320.60
444.91	8542.96
445.10	8414.23
445.28	8397.84
445.47	8259.75
445.65	8397.84
445.84	8395.50
446.02	8437.63
446.21	8388.48
446.39	8290.18
446.58	8505.51
446.77	8692.75
446.95	8215.28
447.14	8500.83
447.32	8781.69
447.51	8561.68
447.69	8477.42
447.88	8638.92
448.06	8519.55
448.25	8617.85
448.43	8814.46
448.62	8669.34
448.80	8465.72
448.99	8692.75
449.17	8798.07
449.36	8915.10
449.54	8987.66
449.73	9109.36
449.91	9076.60
450.10	8877.65
450.28	9151.49
450.46	9245.12
450.65	9144.47
450.83	9125.75
451.02	9053.19
451.20	9352.78
451.39	9163.20
451.57	9226.39
451.76	9153.84
451.94	9460.45
452.13	9490.87
452.31	9217.03
452.49	9273.20
452.68	9247.46
452.86	9451.08
453.05	9444.06
453.23	9666.41
453.42	9390.23
453.60	9423.00
453.78	9741.31
453.97	9462.79
454.15	9430.02
454.34	9521.30
454.52	9853.66
454.70	9565.77
454.89	9788.12
455.07	9664.07
455.26	10111.11
455.44	10040.90
455.62	9900.47
455.81	9858.34
455.99	9975.36
456.17	10153.24
456.36	10052.60
456.54	10239.84
456.73	10387.30
456.91	10609.65
457.09	10499.64
457.28	10780.51
457.46	10541.77
457.64	10684.55
457.83	10609.65
458.01	10473.90
458.19	10792.21
458.38	10501.98
458.56	10949.03
458.74	10824.98
458.93	10780.51
459.11	10703.27
459.29	10820.30
459.48	10850.72
459.66	10937.32
459.84	10958.39
460.03	11225.21
460.21	10916.26
460.39	11318.83
460.57	11185.42
460.76	11101.16
460.94	11253.30
461.12	11138.61
461.31	11225.21
461.49	11042.65
461.67	11372.66
461.85	11576.29
462.04	11342.24
462.22	11665.23
462.40	11609.06
462.59	11475.65
462.77	11646.51
462.95	11658.21
463.13	11674.59
463.32	11831.41
463.50	11777.58
463.68	12126.32
463.86	11833.75
464.05	11751.83
464.23	11805.66
464.41	11908.65
464.59	11522.46
464.78	12250.36
464.96	12112.27
465.14	11864.18
465.32	12077.16
465.50	12456.33
465.69	12409.52
465.87	12306.54
466.05	12187.17
466.23	12147.38
466.41	12233.98
466.60	12465.69
466.78	12170.79
466.96	12372.07
467.14	12517.18
467.32	12676.34
467.51	12397.82
467.69	12299.52
467.87	12407.18
468.05	12826.14
468.23	12559.31
468.41	12482.08
468.60	12547.61
468.78	12858.90
468.96	12702.09
469.14	12842.52
469.32	12966.57
469.50	12692.73
469.69	13207.64
469.87	13287.22
470.05	13205.30
470.23	13212.32
470.41	13404.25
470.59	13022.74
470.77	13301.26
470.95	13434.68
471.14	13757.67
471.32	13369.14
471.50	13572.77
471.68	13734.26
471.86	13717.88
472.04	13893.42
472.22	14174.28
472.40	13628.94
472.58	13825.54
472.77	14068.96
472.95	14183.65
473.13	14553.45
473.31	13965.98
473.49	14417.70
473.67	14015.13
473.85	14534.73
474.03	14787.50
474.21	14534.73
474.39	14911.55
474.57	14668.14
474.75	14618.99
474.93	15059.01
475.12	14916.23
475.30	15550.52
475.48	15056.67
475.66	15176.03
475.84	15257.95
476.02	15332.85
476.20	15466.26
476.38	15660.52
476.56	16177.78
476.74	16030.33
476.92	16077.14
477.10	15948.41
477.28	16425.88
477.46	16287.79
477.64	16477.37
477.82	16538.23
478.00	16868.24
478.18	17003.99
478.36	16725.47
478.54	17392.52
478.72	17039.10
478.90	17544.66
479.08	17755.30
479.26	17781.05
479.44	18115.75
479.62	17919.14
479.80	18398.95
479.98	18363.84
480.16	18656.41
480.34	18235.11
480.52	18745.35
480.70	18616.62
480.88	18560.45
481.06	18651.73
481.24	19005.15
481.41	19183.03
481.59	19814.98
481.77	19606.67
481.95	19489.64
482.13	19882.85
482.31	19936.68
482.49	20561.61
482.67	20255.00
482.85	20842.47
483.03	20730.12
483.21	20636.50
483.39	20912.69
483.57	20994.61
483.74	21135.04
483.92	21497.82
484.10	21467.39
484.28	22087.64
484.46	21940.18
484.64	22593.19
484.82	21879.33
485.00	22616.60
485.18	23180.67
485.35	23220.45
485.53	22785.12
485.71	23175.98
485.89	23676.86
486.07	23506.00
486.25	23302.37
486.43	23878.15
486.61	23971.77
486.78	24357.96
486.96	24472.64
487.14	24938.41
487.32	24842.45
487.50	25156.08
487.68	25006.28
487.85	25364.39
488.03	25504.82
488.21	25989.31
488.39	26080.59
488.57	26101.65
488.75	26714.87
488.92	26548.70
489.10	26593.17
489.28	26979.36
489.46	27288.31
489.64	27325.75
489.81	27950.68
489.99	28044.30
490.17	27700.24
490.35	28662.20
490.53	28371.97
490.70	28582.62
490.88	28657.52
491.06	28816.68
491.24	28985.19
491.41	29455.64
491.59	29780.98
491.77	29532.88
491.95	29923.75
492.13	29970.56
492.30	29898.00
492.48	30139.08
492.66	30396.54
492.84	30665.70
493.01	31159.55
493.19	31089.34
493.37	31491.91
493.54	31391.26
493.72	31868.73
493.90	32055.98
494.08	32238.54
494.25	32147.26
494.43	32198.75
494.61	32414.08
494.79	32882.19
494.96	32985.17
495.14	33249.65
495.32	33149.01
495.49	33343.27
495.67	33851.17
495.85	33731.80
496.02	34057.14
496.20	34342.68
496.38	34253.74
496.55	34382.47
496.73	35154.85
496.91	34920.79
497.09	35044.84
497.26	34927.81
497.44	35459.12
497.62	35522.31
497.79	35922.54
497.97	35653.38
498.14	36442.14
498.32	36641.09
498.50	36369.58
498.67	37069.40
498.85	37146.64
499.03	36966.42
499.20	36935.99
499.38	37008.55
499.56	37446.23
499.73	37207.50
499.91	37778.59
500.08	37759.86
500.26	37759.86
500.44	37436.87
500.61	37858.17
500.79	38061.79
500.97	38043.07
501.14	39044.82
501.32	38873.96
501.49	38607.14
501.67	38689.06
501.84	39477.82
502.02	39257.81
502.20	39435.69
502.37	39571.44
502.55	39871.03
502.72	39861.66
502.90	40137.85
503.07	39709.53
503.25	40215.08
503.43	40215.08
503.60	40304.02
503.78	40641.06
503.95	40411.69
504.13	41106.83
504.30	40854.05
504.48	40589.57
504.65	41345.56
504.83	41273.01
505.01	41560.89
505.18	41420.46
505.36	41579.62
505.53	41743.45
505.71	41909.63
505.88	42286.46
506.06	42129.64
506.23	42256.03
506.41	42108.58
506.58	42040.70
506.76	42384.76
506.93	42944.15
507.11	42885.64
507.28	42946.49
507.46	43023.73
507.63	43098.62
507.81	43723.55
507.98	43168.84
508.16	43147.78
508.33	43676.74
508.50	43964.62
508.68	43730.57
508.85	44327.41
509.03	44301.66
509.20	44224.42
509.38	44893.82
509.55	44973.39
509.73	44800.19
509.90	44559.12
510.08	45010.84
510.25	44842.32
510.42	45326.81
510.60	45198.09
510.77	44996.80
510.95	45436.82
511.12	45689.60
511.30	45443.84
511.47	45888.54
511.64	45675.55
511.82	46082.81
511.99	46174.09
512.17	46127.28
512.34	46071.10
512.51	46590.70
512.69	46700.71
512.86	46403.46
513.04	46749.86
513.21	47070.51
513.38	47131.37
513.56	46965.19
513.73	46848.16
513.90	47285.84
514.08	46951.15
514.25	47730.54
514.43	47735.23
514.60	47707.14
514.77	47782.04
514.95	47611.18
515.12	47697.78
515.29	47973.96
515.47	48423.34
515.64	48720.59
515.81	48474.84
515.99	48467.81
516.16	48952.30
516.33	48533.35
516.51	48971.03
516.68	48802.51
516.85	48896.13
517.03	49069.33
517.20	49338.49
517.37	49364.24
517.54	48961.67
517.72	49216.78
517.89	49216.78
518.06	49670.85
518.24	49485.95
518.41	49425.09
518.58	49773.83
518.75	49689.57
518.93	49530.42
519.10	49567.87
519.27	49841.71
519.45	50143.64
519.62	50115.55
519.79	50075.76
519.96	50337.90
520.14	50497.06
520.31	50061.72
520.48	50784.94
520.65	50593.02
520.83	50885.59
521.00	50939.42
521.17	50997.93
521.34	50871.54
521.52	51288.16
521.69	51231.99
521.86	51334.97
522.03	51587.75
522.20	51650.94
522.38	51791.37
522.55	51749.24
522.72	51716.48
522.89	51723.50
523.07	52023.09
523.24	51765.63
523.41	52041.81
523.58	51966.91
523.75	52308.63
523.92	51845.21
524.10	52083.94
524.27	52296.93
524.44	52184.58
524.61	52444.38
524.78	52472.47
524.96	52383.53
525.13	52556.73
525.30	52875.04
525.47	52697.16
525.64	52743.97
525.81	53174.63
525.98	52861.00
526.16	52739.29
526.33	52830.57
526.50	53195.70
526.67	53223.78
526.84	53439.11
527.01	53113.78
527.18	53146.54
527.36	53240.17
527.53	53090.37
527.70	53464.86
527.87	53659.12
528.04	53581.88
528.21	53783.17
528.38	53722.32
528.55	53876.79
528.72	53570.18
528.89	53647.42
529.07	53727.00
529.24	53588.91
529.41	53932.96
529.58	53787.85
529.75	53694.23
529.92	54087.44
530.09	54082.76
530.26	54103.82
530.43	54333.20
530.60	54103.82
530.77	53989.14
530.94	54401.07
531.11	54445.54
531.28	54232.55
531.46	54525.12
531.63	54609.38
531.80	54630.44
531.97	54569.59
532.14	54686.62
532.31	54951.10
532.48	54740.45
532.65	54986.21
532.82	54330.86
532.99	54885.56
533.16	55030.68
533.33	55203.88
533.50	55189.83
533.67	55049.40
533.84	54897.27
534.01	55114.94
534.18	55356.01
534.35	55601.77
534.52	55316.22
534.69	55220.26
534.86	55414.52
535.03	55564.32
535.20	55428.57
535.37	55716.45
535.54	55517.51
535.71	55274.09
535.88	55807.73
536.05	55566.66
536.22	55920.08
536.38	55884.97
536.55	55994.98
536.72	56013.70
536.89	55674.32
537.06	55978.59
537.23	55929.44
537.40	56046.47
537.57	56053.49
537.74	55889.65
537.91	56121.37
538.08	55987.95
538.25	56048.81
538.42	55906.04
538.59	56385.85
538.75	56189.24
538.92	56329.67
539.09	56491.17
539.26	56357.76
539.43	56224.35
539.60	56322.65
539.77	56322.65
539.94	56631.60
540.11	56470.11
540.28	56535.64
540.44	56844.59
540.61	56530.96
540.78	56736.93
540.95	56353.08
541.12	56650.33
541.29	56739.27
541.46	56818.84
541.62	56919.49
541.79	56760.33
541.96	56582.45
542.13	56793.10
542.30	56896.08
542.47	57097.37
542.63	57064.60
542.80	57305.68
542.97	57338.44
543.14	57476.54
543.31	57584.20
543.48	57324.40
543.64	57532.71
543.81	57640.37
543.98	57460.15
544.15	57560.79
544.32	57731.65
544.48	57956.35
544.65	57509.30
544.82	57528.03
544.99	57401.64
545.16	57806.55
545.32	57537.39
545.49	57698.89
545.66	57909.53
545.83	57911.88
546.00	58047.63
546.16	57860.38
546.33	57848.68
546.50	57759.74
546.67	57778.46
546.83	57677.82
547.00	58042.95
547.17	57815.91
547.34	57921.24
547.50	58152.95
547.67	58340.19
547.84	58117.84
548.00	58379.98
548.17	58408.07
548.34	58358.92
548.51	58520.41
548.67	58319.13
548.84	58391.68
549.01	58426.79
549.18	58459.56
549.34	58714.68
549.51	58379.98
549.68	58487.65
549.84	58712.34
550.01	58450.20
550.18	58468.92
550.34	58595.31
550.51	58798.94
550.68	58731.06
550.84	58637.44
551.01	58749.79
551.18	58817.66
551.34	58438.50
551.51	58770.85
551.68	59049.38
551.84	58702.98
552.01	58719.36
552.18	58628.08
552.34	59004.91
552.51	58901.92
552.68	58653.82
552.84	58944.05
553.01	59185.13
553.18	59021.29
553.34	58988.52
553.51	58941.71
553.67	59072.78
553.84	59082.14
554.01	59178.10
554.17	59185.13
554.34	59257.68
554.51	58990.86
554.67	59337.26
554.84	59110.23
555.00	59042.35
555.17	59180.45
555.33	59292.79
555.50	59194.49
555.67	58955.75
555.83	59157.04
556.00	59693.02
556.16	59505.78
556.33	59398.12
556.50	59295.13
556.66	59681.32
556.83	59358.33
556.99	59517.48
557.16	59756.22
557.32	59730.47
557.49	59800.69
557.65	59489.40
557.82	59660.26
557.98	59657.91
558.15	59419.18
558.32	59683.66
558.48	59419.18
558.65	59634.51
558.81	59711.75
558.98	59751.54
559.14	59875.58
559.31	59999.63
559.47	59868.56
559.64	59901.33
559.80	59793.67
559.97	59887.29
560.13	59739.83
560.30	59859.20
560.46	59943.46
560.63	59903.67
560.79	59952.82
560.96	59798.35
561.12	60004.31
561.29	59964.52
561.45	60278.16
561.61	59814.73
561.78	60058.15
561.94	59852.18
562.11	60023.04
562.27	60116.66
562.44	60210.28
562.60	60259.43
562.77	60135.38
562.93	59994.95
563.10	60226.66
563.26	60231.35
563.42	60219.64
563.59	60109.64
563.75	60140.07
563.92	60200.92
564.08	60261.77
564.24	60165.81
564.41	60207.94
564.57	60221.98
564.74	60280.50
564.90	60713.50
565.07	60310.92
565.23	60289.86
565.39	60224.32
565.56	60474.76
565.72	60411.57
565.88	60364.76
566.05	60264.11
566.21	60505.19
566.38	60331.99
566.54	60547.32
566.70	60669.03
566.87	60596.47
567.03	60287.52
567.19	60662.00
567.36	60671.37
567.52	60734.56
567.68	60612.85
567.85	60444.33
568.01	60526.25
568.17	60619.88
568.34	60544.98
568.50	60566.04
568.66	60554.34
568.83	60603.49
568.99	60687.75
569.15	60601.15
569.32	60654.98
569.48	60556.68
569.64	60706.47
569.81	60626.90
569.97	60652.64
570.13	60645.62
570.30	60598.81
570.46	60795.42
570.62	60741.58
570.78	60645.62
570.95	60697.11
571.11	61003.72
571.27	60654.98
571.43	60860.95
571.60	60919.46
571.76	60729.88
571.92	60828.18
572.09	60821.16
572.25	60947.55
572.41	60907.76
572.57	60917.12
572.74	61195.65
572.90	60849.25
573.06	60938.19
573.22	60720.52
573.38	60844.57
573.55	60725.20
573.71	60961.59
573.87	60835.20
574.03	60912.44
574.20	60779.03
574.36	60767.33
574.52	60879.67
574.68	61034.15
574.84	60938.19
575.01	60940.53
575.17	60921.80
575.33	60931.17
575.49	60814.14
575.65	61071.60
575.82	61015.43
575.98	60982.66
576.14	61172.24
576.30	61078.62
576.46	60837.54
576.62	60821.16
576.79	60992.02
576.95	60788.39
577.11	60992.02
577.27	61141.81
577.43	60977.98
577.59	61013.08
577.75	60954.57
577.92	60910.10
578.08	60989.68
578.24	61013.08
578.40	61193.31
578.56	61102.03
578.72	60884.36
578.88	61212.03
579.04	61197.99
579.21	61118.41
579.37	61160.54
579.53	61270.54
579.69	60837.54
579.85	61027.13
580.01	60980.32
580.17	60821.16
580.33	61092.66
580.49	61169.90
580.65	61174.58
580.82	60996.70
580.98	60947.55
581.14	60924.14
581.30	61286.93
581.46	61055.21
581.62	61183.94
581.78	60975.64
581.94	61258.84
582.10	61123.09
582.26	61329.06
582.42	60882.02
582.58	61141.81
582.74	61296.29
582.90	61214.37
583.06	61272.88
583.22	61017.77
583.38	61069.26
583.54	61183.94
583.70	61254.16
583.86	61322.04
584.02	61080.96
584.18	61209.69
584.34	61146.50
584.50	61240.12
584.66	61029.47
584.82	60977.98
584.98	61441.40
585.14	61242.46
585.30	60802.44
585.46	61277.57
585.62	61127.77
585.78	61169.90
585.94	61181.60
586.10	61190.97
586.26	61209.69
586.42	61291.61
586.58	61364.17
586.74	61223.73
586.90	61099.68
587.06	61221.39
587.22	61443.74
587.38	61202.67
587.54	61406.30
587.70	61591.20
587.86	61422.68
588.02	61399.27
588.18	61432.04
588.34	61228.41
588.49	61261.18
