SpectraSuite Data File
++++++++++++++++++++++++++++++++++++
Date: Fri Oct 25 11:23:17 EDT 2013
User: price-jones
Dark Spectrum Present: No
Reference Spectrum Present: No
Number of Sampled Component Spectra: 1
Spectrometers: USB2+H05261
Integration Time (usec): 100000 (USB2+H05261)
Spectra Averaged: 1 (USB2+H05261)
Boxcar Smoothing: 0 (USB2+H05261)
Correct for Electrical Dark: No (USB2+H05261)
Strobe/Lamp Enabled: No (USB2+H05261)
Correct for Detector Non-linearity: No (USB2+H05261)
Correct for Stray Light: No (USB2+H05261)
Number of Pixels in Processed Spectrum: 2048
>>>>>Begin Processed Spectral Data<<<<<
365.73	212.99
365.92	212.99
366.12	212.99
366.32	175.54
366.52	100.64
366.72	119.37
366.91	51.49
367.11	163.84
367.31	105.32
367.51	131.07
367.70	128.73
367.90	145.11
368.10	159.16
368.30	37.45
368.49	63.19
368.69	102.98
368.89	126.39
369.09	142.77
369.28	173.20
369.48	39.79
369.68	187.24
369.87	222.35
370.07	212.99
370.27	269.16
370.47	346.40
370.66	634.29
370.86	697.48
371.06	559.39
371.25	608.54
371.45	709.18
371.65	653.01
371.84	716.20
372.04	643.65
372.24	730.25
372.44	779.40
372.63	720.88
372.83	695.14
373.03	770.04
373.22	795.78
373.42	826.21
373.62	807.48
373.81	793.44
374.01	755.99
374.21	835.57
374.40	849.61
374.60	842.59
374.79	858.98
374.99	814.51
375.19	835.57
375.38	758.33
375.58	812.17
375.78	896.43
375.97	826.21
376.17	847.27
376.37	882.38
376.56	961.96
376.76	968.98
376.95	910.47
377.15	908.13
377.35	929.19
377.54	830.89
377.74	936.21
377.93	915.15
378.13	957.28
378.33	894.08
378.52	884.72
378.72	964.30
378.91	898.77
379.11	919.83
379.31	985.37
379.50	938.55
379.70	1093.03
379.89	952.60
380.09	1036.86
380.28	926.85
380.48	1034.52
380.68	1008.77
380.87	908.13
381.07	922.17
381.26	983.02
381.46	1053.24
381.65	978.34
381.85	959.62
382.04	1062.60
382.24	1062.60
382.43	983.02
382.63	1172.61
382.83	1114.10
383.02	1116.44
383.22	1135.16
383.41	1067.28
383.61	1125.80
383.80	1203.04
384.00	1158.57
384.19	1095.37
384.39	1256.87
384.58	1114.10
384.78	1114.10
384.97	1224.10
385.17	1163.25
385.36	1086.01
385.56	1188.99
385.75	1174.95
385.95	1177.29
386.14	1151.54
386.34	1280.27
386.53	1266.23
386.72	1179.63
386.92	1160.91
387.11	1291.98
387.31	1256.87
387.50	1219.42
387.70	1338.79
387.89	1418.36
388.09	1315.38
388.28	1179.63
388.48	1273.25
388.67	1294.32
388.86	1397.30
389.06	1329.42
389.25	1341.13
389.45	1343.47
389.64	1289.64
389.84	1348.15
390.03	1394.96
390.22	1352.83
390.42	1394.96
390.61	1394.96
390.81	1277.93
391.00	1409.00
391.19	1490.92
391.39	1378.58
391.58	1458.15
391.78	1409.00
391.97	1495.60
392.16	1526.03
392.36	1439.43
392.55	1533.05
392.75	1511.99
392.94	1511.99
393.13	1561.14
393.33	1551.78
393.52	1589.22
393.71	1565.82
393.91	1528.37
394.10	1547.09
394.29	1638.38
394.49	1617.31
394.68	1614.97
394.88	1598.59
395.07	1659.44
395.26	1647.74
395.46	1607.95
395.65	1767.10
395.84	1699.23
396.04	1762.42
396.23	1762.42
396.42	1739.02
396.62	1853.70
396.81	1713.27
397.00	1741.36
397.19	1832.64
397.39	1816.26
397.58	1851.36
397.77	1809.23
397.97	1900.52
398.16	1839.66
398.35	1839.66
398.55	1891.15
398.74	1919.24
398.93	2015.20
399.12	1952.01
399.32	1952.01
399.51	1944.99
399.70	1944.99
399.90	1928.60
400.09	1949.67
400.28	2031.58
400.47	2129.89
400.67	2047.97
400.86	2054.99
401.05	2094.78
401.24	2141.59
401.44	2160.31
401.63	2195.42
401.82	2090.10
402.01	2019.88
402.21	2066.69
402.40	2293.72
402.59	2272.66
402.78	2272.66
402.97	2186.06
403.17	2251.60
403.36	2270.32
403.55	2228.19
403.74	2413.09
403.93	2427.14
404.13	2385.01
404.32	2333.51
404.51	2513.74
404.70	2417.77
404.89	2401.39
405.09	2588.63
405.28	2506.71
405.47	2502.03
405.66	2663.53
405.85	2588.63
406.05	2541.82
406.24	2600.34
406.43	2581.61
406.62	2658.85
406.81	2761.83
407.00	2597.99
407.20	2539.48
407.39	2710.34
407.58	2677.57
407.77	2750.13
407.96	2740.77
408.15	2874.18
408.34	2778.22
408.54	2808.64
408.73	2911.63
408.92	2827.37
409.11	2853.11
409.30	2928.01
409.49	2998.23
409.68	2829.71
409.87	2946.73
410.07	2988.86
410.26	2991.20
410.45	2946.73
410.64	3173.77
410.83	3098.87
411.02	3122.27
411.21	3262.71
411.40	3033.33
411.59	3365.69
411.78	3220.58
411.98	3225.26
412.17	3272.07
412.36	3213.56
412.55	3445.27
412.74	3442.93
412.93	3372.71
413.12	3400.80
413.31	3501.44
413.50	3510.80
413.69	3501.44
413.88	3630.17
414.07	3581.02
414.26	3609.11
414.45	3735.50
414.64	3756.56
414.83	3922.74
415.02	3597.40
415.22	3831.46
415.41	3929.76
415.60	4030.40
415.79	3960.19
415.98	3913.38
416.17	3953.16
416.36	3948.48
416.55	4079.55
416.74	4126.36
416.93	4098.28
417.12	4290.20
417.31	4191.90
417.50	4205.94
417.69	4374.46
417.88	4334.67
418.07	4322.97
418.26	4332.33
418.45	4444.68
418.64	4617.88
418.83	4524.26
419.02	4542.98
419.21	4650.64
419.39	4629.58
419.58	4498.51
419.77	4482.13
419.96	4578.09
420.15	4671.71
420.34	4629.58
420.53	4631.92
420.72	4723.20
420.91	4660.01
421.10	4807.46
421.29	5062.58
421.48	4727.88
421.67	4786.40
421.86	4936.19
422.05	4863.63
422.24	4774.69
422.43	4854.27
422.61	4947.89
422.80	5027.47
422.99	5050.88
423.18	4997.04
423.37	5156.20
423.56	4966.62
423.75	5025.13
423.94	4894.06
424.13	4809.80
424.32	4828.53
424.50	4971.30
424.69	5200.67
424.88	5107.05
425.07	4945.55
425.26	4947.89
425.45	4966.62
425.64	4983.00
425.83	5018.11
426.01	5053.22
426.20	5146.84
426.39	5067.26
426.58	5205.35
426.77	4985.34
426.96	5193.65
427.15	5247.48
427.33	5263.86
427.52	5200.67
427.71	5364.51
427.90	5261.52
428.09	5448.77
428.28	5521.32
428.46	5502.60
428.65	5476.85
428.84	5645.37
429.03	5610.26
429.22	5348.12
429.40	5708.57
429.59	5423.02
429.78	5439.40
429.97	5322.38
430.16	5664.10
430.34	5734.31
430.53	5760.06
430.72	5626.65
430.91	5729.63
431.10	5628.99
431.28	5830.27
431.47	5884.11
431.66	6008.16
431.85	5867.72
432.03	5858.36
432.22	6057.31
432.41	5968.37
432.60	5959.00
432.79	6017.52
432.97	6040.92
433.16	5928.58
433.35	6104.12
433.54	6153.27
433.72	6244.55
433.91	6127.52
434.10	6370.94
434.28	6125.18
434.47	6083.05
434.66	6394.34
434.85	6342.85
435.03	6438.81
435.22	6375.62
435.41	6504.35
435.59	6471.58
435.78	6661.16
435.97	6368.60
436.16	6471.58
436.34	6373.28
436.53	6408.39
436.72	6729.04
436.90	6609.67
437.09	6752.45
437.28	6595.63
437.46	6595.63
437.65	6621.38
437.84	6750.10
438.02	6731.38
438.21	6738.40
438.40	6628.40
438.58	6888.20
438.77	7250.98
438.96	7059.06
439.14	7052.03
439.33	7314.17
439.52	7178.42
439.70	7325.88
439.89	7435.88
440.08	7419.50
440.26	7396.09
440.45	7358.64
440.63	7698.02
440.82	7595.04
441.01	7611.42
441.19	7632.49
441.38	7676.96
441.57	7854.84
441.75	7812.71
441.94	8028.04
442.12	8046.76
442.31	8152.09
442.50	8116.98
442.68	8154.43
442.87	8070.17
443.05	7817.39
443.24	8414.23
443.43	8236.35
443.61	8332.31
443.80	8236.35
443.98	8135.70
444.17	8102.93
444.35	8414.23
444.54	8477.42
444.73	8510.19
444.91	8297.20
445.10	8425.93
445.28	8517.21
445.47	8439.97
445.65	8496.14
445.84	8636.58
446.02	8594.45
446.21	8758.28
446.39	8641.26
446.58	8557.00
446.77	8477.42
446.95	8215.28
447.14	8552.32
447.32	8540.61
447.51	8477.42
447.69	8386.14
447.88	8575.72
448.06	8751.26
448.25	8650.62
448.43	8671.68
448.62	8564.02
448.80	8720.84
448.99	8664.66
449.17	8814.46
449.36	8538.27
449.54	9085.96
449.73	9125.75
449.91	9036.81
450.10	9160.86
450.28	9207.67
450.46	9088.30
450.65	9390.23
450.83	9081.28
451.02	9158.52
451.20	9130.43
451.39	9221.71
451.57	9149.15
451.76	9181.92
451.94	9170.22
452.13	9509.60
452.31	9399.59
452.49	9387.89
452.68	9214.69
452.86	9371.50
453.05	9521.30
453.23	9500.23
453.42	9607.90
453.60	9460.45
453.78	9525.98
453.97	9596.20
454.15	9575.13
454.34	9514.28
454.52	9722.59
454.70	9853.66
454.89	9935.57
455.07	9898.13
455.26	9921.53
455.44	9757.69
455.62	10186.01
455.81	9898.13
455.99	10085.37
456.17	10195.37
456.36	10036.22
456.54	10087.71
456.73	10579.22
456.91	10583.90
457.09	10396.66
457.28	10689.23
457.46	10394.32
457.64	10675.18
457.83	10649.44
458.01	10417.72
458.19	10738.38
458.38	10633.05
458.56	10878.81
458.74	10883.49
458.93	10644.76
459.11	10885.83
459.29	10707.95
459.48	10951.37
459.66	10899.87
459.84	11229.89
460.03	11337.56
460.21	11241.59
460.39	11211.17
460.57	11234.57
460.76	11281.38
460.94	11229.89
461.12	11257.98
461.31	11087.12
461.49	11456.92
461.67	11473.31
461.85	11463.94
462.04	11321.17
462.22	11562.25
462.40	11925.03
462.59	11688.64
462.77	11742.47
462.95	11800.98
463.13	11644.17
463.32	11878.22
463.50	11941.41
463.68	11927.37
463.86	12037.38
464.05	11786.94
464.23	11800.98
464.41	12154.40
464.59	11721.40
464.78	12187.17
464.96	11997.59
465.14	12030.35
465.32	12091.21
465.50	12189.51
465.69	12313.56
465.87	12245.68
466.05	12283.13
466.23	12475.06
466.41	12456.33
466.60	12718.47
466.78	12175.47
466.96	12308.88
467.14	12521.87
467.32	12776.98
467.51	12582.72
467.69	12453.99
467.87	12830.82
468.05	12500.80
468.23	12655.28
468.41	12526.55
468.60	12776.98
468.78	12734.85
468.96	12919.76
469.14	13013.38
469.32	13085.94
469.50	12774.64
469.69	12891.67
469.87	13158.49
470.05	13233.39
470.23	13160.83
470.41	13327.01
470.59	13425.31
470.77	13401.91
470.95	13537.66
471.14	13673.41
471.32	13458.08
471.50	13589.15
471.68	13788.10
471.86	13654.69
472.04	14106.41
472.22	14249.18
472.40	13774.05
472.58	14104.07
472.77	14047.90
472.95	14387.27
473.13	14757.08
473.31	14295.99
473.49	14242.16
473.67	14361.53
473.85	14342.80
474.03	14691.54
474.21	15267.31
474.39	14958.36
474.57	14831.97
474.75	15002.83
474.93	15236.89
475.12	15070.71
475.30	15571.58
475.48	15360.94
475.66	15288.38
475.84	15096.46
476.02	15676.91
476.20	15433.49
476.38	15749.46
476.56	16240.98
476.74	16210.55
476.92	15971.82
477.10	15892.24
477.28	16306.51
477.46	16702.06
477.64	16580.36
477.82	16491.41
478.00	16999.31
478.18	16915.05
478.36	17202.94
478.54	17326.99
478.72	17633.60
478.90	17446.35
479.08	17865.31
479.26	17851.27
479.44	17792.75
479.62	17832.54
479.80	18270.22
479.98	18487.89
480.16	18874.08
480.34	18410.65
480.52	18745.35
480.70	19138.56
480.88	18464.49
481.06	18672.79
481.24	18941.96
481.41	19028.56
481.59	19445.17
481.77	19714.33
481.95	20166.06
482.13	20093.50
482.31	19840.72
482.49	20510.11
482.67	20212.87
482.85	21039.08
483.03	20842.47
483.21	21102.27
483.39	21050.78
483.57	21181.85
483.74	21207.59
483.92	21706.13
484.10	21497.82
484.28	22162.53
484.46	22267.86
484.64	22485.53
484.82	22246.79
485.00	22689.15
485.18	23253.22
485.35	23185.35
485.53	23316.42
485.71	23119.81
485.89	23541.11
486.07	23440.47
486.25	23590.26
486.43	23800.91
486.61	23997.51
486.78	24477.32
486.96	24409.45
487.14	24563.92
487.32	24702.01
487.50	25170.12
487.68	25144.38
487.85	25778.66
488.03	26005.69
488.21	26373.16
488.39	26115.70
488.57	26441.03
488.75	26916.16
488.92	26778.07
489.10	27152.55
489.28	27082.34
489.46	27484.91
489.64	27234.47
489.81	28432.83
489.99	27784.50
490.17	28196.43
490.35	28474.96
490.53	28238.56
490.70	28811.99
490.88	28769.86
491.06	29345.64
491.24	29172.44
491.41	29542.24
491.59	29294.14
491.77	29617.14
491.95	29993.97
492.13	30431.65
492.30	30562.72
492.48	30391.86
492.66	30703.15
492.84	30700.81
493.01	30888.05
493.19	31047.21
493.37	31634.68
493.54	31468.50
493.72	31915.54
493.90	31859.37
494.08	32161.30
494.25	32325.14
494.43	32510.04
494.61	32767.50
494.79	32666.86
494.96	33050.70
495.14	33214.54
495.32	33439.23
495.49	33284.76
495.67	33675.63
495.85	33816.06
496.02	34036.07
496.20	34539.29
496.38	34347.36
496.55	34965.26
496.73	35112.72
496.91	34920.79
497.09	35292.94
497.26	35431.03
497.44	35564.44
497.62	35431.03
497.79	36154.26
497.97	35847.64
498.14	36362.56
498.32	36935.99
498.50	37057.70
498.67	37053.02
498.85	36816.63
499.03	37240.26
499.20	37621.77
499.38	37106.85
499.56	37333.89
499.73	37696.67
499.91	37694.33
500.08	38036.05
500.26	37759.86
500.44	38089.88
500.61	38328.61
500.79	38433.94
500.97	38639.90
501.14	39297.59
501.32	38848.21
501.49	39143.12
501.67	39161.84
501.84	39594.84
502.02	39178.23
502.20	39185.25
502.37	39915.50
502.55	40023.16
502.72	39908.47
502.90	39866.34
503.07	40065.29
503.25	40215.08
503.43	39548.03
503.60	40512.33
503.78	40755.75
503.95	40737.02
504.13	41296.41
504.30	40664.47
504.48	41081.08
504.65	40959.38
504.83	41577.28
505.01	41855.80
505.18	41823.03
505.36	42291.14
505.53	41874.52
505.71	42073.47
505.88	42354.33
506.06	41827.71
506.23	42721.80
506.41	42424.55
506.58	42433.91
506.76	42452.64
506.93	43086.92
507.11	42632.86
507.28	43124.37
507.46	43107.99
507.63	43229.69
507.81	43725.89
507.98	43220.33
508.16	43288.21
508.33	43941.22
508.50	43861.64
508.68	44210.38
508.85	44748.70
509.03	44631.68
509.20	44584.86
509.38	44839.98
509.55	45191.06
509.73	44837.64
509.90	45294.05
510.08	44847.00
510.25	45287.03
510.42	45462.57
510.60	45762.15
510.77	45900.25
510.95	45881.52
511.12	45748.11
511.30	45635.77
511.47	46134.30
511.64	46134.30
511.82	46391.76
511.99	46153.02
512.17	46700.71
512.34	46447.93
512.51	47175.84
512.69	47150.09
512.86	47007.32
513.04	47437.98
513.21	47309.25
513.38	46880.93
513.56	47461.38
513.73	47061.15
513.90	47679.05
514.08	47447.34
514.25	47693.10
514.43	47697.78
514.60	48032.47
514.77	47962.26
514.95	48170.57
515.12	48088.65
515.29	47973.96
515.47	48175.25
515.64	48378.87
515.81	48343.77
515.99	48559.09
516.16	48910.17
516.33	48903.15
516.51	49013.16
516.68	48992.09
516.85	49074.01
517.03	49272.96
517.20	49254.23
517.37	49151.25
517.54	49193.38
517.72	49626.38
517.89	49593.61
518.06	49752.77
518.24	49876.82
518.41	49558.50
518.58	49762.13
518.75	49808.94
518.93	49970.44
519.10	49837.03
519.27	49911.92
519.45	50300.45
519.62	50380.03
519.79	50614.08
519.96	50061.72
520.14	50408.12
520.31	50595.36
520.48	50733.45
520.65	50986.23
520.83	51192.20
521.00	50997.93
521.17	51011.98
521.34	51152.41
521.52	51089.21
521.69	51187.52
521.86	51669.67
522.03	51540.94
522.20	51657.96
522.38	51943.51
522.55	51793.71
522.72	51838.18
522.89	51978.62
523.07	51817.12
523.24	52210.33
523.41	52156.50
523.58	51800.74
523.75	52203.31
523.92	52285.23
524.10	52594.18
524.27	52334.38
524.44	52582.48
524.61	52556.73
524.78	52364.81
524.96	52643.33
525.13	52577.79
525.30	52938.24
525.47	52687.80
525.64	52975.69
525.81	53050.58
525.98	53099.73
526.16	52889.09
526.33	52987.39
526.50	53467.20
526.67	52912.49
526.84	53085.69
527.01	53368.90
527.18	53176.97
527.36	53223.78
527.53	53331.45
527.70	53659.12
527.87	53565.50
528.04	53654.44
528.21	53698.91
528.38	53869.77
528.55	53914.24
528.72	53771.47
528.89	53851.05
529.07	53593.59
529.24	53567.84
529.41	54136.59
529.58	54073.40
529.75	53778.49
529.92	54068.72
530.09	54440.86
530.26	54590.66
530.43	54197.44
530.60	54253.62
530.77	54279.36
530.94	54424.48
531.11	54319.15
531.28	54529.80
531.46	54543.84
531.63	54396.39
531.80	54623.42
531.97	54452.56
532.14	54946.42
532.31	54815.35
532.48	55271.75
532.65	55077.49
532.82	55021.31
532.99	54871.52
533.16	55011.95
533.33	55042.38
533.50	55215.58
533.67	55344.31
533.84	55033.02
534.01	55189.83
534.18	55402.82
534.35	55543.25
534.52	55332.60
534.69	55973.91
534.86	55681.34
535.03	55414.52
535.20	55400.48
535.37	55573.68
535.54	55704.75
535.71	55664.96
535.88	55557.30
536.05	55702.41
536.22	55938.80
536.38	55894.33
536.55	55814.76
536.72	55863.91
536.89	55964.55
537.06	56069.87
537.23	55964.55
537.40	55810.07
537.57	55985.61
537.74	56292.22
537.91	56395.21
538.08	56088.60
538.25	55812.41
538.42	56156.47
538.59	56418.61
538.75	56275.84
538.92	56212.65
539.09	56573.09
539.26	56397.55
539.43	56467.76
539.60	56437.34
539.77	56734.59
539.94	56860.97
540.11	56570.75
540.28	56802.46
540.44	56800.12
540.61	56715.86
540.78	56788.42
540.95	56722.88
541.12	56809.48
541.29	56615.22
541.46	56816.50
541.62	56865.66
541.79	57109.07
541.96	56762.67
542.13	56889.06
542.30	57022.47
542.47	57183.97
542.63	57153.54
542.80	57418.02
542.97	57324.40
543.14	57310.36
543.31	57638.03
543.48	57537.39
543.64	57682.50
543.81	57654.42
543.98	57616.97
544.15	57879.11
544.32	57815.91
544.48	57998.48
544.65	57523.35
544.82	57626.33
544.99	57558.45
545.16	57729.31
545.32	57694.21
545.49	57872.09
545.66	57829.96
545.83	57897.83
546.00	58169.33
546.16	57944.64
546.33	57755.06
546.50	57925.92
546.67	58066.35
546.83	57670.80
547.00	58159.97
547.17	57996.13
547.34	58103.80
547.50	58262.96
547.67	58422.11
547.84	58255.93
548.00	58365.94
548.17	58712.34
548.34	58609.35
548.51	58459.56
548.67	58630.42
548.84	58328.49
549.01	58440.84
549.18	58396.37
549.34	58686.59
549.51	58635.10
549.68	58665.53
549.84	58543.82
550.01	58630.42
550.18	58504.03
550.34	58852.77
550.51	58796.60
550.68	58646.80
550.84	58646.80
551.01	58843.41
551.18	58848.09
551.34	58848.09
551.51	58838.73
551.68	59000.22
551.84	58616.38
552.01	58845.75
552.18	58951.07
552.34	58759.15
552.51	59171.08
552.68	58939.37
552.84	58890.22
553.01	59224.92
553.18	59089.16
553.34	59138.32
553.51	58876.18
553.67	59021.29
553.84	59213.21
554.01	59201.51
554.17	59185.13
554.34	59297.47
554.51	59234.28
554.67	59426.20
554.84	59297.47
555.00	59344.28
555.17	59203.85
555.33	59327.90
555.50	59262.36
555.67	59220.23
555.83	59330.24
556.00	59529.19
556.16	59662.60
556.33	59517.48
556.50	59543.23
556.66	59639.19
556.83	59545.57
556.99	59580.68
557.16	59803.03
557.32	59683.66
557.49	59793.67
557.65	59529.19
557.82	59597.06
557.98	59714.09
558.15	59693.02
558.32	59662.60
558.48	59639.19
558.65	59723.45
558.81	59793.67
558.98	59920.05
559.14	60034.74
559.31	59999.63
559.47	59725.79
559.64	59934.10
559.80	60210.28
559.97	60123.68
560.13	59884.95
560.30	59969.21
560.46	60114.32
560.63	60065.17
560.79	60067.51
560.96	60119.00
561.12	59920.05
561.29	60170.49
561.45	60444.33
561.61	60165.81
561.78	60046.44
561.94	60109.64
562.11	60217.30
562.27	60156.45
562.44	59980.91
562.60	60441.99
562.77	60327.31
562.93	60020.70
563.10	60175.17
563.26	60130.70
563.42	60575.40
563.59	60341.35
563.75	60299.22
563.92	60264.11
564.08	60219.64
564.24	60395.18
564.41	60355.39
564.57	60458.38
564.74	60453.70
564.90	60292.20
565.07	60343.69
565.23	60278.16
565.39	60427.95
565.56	60509.87
565.72	60556.68
565.88	60533.28
566.05	60364.76
566.21	60446.68
566.38	60392.84
566.54	60470.08
566.70	60603.49
566.87	60666.69
567.03	60608.17
567.19	60781.37
567.36	60556.68
567.52	60451.36
567.68	60790.73
567.85	60662.00
568.01	60584.77
568.17	60390.50
568.34	60823.50
568.50	60706.47
568.66	60561.36
568.83	60643.28
568.99	60495.83
569.15	60643.28
569.32	60680.73
569.48	60790.73
569.64	60952.23
569.81	60657.32
569.97	60769.67
570.13	60893.72
570.30	60509.87
570.46	60853.93
570.62	60942.87
570.78	60821.16
570.95	60802.44
571.11	60924.14
571.27	60734.56
571.43	60816.48
571.60	61024.79
571.76	60793.07
571.92	60863.29
572.09	60945.21
572.25	60973.30
572.41	60828.18
572.57	60914.78
572.74	61144.16
572.90	60851.59
573.06	60767.33
573.22	60818.82
573.38	60973.30
573.55	60989.68
573.71	61078.62
573.87	60926.49
574.03	60734.56
574.20	60973.30
574.36	61036.49
574.52	61137.13
574.68	60872.65
574.84	61237.78
575.01	61015.43
575.17	60994.36
575.33	61062.24
575.49	60994.36
575.65	60987.34
575.82	60886.70
575.98	61258.84
576.14	61130.11
576.30	61017.77
576.46	60853.93
576.62	60914.78
576.79	61050.53
576.95	60760.31
577.11	60968.61
577.27	61127.77
577.43	61104.37
577.59	61195.65
577.75	60977.98
577.92	61153.52
578.08	61137.13
578.24	61331.40
578.40	61095.00
578.56	61165.22
578.72	61113.73
578.88	61235.44
579.04	61174.58
579.21	61202.67
579.37	61153.52
579.53	61399.27
579.69	61216.71
579.85	61151.18
580.01	61090.32
580.17	60858.61
580.33	61085.64
580.49	61305.65
580.65	61197.99
580.82	61183.94
580.98	61008.40
581.14	61034.15
581.30	61186.28
581.46	61090.32
581.62	61319.70
581.78	61020.11
581.94	61286.93
582.10	61251.82
582.26	61010.74
582.42	61291.61
582.58	61343.10
582.74	61202.67
582.90	61256.50
583.06	61214.37
583.22	61090.32
583.38	61200.33
583.54	61226.07
583.70	61240.12
583.86	61235.44
584.02	61296.29
584.18	61291.61
584.34	61275.22
584.50	61279.91
584.66	61104.37
584.82	61073.94
584.98	61542.05
585.14	61368.85
585.30	61020.11
585.46	61125.43
585.62	61310.33
585.78	61525.66
585.94	61073.94
586.10	61371.19
586.26	61219.05
586.42	61312.67
586.58	61347.78
586.74	61513.96
586.90	61284.59
587.06	61387.57
587.22	61371.19
587.38	61410.98
587.54	61439.06
587.70	61382.89
587.86	61375.87
588.02	61495.24
588.18	61509.28
588.34	61385.23
588.49	61499.92
