SpectraSuite Data File
++++++++++++++++++++++++++++++++++++
Date: Fri Oct 25 11:26:00 EDT 2013
User: price-jones
Dark Spectrum Present: No
Reference Spectrum Present: No
Number of Sampled Component Spectra: 1
Spectrometers: USB2+H05261
Integration Time (usec): 100000 (USB2+H05261)
Spectra Averaged: 1 (USB2+H05261)
Boxcar Smoothing: 0 (USB2+H05261)
Correct for Electrical Dark: No (USB2+H05261)
Strobe/Lamp Enabled: No (USB2+H05261)
Correct for Detector Non-linearity: No (USB2+H05261)
Correct for Stray Light: No (USB2+H05261)
Number of Pixels in Processed Spectrum: 2048
>>>>>Begin Processed Spectral Data<<<<<
365.73	222.35
365.92	222.35
366.12	222.35
366.32	133.41
366.52	180.22
366.72	161.50
366.91	98.30
367.11	163.84
367.31	72.56
367.51	135.75
367.70	163.84
367.90	147.45
368.10	149.79
368.30	159.16
368.49	168.52
368.69	156.82
368.89	168.52
369.09	177.88
369.28	198.95
369.48	238.73
369.68	138.09
369.87	285.55
370.07	294.91
370.27	229.37
370.47	367.46
370.66	578.11
370.86	650.67
371.06	699.82
371.25	559.39
371.45	671.73
371.65	704.50
371.84	653.01
372.04	685.78
372.24	805.14
372.44	643.65
372.63	737.27
372.83	777.06
373.03	741.95
373.22	791.10
373.42	763.01
373.62	798.12
373.81	819.19
374.01	812.17
374.21	819.19
374.40	770.04
374.60	816.85
374.79	835.57
374.99	812.17
375.19	798.12
375.38	866.00
375.58	905.79
375.78	896.43
375.97	943.24
376.17	903.45
376.37	924.51
376.56	894.08
376.76	938.55
376.95	884.72
377.15	1006.43
377.35	835.57
377.54	926.85
377.74	947.92
377.93	936.21
378.13	919.83
378.33	884.72
378.52	917.49
378.72	863.66
378.91	952.60
379.11	919.83
379.31	952.60
379.50	933.87
379.70	1050.90
379.89	910.47
380.09	992.39
380.28	943.24
380.48	1025.15
380.68	1013.45
380.87	961.96
381.07	1060.26
381.26	992.39
381.46	1039.20
381.65	1093.03
381.85	973.66
382.04	1062.60
382.24	1011.11
382.43	1034.52
382.63	1036.86
382.83	1109.41
383.02	1071.97
383.22	1114.10
383.41	1153.88
383.61	1130.48
383.80	1139.84
384.00	1081.33
384.19	1132.82
384.39	1067.28
384.58	1170.27
384.78	1210.06
384.97	1151.54
385.17	1156.22
385.36	1153.88
385.56	1263.89
385.75	1130.48
385.95	1184.31
386.14	1165.59
386.34	1188.99
386.53	1137.50
386.72	1224.10
386.92	1277.93
387.11	1170.27
387.31	1191.33
387.50	1170.27
387.70	1282.61
387.89	1275.59
388.09	1329.42
388.28	1268.57
388.48	1280.27
388.67	1315.38
388.86	1373.89
389.06	1364.53
389.25	1331.76
389.45	1341.13
389.64	1423.05
389.84	1411.34
390.03	1371.55
390.22	1355.17
390.42	1366.87
390.61	1376.24
390.81	1390.28
391.00	1385.60
391.19	1446.45
391.39	1401.98
391.58	1474.54
391.78	1432.41
391.97	1409.00
392.16	1423.05
392.36	1526.03
392.55	1598.59
392.75	1519.01
392.94	1519.01
393.13	1519.01
393.33	1530.71
393.52	1577.52
393.71	1586.88
393.91	1643.06
394.10	1600.93
394.29	1621.99
394.49	1621.99
394.68	1661.78
394.88	1720.29
395.07	1673.48
395.26	1710.93
395.46	1720.29
395.65	1764.76
395.84	1743.70
396.04	1839.66
396.23	1767.10
396.42	1736.68
396.62	1671.14
396.81	1858.39
397.00	1748.38
397.19	1823.28
397.39	1717.95
397.58	1900.52
397.77	1851.36
397.97	1870.09
398.16	1952.01
398.35	1907.54
398.55	1856.04
398.74	1858.39
398.93	1952.01
399.12	1921.58
399.32	1795.19
399.51	1912.22
399.70	1980.09
399.90	1975.41
400.09	2024.56
400.28	2085.42
400.47	2024.56
400.67	2003.50
400.86	2190.74
401.05	2132.23
401.24	2047.97
401.44	2050.31
401.63	2059.67
401.82	2169.68
402.01	2162.66
402.21	2169.68
402.40	2179.04
402.59	2314.79
402.78	2204.78
402.97	2272.66
403.17	2263.30
403.36	2445.86
403.55	2314.79
403.74	2389.69
403.93	2326.49
404.13	2377.98
404.32	2303.09
404.51	2389.69
404.70	2373.30
404.89	2333.51
405.09	2506.71
405.28	2495.01
405.47	2530.12
405.66	2417.77
405.85	2520.76
406.05	2483.31
406.24	2593.31
406.43	2473.95
406.62	2581.61
406.81	2626.08
407.00	2621.40
407.20	2705.66
407.39	2602.68
407.58	2675.23
407.77	2754.81
407.96	2818.00
408.15	2766.51
408.34	2640.12
408.54	2775.88
408.73	2733.75
408.92	2729.06
409.11	2963.12
409.30	2888.22
409.49	2906.95
409.68	2892.90
409.87	3000.57
410.07	3012.27
410.26	3045.04
410.45	2963.12
410.64	3138.66
410.83	3180.79
411.02	3185.47
411.21	3089.51
411.40	3309.52
411.59	3243.98
411.78	3227.60
411.98	3215.90
412.17	3213.56
412.36	3386.76
412.55	3351.65
412.74	3393.78
412.93	3365.69
413.12	3463.99
413.31	3487.40
413.50	3372.71
413.69	3534.21
413.88	3461.65
414.07	3728.47
414.26	3623.15
414.45	3641.87
414.64	3693.37
414.83	3674.64
415.02	3836.14
415.22	3733.15
415.41	3913.38
415.60	3712.09
415.79	4025.72
415.98	3906.35
416.17	4016.36
416.36	3873.59
416.55	3969.55
416.74	4039.76
416.93	4105.30
417.12	4140.41
417.31	4133.39
417.50	4175.52
417.69	4390.84
417.88	4262.12
418.07	4259.78
418.26	4304.25
418.45	4334.67
418.64	4535.96
418.83	4496.17
419.02	4416.59
419.21	4496.17
419.39	4428.29
419.58	4545.32
419.77	4484.47
419.96	4456.38
420.15	4688.09
420.34	4568.73
420.53	4601.49
420.72	4643.62
420.91	4557.02
421.10	4638.94
421.29	4777.03
421.48	4709.16
421.67	4575.75
421.86	4812.14
422.05	4704.48
422.24	4882.36
422.43	4791.08
422.61	4919.81
422.80	4938.53
422.99	4957.25
423.18	5022.79
423.37	5001.72
423.56	4975.98
423.75	4983.00
423.94	4880.02
424.13	4594.47
424.32	4753.63
424.50	5043.85
424.69	5195.99
424.88	5109.39
425.07	4884.70
425.26	4924.49
425.45	4896.40
425.64	4826.18
425.83	4922.15
426.01	4971.30
426.20	5020.45
426.39	5006.41
426.58	5032.15
426.77	5102.37
426.96	5146.84
427.15	5174.92
427.33	5322.38
427.52	5137.48
427.71	5334.08
427.90	5289.61
428.09	5359.83
428.28	5455.79
428.46	5413.66
428.65	5235.78
428.84	5638.35
429.03	5416.00
429.22	5205.35
429.40	5394.93
429.59	5535.37
429.78	5242.80
429.97	5291.95
430.16	5481.53
430.34	5603.24
430.53	5673.46
430.72	5685.16
430.91	5675.80
431.10	5530.69
431.28	5860.70
431.47	5685.16
431.66	5764.74
431.85	5813.89
432.03	5844.32
432.22	5874.74
432.41	5970.71
432.60	5928.58
432.79	5991.77
432.97	6139.23
433.16	5963.68
433.35	6085.39
433.54	6069.01
433.72	6134.54
433.91	6045.60
434.10	6132.20
434.28	6127.52
434.47	6136.88
434.66	6193.06
434.85	6480.94
435.03	6237.53
435.22	6347.53
435.41	6516.05
435.59	6403.71
435.78	6382.64
435.97	6509.03
436.16	6333.49
436.34	6471.58
436.53	6600.31
436.72	6633.08
436.90	6504.35
437.09	6698.61
437.28	6476.26
437.46	6504.35
437.65	6609.67
437.84	6686.91
438.02	6614.35
438.21	6925.65
438.40	6724.36
438.58	6888.20
438.77	7148.00
438.96	6920.96
439.14	7180.76
439.33	7377.37
439.52	6984.16
439.70	7250.98
439.89	7201.83
440.08	7335.24
440.26	7248.64
440.45	7323.54
440.63	7330.56
440.82	7597.38
441.01	7714.41
441.19	7719.09
441.38	7588.02
441.57	7756.54
441.75	7857.18
441.94	7861.86
442.12	7812.71
442.31	7913.35
442.50	8166.13
442.68	7843.14
442.87	8182.51
443.05	8140.38
443.24	8161.45
443.43	8276.13
443.61	8107.62
443.80	8407.20
443.98	8252.73
444.17	7887.61
444.35	8161.45
444.54	8411.89
444.73	8327.63
444.91	8360.39
445.10	8320.60
445.28	8381.46
445.47	8215.28
445.65	8348.69
445.84	8369.76
446.02	8594.45
446.21	8465.72
446.39	8226.98
446.58	8435.29
446.77	8318.26
446.95	8229.32
447.14	8475.08
447.32	8575.72
447.51	8613.17
447.69	8589.77
447.88	8423.59
448.06	8603.81
448.25	8557.00
448.43	8552.32
448.62	8606.15
448.80	8418.91
448.99	8610.83
449.17	8659.98
449.36	8645.94
449.54	8760.63
449.73	8968.93
449.91	9095.32
450.10	8751.26
450.28	9074.26
450.46	9011.06
450.65	9214.69
450.83	8954.89
451.02	8889.35
451.20	9231.07
451.39	9109.36
451.57	8898.72
451.76	9188.94
451.94	9123.41
452.13	9198.31
452.31	9380.87
452.49	9188.94
452.68	9392.57
452.86	9404.27
453.05	9467.47
453.23	9645.35
453.42	9256.82
453.60	9273.20
453.78	9504.92
453.97	9387.89
454.15	9504.92
454.34	9469.81
454.52	9867.70
454.70	9640.67
454.89	9701.52
455.07	9762.37
455.26	9844.29
455.44	9844.29
455.62	9937.91
455.81	9846.63
455.99	10036.22
456.17	10164.95
456.36	10134.52
456.54	10118.14
456.73	10129.84
456.91	10422.41
457.09	10258.57
457.28	10616.67
457.46	10263.25
457.64	10565.18
457.83	10539.43
458.01	10127.50
458.19	10768.80
458.38	10525.39
458.56	10736.04
458.74	10827.32
458.93	10583.90
459.11	10684.55
459.29	10574.54
459.48	11021.58
459.66	10668.16
459.84	10899.87
460.03	11375.00
460.21	10892.85
460.39	11225.21
460.57	10789.87
460.76	11129.25
460.94	11138.61
461.12	11325.85
461.31	11239.25
461.49	11253.30
461.67	11192.44
461.85	11683.95
462.04	11250.96
462.22	11674.59
462.40	11737.79
462.59	11543.52
462.77	11412.45
462.95	11674.59
463.13	11576.29
463.32	11578.63
463.50	11981.20
463.68	11831.41
463.86	11669.91
464.05	11616.08
464.23	11634.80
464.41	11857.15
464.59	11660.55
464.78	12121.63
464.96	11770.55
465.14	11709.70
465.32	12287.81
465.50	12161.42
465.69	12276.11
465.87	12084.19
466.05	11899.28
466.23	12348.67
466.41	12070.14
466.60	12540.59
466.78	12079.50
466.96	12156.74
467.14	12205.89
467.32	12491.44
467.51	12575.70
467.69	12194.19
467.87	12336.96
468.05	12472.71
468.23	12320.58
468.41	12290.15
468.60	12631.87
468.78	12779.32
468.96	12734.85
469.14	12964.23
469.32	12819.11
469.50	12608.47
469.69	12894.01
469.87	13132.75
470.05	13053.17
470.23	13174.88
470.41	12940.82
470.59	13179.56
470.77	13015.72
470.95	13357.44
471.14	13544.68
471.32	13085.94
471.50	13476.80
471.68	13514.25
471.86	13832.57
472.04	13736.60
472.22	14054.92
472.40	13823.20
472.58	13888.74
472.77	14071.30
472.95	14122.79
473.13	14410.68
473.31	13877.04
473.49	14122.79
473.67	14038.53
473.85	14157.90
474.03	14511.32
474.21	14164.92
474.39	14766.44
474.57	14759.42
474.75	15030.92
474.93	14979.43
475.12	14977.09
475.30	15115.18
475.48	14934.96
475.66	15267.31
475.84	15077.73
476.02	15297.74
476.20	15236.89
476.38	15735.42
476.56	15857.13
476.74	16016.29
476.92	15988.20
477.10	15754.15
477.28	16320.56
477.46	16049.05
477.64	16435.24
477.82	16638.87
478.00	16882.28
478.18	16882.28
478.36	16929.09
478.54	17099.95
478.72	17027.40
478.90	17205.28
479.08	17530.61
479.26	17696.79
479.44	17891.06
479.62	17689.77
479.80	18160.22
479.98	18118.09
480.16	18555.77
480.34	18022.12
480.52	18415.34
480.70	18487.89
480.88	18246.82
481.06	18780.46
481.24	18953.66
481.41	19110.47
481.59	19655.82
481.77	19367.93
481.95	19304.74
482.13	19798.59
482.31	19527.09
482.49	20205.84
482.67	20159.03
482.85	20173.08
483.03	20521.82
483.21	20926.73
483.39	21111.63
483.57	21025.03
483.74	21312.92
483.92	21317.60
484.10	21261.43
484.28	21757.62
484.46	21914.44
484.64	22125.08
484.82	21884.01
485.00	22712.56
485.18	22710.22
485.35	23124.49
485.53	22747.67
485.71	23133.86
485.89	23463.87
486.07	23608.98
486.25	23473.23
486.43	23372.59
486.61	23939.00
486.78	24226.89
486.96	24297.10
487.14	24697.33
487.32	24587.33
487.50	24840.11
487.68	24879.89
487.85	25565.67
488.03	25600.78
488.21	25687.38
488.39	25797.38
488.57	26047.82
488.75	26162.51
488.92	26178.89
489.10	26955.95
489.28	26520.61
489.46	27098.72
489.64	26799.13
489.81	27756.41
489.99	27779.82
490.17	27374.91
490.35	28531.13
490.53	28175.37
490.70	28760.50
490.88	28561.56
491.06	29158.39
491.24	28886.89
491.41	28786.25
491.59	29673.31
491.77	29205.20
491.95	29364.36
492.13	29434.58
492.30	30047.80
492.48	30143.76
492.66	30066.52
492.84	30235.04
493.01	30759.32
493.19	30630.59
493.37	31030.82
493.54	31358.50
493.72	31541.06
493.90	31901.50
494.08	31599.57
494.25	32102.79
494.43	31997.46
494.61	32088.74
494.79	32673.88
494.96	32617.71
495.14	32907.93
495.32	33380.72
495.49	33308.16
495.67	33137.30
495.85	33820.74
496.02	33811.38
496.20	34267.78
496.38	34078.20
496.55	34307.57
496.73	34932.50
496.91	34625.89
497.09	34775.68
497.26	35068.25
497.44	35070.59
497.62	35166.55
497.79	36006.80
497.97	35599.55
498.14	36268.94
498.32	36402.35
498.50	35976.37
498.67	36893.86
498.85	36341.50
499.03	36451.50
499.20	36519.38
499.38	36669.17
499.56	36706.62
499.73	36961.74
499.91	37127.92
500.08	37251.97
500.26	37546.87
500.44	37532.83
500.61	37537.51
500.79	37642.84
500.97	37942.42
501.14	38586.07
501.32	38464.36
501.49	38532.24
501.67	38635.22
501.84	38831.83
502.02	38738.21
502.20	39133.76
502.37	39356.11
502.55	39435.69
502.72	39360.79
502.90	39431.01
503.07	39608.89
503.25	39866.34
503.43	39578.46
503.60	39763.36
503.78	40053.59
503.95	39952.94
504.13	40896.18
504.30	41057.68
504.48	40107.42
504.65	40861.07
504.83	41038.95
505.01	41273.01
505.18	41385.35
505.36	41619.41
505.53	41420.46
505.71	41614.72
505.88	41399.40
506.06	41659.20
506.23	41808.99
506.41	41507.06
506.58	41670.90
506.76	42068.79
506.93	42190.50
507.11	42429.23
507.28	42873.93
507.46	43026.07
507.63	42813.08
507.81	43103.31
507.98	42721.80
508.16	43337.36
508.33	43070.54
508.50	43871.00
508.68	43749.29
508.85	44051.22
509.03	43835.89
509.20	43819.51
509.38	44425.71
509.55	44477.20
509.73	44659.76
509.90	44715.93
510.08	44671.46
510.25	45116.17
510.42	44603.59
510.60	45057.65
510.77	44903.18
510.95	45303.41
511.12	44999.14
511.30	45436.82
511.47	45993.87
511.64	45532.78
511.82	45593.64
511.99	45893.22
512.17	45827.69
512.34	45326.81
512.51	46253.67
512.69	46080.47
512.86	46593.04
513.04	46576.66
513.21	46609.43
513.38	46454.95
513.56	47143.07
513.73	46588.36
513.90	46817.74
514.08	47091.58
514.25	46852.84
514.43	47349.04
514.60	47475.43
514.77	47363.08
514.95	47643.94
515.12	47887.36
515.29	47725.86
515.47	47487.13
515.64	48065.24
515.81	47878.00
515.99	48238.44
516.16	48240.78
516.33	48678.46
516.51	48720.59
516.68	48566.12
516.85	48437.39
517.03	48666.76
517.20	48657.40
517.37	48680.80
517.54	48839.96
517.72	49247.21
517.89	48835.28
518.06	49153.59
518.24	49015.50
518.41	48928.90
518.58	49324.45
518.75	49057.63
518.93	49485.95
519.10	49240.19
519.27	49834.69
519.45	50059.38
519.62	49916.61
519.79	50092.15
519.96	50005.55
520.14	50274.71
520.31	50260.66
520.48	50333.22
520.65	49977.46
520.83	50726.43
521.00	50646.85
521.17	50487.70
521.34	50878.57
521.52	51042.40
521.69	50614.08
521.86	50703.03
522.03	51206.24
522.20	51299.86
522.38	51463.70
522.55	50983.89
522.72	51346.67
522.89	51187.52
523.07	51791.37
523.24	51639.24
523.41	51906.06
523.58	51246.03
523.75	51983.30
523.92	51971.60
524.10	51873.29
524.27	52025.43
524.44	51840.53
524.61	52065.22
524.78	52074.58
524.96	52406.94
525.13	52392.89
525.30	52495.88
525.47	52498.22
525.64	52411.62
525.81	52666.73
525.98	52505.24
526.16	52755.68
526.33	52750.99
526.50	53092.71
526.67	52657.37
526.84	52765.04
527.01	52842.27
527.18	53200.38
527.36	52736.95
527.53	53003.77
527.70	52900.79
527.87	53392.30
528.04	53200.38
528.21	53265.91
528.38	53418.05
528.55	53670.82
528.72	53595.93
528.89	53453.15
529.07	53436.77
529.24	53488.26
529.41	53621.67
529.58	53626.35
529.75	53528.05
529.92	53853.39
530.09	53769.13
530.26	54038.29
530.43	53811.26
530.60	53687.21
530.77	53947.01
530.94	54110.85
531.11	53815.94
531.28	54014.88
531.46	54054.67
531.63	54162.34
531.80	54262.98
531.97	54457.24
532.14	54363.62
532.31	54525.12
532.48	54583.63
532.65	54714.70
532.82	54557.89
532.99	54815.35
533.16	54576.61
533.33	54670.23
533.50	55002.59
533.67	54871.52
533.84	54478.31
534.01	54803.64
534.18	55173.45
534.35	55407.50
534.52	55014.29
534.69	55194.51
534.86	55309.20
535.03	54981.52
535.20	55103.23
535.37	55231.96
535.54	55290.48
535.71	55243.66
535.88	55728.16
536.05	55442.61
536.22	55730.50
536.38	55700.07
536.55	55377.08
536.72	55416.86
536.89	55480.06
537.06	56046.47
537.23	55707.09
537.40	55456.65
537.57	55594.74
537.74	55629.85
537.91	55992.64
538.08	55969.23
538.25	55414.52
538.42	55894.33
538.59	56240.73
538.75	55945.83
538.92	56149.45
539.09	56048.81
539.26	56240.73
539.43	56151.79
539.60	56346.06
539.77	56163.50
539.94	56243.07
540.11	56250.09
540.28	56310.95
540.44	56364.78
540.61	56498.19
540.78	56397.55
540.95	56477.13
541.12	56444.36
541.29	56526.28
541.46	56643.30
541.62	56690.12
541.79	56493.51
541.96	56420.95
542.13	56577.77
542.30	56765.01
542.47	56818.84
542.63	56898.42
542.80	56697.14
542.97	57104.39
543.14	57345.47
543.31	57174.61
543.48	57289.29
543.64	57396.96
543.81	57195.67
543.98	57228.44
544.15	57219.08
544.32	57471.85
544.48	57528.03
544.65	57399.30
544.82	57602.92
544.99	57258.87
545.16	57455.47
545.32	57230.78
545.49	57687.18
545.66	57670.80
545.83	57434.41
546.00	57481.22
546.16	57752.72
546.33	57612.29
546.50	57614.63
546.67	57640.37
546.83	57340.78
547.00	57785.49
547.17	57944.64
547.34	57909.53
547.50	57965.71
547.67	58049.97
547.84	58190.40
548.00	58253.59
548.17	57939.96
548.34	58192.74
548.51	58248.91
548.67	58241.89
548.84	58131.89
549.01	58110.82
549.18	58316.79
549.34	58183.38
549.51	58190.40
549.68	58108.48
549.84	58363.60
550.01	58288.70
550.18	58269.98
550.34	58405.73
550.51	58766.17
550.68	58487.65
550.84	58262.96
551.01	58623.40
551.18	58473.60
551.34	58494.67
551.51	58745.11
551.68	58548.50
551.84	58618.72
552.01	58389.34
552.18	58396.37
552.34	58536.80
552.51	58637.44
552.68	58412.75
552.84	58569.57
553.01	58934.69
553.18	58721.70
553.34	58843.41
553.51	58782.55
553.67	58717.02
553.84	58801.28
554.01	58892.56
554.17	58848.09
554.34	58803.62
554.51	58937.03
554.67	59018.95
554.84	59056.40
555.00	58859.79
555.17	59021.29
555.33	59245.98
555.50	58841.07
555.67	59131.29
555.83	59107.89
556.00	59121.93
556.16	59215.55
556.33	59339.60
556.50	59339.60
556.66	59327.90
556.83	59093.85
556.99	59306.83
557.16	59391.09
557.32	59597.06
557.49	59386.41
557.65	59365.35
557.82	59381.73
557.98	59458.97
558.15	59540.89
558.32	59442.59
558.48	59505.78
558.65	59660.26
558.81	59512.80
558.98	59440.24
559.14	59697.70
559.31	59526.84
559.47	59566.63
559.64	59739.83
559.80	59709.41
559.97	59629.83
560.13	59217.89
560.30	59655.57
560.46	59800.69
560.63	59854.52
560.79	59629.83
560.96	59749.20
561.12	59559.61
561.29	59671.96
561.45	59852.18
561.61	59922.40
561.78	59625.15
561.94	59997.29
562.11	59758.56
562.27	59821.75
562.44	59868.56
562.60	59889.63
562.77	60048.78
562.93	59784.30
563.10	60182.19
563.26	59898.99
563.42	60285.18
563.59	60109.64
563.75	59992.61
563.92	60034.74
564.08	60067.51
564.24	60109.64
564.41	60104.96
564.57	60104.96
564.74	60177.51
564.90	60072.19
565.07	60111.98
565.23	60093.25
565.39	60016.02
565.56	60224.32
565.72	60046.44
565.88	60177.51
566.05	60170.49
566.21	60282.84
566.38	60306.24
566.54	60065.17
566.70	60317.95
566.87	60406.89
567.03	59898.99
567.19	60397.52
567.36	60320.29
567.52	60175.17
567.68	60374.12
567.85	60238.37
568.01	60519.23
568.17	60306.24
568.34	60306.24
568.50	60514.55
568.66	60376.46
568.83	60540.30
568.99	60329.65
569.15	60554.34
569.32	60633.92
569.48	60416.25
569.64	60556.68
569.81	60385.82
569.97	60163.47
570.13	60636.26
570.30	60240.71
570.46	60423.27
570.62	60477.10
570.78	60404.55
570.95	60313.26
571.11	60573.06
571.27	60528.59
571.43	60406.89
571.60	60554.34
571.76	60549.66
571.92	60544.98
572.09	60615.19
572.25	60556.68
572.41	60582.43
572.57	60530.93
572.74	60708.82
572.90	60760.31
573.06	60463.06
573.22	60629.24
573.38	60664.35
573.55	60793.07
573.71	60811.80
573.87	60680.73
574.03	60692.43
574.20	60772.01
574.36	60680.73
574.52	60795.42
574.68	60699.45
574.84	60828.18
575.01	60853.93
575.17	61001.38
575.33	60640.94
575.49	60706.47
575.65	60786.05
575.82	60774.35
575.98	60652.64
576.14	60835.20
576.30	60715.84
576.46	60736.90
576.62	60807.12
576.79	60959.25
576.95	60505.19
577.11	60872.65
577.27	60692.43
577.43	60879.67
577.59	60900.74
577.75	60734.56
577.92	60800.10
578.08	60748.60
578.24	60874.99
578.40	60949.89
578.56	60924.14
578.72	60786.05
578.88	61003.72
579.04	60989.68
579.21	60732.22
579.37	60919.46
579.53	60896.06
579.69	60795.42
579.85	60739.24
580.01	60720.52
580.17	60638.60
580.33	60917.12
580.49	60959.25
580.65	60865.63
580.82	60933.51
580.98	60884.36
581.14	60800.10
581.30	60994.36
581.46	60903.08
581.62	60938.19
581.78	60757.97
581.94	60835.20
582.10	60795.42
582.26	60912.44
582.42	60874.99
582.58	60779.03
582.74	60949.89
582.90	60867.97
583.06	60842.23
583.22	60647.96
583.38	60898.40
583.54	60896.06
583.70	60980.32
583.86	60996.70
584.02	60884.36
584.18	61048.19
584.34	61158.20
584.50	60928.83
584.66	60886.70
584.82	60704.13
584.98	61186.28
585.14	61116.07
585.30	60893.72
585.46	60980.32
585.62	60814.14
585.78	61256.50
585.94	60828.18
586.10	61015.43
586.26	60959.25
586.42	60914.78
586.58	61144.16
586.74	61099.68
586.90	61017.77
587.06	61001.38
587.22	61036.49
587.38	60907.76
587.54	61055.21
587.70	61179.26
587.86	61097.34
588.02	61102.03
588.18	61315.01
588.34	60956.91
588.49	61003.72
