SpectraSuite Data File
++++++++++++++++++++++++++++++++++++
Date: Fri Oct 25 11:23:37 EDT 2013
User: price-jones
Dark Spectrum Present: No
Reference Spectrum Present: No
Number of Sampled Component Spectra: 1
Spectrometers: USB2+H05261
Integration Time (usec): 100000 (USB2+H05261)
Spectra Averaged: 1 (USB2+H05261)
Boxcar Smoothing: 0 (USB2+H05261)
Correct for Electrical Dark: No (USB2+H05261)
Strobe/Lamp Enabled: No (USB2+H05261)
Correct for Detector Non-linearity: No (USB2+H05261)
Correct for Stray Light: No (USB2+H05261)
Number of Pixels in Processed Spectrum: 2048
>>>>>Begin Processed Spectral Data<<<<<
365.73	241.08
365.92	241.08
366.12	241.08
366.32	133.41
366.52	180.22
366.72	159.16
366.91	126.39
367.11	131.07
367.31	124.05
367.51	166.18
367.70	110.01
367.90	102.98
368.10	119.37
368.30	121.71
368.49	70.22
368.69	119.37
368.89	142.77
369.09	102.98
369.28	215.33
369.48	170.86
369.68	145.11
369.87	227.03
370.07	191.92
370.27	184.90
370.47	362.78
370.66	624.92
370.86	638.97
371.06	575.77
371.25	676.41
371.45	730.25
371.65	629.60
371.84	755.99
372.04	638.97
372.24	720.88
372.44	674.07
372.63	741.95
372.83	734.93
373.03	784.08
373.22	851.96
373.42	823.87
373.62	774.72
373.81	795.78
374.01	786.42
374.21	816.85
374.40	802.80
374.60	746.63
374.79	870.68
374.99	753.65
375.19	844.93
375.38	814.51
375.58	826.21
375.78	833.23
375.97	894.08
376.17	861.32
376.37	826.21
376.56	875.36
376.76	875.36
376.95	854.30
377.15	933.87
377.35	926.85
377.54	868.34
377.74	826.21
377.93	887.06
378.13	868.34
378.33	943.24
378.52	910.47
378.72	898.77
378.91	931.53
379.11	917.49
379.31	910.47
379.50	943.24
379.70	947.92
379.89	980.68
380.09	1004.09
380.28	896.43
380.48	1004.09
380.68	1022.81
380.87	983.02
381.07	987.71
381.26	1053.24
381.46	1050.90
381.65	1025.15
381.85	978.34
382.04	1020.47
382.24	1064.94
382.43	1055.58
382.63	992.39
382.83	1095.37
383.02	1125.80
383.22	1121.12
383.41	1046.22
383.61	1095.37
383.80	1111.75
384.00	1144.52
384.19	1132.82
384.39	1135.16
384.58	1146.86
384.78	1090.69
384.97	1177.29
385.17	1107.07
385.36	1228.78
385.56	1193.67
385.75	1186.65
385.95	1245.16
386.14	1207.72
386.34	1193.67
386.53	1280.27
386.72	1294.32
386.92	1217.08
387.11	1261.55
387.31	1308.36
387.50	1263.89
387.70	1313.04
387.89	1270.91
388.09	1282.61
388.28	1282.61
388.48	1268.57
388.67	1357.51
388.86	1341.13
389.06	1273.25
389.25	1348.15
389.45	1355.17
389.64	1249.85
389.84	1390.28
390.03	1380.92
390.22	1362.19
390.42	1345.81
390.61	1329.42
390.81	1401.98
391.00	1481.56
391.19	1423.05
391.39	1411.34
391.58	1432.41
391.78	1502.62
391.97	1460.49
392.16	1434.75
392.36	1530.71
392.55	1551.78
392.75	1558.80
392.94	1535.39
393.13	1533.05
393.33	1526.03
393.52	1607.95
393.71	1572.84
393.91	1598.59
394.10	1570.50
394.29	1643.06
394.49	1645.40
394.68	1661.78
394.88	1526.03
395.07	1703.91
395.26	1617.31
395.46	1600.93
395.65	1710.93
395.84	1699.23
396.04	1729.66
396.23	1769.44
396.42	1764.76
396.62	1743.70
396.81	1802.21
397.00	1729.66
397.19	1722.63
397.39	1827.96
397.58	1907.54
397.77	1856.04
397.97	1928.60
398.16	1923.92
398.35	1916.90
398.55	1952.01
398.74	1909.88
398.93	1959.03
399.12	1870.09
399.32	1914.56
399.51	1907.54
399.70	2003.50
399.90	2022.22
400.09	1944.99
400.28	1940.30
400.47	2043.29
400.67	2066.69
400.86	2132.23
401.05	2087.76
401.24	2188.40
401.44	2134.57
401.63	2076.06
401.82	2176.70
402.01	2141.59
402.21	2183.72
402.40	2204.78
402.59	2200.10
402.78	2183.72
402.97	2267.98
403.17	2251.60
403.36	2282.02
403.55	2345.22
403.74	2303.09
403.93	2354.58
404.13	2513.74
404.32	2410.75
404.51	2401.39
404.70	2417.77
404.89	2340.54
405.09	2574.59
405.28	2438.84
405.47	2448.20
405.66	2452.88
405.85	2429.48
406.05	2595.65
406.24	2623.74
406.43	2633.10
406.62	2628.42
406.81	2614.38
407.00	2511.39
407.20	2663.53
407.39	2567.57
407.58	2745.45
407.77	2747.79
407.96	2705.66
408.15	2682.25
408.34	2677.57
408.54	2967.80
408.73	2799.28
408.92	2876.52
409.11	2878.86
409.30	2808.64
409.49	2853.11
409.68	2869.50
409.87	3063.76
410.07	2937.37
410.26	3033.33
410.45	3136.32
410.64	2995.89
410.83	3103.55
411.02	3054.40
411.21	3164.40
411.40	3220.58
411.59	3262.71
411.78	3201.85
411.98	3246.32
412.17	3241.64
412.36	3323.56
412.55	3265.05
412.74	3365.69
412.93	3438.25
413.12	3398.46
413.31	3552.93
413.50	3581.02
413.69	3494.42
413.88	3609.11
414.07	3688.68
414.26	3482.72
414.45	3634.85
414.64	3775.28
414.83	3847.84
415.02	3765.92
415.22	3777.62
415.41	3892.31
415.60	3847.84
415.79	3831.46
415.98	3999.98
416.17	3990.61
416.36	3885.29
416.55	4056.15
416.74	4262.12
416.93	4060.83
417.12	4063.17
417.31	4255.09
417.50	4271.48
417.69	4208.28
417.88	4379.14
418.07	4121.68
418.26	4269.14
418.45	4428.29
418.64	4571.07
418.83	4355.74
419.02	4217.65
419.21	4432.97
419.39	4681.07
419.58	4528.94
419.77	4606.17
419.96	4465.74
420.15	4664.69
420.34	4589.79
420.53	4561.70
420.72	4578.09
420.91	4741.93
421.10	4753.63
421.29	4606.17
421.48	4737.24
421.67	4683.41
421.86	4786.40
422.05	4865.97
422.24	4997.04
422.43	4978.32
422.61	4875.34
422.80	5001.72
422.99	4994.70
423.18	4919.81
423.37	5057.90
423.56	4957.25
423.75	4971.30
423.94	4863.63
424.13	4629.58
424.32	4709.16
424.50	5083.64
424.69	5137.48
424.88	5128.11
425.07	5130.45
425.26	4997.04
425.45	4875.34
425.64	5060.24
425.83	5004.07
426.01	5144.50
426.20	5107.05
426.39	5048.54
426.58	4901.08
426.77	5032.15
426.96	5076.62
427.15	5139.82
427.33	5217.05
427.52	5203.01
427.71	5139.82
427.90	5188.97
428.09	5439.40
428.28	5418.34
428.46	5282.59
428.65	5324.72
428.84	5523.66
429.03	5535.37
429.22	5460.47
429.40	5465.15
429.59	5554.09
429.78	5291.95
429.97	5296.63
430.16	5465.15
430.34	5713.25
430.53	5762.40
430.72	5621.97
430.91	5680.48
431.10	5771.76
431.28	5631.33
431.47	5856.02
431.66	5926.24
431.85	5717.93
432.03	5987.09
432.22	6047.94
432.41	5839.64
432.60	5977.73
432.79	6092.41
432.97	5996.45
433.16	6003.47
433.35	6026.88
433.54	6153.27
433.72	6136.88
433.91	6047.94
434.10	6136.88
434.28	6085.39
434.47	6195.40
434.66	6338.17
434.85	6340.51
435.03	6338.17
435.22	6258.59
435.41	6644.78
435.59	6422.43
435.78	6483.28
435.97	6394.34
436.16	6448.18
436.34	6469.24
436.53	6373.28
436.72	6801.60
436.90	6296.04
437.09	6590.95
437.28	6532.44
437.46	6616.69
437.65	6789.89
437.84	6796.92
438.02	6724.36
438.21	6764.15
438.40	6675.21
438.58	7068.42
438.77	7108.21
438.96	6995.86
439.14	7080.12
439.33	7068.42
439.52	7176.08
439.70	7204.17
439.89	7433.54
440.08	7241.62
440.26	7253.32
440.45	7234.60
440.63	7648.87
440.82	7569.29
441.01	7566.95
441.19	7604.40
441.38	7758.88
441.57	7873.56
441.75	7662.91
441.94	8051.44
442.12	7995.27
442.31	8037.40
442.50	8138.04
442.68	7953.14
442.87	8114.64
443.05	7946.12
443.24	8093.57
443.43	8334.65
443.61	8095.91
443.80	8372.10
443.98	8170.81
444.17	7831.43
444.35	8290.18
444.54	8358.05
444.73	8372.10
444.91	8257.41
445.10	8388.48
445.28	8489.12
445.47	8128.68
445.65	8257.41
445.84	8493.80
446.02	8514.87
446.21	8290.18
446.39	8437.63
446.58	8498.49
446.77	8678.71
446.95	8116.98
447.14	8411.89
447.32	8624.87
447.51	8510.19
447.69	8528.91
447.88	8512.53
448.06	8603.81
448.25	8519.55
448.43	8685.73
448.62	8507.85
448.80	8470.40
448.99	8868.29
449.17	8706.79
449.36	8622.53
449.54	8851.91
449.73	9151.49
449.91	8915.10
450.10	9029.79
450.28	8975.95
450.46	9102.34
450.65	8987.66
450.83	9167.88
451.02	9078.94
451.20	9217.03
451.39	8966.59
451.57	9158.52
451.76	9184.26
451.94	9095.32
452.13	9296.61
452.31	9219.37
452.49	9039.15
452.68	9511.94
452.86	9301.29
453.05	9341.08
453.23	9540.02
453.42	9268.52
453.60	9415.98
453.78	9673.43
453.97	9621.94
454.15	9458.10
454.34	9682.80
454.52	9820.89
454.70	9839.61
454.89	9991.75
455.07	9785.78
455.26	9888.76
455.44	10022.17
455.62	10139.20
455.81	9984.73
455.99	9863.02
456.17	9844.29
456.36	10171.97
456.54	10296.02
456.73	10162.61
456.91	10480.92
457.09	10658.80
457.28	10579.22
457.46	10036.22
457.64	10628.37
457.83	10619.01
458.01	10349.85
458.19	10721.99
458.38	10633.05
458.56	10846.04
458.74	10740.72
458.93	10733.70
459.11	10726.68
459.29	10881.15
459.48	10824.98
459.66	10834.34
459.84	11119.89
460.03	10817.96
460.21	11087.12
460.39	11101.16
460.57	10895.19
460.76	11115.20
460.94	11384.37
461.12	11206.48
461.31	11260.32
461.49	11183.08
461.67	11126.91
461.85	11477.99
462.04	11330.53
462.22	11772.89
462.40	11616.08
462.59	11587.99
462.77	11461.60
462.95	11709.70
463.13	11536.50
463.32	11417.13
463.50	11641.82
463.68	11789.28
463.86	11932.05
464.05	11779.92
464.23	11688.64
464.41	12011.63
464.59	11726.08
464.78	12196.53
464.96	12013.97
465.14	11829.07
465.32	12128.66
465.50	12123.98
465.69	12360.37
465.87	12126.32
466.05	12138.02
466.23	12205.89
466.41	12226.96
466.60	12294.83
466.78	12582.72
466.96	12205.89
467.14	12566.34
467.32	12379.09
467.51	12507.82
467.69	12025.67
467.87	12252.70
468.05	12697.41
468.23	12526.55
468.41	12421.22
468.60	12564.00
468.78	12718.47
468.96	12683.36
469.14	12713.79
469.32	13029.76
469.50	12788.69
469.69	12816.77
469.87	12973.59
470.05	13343.39
470.23	13312.97
470.41	13317.65
470.59	13387.86
470.77	13004.02
470.95	13364.46
471.14	13862.99
471.32	13224.03
471.50	13642.98
471.68	13518.93
471.86	13891.08
472.04	13617.24
472.22	14064.28
472.40	13895.76
472.58	13837.25
472.77	14068.96
472.95	14099.39
473.13	14391.95
473.31	14040.87
473.49	14118.11
473.67	14104.07
473.85	14473.87
474.03	14642.39
474.21	14551.11
474.39	15021.56
474.57	14810.91
474.75	15089.43
474.93	15110.50
475.12	15154.97
475.30	15040.28
475.48	15218.16
475.66	15452.22
475.84	15243.91
476.02	15620.74
476.20	15527.11
476.38	15868.83
476.56	15985.86
476.74	16119.27
476.92	15803.30
477.10	15838.41
477.28	16313.53
477.46	16198.85
477.64	16570.99
477.82	16400.13
478.00	16783.98
478.18	17109.32
478.36	16929.09
478.54	17209.96
478.72	17493.16
478.90	17334.01
479.08	17724.88
479.26	17680.41
479.44	17598.49
479.62	17874.67
479.80	18061.91
479.98	18171.92
480.16	18698.54
480.34	18293.63
480.52	18298.31
480.70	18892.80
480.88	18476.19
481.06	18597.90
481.24	18841.31
481.41	19150.26
481.59	19098.77
481.77	19597.31
481.95	19737.74
482.13	19896.89
482.31	19976.47
482.49	20332.23
482.67	20334.57
482.85	20975.88
483.03	20774.60
483.21	20620.12
483.39	21277.81
483.57	20713.74
483.74	21137.38
483.92	21369.09
484.10	21275.47
484.28	21694.43
484.46	22279.56
484.64	22548.72
484.82	21809.11
485.00	22359.14
485.18	22937.25
485.35	22932.57
485.53	22794.48
485.71	23506.00
485.89	23410.04
486.07	23527.06
486.25	23489.62
486.43	23779.84
486.61	23885.17
486.78	24285.40
486.96	24224.54
487.14	24264.33
487.32	24819.04
487.50	24994.58
487.68	25174.80
487.85	25462.69
488.03	25460.35
488.21	26195.28
488.39	25764.62
488.57	26157.83
488.75	26249.11
488.92	26583.80
489.10	26757.00
489.28	26852.97
489.46	26955.95
489.64	26820.20
489.81	27763.43
489.99	27826.63
490.17	27843.01
490.35	28486.66
490.53	28264.31
490.70	28631.77
490.88	28463.25
491.06	28641.14
491.24	28865.83
491.41	29280.10
491.59	29226.27
491.77	29467.34
491.95	29919.07
492.13	30298.23
492.30	30005.67
492.48	30340.36
492.66	30199.93
492.84	30267.81
493.01	30953.58
493.19	30864.64
493.37	30984.01
493.54	31447.44
493.72	31688.51
493.90	31662.77
494.08	31683.83
494.25	32278.33
494.43	32376.63
494.61	32297.05
494.79	32582.60
494.96	32809.63
495.14	32634.09
495.32	33167.73
495.49	33106.88
495.67	33282.42
495.85	33684.99
496.02	33706.05
496.20	34394.17
496.38	34216.29
496.55	34293.53
496.73	35269.53
496.91	34291.19
497.09	34792.06
497.26	35693.17
497.44	34731.21
497.62	35339.75
497.79	35866.37
497.97	35587.85
498.14	36039.57
498.32	36271.28
498.50	36238.51
498.67	36924.29
498.85	36484.27
499.03	37029.62
499.20	36601.30
499.38	36884.50
499.56	37137.28
499.73	37481.34
499.91	37689.65
500.08	38005.62
500.26	37741.14
500.44	37921.36
500.61	37926.04
500.79	37961.15
500.97	38092.22
501.14	38417.55
501.32	38649.27
501.49	38628.20
501.67	38990.98
501.84	38960.56
502.02	39260.15
502.20	39173.55
502.37	39522.29
502.55	39648.68
502.72	39431.01
502.90	39728.25
503.07	39578.46
503.25	39856.98
503.43	39868.69
503.60	39803.15
503.78	40048.91
503.95	40217.43
504.13	40584.89
504.30	40783.83
504.48	40875.12
504.65	40776.81
504.83	40645.74
505.01	41214.49
505.18	41256.62
505.36	41481.31
505.53	41368.97
505.71	41757.50
505.88	41970.49
506.06	41689.62
506.23	42227.95
506.41	42223.26
506.58	42368.38
506.76	42164.75
506.93	42520.51
507.11	42557.96
507.28	42810.74
507.46	43005.00
507.63	42981.60
507.81	43185.22
507.98	42983.94
508.16	43194.59
508.33	43889.73
508.50	43634.61
508.68	43660.35
508.85	44133.14
509.03	44081.65
509.20	44257.19
509.38	44624.65
509.55	44575.50
509.73	44313.36
509.90	44949.99
510.08	44587.21
510.25	44589.55
510.42	44987.44
510.60	45102.12
510.77	44938.29
510.95	45696.62
511.12	45254.26
511.30	45272.98
511.47	45687.26
511.64	46057.06
511.82	45326.81
511.99	45610.02
512.17	46176.43
512.34	46239.62
512.51	46658.58
512.69	47084.56
512.86	46328.56
513.04	46464.32
513.21	47070.51
513.38	46698.37
513.56	47435.64
513.73	46869.23
513.90	47143.07
514.08	47494.15
514.25	47430.96
514.43	47728.20
514.60	47428.62
514.77	47426.28
514.95	47821.83
515.12	47711.82
515.29	47934.17
515.47	48191.63
515.64	48034.81
515.81	48582.50
515.99	48456.11
516.16	48612.93
516.33	48612.93
516.51	48896.13
516.68	48561.44
516.85	48982.73
517.03	49502.33
517.20	48825.92
517.37	49024.86
517.54	49343.17
517.72	48807.19
517.89	49382.96
518.06	49322.11
518.24	49755.11
518.41	49497.65
518.58	49738.72
518.75	49586.59
518.93	49822.98
519.10	49633.40
519.27	49940.01
519.45	49815.96
519.62	50101.51
519.79	49979.80
519.96	49989.16
520.14	50335.56
520.31	50106.19
520.48	50529.83
520.65	50445.57
520.83	50827.07
521.00	50787.28
521.17	50972.19
521.34	50635.15
521.52	50894.95
521.69	51126.66
521.86	51503.49
522.03	51161.77
522.20	51250.71
522.38	51892.02
522.55	51372.42
522.72	51667.33
522.89	51220.28
523.07	51693.07
523.24	51688.39
523.41	51739.88
523.58	51533.92
523.75	52023.09
523.92	51831.16
524.10	52069.90
524.27	52072.24
524.44	52575.45
524.61	52186.92
524.78	52463.11
524.96	52301.61
525.13	52334.38
525.30	52505.24
525.47	52484.17
525.64	52428.00
525.81	53071.65
525.98	52926.53
526.16	52851.64
526.33	52722.91
526.50	53221.44
526.67	53095.05
526.84	52975.69
527.01	53013.13
527.18	52959.30
527.36	53057.60
527.53	53247.19
527.70	53518.69
527.87	53729.34
528.04	53090.37
528.21	53258.89
528.38	53446.13
528.55	53506.99
528.72	53165.27
528.89	53708.27
529.07	53607.63
529.24	53698.91
529.41	53820.62
529.58	53886.15
529.75	53815.94
529.92	54085.10
530.09	53911.90
530.26	53895.52
530.43	54176.38
530.60	53705.93
530.77	54031.27
530.94	54309.79
531.11	53904.88
531.28	54225.53
531.46	54316.81
531.63	54246.60
531.80	54372.99
531.97	54415.11
532.14	54548.53
532.31	54595.34
532.48	54508.74
532.65	54850.45
532.82	54752.15
532.99	54763.85
533.16	54532.14
533.33	54838.75
533.50	54941.74
533.67	54862.16
533.84	54794.28
534.01	54901.95
534.18	55365.37
534.35	55302.18
534.52	54939.39
534.69	55458.99
534.86	55381.76
535.03	55030.68
535.20	55215.58
535.37	55365.37
535.54	55433.25
535.71	55320.90
535.88	55676.66
536.05	55636.87
536.22	55725.81
536.38	55805.39
536.55	55636.87
536.72	55660.28
536.89	55711.77
537.06	55838.16
537.23	55915.40
537.40	55552.62
537.57	55814.76
537.74	55737.52
537.91	56006.68
538.08	55985.61
538.25	55709.43
538.42	56320.31
538.59	56327.33
538.75	55971.57
538.92	56203.28
539.09	56313.29
539.26	55934.12
539.43	56156.47
539.60	56364.78
539.77	56549.68
539.94	56533.30
540.11	56460.74
540.28	56303.93
540.44	56559.05
540.61	56570.75
540.78	56381.16
540.95	56526.28
541.12	56233.71
541.29	56638.62
541.46	56924.17
541.62	56706.50
541.79	56655.01
541.96	56498.19
542.13	56713.52
542.30	56868.00
542.47	57006.09
542.63	56842.25
542.80	57193.33
542.97	57174.61
543.14	57183.97
543.31	57216.74
543.48	57387.60
543.64	57614.63
543.81	57434.41
543.98	57492.92
544.15	57460.15
544.32	57509.30
544.48	57427.38
544.65	57462.49
544.82	57441.43
544.99	57434.41
545.16	57656.76
545.32	57415.68
545.49	57677.82
545.66	57949.32
545.83	57656.76
546.00	57691.86
546.16	57736.34
546.33	57724.63
546.50	57694.21
546.67	57963.37
546.83	57478.88
547.00	57886.13
547.17	57806.55
547.34	58054.65
547.50	58141.25
547.67	58166.99
547.84	57982.09
548.00	58246.57
548.17	58487.65
548.34	58281.68
548.51	58197.42
548.67	58415.09
548.84	58138.91
549.01	58251.25
549.18	58260.62
549.34	58078.05
549.51	58464.24
549.68	58539.14
549.84	58464.24
550.01	58614.04
550.18	58220.83
550.34	58571.91
550.51	58293.38
550.68	58581.27
550.84	58101.46
551.01	58735.74
551.18	58340.19
551.34	58630.42
551.51	58646.80
551.68	58534.46
551.84	58630.42
552.01	58415.09
552.18	58761.49
552.34	58717.02
552.51	58820.00
552.68	58754.47
552.84	58927.67
553.01	59128.95
553.18	59007.25
553.34	58948.73
553.51	58639.78
553.67	58974.48
553.84	58857.45
554.01	59105.55
554.17	58995.54
554.34	58864.47
554.51	59100.87
554.67	58969.80
554.84	59173.42
555.00	59021.29
555.17	59180.45
555.33	59276.41
555.50	58972.14
555.67	59110.23
555.83	59161.72
556.00	59166.40
556.16	59398.12
556.33	59426.20
556.50	59220.23
556.66	59503.44
556.83	59203.85
556.99	59686.00
557.16	59489.40
557.32	59700.04
557.49	59678.98
557.65	59341.94
557.82	59398.12
557.98	59426.20
558.15	59554.93
558.32	59423.86
558.48	59498.76
558.65	59606.42
558.81	59695.36
558.98	59639.19
559.14	59723.45
559.31	59657.91
559.47	59859.20
559.64	59751.54
559.80	59793.67
559.97	59669.62
560.13	59674.30
560.30	59671.96
560.46	59962.18
560.63	60001.97
560.79	59826.43
560.96	59884.95
561.12	59971.55
561.29	59774.94
561.45	60058.15
561.61	59987.93
561.78	59943.46
561.94	59994.95
562.11	59969.21
562.27	59959.84
562.44	60048.78
562.60	60140.07
562.77	60039.42
562.93	60086.23
563.10	60027.72
563.26	60030.06
563.42	60212.62
563.59	60285.18
563.75	60149.43
563.92	60144.75
564.08	60093.25
564.24	59971.55
564.41	60217.30
564.57	60271.14
564.74	60470.08
564.90	60299.22
565.07	60322.63
565.23	60390.50
565.39	60257.09
565.56	60193.90
565.72	60147.09
565.88	60322.63
566.05	60240.71
566.21	60259.43
566.38	60254.75
566.54	60240.71
566.70	60406.89
566.87	60573.06
567.03	60271.14
567.19	60493.49
567.36	60526.25
567.52	60226.66
567.68	60584.77
567.85	60573.06
568.01	60427.95
568.17	60383.48
568.34	60404.55
568.50	60463.06
568.66	60292.20
568.83	60526.25
568.99	60514.55
569.15	60486.46
569.32	60378.80
569.48	60458.38
569.64	60507.53
569.81	60615.19
569.97	60367.10
570.13	60528.59
570.30	60514.55
570.46	60652.64
570.62	60617.53
570.78	60544.98
570.95	60547.32
571.11	60907.76
571.27	60692.43
571.43	60659.66
571.60	60914.78
571.76	60493.49
571.92	60526.25
572.09	60617.53
572.25	60673.71
572.41	60748.60
572.57	60615.19
572.74	60917.12
572.90	60584.77
573.06	60879.67
573.22	60402.21
573.38	60863.29
573.55	60713.50
573.71	60832.86
573.87	60893.72
574.03	60594.13
574.20	60654.98
574.36	60666.69
574.52	60814.14
574.68	60893.72
574.84	60952.23
575.01	60790.73
575.17	60720.52
575.33	60802.44
575.49	60743.92
575.65	60842.23
575.82	60968.61
575.98	60924.14
576.14	61099.68
576.30	61031.81
576.46	60849.25
576.62	60977.98
576.79	60708.82
576.95	60823.50
577.11	60790.73
577.27	60839.89
577.43	60867.97
577.59	60882.02
577.75	60669.03
577.92	60760.31
578.08	60753.29
578.24	61073.94
578.40	61205.01
578.56	61123.09
578.72	61001.38
578.88	61034.15
579.04	61092.66
579.21	60921.80
579.37	61020.11
579.53	61235.44
579.69	60846.91
579.85	60839.89
580.01	60800.10
580.17	60739.24
580.33	61001.38
580.49	61062.24
580.65	61043.51
580.82	61062.24
580.98	60921.80
581.14	60903.08
581.30	61153.52
581.46	60846.91
581.62	61116.07
581.78	60975.64
581.94	61247.14
582.10	60938.19
582.26	61031.81
582.42	60917.12
582.58	60853.93
582.74	60933.51
582.90	60992.02
583.06	60952.23
583.22	61064.58
583.38	61109.05
583.54	61092.66
583.70	61029.47
583.86	61102.03
584.02	60823.50
584.18	61219.05
584.34	61141.81
584.50	61024.79
584.66	60860.95
584.82	60874.99
584.98	61148.84
585.14	60945.21
585.30	61036.49
585.46	61034.15
585.62	61036.49
585.78	61141.81
585.94	61006.06
586.10	60954.57
586.26	60921.80
586.42	61378.21
586.58	61153.52
586.74	61148.84
586.90	61062.24
587.06	61165.22
587.22	61230.75
587.38	61263.52
587.54	61183.94
587.70	61364.17
587.86	61256.50
588.02	61183.94
588.18	61310.33
588.34	60919.46
588.49	61106.71
