SpectraSuite Data File
++++++++++++++++++++++++++++++++++++
Date: Fri Oct 25 11:26:00 EDT 2013
User: price-jones
Dark Spectrum Present: No
Reference Spectrum Present: No
Number of Sampled Component Spectra: 1
Spectrometers: USB2+H05261
Integration Time (usec): 100000 (USB2+H05261)
Spectra Averaged: 1 (USB2+H05261)
Boxcar Smoothing: 0 (USB2+H05261)
Correct for Electrical Dark: No (USB2+H05261)
Strobe/Lamp Enabled: No (USB2+H05261)
Correct for Detector Non-linearity: No (USB2+H05261)
Correct for Stray Light: No (USB2+H05261)
Number of Pixels in Processed Spectrum: 2048
>>>>>Begin Processed Spectral Data<<<<<
365.73	198.95
365.92	198.95
366.12	198.95
366.32	191.92
366.52	173.20
366.72	147.45
366.91	91.28
367.11	142.77
367.31	222.35
367.51	63.19
367.70	95.96
367.90	147.45
368.10	145.11
368.30	121.71
368.49	124.05
368.69	194.26
368.89	184.90
369.09	142.77
369.28	124.05
369.48	205.97
369.68	224.69
369.87	196.60
370.07	203.63
370.27	234.05
370.47	311.29
370.66	582.79
370.86	645.99
371.06	653.01
371.25	737.27
371.45	699.82
371.65	737.27
371.84	713.86
372.04	709.18
372.24	737.27
372.44	662.37
372.63	720.88
372.83	671.73
373.03	716.20
373.22	723.23
373.42	685.78
373.62	645.99
373.81	823.87
374.01	826.21
374.21	812.17
374.40	840.25
374.60	805.14
374.79	805.14
374.99	788.76
375.19	844.93
375.38	870.68
375.58	950.26
375.78	835.57
375.97	936.21
376.17	987.71
376.37	880.04
376.56	957.28
376.76	842.59
376.95	837.91
377.15	961.96
377.35	858.98
377.54	971.32
377.74	887.06
377.93	873.02
378.13	940.90
378.33	929.19
378.52	926.85
378.72	952.60
378.91	910.47
379.11	908.13
379.31	891.74
379.50	908.13
379.70	945.58
379.89	936.21
380.09	1020.47
380.28	1067.28
380.48	957.28
380.68	990.05
380.87	940.90
381.07	1013.45
381.26	1111.75
381.46	971.32
381.65	1100.05
381.85	1053.24
382.04	1062.60
382.24	1116.44
382.43	1078.99
382.63	1053.24
382.83	1060.26
383.02	1132.82
383.22	1078.99
383.41	1006.43
383.61	1130.48
383.80	1125.80
384.00	1114.10
384.19	1118.78
384.39	1142.18
384.58	1158.57
384.78	1156.22
384.97	1186.65
385.17	1041.54
385.36	1231.12
385.56	1156.22
385.75	1165.59
385.95	1212.40
386.14	1196.01
386.34	1186.65
386.53	1212.40
386.72	1256.87
386.92	1331.76
387.11	1254.53
387.31	1315.38
387.50	1212.40
387.70	1306.02
387.89	1331.76
388.09	1291.98
388.28	1217.08
388.48	1294.32
388.67	1359.85
388.86	1324.74
389.06	1245.16
389.25	1418.36
389.45	1357.51
389.64	1324.74
389.84	1380.92
390.03	1371.55
390.22	1504.96
390.42	1373.89
390.61	1327.08
390.81	1411.34
391.00	1341.13
391.19	1444.11
391.39	1425.39
391.58	1481.56
391.78	1483.90
391.97	1458.15
392.16	1526.03
392.36	1561.14
392.55	1488.58
392.75	1537.73
392.94	1516.67
393.13	1551.78
393.33	1617.31
393.52	1500.28
393.71	1549.43
393.91	1535.39
394.10	1605.61
394.29	1535.39
394.49	1591.56
394.68	1645.40
394.88	1689.87
395.07	1774.13
395.26	1638.38
395.46	1706.25
395.65	1668.80
395.84	1640.72
396.04	1853.70
396.23	1699.23
396.42	1743.70
396.62	1739.02
396.81	1757.74
397.00	1750.72
397.19	1706.25
397.39	1874.77
397.58	1820.94
397.77	1804.55
397.97	1767.10
398.16	1778.81
398.35	1816.26
398.55	1879.45
398.74	1849.02
398.93	1928.60
399.12	1842.00
399.32	1947.33
399.51	1928.60
399.70	2005.84
399.90	2012.86
400.09	1982.43
400.28	1961.37
400.47	1996.48
400.67	2106.48
400.86	2019.88
401.05	2008.18
401.24	2120.53
401.44	2045.63
401.63	2183.72
401.82	2080.74
402.01	2118.18
402.21	2085.42
402.40	2174.36
402.59	2083.08
402.78	2228.19
402.97	2211.81
403.17	2324.15
403.36	2342.88
403.55	2296.07
403.74	2370.96
403.93	2445.86
404.13	2413.09
404.32	2373.30
404.51	2375.64
404.70	2321.81
404.89	2387.35
405.09	2452.88
405.28	2413.09
405.47	2572.25
405.66	2448.20
405.85	2532.46
406.05	2555.86
406.24	2490.33
406.43	2541.82
406.62	2644.81
406.81	2717.36
407.00	2537.14
407.20	2530.12
407.39	2572.25
407.58	2712.68
407.77	2672.89
407.96	2785.24
408.15	2722.04
408.34	2736.09
408.54	2792.26
408.73	2787.58
408.92	2773.53
409.11	2913.97
409.30	2888.22
409.49	2888.22
409.68	2913.97
409.87	2932.69
410.07	3021.63
410.26	3007.59
410.45	3068.44
410.64	2977.16
410.83	3155.04
411.02	3126.96
411.21	3080.14
411.40	3119.93
411.59	3185.47
411.78	3122.27
411.98	3225.26
412.17	3215.90
412.36	3344.63
412.55	3281.43
412.74	3379.73
412.93	3351.65
413.12	3309.52
413.31	3442.93
413.50	3424.20
413.69	3400.80
413.88	3576.34
414.07	3620.81
414.26	3721.45
414.45	3728.47
414.64	3691.02
414.83	3735.50
415.02	3665.28
415.22	3845.50
415.41	3871.25
415.60	3882.95
415.79	3819.75
415.98	3913.38
416.17	3971.89
416.36	3941.46
416.55	4105.30
416.74	4084.23
416.93	4102.96
417.12	4194.24
417.31	4191.90
417.50	4159.13
417.69	4283.18
417.88	4278.50
418.07	4187.22
418.26	4454.04
418.45	4215.30
418.64	4493.83
418.83	4374.46
419.02	4442.34
419.21	4414.25
419.39	4531.28
419.58	4337.01
419.77	4369.78
419.96	4503.19
420.15	4606.17
420.34	4531.28
420.53	4580.43
420.72	4624.90
420.91	4638.94
421.10	4683.41
421.29	4840.23
421.48	4608.51
421.67	4835.55
421.86	4741.93
422.05	4798.10
422.24	4842.57
422.43	4844.91
422.61	5006.41
422.80	4880.02
422.99	5074.28
423.18	4826.18
423.37	4912.78
423.56	4924.49
423.75	4968.96
423.94	4910.44
424.13	4547.66
424.32	4816.82
424.50	4938.53
424.69	5088.32
424.88	4959.60
425.07	5195.99
425.26	5027.47
425.45	5025.13
425.64	4954.91
425.83	4929.17
426.01	4985.34
426.20	5046.20
426.39	4975.98
426.58	4950.23
426.77	4985.34
426.96	5252.16
427.15	5233.44
427.33	5151.52
427.52	5153.86
427.71	5315.36
427.90	5158.54
428.09	5238.12
428.28	5198.33
428.46	5387.91
428.65	5373.87
428.84	5514.30
429.03	5516.64
429.22	5153.86
429.40	5500.26
429.59	5338.76
429.78	5064.92
429.97	5416.00
430.16	5451.11
430.34	5483.88
430.53	5699.20
430.72	5643.03
430.91	5565.79
431.10	5636.01
431.28	5717.93
431.47	5774.10
431.66	5823.25
431.85	5652.39
432.03	5825.59
432.22	5722.61
432.41	5856.02
432.60	5853.68
432.79	5851.34
432.97	5898.15
433.16	5991.77
433.35	5870.06
433.54	6066.67
433.72	6139.23
433.91	6064.33
434.10	6246.89
434.28	6242.21
434.47	5970.71
434.66	6246.89
434.85	6274.98
435.03	6366.26
435.22	6141.57
435.41	6305.40
435.59	6539.46
435.78	6600.31
435.97	6413.07
436.16	6448.18
436.34	6401.37
436.53	6553.50
436.72	6579.25
436.90	6466.90
437.09	6502.01
437.28	6607.33
437.46	6633.08
437.65	6719.68
437.84	6738.40
438.02	6576.91
438.21	6785.21
438.40	6857.77
438.58	6970.12
438.77	7155.02
438.96	6932.67
439.14	7246.30
439.33	7143.32
439.52	7140.97
439.70	7255.66
439.89	7405.46
440.08	7384.39
440.26	7377.37
440.45	7297.79
440.63	7351.62
440.82	7644.19
441.01	7611.42
441.19	7679.30
441.38	7698.02
441.57	7744.83
441.75	7817.39
441.94	8032.72
442.12	7896.97
442.31	7896.97
442.50	7899.31
442.68	7992.93
442.87	8039.74
443.05	7999.95
443.24	7983.57
443.43	8126.34
443.61	8091.23
443.80	8585.08
443.98	8255.07
444.17	7798.66
444.35	8107.62
444.54	8454.02
444.73	8168.47
444.91	8421.25
445.10	8381.46
445.28	8208.26
445.47	8241.03
445.65	8212.94
445.84	8322.94
446.02	8589.77
446.21	8187.19
446.39	8428.27
446.58	8547.64
446.77	8383.80
446.95	8159.11
447.14	8428.27
447.32	8311.24
447.51	8477.42
447.69	8358.05
447.88	8552.32
448.06	8557.00
448.25	8393.16
448.43	8641.26
448.62	8606.15
448.80	8461.04
448.99	8571.04
449.17	8851.91
449.36	8723.18
449.54	8751.26
449.73	9048.51
449.91	8690.41
450.10	8898.72
450.28	8968.93
450.46	8999.36
450.65	8950.21
450.83	9069.58
451.02	9085.96
451.20	9004.04
451.39	9153.84
451.57	8968.93
451.76	9039.15
451.94	9104.68
452.13	9200.65
452.31	9207.67
452.49	9135.11
452.68	9256.82
452.86	9226.39
453.05	9423.00
453.23	9320.01
453.42	9455.76
453.60	9387.89
453.78	9635.99
453.97	9511.94
454.15	9420.66
454.34	9380.87
454.52	9633.64
454.70	9823.23
454.89	9776.42
455.07	9898.13
455.26	9970.68
455.44	9987.07
455.62	9774.08
455.81	9764.72
455.99	9776.42
456.17	9963.66
456.36	9949.62
456.54	10101.75
456.73	10024.51
456.91	10251.55
457.09	10389.64
457.28	10511.35
457.46	10370.91
457.64	10459.85
457.83	10619.01
458.01	10333.47
458.19	10630.71
458.38	10705.61
458.56	10684.55
458.74	10789.87
458.93	10780.51
459.11	10665.82
459.29	10691.57
459.48	10703.27
459.66	10696.25
459.84	10888.17
460.03	11030.94
460.21	10951.37
460.39	11005.20
460.57	10949.03
460.76	11150.31
460.94	11105.84
461.12	11286.06
461.31	10956.05
461.49	11035.63
461.67	11206.48
461.85	11468.62
462.04	11190.10
462.22	11798.64
462.40	11590.33
462.59	11571.61
462.77	11398.41
462.95	11606.72
463.13	11449.90
463.32	11735.45
463.50	11817.36
463.68	11690.98
463.86	11728.42
464.05	11564.59
464.23	11630.12
464.41	12016.31
464.59	11655.87
464.78	12020.99
464.96	11915.67
465.14	11796.30
465.32	12018.65
465.50	12201.21
465.69	12112.27
465.87	12109.93
466.05	12121.63
466.23	12475.06
466.41	12203.55
466.60	12556.97
466.78	12037.38
466.96	12060.78
467.14	12526.55
467.32	12226.96
467.51	12215.26
467.69	12013.97
467.87	12461.01
468.05	12500.80
468.23	12285.47
468.41	12315.90
468.60	12409.52
468.78	12886.99
468.96	12463.35
469.14	12692.73
469.32	12973.59
469.50	12734.85
469.69	12910.40
469.87	12926.78
470.05	13022.74
470.23	13114.02
470.41	12943.16
470.59	13284.88
470.77	12943.16
470.95	13376.16
471.14	13692.13
471.32	13156.15
471.50	13572.77
471.68	13542.34
471.86	13713.20
472.04	13795.12
472.22	14111.09
472.40	13657.03
472.58	13919.17
472.77	14036.19
472.95	14153.22
473.13	14647.07
473.31	13940.23
473.49	14209.39
473.67	14150.88
473.85	14504.30
474.03	14764.10
474.21	14527.71
474.39	14506.64
474.57	14670.48
474.75	14750.06
474.93	14979.43
475.12	14932.62
475.30	14712.61
475.48	15002.83
475.66	15332.85
475.84	15164.33
476.02	15466.26
476.20	15171.35
476.38	15576.27
476.56	15901.60
476.74	15910.96
476.92	15529.45
477.10	15686.27
477.28	16133.31
477.46	16217.57
477.64	16273.74
477.82	16552.27
478.00	16709.08
478.18	16779.30
478.36	16678.66
478.54	17069.53
478.72	17312.94
478.90	17135.06
479.08	17462.74
479.26	17551.68
479.44	17710.83
479.62	17762.33
479.80	18036.17
479.98	18111.07
480.16	18569.81
480.34	18160.22
480.52	18707.90
480.70	18630.66
480.88	18408.31
481.06	18478.53
481.24	18586.19
481.41	19232.18
481.59	19213.46
481.77	19056.64
481.95	19751.78
482.13	20222.23
482.31	19700.29
482.49	20135.63
482.67	20194.14
482.85	20093.50
483.03	20449.26
483.21	20706.72
483.39	20840.13
483.57	20945.45
483.74	21039.08
483.92	21214.62
484.10	21057.80
484.28	21656.98
484.46	21926.14
484.64	22391.91
484.82	22242.11
485.00	22434.03
485.18	22686.81
485.35	22934.91
485.53	23056.62
485.71	22775.75
485.89	23501.32
486.07	23180.67
486.25	23447.49
486.43	23538.77
486.61	23777.50
486.78	23915.59
486.96	24077.09
487.14	24662.22
487.32	24624.78
487.50	24795.64
487.68	25085.86
487.85	25202.89
488.03	25663.97
488.21	25558.65
488.39	25713.13
488.57	25855.90
488.75	26132.08
488.92	26630.62
489.10	26712.53
489.28	26773.39
489.46	27054.25
489.64	27035.53
489.81	27615.98
489.99	27627.68
490.17	27997.49
490.35	28219.84
490.53	28294.74
490.70	28650.50
490.88	28554.54
491.06	28809.65
491.24	29013.28
491.41	28999.24
491.59	28896.25
491.77	29301.17
491.95	29886.30
492.13	29900.34
492.30	30029.07
492.48	29717.78
492.66	29956.52
492.84	30366.11
493.01	30335.68
493.19	30298.23
493.37	30948.90
493.54	30969.97
493.72	31145.51
493.90	31431.05
494.08	31716.60
494.25	31945.97
494.43	31756.39
494.61	32030.23
494.79	32236.20
494.96	32580.26
495.14	33046.02
495.32	33034.32
495.49	33233.27
495.67	32884.53
495.85	33462.64
496.02	33727.12
496.20	33897.98
496.38	33766.91
496.55	34005.64
496.73	34923.13
496.91	34251.40
497.09	34916.11
497.26	34754.61
497.44	34569.71
497.62	35278.89
497.79	35601.89
497.97	35779.77
498.14	35857.01
498.32	36458.52
498.50	36367.24
498.67	36613.00
498.85	36493.63
499.03	36517.04
499.20	36168.30
499.38	36636.41
499.56	36851.73
499.73	37076.43
499.91	37392.40
500.08	37043.66
500.26	37258.99
500.44	36943.02
500.61	38010.30
500.79	37589.00
500.97	38010.30
501.14	38265.42
501.32	38684.37
501.49	38698.42
501.67	38689.06
501.84	38878.64
502.02	38862.26
502.20	38513.52
502.37	39419.30
502.55	39068.22
502.72	39543.35
502.90	39550.37
503.07	39395.90
503.25	39744.64
503.43	39903.79
503.60	39714.21
503.78	39887.41
503.95	40294.66
504.13	40568.51
504.30	40708.94
504.48	40449.14
504.65	40650.42
504.83	40755.75
505.01	40830.65
505.18	41380.67
505.36	41502.38
505.53	41347.90
505.71	41476.63
505.88	41600.68
506.06	41450.89
506.23	42089.85
506.41	41928.36
506.58	41823.03
506.76	41951.76
506.93	42473.70
507.11	42043.04
507.28	42459.66
507.46	42375.40
507.63	42625.84
507.81	42548.60
507.98	42815.42
508.16	43042.45
508.33	43384.17
508.50	43538.65
508.68	43253.10
508.85	43746.95
509.03	43655.67
509.20	44289.96
509.38	44289.96
509.55	44069.95
509.73	44458.48
509.90	44584.86
510.08	44619.97
510.25	44348.47
510.42	44554.44
510.60	45289.37
510.77	45078.72
510.95	45027.23
511.12	45034.25
511.30	45209.79
511.47	45411.07
511.64	44989.78
511.82	45862.80
511.99	45570.23
512.17	45703.64
512.34	45677.90
512.51	46141.32
512.69	46499.42
512.86	46256.01
513.04	46518.15
513.21	46508.79
513.38	46258.35
513.56	46913.70
513.73	46522.83
513.90	46911.36
514.08	46972.21
514.25	47089.24
514.43	47320.95
514.60	47358.40
514.77	47250.74
514.95	47758.63
515.12	47555.00
515.29	47454.36
515.47	47901.40
515.64	47524.58
515.81	47522.24
515.99	48196.31
516.16	48278.23
516.33	48119.07
516.51	48519.31
516.68	48318.02
516.85	48421.00
517.03	48746.34
517.20	48603.56
517.37	48722.93
517.54	48715.91
517.72	48924.22
517.89	48959.33
518.06	49001.46
518.24	49036.56
518.41	49092.74
518.58	49097.42
518.75	49120.82
518.93	49720.00
519.10	49528.08
519.27	49696.59
519.45	49537.44
519.62	49766.81
519.79	49691.91
519.96	49883.84
520.14	50120.23
520.31	50031.29
520.48	50703.03
520.65	50522.80
520.83	50700.68
521.00	50450.25
521.17	50457.27
521.34	50859.84
521.52	50749.84
521.69	50593.02
521.86	50913.67
522.03	50831.75
522.20	51255.39
522.38	51341.99
522.55	51295.18
522.72	51358.38
522.89	51033.04
523.07	51613.49
523.24	51248.37
523.41	51466.04
523.58	51138.36
523.75	51955.21
523.92	51400.50
524.10	51629.88
524.27	51749.24
524.44	52002.02
524.61	52020.75
524.78	52088.62
524.96	51962.23
525.13	52264.16
525.30	52327.36
525.47	52570.77
525.64	52406.94
525.81	52610.56
525.98	52505.24
526.16	52743.97
526.33	52568.43
526.50	52945.26
526.67	52715.89
526.84	52690.14
527.01	52779.08
527.18	52828.23
527.36	52788.44
527.53	53230.80
527.70	53198.04
527.87	53359.53
528.04	53038.88
528.21	53312.72
528.38	53446.13
528.55	53359.53
528.72	53457.84
528.89	53155.91
529.07	53251.87
529.24	53158.25
529.41	53593.59
529.58	53848.71
529.75	53490.60
529.92	53811.26
530.09	53832.32
530.26	53801.89
530.43	54003.18
530.60	53375.92
530.77	53684.87
530.94	53879.13
531.11	53982.12
531.28	54192.76
531.46	54038.29
531.63	54117.87
531.80	54314.47
531.97	54288.73
532.14	54422.14
532.31	54288.73
532.48	54445.54
532.65	54717.04
532.82	54485.33
532.99	54726.41
533.16	54777.90
533.33	54674.91
533.50	54794.28
533.67	54468.95
533.84	54735.77
534.01	54693.64
534.18	54878.54
534.35	54993.23
534.52	55185.15
534.69	55040.04
534.86	55054.08
535.03	54983.86
535.20	55299.84
535.37	55121.96
535.54	55164.09
535.71	55304.52
535.88	55334.95
536.05	55339.63
536.22	55358.35
536.38	55451.97
536.55	55426.23
536.72	55744.54
536.89	55346.65
537.06	55323.24
537.23	55807.73
537.40	55554.96
537.57	55421.55
537.74	55903.70
537.91	55934.12
538.08	55835.82
538.25	55487.08
538.42	55891.99
538.59	56062.85
538.75	56067.53
538.92	56041.79
539.09	56273.50
539.26	56025.40
539.43	55952.85
539.60	56037.11
539.77	56081.58
539.94	56362.44
540.11	56287.54
540.28	56273.50
540.44	56226.69
540.61	56339.04
540.78	56528.62
540.95	56409.25
541.12	56243.07
541.29	56446.70
541.46	56296.91
541.62	56554.36
541.79	56676.07
541.96	56261.80
542.13	56662.03
542.30	56619.90
542.47	56612.88
542.63	57066.94
542.80	56781.40
542.97	56994.39
543.14	57017.79
543.31	57233.12
543.48	57001.41
543.64	57347.81
543.81	57050.56
543.98	57312.70
544.15	57092.69
544.32	57317.38
544.48	57413.34
544.65	57406.32
544.82	57361.85
544.99	57045.88
545.16	57329.08
545.32	57240.14
545.49	57619.31
545.66	57717.61
545.83	57467.17
546.00	57719.95
546.16	57539.73
546.33	57717.61
546.50	57429.72
546.67	57729.31
546.83	57240.14
547.00	57598.24
547.17	57593.56
547.34	57832.30
547.50	57921.24
547.67	57865.06
547.84	57986.77
548.00	58092.10
548.17	58120.18
548.34	58089.76
548.51	58143.59
548.67	58330.83
548.84	58000.82
549.01	58080.39
549.18	58110.82
549.34	58129.54
549.51	58071.03
549.68	58246.57
549.84	58478.28
550.01	58436.16
550.18	58089.76
550.34	58401.05
550.51	58398.71
550.68	58457.22
550.84	58190.40
551.01	58639.78
551.18	58639.78
551.34	58461.90
551.51	58581.27
551.68	58564.88
551.84	58541.48
552.01	58269.98
552.18	58707.66
552.34	58527.44
552.51	58569.57
552.68	58581.27
552.84	58656.17
553.01	58679.57
553.18	58817.66
553.34	58639.78
553.51	58812.98
553.67	58850.43
553.84	58820.00
554.01	58955.75
554.17	58841.07
554.34	59032.99
554.51	59075.12
554.67	59075.12
554.84	58951.07
555.00	58922.99
555.17	58965.12
555.33	58805.96
555.50	58878.52
555.67	58857.45
555.83	58915.96
556.00	58981.50
556.16	59309.18
556.33	59215.55
556.50	59164.06
556.66	59175.76
556.83	59159.38
556.99	59363.01
557.16	59386.41
557.32	59304.49
557.49	59693.02
557.65	59157.04
557.82	59292.79
557.98	59353.65
558.15	59402.80
558.32	59344.28
558.48	59327.90
558.65	59206.19
558.81	59269.39
558.98	59264.70
559.14	59547.91
559.31	59367.69
559.47	59538.55
559.64	59585.36
559.80	59601.74
559.97	59831.11
560.13	59613.44
560.30	59564.29
560.46	59770.26
560.63	59749.20
560.79	59707.07
560.96	59613.44
561.12	59763.24
561.29	59662.60
561.45	59868.56
561.61	59838.14
561.78	59749.20
561.94	59730.47
562.11	59749.20
562.27	59929.42
562.44	59882.61
562.60	60100.28
562.77	60055.81
562.93	59810.05
563.10	60060.49
563.26	59760.90
563.42	60154.11
563.59	60123.68
563.75	59978.57
563.92	59920.05
564.08	59945.80
564.24	60142.41
564.41	60060.49
564.57	60037.08
564.74	60037.08
564.90	60095.60
565.07	59976.23
565.23	60041.76
565.39	60243.05
565.56	60161.13
565.72	60025.38
565.88	60196.24
566.05	59985.59
566.21	60154.11
566.38	60294.54
566.54	60388.16
566.70	60301.56
566.87	60196.24
567.03	60177.51
567.19	60240.71
567.36	60350.71
567.52	60217.30
567.68	60322.63
567.85	60238.37
568.01	60376.46
568.17	60086.23
568.34	60229.01
568.50	60348.37
568.66	60280.50
568.83	60507.53
568.99	60257.09
569.15	60289.86
569.32	60339.01
569.48	60376.46
569.64	60369.44
569.81	60411.57
569.97	60310.92
570.13	60346.03
570.30	60083.89
570.46	60472.42
570.62	60458.38
570.78	60488.80
570.95	60343.69
571.11	60549.66
571.27	60432.63
571.43	60577.75
571.60	60552.00
571.76	60573.06
571.92	60589.45
572.09	60537.96
572.25	60654.98
572.41	60493.49
572.57	60282.84
572.74	60708.82
572.90	60456.04
573.06	60622.22
573.22	60662.00
573.38	60657.32
573.55	60645.62
573.71	60860.95
573.87	60556.68
574.03	60610.51
574.20	60594.13
574.36	60430.29
574.52	60486.46
574.68	60706.47
574.84	60666.69
575.01	60746.26
575.17	60762.65
575.33	60547.32
575.49	60582.43
575.65	60626.90
575.82	60772.01
575.98	60690.09
576.14	61080.96
576.30	60652.64
576.46	60568.38
576.62	60720.52
576.79	60643.28
576.95	60568.38
577.11	60575.40
577.27	60739.24
577.43	60814.14
577.59	60650.30
577.75	60577.75
577.92	60877.33
578.08	60694.77
578.24	60823.50
578.40	60987.34
578.56	60818.82
578.72	60917.12
578.88	60882.02
579.04	61020.11
579.21	60938.19
579.37	60882.02
579.53	60629.24
579.69	60704.13
579.85	60680.73
580.01	60669.03
580.17	60650.30
580.33	60830.52
580.49	60985.00
580.65	60729.88
580.82	60910.10
580.98	60615.19
581.14	60769.67
581.30	60994.36
581.46	60662.00
581.62	60767.33
581.78	60704.13
581.94	60886.70
582.10	60874.99
582.26	60699.45
582.42	60996.70
582.58	60898.40
582.74	60882.02
582.90	60776.69
583.06	61066.92
583.22	60900.74
583.38	61003.72
583.54	60842.23
583.70	60889.04
583.86	61066.92
584.02	60870.31
584.18	60966.27
584.34	60919.46
584.50	60966.27
584.66	60919.46
584.82	60692.43
584.98	61078.62
585.14	60963.93
585.30	60842.23
585.46	61003.72
585.62	60994.36
585.78	61071.60
585.94	60846.91
586.10	61118.41
586.26	60935.85
586.42	61006.06
586.58	60985.00
586.74	61078.62
586.90	60928.83
587.06	60926.49
587.22	61200.33
587.38	60940.53
587.54	61228.41
587.70	61008.40
587.86	61104.37
588.02	60802.44
588.18	61062.24
588.34	60940.53
588.49	61127.77
