SpectraSuite Data File
++++++++++++++++++++++++++++++++++++
Date: Fri Oct 25 10:48:03 EDT 2013
User: price-jones
Dark Spectrum Present: No
Reference Spectrum Present: No
Number of Sampled Component Spectra: 1
Spectrometers: USB2+H05261
Integration Time (usec): 100000 (USB2+H05261)
Spectra Averaged: 1 (USB2+H05261)
Boxcar Smoothing: 0 (USB2+H05261)
Correct for Electrical Dark: No (USB2+H05261)
Strobe/Lamp Enabled: No (USB2+H05261)
Correct for Detector Non-linearity: No (USB2+H05261)
Correct for Stray Light: No (USB2+H05261)
Number of Pixels in Processed Spectrum: 2048
>>>>>Begin Processed Spectral Data<<<<<
365.73	112.35
365.92	112.35
366.12	112.35
366.32	88.94
366.52	37.45
366.72	114.69
366.91	86.60
367.11	0.00
367.31	35.11
367.51	16.38
367.70	49.15
367.90	23.41
368.10	14.04
368.30	112.35
368.49	67.88
368.69	79.58
368.89	72.56
369.09	30.43
369.28	133.41
369.48	77.24
369.68	84.26
369.87	91.28
370.07	100.64
370.27	191.92
370.47	243.42
370.66	435.34
370.86	320.65
371.06	447.04
371.25	500.87
371.45	503.22
371.65	454.06
371.84	449.38
372.04	470.45
372.24	451.72
372.44	463.43
372.63	629.60
372.83	526.62
373.03	496.19
373.22	507.90
373.42	521.94
373.62	498.53
373.81	596.84
374.01	571.09
374.21	564.07
374.40	505.56
374.60	545.34
374.79	589.82
374.99	468.11
375.19	568.75
375.38	582.79
375.58	533.64
375.78	624.92
375.97	580.45
376.17	545.34
376.37	580.45
376.56	550.03
376.76	552.37
376.95	531.30
377.15	559.39
377.35	594.50
377.54	653.01
377.74	533.64
377.93	603.86
378.13	521.94
378.33	688.12
378.52	648.33
378.72	617.90
378.91	643.65
379.11	608.54
379.31	606.20
379.50	585.13
379.70	638.97
379.89	643.65
380.09	690.46
380.28	650.67
380.48	601.52
380.68	641.31
380.87	589.82
381.07	676.41
381.26	690.46
381.46	688.12
381.65	669.39
381.85	669.39
382.04	606.20
382.24	657.69
382.43	645.99
382.63	732.59
382.83	702.16
383.02	683.44
383.22	692.80
383.41	739.61
383.61	671.73
383.80	716.20
384.00	676.41
384.19	688.12
384.39	725.57
384.58	826.21
384.78	798.12
384.97	744.29
385.17	767.70
385.36	702.16
385.56	791.10
385.75	753.65
385.95	793.44
386.14	704.50
386.34	774.72
386.53	748.97
386.72	751.31
386.92	847.27
387.11	809.83
387.31	833.23
387.50	772.38
387.70	830.89
387.89	837.91
388.09	746.63
388.28	767.70
388.48	847.27
388.67	767.70
388.86	868.34
389.06	901.11
389.25	917.49
389.45	903.45
389.64	875.36
389.84	966.64
390.03	931.53
390.22	912.81
390.42	952.60
390.61	945.58
390.81	903.45
391.00	873.02
391.19	990.05
391.39	947.92
391.58	931.53
391.78	908.13
391.97	891.74
392.16	847.27
392.36	994.73
392.55	961.96
392.75	910.47
392.94	959.62
393.13	999.41
393.33	945.58
393.52	910.47
393.71	1027.50
393.91	1107.07
394.10	1055.58
394.29	1034.52
394.49	968.98
394.68	1142.18
394.88	1088.35
395.07	1104.73
395.26	1025.15
395.46	1118.78
395.65	1170.27
395.84	1050.90
396.04	1177.29
396.23	1046.22
396.42	1090.69
396.62	1160.91
396.81	1123.46
397.00	1118.78
397.19	1165.59
397.39	1186.65
397.58	1245.16
397.77	1259.21
397.97	1160.91
398.16	1219.42
398.35	1289.64
398.55	1256.87
398.74	1287.29
398.93	1327.08
399.12	1310.70
399.32	1369.21
399.51	1348.15
399.70	1355.17
399.90	1345.81
400.09	1359.85
400.28	1432.41
400.47	1404.32
400.67	1392.62
400.86	1315.38
401.05	1453.47
401.24	1500.28
401.44	1411.34
401.63	1434.75
401.82	1458.15
402.01	1418.36
402.21	1511.99
402.40	1486.24
402.59	1577.52
402.78	1495.60
402.97	1523.69
403.17	1537.73
403.36	1589.22
403.55	1577.52
403.74	1568.16
403.93	1540.07
404.13	1612.63
404.32	1607.95
404.51	1650.08
404.70	1755.40
404.89	1624.33
405.09	1671.14
405.28	1680.50
405.47	1776.47
405.66	1671.14
405.85	1757.74
406.05	1767.10
406.24	1774.13
406.43	1732.00
406.62	1811.57
406.81	1832.64
407.00	1797.53
407.20	1856.04
407.39	1832.64
407.58	1785.83
407.77	1856.04
407.96	1834.98
408.15	1898.17
408.34	1928.60
408.54	1940.30
408.73	1893.49
408.92	1980.09
409.11	2031.58
409.30	2008.18
409.49	1900.52
409.68	1970.73
409.87	2071.37
410.07	2064.35
410.26	2099.46
410.45	2160.31
410.64	2069.03
410.83	2143.93
411.02	2113.50
411.21	2258.62
411.40	2143.93
411.59	2216.49
411.78	2122.87
411.98	2209.47
412.17	2202.44
412.36	2267.98
412.55	2289.04
412.74	2394.37
412.93	2314.79
413.12	2326.49
413.31	2354.58
413.50	2534.80
413.69	2375.64
413.88	2448.20
414.07	2579.27
414.26	2509.05
414.45	2567.57
414.64	2518.42
414.83	2602.68
415.02	2654.17
415.22	2750.13
415.41	2738.43
415.60	2693.96
415.79	2649.49
415.98	2853.11
416.17	2806.30
416.36	2909.29
416.55	2853.11
416.74	2761.83
416.93	2892.90
417.12	2843.75
417.31	2785.24
417.50	3028.65
417.69	3007.59
417.88	2932.69
418.07	3047.38
418.26	3002.91
418.45	3112.91
418.64	3297.81
418.83	3126.96
419.02	3038.02
419.21	3122.27
419.39	3141.00
419.58	3133.98
419.77	3056.74
419.96	3215.90
420.15	3171.43
420.34	3311.86
420.53	3405.48
420.72	3410.16
420.91	3361.01
421.10	3393.78
421.29	3339.94
421.48	3382.07
421.67	3356.33
421.86	3330.58
422.05	3454.63
422.24	3180.79
422.43	3440.59
422.61	3541.23
422.80	3499.10
422.99	3520.17
423.18	3433.57
423.37	3471.01
423.56	3541.23
423.75	3449.95
423.94	3353.99
424.13	3204.19
424.32	3311.86
424.50	3531.87
424.69	3662.94
424.88	3609.11
425.07	3426.54
425.26	3517.83
425.45	3487.40
425.64	3426.54
425.83	3548.25
426.01	3548.25
426.20	3604.42
426.39	3492.08
426.58	3475.70
426.77	3456.97
426.96	3557.61
427.15	3454.63
427.33	3445.27
427.52	3515.48
427.71	3660.60
427.90	3641.87
428.09	3744.86
428.28	3681.66
428.46	3761.24
428.65	3740.18
428.84	3737.84
429.03	3803.37
429.22	3606.77
429.40	3784.65
429.59	3763.58
429.78	3581.02
429.97	3569.32
430.16	3648.90
430.34	3831.46
430.53	3819.75
430.72	3992.95
430.91	3836.14
431.10	3784.65
431.28	4070.19
431.47	4023.38
431.66	4159.13
431.85	3960.19
432.03	4238.71
432.22	4154.45
432.41	4285.52
432.60	4142.75
432.79	4067.85
432.97	4215.30
433.16	4128.70
433.35	4142.75
433.54	4156.79
433.72	4112.32
433.91	4234.03
434.10	4257.43
434.28	4140.41
434.47	4320.63
434.66	4454.04
434.85	4496.17
435.03	4454.04
435.22	4353.40
435.41	4617.88
435.59	4582.77
435.78	4411.91
435.97	4482.13
436.16	4564.04
436.34	4461.06
436.53	4440.00
436.72	4667.03
436.90	4503.19
437.09	4587.45
437.28	4465.74
437.46	4636.60
437.65	4732.56
437.84	4582.77
438.02	4517.23
438.21	4711.50
438.40	4575.75
438.58	4685.75
438.77	4882.36
438.96	4727.88
439.14	4856.61
439.33	4968.96
439.52	5015.77
439.70	4844.91
439.89	5011.09
440.08	5116.41
440.26	5085.98
440.45	4910.44
440.63	5114.07
440.82	5345.78
441.01	5341.10
441.19	5270.89
441.38	5238.12
441.57	5277.91
441.75	5425.36
441.94	5570.48
442.12	5568.13
442.31	5708.57
442.50	5530.69
442.68	5474.51
442.87	5582.18
443.05	5680.48
443.24	5579.84
443.43	5605.58
443.61	5701.54
443.80	5717.93
443.98	5504.94
444.17	5507.28
444.35	5755.38
444.54	5942.62
444.73	5816.23
444.91	5722.61
445.10	5666.44
445.28	5734.31
445.47	5605.58
445.65	5762.40
445.84	5724.95
446.02	5839.64
446.21	5769.42
446.39	5832.62
446.58	5895.81
446.77	5968.37
446.95	5769.42
447.14	5870.06
447.32	5963.68
447.51	5818.57
447.69	5851.34
447.88	5870.06
448.06	5844.32
448.25	5975.39
448.43	5977.73
448.62	5916.87
448.80	6015.18
448.99	6099.44
449.17	5994.11
449.36	5982.41
449.54	6139.23
449.73	6366.26
449.91	6244.55
450.10	6188.38
450.28	6258.59
450.46	6450.52
450.65	6310.08
450.83	6392.00
451.02	6417.75
451.20	6368.60
451.39	6586.27
451.57	6410.73
451.76	6279.66
451.94	6401.37
452.13	6354.55
452.31	6424.77
452.49	6244.55
452.68	6328.81
452.86	6541.80
453.05	6361.58
453.23	6504.35
453.42	6427.11
453.60	6384.98
453.78	6537.12
453.97	6399.02
454.15	6434.13
454.34	6504.35
454.52	6448.18
454.70	6616.69
454.89	6670.53
455.07	6665.85
455.26	6757.13
455.44	6825.00
455.62	6707.98
455.81	6885.86
455.99	6806.28
456.17	6904.58
456.36	6869.47
456.54	7002.88
456.73	7005.22
456.91	7183.10
457.09	7091.82
457.28	7201.83
457.46	6946.71
457.64	7180.76
457.83	7077.78
458.01	7346.94
458.19	7302.47
458.38	7054.37
458.56	7405.46
458.74	7274.38
458.93	7382.05
459.11	7199.49
459.29	7330.56
459.48	7417.16
459.66	7232.26
459.84	7459.29
460.03	7705.04
460.21	7492.05
460.39	7506.10
460.57	7368.01
460.76	7529.50
460.94	7768.24
461.12	7737.81
461.31	7573.97
461.49	7651.21
461.67	7943.78
461.85	7786.96
462.04	7644.19
462.22	8006.97
462.40	7939.10
462.59	7875.90
462.77	8018.68
462.95	7833.77
463.13	7721.43
463.32	7939.10
463.50	8032.72
463.68	7988.25
463.86	7939.10
464.05	7932.08
464.23	7955.48
464.41	7941.44
464.59	7896.97
464.78	8191.88
464.96	8142.72
465.14	7932.08
465.32	8095.91
465.50	8091.23
465.69	8088.89
465.87	8166.13
466.05	8297.20
466.23	8194.22
466.41	8306.56
466.60	8493.80
466.78	8166.13
466.96	8100.59
467.14	8241.03
467.32	8259.75
467.51	8589.77
467.69	8276.13
467.87	8315.92
468.05	8608.49
468.23	8552.32
468.41	8507.85
468.60	8465.72
468.78	8762.97
468.96	8395.50
469.14	8421.25
469.32	8877.65
469.50	8491.46
469.69	8674.03
469.87	8746.58
470.05	8643.60
470.23	8718.50
470.41	8709.13
470.59	9088.30
470.77	8791.05
470.95	8844.88
471.14	9195.96
471.32	8837.86
471.50	9167.88
471.68	9092.98
471.86	9198.31
472.04	9214.69
472.22	9404.27
472.40	9074.26
472.58	9263.84
472.77	9355.12
472.95	9549.39
473.13	9736.63
473.31	9387.89
473.49	9521.30
473.67	9397.25
473.85	9563.43
474.03	9846.63
474.21	9643.01
474.39	9839.61
474.57	9886.42
474.75	10083.03
474.93	9879.40
475.12	9788.12
475.30	10127.50
475.48	10127.50
475.66	10132.18
475.84	10083.03
476.02	10010.47
476.20	10518.37
476.38	10368.57
476.56	10764.12
476.74	10579.22
476.92	10342.83
477.10	10548.79
477.28	10789.87
477.46	10700.93
477.64	10815.62
477.82	11026.26
478.00	11428.84
478.18	11105.84
478.36	11108.18
478.54	11569.27
478.72	11529.48
478.90	11609.06
479.08	11660.55
479.26	11803.32
479.44	11826.73
479.62	11742.47
479.80	12025.67
479.98	12102.91
480.16	12060.78
480.34	12009.29
480.52	12233.98
480.70	12383.77
480.88	12152.06
481.06	12477.40
481.24	12414.20
481.41	12709.11
481.59	12891.67
481.77	12861.24
481.95	12805.07
482.13	12922.10
482.31	12968.91
482.49	13357.44
482.67	13476.80
482.85	13151.47
483.03	13741.29
483.21	13441.70
483.39	13694.47
483.57	14029.17
483.74	13989.38
483.92	13895.76
484.10	13975.34
484.28	14331.10
484.46	14647.07
484.64	14714.95
484.82	14361.53
485.00	14824.95
485.18	14867.08
485.35	14956.02
485.53	14831.97
485.71	14836.66
485.89	14941.98
486.07	15131.56
486.25	15211.14
486.43	15250.93
486.61	15307.10
486.78	15721.38
486.96	15941.39
487.14	15838.41
487.32	16116.93
487.50	16219.91
487.68	16430.56
487.85	16556.95
488.03	16554.61
488.21	16746.53
488.39	16758.24
488.57	17020.38
488.75	17177.19
488.92	17221.66
489.10	17465.08
489.28	17390.18
489.46	17792.75
489.64	17905.10
489.81	17767.01
489.99	17937.87
490.17	18352.14
490.35	18633.00
490.53	18246.82
490.70	18654.07
490.88	18492.57
491.06	18654.07
491.24	18705.56
491.41	18862.38
491.59	18829.61
491.77	18808.54
491.95	19075.37
492.13	19611.35
492.30	19398.36
492.48	19477.94
492.66	19704.97
492.84	19770.51
493.01	20020.94
493.19	19538.79
493.37	20264.36
493.54	20517.14
493.72	20540.54
493.90	20348.62
494.08	20301.81
494.25	20699.70
494.43	20779.28
494.61	21104.61
494.79	20891.62
494.96	21135.04
495.14	21380.79
495.32	21427.60
495.49	21380.79
495.67	21748.26
495.85	21839.54
496.02	21923.80
496.20	22171.89
496.38	22171.89
496.55	22286.58
496.73	22808.52
496.91	22548.72
497.09	22787.46
497.26	22724.26
497.44	22595.53
497.62	22637.66
497.79	23229.82
497.97	23105.77
498.14	22876.40
498.32	23440.47
498.50	23239.18
498.67	23482.59
498.85	23372.59
499.03	23838.36
499.20	23924.96
499.38	23833.68
499.56	24020.92
499.73	24023.26
499.91	24409.45
500.08	24479.66
500.26	24243.27
500.44	24643.50
500.61	24301.78
500.79	24460.94
500.97	24638.82
501.14	25188.85
501.32	24868.19
501.49	24816.70
501.67	25151.40
501.84	25125.65
502.02	25193.53
502.20	25174.80
502.37	25773.98
502.55	25308.21
502.72	25699.08
502.90	25383.11
503.07	25575.03
503.25	25848.88
503.43	25837.17
503.60	25722.49
503.78	25605.46
503.95	25979.95
504.13	26239.75
504.30	26223.36
504.48	26244.43
504.65	26424.65
504.83	26396.56
505.01	26656.36
505.18	26244.43
505.36	26986.38
505.53	26614.23
505.71	26911.48
505.88	27276.60
506.06	26845.94
506.23	26991.06
506.41	26859.99
506.58	27143.19
506.76	27283.62
506.93	27709.60
507.11	27630.02
507.28	27751.73
507.46	27407.67
507.63	27658.11
507.81	27896.85
507.98	27819.61
508.16	28009.19
508.33	27929.61
508.50	27990.47
508.68	28137.92
508.85	28095.79
509.03	28510.07
509.20	28463.25
509.38	29088.18
509.55	28767.52
509.73	28854.12
509.90	28910.30
510.08	28842.42
510.25	29174.78
510.42	28484.32
510.60	29404.15
510.77	29326.91
510.95	29717.78
511.12	29167.76
511.30	29518.84
511.47	29373.72
511.64	30256.11
511.82	29867.58
511.99	29912.05
512.17	29558.63
512.34	29785.66
512.51	29703.74
512.69	30298.23
512.86	30361.43
513.04	30389.52
513.21	30263.13
513.38	30171.85
513.56	30148.44
513.73	30359.09
513.90	30183.55
514.08	30148.44
514.25	30775.70
514.43	31122.10
514.60	30335.68
514.77	30808.47
514.95	31091.68
515.12	31672.13
515.29	30621.23
515.47	31295.30
515.64	31835.97
515.81	31133.81
515.99	31548.08
516.16	31103.38
516.33	31388.92
516.51	31840.65
516.68	31697.88
516.85	31573.83
517.03	31379.56
517.20	31838.31
517.37	31646.38
517.54	32123.85
517.72	31866.39
517.89	31847.67
518.06	32266.63
518.24	31821.92
518.41	31997.46
518.58	32034.91
518.75	32053.64
518.93	32402.38
519.10	32556.85
519.27	32486.64
519.45	32360.25
519.62	32657.49
519.79	32744.09
519.96	32872.82
520.14	33029.64
520.31	33092.83
520.48	33242.63
520.65	33144.33
520.83	33149.01
521.00	33209.86
521.17	33156.03
521.34	33476.68
521.52	33546.90
521.69	33560.94
521.86	33890.96
522.03	34199.91
522.20	33717.76
522.38	33949.47
522.55	34199.91
522.72	34127.35
522.89	34272.46
523.07	34249.06
523.24	33741.16
523.41	34125.01
523.58	34127.35
523.75	34787.38
523.92	34483.11
524.10	34445.66
524.27	34883.34
524.44	34675.04
524.61	34583.76
524.78	34911.43
524.96	35056.54
525.13	35370.18
525.30	35367.84
525.47	35021.44
525.64	35311.66
525.81	35220.38
525.98	35215.70
526.16	35314.00
526.33	34817.81
526.50	35529.33
526.67	35335.07
526.84	35145.48
527.01	35016.75
527.18	35290.60
527.36	35910.84
527.53	35494.22
527.70	36030.21
527.87	36196.38
528.04	35974.03
528.21	36011.48
528.38	35761.05
528.55	36252.56
528.72	36086.38
528.89	36334.48
529.07	36374.27
529.24	35765.73
529.41	36121.49
529.58	36100.42
529.75	36100.42
529.92	36240.86
530.09	36561.51
530.26	36769.82
530.43	36697.26
530.60	36070.00
530.77	36601.30
530.94	36851.73
531.11	36825.99
531.28	36659.81
531.46	36891.52
531.63	37502.40
531.80	36804.92
531.97	37125.58
532.14	36896.20
532.31	36872.80
532.48	36952.38
532.65	37785.61
532.82	37425.17
532.99	37443.89
533.16	37439.21
533.33	37436.87
533.50	37895.61
533.67	37551.56
533.84	37254.31
534.01	37333.89
534.18	37649.86
534.35	37921.36
534.52	37790.29
534.69	38129.67
534.86	37794.97
535.03	37736.46
535.20	38052.43
535.37	38508.83
535.54	38380.10
535.71	38197.54
535.88	37734.12
536.05	38263.08
536.22	38473.73
536.38	38286.48
536.55	38300.53
536.72	38176.48
536.89	38293.50
537.06	38513.52
537.23	38569.69
537.40	38541.60
537.57	38686.71
537.74	38686.71
537.91	38843.53
538.08	38557.99
538.25	38998.01
538.42	38810.76
538.59	38820.13
538.75	38263.08
538.92	38939.49
539.09	39166.52
539.26	39028.43
539.43	39021.41
539.60	39002.69
539.77	39203.97
539.94	39105.67
540.11	38841.19
540.28	39021.41
540.44	38923.11
540.61	39084.61
540.78	38986.30
540.95	38745.23
541.12	39002.69
541.29	39276.53
541.46	39016.73
541.62	39894.43
541.79	39885.07
541.96	39330.36
542.13	39639.31
542.30	39655.70
542.47	39634.63
542.63	39438.03
542.80	39971.67
542.97	40289.98
543.14	40285.30
543.31	40631.70
543.48	40308.71
543.64	40498.29
543.81	40432.75
543.98	40479.57
544.15	40320.41
544.32	40437.44
544.48	41106.83
544.65	40280.62
544.82	39988.05
544.99	39976.35
545.16	40821.28
545.32	40355.52
545.49	41020.23
545.66	40793.20
545.83	41074.06
546.00	40488.93
546.16	41013.21
546.33	40875.12
546.50	40568.51
546.67	41289.39
546.83	40734.68
547.00	40832.99
547.17	41001.50
547.34	41305.77
547.50	40954.69
547.67	41422.80
547.84	41422.80
548.00	41722.39
548.17	41357.27
548.34	41469.61
548.51	41249.60
548.67	41380.67
548.84	41656.85
549.01	41556.21
549.18	41378.33
549.34	41619.41
549.51	42204.54
549.68	41572.60
549.84	41462.59
550.01	41579.62
550.18	41200.45
550.34	41724.73
550.51	41535.15
550.68	41347.90
550.84	41265.99
551.01	42501.79
551.18	42190.50
551.34	41832.39
551.51	41783.24
551.68	41900.27
551.84	42155.39
552.01	41869.84
552.18	41808.99
552.34	42103.90
552.51	41914.31
552.68	41886.23
552.84	42422.21
553.01	42667.97
553.18	42103.90
553.34	42155.39
553.51	42176.45
553.67	42333.27
553.84	42586.05
554.01	42897.34
554.17	42682.01
554.34	42906.70
554.51	42279.44
554.67	42731.16
554.84	42389.44
555.00	42195.18
555.17	42309.86
555.33	42639.88
555.50	42476.04
555.67	42562.64
555.83	42965.21
556.00	42689.03
556.16	43070.54
556.33	42801.38
556.50	42696.05
556.66	42911.38
556.83	42855.21
556.99	43377.15
557.16	42981.60
557.32	43019.05
557.49	43428.64
557.65	43056.50
557.82	43058.84
557.98	43166.50
558.15	43140.75
558.32	43234.38
558.48	42981.60
558.65	42969.90
558.81	42660.94
558.98	43166.50
559.14	42944.15
559.31	43037.77
559.47	43147.78
559.64	43393.53
559.80	43061.18
559.97	43536.30
560.13	43344.38
560.30	43393.53
560.46	43555.03
560.63	43196.93
560.79	43496.52
560.96	43674.40
561.12	43414.60
561.29	43414.60
561.45	43594.82
561.61	43676.74
561.78	43107.99
561.94	43674.40
562.11	43430.98
562.27	43442.68
562.44	43264.80
562.60	43409.92
562.77	43887.39
562.93	43435.66
563.10	43702.48
563.26	43192.25
563.42	43772.70
563.59	43608.86
563.75	43732.91
563.92	43608.86
564.08	43665.03
564.24	43938.88
564.41	43938.88
564.57	43732.91
564.74	44383.58
564.90	43910.79
565.07	43646.31
565.23	43306.93
565.39	43714.19
565.56	43765.68
565.72	43571.41
565.88	43992.71
566.05	43271.82
566.21	43917.81
566.38	43913.13
566.54	43512.90
566.70	44186.97
566.87	44105.06
567.03	44123.78
567.19	44156.55
567.36	43770.36
567.52	43761.00
567.68	43842.92
567.85	43730.57
568.01	43896.75
568.17	43824.19
568.34	44081.65
568.50	44039.52
568.66	43978.67
568.83	43707.16
568.99	44037.18
569.15	43622.90
569.32	43608.86
569.48	43735.25
569.64	44535.71
569.81	44025.48
569.97	44250.17
570.13	43697.80
570.30	44130.80
570.46	43714.19
570.62	43852.28
570.78	43789.08
570.95	43863.98
571.11	44573.16
571.27	43800.79
571.43	44135.48
571.60	44296.98
571.76	44062.93
571.92	44212.72
572.09	44133.14
572.25	44182.29
572.41	44229.10
572.57	44264.21
572.74	45090.42
572.90	44182.29
573.06	44325.07
573.22	44243.15
573.38	43985.69
573.55	43803.13
573.71	44514.65
573.87	44086.33
574.03	43901.43
574.20	44334.43
574.36	44399.96
574.52	44488.90
574.68	44708.91
574.84	44236.12
575.01	44535.71
575.17	44488.90
575.33	44268.89
575.49	44041.86
575.65	44374.22
575.82	44907.86
575.98	44301.66
576.14	44664.44
576.30	44619.97
576.46	44236.12
576.62	44091.01
576.79	44304.00
576.95	44378.90
577.11	44226.76
577.27	44325.07
577.43	44259.53
577.59	44186.97
577.75	44626.99
577.92	43847.60
578.08	44051.22
578.24	43999.73
578.40	44245.49
578.56	44737.00
578.72	44357.83
578.88	44369.54
579.04	44369.54
579.21	44154.21
579.37	44163.57
579.53	44439.75
579.69	44355.49
579.85	44428.05
580.01	44189.31
580.17	44388.26
580.33	44919.56
580.49	44940.63
580.65	44648.06
580.82	44292.30
580.98	44140.16
581.14	44318.04
581.30	44243.15
581.46	44587.21
581.62	44493.58
581.78	44570.82
581.94	44732.32
582.10	44673.81
582.26	44837.64
582.42	44467.84
582.58	44765.09
582.74	44669.12
582.90	44311.02
583.06	44355.49
583.22	44856.37
583.38	44495.92
583.54	44662.10
583.70	44928.92
583.86	44313.36
584.02	44072.29
584.18	44245.49
584.34	44245.49
584.50	44477.20
584.66	44231.44
584.82	44348.47
584.98	44917.22
585.14	45006.16
585.30	44250.17
585.46	44308.68
585.62	44315.70
585.78	44549.76
585.94	44116.76
586.10	44229.10
586.26	44652.74
586.42	44556.78
586.58	44561.46
586.74	44594.23
586.90	44636.36
587.06	44252.51
587.22	45085.74
587.38	43945.90
587.54	44561.46
587.70	45045.95
587.86	44339.11
588.02	44795.51
588.18	44753.38
588.34	44683.17
588.49	44392.94
588.65	44147.18
588.81	44713.59
588.97	44605.93
589.13	44451.45
589.29	44570.82
589.45	44460.82
589.61	45095.10
589.77	44875.09
589.93	44842.32
590.08	44732.32
590.24	45020.20
