SpectraSuite Data File
++++++++++++++++++++++++++++++++++++
Date: Fri Oct 25 11:23:41 EDT 2013
User: price-jones
Dark Spectrum Present: No
Reference Spectrum Present: No
Number of Sampled Component Spectra: 1
Spectrometers: USB2+H05261
Integration Time (usec): 100000 (USB2+H05261)
Spectra Averaged: 1 (USB2+H05261)
Boxcar Smoothing: 0 (USB2+H05261)
Correct for Electrical Dark: No (USB2+H05261)
Strobe/Lamp Enabled: No (USB2+H05261)
Correct for Detector Non-linearity: No (USB2+H05261)
Correct for Stray Light: No (USB2+H05261)
Number of Pixels in Processed Spectrum: 2048
>>>>>Begin Processed Spectral Data<<<<<
365.73	205.97
365.92	205.97
366.12	205.97
366.32	166.18
366.52	131.07
366.72	145.11
366.91	177.88
367.11	135.75
367.31	166.18
367.51	81.92
367.70	163.84
367.90	124.05
368.10	152.13
368.30	159.16
368.49	110.01
368.69	220.01
368.89	159.16
369.09	58.51
369.28	194.26
369.48	121.71
369.68	166.18
369.87	203.63
370.07	248.10
370.27	262.14
370.47	339.38
370.66	631.94
370.86	664.71
371.06	664.71
371.25	688.12
371.45	624.92
371.65	653.01
371.84	601.52
372.04	657.69
372.24	725.57
372.44	774.72
372.63	669.39
372.83	755.99
373.03	692.80
373.22	725.57
373.42	784.08
373.62	734.93
373.81	765.36
374.01	842.59
374.21	791.10
374.40	849.61
374.60	763.01
374.79	828.55
374.99	807.48
375.19	795.78
375.38	844.93
375.58	805.14
375.78	875.36
375.97	835.57
376.17	912.81
376.37	873.02
376.56	861.32
376.76	931.53
376.95	842.59
377.15	884.72
377.35	814.51
377.54	823.87
377.74	891.74
377.93	877.70
378.13	877.70
378.33	1032.18
378.52	952.60
378.72	945.58
378.91	887.06
379.11	873.02
379.31	922.17
379.50	950.26
379.70	922.17
379.89	968.98
380.09	961.96
380.28	931.53
380.48	936.21
380.68	968.98
380.87	971.32
381.07	1006.43
381.26	1029.84
381.46	1050.90
381.65	1086.01
381.85	992.39
382.04	973.66
382.24	1043.88
382.43	997.07
382.63	1090.69
382.83	1086.01
383.02	1093.03
383.22	1081.33
383.41	1083.67
383.61	1057.92
383.80	1163.25
384.00	1067.28
384.19	1146.86
384.39	1184.31
384.58	1100.05
384.78	1128.14
384.97	1198.35
385.17	1196.01
385.36	1153.88
385.56	1242.82
385.75	1153.88
385.95	1144.52
386.14	1156.22
386.34	1036.86
386.53	1254.53
386.72	1163.25
386.92	1303.68
387.11	1287.29
387.31	1294.32
387.50	1242.82
387.70	1231.12
387.89	1301.34
388.09	1181.97
388.28	1301.34
388.48	1273.25
388.67	1334.11
388.86	1296.66
389.06	1294.32
389.25	1303.68
389.45	1399.64
389.64	1280.27
389.84	1341.13
390.03	1434.75
390.22	1324.74
390.42	1306.02
390.61	1301.34
390.81	1296.66
391.00	1416.02
391.19	1376.24
391.39	1446.45
391.58	1502.62
391.78	1432.41
391.97	1437.09
392.16	1369.21
392.36	1500.28
392.55	1535.39
392.75	1448.79
392.94	1467.52
393.13	1504.96
393.33	1507.30
393.52	1565.82
393.71	1572.84
393.91	1675.82
394.10	1589.22
394.29	1607.95
394.49	1624.33
394.68	1666.46
394.88	1579.86
395.07	1626.67
395.26	1614.97
395.46	1713.27
395.65	1732.00
395.84	1678.16
396.04	1710.93
396.23	1621.99
396.42	1753.06
396.62	1856.04
396.81	1706.25
397.00	1710.93
397.19	1736.68
397.39	1729.66
397.58	1771.79
397.77	1844.34
397.97	1708.59
398.16	1853.70
398.35	1923.92
398.55	1785.83
398.74	1940.30
398.93	1919.24
399.12	1926.26
399.32	1944.99
399.51	1937.96
399.70	1961.37
399.90	1940.30
400.09	2005.84
400.28	2010.52
400.47	2001.16
400.67	2057.33
400.86	2033.93
401.05	2111.16
401.24	2181.38
401.44	2129.89
401.63	2022.22
401.82	2050.31
402.01	2204.78
402.21	2223.51
402.40	2115.84
402.59	2244.57
402.78	2179.04
402.97	2232.87
403.17	2324.15
403.36	2167.34
403.55	2289.04
403.74	2401.39
403.93	2249.25
404.13	2352.24
404.32	2380.32
404.51	2415.43
404.70	2438.84
404.89	2272.66
405.09	2478.63
405.28	2520.76
405.47	2464.58
405.66	2443.52
405.85	2485.65
406.05	2370.96
406.24	2473.95
406.43	2668.21
406.62	2691.62
406.81	2740.77
407.00	2567.57
407.20	2588.63
407.39	2569.91
407.58	2614.38
407.77	2668.21
407.96	2696.30
408.15	2733.75
408.34	2691.62
408.54	2895.24
408.73	2827.37
408.92	2764.17
409.11	2860.13
409.30	2920.99
409.49	2913.97
409.68	3047.38
409.87	2904.60
410.07	2993.55
410.26	3066.10
410.45	3021.63
410.64	2963.12
410.83	3007.59
411.02	3145.68
411.21	3260.37
411.40	3077.80
411.59	3206.53
411.78	3225.26
411.98	3225.26
412.17	3346.97
412.36	3309.52
412.55	3208.87
412.74	3300.16
412.93	3400.80
413.12	3344.63
413.31	3557.61
413.50	3421.86
413.69	3482.72
413.88	3632.51
414.07	3510.80
414.26	3564.64
414.45	3597.40
414.64	3733.15
414.83	3805.71
415.02	3805.71
415.22	3803.37
415.41	3971.89
415.60	3803.37
415.79	3929.76
415.98	4025.72
416.17	4051.47
416.36	3999.98
416.55	3871.25
416.74	4074.87
416.93	4102.96
417.12	4234.03
417.31	4189.56
417.50	4189.56
417.69	4227.01
417.88	4395.53
418.07	4386.16
418.26	4351.06
418.45	4390.84
418.64	4470.42
418.83	4535.96
419.02	4442.34
419.21	4475.10
419.39	4510.21
419.58	4409.57
419.77	4521.92
419.96	4545.32
420.15	4535.96
420.34	4603.83
420.53	4648.30
420.72	4758.31
420.91	4734.90
421.10	4898.74
421.29	4793.42
421.48	4641.28
421.67	4805.12
421.86	4692.77
422.05	4760.65
422.24	4863.63
422.43	4791.08
422.61	4894.06
422.80	4975.98
422.99	4973.64
423.18	5249.82
423.37	4987.68
423.56	4873.00
423.75	4851.93
423.94	4959.60
424.13	4610.86
424.32	4762.99
424.50	5020.45
424.69	5006.41
424.88	4975.98
425.07	5057.90
425.26	4891.72
425.45	5069.60
425.64	5142.16
425.83	5025.13
426.01	5050.88
426.20	5011.09
426.39	5118.75
426.58	5123.43
426.77	5018.11
426.96	4931.51
427.15	5053.22
427.33	5144.50
427.52	5039.17
427.71	5315.36
427.90	5296.63
428.09	5469.83
428.28	5355.15
428.46	5322.38
428.65	5259.18
428.84	5537.71
429.03	5380.89
429.22	5469.83
429.40	5549.41
429.59	5556.43
429.78	5305.99
429.97	5404.30
430.16	5493.24
430.34	5495.58
430.53	5633.67
430.72	5717.93
430.91	5638.35
431.10	5619.63
431.28	5750.70
431.47	5671.12
431.66	5846.66
431.85	5650.05
432.03	6052.63
432.22	6115.82
432.41	6005.81
432.60	5830.27
432.79	5877.09
432.97	5968.37
433.16	6050.28
433.35	5961.34
433.54	6069.01
433.72	6157.95
433.91	6106.46
434.10	6193.06
434.28	6094.76
434.47	6097.10
434.66	6204.76
434.85	6352.21
435.03	6312.42
435.22	6202.42
435.41	6480.94
435.59	6420.09
435.78	6509.03
435.97	6195.40
436.16	6471.58
436.34	6387.32
436.53	6665.85
436.72	6717.34
436.90	6424.77
437.09	6567.54
437.28	6583.93
437.46	6569.88
437.65	6621.38
437.84	6773.51
438.02	6799.26
438.21	6808.62
438.40	6656.48
438.58	6885.86
438.77	7007.56
438.96	6946.71
439.14	7176.08
439.33	7250.98
439.52	7126.93
439.70	7375.03
439.89	7337.58
440.08	7431.20
440.26	7311.83
440.45	7279.07
440.63	7368.01
440.82	7616.10
441.01	7377.37
441.19	7658.23
441.38	7611.42
441.57	7623.12
441.75	7946.12
441.94	7864.20
442.12	7866.54
442.31	8081.87
442.50	7948.46
442.68	7960.16
442.87	8177.83
443.05	8124.00
443.24	8318.26
443.43	8138.04
443.61	8215.28
443.80	8505.51
443.98	8009.31
444.17	7803.35
444.35	8304.22
444.54	8299.54
444.73	8360.39
444.91	8107.62
445.10	8381.46
445.28	8390.82
445.47	8306.56
445.65	8292.52
445.84	8496.14
446.02	8475.08
446.21	8430.61
446.39	8278.47
446.58	8540.61
446.77	8262.09
446.95	8208.26
447.14	8418.91
447.32	8638.92
447.51	8613.17
447.69	8699.77
447.88	8641.26
448.06	8472.74
448.25	8585.08
448.43	8561.68
448.62	8627.21
448.80	8454.02
448.99	8720.84
449.17	8856.59
449.36	8629.56
449.54	8762.97
449.73	8823.82
449.91	8997.02
450.10	8990.00
450.28	9050.85
450.46	9315.33
450.65	9067.24
450.83	9022.77
451.02	9046.17
451.20	9282.56
451.39	9238.09
451.57	9036.81
451.76	9345.76
451.94	9151.49
452.13	9303.63
452.31	9364.48
452.49	9202.99
452.68	9423.00
452.86	9511.94
453.05	9413.63
453.23	9312.99
453.42	9352.78
453.60	9507.26
453.78	9547.05
453.97	9483.85
454.15	9479.17
454.34	9514.28
454.52	9645.35
454.70	9734.29
454.89	9664.07
455.07	9729.61
455.26	9984.73
455.44	9781.10
455.62	9790.46
455.81	9790.46
455.99	10015.15
456.17	10232.82
456.36	9877.06
456.54	10010.47
456.73	9949.62
456.91	10494.96
457.09	10422.41
457.28	10757.10
457.46	10310.06
457.64	10579.22
457.83	10473.90
458.01	10375.59
458.19	10654.12
458.38	10628.37
458.56	10775.83
458.74	10736.04
458.93	10946.69
459.11	10593.26
459.29	10766.46
459.48	10902.22
459.66	10932.64
459.84	10902.22
460.03	11014.56
460.21	10892.85
460.39	11101.16
460.57	10951.37
460.76	11030.94
460.94	11145.63
461.12	11234.57
461.31	11293.08
461.49	11206.48
461.67	11098.82
461.85	11332.87
462.04	11257.98
462.22	11576.29
462.40	11857.15
462.59	11623.10
462.77	11531.82
462.95	11686.29
463.13	11695.66
463.32	11648.85
463.50	11625.44
463.68	11803.32
463.86	11758.85
464.05	11735.45
464.23	11667.57
464.41	11892.26
464.59	11695.66
464.78	12046.74
464.96	12063.12
465.14	11922.69
465.32	12063.12
465.50	12180.15
465.69	12257.39
465.87	12306.54
466.05	12147.38
466.23	12311.22
466.41	12100.57
466.60	12346.33
466.78	12121.63
466.96	12201.21
467.14	12313.56
467.32	12613.15
467.51	12402.50
467.69	12236.32
467.87	12610.81
468.05	12638.89
468.23	12514.84
468.41	12353.35
468.60	12704.43
468.78	12915.08
468.96	12662.30
469.14	12552.29
469.32	12793.37
469.50	12840.18
469.69	13050.83
469.87	13256.79
470.05	13085.94
470.23	13130.41
470.41	13097.64
470.59	13383.18
470.77	13324.67
470.95	13256.79
471.14	13415.95
471.32	13177.22
471.50	13645.32
471.68	13493.19
471.86	13561.06
472.04	13790.44
472.22	13991.72
472.40	13603.19
472.58	13837.25
472.77	13865.33
472.95	14139.18
473.13	14387.27
473.31	14354.51
473.49	14146.20
473.67	14183.65
473.85	14153.22
474.03	14649.41
474.21	14523.02
474.39	14775.80
474.57	14656.43
474.75	14970.07
474.93	15021.56
475.12	15096.46
475.30	15021.56
475.48	15274.34
475.66	15208.80
475.84	15309.44
476.02	15456.90
476.20	15405.41
476.38	15819.68
476.56	16196.51
476.74	15978.84
476.92	15742.44
477.10	16046.71
477.28	16374.39
477.46	16137.99
477.64	16238.64
477.82	16727.81
478.00	16901.01
478.18	16702.06
478.36	17097.61
478.54	17034.42
478.72	17259.11
478.90	17446.35
479.08	17605.51
479.26	17935.53
479.44	17624.23
479.62	17802.11
479.80	18216.39
479.98	18211.71
480.16	18532.36
480.34	18485.55
480.52	18635.35
480.70	18712.58
480.88	18448.10
481.06	18890.46
481.24	18757.05
481.41	18944.30
481.59	19145.58
481.77	19473.26
481.95	19480.28
482.13	19328.14
482.31	19814.98
482.49	20219.89
482.67	20039.67
482.85	20737.15
483.03	20561.61
483.21	20657.57
483.39	20905.66
483.57	20936.09
483.74	21128.02
483.92	21535.27
484.10	21116.31
484.28	21659.32
484.46	21563.36
484.64	22527.66
484.82	21972.95
485.00	22354.46
485.18	22696.17
485.35	23110.45
485.53	22766.39
485.71	23187.69
485.89	23431.10
486.07	23548.13
486.25	23370.25
486.43	23665.16
486.61	23817.29
486.78	24299.44
486.96	24093.47
487.14	24769.89
487.32	24505.41
487.50	25116.29
487.68	25095.22
487.85	25563.33
488.03	25724.83
488.21	25729.51
488.39	25673.34
488.57	26288.90
488.75	26167.19
488.92	26473.80
489.10	26906.80
489.28	26735.94
489.46	27012.12
489.64	27335.12
489.81	27662.79
489.99	27365.54
490.17	27709.60
490.35	28018.55
490.53	28268.99
490.70	28381.34
490.88	28367.29
491.06	28875.19
491.24	28964.13
491.41	29020.30
491.59	29476.71
491.77	29406.49
491.95	29645.23
492.13	29933.11
492.30	29958.86
492.48	30164.82
492.66	30541.65
492.84	30162.48
493.01	30850.60
493.19	30309.94
493.37	31204.02
493.54	31171.25
493.72	31367.86
493.90	31470.84
494.08	32257.26
494.25	32025.55
494.43	32306.41
494.61	32322.80
494.79	32718.35
494.96	32313.44
495.14	32896.23
495.32	33376.04
495.49	33394.76
495.67	33064.75
495.85	33860.53
496.02	33869.89
496.20	34085.22
496.38	34220.97
496.55	34387.15
496.73	34927.81
496.91	34628.23
497.09	34719.51
497.26	35028.46
497.44	34731.21
497.62	35384.22
497.79	35910.84
497.97	35283.58
498.14	35971.69
498.32	36301.71
498.50	36400.01
498.67	36465.55
498.85	36584.91
499.03	36510.02
499.20	36776.84
499.38	37034.30
499.56	37256.65
499.73	37376.01
499.91	37436.87
500.08	37713.05
500.26	37394.74
500.44	37593.68
500.61	37729.44
500.79	37914.34
500.97	38508.83
501.14	38749.91
501.32	39021.41
501.49	38490.11
501.67	38834.17
501.84	38937.15
502.02	38675.01
502.20	39171.21
502.37	39108.01
502.55	39236.74
502.72	39494.20
502.90	39641.65
503.07	39597.18
503.25	39814.85
503.43	40570.85
503.60	40201.04
503.78	40292.32
503.95	40189.34
504.13	40399.99
504.30	40973.42
504.48	40535.74
504.65	41214.49
504.83	41184.07
505.01	41256.62
505.18	41242.58
505.36	41778.56
505.53	41460.25
505.71	41450.89
505.88	41989.21
506.06	41460.25
506.23	42225.60
506.41	42000.91
506.58	42564.98
506.76	42520.51
506.93	42361.36
507.11	42653.92
507.28	42251.35
507.46	42682.01
507.63	43075.22
507.81	43540.99
507.98	42880.95
508.16	43140.75
508.33	43091.60
508.50	43515.24
508.68	43777.38
508.85	43908.45
509.03	43971.64
509.20	44137.82
509.38	44161.23
509.55	44601.25
509.73	44734.66
509.90	44687.85
510.08	44858.71
510.25	44751.04
510.42	44729.98
510.60	45001.48
510.77	45092.76
510.95	45380.65
511.12	45052.97
511.30	44982.76
511.47	45717.68
511.64	45539.80
511.82	46082.81
511.99	46061.74
512.17	46007.91
512.34	45858.12
512.51	46504.10
512.69	46614.11
512.86	46192.81
513.04	46754.54
513.21	46476.02
513.38	46295.80
513.56	46960.51
513.73	47009.66
513.90	47058.81
514.08	47000.30
514.25	47421.59
514.43	47393.51
514.60	47487.13
514.77	47475.43
514.95	47885.02
515.12	47639.26
515.29	47700.12
515.47	47852.25
515.64	47985.66
515.81	47957.58
515.99	48215.04
516.16	48760.38
516.33	48596.54
516.51	48713.57
516.68	48341.42
516.85	48371.85
517.03	48938.26
517.20	48928.90
517.37	49130.19
517.54	49345.51
517.72	49081.03
517.89	48793.15
518.06	49282.32
518.24	49113.80
518.41	49251.89
518.58	49088.06
518.75	49439.14
518.93	49698.94
519.10	49565.52
519.27	50003.20
519.45	50007.89
519.62	50028.95
519.79	50113.21
519.96	50078.10
520.14	50073.42
520.31	50014.91
520.48	50602.38
520.65	50281.73
520.83	50707.71
521.00	50663.24
521.17	50742.81
521.34	50684.30
521.52	50679.62
521.69	50990.91
521.86	51082.19
522.03	51140.71
522.20	51311.56
522.38	51587.75
522.55	51402.85
522.72	51393.48
522.89	51278.80
523.07	51547.96
523.24	51634.56
523.41	51608.81
523.58	51634.56
523.75	52163.52
523.92	51620.52
524.10	52196.29
524.27	52051.17
524.44	52140.11
524.61	52154.16
524.78	52404.59
524.96	52203.31
525.13	52336.72
525.30	52505.24
525.47	52676.10
525.64	52538.01
525.81	52648.01
525.98	52680.78
526.16	52652.69
526.33	52605.88
526.50	53076.33
526.67	53073.99
526.84	52963.98
527.01	52772.06
527.18	52832.91
527.36	53052.92
527.53	53305.70
527.70	53544.44
527.87	53188.67
528.04	53055.26
528.21	53230.80
528.38	53563.16
528.55	53567.84
528.72	53499.97
528.89	53546.78
529.07	53277.61
529.24	53661.46
529.41	53453.15
529.58	53736.36
529.75	53579.54
529.92	53876.79
530.09	54035.95
530.26	54188.08
530.43	54066.38
530.60	53804.24
530.77	53560.82
530.94	54160.00
531.11	53900.20
531.28	54209.15
531.46	54080.42
531.63	54511.08
531.80	54270.00
531.97	54623.42
532.14	54588.31
532.31	54394.05
532.48	54658.53
532.65	54670.23
532.82	54478.31
532.99	54618.74
533.16	54464.27
533.33	54948.76
533.50	54862.16
533.67	54937.05
533.84	54747.47
534.01	54876.20
534.18	54876.20
534.35	55194.51
534.52	55309.20
534.69	55161.75
534.86	55395.80
535.03	55217.92
535.20	55023.65
535.37	55407.50
535.54	55341.97
535.71	55290.48
535.88	55444.95
536.05	55753.90
536.22	55838.16
536.38	55847.52
536.55	55746.88
536.72	55833.48
536.89	55679.00
537.06	55707.09
537.23	55906.04
537.40	55735.18
537.57	55906.04
537.74	55847.52
537.91	56009.02
538.08	56020.72
538.25	55817.10
538.42	55992.64
538.59	56329.67
538.75	56006.68
538.92	56292.22
539.09	56137.75
539.26	55941.14
539.43	56060.51
539.60	56147.11
539.77	56168.18
539.94	56507.55
540.11	56399.89
540.28	56533.30
540.44	56409.25
540.61	56596.49
540.78	56526.28
540.95	56390.53
541.12	56442.02
541.29	56348.40
541.46	56629.26
541.62	56748.63
541.79	56563.73
541.96	56591.81
542.13	56556.70
542.30	56617.56
542.47	56835.23
542.63	56978.00
542.80	57076.30
542.97	57003.75
543.14	57270.57
543.31	57195.67
543.48	57134.82
543.64	57375.89
543.81	57326.74
543.98	57169.93
544.15	57282.27
544.32	57359.51
544.48	57703.57
544.65	57249.50
544.82	57663.78
544.99	57408.66
545.16	57542.07
545.32	57401.64
545.49	57776.12
545.66	57813.57
545.83	57719.95
546.00	57605.26
546.16	57836.98
546.33	57509.30
546.50	57542.07
546.67	57829.96
546.83	57310.36
547.00	57764.42
547.17	57684.84
547.34	57736.34
547.50	57902.51
547.67	58253.59
547.84	58108.48
548.00	58408.07
548.17	58361.26
548.34	58178.70
548.51	58363.60
548.67	58389.34
548.84	58218.49
549.01	58227.85
549.18	58410.41
549.34	58298.06
549.51	58370.62
549.68	58281.68
549.84	58382.32
550.01	58342.53
550.18	58300.40
550.34	58302.74
550.51	58532.12
550.68	58499.35
550.84	58426.79
551.01	58539.14
551.18	58361.26
551.34	58445.52
551.51	58637.44
551.68	58642.12
551.84	58817.66
552.01	58300.40
552.18	58798.94
552.34	58637.44
552.51	58784.90
552.68	58646.80
552.84	58555.52
553.01	58997.88
553.18	58960.44
553.34	58876.18
553.51	58700.64
553.67	58969.80
553.84	58831.71
554.01	59159.38
554.17	59161.72
554.34	58979.16
554.51	59194.49
554.67	59098.53
554.84	59035.33
555.00	58990.86
555.17	58913.62
555.33	59164.06
555.50	58876.18
555.67	58953.41
555.83	59061.08
556.00	59208.53
556.16	59442.59
556.33	59175.76
556.50	59206.19
556.66	59597.06
556.83	59341.94
556.99	59374.71
557.16	59461.31
557.32	59657.91
557.49	59861.54
557.65	59234.28
557.82	59491.74
557.98	59290.45
558.15	59510.46
558.32	59456.63
558.48	59377.05
558.65	59515.14
558.81	59552.59
558.98	59608.76
559.14	59653.23
559.31	59767.92
559.47	59690.68
559.64	59884.95
559.80	59915.37
559.97	59702.38
560.13	59770.26
560.30	59671.96
560.46	59770.26
560.63	60004.31
560.79	59798.35
560.96	60030.06
561.12	59898.99
561.29	59849.84
561.45	60001.97
561.61	59742.17
561.78	59880.27
561.94	59856.86
562.11	59941.12
562.27	59927.08
562.44	59920.05
562.60	60013.68
562.77	59849.84
562.93	59971.55
563.10	60044.10
563.26	59992.61
563.42	60184.54
563.59	60093.25
563.75	60076.87
563.92	60111.98
564.08	60151.77
564.24	60207.94
564.41	60025.38
564.57	60168.15
564.74	60011.34
564.90	60257.09
565.07	60177.51
565.23	60385.82
565.39	60315.61
565.56	60170.49
565.72	60093.25
565.88	60261.77
566.05	60252.41
566.21	60245.39
566.38	60317.95
566.54	60320.29
566.70	60409.23
566.87	60427.95
567.03	60261.77
567.19	60657.32
567.36	60477.10
567.52	60444.33
567.68	60544.98
567.85	60376.46
568.01	60376.46
568.17	60341.35
568.34	60491.15
568.50	60310.92
568.66	60406.89
568.83	60477.10
568.99	60418.59
569.15	60299.22
569.32	60463.06
569.48	60425.61
569.64	60533.28
569.81	60430.29
569.97	60584.77
570.13	60584.77
570.30	60250.07
570.46	60491.15
570.62	60568.38
570.78	60364.76
570.95	60582.43
571.11	60720.52
571.27	60509.87
571.43	60556.68
571.60	60669.03
571.76	60594.13
571.92	60584.77
572.09	60622.22
572.25	60608.17
572.41	60573.06
572.57	60612.85
572.74	60907.76
572.90	60631.58
573.06	60720.52
573.22	60685.41
573.38	60769.67
573.55	60584.77
573.71	60863.29
573.87	60718.18
574.03	60584.77
574.20	60718.18
574.36	60711.16
574.52	60718.18
574.68	60685.41
574.84	61013.08
575.01	60886.70
575.17	60814.14
575.33	60797.76
575.49	60706.47
575.65	60846.91
575.82	60823.50
575.98	60764.99
576.14	61113.73
576.30	60938.19
576.46	60732.22
576.62	60605.83
576.79	60732.22
576.95	60919.46
577.11	60966.27
577.27	60912.44
577.43	60872.65
577.59	60896.06
577.75	60905.42
577.92	60811.80
578.08	60746.26
578.24	60867.97
578.40	61071.60
578.56	60985.00
578.72	60884.36
578.88	61118.41
579.04	61120.75
579.21	60863.29
579.37	60919.46
579.53	61209.69
579.69	60797.76
579.85	60858.61
580.01	60940.53
580.17	60898.40
580.33	60947.55
580.49	61270.54
580.65	60985.00
580.82	61034.15
580.98	60956.91
581.14	60814.14
581.30	61013.08
581.46	61034.15
581.62	61055.21
581.78	60893.72
581.94	61146.50
582.10	60877.33
582.26	61104.37
582.42	60963.93
582.58	61073.94
582.74	60734.56
582.90	61141.81
583.06	60973.30
583.22	60882.02
583.38	60926.49
583.54	60989.68
583.70	61095.00
583.86	61141.81
584.02	61043.51
584.18	61265.86
584.34	61174.58
584.50	60884.36
584.66	60928.83
584.82	60877.33
584.98	61078.62
585.14	61057.56
585.30	61071.60
585.46	61006.06
585.62	61197.99
585.78	61167.56
585.94	61137.13
586.10	61179.26
586.26	61083.30
586.42	61076.28
586.58	61261.18
586.74	61109.05
586.90	61183.94
587.06	61001.38
587.22	61221.39
587.38	61144.16
587.54	61368.85
587.70	61312.67
587.86	61289.27
588.02	61251.82
588.18	61488.21
588.34	61181.60
588.49	60987.34
