SpectraSuite Data File
++++++++++++++++++++++++++++++++++++
Date: Fri Oct 25 11:26:00 EDT 2013
User: price-jones
Dark Spectrum Present: No
Reference Spectrum Present: No
Number of Sampled Component Spectra: 1
Spectrometers: USB2+H05261
Integration Time (usec): 100000 (USB2+H05261)
Spectra Averaged: 1 (USB2+H05261)
Boxcar Smoothing: 0 (USB2+H05261)
Correct for Electrical Dark: No (USB2+H05261)
Strobe/Lamp Enabled: No (USB2+H05261)
Correct for Detector Non-linearity: No (USB2+H05261)
Correct for Stray Light: No (USB2+H05261)
Number of Pixels in Processed Spectrum: 2048
>>>>>Begin Processed Spectral Data<<<<<
365.73	243.42
365.92	243.42
366.12	243.42
366.32	189.58
366.52	152.13
366.72	154.48
366.91	145.11
367.11	159.16
367.31	84.26
367.51	112.35
367.70	173.20
367.90	74.90
368.10	112.35
368.30	117.03
368.49	117.03
368.69	102.98
368.89	212.99
369.09	124.05
369.28	166.18
369.48	191.92
369.68	215.33
369.87	229.37
370.07	212.99
370.27	264.48
370.47	339.38
370.66	608.54
370.86	699.82
371.06	662.37
371.25	688.12
371.45	692.80
371.65	690.46
371.84	737.27
372.04	685.78
372.24	763.01
372.44	741.95
372.63	704.50
372.83	777.06
373.03	774.72
373.22	763.01
373.42	781.74
373.62	711.52
373.81	798.12
374.01	786.42
374.21	795.78
374.40	894.08
374.60	774.72
374.79	765.36
374.99	882.38
375.19	809.83
375.38	898.77
375.58	875.36
375.78	840.25
375.97	903.45
376.17	957.28
376.37	844.93
376.56	924.51
376.76	873.02
376.95	891.74
377.15	882.38
377.35	922.17
377.54	933.87
377.74	931.53
377.93	924.51
378.13	971.32
378.33	931.53
378.52	940.90
378.72	976.00
378.91	933.87
379.11	987.71
379.31	933.87
379.50	887.06
379.70	959.62
379.89	990.05
380.09	978.34
380.28	990.05
380.48	1011.11
380.68	947.92
380.87	1036.86
381.07	1039.20
381.26	1022.81
381.46	980.68
381.65	1069.62
381.85	1090.69
382.04	1102.39
382.24	978.34
382.43	1025.15
382.63	1057.92
382.83	1050.90
383.02	1111.75
383.22	1135.16
383.41	1123.46
383.61	1158.57
383.80	1181.97
384.00	1121.12
384.19	1074.31
384.39	1149.20
384.58	1196.01
384.78	1256.87
384.97	1156.22
385.17	1214.74
385.36	1203.04
385.56	1167.93
385.75	1132.82
385.95	1123.46
386.14	1284.95
386.34	1259.21
386.53	1245.16
386.72	1184.31
386.92	1205.38
387.11	1291.98
387.31	1193.67
387.50	1277.93
387.70	1273.25
387.89	1357.51
388.09	1226.44
388.28	1242.82
388.48	1242.82
388.67	1291.98
388.86	1266.23
389.06	1273.25
389.25	1254.53
389.45	1366.87
389.64	1338.79
389.84	1299.00
390.03	1343.47
390.22	1455.81
390.42	1387.94
390.61	1331.76
390.81	1341.13
391.00	1390.28
391.19	1476.88
391.39	1462.83
391.58	1582.20
391.78	1324.74
391.97	1458.15
392.16	1439.43
392.36	1535.39
392.55	1549.43
392.75	1589.22
392.94	1504.96
393.13	1448.79
393.33	1500.28
393.52	1652.42
393.71	1657.10
393.91	1544.75
394.10	1572.84
394.29	1589.22
394.49	1605.61
394.68	1563.48
394.88	1500.28
395.07	1652.42
395.26	1788.17
395.46	1727.32
395.65	1701.57
395.84	1617.31
396.04	1762.42
396.23	1664.12
396.42	1696.89
396.62	1802.21
396.81	1858.39
397.00	1771.79
397.19	1806.89
397.39	1736.68
397.58	1762.42
397.77	1832.64
397.97	1888.81
398.16	1919.24
398.35	1795.19
398.55	1905.20
398.74	1989.46
398.93	1980.09
399.12	1907.54
399.32	1823.28
399.51	1947.33
399.70	2012.86
399.90	1928.60
400.09	1935.62
400.28	2092.44
400.47	2073.71
400.67	2167.34
400.86	2115.84
401.05	2120.53
401.24	2122.87
401.44	2165.00
401.63	2127.55
401.82	2204.78
402.01	2099.46
402.21	2249.25
402.40	2235.21
402.59	2125.21
402.78	2282.02
402.97	2291.38
403.17	2186.06
403.36	2279.68
403.55	2214.15
403.74	2366.28
403.93	2429.48
404.13	2359.26
404.32	2382.67
404.51	2389.69
404.70	2441.18
404.89	2443.52
405.09	2511.39
405.28	2532.46
405.47	2445.86
405.66	2546.50
405.85	2567.57
406.05	2459.90
406.24	2656.51
406.43	2546.50
406.62	2780.56
406.81	2703.32
407.00	2619.06
407.20	2621.40
407.39	2612.04
407.58	2715.02
407.77	2778.22
407.96	2773.53
408.15	2778.22
408.34	2663.53
408.54	2803.96
408.73	2745.45
408.92	2815.66
409.11	2895.24
409.30	2890.56
409.49	2902.26
409.68	2843.75
409.87	2864.82
410.07	2951.42
410.26	2984.18
410.45	3042.70
410.64	3014.61
410.83	3180.79
411.02	3068.44
411.21	3335.26
411.40	3138.66
411.59	3349.31
411.78	3180.79
411.98	3176.11
412.17	3180.79
412.36	3368.03
412.55	3410.16
412.74	3417.18
412.93	3328.24
413.12	3293.13
413.31	3581.02
413.50	3419.52
413.69	3503.78
413.88	3574.00
414.07	3595.06
414.26	3761.24
414.45	3578.68
414.64	3613.79
414.83	3691.02
415.02	3791.67
415.22	3784.65
415.41	3946.14
415.60	3857.20
415.79	3824.44
415.98	3918.06
416.17	3974.23
416.36	3871.25
416.55	3992.95
416.74	4140.41
416.93	4004.66
417.12	4180.20
417.31	4119.34
417.50	4117.00
417.69	4241.05
417.88	4320.63
418.07	4173.18
418.26	4177.86
418.45	4360.42
418.64	4468.08
418.83	4496.17
419.02	4561.70
419.21	4470.42
419.39	4374.46
419.58	4376.80
419.77	4468.08
419.96	4599.15
420.15	4641.28
420.34	4624.90
420.53	4669.37
420.72	4781.71
420.91	4702.14
421.10	4692.77
421.29	4795.76
421.48	4695.11
421.67	4762.99
421.86	4877.68
422.05	4758.31
422.24	4882.36
422.43	4854.27
422.61	4795.76
422.80	4908.10
422.99	4978.32
423.18	5032.15
423.37	4980.66
423.56	4973.64
423.75	5001.72
423.94	4812.14
424.13	4652.98
424.32	4805.12
424.50	4968.96
424.69	5160.88
424.88	5114.07
425.07	5001.72
425.26	4819.16
425.45	4861.29
425.64	4997.04
425.83	5039.17
426.01	5144.50
426.20	5193.65
426.39	5029.81
426.58	5001.72
426.77	5013.43
426.96	5144.50
427.15	5104.71
427.33	5224.08
427.52	5207.69
427.71	5380.89
427.90	5298.97
428.09	5252.16
428.28	5418.34
428.46	5273.23
428.65	5282.59
428.84	5680.48
429.03	5544.73
429.22	5504.94
429.40	5502.60
429.59	5488.56
429.78	5242.80
429.97	5259.18
430.16	5387.91
430.34	5521.32
430.53	5556.43
430.72	5680.48
430.91	5668.78
431.10	5668.78
431.28	5603.24
431.47	5919.21
431.66	5827.93
431.85	5778.78
432.03	5928.58
432.22	6017.52
432.41	5834.96
432.60	5900.49
432.79	5966.03
432.97	5933.26
433.16	5970.71
433.35	6090.07
433.54	6190.72
433.72	6209.44
433.91	6099.44
434.10	6150.93
434.28	6115.82
434.47	6223.48
434.66	6413.07
434.85	6277.32
435.03	6258.59
435.22	6284.34
435.41	6546.48
435.59	6242.21
435.78	6483.28
435.97	6600.31
436.16	6366.26
436.34	6361.58
436.53	6597.97
436.72	6635.42
436.90	6590.95
437.09	6712.66
437.28	6459.88
437.46	6642.44
437.65	6637.76
437.84	6614.35
438.02	6665.85
438.21	6801.60
438.40	6771.17
438.58	6986.50
438.77	6958.41
438.96	6930.33
439.14	7091.82
439.33	7218.21
439.52	7222.89
439.70	7183.10
439.89	7489.71
440.08	7260.34
440.26	7311.83
440.45	7318.86
440.63	7588.02
440.82	7442.90
441.01	7480.35
441.19	7648.87
441.38	7609.08
441.57	7576.31
441.75	7613.76
441.94	7882.92
442.12	7939.10
442.31	7932.08
442.50	8086.55
442.68	7992.93
442.87	8152.09
443.05	8119.32
443.24	8133.36
443.43	8133.36
443.61	8042.08
443.80	8425.93
443.98	8212.94
444.17	7824.41
444.35	8238.69
444.54	8266.77
444.73	8201.24
444.91	8208.26
445.10	8355.71
445.28	8191.88
445.47	8229.32
445.65	8454.02
445.84	8444.65
446.02	8449.33
446.21	8578.06
446.39	8470.40
446.58	8449.33
446.77	8348.69
446.95	8327.63
447.14	8479.76
447.32	8631.90
447.51	8552.32
447.69	8645.94
447.88	8468.06
448.06	8449.33
448.25	8465.72
448.43	8662.32
448.62	8519.55
448.80	8676.37
448.99	8645.94
449.17	8669.34
449.36	8699.77
449.54	8603.81
449.73	8690.41
449.91	8842.54
450.10	9062.55
450.28	8968.93
450.46	9245.12
450.65	8964.25
450.83	9263.84
451.02	9057.87
451.20	9186.60
451.39	9158.52
451.57	9224.05
451.76	8978.30
451.94	9256.82
452.13	9383.21
452.31	9242.78
452.49	9100.00
452.68	9317.67
452.86	9413.63
453.05	9305.97
453.23	9483.85
453.42	9320.01
453.60	9280.22
453.78	9579.81
453.97	9376.19
454.15	9598.54
454.34	9282.56
454.52	9591.52
454.70	9558.75
454.89	9703.86
455.07	9888.76
455.26	9647.69
455.44	9877.06
455.62	10003.45
455.81	9968.34
455.99	10052.60
456.17	9956.64
456.36	10078.35
456.54	10251.55
456.73	10305.38
456.91	10420.06
457.09	10260.91
457.28	10373.25
457.46	10223.46
457.64	10478.58
457.83	10326.44
458.01	10366.23
458.19	10827.32
458.38	10546.45
458.56	10871.79
458.74	10862.43
458.93	10698.59
459.11	10729.02
459.29	10537.09
459.48	10911.58
459.66	10923.28
459.84	10782.85
460.03	11082.44
460.21	11150.31
460.39	11150.31
460.57	11063.71
460.76	11377.34
460.94	11021.58
461.12	11040.31
461.31	11328.19
461.49	11300.11
461.67	11236.91
461.85	11396.07
462.04	11417.13
462.22	11838.43
462.40	11541.18
462.59	11487.35
462.77	11562.25
462.95	11616.08
463.13	11578.63
463.32	11648.85
463.50	11763.53
463.68	11971.84
463.86	11737.79
464.05	11721.40
464.23	11812.68
464.41	11754.17
464.59	11583.31
464.78	12149.72
464.96	12119.29
465.14	11808.00
465.32	12114.61
465.50	12133.34
465.69	12198.87
465.87	11957.80
466.05	12187.17
466.23	12322.92
466.41	12100.57
466.60	12479.74
466.78	12205.89
466.96	12147.38
467.14	12154.40
467.32	12437.61
467.51	12475.06
467.69	12285.47
467.87	12500.80
468.05	12416.54
468.23	12264.41
468.41	12599.10
468.60	12608.47
468.78	12725.49
468.96	12549.95
469.14	12727.83
469.32	13128.06
469.50	12652.94
469.69	12992.31
469.87	13254.45
470.05	13078.91
470.23	13139.77
470.41	13146.79
470.59	13209.98
470.77	13202.96
470.95	13282.54
471.14	13713.20
471.32	13378.50
471.50	13373.82
471.68	13685.11
471.86	13750.65
472.04	13521.27
472.22	14181.31
472.40	13638.30
472.58	13792.78
472.77	14169.60
472.95	14183.65
473.13	14581.54
473.31	13881.72
473.49	14354.51
473.67	14239.82
473.85	14148.54
474.03	14588.56
474.21	14787.50
474.39	14684.52
474.57	14593.24
474.75	14813.25
474.93	15019.22
475.12	15279.02
475.30	15166.67
475.48	15091.77
475.66	15316.47
475.84	14867.08
476.02	15597.33
476.20	15597.33
476.38	15529.45
476.56	15768.19
476.74	16299.49
476.92	15943.73
477.10	15686.27
477.28	15943.73
477.46	16074.80
477.64	16259.70
477.82	16599.08
478.00	16697.38
478.18	16922.07
478.36	16706.74
478.54	17135.06
478.72	17158.47
478.90	17537.63
479.08	17759.98
479.26	17811.48
479.44	17743.60
479.62	17776.37
479.80	17893.40
479.98	18143.83
480.16	18548.75
480.34	18560.45
480.52	18501.93
480.70	18698.54
480.88	18640.03
481.06	18775.78
481.24	18824.93
481.41	18944.30
481.59	19484.96
481.77	19393.68
481.95	19389.00
482.13	19796.25
482.31	19761.14
482.49	20482.03
482.67	20170.74
482.85	20451.60
483.03	20463.30
483.21	20886.94
483.39	21081.21
483.57	20772.25
483.74	21460.37
483.92	21284.83
484.10	21420.58
484.28	21638.25
484.46	21682.72
484.64	22317.01
484.82	21888.69
485.00	22359.14
485.18	22937.25
485.35	23002.78
485.53	22691.49
485.71	23246.20
485.89	23365.57
486.07	23187.69
486.25	23314.08
486.43	23396.00
486.61	23878.15
486.78	24245.61
486.96	23573.88
487.14	24835.42
487.32	24769.89
487.50	24898.62
487.68	25060.12
487.85	24936.07
488.03	25401.83
488.21	25607.80
488.39	25949.52
488.57	25926.11
488.75	26019.74
488.92	26466.78
489.10	26775.73
489.28	26288.90
489.46	27131.49
489.64	27019.14
489.81	27845.35
489.99	27550.45
490.17	27342.14
490.35	28301.76
490.53	28147.28
490.70	28421.13
490.88	28444.53
491.06	28786.25
491.24	28879.87
491.41	29069.45
491.59	28797.95
491.77	29462.66
491.95	29734.17
492.13	29944.81
492.30	29776.30
492.48	29766.93
492.66	30361.43
492.84	30429.30
493.01	30672.72
493.19	30632.93
493.37	30551.01
493.54	30745.28
493.72	31831.29
493.90	31363.18
494.08	31976.40
494.25	32170.66
494.43	32039.59
494.61	32360.25
494.79	32615.37
494.96	32102.79
495.14	32875.16
495.32	32886.87
495.49	33296.46
495.67	33116.24
495.85	33254.33
496.02	34148.42
496.20	34075.86
496.38	33944.79
496.55	34405.88
496.73	34815.47
496.91	34396.51
497.09	35065.91
497.26	35056.54
497.44	34759.30
497.62	35196.98
497.79	35569.12
497.97	35751.68
498.14	35983.40
498.32	36287.67
498.50	36119.15
498.67	36547.47
498.85	36713.64
499.03	36844.71
499.20	36816.63
499.38	36533.42
499.56	37282.39
499.73	37347.93
499.91	37579.64
500.08	37773.91
500.26	37624.11
500.44	37680.28
500.61	38113.28
500.79	37977.53
500.97	37947.11
501.14	39002.69
501.32	38452.66
501.49	38920.77
501.67	39056.52
501.84	38433.94
502.02	38635.22
502.20	39311.64
502.37	39346.75
502.55	39281.21
502.72	39482.50
502.90	39222.70
503.07	39524.63
503.25	39374.83
503.43	39882.73
503.60	40074.65
503.78	40327.43
503.95	40325.09
504.13	40226.79
504.30	40914.90
504.48	40154.23
504.65	40942.99
504.83	41177.04
505.01	40968.74
505.18	41170.02
505.36	41764.52
505.53	41626.43
505.71	41523.44
505.88	41617.07
506.06	41383.01
506.23	42164.75
506.41	41645.15
506.58	42387.10
506.76	41949.42
506.93	42462.00
507.11	42272.42
507.28	42082.83
507.46	42604.77
507.63	42747.54
507.81	43115.01
507.98	43342.04
508.16	42871.59
508.33	43243.74
508.50	43278.85
508.68	43679.08
508.85	43969.30
509.03	43580.78
509.20	44046.54
509.38	44076.97
509.55	44196.34
509.73	44470.18
509.90	44617.63
510.08	44458.48
510.25	44737.00
510.42	45052.97
510.60	44964.03
510.77	44961.69
510.95	45258.94
511.12	44954.67
511.30	45118.51
511.47	45350.22
511.64	45619.38
511.82	45729.39
511.99	45441.50
512.17	46103.87
512.34	46349.63
512.51	46312.18
512.69	46476.02
512.86	46436.23
513.04	47122.01
513.21	46679.64
513.38	46426.87
513.56	46988.60
513.73	46707.73
513.90	47107.96
514.08	46808.37
514.25	47208.61
514.43	47182.86
514.60	47590.11
514.77	47227.33
514.95	47611.18
515.12	47751.61
515.29	47660.33
515.47	47978.64
515.64	48090.99
515.81	47885.02
515.99	48154.18
516.16	48493.56
516.33	48526.33
516.51	48278.23
516.68	48378.87
516.85	48486.54
517.03	49102.10
517.20	48961.67
517.37	48444.41
517.54	48652.72
517.72	48851.66
517.89	49076.35
518.06	49216.78
518.24	49160.61
518.41	49399.35
518.58	49113.80
518.75	49169.97
518.93	49565.52
519.10	49329.13
519.27	49565.52
519.45	49794.90
519.62	50103.85
519.79	50248.96
519.96	50080.44
520.14	50064.06
520.31	50045.33
520.48	50167.04
520.65	50171.72
520.83	50487.70
521.00	50602.38
521.17	50403.44
521.34	50796.65
521.52	50845.80
521.69	50937.08
521.86	50916.01
522.03	51110.28
522.20	50960.48
522.38	51742.22
522.55	51526.89
522.72	51234.33
522.89	51533.92
523.07	51487.10
523.24	51377.10
523.41	51793.71
523.58	51325.61
523.75	52067.56
523.92	51643.92
524.10	51442.63
524.27	51845.21
524.44	51957.55
524.61	51955.21
524.78	51922.44
524.96	51964.57
525.13	52334.38
525.30	52556.73
525.47	52526.30
525.64	52149.48
525.81	52451.41
525.98	52875.04
526.16	52528.64
526.33	52605.88
526.50	53195.70
526.67	52608.22
526.84	53024.84
527.01	52783.76
527.18	52839.93
527.36	52910.15
527.53	53247.19
527.70	53521.03
527.87	53537.41
528.04	53244.85
528.21	53745.72
528.38	53415.71
528.55	53539.75
528.72	53329.11
528.89	53549.12
529.07	53563.16
529.24	53418.05
529.41	53858.07
529.58	53773.81
529.75	53544.44
529.92	53932.96
530.09	53612.31
530.26	53787.85
530.43	54197.44
530.60	53846.36
530.77	53839.34
530.94	54078.08
531.11	54131.91
531.28	54195.10
531.46	53628.69
531.63	54035.95
531.80	54101.48
531.97	54475.97
532.14	54176.38
532.31	54262.98
532.48	54515.76
532.65	54506.40
532.82	54382.35
532.99	54663.21
533.16	54543.84
533.33	54822.37
533.50	54759.17
533.67	54990.89
533.84	54555.55
534.01	55103.23
534.18	55138.34
534.35	55206.22
534.52	55023.65
534.69	55199.19
534.86	55091.53
535.03	54937.05
535.20	55250.69
535.37	55302.18
535.54	55405.16
535.71	55267.07
535.88	55302.18
536.05	55421.55
536.22	55606.45
536.38	55669.64
536.55	55604.11
536.72	55718.79
536.89	55412.18
537.06	55679.00
537.23	55859.23
537.40	55454.31
537.57	55629.85
537.74	55807.73
537.91	55777.31
538.08	55833.48
538.25	55849.86
538.42	55882.63
538.59	56193.92
538.75	55796.03
538.92	55866.25
539.09	56184.56
539.26	56006.68
539.43	56182.22
539.60	56104.98
539.77	56275.84
539.94	56456.06
540.11	56348.40
540.28	56147.11
540.44	56395.21
540.61	56317.97
540.78	56254.78
540.95	56374.14
541.12	56594.15
541.29	56444.36
541.46	56615.22
541.62	56540.32
541.79	56711.18
541.96	56463.08
542.13	56608.20
542.30	56563.73
542.47	56774.37
542.63	56954.60
542.80	57022.47
542.97	57216.74
543.14	57389.94
543.31	57111.41
543.48	57411.00
543.64	57387.60
543.81	57296.31
543.98	57513.98
544.15	57315.04
544.32	57357.17
544.48	57476.54
544.65	57279.93
544.82	57308.02
544.99	57158.22
545.16	57373.55
545.32	57254.18
545.49	57815.91
545.66	57600.58
545.83	57546.75
546.00	57970.39
546.16	57677.82
546.33	57497.60
546.50	57708.25
546.67	57682.50
546.83	57565.48
547.00	57684.84
547.17	57673.14
547.34	57464.83
547.50	57855.70
547.67	58145.93
547.84	57872.09
548.00	57963.37
548.17	58333.17
548.34	58024.22
548.51	58064.01
548.67	58349.56
548.84	58220.83
549.01	58040.60
549.18	58026.56
549.34	58424.45
549.51	58445.52
549.68	58515.73
549.84	58148.27
550.01	58447.86
550.18	58370.62
550.34	58321.47
550.51	58422.11
550.68	58333.17
550.84	58216.14
551.01	58482.97
551.18	58422.11
551.34	58550.84
551.51	58550.84
551.68	58567.23
551.84	58585.95
552.01	58349.56
552.18	58679.57
552.34	58291.04
552.51	58592.97
552.68	58443.18
552.84	58658.51
553.01	58871.49
553.18	58789.58
553.34	58951.07
553.51	58707.66
553.67	58791.92
553.84	58850.43
554.01	59002.56
554.17	59047.04
554.34	59189.81
554.51	58784.90
554.67	59100.87
554.84	58955.75
555.00	58899.58
555.17	58932.35
555.33	59072.78
555.50	58702.98
555.67	59131.29
555.83	59150.02
556.00	59178.10
556.16	59288.11
556.33	59145.34
556.50	59143.00
556.66	59374.71
556.83	58941.71
556.99	59554.93
557.16	59669.62
557.32	59475.35
557.49	59636.85
557.65	59288.11
557.82	59304.49
557.98	59241.30
558.15	59344.28
558.32	59557.27
558.48	59121.93
558.65	59622.81
558.81	59671.96
558.98	59447.27
559.14	59821.75
559.31	59615.79
559.47	59721.11
559.64	59744.51
559.80	59826.43
559.97	59742.17
560.13	59760.90
560.30	59531.53
560.46	59632.17
560.63	59721.11
560.79	59676.64
560.96	59915.37
561.12	59756.22
561.29	59749.20
561.45	59896.65
561.61	59917.71
561.78	59739.83
561.94	59856.86
562.11	60083.89
562.27	59927.08
562.44	59896.65
562.60	60109.64
562.77	60144.75
562.93	59765.58
563.10	59927.08
563.26	59966.87
563.42	60212.62
563.59	60004.31
563.75	59929.42
563.92	60004.31
564.08	60126.02
564.24	60179.85
564.41	60156.45
564.57	60037.08
564.74	60193.90
564.90	60011.34
565.07	60081.55
565.23	60198.58
565.39	60186.88
565.56	60142.41
565.72	60079.21
565.88	60109.64
566.05	60079.21
566.21	59990.27
566.38	60025.38
566.54	60095.60
566.70	60608.17
566.87	60355.39
567.03	60278.16
567.19	60413.91
567.36	60273.48
567.52	60322.63
567.68	60411.57
567.85	60357.74
568.01	60535.62
568.17	60411.57
568.34	60619.88
568.50	60079.21
568.66	60221.98
568.83	60425.61
568.99	60364.76
569.15	60381.14
569.32	60411.57
569.48	60512.21
569.64	60502.85
569.81	60388.16
569.97	60196.24
570.13	60566.04
570.30	60243.05
570.46	60626.90
570.62	60418.59
570.78	60411.57
570.95	60474.76
571.11	60664.35
571.27	60467.74
571.43	60388.16
571.60	60654.98
571.76	60533.28
571.92	60704.13
572.09	60554.34
572.25	60486.46
572.41	60549.66
572.57	60472.42
572.74	60797.76
572.90	60533.28
573.06	60720.52
573.22	60495.83
573.38	60690.09
573.55	60608.17
573.71	60818.82
573.87	60760.31
574.03	60640.94
574.20	60823.50
574.36	60757.97
574.52	60762.65
574.68	60542.64
574.84	60933.51
575.01	60910.10
575.17	60704.13
575.33	60676.05
575.49	60722.86
575.65	60779.03
575.82	60809.46
575.98	60764.99
576.14	61048.19
576.30	60856.27
576.46	60662.00
576.62	60741.58
576.79	60757.97
576.95	60823.50
577.11	60755.63
577.27	60830.52
577.43	60907.76
577.59	60680.73
577.75	60856.27
577.92	60631.58
578.08	60769.67
578.24	60732.22
578.40	60825.84
578.56	60762.65
578.72	60846.91
578.88	60982.66
579.04	61270.54
579.21	60985.00
579.37	61087.98
579.53	60980.32
579.69	60633.92
579.85	60928.83
580.01	60821.16
580.17	60725.20
580.33	60685.41
580.49	60975.64
580.65	60767.33
580.82	60879.67
580.98	60673.71
581.14	60762.65
581.30	60762.65
581.46	60910.10
581.62	61001.38
581.78	61041.17
581.94	60919.46
582.10	60856.27
582.26	60980.32
582.42	60821.16
582.58	60846.91
582.74	60701.79
582.90	60898.40
583.06	60818.82
583.22	60832.86
583.38	60919.46
583.54	60774.35
583.70	61045.85
583.86	61080.96
584.02	60851.59
584.18	61104.37
584.34	61055.21
584.50	60942.87
584.66	60926.49
584.82	60839.89
584.98	61134.79
585.14	60952.23
585.30	60959.25
585.46	60985.00
585.62	61006.06
585.78	61214.37
585.94	60828.18
586.10	61083.30
586.26	60849.25
586.42	61095.00
586.58	61158.20
586.74	60966.27
586.90	61085.64
587.06	60954.57
587.22	60952.23
587.38	60970.96
587.54	61148.84
587.70	61216.71
587.86	61078.62
588.02	60931.17
588.18	61195.65
588.34	60912.44
588.49	61116.07
