SpectraSuite Data File
++++++++++++++++++++++++++++++++++++
Date: Fri Oct 25 11:26:35 EDT 2013
User: price-jones
Dark Spectrum Present: No
Reference Spectrum Present: No
Number of Sampled Component Spectra: 1
Spectrometers: USB2+H05261
Integration Time (usec): 100000 (USB2+H05261)
Spectra Averaged: 1 (USB2+H05261)
Boxcar Smoothing: 0 (USB2+H05261)
Correct for Electrical Dark: No (USB2+H05261)
Strobe/Lamp Enabled: No (USB2+H05261)
Correct for Detector Non-linearity: No (USB2+H05261)
Correct for Stray Light: No (USB2+H05261)
Number of Pixels in Processed Spectrum: 2048
>>>>>Begin Processed Spectral Data<<<<<
365.73	271.50
365.92	271.50
366.12	271.50
366.32	217.67
366.52	126.39
366.72	135.75
366.91	133.41
367.11	147.45
367.31	79.58
367.51	126.39
367.70	201.29
367.90	126.39
368.10	140.43
368.30	161.50
368.49	117.03
368.69	154.48
368.89	112.35
369.09	135.75
369.28	205.97
369.48	191.92
369.68	205.97
369.87	215.33
370.07	163.84
370.27	208.31
370.47	416.62
370.66	634.29
370.86	592.16
371.06	695.14
371.25	655.35
371.45	615.56
371.65	664.71
371.84	613.22
372.04	706.84
372.24	716.20
372.44	734.93
372.63	779.40
372.83	765.36
373.03	767.70
373.22	760.67
373.42	788.76
373.62	828.55
373.81	858.98
374.01	861.32
374.21	809.83
374.40	805.14
374.60	823.87
374.79	880.04
374.99	887.06
375.19	891.74
375.38	873.02
375.58	844.93
375.78	868.34
375.97	898.77
376.17	929.19
376.37	809.83
376.56	849.61
376.76	765.36
376.95	849.61
377.15	896.43
377.35	882.38
377.54	915.15
377.74	926.85
377.93	926.85
378.13	910.47
378.33	933.87
378.52	947.92
378.72	966.64
378.91	1020.47
379.11	915.15
379.31	915.15
379.50	905.79
379.70	964.30
379.89	1001.75
380.09	1008.77
380.28	936.21
380.48	1015.79
380.68	1027.50
380.87	1032.18
381.07	994.73
381.26	966.64
381.46	978.34
381.65	1095.37
381.85	964.30
382.04	1022.81
382.24	1081.33
382.43	1032.18
382.63	1064.94
382.83	1032.18
383.02	1064.94
383.22	1104.73
383.41	1064.94
383.61	1137.50
383.80	1238.14
384.00	1109.41
384.19	1083.67
384.39	1093.03
384.58	1179.63
384.78	1186.65
384.97	1200.69
385.17	1151.54
385.36	1205.38
385.56	1167.93
385.75	1270.91
385.95	1174.95
386.14	1224.10
386.34	1210.06
386.53	1188.99
386.72	1186.65
386.92	1238.14
387.11	1256.87
387.31	1226.44
387.50	1245.16
387.70	1268.57
387.89	1364.53
388.09	1263.89
388.28	1341.13
388.48	1303.68
388.67	1306.02
388.86	1254.53
389.06	1334.11
389.25	1320.06
389.45	1364.53
389.64	1273.25
389.84	1317.72
390.03	1387.94
390.22	1418.36
390.42	1308.36
390.61	1338.79
390.81	1453.47
391.00	1373.89
391.19	1462.83
391.39	1481.56
391.58	1418.36
391.78	1404.32
391.97	1537.73
392.16	1362.19
392.36	1462.83
392.55	1556.46
392.75	1598.59
392.94	1509.65
393.13	1547.09
393.33	1572.84
393.52	1504.96
393.71	1631.35
393.91	1624.33
394.10	1540.07
394.29	1640.72
394.49	1687.53
394.68	1668.80
394.88	1537.73
395.07	1673.48
395.26	1593.90
395.46	1713.27
395.65	1652.42
395.84	1636.03
396.04	1764.76
396.23	1802.21
396.42	1750.72
396.62	1769.44
396.81	1713.27
397.00	1823.28
397.19	1799.87
397.39	1884.13
397.58	1788.17
397.77	1874.77
397.97	1935.62
398.16	1867.75
398.35	1928.60
398.55	1860.73
398.74	1912.22
398.93	2005.84
399.12	1898.17
399.32	1956.69
399.51	1863.07
399.70	1937.96
399.90	1935.62
400.09	2052.65
400.28	2090.10
400.47	2033.93
400.67	2094.78
400.86	2099.46
401.05	2146.27
401.24	2153.29
401.44	2083.08
401.63	2155.63
401.82	2284.36
402.01	2083.08
402.21	2106.48
402.40	2083.08
402.59	2076.06
402.78	2143.93
402.97	2270.32
403.17	2319.47
403.36	2293.72
403.55	2263.30
403.74	2242.23
403.93	2415.43
404.13	2291.38
404.32	2363.94
404.51	2431.82
404.70	2473.95
404.89	2366.28
405.09	2434.16
405.28	2408.41
405.47	2480.97
405.66	2401.39
405.85	2567.57
406.05	2476.29
406.24	2520.76
406.43	2581.61
406.62	2656.51
406.81	2518.42
407.00	2579.27
407.20	2600.34
407.39	2649.49
407.58	2717.36
407.77	2675.23
407.96	2717.36
408.15	2759.49
408.34	2743.11
408.54	2832.05
408.73	2808.64
408.92	2857.79
409.11	2878.86
409.30	2876.52
409.49	2899.92
409.68	2892.90
409.87	2991.20
410.07	2867.16
410.26	3063.76
410.45	2871.84
410.64	3098.87
410.83	3042.70
411.02	3030.99
411.21	3162.06
411.40	3213.56
411.59	3190.15
411.78	3178.45
411.98	3236.96
412.17	3332.92
412.36	3269.73
412.55	3426.54
412.74	3316.54
412.93	3405.48
413.12	3492.08
413.31	3529.53
413.50	3405.48
413.69	3445.27
413.88	3545.91
414.07	3569.32
414.26	3674.64
414.45	3712.09
414.64	3688.68
414.83	3833.80
415.02	3896.99
415.22	3948.48
415.41	3765.92
415.60	3854.86
415.79	3868.91
415.98	3960.19
416.17	3981.25
416.36	4051.47
416.55	3918.06
416.74	4159.13
416.93	4173.18
417.12	4065.51
417.31	4210.62
417.50	4196.58
417.69	4409.57
417.88	4189.56
418.07	4180.20
418.26	4250.41
418.45	4315.95
418.64	4393.19
418.83	4575.75
419.02	4409.57
419.21	4521.92
419.39	4545.32
419.58	4545.32
419.77	4339.35
419.96	4753.63
420.15	4709.16
420.34	4538.30
420.53	4456.38
420.72	4751.29
420.91	4781.71
421.10	4629.58
421.29	4826.18
421.48	4681.07
421.67	4697.46
421.86	4760.65
422.05	4826.18
422.24	4805.12
422.43	4915.12
422.61	4910.44
422.80	4894.06
422.99	4854.27
423.18	4908.10
423.37	5060.24
423.56	4922.15
423.75	4975.98
423.94	4828.53
424.13	4596.81
424.32	4812.14
424.50	5060.24
424.69	5177.26
424.88	5069.60
425.07	5013.43
425.26	4908.10
425.45	5109.39
425.64	4917.47
425.83	5041.51
426.01	5139.82
426.20	5043.85
426.39	5198.33
426.58	4940.87
426.77	5135.14
426.96	5231.10
427.15	5083.64
427.33	5259.18
427.52	5184.29
427.71	5390.25
427.90	5352.81
428.09	5324.72
428.28	5420.68
428.46	5437.06
428.65	5345.78
428.84	5509.62
429.03	5570.48
429.22	5502.60
429.40	5430.04
429.59	5479.19
429.78	5451.11
429.97	5233.44
430.16	5523.66
430.34	5680.48
430.53	5689.84
430.72	5790.49
430.91	5617.29
431.10	5636.01
431.28	5853.68
431.47	5757.72
431.66	5582.18
431.85	5741.33
432.03	5989.43
432.22	6019.86
432.41	6050.28
432.60	6029.22
432.79	5930.92
432.97	5994.11
433.16	5968.37
433.35	6019.86
433.54	6083.05
433.72	6164.97
433.91	6106.46
434.10	6319.45
434.28	6195.40
434.47	6157.95
434.66	6279.66
434.85	6157.95
435.03	6317.11
435.22	6253.91
435.41	6525.41
435.59	6356.90
435.78	6576.91
435.97	6513.71
436.16	6382.64
436.34	6457.54
436.53	6469.24
436.72	6733.72
436.90	6413.07
437.09	6672.87
437.28	6614.35
437.46	6562.86
437.65	6693.93
437.84	6731.38
438.02	6623.72
438.21	6743.08
438.40	6801.60
438.58	7000.54
438.77	6995.86
438.96	7019.27
439.14	7138.63
439.33	7159.70
439.52	7255.66
439.70	7138.63
439.89	7391.41
440.08	7360.98
440.26	7529.50
440.45	7342.26
440.63	7590.36
440.82	7705.04
441.01	7522.48
441.19	7592.70
441.38	7695.68
441.57	7751.85
441.75	7836.11
441.94	7950.80
442.12	7896.97
442.31	7943.78
442.50	8084.21
442.68	7892.29
442.87	8119.32
443.05	8067.83
443.24	8325.29
443.43	8210.60
443.61	8194.22
443.80	8521.89
443.98	8327.63
444.17	7927.39
444.35	8241.03
444.54	8393.16
444.73	8449.33
444.91	8404.86
445.10	8414.23
445.28	8435.29
445.47	8163.79
445.65	8311.24
445.84	8482.10
446.02	8564.02
446.21	8449.33
446.39	8552.32
446.58	8603.81
446.77	8444.65
446.95	8428.27
447.14	8533.59
447.32	8571.04
447.51	8587.43
447.69	8533.59
447.88	8554.66
448.06	8594.45
448.25	8542.96
448.43	8678.71
448.62	8697.43
448.80	8765.31
448.99	8737.22
449.17	8739.56
449.36	8671.68
449.54	8713.81
449.73	8767.65
449.91	9151.49
450.10	8987.66
450.28	8997.02
450.46	8945.53
450.65	9174.90
450.83	8999.36
451.02	9277.88
451.20	9331.72
451.39	9348.10
451.57	9160.86
451.76	9160.86
451.94	9069.58
452.13	9270.86
452.31	9121.07
452.49	9179.58
452.68	9210.01
452.86	9338.74
453.05	9500.23
453.23	9518.96
453.42	9444.06
453.60	9507.26
453.78	9495.55
453.97	9474.49
454.15	9341.08
454.34	9397.25
454.52	9996.43
454.70	9624.28
454.89	9851.31
455.07	9806.84
455.26	9799.82
455.44	9785.78
455.62	10001.11
455.81	9928.55
455.99	9998.77
456.17	9916.85
456.36	10216.44
456.54	10228.14
456.73	10382.62
456.91	10443.47
457.09	10530.07
457.28	10679.86
457.46	10583.90
457.64	10501.98
457.83	10581.56
458.01	10436.45
458.19	10623.69
458.38	10750.08
458.56	10534.75
458.74	10817.96
458.93	10839.02
459.11	10920.94
459.29	10909.24
459.48	10714.97
459.66	10602.63
459.84	10892.85
460.03	11269.68
460.21	11063.71
460.39	10960.73
460.57	11014.56
460.76	11080.10
460.94	11253.30
461.12	11126.91
461.31	11316.49
461.49	11424.15
461.67	11286.06
461.85	11489.69
462.04	11382.03
462.22	11489.69
462.40	11665.23
462.59	11552.88
462.77	11527.14
462.95	11749.49
463.13	11712.04
463.32	11709.70
463.50	11812.68
463.68	11625.44
463.86	11964.82
464.05	11548.20
464.23	11737.79
464.41	11988.22
464.59	11662.89
464.78	12119.29
464.96	11953.12
465.14	11808.00
465.32	11939.07
465.50	12147.38
465.69	12138.02
465.87	12224.62
466.05	12191.85
466.23	12224.62
466.41	12315.90
466.60	12505.48
466.78	12196.53
466.96	12222.28
467.14	12451.65
467.32	12409.52
467.51	12423.56
467.69	12037.38
467.87	12821.45
468.05	12456.33
468.23	12355.69
468.41	12369.73
468.60	12503.14
468.78	12795.71
468.96	12695.07
469.14	12720.81
469.32	12957.21
469.50	12711.45
469.69	12840.18
469.87	12975.93
470.05	13050.83
470.23	12945.50
470.41	13067.21
470.59	13338.71
470.77	13130.41
470.95	13298.92
471.14	13530.64
471.32	13179.56
471.50	13685.11
471.68	13619.58
471.86	13341.05
472.04	13617.24
472.22	14176.62
472.40	13996.40
472.58	13956.61
472.77	14111.09
472.95	14324.08
473.13	14682.18
473.31	14043.21
473.49	14122.79
473.67	14324.08
473.85	14370.89
474.03	14897.51
474.21	14523.02
474.39	14747.72
474.57	14609.62
474.75	14792.19
474.93	15154.97
475.12	14909.21
475.30	15068.37
475.48	15239.23
475.66	15412.43
475.84	14953.68
476.02	15489.67
476.20	15700.31
476.38	15859.47
476.56	16060.76
476.74	15978.84
476.92	15864.15
477.10	15859.47
477.28	16067.78
477.46	16252.68
477.64	16226.93
477.82	16491.41
478.00	16943.14
478.18	16929.09
478.36	16940.80
478.54	17191.23
478.72	17348.05
478.90	17467.42
479.08	17497.84
479.26	17884.03
479.44	17848.93
479.62	17865.31
479.80	18017.44
479.98	18300.65
480.16	18728.97
480.34	18265.54
480.52	18689.18
480.70	18471.51
480.88	18342.78
481.06	18567.47
481.24	18731.31
481.41	19066.00
481.59	19227.50
481.77	19730.72
481.95	19688.59
482.13	19962.43
482.31	19782.21
482.49	20126.27
482.67	20224.57
482.85	20304.15
483.03	21104.61
483.21	21057.80
483.39	21074.18
483.57	20971.20
483.74	21181.85
483.92	21310.58
484.10	21324.62
484.28	21846.56
484.46	22209.34
484.64	22600.21
484.82	22129.77
485.00	21998.70
485.18	22700.86
485.35	23030.87
485.53	23063.64
485.71	22906.82
485.89	23625.37
486.07	23447.49
486.25	23470.89
486.43	23573.88
486.61	23943.68
486.78	24334.55
486.96	24208.16
487.14	24802.66
487.32	24882.24
487.50	25034.37
487.68	24982.88
487.85	25329.28
488.03	25759.94
488.21	26008.03
488.39	25568.01
488.57	25886.32
488.75	26113.36
488.92	26455.08
489.10	26487.84
489.28	26817.86
489.46	27101.06
489.64	26803.82
489.81	27803.22
489.99	27763.43
490.17	28018.55
490.35	28278.35
490.53	28236.22
490.70	28297.08
490.88	28676.24
491.06	28648.16
491.24	28835.40
491.41	29053.07
491.59	29607.78
491.77	29610.12
491.95	29944.81
492.13	29523.52
492.30	30260.79
492.48	29961.20
492.66	30059.50
492.84	30103.97
493.01	30815.49
493.19	30916.14
493.37	31194.66
493.54	31124.44
493.72	31517.65
493.90	31768.09
494.08	32107.47
494.25	31908.52
494.43	32039.59
494.61	32156.62
494.79	32561.53
494.96	32687.92
495.14	32886.87
495.32	33188.80
495.49	33277.74
495.67	33422.85
495.85	33731.80
496.02	33600.73
496.20	34195.23
496.38	34235.02
496.55	34066.50
496.73	35068.25
496.91	34562.69
497.09	34848.24
497.26	35072.93
497.44	35075.27
497.62	35243.79
497.79	36030.21
497.97	35772.75
498.14	35948.29
498.32	36325.11
498.50	36538.10
498.67	36411.71
498.85	36318.09
499.03	36655.13
499.20	37207.50
499.38	36526.40
499.56	37069.40
499.73	37001.53
499.91	37223.88
500.08	37427.51
500.26	37146.64
500.44	37614.75
500.61	38036.05
500.79	37827.74
500.97	38204.56
501.14	38675.01
501.32	38370.74
501.49	38682.03
501.67	38632.88
501.84	38862.26
502.02	39246.10
502.20	38930.13
502.37	39529.31
502.55	39110.35
502.72	39541.01
502.90	39665.06
503.07	39583.14
503.25	40004.44
503.43	40009.12
503.60	40091.04
503.78	40187.00
503.95	40360.20
504.13	40830.65
504.30	40767.45
504.48	40793.20
504.65	40942.99
504.83	40992.14
505.01	41219.17
505.18	41345.56
505.36	41380.67
505.53	41380.67
505.71	41448.55
505.88	41853.46
506.06	41612.38
506.23	42120.28
506.41	42164.75
506.58	42253.69
506.76	42101.56
506.93	42909.04
507.11	42766.27
507.28	42918.40
507.46	43007.34
507.63	43049.47
507.81	43178.20
507.98	42995.64
508.16	43126.71
508.33	43585.46
508.50	43842.92
508.68	43590.14
508.85	43356.08
509.03	43821.85
509.20	44186.97
509.38	44208.04
509.55	44444.43
509.73	44304.00
509.90	44538.05
510.08	44903.18
510.25	44652.74
510.42	44748.70
510.60	45076.38
510.77	45155.96
510.95	45338.52
511.12	45251.92
511.30	45214.47
511.47	45799.60
511.64	45588.95
511.82	45970.46
511.99	45794.92
512.17	46124.94
512.34	45993.87
512.51	46749.86
512.69	46433.89
512.86	46408.14
513.04	47159.45
513.21	46571.98
513.38	46820.08
513.56	47023.70
513.73	47131.37
513.90	46969.87
514.08	47213.29
514.25	47683.73
514.43	47297.55
514.60	47800.76
514.77	47299.89
514.95	47772.67
515.12	47618.20
515.29	47709.48
515.47	48301.64
515.64	47929.49
515.81	47772.67
515.99	47887.36
516.16	48519.31
516.33	48254.82
516.51	48996.77
516.68	48516.96
516.85	48680.80
517.03	48594.20
517.20	48978.05
517.37	49188.70
517.54	48893.79
517.72	49240.19
517.89	49162.95
518.06	49343.17
518.24	49406.37
518.41	49404.03
518.58	49345.51
518.75	49308.07
518.93	49785.54
519.10	49457.86
519.27	49846.39
519.45	50057.04
519.62	50199.81
519.79	49977.46
519.96	49837.03
520.14	50234.92
520.31	50096.83
520.48	50436.20
520.65	50761.54
520.83	50696.00
521.00	50789.62
521.17	50548.55
521.34	50485.36
521.52	50831.75
521.69	51021.34
521.86	50883.25
522.03	51538.60
522.20	51297.52
522.38	51323.27
522.55	51309.22
522.72	51208.58
522.89	51334.97
523.07	51735.20
523.24	51313.90
523.41	51777.33
523.58	51721.16
523.75	51945.85
523.92	51842.87
524.10	51896.70
524.27	52062.88
524.44	52079.26
524.61	52048.83
524.78	52081.60
524.96	52179.90
525.13	52268.84
525.30	52388.21
525.47	52460.77
525.64	52842.27
525.81	52374.17
525.98	52315.65
526.16	52428.00
526.33	52704.18
526.50	53130.16
526.67	52870.36
526.84	52877.38
527.01	53045.90
527.18	52870.36
527.36	53048.24
527.53	53214.42
527.70	53045.90
527.87	53411.02
528.04	53176.97
528.21	53532.73
528.38	53546.78
528.55	53549.12
528.72	53277.61
528.89	53670.82
529.07	53315.06
529.24	53422.73
529.41	53804.24
529.58	53743.38
529.75	53581.88
529.92	53825.30
530.09	54033.61
530.26	53769.13
530.43	54087.44
530.60	53727.00
530.77	53780.83
530.94	53939.99
531.11	54052.33
531.28	54143.61
531.46	54457.24
531.63	54368.30
531.80	54239.57
531.97	54260.64
532.14	54499.37
532.31	54494.69
532.48	54480.65
532.65	54738.11
532.82	54642.15
532.99	54841.09
533.16	54632.78
533.33	54712.36
533.50	55117.28
533.67	54827.05
533.84	54754.49
534.01	54733.43
534.18	54946.42
534.35	55201.53
534.52	55131.32
534.69	55215.58
534.86	55320.90
535.03	55093.87
535.20	55061.10
535.37	55545.59
535.54	55320.90
535.71	55203.88
535.88	55489.42
536.05	55327.92
536.22	55936.46
536.38	55861.57
536.55	55454.31
536.72	55613.47
536.89	55620.49
537.06	55632.19
537.23	55777.31
537.40	55643.90
537.57	55767.94
537.74	55882.63
537.91	56004.34
538.08	56095.62
538.25	55716.45
538.42	55917.74
538.59	56165.84
538.75	56088.60
538.92	56203.28
539.09	56310.95
539.26	56069.87
539.43	56172.86
539.60	56095.62
539.77	56271.16
539.94	56350.74
540.11	56533.30
540.28	56339.04
540.44	56404.57
540.61	56594.15
540.78	56399.89
540.95	56561.39
541.12	56559.05
541.29	56420.95
541.46	56610.54
541.62	56765.01
541.79	56961.62
541.96	56435.00
542.13	56903.10
542.30	56748.63
542.47	57022.47
542.63	56823.53
542.80	56804.80
542.97	57078.64
543.14	57167.58
543.31	57179.29
543.48	57235.46
543.64	57757.40
543.81	57490.58
543.98	57226.10
544.15	57312.70
544.32	57525.69
544.48	57502.28
544.65	57378.23
544.82	57574.84
544.99	57272.91
545.16	57539.73
545.32	57298.65
545.49	57717.61
545.66	57623.99
545.83	57846.34
546.00	57743.36
546.16	57396.96
546.33	57797.19
546.50	57509.30
546.67	57769.10
546.83	57396.96
547.00	57932.94
547.17	57916.56
547.34	57773.78
547.50	57961.03
547.67	58255.93
547.84	58000.82
548.00	58241.89
548.17	58190.40
548.34	58026.56
548.51	58335.51
548.67	58150.61
548.84	58237.21
549.01	58230.19
549.18	58169.33
549.34	58124.86
549.51	58305.09
549.68	58506.37
549.84	58141.25
550.01	58445.52
550.18	58127.20
550.34	58609.35
550.51	58344.87
550.68	58340.19
550.84	58361.26
551.01	58773.19
551.18	58302.74
551.34	58574.25
551.51	58635.10
551.68	58450.20
551.84	58714.68
552.01	58546.16
552.18	58674.89
552.34	58555.52
552.51	58597.65
552.68	58592.97
552.84	58904.26
553.01	58960.44
553.18	58763.83
553.34	59004.91
553.51	58805.96
553.67	58862.13
553.84	59077.46
554.01	58988.52
554.17	59044.69
554.34	59072.78
554.51	58960.44
554.67	59175.76
554.84	59063.42
555.00	59023.63
555.17	58997.88
555.33	59044.69
555.50	59054.06
555.67	58864.47
555.83	59255.34
556.00	59236.62
556.16	59337.26
556.33	59187.47
556.50	59238.96
556.66	59465.99
556.83	59089.16
556.99	59533.87
557.16	59465.99
557.32	59599.40
557.49	59430.88
557.65	59203.85
557.82	59634.51
557.98	59557.27
558.15	59288.11
558.32	59604.08
558.48	59608.76
558.65	59723.45
558.81	59697.70
558.98	59758.56
559.14	59611.10
559.31	59707.07
559.47	59723.45
559.64	59632.17
559.80	59838.14
559.97	59737.49
560.13	59854.52
560.30	59643.87
560.46	59667.28
560.63	59732.81
560.79	59866.22
560.96	60100.28
561.12	59966.87
561.29	60058.15
561.45	59800.69
561.61	59751.54
561.78	59798.35
561.94	59901.33
562.11	59934.10
562.27	59882.61
562.44	59901.33
562.60	60123.68
562.77	60013.68
562.93	59700.04
563.10	60023.04
563.26	60046.44
563.42	60364.76
563.59	60107.30
563.75	59898.99
563.92	60114.32
564.08	60191.56
564.24	60182.19
564.41	60179.85
564.57	60425.61
564.74	60104.96
564.90	60268.79
565.07	60233.69
565.23	60170.49
565.39	60191.56
565.56	60121.34
565.72	60259.43
565.88	60219.64
566.05	60294.54
566.21	60196.24
566.38	60217.30
566.54	60210.28
566.70	60268.79
566.87	60362.42
567.03	60193.90
567.19	60537.96
567.36	60360.08
567.52	60205.60
567.68	60596.47
567.85	60467.74
568.01	60491.15
568.17	60360.08
568.34	60608.17
568.50	60397.52
568.66	60460.72
568.83	60748.60
568.99	60530.93
569.15	60491.15
569.32	60367.10
569.48	60346.03
569.64	60636.26
569.81	60474.76
569.97	60219.64
570.13	60418.59
570.30	60411.57
570.46	60381.14
570.62	60495.83
570.78	60601.15
570.95	60493.49
571.11	60638.60
571.27	60591.79
571.43	60484.12
571.60	60711.16
571.76	60512.21
571.92	60690.09
572.09	60608.17
572.25	60519.23
572.41	60631.58
572.57	60580.09
572.74	60825.84
572.90	60608.17
573.06	60708.82
573.22	60772.01
573.38	60694.77
573.55	60495.83
573.71	60935.85
573.87	60753.29
574.03	60626.90
574.20	60956.91
574.36	60626.90
574.52	60910.10
574.68	60781.37
574.84	60879.67
575.01	60690.09
575.17	60790.73
575.33	60753.29
575.49	60509.87
575.65	60837.54
575.82	60830.52
575.98	60977.98
576.14	61001.38
576.30	60725.20
576.46	60704.13
576.62	60781.37
576.79	60704.13
576.95	60657.32
577.11	60872.65
577.27	60872.65
577.43	60891.38
577.59	60647.96
577.75	60835.20
577.92	60692.43
578.08	60535.62
578.24	60750.94
578.40	60886.70
578.56	60912.44
578.72	60842.23
578.88	61062.24
579.04	61022.45
579.21	60837.54
579.37	61024.79
579.53	61118.41
579.69	60790.73
579.85	60837.54
580.01	60790.73
580.17	60874.99
580.33	60900.74
580.49	60994.36
580.65	61059.90
580.82	60933.51
580.98	60893.72
581.14	61043.51
581.30	61130.11
581.46	60949.89
581.62	61031.81
581.78	60926.49
581.94	60975.64
582.10	60818.82
582.26	60977.98
582.42	60804.78
582.58	61125.43
582.74	60867.97
582.90	60877.33
583.06	60823.50
583.22	60711.16
583.38	61020.11
583.54	61001.38
583.70	60886.70
583.86	60903.08
584.02	60970.96
584.18	61279.91
584.34	60907.76
584.50	60992.02
584.66	60893.72
584.82	60860.95
584.98	61162.88
585.14	61165.22
585.30	60917.12
585.46	61160.54
585.62	60977.98
585.78	61169.90
585.94	60839.89
586.10	61120.75
586.26	61106.71
586.42	61008.40
586.58	61148.84
586.74	61066.92
586.90	61102.03
587.06	61006.06
587.22	61226.07
587.38	60931.17
587.54	61197.99
587.70	61188.63
587.86	61031.81
588.02	61038.83
588.18	61305.65
588.34	60996.70
588.49	61209.69
