SpectraSuite Data File
++++++++++++++++++++++++++++++++++++
Date: Fri Oct 25 11:22:41 EDT 2013
User: price-jones
Dark Spectrum Present: No
Reference Spectrum Present: No
Number of Sampled Component Spectra: 1
Spectrometers: USB2+H05261
Integration Time (usec): 100000 (USB2+H05261)
Spectra Averaged: 1 (USB2+H05261)
Boxcar Smoothing: 0 (USB2+H05261)
Correct for Electrical Dark: No (USB2+H05261)
Strobe/Lamp Enabled: No (USB2+H05261)
Correct for Detector Non-linearity: No (USB2+H05261)
Correct for Stray Light: No (USB2+H05261)
Number of Pixels in Processed Spectrum: 2048
>>>>>Begin Processed Spectral Data<<<<<
365.73	236.39
365.92	236.39
366.12	236.39
366.32	128.73
366.52	142.77
366.72	152.13
366.91	67.88
367.11	212.99
367.31	124.05
367.51	95.96
367.70	145.11
367.90	166.18
368.10	72.56
368.30	149.79
368.49	156.82
368.69	168.52
368.89	102.98
369.09	86.60
369.28	117.03
369.48	95.96
369.68	184.90
369.87	184.90
370.07	243.42
370.27	259.80
370.47	264.48
370.66	528.96
370.86	634.29
371.06	648.33
371.25	758.33
371.45	664.71
371.65	645.99
371.84	655.35
372.04	704.50
372.24	704.50
372.44	674.07
372.63	847.27
372.83	767.70
373.03	744.29
373.22	767.70
373.42	662.37
373.62	746.63
373.81	763.01
374.01	777.06
374.21	746.63
374.40	800.46
374.60	798.12
374.79	870.68
374.99	788.76
375.19	819.19
375.38	758.33
375.58	891.74
375.78	950.26
375.97	938.55
376.17	842.59
376.37	840.25
376.56	826.21
376.76	894.08
376.95	854.30
377.15	840.25
377.35	877.70
377.54	980.68
377.74	940.90
377.93	898.77
378.13	961.96
378.33	1008.77
378.52	926.85
378.72	950.26
378.91	959.62
379.11	884.72
379.31	912.81
379.50	919.83
379.70	987.71
379.89	1008.77
380.09	994.73
380.28	1027.50
380.48	976.00
380.68	1025.15
380.87	994.73
381.07	1008.77
381.26	1011.11
381.46	961.96
381.65	973.66
381.85	1095.37
382.04	1090.69
382.24	1034.52
382.43	1043.88
382.63	1048.56
382.83	1048.56
383.02	1125.80
383.22	1123.46
383.41	1118.78
383.61	1095.37
383.80	1212.40
384.00	1135.16
384.19	1097.71
384.39	1083.67
384.58	1158.57
384.78	1130.48
384.97	1081.33
385.17	1170.27
385.36	1142.18
385.56	1158.57
385.75	1188.99
385.95	1130.48
386.14	1221.76
386.34	1142.18
386.53	1191.33
386.72	1128.14
386.92	1294.32
387.11	1238.14
387.31	1245.16
387.50	1270.91
387.70	1240.48
387.89	1200.69
388.09	1221.76
388.28	1254.53
388.48	1291.98
388.67	1306.02
388.86	1406.66
389.06	1371.55
389.25	1371.55
389.45	1315.38
389.64	1294.32
389.84	1404.32
390.03	1416.02
390.22	1394.96
390.42	1409.00
390.61	1373.89
390.81	1320.06
391.00	1299.00
391.19	1380.92
391.39	1376.24
391.58	1411.34
391.78	1399.64
391.97	1380.92
392.16	1526.03
392.36	1582.20
392.55	1455.81
392.75	1509.65
392.94	1614.97
393.13	1511.99
393.33	1586.88
393.52	1596.25
393.71	1570.50
393.91	1640.72
394.10	1631.35
394.29	1612.63
394.49	1621.99
394.68	1689.87
394.88	1544.75
395.07	1774.13
395.26	1722.63
395.46	1629.01
395.65	1692.21
395.84	1727.32
396.04	1790.51
396.23	1724.97
396.42	1760.08
396.62	1769.44
396.81	1753.06
397.00	1874.77
397.19	1776.47
397.39	1792.85
397.58	1867.75
397.77	1930.94
397.97	1849.02
398.16	1856.04
398.35	1914.56
398.55	1870.09
398.74	1888.81
398.93	1947.33
399.12	1870.09
399.32	1881.79
399.51	1926.26
399.70	1926.26
399.90	1998.82
400.09	2118.18
400.28	2160.31
400.47	2010.52
400.67	2038.61
400.86	2015.20
401.05	2115.84
401.24	2090.10
401.44	2148.61
401.63	2113.50
401.82	2106.48
402.01	2200.10
402.21	2193.08
402.40	2153.29
402.59	2251.60
402.78	2165.00
402.97	2263.30
403.17	2235.21
403.36	2286.70
403.55	2298.41
403.74	2289.04
403.93	2361.60
404.13	2394.37
404.32	2450.54
404.51	2366.28
404.70	2321.81
404.89	2380.32
405.09	2553.52
405.28	2417.77
405.47	2436.50
405.66	2532.46
405.85	2537.14
406.05	2516.08
406.24	2590.97
406.43	2523.10
406.62	2642.46
406.81	2729.06
407.00	2630.76
407.20	2684.59
407.39	2637.78
407.58	2740.77
407.77	2724.38
407.96	2693.96
408.15	2766.51
408.34	2864.82
408.54	2841.41
408.73	2857.79
408.92	2750.13
409.11	2902.26
409.30	2970.14
409.49	3005.25
409.68	2888.22
409.87	2953.76
410.07	3014.61
410.26	2981.84
410.45	2899.92
410.64	3047.38
410.83	3056.74
411.02	3119.93
411.21	3265.05
411.40	3145.68
411.59	3243.98
411.78	3211.22
411.98	3171.43
412.17	3267.39
412.36	3342.28
412.55	3335.26
412.74	3414.84
412.93	3419.52
413.12	3382.07
413.31	3576.34
413.50	3520.17
413.69	3569.32
413.88	3513.14
414.07	3658.26
414.26	3637.19
414.45	3625.49
414.64	3707.41
414.83	3660.60
415.02	3847.84
415.22	3831.46
415.41	3899.33
415.60	3868.91
415.79	3873.59
415.98	4018.70
416.17	3971.89
416.36	4007.00
416.55	3957.85
416.74	4077.21
416.93	4049.13
417.12	4187.22
417.31	4086.58
417.50	4121.68
417.69	4346.37
417.88	4266.80
418.07	4287.86
418.26	4184.88
418.45	4250.41
418.64	4498.51
418.83	4454.04
419.02	4468.08
419.21	4512.55
419.39	4547.66
419.58	4547.66
419.77	4535.96
419.96	4554.68
420.15	4702.14
420.34	4667.03
420.53	4634.26
420.72	4643.62
420.91	4683.41
421.10	4748.95
421.29	4826.18
421.48	4683.41
421.67	4744.27
421.86	4716.18
422.05	4774.69
422.24	4692.77
422.43	4723.20
422.61	4870.65
422.80	4919.81
422.99	4950.23
423.18	5097.69
423.37	5034.49
423.56	4933.85
423.75	4950.23
423.94	4828.53
424.13	4706.82
424.32	4943.21
424.50	5069.60
424.69	5043.85
424.88	5095.35
425.07	5032.15
425.26	4945.55
425.45	5156.20
425.64	5006.41
425.83	5011.09
426.01	5135.14
426.20	5071.94
426.39	5100.03
426.58	5015.77
426.77	5165.56
426.96	5200.67
427.15	5114.07
427.33	5109.39
427.52	5090.67
427.71	5317.70
427.90	5146.84
428.09	5275.57
428.28	5282.59
428.46	5362.17
428.65	5387.91
428.84	5430.04
429.03	5432.38
429.22	5423.02
429.40	5603.24
429.59	5390.25
429.78	5242.80
429.97	5242.80
430.16	5441.75
430.34	5537.71
430.53	5757.72
430.72	5713.25
430.91	5673.46
431.10	5710.91
431.28	5802.19
431.47	5729.63
431.66	5893.47
431.85	5874.74
432.03	5827.93
432.22	6090.07
432.41	5907.51
432.60	6003.47
432.79	6127.52
432.97	5933.26
433.16	5935.60
433.35	6078.37
433.54	5937.94
433.72	6136.88
433.91	6019.86
434.10	5991.77
434.28	6033.90
434.47	6183.70
434.66	6230.51
434.85	6230.51
435.03	6450.52
435.22	6310.08
435.41	6572.22
435.59	6396.68
435.78	6314.77
435.97	6593.29
436.16	6457.54
436.34	6525.41
436.53	6693.93
436.72	6569.88
436.90	6408.39
437.09	6480.94
437.28	6644.78
437.46	6707.98
437.65	6604.99
437.84	6890.54
438.02	6792.23
438.21	6780.53
438.40	6672.87
438.58	7082.46
438.77	7084.80
438.96	6874.15
439.14	7119.91
439.33	7475.67
439.52	7412.48
439.70	7246.30
439.89	7485.03
440.08	7442.90
440.26	7428.86
440.45	7494.40
440.63	7508.44
440.82	7672.28
441.01	7541.21
441.19	7613.76
441.38	7674.62
441.57	7719.09
441.75	7852.50
441.94	7894.63
442.12	8098.25
442.31	8037.40
442.50	7995.27
442.68	7992.93
442.87	8044.42
443.05	8152.09
443.24	8173.15
443.43	8194.22
443.61	8290.18
443.80	8468.06
443.98	8070.17
444.17	7901.65
444.35	8290.18
444.54	8477.42
444.73	8318.26
444.91	8430.61
445.10	8409.54
445.28	8168.47
445.47	8250.39
445.65	8332.31
445.84	8308.90
446.02	8306.56
446.21	8554.66
446.39	8486.78
446.58	8589.77
446.77	8498.49
446.95	8358.05
447.14	8613.17
447.32	8645.94
447.51	8702.11
447.69	8456.36
447.88	8695.09
448.06	8643.60
448.25	8545.30
448.43	8772.33
448.62	8578.06
448.80	8695.09
448.99	8798.07
449.17	8840.20
449.36	8559.34
449.54	8847.22
449.73	8997.02
449.91	9111.71
450.10	9036.81
450.28	9165.54
450.46	9284.91
450.65	9275.54
450.83	9179.58
451.02	9195.96
451.20	9221.71
451.39	8971.27
451.57	9158.52
451.76	9060.21
451.94	9378.53
452.13	9160.86
452.31	9348.10
452.49	9224.05
452.68	9507.26
452.86	9320.01
453.05	9661.73
453.23	9626.62
453.42	9516.62
453.60	9291.93
453.78	9654.71
453.97	9376.19
454.15	9579.81
454.34	9497.89
454.52	9839.61
454.70	9680.46
454.89	9820.89
455.07	9921.53
455.26	9942.60
455.44	10003.45
455.62	10036.22
455.81	9991.75
455.99	9956.64
456.17	10153.24
456.36	10188.35
456.54	10083.03
456.73	10490.28
456.91	10485.60
457.09	10518.37
457.28	10679.86
457.46	10298.36
457.64	10726.68
457.83	10572.20
458.01	10424.75
458.19	10951.37
458.38	10565.18
458.56	10817.96
458.74	10686.89
458.93	10640.08
459.11	10792.21
459.29	10874.13
459.48	10885.83
459.66	10832.00
459.84	10904.56
460.03	11178.40
460.21	11105.84
460.39	10925.62
460.57	11077.76
460.76	11323.51
460.94	11332.87
461.12	11185.42
461.31	11286.06
461.49	11169.04
461.67	11386.71
461.85	11475.65
462.04	11534.16
462.22	11831.41
462.40	11595.01
462.59	11609.06
462.77	11426.50
462.95	11695.66
463.13	11735.45
463.32	11492.03
463.50	11772.89
463.68	11812.68
463.86	11934.39
464.05	11730.76
464.23	11976.52
464.41	12051.42
464.59	11779.92
464.78	11983.54
464.96	12184.83
465.14	11981.20
465.32	12161.42
465.50	12166.10
465.69	12226.96
465.87	12138.02
466.05	12184.83
466.23	12229.30
466.41	12243.34
466.60	12786.35
466.78	12215.26
466.96	12297.17
467.14	12369.73
467.32	12725.49
467.51	12826.14
467.69	12156.74
467.87	12381.43
468.05	12475.06
468.23	12442.29
468.41	12683.36
468.60	12575.70
468.78	13022.74
468.96	12720.81
469.14	13195.94
469.32	13181.90
469.50	12695.07
469.69	13186.58
469.87	13149.13
470.05	13240.41
470.23	13422.97
470.41	13076.57
470.59	13432.33
470.77	13366.80
470.95	13291.90
471.14	13694.47
471.32	13060.19
471.50	13860.65
471.68	13720.22
471.86	13930.87
472.04	13764.69
472.22	14244.50
472.40	13867.67
472.58	13757.67
472.77	14022.15
472.95	14303.01
473.13	14583.88
473.31	14122.79
473.49	14342.80
473.67	14347.48
473.85	14129.81
474.03	14623.67
474.21	14789.85
474.39	14923.26
474.57	14780.48
474.75	15087.09
474.93	14913.89
475.12	14930.28
475.30	15227.53
475.48	14944.32
475.66	15229.87
475.84	15377.32
476.02	15672.23
476.20	15620.74
476.38	15737.76
476.56	16119.27
476.74	16421.20
476.92	15756.49
477.10	16142.67
477.28	16084.16
477.46	16381.41
477.64	16271.40
477.82	16711.42
478.00	17280.18
478.18	16840.15
478.36	17003.99
478.54	17184.21
478.72	17385.50
478.90	17355.07
479.08	17617.21
479.26	18005.74
479.44	17776.37
479.62	17891.06
479.80	18001.06
479.98	18422.36
480.16	18551.09
480.34	18197.67
480.52	18539.38
480.70	18948.98
480.88	18761.73
481.06	18838.97
481.24	18881.10
481.41	19173.67
481.59	19161.97
481.77	19719.01
481.95	19793.91
482.13	19913.28
482.31	19924.98
482.49	20341.60
482.67	20187.12
482.85	20470.33
483.03	20355.64
483.21	20519.48
483.39	21018.01
483.57	21036.74
483.74	21120.99
483.92	21593.78
484.10	21467.39
484.28	21813.79
484.46	21895.71
484.64	22497.23
484.82	22157.85
485.00	22494.89
485.18	22679.79
485.35	23295.35
485.53	23105.77
485.71	23260.24
485.89	23704.95
486.07	23344.50
486.25	23676.86
486.43	23733.03
486.61	24362.64
486.78	24238.59
486.96	24568.60
487.14	24795.64
487.32	24739.46
487.50	25193.53
487.68	25008.62
487.85	25647.59
488.03	25593.76
488.21	25773.98
488.39	25729.51
488.57	26380.18
488.75	26546.36
488.92	26827.22
489.10	27290.65
489.28	26920.84
489.46	27477.89
489.64	27367.88
489.81	27793.86
489.99	27718.96
490.17	27826.63
490.35	28320.48
490.53	28243.24
490.70	28938.38
490.88	28261.97
491.06	28858.81
491.24	29097.54
491.41	29032.00
491.59	29212.23
491.77	29462.66
491.95	29799.70
492.13	30408.24
492.30	30443.35
492.48	30258.45
492.66	30405.90
492.84	30862.30
493.01	30866.98
493.19	30862.30
493.37	31241.47
493.54	31566.81
493.72	31938.95
493.90	31913.20
494.08	32060.66
494.25	32238.54
494.43	32479.61
494.61	32385.99
494.79	32814.31
494.96	32491.32
495.14	32603.66
495.32	33563.28
495.49	33692.01
495.67	33493.07
495.85	33670.95
496.02	34328.64
496.20	33998.62
496.38	34087.56
496.55	34312.25
496.73	35136.12
496.91	34705.46
497.09	35267.19
497.26	35220.38
497.44	35072.93
497.62	35775.09
497.79	36065.31
497.97	35321.02
498.14	36126.17
498.32	36011.48
498.50	36563.85
498.67	36790.88
498.85	36676.19
499.03	36795.56
499.20	36910.25
499.38	37378.36
499.56	37500.06
499.73	37684.97
499.91	37448.57
500.08	38059.45
500.26	37521.13
500.44	38022.00
500.61	38078.18
500.79	37797.31
500.97	38539.26
501.14	38944.17
501.32	38866.94
501.49	39070.56
501.67	38916.09
501.84	39299.94
502.02	39136.10
502.20	38988.64
502.37	40107.42
502.55	39372.49
502.72	39655.70
502.90	39571.44
503.07	39784.43
503.25	40301.68
503.43	40259.55
503.60	40708.94
503.78	40610.64
503.95	40367.22
504.13	40959.38
504.30	40924.27
504.48	40830.65
504.65	41268.33
504.83	40840.01
505.01	41247.26
505.18	41654.51
505.36	41937.72
505.53	41551.53
505.71	41628.77
505.88	41951.76
506.06	42251.35
506.23	42330.93
506.41	42199.86
506.58	42855.21
506.76	42539.24
506.93	42960.53
507.11	43007.34
507.28	42887.98
507.46	42890.32
507.63	43313.95
507.81	43564.39
507.98	42953.51
508.16	43824.19
508.33	43704.82
508.50	43819.51
508.68	44023.14
508.85	44226.76
509.03	44343.79
509.20	44783.81
509.38	44498.26
509.55	44832.96
509.73	44671.46
509.90	44804.88
510.08	44706.57
510.25	44795.51
510.42	44919.56
510.60	45191.06
510.77	45467.25
510.95	45815.99
511.12	45619.38
511.30	45422.78
511.47	45607.68
511.64	46021.95
511.82	45968.12
511.99	45916.63
512.17	46459.63
512.34	46087.49
512.51	46454.95
512.69	46286.43
512.86	46555.60
513.04	46796.67
513.21	46724.11
513.38	47061.15
513.56	47119.66
513.73	47332.65
513.90	47168.82
514.08	47285.84
514.25	47543.30
514.43	47498.83
514.60	47962.26
514.77	47327.97
514.95	47777.36
515.12	47772.67
515.29	47856.93
515.47	48453.77
515.64	48526.33
515.81	48339.08
515.99	48390.58
516.16	48465.47
516.33	48725.27
516.51	49092.74
516.68	48713.57
516.85	48531.01
517.03	48985.07
517.20	49305.73
517.37	49118.48
517.54	49209.76
517.72	48912.52
517.89	48891.45
518.06	49783.19
518.24	49975.12
518.41	49654.47
518.58	49680.21
518.75	49368.92
518.93	49560.84
519.10	49968.10
519.27	49893.20
519.45	50143.64
519.62	50143.64
519.79	50284.07
519.96	50096.83
520.14	50328.54
520.31	50291.09
520.48	50553.23
520.65	50543.87
520.83	50993.25
521.00	50913.67
521.17	50756.86
521.34	50759.20
521.52	51009.64
521.69	51171.13
521.86	51435.61
522.03	51208.58
522.20	51625.20
522.38	51784.35
522.55	51765.63
522.72	51629.88
522.89	51433.27
523.07	51966.91
523.24	51650.94
523.41	51885.00
523.58	51657.96
523.75	51976.28
523.92	51976.28
524.10	51899.04
524.27	52376.51
524.44	52245.44
524.61	52533.32
524.78	52081.60
524.96	52334.38
525.13	52484.17
525.30	52687.80
525.47	52545.03
525.64	52636.31
525.81	52945.26
525.98	52734.61
526.16	53057.60
526.33	52973.34
526.50	53202.72
526.67	52804.83
526.84	53118.46
527.01	53212.08
527.18	52896.11
527.36	53162.93
527.53	53375.92
527.70	53631.04
527.87	53427.41
528.04	53315.06
528.21	53666.14
528.38	53523.37
528.55	53806.58
528.72	53408.68
528.89	53579.54
529.07	53762.11
529.24	53645.08
529.41	54005.52
529.58	53954.03
529.75	54073.40
529.92	53986.80
530.09	54183.40
530.26	54302.77
530.43	54281.70
530.60	54040.63
530.77	54312.13
530.94	54307.45
531.11	54129.57
531.28	54281.70
531.46	54475.97
531.63	54426.82
531.80	54454.90
531.97	54550.87
532.14	54747.47
532.31	54639.81
532.48	54862.16
532.65	54857.48
532.82	54658.53
532.99	55145.36
533.16	54705.34
533.33	55035.36
533.50	55143.02
533.67	55089.19
533.84	54820.03
534.01	55016.63
534.18	55133.66
534.35	55318.56
534.52	55426.23
534.69	55274.09
534.86	55395.80
535.03	55332.60
535.20	55318.56
535.37	55529.21
535.54	55601.77
535.71	55356.01
535.88	55639.22
536.05	55756.24
536.22	55632.19
536.38	55826.46
536.55	55704.75
536.72	56037.11
536.89	55625.17
537.06	55744.54
537.23	55927.10
537.40	55667.30
537.57	55845.18
537.74	55931.78
537.91	56332.01
538.08	56055.83
538.25	56034.77
538.42	56004.34
538.59	56495.85
538.75	56161.15
538.92	56435.00
539.09	56470.11
539.26	56100.30
539.43	56334.35
539.60	56238.39
539.77	56425.64
539.94	56444.36
540.11	56772.03
540.28	56615.22
540.44	56844.59
540.61	56779.06
540.78	56535.64
540.95	56772.03
541.12	56535.64
541.29	56671.39
541.46	56795.44
541.62	56783.74
541.79	56636.28
541.96	56427.98
542.13	56629.26
542.30	56959.28
542.47	57160.56
542.63	57057.58
542.80	57258.87
542.97	57116.09
543.14	57382.91
543.31	57308.02
543.48	57432.07
543.64	57586.54
543.81	57556.11
543.98	57736.34
544.15	57352.49
544.32	57909.53
544.48	57907.19
544.65	57474.20
544.82	57359.51
544.99	57436.75
545.16	57733.99
545.32	57532.71
545.49	58155.29
545.66	57731.65
545.83	57762.08
546.00	58028.90
546.16	57822.93
546.33	57687.18
546.50	57565.48
546.67	58157.63
546.83	57652.08
547.00	57869.75
547.17	57942.30
547.34	58094.44
547.50	58174.02
547.67	58075.71
547.84	58344.87
548.00	58417.43
548.17	58468.92
548.34	58199.76
548.51	58478.28
548.67	58314.45
548.84	58431.47
549.01	58403.39
549.18	58389.34
549.34	58518.07
549.51	58543.82
549.68	58520.41
549.84	58464.24
550.01	58831.71
550.18	58342.53
550.34	58717.02
550.51	58770.85
550.68	58609.35
550.84	58429.13
551.01	58754.47
551.18	58742.77
551.34	58672.55
551.51	58726.38
551.68	58494.67
551.84	58791.92
552.01	58436.16
552.18	58953.41
552.34	58808.30
552.51	58848.09
552.68	58803.62
552.84	58843.41
553.01	58974.48
553.18	58939.37
553.34	58967.46
553.51	58852.77
553.67	58836.39
553.84	59058.74
554.01	59178.10
554.17	59278.75
554.34	59250.66
554.51	59370.03
554.67	59049.38
554.84	59224.92
555.00	59276.41
555.17	59236.62
555.33	58979.16
555.50	59040.01
555.67	59054.06
555.83	59154.70
556.00	59320.88
556.16	59447.27
556.33	59646.21
556.50	59508.12
556.66	59508.12
556.83	59405.14
556.99	59653.23
557.16	59629.83
557.32	59533.87
557.49	59739.83
557.65	59664.94
557.82	59671.96
557.98	59529.19
558.15	59648.55
558.32	59718.77
558.48	59688.34
558.65	59625.15
558.81	59788.98
558.98	59877.93
559.14	59917.71
559.31	59854.52
559.47	59952.82
559.64	59910.69
559.80	59852.18
559.97	60025.38
560.13	59849.84
560.30	60123.68
560.46	59903.67
560.63	59915.37
560.79	59997.29
560.96	60168.15
561.12	59929.42
561.29	60011.34
561.45	59999.63
561.61	59887.29
561.78	59948.14
561.94	59955.16
562.11	60011.34
562.27	59969.21
562.44	60055.81
562.60	60170.49
562.77	59969.21
562.93	59997.29
563.10	60364.76
563.26	60023.04
563.42	60385.82
563.59	60261.77
563.75	60168.15
563.92	60219.64
564.08	60156.45
564.24	60233.69
564.41	60353.05
564.57	60245.39
564.74	60334.33
564.90	60556.68
565.07	60224.32
565.23	60446.68
565.39	60210.28
565.56	60416.25
565.72	60355.39
565.88	60339.01
566.05	60378.80
566.21	60432.63
566.38	60376.46
566.54	60535.62
566.70	60676.05
566.87	60481.78
567.03	60346.03
567.19	60512.21
567.36	60467.74
567.52	60374.12
567.68	60788.39
567.85	60484.12
568.01	60495.83
568.17	60420.93
568.34	60530.93
568.50	60657.32
568.66	60390.50
568.83	60650.30
568.99	60507.53
569.15	60512.21
569.32	60460.72
569.48	60498.17
569.64	60863.29
569.81	60587.11
569.97	60535.62
570.13	60734.56
570.30	60638.60
570.46	60559.02
570.62	60516.89
570.78	60774.35
570.95	60708.82
571.11	60755.63
571.27	60795.42
571.43	60743.92
571.60	60846.91
571.76	60994.36
571.92	60732.22
572.09	60743.92
572.25	60662.00
572.41	60631.58
572.57	60676.05
572.74	61092.66
572.90	60947.55
573.06	60912.44
573.22	60762.65
573.38	60966.27
573.55	60874.99
573.71	61050.53
573.87	61036.49
574.03	60652.64
574.20	60907.76
574.36	60762.65
574.52	60748.60
574.68	60814.14
574.84	61027.13
575.01	61036.49
575.17	60926.49
575.33	60851.59
575.49	60896.06
575.65	61010.74
575.82	60905.42
575.98	60940.53
576.14	61062.24
576.30	61153.52
576.46	60601.15
576.62	60874.99
576.79	61059.90
576.95	60626.90
577.11	61059.90
577.27	61022.45
577.43	61010.74
577.59	60804.78
577.75	60839.89
577.92	61123.09
578.08	60996.70
578.24	61057.56
578.40	61219.05
578.56	61076.28
578.72	61247.14
578.88	61008.40
579.04	61242.46
579.21	61130.11
579.37	61228.41
579.53	61258.84
579.69	60942.87
579.85	61130.11
580.01	61078.62
580.17	60945.21
580.33	61095.00
580.49	61378.21
580.65	61043.51
580.82	60924.14
580.98	60947.55
581.14	61071.60
581.30	61226.07
581.46	61041.17
581.62	61193.31
581.78	60963.93
581.94	60877.33
582.10	61118.41
582.26	61022.45
582.42	61141.81
582.58	61240.12
582.74	61193.31
582.90	61083.30
583.06	61155.86
583.22	61027.13
583.38	61031.81
583.54	61062.24
583.70	61125.43
583.86	61361.82
584.02	61155.86
584.18	61315.01
584.34	60970.96
584.50	61062.24
584.66	61022.45
584.82	61095.00
584.98	61045.85
585.14	61111.39
585.30	60860.95
585.46	61244.80
585.62	61209.69
585.78	61197.99
585.94	61106.71
586.10	61286.93
586.26	61172.24
586.42	61247.14
586.58	61286.93
586.74	61162.88
586.90	61139.47
587.06	61125.43
587.22	61399.27
587.38	61106.71
587.54	61322.04
587.70	61403.95
587.86	61272.88
588.02	61247.14
588.18	61378.21
588.34	61284.59
588.49	61132.45
