SpectraSuite Data File
++++++++++++++++++++++++++++++++++++
Date: Fri Oct 25 11:23:48 EDT 2013
User: price-jones
Dark Spectrum Present: No
Reference Spectrum Present: No
Number of Sampled Component Spectra: 1
Spectrometers: USB2+H05261
Integration Time (usec): 100000 (USB2+H05261)
Spectra Averaged: 1 (USB2+H05261)
Boxcar Smoothing: 0 (USB2+H05261)
Correct for Electrical Dark: No (USB2+H05261)
Strobe/Lamp Enabled: No (USB2+H05261)
Correct for Detector Non-linearity: No (USB2+H05261)
Correct for Stray Light: No (USB2+H05261)
Number of Pixels in Processed Spectrum: 2048
>>>>>Begin Processed Spectral Data<<<<<
365.73	215.33
365.92	215.33
366.12	215.33
366.32	198.95
366.52	133.41
366.72	182.56
366.91	63.19
367.11	77.24
367.31	102.98
367.51	112.35
367.70	173.20
367.90	145.11
368.10	105.32
368.30	133.41
368.49	145.11
368.69	105.32
368.89	140.43
369.09	100.64
369.28	95.96
369.48	121.71
369.68	177.88
369.87	107.66
370.07	149.79
370.27	229.37
370.47	280.86
370.66	601.52
370.86	599.18
371.06	634.29
371.25	725.57
371.45	653.01
371.65	674.07
371.84	662.37
372.04	638.97
372.24	690.46
372.44	704.50
372.63	765.36
372.83	753.65
373.03	786.42
373.22	713.86
373.42	723.23
373.62	741.95
373.81	753.65
374.01	828.55
374.21	849.61
374.40	777.06
374.60	791.10
374.79	788.76
374.99	798.12
375.19	798.12
375.38	833.23
375.58	816.85
375.78	854.30
375.97	880.04
376.17	959.62
376.37	887.06
376.56	851.96
376.76	924.51
376.95	898.77
377.15	833.23
377.35	929.19
377.54	933.87
377.74	919.83
377.93	816.85
378.13	952.60
378.33	903.45
378.52	933.87
378.72	938.55
378.91	1029.84
379.11	973.66
379.31	947.92
379.50	959.62
379.70	961.96
379.89	990.05
380.09	964.30
380.28	903.45
380.48	983.02
380.68	945.58
380.87	971.32
381.07	1029.84
381.26	1053.24
381.46	971.32
381.65	1057.92
381.85	1027.50
382.04	973.66
382.24	1055.58
382.43	1015.79
382.63	1055.58
382.83	1074.31
383.02	1111.75
383.22	1090.69
383.41	1081.33
383.61	1130.48
383.80	1165.59
384.00	1163.25
384.19	1125.80
384.39	1107.07
384.58	1100.05
384.78	1247.51
384.97	1137.50
385.17	1181.97
385.36	1179.63
385.56	1111.75
385.75	1146.86
385.95	1121.12
386.14	1268.57
386.34	1181.97
386.53	1203.04
386.72	1149.20
386.92	1210.06
387.11	1256.87
387.31	1231.12
387.50	1167.93
387.70	1221.76
387.89	1268.57
388.09	1287.29
388.28	1343.47
388.48	1313.04
388.67	1334.11
388.86	1301.34
389.06	1362.19
389.25	1350.49
389.45	1310.70
389.64	1359.85
389.84	1359.85
390.03	1430.07
390.22	1359.85
390.42	1434.75
390.61	1455.81
390.81	1366.87
391.00	1462.83
391.19	1430.07
391.39	1387.94
391.58	1540.07
391.78	1406.66
391.97	1453.47
392.16	1441.77
392.36	1516.67
392.55	1500.28
392.75	1528.37
392.94	1554.12
393.13	1589.22
393.33	1542.41
393.52	1610.29
393.71	1547.09
393.91	1547.09
394.10	1563.48
394.29	1603.27
394.49	1600.93
394.68	1682.85
394.88	1633.69
395.07	1689.87
395.26	1643.06
395.46	1636.03
395.65	1774.13
395.84	1685.19
396.04	1799.87
396.23	1645.40
396.42	1797.53
396.62	1811.57
396.81	1813.92
397.00	1743.70
397.19	1856.04
397.39	1760.08
397.58	1888.81
397.77	1788.17
397.97	1879.45
398.16	1863.07
398.35	1837.32
398.55	1844.34
398.74	1893.49
398.93	1863.07
399.12	1959.03
399.32	1856.04
399.51	1963.71
399.70	2125.21
399.90	1914.56
400.09	1975.41
400.28	1989.46
400.47	1996.48
400.67	2031.58
400.86	1973.07
401.05	2099.46
401.24	2094.78
401.44	2148.61
401.63	2148.61
401.82	2183.72
402.01	2265.64
402.21	2214.15
402.40	2157.97
402.59	2132.23
402.78	2101.80
402.97	2244.57
403.17	2249.25
403.36	2232.87
403.55	2331.17
403.74	2370.96
403.93	2490.33
404.13	2349.90
404.32	2429.48
404.51	2377.98
404.70	2401.39
404.89	2342.88
405.09	2445.86
405.28	2466.92
405.47	2448.20
405.66	2569.91
405.85	2452.88
406.05	2558.21
406.24	2499.69
406.43	2607.36
406.62	2743.11
406.81	2661.19
407.00	2691.62
407.20	2715.02
407.39	2600.34
407.58	2715.02
407.77	2715.02
407.96	2710.34
408.15	2815.66
408.34	2717.36
408.54	2796.94
408.73	2750.13
408.92	2892.90
409.11	2906.95
409.30	2911.63
409.49	2846.09
409.68	3038.02
409.87	3105.89
410.07	2890.56
410.26	3150.36
410.45	3052.06
410.64	3012.27
410.83	3227.60
411.02	3094.19
411.21	3243.98
411.40	3098.87
411.59	3239.30
411.78	3187.81
411.98	3206.53
412.17	3246.32
412.36	3400.80
412.55	3503.78
412.74	3424.20
412.93	3428.88
413.12	3403.14
413.31	3555.27
413.50	3571.66
413.69	3449.95
413.88	3625.49
414.07	3541.23
414.26	3740.18
414.45	3705.07
414.64	3588.04
414.83	3723.79
415.02	3733.15
415.22	3936.78
415.41	3805.71
415.60	3906.35
415.79	3857.20
415.98	3967.21
416.17	3974.23
416.36	4035.08
416.55	3878.27
416.74	4238.71
416.93	4021.04
417.12	4159.13
417.31	4212.96
417.50	4238.71
417.69	4344.03
417.88	4236.37
418.07	4292.54
418.26	4241.05
418.45	4196.58
418.64	4411.91
418.83	4500.85
419.02	4477.44
419.21	4430.63
419.39	4606.17
419.58	4519.57
419.77	4351.06
419.96	4610.86
420.15	4615.54
420.34	4599.15
420.53	4648.30
420.72	4676.39
420.91	4732.56
421.10	4802.78
421.29	4898.74
421.48	4770.01
421.67	4835.55
421.86	4870.65
422.05	4812.14
422.24	4669.37
422.43	4739.58
422.61	4910.44
422.80	4905.76
422.99	4816.82
423.18	4835.55
423.37	5074.28
423.56	5081.30
423.75	5100.03
423.94	4781.71
424.13	4592.13
424.32	4711.50
424.50	4957.25
424.69	5057.90
424.88	5146.84
425.07	4952.57
425.26	4943.21
425.45	4912.78
425.64	4992.36
425.83	4983.00
426.01	5181.95
426.20	5022.79
426.39	5013.43
426.58	5151.52
426.77	5022.79
426.96	5069.60
427.15	5102.37
427.33	5327.06
427.52	5184.29
427.71	5453.45
427.90	5298.97
428.09	5270.89
428.28	5261.52
428.46	5359.83
428.65	5458.13
428.84	5551.75
429.03	5465.15
429.22	5352.81
429.40	5418.34
429.59	5664.10
429.78	5399.62
429.97	5294.29
430.16	5537.71
430.34	5561.11
430.53	5544.73
430.72	5795.17
430.91	5717.93
431.10	5645.37
431.28	5748.36
431.47	5865.38
431.66	5874.74
431.85	5790.49
432.03	6001.13
432.22	5996.45
432.41	6090.07
432.60	5895.81
432.79	5947.30
432.97	6038.58
433.16	5944.96
433.35	5998.79
433.54	6059.65
433.72	6026.88
433.91	6066.67
434.10	6057.31
434.28	6136.88
434.47	6174.33
434.66	6162.63
434.85	6296.04
435.03	6331.15
435.22	6394.34
435.41	6455.20
435.59	6392.00
435.78	6672.87
435.97	6466.90
436.16	6415.41
436.34	6497.33
436.53	6574.56
436.72	6665.85
436.90	6408.39
437.09	6670.53
437.28	6551.16
437.46	6635.42
437.65	6834.36
437.84	6956.07
438.02	6719.68
438.21	6712.66
438.40	6766.49
438.58	7105.87
438.77	7108.21
438.96	6846.07
439.14	7042.67
439.33	7159.70
439.52	7265.02
439.70	7316.51
439.89	7293.11
440.08	7541.21
440.26	7372.69
440.45	7339.92
440.63	7585.68
440.82	7719.09
441.01	7363.33
441.19	7623.12
441.38	7665.25
441.57	7651.21
441.75	7903.99
441.94	8079.53
442.12	7875.90
442.31	7999.95
442.50	7962.50
442.68	7969.52
442.87	8133.36
443.05	8154.43
443.24	8070.17
443.43	8280.82
443.61	8212.94
443.80	8339.33
443.98	7983.57
444.17	7691.00
444.35	8271.45
444.54	8276.13
444.73	8138.04
444.91	8196.56
445.10	8341.67
445.28	8381.46
445.47	8451.67
445.65	8397.84
445.84	8659.98
446.02	8592.11
446.21	8533.59
446.39	8217.62
446.58	8580.40
446.77	8496.14
446.95	8369.76
447.14	8409.54
447.32	8587.43
447.51	8638.92
447.69	8489.12
447.88	8416.57
448.06	8500.83
448.25	8332.31
448.43	8585.08
448.62	8493.80
448.80	8564.02
448.99	8615.51
449.17	8702.11
449.36	8699.77
449.54	8924.46
449.73	8847.22
449.91	9163.20
450.10	8856.59
450.28	9069.58
450.46	8947.87
450.65	8912.76
450.83	9043.83
451.02	9015.74
451.20	9343.42
451.39	9128.09
451.57	9177.24
451.76	8999.36
451.94	9001.70
452.13	9364.48
452.31	9160.86
452.49	9380.87
452.68	9411.29
452.86	9224.05
453.05	9598.54
453.23	9481.51
453.42	9373.85
453.60	9495.55
453.78	9783.44
453.97	9315.33
454.15	9495.55
454.34	9640.67
454.52	9713.22
454.70	9820.89
454.89	9783.44
455.07	9790.46
455.26	9853.66
455.44	10129.84
455.62	10064.30
455.81	9879.40
455.99	9944.94
456.17	9966.00
456.36	10225.80
456.54	10281.97
456.73	10389.64
456.91	10471.56
457.09	10534.75
457.28	10607.31
457.46	10326.44
457.64	10506.66
457.83	10436.45
458.01	10513.69
458.19	10846.04
458.38	10799.23
458.56	10705.61
458.74	10785.19
458.93	10665.82
459.11	11061.37
459.29	10881.15
459.48	10759.44
459.66	10895.19
459.84	10993.50
460.03	11091.80
460.21	11063.71
460.39	10927.96
460.57	11066.05
460.76	11267.34
460.94	11318.83
461.12	11026.26
461.31	11091.80
461.49	11225.21
461.67	11173.72
461.85	11709.70
462.04	11304.79
462.22	11510.75
462.40	11683.95
462.59	11454.58
462.77	11506.07
462.95	11545.86
463.13	11716.72
463.32	11812.68
463.50	11742.47
463.68	11918.01
463.86	11889.92
464.05	11815.02
464.23	11894.60
464.41	11758.85
464.59	11632.46
464.78	12236.32
464.96	11932.05
465.14	11981.20
465.32	12107.59
465.50	11995.25
465.69	12189.51
465.87	11927.37
466.05	12203.55
466.23	12233.98
466.41	12152.06
466.60	12465.69
466.78	12362.71
466.96	12269.09
467.14	12648.26
467.32	12465.69
467.51	12624.85
467.69	12259.73
467.87	12517.18
468.05	12657.62
468.23	12472.71
468.41	12549.95
468.60	12723.15
468.78	12952.52
468.96	12793.37
469.14	12814.43
469.32	13102.32
469.50	12894.01
469.69	12945.50
469.87	13163.17
470.05	13153.81
470.23	13135.09
470.41	13242.75
470.59	13486.17
470.77	13247.43
470.95	13369.14
471.14	13694.47
471.32	13259.13
471.50	13741.29
471.68	13544.68
471.86	13659.37
472.04	13680.43
472.22	13867.67
472.40	14066.62
472.58	13788.10
472.77	13865.33
472.95	14284.29
473.13	14380.25
473.31	14174.28
473.49	14225.78
473.67	14197.69
473.85	14345.14
474.03	14558.13
474.21	14480.89
474.39	14754.74
474.57	14693.88
474.75	15012.20
474.93	15089.43
475.12	14988.79
475.30	15147.95
475.48	15117.52
475.66	15447.54
475.84	14892.83
476.02	15466.26
476.20	15342.21
476.38	15878.19
476.56	15922.66
476.74	16011.60
476.92	15950.75
477.10	15969.48
477.28	16245.66
477.46	16257.36
477.64	16318.22
477.82	16690.36
478.00	16954.84
478.18	16950.16
478.36	16924.41
478.54	17032.08
478.72	17259.11
478.90	17458.06
479.08	17713.17
479.26	17563.38
479.44	17771.69
479.62	17778.71
479.80	17724.88
479.98	17989.36
480.16	18675.13
480.34	18492.57
480.52	18817.91
480.70	18764.07
480.88	18813.23
481.06	19082.39
481.24	18871.74
481.41	19063.66
481.59	19389.00
481.77	19473.26
481.95	19660.50
482.13	19866.47
482.31	19882.85
482.49	20547.56
482.67	20294.79
482.85	20886.94
483.03	20608.42
483.21	20552.24
483.39	20936.09
483.57	20982.90
483.74	21516.54
483.92	21282.49
484.10	21465.05
484.28	21848.90
484.46	22204.66
484.64	22305.31
484.82	22064.23
485.00	22101.68
485.18	22869.37
485.35	23035.55
485.53	22754.69
485.71	23222.80
485.89	23728.35
486.07	23487.28
486.25	23807.93
486.43	23824.31
486.61	23948.36
486.78	24009.22
486.96	24182.42
487.14	24699.67
487.32	24713.72
487.50	24980.54
487.68	25570.35
487.85	25575.03
488.03	26099.31
488.21	25553.97
488.39	25900.37
488.57	26153.15
488.75	26803.82
488.92	26803.82
489.10	26712.53
489.28	26757.00
489.46	27197.02
489.64	27220.43
489.81	27487.25
489.99	27695.56
490.17	28297.08
490.35	28491.34
490.53	28364.95
490.70	28425.81
490.88	28594.32
491.06	28903.28
491.24	28982.85
491.41	29654.59
491.59	29303.51
491.77	29415.85
491.95	29572.67
492.13	29883.96
492.30	30085.25
492.48	30436.33
492.66	30501.86
492.84	30623.57
493.01	30923.16
493.19	30976.99
493.37	30799.11
493.54	31241.47
493.72	31660.43
493.90	31527.02
494.08	31737.66
494.25	32189.39
494.43	32364.93
494.61	32676.22
494.79	32655.15
494.96	32872.82
495.14	33048.36
495.32	32882.19
495.49	33397.10
495.67	33371.36
495.85	33621.80
496.02	33792.65
496.20	34487.79
496.38	34422.26
496.55	34492.47
496.73	35019.10
496.91	34923.13
497.09	34969.94
497.26	35543.38
497.44	35075.27
497.62	35732.96
497.79	35800.83
497.97	35428.69
498.14	36177.66
498.32	36245.54
498.50	36311.07
498.67	36879.82
498.85	36643.43
499.03	36783.86
499.20	37315.16
499.38	37060.04
499.56	37284.73
499.73	37383.04
499.91	37661.56
500.08	37820.72
500.26	37661.56
500.44	37996.26
500.61	37895.61
500.79	38167.12
500.97	38457.34
501.14	38667.99
501.32	38487.77
501.49	38635.22
501.67	38534.58
501.84	39463.77
502.02	39182.91
502.20	39655.70
502.37	39849.96
502.55	39271.85
502.72	39833.58
502.90	39828.90
503.07	39793.79
503.25	39901.45
503.43	39569.10
503.60	40147.21
503.78	40804.90
503.95	40947.67
504.13	40793.20
504.30	40669.15
504.48	40676.17
504.65	40837.67
504.83	41345.56
505.01	41677.92
505.18	41390.03
505.36	42134.32
505.53	41851.12
505.71	41596.00
505.88	42045.38
506.06	41607.70
506.23	41996.23
506.41	42019.64
506.58	42316.89
506.76	42602.43
506.93	42366.04
507.11	42476.04
507.28	42815.42
507.46	43051.81
507.63	42782.65
507.81	43576.09
507.98	43428.64
508.16	43583.12
508.33	43456.73
508.50	43510.56
508.68	43805.47
508.85	43831.21
509.03	43810.15
509.20	43683.76
509.38	44837.64
509.55	44399.96
509.73	44690.19
509.90	44638.70
510.08	44776.79
510.25	45067.02
510.42	44868.07
510.60	44849.35
510.77	45427.46
510.95	45649.81
511.12	45350.22
511.30	45682.58
511.47	45556.19
511.64	45570.23
511.82	45766.84
511.99	45928.33
512.17	46131.96
512.34	46223.24
512.51	46667.94
512.69	46614.11
512.86	46534.53
513.04	46955.83
513.21	46625.81
513.38	47009.66
513.56	47358.40
513.73	47210.95
513.90	47562.03
514.08	47327.97
514.25	47643.94
514.43	47807.78
514.60	48041.84
514.77	47484.79
514.95	47821.83
515.12	47522.24
515.29	47491.81
515.47	48191.63
515.64	48102.69
515.81	48105.03
515.99	48311.00
516.16	48732.29
516.33	48598.88
516.51	49059.97
516.68	48577.82
516.85	48884.43
517.03	48870.39
517.20	49165.29
517.37	49102.10
517.54	48861.02
517.72	49226.15
517.89	49378.28
518.06	49586.59
518.24	49940.01
518.41	49296.36
518.58	49935.33
518.75	49469.56
518.93	49443.82
519.10	49638.08
519.27	49727.02
519.45	49783.19
519.62	49776.17
519.79	50054.70
519.96	50169.38
520.14	50777.92
520.31	50270.03
520.48	50756.86
520.65	50473.65
520.83	50873.88
521.00	51203.90
521.17	50665.58
521.34	51007.29
521.52	50813.03
521.69	50925.38
521.86	51416.89
522.03	51421.57
522.20	51718.82
522.38	51456.68
522.55	51337.31
522.72	51501.15
522.89	51356.03
523.07	51990.32
523.24	51784.35
523.41	51601.79
523.58	51896.70
523.75	51964.57
523.92	52044.15
524.10	51887.34
524.27	51938.83
524.44	52257.14
524.61	52114.37
524.78	52346.08
524.96	52369.49
525.13	52418.64
525.30	52767.38
525.47	52680.78
525.64	52416.30
525.81	52713.55
525.98	52748.65
526.16	53010.79
526.33	52966.32
526.50	53031.86
526.67	52861.00
526.84	53095.05
527.01	52863.34
527.18	52870.36
527.36	52968.66
527.53	53254.21
527.70	53532.73
527.87	53844.02
528.04	53258.89
528.21	53420.39
528.38	53485.92
528.55	53675.51
528.72	53476.56
528.89	53867.43
529.07	53689.55
529.24	53537.41
529.41	53872.11
529.58	53984.46
529.75	53773.81
529.92	53790.19
530.09	54005.52
530.26	54312.13
530.43	54092.12
530.60	53914.24
530.77	53975.09
530.94	54202.13
531.11	54330.86
531.28	54438.52
531.46	54546.18
531.63	54230.21
531.80	54555.55
531.97	54520.44
532.14	54726.41
532.31	54578.95
532.48	54590.66
532.65	54824.71
532.82	54546.18
532.99	54941.74
533.16	54862.16
533.33	55056.42
533.50	55285.79
533.67	54876.20
533.84	54841.09
534.01	55021.31
534.18	55011.95
534.35	55414.52
534.52	55241.32
534.69	55510.49
534.86	55557.30
535.03	55288.13
535.20	55377.08
535.37	55510.49
535.54	55566.66
535.71	55388.78
535.88	55786.67
536.05	55646.24
536.22	55739.86
536.38	55934.12
536.55	55693.05
536.72	55632.19
536.89	55803.05
537.06	55887.31
537.23	55917.74
537.40	55908.38
537.57	55964.55
537.74	55882.63
537.91	56100.30
538.08	55964.55
538.25	55791.35
538.42	56121.37
538.59	56446.70
538.75	56100.30
538.92	56095.62
539.09	56261.80
539.26	56360.10
539.43	56179.88
539.60	56385.85
539.77	56364.78
539.94	56659.69
540.11	56362.44
540.28	56790.76
540.44	56633.94
540.61	56631.60
540.78	56488.83
540.95	56559.05
541.12	56540.32
541.29	56835.23
541.46	56470.11
541.62	56914.81
541.79	56935.87
541.96	56552.02
542.13	56802.46
542.30	57092.69
542.47	56996.73
542.63	57172.27
542.80	56896.08
542.97	57020.13
543.14	57305.68
543.31	57265.89
543.48	57361.85
543.64	57443.77
543.81	57432.07
543.98	57385.25
544.15	57539.73
544.32	57474.20
544.48	57687.18
544.65	57406.32
544.82	57481.22
544.99	57141.84
545.16	57609.95
545.32	57513.98
545.49	57715.27
545.66	57787.83
545.83	57659.10
546.00	57806.55
546.16	57741.02
546.33	57860.38
546.50	57635.69
546.67	58040.60
546.83	57733.99
547.00	57855.70
547.17	57794.85
547.34	58005.50
547.50	57867.40
547.67	58103.80
547.84	58080.39
548.00	58038.26
548.17	58300.40
548.34	58110.82
548.51	58300.40
548.67	58344.87
548.84	58277.00
549.01	58028.90
549.18	58515.73
549.34	58471.26
549.51	58269.98
549.68	58255.93
549.84	58497.01
550.01	58651.48
550.18	58241.89
550.34	58548.50
550.51	58546.16
550.68	58557.86
550.84	58489.99
551.01	58623.40
551.18	58525.10
551.34	58810.64
551.51	58738.08
551.68	58681.91
551.84	58782.55
552.01	58752.13
552.18	58880.86
552.34	58497.01
552.51	58897.24
552.68	58569.57
552.84	58850.43
553.01	59047.04
553.18	59161.72
553.34	59175.76
553.51	58780.21
553.67	59100.87
553.84	59124.27
554.01	59199.17
554.17	59302.15
554.34	59023.63
554.51	59138.32
554.67	59105.55
554.84	59107.89
555.00	59047.04
555.17	58904.26
555.33	59143.00
555.50	59213.21
555.67	59007.25
555.83	59243.64
556.00	59274.07
556.16	59437.90
556.33	59377.05
556.50	59238.96
556.66	59421.52
556.83	59297.47
556.99	59484.72
557.16	59620.47
557.32	59613.44
557.49	59882.61
557.65	59498.76
557.82	59517.48
557.98	59311.52
558.15	59522.16
558.32	59622.81
558.48	59496.42
558.65	59547.91
558.81	59573.66
558.98	59592.38
559.14	59898.99
559.31	60018.36
559.47	59868.56
559.64	59929.42
559.80	59737.49
559.97	59793.67
560.13	59732.81
560.30	59854.52
560.46	59725.79
560.63	60009.00
560.79	59903.67
560.96	60069.85
561.12	59948.14
561.29	59877.93
561.45	59992.61
561.61	59870.90
561.78	59903.67
561.94	59873.24
562.11	60090.91
562.27	60058.15
562.44	60079.21
562.60	60072.19
562.77	59966.87
562.93	59880.27
563.10	60214.96
563.26	59903.67
563.42	60383.48
563.59	60210.28
563.75	60119.00
563.92	60093.25
564.08	59884.95
564.24	60364.76
564.41	60320.29
564.57	60177.51
564.74	60165.81
564.90	60378.80
565.07	60329.65
565.23	60257.09
565.39	60355.39
565.56	60264.11
565.72	60488.80
565.88	60444.33
566.05	60200.92
566.21	60198.58
566.38	60420.93
566.54	60570.72
566.70	60528.59
566.87	60486.46
567.03	60484.12
567.19	60570.72
567.36	60310.92
567.52	60388.16
567.68	60610.51
567.85	60594.13
568.01	60680.73
568.17	60273.48
568.34	60837.54
568.50	60552.00
568.66	60257.09
568.83	60523.91
568.99	60432.63
569.15	60479.44
569.32	60423.27
569.48	60491.15
569.64	60591.79
569.81	60584.77
569.97	60425.61
570.13	60582.43
570.30	60369.44
570.46	60409.23
570.62	60542.64
570.78	60577.75
570.95	60460.72
571.11	60715.84
571.27	60779.03
571.43	60680.73
571.60	60612.85
571.76	60685.41
571.92	60797.76
572.09	60783.71
572.25	60640.94
572.41	60631.58
572.57	60746.26
572.74	60706.47
572.90	60561.36
573.06	60823.50
573.22	60786.05
573.38	61015.43
573.55	60624.56
573.71	60692.43
573.87	60956.91
574.03	60720.52
574.20	60872.65
574.36	60580.09
574.52	60921.80
574.68	60849.25
574.84	60905.42
575.01	60701.79
575.17	60896.06
575.33	60786.05
575.49	60757.97
575.65	61045.85
575.82	61001.38
575.98	60921.80
576.14	61092.66
576.30	60996.70
576.46	60940.53
576.62	61008.40
576.79	60903.08
576.95	60666.69
577.11	60736.90
577.27	60870.31
577.43	60959.25
577.59	60889.04
577.75	60774.35
577.92	60762.65
578.08	60956.91
578.24	61038.83
578.40	61207.35
578.56	61043.51
578.72	60921.80
578.88	61254.16
579.04	61298.63
579.21	60926.49
579.37	61296.29
579.53	61029.47
579.69	61078.62
579.85	60898.40
580.01	60851.59
580.17	60928.83
580.33	61080.96
580.49	61010.74
580.65	61174.58
580.82	61022.45
580.98	60865.63
581.14	60903.08
581.30	61090.32
581.46	61153.52
581.62	61062.24
581.78	60893.72
581.94	60966.27
582.10	61055.21
582.26	60837.54
582.42	60954.57
582.58	61052.87
582.74	61015.43
582.90	61059.90
583.06	60896.06
583.22	61001.38
583.38	61233.10
583.54	61148.84
583.70	61127.77
583.86	60940.53
584.02	60938.19
584.18	61123.09
584.34	61240.12
584.50	61022.45
584.66	61090.32
584.82	61020.11
584.98	60896.06
585.14	60973.30
585.30	60933.51
585.46	61090.32
585.62	61087.98
585.78	61158.20
585.94	61029.47
586.10	61031.81
586.26	61279.91
586.42	61336.08
586.58	61319.70
586.74	61235.44
586.90	61190.97
587.06	60942.87
587.22	61219.05
587.38	61137.13
587.54	61347.78
587.70	61375.87
587.86	61109.05
588.02	61275.22
588.18	61305.65
588.34	61127.77
588.49	61008.40
