SpectraSuite Data File
++++++++++++++++++++++++++++++++++++
Date: Fri Oct 25 11:33:21 EDT 2013
User: price-jones
Dark Spectrum Present: No
Reference Spectrum Present: No
Number of Sampled Component Spectra: 1
Spectrometers: USB2+H05261
Integration Time (usec): 100000 (USB2+H05261)
Spectra Averaged: 1 (USB2+H05261)
Boxcar Smoothing: 0 (USB2+H05261)
Correct for Electrical Dark: No (USB2+H05261)
Strobe/Lamp Enabled: No (USB2+H05261)
Correct for Detector Non-linearity: No (USB2+H05261)
Correct for Stray Light: No (USB2+H05261)
Number of Pixels in Processed Spectrum: 2048
>>>>>Begin Processed Spectral Data<<<<<
365.73	266.82
365.92	266.82
366.12	266.82
366.32	126.39
366.52	194.26
366.72	215.33
366.91	191.92
367.11	215.33
367.31	149.79
367.51	170.86
367.70	142.77
367.90	159.16
368.10	182.56
368.30	156.82
368.49	100.64
368.69	163.84
368.89	220.01
369.09	180.22
369.28	231.71
369.48	217.67
369.68	210.65
369.87	278.52
370.07	212.99
370.27	220.01
370.47	358.10
370.66	491.51
370.86	463.43
371.06	442.36
371.25	601.52
371.45	535.98
371.65	561.73
371.84	493.85
372.04	568.75
372.24	641.31
372.44	547.69
372.63	550.03
372.83	578.11
373.03	641.31
373.22	538.32
373.42	667.05
373.62	622.58
373.81	568.75
374.01	671.73
374.21	688.12
374.40	695.14
374.60	669.39
374.79	650.67
374.99	667.05
375.19	702.16
375.38	683.44
375.58	678.76
375.78	688.12
375.97	688.12
376.17	720.88
376.37	697.48
376.56	629.60
376.76	660.03
376.95	678.76
377.15	772.38
377.35	763.01
377.54	695.14
377.74	643.65
377.93	657.69
378.13	643.65
378.33	589.82
378.52	727.91
378.72	720.88
378.91	734.93
379.11	748.97
379.31	772.38
379.50	699.82
379.70	795.78
379.89	753.65
380.09	798.12
380.28	751.31
380.48	660.03
380.68	720.88
380.87	709.18
381.07	709.18
381.26	725.57
381.46	741.95
381.65	788.76
381.85	805.14
382.04	795.78
382.24	814.51
382.43	840.25
382.63	711.52
382.83	765.36
383.02	844.93
383.22	828.55
383.41	798.12
383.61	863.66
383.80	772.38
384.00	837.91
384.19	833.23
384.39	798.12
384.58	812.17
384.78	842.59
384.97	856.64
385.17	851.96
385.36	814.51
385.56	858.98
385.75	922.17
385.95	849.61
386.14	837.91
386.34	915.15
386.53	758.33
386.72	887.06
386.92	931.53
387.11	896.43
387.31	856.64
387.50	835.57
387.70	835.57
387.89	947.92
388.09	877.70
388.28	940.90
388.48	856.64
388.67	978.34
388.86	896.43
389.06	931.53
389.25	954.94
389.45	933.87
389.64	976.00
389.84	1041.54
390.03	980.68
390.22	973.66
390.42	894.08
390.61	950.26
390.81	1018.13
391.00	952.60
391.19	1053.24
391.39	1018.13
391.58	1086.01
391.78	994.73
391.97	997.07
392.16	992.39
392.36	1057.92
392.55	990.05
392.75	1116.44
392.94	1083.67
393.13	1034.52
393.33	1055.58
393.52	1062.60
393.71	1076.65
393.91	1114.10
394.10	1050.90
394.29	1067.28
394.49	1071.97
394.68	1156.22
394.88	1149.20
395.07	1172.61
395.26	1074.31
395.46	1046.22
395.65	1130.48
395.84	1100.05
396.04	1181.97
396.23	1224.10
396.42	1160.91
396.62	1188.99
396.81	1205.38
397.00	1273.25
397.19	1254.53
397.39	1210.06
397.58	1249.85
397.77	1261.55
397.97	1284.95
398.16	1235.80
398.35	1256.87
398.55	1203.04
398.74	1231.12
398.93	1270.91
399.12	1296.66
399.32	1343.47
399.51	1310.70
399.70	1413.68
399.90	1345.81
400.09	1465.18
400.28	1362.19
400.47	1394.96
400.67	1376.24
400.86	1383.26
401.05	1371.55
401.24	1488.58
401.44	1448.79
401.63	1483.90
401.82	1465.18
402.01	1474.54
402.21	1521.35
402.40	1469.86
402.59	1488.58
402.78	1488.58
402.97	1474.54
403.17	1481.56
403.36	1570.50
403.55	1547.09
403.74	1558.80
403.93	1654.76
404.13	1643.06
404.32	1563.48
404.51	1610.29
404.70	1563.48
404.89	1638.38
405.09	1769.44
405.28	1673.48
405.47	1720.29
405.66	1633.69
405.85	1666.46
406.05	1694.55
406.24	1713.27
406.43	1750.72
406.62	1771.79
406.81	1849.02
407.00	1797.53
407.20	1703.91
407.39	1856.04
407.58	1865.41
407.77	1842.00
407.96	1839.66
408.15	1842.00
408.34	1954.35
408.54	1849.02
408.73	1991.80
408.92	1949.67
409.11	2017.54
409.30	1987.11
409.49	1980.09
409.68	2071.37
409.87	2062.01
410.07	2036.27
410.26	2087.76
410.45	2026.90
410.64	2092.44
410.83	2139.25
411.02	2174.36
411.21	2113.50
411.40	2104.14
411.59	2270.32
411.78	2345.22
411.98	2169.68
412.17	2204.78
412.36	2305.43
412.55	2256.28
412.74	2298.41
412.93	2392.03
413.12	2335.85
413.31	2429.48
413.50	2385.01
413.69	2356.92
413.88	2532.46
414.07	2527.78
414.26	2504.37
414.45	2525.44
414.64	2581.61
414.83	2478.63
415.02	2567.57
415.22	2663.53
415.41	2743.11
415.60	2705.66
415.79	2656.51
415.98	2686.94
416.17	2750.13
416.36	2712.68
416.55	2803.96
416.74	2974.82
416.93	2832.05
417.12	2836.73
417.31	2764.17
417.50	2909.29
417.69	2942.05
417.88	2998.23
418.07	3000.57
418.26	2949.08
418.45	2988.86
418.64	3075.46
418.83	3019.29
419.02	3122.27
419.21	3157.38
419.39	3077.80
419.58	3091.85
419.77	3080.14
419.96	3339.94
420.15	3236.96
420.34	3077.80
420.53	3272.07
420.72	3225.26
420.91	3117.59
421.10	3318.88
421.29	3377.39
421.48	3293.13
421.67	3269.73
421.86	3262.71
422.05	3400.80
422.24	3323.56
422.43	3346.97
422.61	3393.78
422.80	3417.18
422.99	3377.39
423.18	3400.80
423.37	3496.76
423.56	3295.47
423.75	3471.01
423.94	3456.97
424.13	3253.34
424.32	3213.56
424.50	3489.74
424.69	3623.15
424.88	3613.79
425.07	3489.74
425.26	3517.83
425.45	3468.67
425.64	3478.04
425.83	3583.36
426.01	3550.59
426.20	3550.59
426.39	3501.44
426.58	3480.38
426.77	3461.65
426.96	3529.53
427.15	3674.64
427.33	3641.87
427.52	3552.93
427.71	3576.34
427.90	3627.83
428.09	3735.50
428.28	3742.52
428.46	3716.77
428.65	3836.14
428.84	3798.69
429.03	3812.73
429.22	3562.30
429.40	3707.41
429.59	3758.90
429.78	3646.55
429.97	3716.77
430.16	3798.69
430.34	3880.61
430.53	3934.44
430.72	3875.93
430.91	4009.34
431.10	3941.46
431.28	3981.25
431.47	3992.95
431.66	4065.51
431.85	3925.08
432.03	4053.81
432.22	4156.79
432.41	4166.15
432.60	3974.23
432.79	3997.64
432.97	4067.85
433.16	4100.62
433.35	4102.96
433.54	4131.05
433.72	4290.20
433.91	4187.22
434.10	4334.67
434.28	4154.45
434.47	4355.74
434.66	4198.92
434.85	4339.35
435.03	4346.37
435.22	4423.61
435.41	4400.21
435.59	4475.10
435.78	4461.06
435.97	4360.42
436.16	4320.63
436.34	4320.63
436.53	4475.10
436.72	4638.94
436.90	4421.27
437.09	4550.00
437.28	4514.89
437.46	4299.56
437.65	4496.17
437.84	4594.47
438.02	4594.47
438.21	4678.73
438.40	4524.26
438.58	4770.01
438.77	4758.31
438.96	4641.28
439.14	4744.27
439.33	4891.72
439.52	5020.45
439.70	4788.74
439.89	4924.49
440.08	5100.03
440.26	5074.28
440.45	5093.01
440.63	5036.83
440.82	5231.10
441.01	5135.14
441.19	5317.70
441.38	5195.99
441.57	5081.30
441.75	5404.30
441.94	5467.49
442.12	5504.94
442.31	5371.53
442.50	5331.74
442.68	5298.97
442.87	5675.80
443.05	5411.32
443.24	5657.07
443.43	5647.71
443.61	5549.41
443.80	5734.31
443.98	5441.75
444.17	5521.32
444.35	5579.84
444.54	5785.80
444.73	5638.35
444.91	5668.78
445.10	5645.37
445.28	5708.57
445.47	5661.76
445.65	5673.46
445.84	5813.89
446.02	5860.70
446.21	5666.44
446.39	5767.08
446.58	5628.99
446.77	5762.40
446.95	5778.78
447.14	5675.80
447.32	5863.04
447.51	5820.91
447.69	5802.19
447.88	5741.33
448.06	5757.72
448.25	5820.91
448.43	5776.44
448.62	5827.93
448.80	5865.38
448.99	5937.94
449.17	5989.43
449.36	6010.50
449.54	6099.44
449.73	6076.03
449.91	6087.73
450.10	6106.46
450.28	6071.35
450.46	6282.00
450.65	6218.80
450.83	6150.93
451.02	6071.35
451.20	6293.70
451.39	6108.80
451.57	6218.80
451.76	6225.82
451.94	6272.64
452.13	6424.77
452.31	6349.87
452.49	6197.74
452.68	6361.58
452.86	6340.51
453.05	6511.37
453.23	6443.49
453.42	6459.88
453.60	6403.71
453.78	6459.88
453.97	6349.87
454.15	6356.90
454.34	6406.05
454.52	6738.40
454.70	6703.29
454.89	6672.87
455.07	6682.23
455.26	6682.23
455.44	6619.04
455.62	6707.98
455.81	6731.38
455.99	6806.28
456.17	6850.75
456.36	6726.70
456.54	6871.81
456.73	6963.09
456.91	7159.70
457.09	6881.18
457.28	7173.74
457.46	6899.90
457.64	7033.31
457.83	7061.40
458.01	7190.13
458.19	7248.64
458.38	6949.05
458.56	7253.32
458.74	7169.06
458.93	7159.70
459.11	7342.26
459.29	7197.15
459.48	7300.13
459.66	7318.86
459.84	7239.28
460.03	7452.27
460.21	7178.42
460.39	7288.43
460.57	7449.93
460.76	7698.02
460.94	7672.28
461.12	7592.70
461.31	7557.59
461.49	7520.14
461.67	7644.19
461.85	7803.35
462.04	7733.13
462.22	8030.38
462.40	7875.90
462.59	7805.69
462.77	7871.22
462.95	7932.08
463.13	7901.65
463.32	7805.69
463.50	7648.87
463.68	7719.09
463.86	7976.55
464.05	7831.43
464.23	7803.35
464.41	8121.66
464.59	7985.91
464.78	8238.69
464.96	8126.34
465.14	7812.71
465.32	7981.23
465.50	8189.53
465.69	8065.49
465.87	8107.62
466.05	8320.60
466.23	8212.94
466.41	8285.50
466.60	8411.89
466.78	8252.73
466.96	8313.58
467.14	8166.13
467.32	8344.01
467.51	8538.27
467.69	8344.01
467.87	8430.61
468.05	8571.04
468.23	8456.36
468.41	8454.02
468.60	8566.36
468.78	8554.66
468.96	8753.60
469.14	8709.13
469.32	8615.51
469.50	8404.86
469.69	8620.19
469.87	8706.79
470.05	8784.03
470.23	8863.61
470.41	9041.49
470.59	8875.31
470.77	8849.57
470.95	8922.12
471.14	9146.81
471.32	8830.84
471.50	9118.73
471.68	8994.68
471.86	9109.36
472.04	9233.41
472.22	9252.14
472.40	9245.12
472.58	9219.37
472.77	9518.96
472.95	9362.14
473.13	9891.10
473.31	9413.63
473.49	9458.10
473.67	9359.80
473.85	9444.06
474.03	9790.46
474.21	9806.84
474.39	9689.82
474.57	9975.36
474.75	9975.36
474.93	10178.99
475.12	9856.00
475.30	9954.30
475.48	9951.96
475.66	10237.50
475.84	9895.78
476.02	10115.80
476.20	10221.12
476.38	10525.39
476.56	10719.65
476.74	10581.56
476.92	10637.73
477.10	10396.66
477.28	10848.38
477.46	10841.36
477.64	10883.49
477.82	11026.26
478.00	11276.70
478.18	11204.14
478.36	11396.07
478.54	11506.07
478.72	11412.45
478.90	11452.24
479.08	11606.72
479.26	11686.29
479.44	11674.59
479.62	11960.14
479.80	12016.31
479.98	12011.63
480.16	12329.94
480.34	11927.37
480.52	12224.62
480.70	12428.24
480.88	12346.33
481.06	12517.18
481.24	12608.47
481.41	12786.35
481.59	12924.44
481.77	13020.40
481.95	13118.70
482.13	12875.29
482.31	13001.68
482.49	13280.20
482.67	13429.99
482.85	13525.96
483.03	13453.40
483.21	13762.35
483.39	13991.72
483.57	13902.78
483.74	14106.41
483.92	14003.43
484.10	14232.80
484.28	14616.65
484.46	14530.05
484.64	14913.89
484.82	14305.35
485.00	14686.86
485.18	14794.53
485.35	15300.08
485.53	15084.75
485.71	15110.50
485.89	15506.05
486.07	15272.00
486.25	15470.94
486.43	15613.71
486.61	15861.81
486.78	15896.92
486.96	16084.16
487.14	16116.93
487.32	16180.12
487.50	16283.11
487.68	16561.63
487.85	16699.72
488.03	17041.44
488.21	17202.94
488.39	16945.48
488.57	17305.92
488.75	16996.97
488.92	17502.53
489.10	17642.96
489.28	17451.03
489.46	17961.27
489.64	18017.44
489.81	18277.24
489.99	18473.85
490.17	18317.03
490.35	18775.78
490.53	18705.56
490.70	18658.75
490.88	18717.26
491.06	18998.13
491.24	19028.56
491.41	19110.47
491.59	19187.71
491.77	19274.31
491.95	19609.01
492.13	19709.65
492.30	19606.67
492.48	19854.76
492.66	20100.52
492.84	19962.43
493.01	20006.90
493.19	20467.98
493.37	20360.32
493.54	20510.11
493.72	20657.57
493.90	20987.58
494.08	20893.96
494.25	20643.52
494.43	21158.44
494.61	21287.17
494.79	21591.44
494.96	21607.83
495.14	21675.70
495.32	21802.09
495.49	21963.59
495.67	22176.58
495.85	22363.82
496.02	22143.81
496.20	22452.76
496.38	22464.46
496.55	22483.19
496.73	22560.42
496.91	22780.43
497.09	22726.60
497.26	23274.29
497.44	23063.64
497.62	23126.83
497.79	23777.50
497.97	23342.16
498.14	23997.51
498.32	23775.16
498.50	24177.73
498.67	24308.80
498.85	23660.48
499.03	24196.46
499.20	24058.37
499.38	24533.50
499.56	24453.92
499.73	24641.16
499.91	24746.48
500.08	24992.24
500.26	24936.07
500.44	25214.59
500.61	25036.71
500.79	25015.65
500.97	25308.21
501.14	25413.54
501.32	25518.86
501.49	25406.52
501.67	25558.65
501.84	25860.58
502.02	25486.09
502.20	25729.51
502.37	26125.06
502.55	25949.52
502.72	25759.94
502.90	25972.92
503.07	25986.97
503.25	26026.76
503.43	26057.18
503.60	26520.61
503.78	26522.95
503.95	26834.24
504.13	26675.09
504.30	26541.68
504.48	27133.83
504.65	26930.20
504.83	27314.05
505.01	27239.15
505.18	27227.45
505.36	27407.67
505.53	27321.07
505.71	27400.65
505.88	27791.52
506.06	27611.30
506.23	27667.47
506.41	27770.46
506.58	28116.86
506.76	28133.24
506.93	28250.27
507.11	28589.64
507.28	28177.71
507.46	28533.47
507.63	28409.42
507.81	28781.57
507.98	28449.21
508.16	28584.96
508.33	29003.92
508.50	29113.92
508.68	29092.86
508.85	29053.07
509.03	29085.84
509.20	29408.83
509.38	29364.36
509.55	29596.07
509.73	29640.54
509.90	29820.77
510.08	29303.51
510.25	29710.76
510.42	29933.11
510.60	30064.18
510.77	29986.94
510.95	30349.73
511.12	30033.75
511.30	30113.33
511.47	30169.51
511.64	30515.90
511.82	30555.69
511.99	30714.85
512.17	30558.03
512.34	30677.40
512.51	31047.21
512.69	30962.95
512.86	31136.15
513.04	31119.76
513.21	31475.52
513.38	31761.07
513.56	31264.88
513.73	30902.09
513.90	31386.58
514.08	31087.00
514.25	31735.32
514.43	31992.78
514.60	31850.01
514.77	31997.46
514.95	31903.84
515.12	32063.00
515.29	32105.13
515.47	32091.09
515.64	32191.73
515.81	32299.39
515.99	32439.82
516.16	32732.39
516.33	32861.12
516.51	32704.31
516.68	32414.08
516.85	32739.41
517.03	33350.29
517.20	33092.83
517.37	33240.29
517.54	32985.17
517.72	33031.98
517.89	33392.42
518.06	33469.66
518.24	33523.49
518.41	33528.17
518.58	33369.02
518.75	33303.48
518.93	33443.91
519.10	33584.35
519.27	34206.93
519.45	33596.05
519.62	34139.05
519.79	34206.93
519.96	33991.60
520.14	34089.90
520.31	33853.51
520.48	33919.04
520.65	34323.96
520.83	34658.65
521.00	34904.41
521.17	34768.66
521.34	34660.99
521.52	34866.96
521.69	35180.59
521.86	35161.87
522.03	34962.92
522.20	35564.44
522.38	35386.56
522.55	35164.21
522.72	35519.97
522.89	35075.27
523.07	35782.11
523.24	35447.41
523.41	35508.27
523.58	35782.11
523.75	35887.43
523.92	35751.68
524.10	35749.34
524.27	35915.52
524.44	35833.60
524.61	36020.84
524.78	36114.47
524.96	36133.19
525.13	36191.70
525.30	36407.03
525.47	36364.90
525.64	36428.10
525.81	36472.57
525.98	36818.97
526.16	36577.89
526.33	36732.37
526.50	36727.69
526.67	36865.78
526.84	36512.36
527.01	36865.78
527.18	36828.33
527.36	37537.51
527.53	37230.90
527.70	37345.59
527.87	37759.86
528.04	37043.66
528.21	37284.73
528.38	37551.56
528.55	37755.18
528.72	37200.47
528.89	37837.10
529.07	37652.20
529.24	37275.37
529.41	37872.21
529.58	37319.84
529.75	37593.68
529.92	37862.85
530.09	38288.82
530.26	37904.98
530.43	38052.43
530.60	37748.16
530.77	38010.30
530.94	38288.82
531.11	38230.31
531.28	38532.24
531.46	38129.67
531.63	38220.95
531.80	38314.57
531.97	38429.26
532.14	38679.69
532.31	38572.03
532.48	38993.32
532.65	38632.88
532.82	38810.76
532.99	39040.14
533.16	38602.46
533.33	39112.69
533.50	39386.54
533.67	39321.00
533.84	39152.48
534.01	39033.11
534.18	38731.18
534.35	39606.55
534.52	39402.92
534.69	39714.21
534.86	39796.13
535.03	39662.72
535.20	39634.63
535.37	39636.97
535.54	39470.79
535.71	39349.09
535.88	39959.97
536.05	39522.29
536.22	39864.00
536.38	40179.98
536.55	39667.40
536.72	40112.10
536.89	39938.90
537.06	40187.00
537.23	40074.65
537.40	40226.79
537.57	39969.33
537.74	40109.76
537.91	40603.61
538.08	40561.48
538.25	40467.86
538.42	40126.14
538.59	40992.14
538.75	40502.97
538.92	41003.85
539.09	40835.33
539.26	40538.08
539.43	40912.56
539.60	41020.23
539.77	40884.48
539.94	41181.73
540.11	41408.76
540.28	40931.29
540.44	41116.19
540.61	41242.58
540.78	40734.68
540.95	40940.65
541.12	41116.19
541.29	41092.79
541.46	41525.78
541.62	41476.63
541.79	41780.90
541.96	41312.80
542.13	41366.63
542.30	41301.09
542.47	41900.27
542.63	41441.53
542.80	41607.70
542.97	42405.83
543.14	42195.18
543.31	42115.60
543.48	41895.59
543.64	42330.93
543.81	42153.05
543.98	42478.38
544.15	42429.23
544.32	42820.10
544.48	42969.90
544.65	42457.32
544.82	42223.26
544.99	42314.55
545.16	42635.20
545.32	42597.75
545.49	43021.39
545.66	42997.98
545.83	42962.87
546.00	43423.96
546.16	42817.76
546.33	42658.60
546.50	42419.87
546.67	42986.28
546.83	42642.22
547.00	42707.76
547.17	43005.00
547.34	43208.63
547.50	43356.08
547.67	43852.28
547.84	43473.11
548.00	43264.80
548.17	43983.35
548.34	43412.26
548.51	43927.17
548.67	43557.37
548.84	43601.84
549.01	43606.52
549.18	43693.12
549.34	43681.42
549.51	43871.00
549.68	43948.24
549.84	44023.14
550.01	43995.05
550.18	43658.01
550.34	43969.30
550.51	44271.23
550.68	44032.50
550.84	43732.91
551.01	44165.91
551.18	43763.34
551.34	44198.68
551.51	43896.75
551.68	44423.37
551.84	43856.96
552.01	43847.60
552.18	44271.23
552.34	44105.06
552.51	44273.57
552.68	44516.99
552.84	44292.30
553.01	44823.60
553.18	44608.27
553.34	44657.42
553.51	44643.38
553.67	44500.61
553.84	44715.93
554.01	44694.87
554.17	44795.51
554.34	44982.76
554.51	44825.94
554.67	44961.69
554.84	44734.66
555.00	44800.19
555.17	45106.80
555.33	44959.35
555.50	44837.64
555.67	45036.59
555.83	45160.64
556.00	45275.32
556.16	45392.35
556.33	45242.56
556.50	45263.62
556.66	45088.08
556.83	45083.40
556.99	45570.23
557.16	45254.26
557.32	45696.62
557.49	45560.87
557.65	45038.93
557.82	45345.54
557.98	45357.24
558.15	45338.52
558.32	45289.37
558.48	45338.52
558.65	45394.69
558.81	45909.61
558.98	45432.14
559.14	45282.34
559.31	45595.98
559.47	45652.15
559.64	45731.73
559.80	45689.60
559.97	45689.60
560.13	45361.92
560.30	45846.41
560.46	45670.87
560.63	46134.30
560.79	46108.55
560.96	45972.80
561.12	46033.66
561.29	45940.04
561.45	46094.51
561.61	45951.74
561.78	46138.98
561.94	45827.69
562.11	45956.42
562.27	45741.09
562.44	46024.29
562.60	46169.41
562.77	46506.44
562.93	46017.27
563.10	46216.22
563.26	46012.59
563.42	46593.04
563.59	46356.65
563.75	45914.29
563.92	46300.48
564.08	46330.90
564.24	46712.41
564.41	46209.20
564.57	46108.55
564.74	46106.21
564.90	46396.44
565.07	46138.98
565.23	46625.81
565.39	46536.87
565.56	46384.74
565.72	46422.19
565.88	46614.11
566.05	46543.89
566.21	46604.75
566.38	46902.00
566.54	46904.34
566.70	46476.02
566.87	46469.00
567.03	46319.20
567.19	46499.42
567.36	46590.70
567.52	46618.79
567.68	46979.23
567.85	46770.93
568.01	46883.27
568.17	46791.99
568.34	46752.20
568.50	46663.26
568.66	46836.46
568.83	46745.18
568.99	46724.11
569.15	46925.40
569.32	46691.35
569.48	46525.17
569.64	47175.84
569.81	46899.65
569.97	47255.42
570.13	47098.60
570.30	46579.00
570.46	46773.27
570.62	46967.53
570.78	47119.66
570.95	46885.61
571.11	46983.91
571.27	47075.19
571.43	46689.01
571.60	46803.69
571.76	47203.92
571.92	47075.19
572.09	46796.67
572.25	47091.58
572.41	46447.93
572.57	47021.36
572.74	47168.82
572.90	47243.71
573.06	47147.75
573.22	47103.28
573.38	47136.05
573.55	47449.68
573.71	47550.32
573.87	47276.48
574.03	47304.57
574.20	47482.45
574.36	47033.07
574.52	47505.85
574.68	47166.48
574.84	47047.11
575.01	47349.04
575.17	47449.68
575.33	47292.86
575.49	47510.53
575.65	47330.31
575.82	47718.84
575.98	47522.24
576.14	47529.26
576.30	47821.83
576.46	47255.42
576.62	47171.16
576.79	47468.40
576.95	47049.45
577.11	47360.74
577.27	47334.99
577.43	47351.38
577.59	47234.35
577.75	47136.05
577.92	47058.81
578.08	47150.09
578.24	47618.20
578.40	47459.04
578.56	47016.68
578.72	47517.56
578.88	47421.59
579.04	47257.76
579.21	47042.43
579.37	47093.92
579.53	47770.33
579.69	47276.48
579.85	47381.80
580.01	47566.71
580.17	47325.63
580.33	47571.39
580.49	47760.97
580.65	47557.35
580.82	47599.47
580.98	47456.70
581.14	47552.66
581.30	47374.78
581.46	47222.65
581.62	47643.94
581.78	47306.91
581.94	47409.89
582.10	47370.10
582.26	47599.47
582.42	47718.84
582.58	47870.98
582.74	47648.63
582.90	47721.18
583.06	47789.06
583.22	47107.96
583.38	47683.73
583.54	48009.07
583.70	47557.35
583.86	47779.70
584.02	47681.39
584.18	47927.15
584.34	47796.08
584.50	48378.87
584.66	47487.13
584.82	48058.22
584.98	48112.05
585.14	47812.46
585.30	47470.75
585.46	47583.09
585.62	47688.42
585.78	47447.34
585.94	47435.64
586.10	47409.89
586.26	47522.24
586.42	47547.98
586.58	47835.87
586.74	47999.71
586.90	47356.06
587.06	47564.37
587.22	48009.07
587.38	47782.04
587.54	47959.92
587.70	48254.82
587.86	47908.43
588.02	48130.78
588.18	47363.08
588.34	47576.07
588.49	47948.21
588.65	47257.76
588.81	47833.53
588.97	47749.27
589.13	47737.57
589.29	47728.20
589.45	48151.84
589.61	48032.47
589.77	48182.27
589.93	47847.57
590.08	47950.56
