SpectraSuite Data File
++++++++++++++++++++++++++++++++++++
Date: Fri Oct 25 11:22:49 EDT 2013
User: price-jones
Dark Spectrum Present: No
Reference Spectrum Present: No
Number of Sampled Component Spectra: 1
Spectrometers: USB2+H05261
Integration Time (usec): 100000 (USB2+H05261)
Spectra Averaged: 1 (USB2+H05261)
Boxcar Smoothing: 0 (USB2+H05261)
Correct for Electrical Dark: No (USB2+H05261)
Strobe/Lamp Enabled: No (USB2+H05261)
Correct for Detector Non-linearity: No (USB2+H05261)
Correct for Stray Light: No (USB2+H05261)
Number of Pixels in Processed Spectrum: 2048
>>>>>Begin Processed Spectral Data<<<<<
365.73	222.35
365.92	222.35
366.12	222.35
366.32	194.26
366.52	156.82
366.72	135.75
366.91	95.96
367.11	173.20
367.31	170.86
367.51	140.43
367.70	135.75
367.90	161.50
368.10	124.05
368.30	156.82
368.49	70.22
368.69	124.05
368.89	156.82
369.09	100.64
369.28	161.50
369.48	156.82
369.68	168.52
369.87	175.54
370.07	189.58
370.27	250.44
370.47	308.95
370.66	582.79
370.86	648.33
371.06	702.16
371.25	723.23
371.45	575.77
371.65	795.78
371.84	704.50
372.04	662.37
372.24	723.23
372.44	765.36
372.63	688.12
372.83	798.12
373.03	758.33
373.22	734.93
373.42	734.93
373.62	688.12
373.81	763.01
374.01	847.27
374.21	727.91
374.40	805.14
374.60	858.98
374.79	777.06
374.99	791.10
375.19	835.57
375.38	837.91
375.58	830.89
375.78	931.53
375.97	840.25
376.17	952.60
376.37	805.14
376.56	877.70
376.76	922.17
376.95	919.83
377.15	929.19
377.35	875.36
377.54	901.11
377.74	910.47
377.93	905.79
378.13	868.34
378.33	912.81
378.52	870.68
378.72	842.59
378.91	922.17
379.11	903.45
379.31	945.58
379.50	917.49
379.70	968.98
379.89	898.77
380.09	873.02
380.28	1039.20
380.48	952.60
380.68	957.28
380.87	922.17
381.07	943.24
381.26	1039.20
381.46	1032.18
381.65	1039.20
381.85	1036.86
382.04	1050.90
382.24	1036.86
382.43	1008.77
382.63	1006.43
382.83	1086.01
383.02	1053.24
383.22	1139.84
383.41	1086.01
383.61	1081.33
383.80	1196.01
384.00	1139.84
384.19	1104.73
384.39	1167.93
384.58	1069.62
384.78	1165.59
384.97	1205.38
385.17	1177.29
385.36	1132.82
385.56	1172.61
385.75	1177.29
385.95	1123.46
386.14	1282.61
386.34	1177.29
386.53	1240.48
386.72	1144.52
386.92	1135.16
387.11	1196.01
387.31	1238.14
387.50	1219.42
387.70	1235.80
387.89	1291.98
388.09	1266.23
388.28	1306.02
388.48	1233.46
388.67	1263.89
388.86	1369.21
389.06	1324.74
389.25	1427.73
389.45	1341.13
389.64	1357.51
389.84	1411.34
390.03	1301.34
390.22	1387.94
390.42	1416.02
390.61	1446.45
390.81	1348.15
391.00	1289.64
391.19	1458.15
391.39	1446.45
391.58	1310.70
391.78	1366.87
391.97	1437.09
392.16	1437.09
392.36	1439.43
392.55	1448.79
392.75	1448.79
392.94	1528.37
393.13	1479.22
393.33	1521.35
393.52	1547.09
393.71	1575.18
393.91	1565.82
394.10	1577.52
394.29	1526.03
394.49	1591.56
394.68	1675.82
394.88	1572.84
395.07	1652.42
395.26	1710.93
395.46	1645.40
395.65	1640.72
395.84	1675.82
396.04	1797.53
396.23	1785.83
396.42	1685.19
396.62	1750.72
396.81	1746.04
397.00	1755.40
397.19	1776.47
397.39	1795.19
397.58	1795.19
397.77	1830.30
397.97	1781.15
398.16	1839.66
398.35	1923.92
398.55	1839.66
398.74	1930.94
398.93	1905.20
399.12	1937.96
399.32	1881.79
399.51	1970.73
399.70	1937.96
399.90	1963.71
400.09	2057.33
400.28	1996.48
400.47	2069.03
400.67	2094.78
400.86	2019.88
401.05	2043.29
401.24	2085.42
401.44	2111.16
401.63	2104.14
401.82	2087.76
402.01	2169.68
402.21	2260.96
402.40	2275.00
402.59	2104.14
402.78	2115.84
402.97	2153.29
403.17	2324.15
403.36	2317.13
403.55	2394.37
403.74	2370.96
403.93	2338.20
404.13	2445.86
404.32	2361.60
404.51	2291.38
404.70	2448.20
404.89	2436.50
405.09	2457.56
405.28	2464.58
405.47	2487.99
405.66	2567.57
405.85	2513.74
406.05	2476.29
406.24	2530.12
406.43	2532.46
406.62	2574.59
406.81	2698.64
407.00	2562.89
407.20	2443.52
407.39	2567.57
407.58	2754.81
407.77	2710.34
407.96	2605.02
408.15	2780.56
408.34	2780.56
408.54	2846.09
408.73	2850.77
408.92	2925.67
409.11	2970.14
409.30	2925.67
409.49	2848.43
409.68	2918.65
409.87	2928.01
410.07	2960.78
410.26	3122.27
410.45	3089.51
410.64	3136.32
410.83	3229.94
411.02	3141.00
411.21	3166.74
411.40	3073.12
411.59	3190.15
411.78	3131.64
411.98	3201.85
412.17	3162.06
412.36	3349.31
412.55	3218.24
412.74	3379.73
412.93	3403.14
413.12	3342.28
413.31	3648.90
413.50	3499.10
413.69	3508.46
413.88	3557.61
414.07	3569.32
414.26	3609.11
414.45	3730.81
414.64	3756.56
414.83	3794.01
415.02	3756.56
415.22	3707.41
415.41	3833.80
415.60	3819.75
415.79	3922.74
415.98	3988.27
416.17	3971.89
416.36	4007.00
416.55	3964.87
416.74	4180.20
416.93	3997.64
417.12	4168.49
417.31	4276.16
417.50	4227.01
417.69	4337.01
417.88	4285.52
418.07	4250.41
418.26	4283.18
418.45	4404.89
418.64	4531.28
418.83	4402.55
419.02	4507.87
419.21	4601.49
419.39	4524.26
419.58	4451.70
419.77	4367.44
419.96	4678.73
420.15	4760.65
420.34	4641.28
420.53	4552.34
420.72	4571.07
420.91	4503.19
421.10	4676.39
421.29	4739.58
421.48	4662.35
421.67	4826.18
421.86	4713.84
422.05	4980.66
422.24	4856.61
422.43	5043.85
422.61	4931.51
422.80	5053.22
422.99	4891.72
423.18	4973.64
423.37	4994.70
423.56	5025.13
423.75	4760.65
423.94	4903.42
424.13	4615.54
424.32	4751.29
424.50	4952.57
424.69	5186.63
424.88	5170.24
425.07	5006.41
425.26	4966.62
425.45	5013.43
425.64	4964.28
425.83	5097.69
426.01	5100.03
426.20	5135.14
426.39	4947.89
426.58	5074.28
426.77	5062.58
426.96	5139.82
427.15	5121.09
427.33	5256.84
427.52	5270.89
427.71	5392.59
427.90	5390.25
428.09	5324.72
428.28	5500.26
428.46	5394.93
428.65	5296.63
428.84	5406.64
429.03	5455.79
429.22	5462.81
429.40	5275.57
429.59	5617.29
429.78	5296.63
429.97	5284.93
430.16	5540.05
430.34	5540.05
430.53	5657.07
430.72	5715.59
430.91	5619.63
431.10	5666.44
431.28	5673.46
431.47	5909.85
431.66	5909.85
431.85	5846.66
432.03	5785.80
432.22	5961.34
432.41	5825.59
432.60	5912.19
432.79	5937.94
432.97	5902.83
433.16	6054.97
433.35	6071.35
433.54	6115.82
433.72	6069.01
433.91	6143.91
434.10	6092.41
434.28	6115.82
434.47	6235.19
434.66	6150.93
434.85	6251.57
435.03	6452.86
435.22	6352.21
435.41	6548.82
435.59	6333.49
435.78	6427.11
435.97	6366.26
436.16	6520.73
436.34	6455.20
436.53	6520.73
436.72	6733.72
436.90	6509.03
437.09	6703.29
437.28	6565.20
437.46	6703.29
437.65	6691.59
437.84	6752.45
438.02	6773.51
438.21	6911.60
438.40	6724.36
438.58	6984.16
438.77	7150.34
438.96	7066.08
439.14	7037.99
439.33	7169.06
439.52	7431.20
439.70	7243.96
439.89	7468.65
440.08	7272.04
440.26	7363.33
440.45	7428.86
440.63	7372.69
440.82	7541.21
441.01	7585.68
441.19	7630.15
441.38	7632.49
441.57	7585.68
441.75	7953.14
441.94	8140.38
442.12	8152.09
442.31	8135.70
442.50	8058.46
442.68	7997.61
442.87	8049.10
443.05	8084.21
443.24	8156.77
443.43	8030.38
443.61	8116.98
443.80	8489.12
443.98	8105.28
444.17	7964.84
444.35	8224.64
444.54	8404.86
444.73	8355.71
444.91	8257.41
445.10	8304.22
445.28	8273.79
445.47	8107.62
445.65	8435.29
445.84	8500.83
446.02	8601.47
446.21	8381.46
446.39	8320.60
446.58	8535.93
446.77	8596.79
446.95	8322.94
447.14	8482.10
447.32	8610.83
447.51	8451.67
447.69	8468.06
447.88	8709.13
448.06	8552.32
448.25	8634.24
448.43	8641.26
448.62	8519.55
448.80	8381.46
448.99	8816.80
449.17	8760.63
449.36	8531.25
449.54	8805.10
449.73	9184.26
449.91	9062.55
450.10	8990.00
450.28	9188.94
450.46	9151.49
450.65	9139.79
450.83	9238.09
451.02	9160.86
451.20	9170.22
451.39	9348.10
451.57	9188.94
451.76	8985.32
451.94	9217.03
452.13	9280.22
452.31	9270.86
452.49	9327.03
452.68	9425.34
452.86	9352.78
453.05	9551.73
453.23	9497.89
453.42	9320.01
453.60	9413.63
453.78	9668.75
453.97	9481.51
454.15	9488.53
454.34	9390.23
454.52	9767.06
454.70	9734.29
454.89	9799.82
455.07	9891.10
455.26	9837.27
455.44	10052.60
455.62	9919.19
455.81	10162.61
455.99	10017.49
456.17	10307.72
456.36	10221.12
456.54	10064.30
456.73	10342.83
456.91	10509.01
457.09	10619.01
457.28	10661.14
457.46	10057.28
457.64	10647.10
457.83	10480.92
458.01	10527.73
458.19	10832.00
458.38	10789.87
458.56	10729.02
458.74	10799.23
458.93	10839.02
459.11	10623.69
459.29	10846.04
459.48	10729.02
459.66	10916.26
459.84	10974.77
460.03	11176.06
460.21	11009.88
460.39	11084.78
460.57	11063.71
460.76	11187.76
460.94	11288.40
461.12	10981.79
461.31	11293.08
461.49	11215.85
461.67	11201.80
461.85	11515.44
462.04	11370.32
462.22	11723.74
462.40	11543.52
462.59	11351.60
462.77	11740.13
462.95	11517.78
463.13	11782.26
463.32	11812.68
463.50	11829.07
463.68	11700.34
463.86	11854.81
464.05	11655.87
464.23	11749.49
464.41	11950.78
464.59	11763.53
464.78	12170.79
464.96	12074.82
465.14	11770.55
465.32	12245.68
465.50	12102.91
465.69	12025.67
465.87	12070.14
466.05	12191.85
466.23	12236.32
466.41	12280.79
466.60	12582.72
466.78	12301.86
466.96	12554.63
467.14	12383.77
467.32	12592.08
467.51	12585.06
467.69	12173.13
467.87	12348.67
468.05	12620.17
468.23	12425.90
468.41	12542.93
468.60	12772.30
468.78	12798.05
468.96	12587.40
469.14	12999.34
469.32	13125.72
469.50	12734.85
469.69	12940.82
469.87	13167.85
470.05	13238.07
470.23	13177.22
470.41	13205.30
470.59	13238.07
470.77	13200.62
470.95	13523.62
471.14	13521.27
471.32	13263.82
471.50	13600.85
471.68	13610.22
471.86	13905.12
472.04	13855.97
472.22	14045.55
472.40	13848.95
472.58	13965.98
472.77	13862.99
472.95	14284.29
473.13	14576.86
473.31	14012.79
473.49	14359.19
473.67	14293.65
473.85	14574.52
474.03	14728.99
474.21	14480.89
474.39	14773.46
474.57	14682.18
474.75	15073.05
474.93	14984.11
475.12	15042.62
475.30	15232.21
475.48	15087.09
475.66	15098.80
475.84	15295.40
476.02	15599.67
476.20	15550.52
476.38	15653.50
476.56	16142.67
476.74	16194.17
476.92	15985.86
477.10	15843.09
477.28	16196.51
477.46	16659.93
477.64	16355.66
477.82	16624.83
478.00	17106.98
478.18	16610.78
478.36	17139.74
478.54	17343.37
478.72	16954.84
478.90	17305.92
479.08	17741.26
479.26	17488.48
479.44	17914.46
479.62	17991.70
479.80	18024.47
479.98	18478.53
480.16	18618.96
480.34	18621.30
480.52	18909.19
480.70	18642.37
480.88	18398.95
481.06	18789.82
481.24	19311.76
481.41	19192.39
481.59	19620.71
481.77	19276.65
481.95	19503.68
482.13	19990.52
482.31	19789.23
482.49	20259.68
482.67	20432.88
482.85	20744.17
483.03	20851.83
483.21	20828.43
483.39	21123.33
483.57	21018.01
483.74	21371.43
483.92	21759.96
484.10	21003.97
484.28	21820.81
484.46	22162.53
484.64	22492.55
484.82	21614.85
485.00	22462.12
485.18	22801.50
485.35	23250.88
485.53	23080.02
485.71	22974.70
485.89	23768.14
486.07	23536.43
486.25	23208.75
486.43	23800.91
486.61	23901.55
486.78	24151.99
486.96	24474.98
487.14	24830.74
487.32	25088.20
487.50	24924.36
487.68	25530.56
487.85	25242.68
488.03	25357.36
488.21	25921.43
488.39	26270.17
488.57	26171.87
488.75	26120.38
488.92	26764.03
489.10	26651.68
489.28	26859.99
489.46	27328.10
489.64	27655.77
489.81	28002.17
489.99	27789.18
490.17	27843.01
490.35	28339.21
490.53	28348.57
490.70	28650.50
490.88	28512.41
491.06	28912.64
491.24	29046.05
491.41	29111.58
491.59	29195.84
491.77	29539.90
491.95	29766.93
492.13	29687.36
492.30	30256.11
492.48	30167.16
492.66	30625.91
492.84	30513.56
493.01	31124.44
493.19	30714.85
493.37	31201.68
493.54	31367.86
493.72	31578.51
493.90	31042.53
494.08	31587.87
494.25	32215.13
494.43	32187.05
494.61	32297.05
494.79	32849.42
494.96	32517.06
495.14	32856.44
495.32	33354.97
495.49	33474.34
495.67	33425.19
495.85	33579.67
496.02	33809.04
496.20	34391.83
496.38	33996.28
496.55	34244.38
496.73	34567.37
496.91	34902.07
497.09	34836.53
497.26	35234.42
497.44	35555.08
497.62	35065.91
497.79	36327.45
497.97	35599.55
498.14	36318.09
498.32	36566.19
498.50	36369.58
498.67	36608.32
498.85	36933.65
499.03	37041.32
499.20	36898.55
499.38	36421.08
499.56	37186.43
499.73	37273.03
499.91	37710.71
500.08	37827.74
500.26	37673.26
500.44	37624.11
500.61	38204.56
500.79	37792.63
500.97	38455.00
501.14	38937.15
501.32	38532.24
501.49	38686.71
501.67	38637.56
501.84	39342.06
502.02	39189.93
502.20	39229.72
502.37	39370.15
502.55	39311.64
502.72	39571.44
502.90	39929.54
503.07	39665.06
503.25	39728.25
503.43	40453.82
503.60	40332.11
503.78	40725.32
503.95	40837.67
504.13	40811.92
504.30	40594.25
504.48	40886.82
504.65	41148.96
504.83	41411.10
505.01	41397.06
505.18	41144.28
505.36	41918.99
505.53	41296.41
505.71	41846.44
505.88	42036.02
506.06	41862.82
506.23	42234.97
506.41	41944.74
506.58	42459.66
506.76	42799.04
506.93	42810.74
507.11	42574.34
507.28	42815.42
507.46	43164.16
507.63	43005.00
507.81	43536.30
507.98	43412.26
508.16	43573.75
508.33	43735.25
508.50	43594.82
508.68	43709.50
508.85	44570.82
509.03	44203.36
509.20	44191.65
509.38	44563.80
509.55	44556.78
509.73	44383.58
509.90	44547.42
510.08	45076.38
510.25	44666.78
510.42	44844.66
510.60	45052.97
510.77	44964.03
510.95	45345.54
511.12	45207.45
511.30	45560.87
511.47	45928.33
511.64	45911.95
511.82	46192.81
511.99	46267.71
512.17	46071.10
512.34	46085.15
512.51	46309.84
512.69	46607.09
512.86	46499.42
513.04	46852.84
513.21	46920.72
513.38	46918.38
513.56	47014.34
513.73	47103.28
513.90	46946.47
514.08	46939.44
514.25	47716.50
514.43	47693.10
514.60	47648.63
514.77	47536.28
514.95	47980.98
515.12	47646.29
515.29	47728.20
515.47	47910.77
515.64	48605.91
515.81	48559.09
515.99	48465.47
516.16	48652.72
516.33	48371.85
516.51	48924.22
516.68	48446.75
516.85	48891.45
517.03	49158.27
517.20	49020.18
517.37	48751.02
517.54	49001.46
517.72	49146.57
517.89	49558.50
518.06	49357.22
518.24	49441.48
518.41	49600.63
518.58	49691.91
518.75	49539.78
518.93	50000.86
519.10	49684.89
519.27	49916.61
519.45	49649.78
519.62	50234.92
519.79	50447.91
519.96	50153.00
520.14	50255.98
520.31	50267.69
520.48	50653.87
520.65	50506.42
520.83	50464.29
521.00	50684.30
521.17	50817.71
521.34	50836.44
521.52	51121.98
521.69	50810.69
521.86	51253.05
522.03	51082.19
522.20	51702.43
522.38	51707.12
522.55	51594.77
522.72	51529.23
522.89	51686.05
523.07	51842.87
523.24	51620.52
523.41	51948.19
523.58	51592.43
523.75	52163.52
523.92	52062.88
524.10	51934.15
524.27	52097.98
524.44	52336.72
524.61	52341.40
524.78	52196.29
524.96	52420.98
525.13	52322.68
525.30	52814.19
525.47	52603.54
525.64	52615.24
525.81	52638.65
525.98	52800.15
526.16	53024.84
526.33	52472.47
526.50	53118.46
526.67	53013.13
526.84	53125.48
527.01	53193.36
527.18	53235.48
527.36	53027.18
527.53	53183.99
527.70	53497.62
527.87	53661.46
528.04	53282.30
528.21	53696.57
528.38	53565.50
528.55	53694.23
528.72	53404.00
528.89	53743.38
529.07	53687.21
529.24	53584.22
529.41	54031.27
529.58	54096.80
529.75	53893.18
529.92	53869.77
530.09	53977.43
530.26	54288.73
530.43	54005.52
530.60	54108.50
530.77	54246.60
530.94	54246.60
531.11	54134.25
531.28	54277.02
531.46	54323.83
531.63	54291.07
531.80	54567.25
531.97	54780.24
532.14	54688.96
532.31	54976.84
532.48	54791.94
532.65	54918.33
532.82	54745.13
532.99	54932.37
533.16	54810.67
533.33	54857.48
533.50	55433.25
533.67	55033.02
533.84	54878.54
534.01	55014.29
534.18	55299.84
534.35	55318.56
534.52	55246.00
534.69	55440.27
534.86	55199.19
535.03	55187.49
535.20	55302.18
535.37	55423.89
535.54	55398.14
535.71	55281.11
535.88	55346.65
536.05	55566.66
536.22	56100.30
536.38	55646.24
536.55	55620.49
536.72	55779.65
536.89	55718.79
537.06	55966.89
537.23	55861.57
537.40	55718.79
537.57	55863.91
537.74	55948.17
537.91	56175.20
538.08	56086.26
538.25	55721.13
538.42	56100.30
538.59	56320.31
538.75	56013.70
538.92	56090.94
539.09	56446.70
539.26	56371.80
539.43	56409.25
539.60	56247.75
539.77	56271.16
539.94	56554.36
540.11	56612.88
540.28	56835.23
540.44	56573.09
540.61	56652.67
540.78	56343.72
540.95	56381.16
541.12	56456.06
541.29	56456.06
541.46	56549.68
541.62	56743.95
541.79	56732.25
541.96	56704.16
542.13	56736.93
542.30	56662.03
542.47	56802.46
542.63	56868.00
542.80	57315.04
542.97	57371.21
543.14	57240.14
543.31	57387.60
543.48	57305.68
543.64	57750.38
543.81	57600.58
543.98	57544.41
544.15	57492.92
544.32	57551.43
544.48	57607.61
544.65	57422.70
544.82	57455.47
544.99	57457.81
545.16	57900.17
545.32	57631.01
545.49	57844.00
545.66	57867.40
545.83	58014.86
546.00	57776.12
546.16	57743.36
546.33	57773.78
546.50	57748.04
546.67	57939.96
546.83	57563.14
547.00	57741.02
547.17	58047.63
547.34	57968.05
547.50	57895.49
547.67	58384.66
547.84	58059.33
548.00	58211.46
548.17	58351.90
548.34	58387.00
548.51	58375.30
548.67	58199.76
548.84	58272.32
549.01	58108.48
549.18	58489.99
549.34	58370.62
549.51	58436.16
549.68	58672.55
549.84	58604.67
550.01	58361.26
550.18	58445.52
550.34	58576.59
550.51	58504.03
550.68	58607.01
550.84	58417.43
551.01	58805.96
551.18	58585.95
551.34	58611.70
551.51	58759.15
551.68	58665.53
551.84	58735.74
552.01	58651.48
552.18	58784.90
552.34	58768.51
552.51	59044.69
552.68	58632.76
552.84	59025.97
553.01	59004.91
553.18	59018.95
553.34	58911.28
553.51	58866.81
553.67	59119.59
553.84	59171.08
554.01	59124.27
554.17	59121.93
554.34	59028.31
554.51	59107.89
554.67	59180.45
554.84	59135.98
555.00	59145.34
555.17	59133.63
555.33	59161.72
555.50	59171.08
555.67	59236.62
555.83	59295.13
556.00	59231.94
556.16	59580.68
556.33	59498.76
556.50	59363.01
556.66	59433.22
556.83	59311.52
556.99	59611.10
557.16	59732.81
557.32	59721.11
557.49	59821.75
557.65	59475.35
557.82	59468.33
557.98	59430.88
558.15	59480.03
558.32	59721.11
558.48	59618.13
558.65	59732.81
558.81	59653.23
558.98	59980.91
559.14	59814.73
559.31	59763.24
559.47	59903.67
559.64	59913.03
559.80	59847.50
559.97	59739.83
560.13	59807.71
560.30	59812.39
560.46	59725.79
560.63	60025.38
560.79	59882.61
560.96	60104.96
561.12	59962.18
561.29	59948.14
561.45	59943.46
561.61	59985.59
561.78	60069.85
561.94	59913.03
562.11	59793.67
562.27	60039.42
562.44	60161.13
562.60	60016.02
562.77	60210.28
562.93	60114.32
563.10	60243.05
563.26	60088.57
563.42	60355.39
563.59	60250.07
563.75	60207.94
563.92	60168.15
564.08	60081.55
564.24	60245.39
564.41	60327.31
564.57	60432.63
564.74	60392.84
564.90	60212.62
565.07	60231.35
565.23	60285.18
565.39	60530.93
565.56	60275.82
565.72	60364.76
565.88	60381.14
566.05	60149.43
566.21	60355.39
566.38	60367.10
566.54	60355.39
566.70	60456.04
566.87	60584.77
567.03	60221.98
567.19	60547.32
567.36	60413.91
567.52	60507.53
567.68	60711.16
567.85	60687.75
568.01	60521.57
568.17	60420.93
568.34	60441.99
568.50	60652.64
568.66	60507.53
568.83	60692.43
568.99	60392.84
569.15	60589.45
569.32	60575.40
569.48	60542.64
569.64	60718.18
569.81	60343.69
569.97	60500.51
570.13	60683.07
570.30	60526.25
570.46	60514.55
570.62	60580.09
570.78	60640.94
570.95	60472.42
571.11	60608.17
571.27	60692.43
571.43	60666.69
571.60	60846.91
571.76	60851.59
571.92	60741.58
572.09	60753.29
572.25	60940.53
572.41	60582.43
572.57	60715.84
572.74	61111.39
572.90	60760.31
573.06	60832.86
573.22	60825.84
573.38	60898.40
573.55	60680.73
573.71	60893.72
573.87	60828.18
574.03	60547.32
574.20	61097.34
574.36	60687.75
574.52	60867.97
574.68	60732.22
574.84	60921.80
575.01	61062.24
575.17	60924.14
575.33	61001.38
575.49	60797.76
575.65	61118.41
575.82	60654.98
575.98	60947.55
576.14	61132.45
576.30	60973.30
576.46	60886.70
576.62	60985.00
576.79	61006.06
576.95	60924.14
577.11	60942.87
577.27	61099.68
577.43	60893.72
577.59	60811.80
577.75	60804.78
577.92	60807.12
578.08	60823.50
578.24	61097.34
578.40	61038.83
578.56	61080.96
578.72	60872.65
578.88	61127.77
579.04	61080.96
579.21	61048.19
579.37	61116.07
579.53	61329.06
579.69	60835.20
579.85	60912.44
580.01	61130.11
580.17	60945.21
580.33	61062.24
580.49	61209.69
580.65	60961.59
580.82	61010.74
580.98	60879.67
581.14	60961.59
581.30	61181.60
581.46	60924.14
581.62	61289.27
581.78	61048.19
581.94	61221.39
582.10	61041.17
582.26	60905.42
582.42	61160.54
582.58	61118.41
582.74	60952.23
582.90	61179.26
583.06	61071.60
583.22	60947.55
583.38	61169.90
583.54	61055.21
583.70	61078.62
583.86	61095.00
584.02	60781.37
584.18	61153.52
584.34	61216.71
584.50	61134.79
584.66	61104.37
584.82	61043.51
584.98	61289.27
585.14	61078.62
585.30	61141.81
585.46	61130.11
585.62	61123.09
585.78	61293.95
585.94	61230.75
586.10	61385.23
586.26	61155.86
586.42	61125.43
586.58	61282.25
586.74	61158.20
586.90	61097.34
587.06	61221.39
587.22	61223.73
587.38	61209.69
587.54	61378.21
587.70	61403.95
587.86	61275.22
588.02	61132.45
588.18	61322.04
588.34	61310.33
588.49	61106.71
