SpectraSuite Data File
++++++++++++++++++++++++++++++++++++
Date: Fri Oct 25 11:26:08 EDT 2013
User: price-jones
Dark Spectrum Present: No
Reference Spectrum Present: No
Number of Sampled Component Spectra: 1
Spectrometers: USB2+H05261
Integration Time (usec): 100000 (USB2+H05261)
Spectra Averaged: 1 (USB2+H05261)
Boxcar Smoothing: 0 (USB2+H05261)
Correct for Electrical Dark: No (USB2+H05261)
Strobe/Lamp Enabled: No (USB2+H05261)
Correct for Detector Non-linearity: No (USB2+H05261)
Correct for Stray Light: No (USB2+H05261)
Number of Pixels in Processed Spectrum: 2048
>>>>>Begin Processed Spectral Data<<<<<
365.73	306.61
365.92	306.61
366.12	306.61
366.32	105.32
366.52	142.77
366.72	114.69
366.91	81.92
367.11	128.73
367.31	182.56
367.51	114.69
367.70	114.69
367.90	205.97
368.10	173.20
368.30	65.54
368.49	194.26
368.69	147.45
368.89	177.88
369.09	245.76
369.28	110.01
369.48	126.39
369.68	175.54
369.87	128.73
370.07	231.71
370.27	208.31
370.47	297.25
370.66	585.13
370.86	655.35
371.06	751.31
371.25	711.52
371.45	648.33
371.65	765.36
371.84	744.29
372.04	688.12
372.24	730.25
372.44	753.65
372.63	709.18
372.83	683.44
373.03	777.06
373.22	681.10
373.42	702.16
373.62	826.21
373.81	823.87
374.01	835.57
374.21	842.59
374.40	770.04
374.60	840.25
374.79	868.34
374.99	816.85
375.19	828.55
375.38	919.83
375.58	887.06
375.78	851.96
375.97	954.94
376.17	952.60
376.37	922.17
376.56	856.64
376.76	858.98
376.95	786.42
377.15	959.62
377.35	896.43
377.54	908.13
377.74	931.53
377.93	889.40
378.13	931.53
378.33	901.11
378.52	863.66
378.72	929.19
378.91	938.55
379.11	978.34
379.31	924.51
379.50	961.96
379.70	987.71
379.89	1078.99
380.09	1067.28
380.28	1008.77
380.48	999.41
380.68	954.94
380.87	1001.75
381.07	1041.54
381.26	1064.94
381.46	966.64
381.65	1053.24
381.85	1008.77
382.04	1039.20
382.24	1004.09
382.43	1083.67
382.63	1043.88
382.83	1057.92
383.02	1188.99
383.22	1076.65
383.41	1132.82
383.61	980.68
383.80	1153.88
384.00	1078.99
384.19	1128.14
384.39	1226.44
384.58	1151.54
384.78	1156.22
384.97	1114.10
385.17	1109.41
385.36	1118.78
385.56	1233.46
385.75	1200.69
385.95	1198.35
386.14	1247.51
386.34	1219.42
386.53	1146.86
386.72	1177.29
386.92	1235.80
387.11	1226.44
387.31	1303.68
387.50	1214.74
387.70	1186.65
387.89	1277.93
388.09	1287.29
388.28	1207.72
388.48	1313.04
388.67	1266.23
388.86	1366.87
389.06	1252.19
389.25	1366.87
389.45	1296.66
389.64	1282.61
389.84	1301.34
390.03	1439.43
390.22	1458.15
390.42	1357.51
390.61	1343.47
390.81	1399.64
391.00	1371.55
391.19	1425.39
391.39	1373.89
391.58	1462.83
391.78	1502.62
391.97	1455.81
392.16	1495.60
392.36	1565.82
392.55	1497.94
392.75	1458.15
392.94	1521.35
393.13	1504.96
393.33	1418.36
393.52	1579.86
393.71	1624.33
393.91	1528.37
394.10	1523.69
394.29	1584.54
394.49	1577.52
394.68	1535.39
394.88	1600.93
395.07	1720.29
395.26	1591.56
395.46	1727.32
395.65	1783.49
395.84	1689.87
396.04	1710.93
396.23	1746.04
396.42	1760.08
396.62	1764.76
396.81	1680.50
397.00	1680.50
397.19	1842.00
397.39	1813.92
397.58	1846.68
397.77	1895.83
397.97	1818.60
398.16	1881.79
398.35	1881.79
398.55	1837.32
398.74	1778.81
398.93	1963.71
399.12	1959.03
399.32	1827.96
399.51	1973.07
399.70	2003.50
399.90	1912.22
400.09	2026.90
400.28	2139.25
400.47	1956.69
400.67	2106.48
400.86	2092.44
401.05	2017.54
401.24	2024.56
401.44	2052.65
401.63	2139.25
401.82	2083.08
402.01	2111.16
402.21	2118.18
402.40	2165.00
402.59	2188.40
402.78	2162.66
402.97	2249.25
403.17	2183.72
403.36	2270.32
403.55	2293.72
403.74	2366.28
403.93	2314.79
404.13	2338.20
404.32	2361.60
404.51	2377.98
404.70	2403.73
404.89	2368.62
405.09	2387.35
405.28	2597.99
405.47	2499.69
405.66	2565.23
405.85	2523.10
406.05	2530.12
406.24	2677.57
406.43	2457.56
406.62	2588.63
406.81	2621.40
407.00	2551.18
407.20	2635.44
407.39	2637.78
407.58	2750.13
407.77	2736.09
407.96	2881.20
408.15	2799.28
408.34	2775.88
408.54	2892.90
408.73	2904.60
408.92	2724.38
409.11	2841.41
409.30	2836.73
409.49	2974.82
409.68	2881.20
409.87	2904.60
410.07	3061.42
410.26	2967.80
410.45	2951.42
410.64	3002.91
410.83	2991.20
411.02	3084.83
411.21	3038.02
411.40	3068.44
411.59	3187.81
411.78	3157.38
411.98	3169.09
412.17	3248.66
412.36	3199.51
412.55	3400.80
412.74	3356.33
412.93	3363.35
413.12	3379.73
413.31	3487.40
413.50	3403.14
413.69	3531.87
413.88	3454.63
414.07	3545.91
414.26	3602.08
414.45	3695.71
414.64	3599.74
414.83	3719.11
415.02	3646.55
415.22	3896.99
415.41	3922.74
415.60	3911.04
415.79	3904.01
415.98	3964.87
416.17	3953.16
416.36	3988.27
416.55	3960.19
416.74	4138.07
416.93	3974.23
417.12	4109.98
417.31	4009.34
417.50	4222.33
417.69	4227.01
417.88	4287.86
418.07	4311.27
418.26	4290.20
418.45	4428.29
418.64	4397.87
418.83	4346.37
419.02	4477.44
419.21	4528.94
419.39	4496.17
419.58	4341.69
419.77	4442.34
419.96	4465.74
420.15	4533.62
420.34	4416.59
420.53	4643.62
420.72	4512.55
420.91	4648.30
421.10	4695.11
421.29	4865.97
421.48	4568.73
421.67	4669.37
421.86	4741.93
422.05	4823.84
422.24	4695.11
422.43	4809.80
422.61	4945.55
422.80	4819.16
422.99	5025.13
423.18	4896.40
423.37	5144.50
423.56	4870.65
423.75	4917.47
423.94	4873.00
424.13	4514.89
424.32	4770.01
424.50	5146.84
424.69	5097.69
424.88	5064.92
425.07	4873.00
425.26	4828.53
425.45	4744.27
425.64	4870.65
425.83	4887.04
426.01	5060.24
426.20	5095.35
426.39	5041.51
426.58	4891.72
426.77	4933.85
426.96	5200.67
427.15	4964.28
427.33	5203.01
427.52	5259.18
427.71	5219.39
427.90	5146.84
428.09	5327.06
428.28	5448.77
428.46	5256.84
428.65	5364.51
428.84	5469.83
429.03	5451.11
429.22	5336.42
429.40	5526.00
429.59	5619.63
429.78	5479.19
429.97	5188.97
430.16	5500.26
430.34	5727.29
430.53	5849.00
430.72	5650.05
430.91	5621.97
431.10	5643.03
431.28	5664.10
431.47	5760.06
431.66	5682.82
431.85	5696.86
432.03	5811.55
432.22	5818.57
432.41	5797.51
432.60	5783.46
432.79	5933.26
432.97	5886.45
433.16	6036.24
433.35	5715.59
433.54	6155.61
433.72	6099.44
433.91	6120.50
434.10	6174.33
434.28	6047.94
434.47	6221.14
434.66	6249.23
434.85	6146.25
435.03	6286.68
435.22	6300.72
435.41	6396.68
435.59	6314.77
435.78	6387.32
435.97	6403.71
436.16	6347.53
436.34	6230.51
436.53	6511.37
436.72	6642.44
436.90	6417.75
437.09	6544.14
437.28	6551.16
437.46	6593.29
437.65	6635.42
437.84	6785.21
438.02	6590.95
438.21	6635.42
438.40	6707.98
438.58	6747.76
438.77	6855.43
438.96	6949.05
439.14	6967.77
439.33	6986.50
439.52	7115.23
439.70	7131.61
439.89	7398.43
440.08	7077.78
440.26	7447.58
440.45	7290.77
440.63	7368.01
440.82	7618.44
441.01	7410.14
441.19	7651.21
441.38	7676.96
441.57	7590.36
441.75	7854.84
441.94	7894.63
442.12	7847.82
442.31	8070.17
442.50	7955.48
442.68	7929.74
442.87	8011.65
443.05	8002.29
443.24	8124.00
443.43	8081.87
443.61	8198.90
443.80	8388.48
443.98	7918.03
444.17	7967.18
444.35	8112.30
444.54	8304.22
444.73	8180.17
444.91	8229.32
445.10	8416.57
445.28	8191.88
445.47	8234.00
445.65	8243.37
445.84	8346.35
446.02	8311.24
446.21	8386.14
446.39	8437.63
446.58	8290.18
446.77	8311.24
446.95	8131.02
447.14	8154.43
447.32	8531.25
447.51	8226.98
447.69	8493.80
447.88	8444.65
448.06	8463.38
448.25	8376.78
448.43	8341.67
448.62	8484.44
448.80	8491.46
448.99	8709.13
449.17	8601.47
449.36	8510.19
449.54	8697.43
449.73	8830.84
449.91	9067.24
450.10	8697.43
450.28	9085.96
450.46	8968.93
450.65	9074.26
450.83	9001.70
451.02	9025.11
451.20	9111.71
451.39	9233.41
451.57	9088.30
451.76	9095.32
451.94	9179.58
452.13	9181.92
452.31	9083.62
452.49	9121.07
452.68	9385.55
452.86	9207.67
453.05	9626.62
453.23	9408.95
453.42	9385.55
453.60	9294.27
453.78	9493.21
453.97	9406.61
454.15	9502.58
454.34	9376.19
454.52	9741.31
454.70	9640.67
454.89	9666.41
455.07	10010.47
455.26	9806.84
455.44	9799.82
455.62	9914.51
455.81	9647.69
455.99	9870.04
456.17	9963.66
456.36	10141.54
456.54	10164.95
456.73	10223.46
456.91	10490.28
457.09	10186.01
457.28	10682.20
457.46	10494.96
457.64	10518.37
457.83	10553.48
458.01	10368.57
458.19	10569.86
458.38	10279.63
458.56	10677.52
458.74	10700.93
458.93	10693.91
459.11	10600.29
459.29	10792.21
459.48	10906.90
459.66	10761.78
459.84	10827.32
460.03	11002.86
460.21	10937.32
460.39	11009.88
460.57	10834.34
460.76	10846.04
460.94	11103.50
461.12	11250.96
461.31	11225.21
461.49	10949.03
461.67	11103.50
461.85	11438.20
462.04	11232.23
462.22	11686.29
462.40	11438.20
462.59	11587.99
462.77	11496.71
462.95	11501.39
463.13	11468.62
463.32	11541.18
463.50	11653.53
463.68	11948.43
463.86	11634.80
464.05	11534.16
464.23	11569.27
464.41	11768.21
464.59	11552.88
464.78	12187.17
464.96	11595.01
465.14	11592.67
465.32	11903.96
465.50	12018.65
465.69	11932.05
465.87	12081.85
466.05	11871.20
466.23	12065.46
466.41	12030.35
466.60	12566.34
466.78	11885.24
466.96	12156.74
467.14	11854.81
467.32	12114.61
467.51	12594.42
467.69	12121.63
467.87	12362.71
468.05	12573.36
468.23	12287.81
468.41	12416.54
468.60	12549.95
468.78	12847.20
468.96	12606.13
469.14	12688.04
469.32	12987.63
469.50	12678.68
469.69	13055.51
469.87	13020.40
470.05	12931.46
470.23	12798.05
470.41	12975.93
470.59	13130.41
470.77	13200.62
470.95	13195.94
471.14	13341.05
471.32	13273.18
471.50	13488.51
471.68	13530.64
471.86	13418.29
472.04	13678.09
472.22	14033.85
472.40	13685.11
472.58	13621.92
472.77	13989.38
472.95	14029.17
473.13	14448.13
473.31	13769.37
473.49	13949.59
473.67	13954.27
473.85	14310.04
474.03	14541.75
474.21	14295.99
474.39	14684.52
474.57	14717.29
474.75	14630.69
474.93	14792.19
475.12	15047.30
475.30	14988.79
475.48	14953.68
475.66	15042.62
475.84	14925.60
476.02	15405.41
476.20	15236.89
476.38	15564.56
476.56	15950.75
476.74	15840.75
476.92	15896.92
477.10	15695.63
477.28	15833.72
477.46	16208.21
477.64	16528.86
477.82	16526.52
478.00	16982.93
478.18	16645.89
478.36	16922.07
478.54	17085.91
478.72	17172.51
478.90	17249.75
479.08	17514.23
479.26	17605.51
479.44	17535.29
479.62	17579.76
479.80	17905.10
479.98	18183.62
480.16	18600.24
480.34	17745.94
480.52	18436.40
480.70	18675.13
480.88	18342.78
481.06	18497.25
481.24	18600.24
481.41	18899.83
481.59	19103.45
481.77	18843.65
481.95	19417.08
482.13	19564.54
482.31	19431.13
482.49	20126.27
482.67	19974.13
482.85	20233.93
483.03	20692.68
483.21	20788.64
483.39	21020.35
483.57	20526.50
483.74	21113.97
483.92	21249.72
484.10	21167.80
484.28	21254.40
484.46	21811.45
484.64	22602.55
484.82	21979.97
485.00	22464.46
485.18	22511.27
485.35	22745.33
485.53	22450.42
485.71	23021.51
485.89	23229.82
486.07	23040.23
486.25	23335.14
486.43	23637.07
486.61	23288.33
486.78	23941.34
486.96	24212.84
487.14	24372.00
487.32	24269.01
487.50	24648.18
487.68	24751.17
487.85	25259.06
488.03	25223.95
488.21	25563.33
488.39	25696.74
488.57	25790.36
488.75	25881.64
488.92	26237.41
489.10	26820.20
489.28	26740.62
489.46	27168.94
489.64	27016.80
489.81	27424.06
489.99	27452.14
490.17	27494.27
490.35	27812.59
490.53	28072.39
490.70	28046.64
490.88	27782.16
491.06	28683.27
491.24	28744.12
491.41	28844.76
491.59	29249.67
491.77	28800.29
491.95	29359.68
492.13	29642.88
492.30	30096.95
492.48	29804.38
492.66	29750.55
492.84	30232.70
493.01	30333.34
493.19	30684.42
493.37	30579.10
493.54	30841.24
493.72	31185.30
493.90	31498.93
494.08	31459.14
494.25	31716.60
494.43	31625.32
494.61	32203.43
494.79	32077.04
494.96	32222.16
495.14	32458.55
495.32	32753.46
495.49	33095.18
495.67	33127.94
495.85	33560.94
496.02	33762.23
496.20	33628.82
496.38	34052.45
496.55	33659.24
496.73	34314.59
496.91	34497.16
497.09	34913.77
497.26	34660.99
497.44	34785.04
497.62	35257.83
497.79	35646.36
497.97	34682.06
498.14	35735.30
498.32	35880.41
498.50	36290.01
498.67	36547.47
498.85	36198.73
499.03	36463.21
499.20	36495.97
499.38	36762.79
499.56	37029.62
499.73	37177.07
499.91	37141.96
500.08	37371.33
500.26	37097.49
500.44	37413.46
500.61	37308.14
500.79	37251.97
500.97	37883.91
501.14	38363.72
501.32	38457.34
501.49	38148.39
501.67	38314.57
501.84	39124.40
502.02	38637.56
502.20	38572.03
502.37	39058.86
502.55	38845.87
502.72	39271.85
502.90	39487.18
503.07	39442.71
503.25	39367.81
503.43	39639.31
503.60	39962.31
503.78	40112.10
503.95	40161.25
504.13	39995.07
504.30	40395.31
504.48	40247.85
504.65	40407.01
504.83	40657.45
505.01	41095.13
505.18	40973.42
505.36	41287.05
505.53	41036.61
505.71	40917.25
505.88	41607.70
506.06	40849.37
506.23	42019.64
506.41	41429.82
506.58	42050.06
506.76	41420.46
506.93	42335.61
507.11	42742.86
507.28	42167.09
507.46	42405.83
507.63	42499.45
507.81	42691.37
507.98	42665.63
508.16	43002.66
508.33	43019.05
508.50	43452.05
508.68	43739.93
508.85	43812.49
509.03	43779.72
509.20	43447.36
509.38	44158.89
509.55	44030.16
509.73	44114.42
509.90	44641.04
510.08	44034.84
510.25	44411.67
510.42	44650.40
510.60	44594.23
510.77	44666.78
510.95	45097.44
511.12	44240.81
511.30	44898.50
511.47	45031.91
511.64	45647.47
511.82	45574.91
511.99	45514.06
512.17	45488.31
512.34	45815.99
512.51	46263.03
512.69	45998.55
512.86	46178.77
513.04	46284.09
513.21	46218.56
513.38	46326.22
513.56	46361.33
513.73	46436.23
513.90	46394.10
514.08	46958.17
514.25	46864.55
514.43	46979.23
514.60	47297.55
514.77	47072.85
514.95	47833.53
515.12	47070.51
515.29	47166.48
515.47	47271.80
515.64	48149.50
515.81	47751.61
515.99	47732.89
516.16	48186.95
516.33	48055.88
516.51	48151.84
516.68	48177.59
516.85	48388.24
517.03	48428.02
517.20	48257.17
517.37	48552.07
517.54	48332.06
517.72	48491.22
517.89	48975.71
518.06	48898.47
518.24	48823.58
518.41	48966.35
518.58	49083.37
518.75	48954.64
518.93	49324.45
519.10	49062.31
519.27	49422.75
519.45	49443.82
519.62	49766.81
519.79	49539.78
519.96	49619.36
520.14	49907.24
520.31	50082.78
520.48	50211.51
520.65	49986.82
520.83	50438.54
521.00	50607.06
521.17	50277.05
521.34	50415.14
521.52	50342.58
521.69	50499.40
521.86	50506.42
522.03	50852.82
522.20	50918.35
522.38	51215.60
522.55	50850.48
522.72	51157.09
522.89	50740.47
523.07	51253.05
523.24	51274.12
523.41	51477.74
523.58	51246.03
523.75	51608.81
523.92	51627.54
524.10	51325.61
524.27	51817.12
524.44	52011.38
524.61	51987.98
524.78	51983.30
524.96	52060.54
525.13	52016.07
525.30	52112.03
525.47	52507.58
525.64	52163.52
525.81	52514.60
525.98	52254.80
526.16	52252.46
526.33	52257.14
526.50	52971.00
526.67	52767.38
526.84	52643.33
527.01	52577.79
527.18	52795.46
527.36	52765.04
527.53	52994.41
527.70	53226.12
527.87	53249.53
528.04	53022.50
528.21	53141.86
528.38	52985.05
528.55	53223.78
528.72	52945.26
528.89	53301.02
529.07	53284.64
529.24	53333.79
529.41	53373.58
529.58	53600.61
529.75	53567.84
529.92	53340.81
530.09	53413.37
530.26	53624.01
530.43	53956.37
530.60	53806.58
530.77	53748.06
530.94	53813.60
531.11	53745.72
531.28	54094.46
531.46	53907.22
531.63	54045.31
531.80	54176.38
531.97	54298.09
532.14	54195.10
532.31	54370.64
532.48	54281.70
532.65	54412.77
532.82	54099.14
532.99	54319.15
533.16	54365.96
533.33	54635.13
533.50	54784.92
533.67	54726.41
533.84	54490.01
534.01	54738.11
534.18	54703.00
534.35	55150.04
534.52	54932.37
534.69	55011.95
534.86	55033.02
535.03	54808.32
535.20	54848.11
535.37	55033.02
535.54	55264.73
535.71	55037.70
535.88	55367.71
536.05	55278.77
536.22	55538.57
536.38	55196.85
536.55	55423.89
536.72	55461.33
536.89	55313.88
537.06	55594.74
537.23	55576.02
537.40	55435.59
537.57	55260.05
537.74	55739.86
537.91	55639.22
538.08	55564.32
538.25	55381.76
538.42	55407.50
538.59	56207.97
538.75	55840.50
538.92	55798.37
539.09	56004.34
539.26	55709.43
539.43	55847.52
539.60	55955.19
539.77	56020.72
539.94	56427.98
540.11	56182.22
540.28	56254.78
540.44	56018.38
540.61	56214.99
540.78	56430.32
540.95	56381.16
541.12	56329.67
541.29	56285.20
541.46	56413.93
541.62	56526.28
541.79	56214.99
541.96	55922.42
542.13	56397.55
542.30	56573.09
542.47	56743.95
542.63	56645.65
542.80	56802.46
542.97	56938.21
543.14	57155.88
543.31	56945.23
543.48	56896.08
543.64	57277.59
543.81	57282.27
543.98	57141.84
544.15	57235.46
544.32	57258.87
544.48	57427.38
544.65	57202.69
544.82	57041.20
544.99	57265.89
545.16	57279.93
545.32	57083.33
545.49	57336.10
545.66	57579.52
545.83	57591.22
546.00	57703.57
546.16	57481.22
546.33	57317.38
546.50	57301.00
546.67	57715.27
546.83	57308.02
547.00	57535.05
547.17	57694.21
547.34	57577.18
547.50	57790.17
547.67	57993.79
547.84	57818.25
548.00	57867.40
548.17	57954.00
548.34	58000.82
548.51	58068.69
548.67	58127.20
548.84	57766.76
549.01	57890.81
549.18	58040.60
549.34	58019.54
549.51	58103.80
549.68	58085.07
549.84	58223.17
550.01	58309.77
550.18	58213.80
550.34	58326.15
550.51	58440.84
550.68	58225.51
550.84	58019.54
551.01	58489.99
551.18	58291.04
551.34	58122.52
551.51	58487.65
551.68	58508.71
551.84	58642.12
552.01	58412.75
552.18	58307.43
552.34	58204.44
552.51	58588.29
552.68	58485.31
552.84	58461.90
553.01	58782.55
553.18	58658.51
553.34	58740.42
553.51	58511.05
553.67	58857.45
553.84	58646.80
554.01	58604.67
554.17	58798.94
554.34	58747.45
554.51	58766.17
554.67	58869.15
554.84	58738.08
555.00	58660.85
555.17	58775.53
555.33	58885.54
555.50	58899.58
555.67	58831.71
555.83	58766.17
556.00	58941.71
556.16	59206.19
556.33	59084.48
556.50	58920.65
556.66	59040.01
556.83	58997.88
556.99	59217.89
557.16	59353.65
557.32	59140.66
557.49	59512.80
557.65	58983.84
557.82	59269.39
557.98	59065.76
558.15	59222.58
558.32	59241.30
558.48	59168.74
558.65	59264.70
558.81	59384.07
558.98	59398.12
559.14	59234.28
559.31	59440.24
559.47	59468.33
559.64	59363.01
559.80	59458.97
559.97	59512.80
560.13	59433.22
560.30	59707.07
560.46	59629.83
560.63	59620.47
560.79	59629.83
560.96	59545.57
561.12	59721.11
561.29	59627.49
561.45	59508.12
561.61	59693.02
561.78	59681.32
561.94	59620.47
562.11	59718.77
562.27	59704.73
562.44	59547.91
562.60	60102.62
562.77	59646.21
562.93	59760.90
563.10	59838.14
563.26	59678.98
563.42	60083.89
563.59	59962.18
563.75	59634.51
563.92	59880.27
564.08	59819.41
564.24	59842.82
564.41	60226.66
564.57	59952.82
564.74	59798.35
564.90	60020.70
565.07	59990.27
565.23	59987.93
565.39	59945.80
565.56	60217.30
565.72	60023.04
565.88	60205.60
566.05	59929.42
566.21	60051.12
566.38	60348.37
566.54	59987.93
566.70	60210.28
566.87	60193.90
567.03	59810.05
567.19	60315.61
567.36	60058.15
567.52	60009.00
567.68	60474.76
567.85	60086.23
568.01	60374.12
568.17	60196.24
568.34	60374.12
568.50	60137.72
568.66	60189.22
568.83	60444.33
568.99	60065.17
569.15	60224.32
569.32	60317.95
569.48	60301.56
569.64	60189.22
569.81	60266.45
569.97	60119.00
570.13	60315.61
570.30	60224.32
570.46	60374.12
570.62	60406.89
570.78	60383.48
570.95	60374.12
571.11	60507.53
571.27	60353.05
571.43	60472.42
571.60	60430.29
571.76	60395.18
571.92	60423.27
572.09	60561.36
572.25	60486.46
572.41	60303.90
572.57	60537.96
572.74	60582.43
572.90	60425.61
573.06	60491.15
573.22	60423.27
573.38	60676.05
573.55	60528.59
573.71	60722.86
573.87	60673.71
574.03	60481.78
574.20	60481.78
574.36	60299.22
574.52	60542.64
574.68	60449.02
574.84	60617.53
575.01	60692.43
575.17	60512.21
575.33	60495.83
575.49	60535.62
575.65	60718.18
575.82	60552.00
575.98	60678.39
576.14	60863.29
576.30	60645.62
576.46	60645.62
576.62	60582.43
576.79	60608.17
576.95	60662.00
577.11	60654.98
577.27	60718.18
577.43	60879.67
577.59	60645.62
577.75	60587.11
577.92	60383.48
578.08	60657.32
578.24	60673.71
578.40	60877.33
578.56	60790.73
578.72	60800.10
578.88	60893.72
579.04	60781.37
579.21	60633.92
579.37	60802.44
579.53	60842.23
579.69	60528.59
579.85	60568.38
580.01	60580.09
580.17	60584.77
580.33	60652.64
580.49	60746.26
580.65	60678.39
580.82	60671.37
580.98	60619.88
581.14	60711.16
581.30	60762.65
581.46	60441.99
581.62	60669.03
581.78	60706.47
581.94	60781.37
582.10	60465.40
582.26	60725.20
582.42	60743.92
582.58	60772.01
582.74	60774.35
582.90	60729.88
583.06	60774.35
583.22	60666.69
583.38	60837.54
583.54	60809.46
583.70	60867.97
583.86	60893.72
584.02	60622.22
584.18	60755.63
584.34	60725.20
584.50	60816.48
584.66	60690.09
584.82	60643.28
584.98	61048.19
585.14	60816.48
585.30	60874.99
585.46	60842.23
585.62	60804.78
585.78	61020.11
585.94	60762.65
586.10	60692.43
586.26	60938.19
586.42	60928.83
586.58	60989.68
586.74	60853.93
586.90	60802.44
587.06	60832.86
587.22	60989.68
587.38	61001.38
587.54	60975.64
587.70	61062.24
587.86	60989.68
588.02	60956.91
588.18	61055.21
588.34	60886.70
588.49	61006.06
