SpectraSuite Data File
++++++++++++++++++++++++++++++++++++
Date: Fri Oct 25 11:26:30 EDT 2013
User: price-jones
Dark Spectrum Present: No
Reference Spectrum Present: No
Number of Sampled Component Spectra: 1
Spectrometers: USB2+H05261
Integration Time (usec): 100000 (USB2+H05261)
Spectra Averaged: 1 (USB2+H05261)
Boxcar Smoothing: 0 (USB2+H05261)
Correct for Electrical Dark: No (USB2+H05261)
Strobe/Lamp Enabled: No (USB2+H05261)
Correct for Detector Non-linearity: No (USB2+H05261)
Correct for Stray Light: No (USB2+H05261)
Number of Pixels in Processed Spectrum: 2048
>>>>>Begin Processed Spectral Data<<<<<
365.73	308.95
365.92	308.95
366.12	308.95
366.32	170.86
366.52	140.43
366.72	156.82
366.91	191.92
367.11	84.26
367.31	161.50
367.51	133.41
367.70	168.52
367.90	173.20
368.10	84.26
368.30	147.45
368.49	191.92
368.69	173.20
368.89	180.22
369.09	133.41
369.28	168.52
369.48	170.86
369.68	191.92
369.87	180.22
370.07	224.69
370.27	238.73
370.47	379.17
370.66	587.47
370.86	601.52
371.06	706.84
371.25	704.50
371.45	737.27
371.65	711.52
371.84	711.52
372.04	662.37
372.24	795.78
372.44	667.05
372.63	746.63
372.83	758.33
373.03	786.42
373.22	758.33
373.42	678.76
373.62	727.91
373.81	770.04
374.01	870.68
374.21	870.68
374.40	819.19
374.60	854.30
374.79	753.65
374.99	826.21
375.19	854.30
375.38	856.64
375.58	830.89
375.78	840.25
375.97	851.96
376.17	919.83
376.37	802.80
376.56	870.68
376.76	840.25
376.95	931.53
377.15	840.25
377.35	964.30
377.54	926.85
377.74	870.68
377.93	816.85
378.13	896.43
378.33	964.30
378.52	912.81
378.72	922.17
378.91	950.26
379.11	903.45
379.31	990.05
379.50	999.41
379.70	1029.84
379.89	994.73
380.09	917.49
380.28	1041.54
380.48	971.32
380.68	1050.90
380.87	922.17
381.07	931.53
381.26	1036.86
381.46	1064.94
381.65	1114.10
381.85	1050.90
382.04	961.96
382.24	1050.90
382.43	1022.81
382.63	990.05
382.83	1062.60
383.02	1221.76
383.22	1144.52
383.41	1062.60
383.61	1088.35
383.80	1165.59
384.00	1069.62
384.19	1137.50
384.39	1086.01
384.58	1121.12
384.78	1224.10
384.97	1221.76
385.17	1196.01
385.36	1172.61
385.56	1231.12
385.75	1142.18
385.95	1067.28
386.14	1174.95
386.34	1224.10
386.53	1212.40
386.72	1275.59
386.92	1324.74
387.11	1228.78
387.31	1198.35
387.50	1301.34
387.70	1125.80
387.89	1371.55
388.09	1266.23
388.28	1324.74
388.48	1287.29
388.67	1235.80
388.86	1275.59
389.06	1364.53
389.25	1324.74
389.45	1357.51
389.64	1329.42
389.84	1390.28
390.03	1425.39
390.22	1387.94
390.42	1416.02
390.61	1350.49
390.81	1483.90
391.00	1390.28
391.19	1401.98
391.39	1476.88
391.58	1364.53
391.78	1432.41
391.97	1509.65
392.16	1453.47
392.36	1497.94
392.55	1507.30
392.75	1519.01
392.94	1549.43
393.13	1523.69
393.33	1526.03
393.52	1591.56
393.71	1568.16
393.91	1586.88
394.10	1631.35
394.29	1528.37
394.49	1568.16
394.68	1652.42
394.88	1598.59
395.07	1645.40
395.26	1610.29
395.46	1696.89
395.65	1732.00
395.84	1746.04
396.04	1792.85
396.23	1795.19
396.42	1764.76
396.62	1795.19
396.81	1689.87
397.00	1696.89
397.19	1799.87
397.39	1909.88
397.58	1802.21
397.77	1877.11
397.97	1799.87
398.16	1867.75
398.35	1846.68
398.55	1818.60
398.74	1827.96
398.93	1996.48
399.12	1928.60
399.32	1888.81
399.51	1905.20
399.70	1989.46
399.90	1914.56
400.09	2040.95
400.28	2010.52
400.47	2017.54
400.67	2019.88
400.86	1975.41
401.05	2092.44
401.24	2092.44
401.44	2045.63
401.63	2174.36
401.82	2146.27
402.01	2167.34
402.21	2223.51
402.40	2141.59
402.59	2148.61
402.78	2195.42
402.97	2099.46
403.17	2253.94
403.36	2333.51
403.55	2221.17
403.74	2249.25
403.93	2424.80
404.13	2359.26
404.32	2345.22
404.51	2441.18
404.70	2406.07
404.89	2417.77
405.09	2434.16
405.28	2462.24
405.47	2445.86
405.66	2464.58
405.85	2466.92
406.05	2448.20
406.24	2553.52
406.43	2590.97
406.62	2698.64
406.81	2698.64
407.00	2574.59
407.20	2555.86
407.39	2553.52
407.58	2670.55
407.77	2822.69
407.96	2626.08
408.15	2843.75
408.34	2700.98
408.54	2693.96
408.73	2806.30
408.92	2794.60
409.11	2953.76
409.30	2761.83
409.49	3000.57
409.68	2963.12
409.87	2930.35
410.07	2878.86
410.26	2986.52
410.45	3089.51
410.64	3023.97
410.83	3112.91
411.02	3049.72
411.21	3183.13
411.40	3180.79
411.59	3197.17
411.78	3066.10
411.98	3108.23
412.17	3211.22
412.36	3311.86
412.55	3375.05
412.74	3358.67
412.93	3358.67
413.12	3375.05
413.31	3487.40
413.50	3454.63
413.69	3531.87
413.88	3508.46
414.07	3454.63
414.26	3562.30
414.45	3726.13
414.64	3597.40
414.83	3744.86
415.02	3679.32
415.22	3786.99
415.41	3932.10
415.60	3845.50
415.79	3962.53
415.98	3831.46
416.17	4084.23
416.36	3922.74
416.55	4032.74
416.74	4121.68
416.93	4067.85
417.12	4091.26
417.31	4175.52
417.50	4194.24
417.69	4241.05
417.88	4257.43
418.07	4159.13
418.26	4227.01
418.45	4231.69
418.64	4498.51
418.83	4339.35
419.02	4374.46
419.21	4390.84
419.39	4582.77
419.58	4468.08
419.77	4437.66
419.96	4498.51
420.15	4592.13
420.34	4596.81
420.53	4718.52
420.72	4681.07
420.91	4575.75
421.10	4669.37
421.29	4667.03
421.48	4660.01
421.67	4777.03
421.86	4723.20
422.05	4851.93
422.24	4758.31
422.43	4882.36
422.61	4800.44
422.80	4957.25
422.99	4978.32
423.18	4910.44
423.37	5125.77
423.56	4884.70
423.75	4931.51
423.94	4812.14
424.13	4699.80
424.32	4720.86
424.50	4990.02
424.69	4957.25
424.88	5067.26
425.07	4952.57
425.26	4884.70
425.45	5001.72
425.64	5001.72
425.83	4891.72
426.01	4978.32
426.20	4936.19
426.39	5226.42
426.58	5013.43
426.77	4952.57
426.96	5060.24
427.15	5158.54
427.33	5188.97
427.52	5121.09
427.71	5313.02
427.90	5247.48
428.09	5305.99
428.28	5277.91
428.46	5404.30
428.65	5069.60
428.84	5533.03
429.03	5551.75
429.22	5139.82
429.40	5479.19
429.59	5418.34
429.78	5284.93
429.97	5231.10
430.16	5483.88
430.34	5589.20
430.53	5591.54
430.72	5706.23
430.91	5673.46
431.10	5540.05
431.28	5893.47
431.47	5572.82
431.66	5841.98
431.85	5720.27
432.03	5769.42
432.22	5811.55
432.41	5912.19
432.60	5973.05
432.79	5813.89
432.97	5970.71
433.16	5996.45
433.35	5888.79
433.54	5923.90
433.72	6125.18
433.91	6118.16
434.10	6181.35
434.28	6092.41
434.47	6345.19
434.66	6218.80
434.85	6303.06
435.03	6396.68
435.22	6340.51
435.41	6560.52
435.59	6249.23
435.78	6443.49
435.97	6406.05
436.16	6396.68
436.34	6345.19
436.53	6520.73
436.72	6607.33
436.90	6380.30
437.09	6656.48
437.28	6525.41
437.46	6647.12
437.65	6548.82
437.84	6827.34
438.02	6724.36
438.21	6841.39
438.40	6635.42
438.58	7112.89
438.77	6935.01
438.96	6860.11
439.14	6988.84
439.33	7140.97
439.52	7283.75
439.70	7126.93
439.89	7194.81
440.08	7489.71
440.26	7272.04
440.45	7248.64
440.63	7410.14
440.82	7515.46
441.01	7503.76
441.19	7445.24
441.38	7583.34
441.57	7616.10
441.75	7585.68
441.94	7819.73
442.12	7918.03
442.31	7887.61
442.50	8058.46
442.68	7985.91
442.87	8131.02
443.05	8170.81
443.24	8077.19
443.43	8060.80
443.61	8170.81
443.80	8402.52
443.98	8044.42
444.17	7873.56
444.35	8297.20
444.54	8336.99
444.73	8107.62
444.91	8124.00
445.10	8231.66
445.28	8285.50
445.47	8021.02
445.65	8170.81
445.84	8477.42
446.02	8259.75
446.21	8325.29
446.39	8341.67
446.58	8425.93
446.77	8409.54
446.95	8313.58
447.14	8266.77
447.32	8496.14
447.51	8557.00
447.69	8416.57
447.88	8414.23
448.06	8540.61
448.25	8566.36
448.43	8587.43
448.62	8442.31
448.80	8575.72
448.99	8599.13
449.17	8837.86
449.36	8697.43
449.54	8854.25
449.73	8940.85
449.91	8898.72
450.10	8961.91
450.28	8887.01
450.46	8971.27
450.65	8966.59
450.83	9172.56
451.02	9085.96
451.20	9092.98
451.39	9135.11
451.57	9107.02
451.76	8985.32
451.94	9193.62
452.13	9217.03
452.31	9240.44
452.49	9308.31
452.68	9364.48
452.86	9357.46
453.05	9479.17
453.23	9376.19
453.42	9359.80
453.60	9303.63
453.78	9418.32
453.97	9465.13
454.15	9212.35
454.34	9364.48
454.52	9710.88
454.70	9678.12
454.89	9717.90
455.07	9799.82
455.26	9792.80
455.44	9771.74
455.62	9708.54
455.81	9799.82
455.99	9937.91
456.17	9994.09
456.36	10178.99
456.54	10209.42
456.73	10326.44
456.91	10296.02
457.09	10366.23
457.28	10539.43
457.46	10246.87
457.64	10387.30
457.83	10459.85
458.01	10258.57
458.19	10846.04
458.38	10558.16
458.56	10693.91
458.74	10633.05
458.93	10621.35
459.11	10651.78
459.29	10541.77
459.48	10876.47
459.66	10689.23
459.84	10740.72
460.03	10892.85
460.21	10808.59
460.39	10920.94
460.57	10988.82
460.76	11002.86
460.94	11105.84
461.12	10923.28
461.31	11358.62
461.49	11070.73
461.67	11192.44
461.85	11332.87
462.04	11328.19
462.22	11501.39
462.40	11793.96
462.59	11419.47
462.77	11421.81
462.95	11798.64
463.13	11545.86
463.32	11440.54
463.50	11733.11
463.68	11784.60
463.86	11700.34
464.05	11583.31
464.23	11775.24
464.41	11690.98
464.59	11536.50
464.78	12084.19
464.96	11969.50
465.14	11625.44
465.32	12091.21
465.50	12191.85
465.69	12032.69
465.87	12042.06
466.05	12166.10
466.23	12175.47
466.41	12332.28
466.60	12238.66
466.78	12219.94
466.96	12285.47
467.14	12301.86
467.32	12374.41
467.51	12613.15
467.69	12074.82
467.87	12210.57
468.05	12423.56
468.23	12358.03
468.41	12449.31
468.60	12645.91
468.78	12538.25
468.96	12542.93
469.14	12762.94
469.32	13041.46
469.50	12655.28
469.69	12975.93
469.87	12901.03
470.05	13132.75
470.23	13123.38
470.41	12940.82
470.59	13245.09
470.77	13209.98
470.95	13130.41
471.14	13572.77
471.32	13071.89
471.50	13628.94
471.68	13418.29
471.86	13511.91
472.04	13724.90
472.22	13933.21
472.40	13575.11
472.58	13809.16
472.77	13816.18
472.95	14148.54
473.13	14288.97
473.31	13989.38
473.49	14485.58
473.67	14031.51
473.85	14181.31
474.03	14441.11
474.21	14682.18
474.39	14607.28
474.57	14466.85
474.75	14724.31
474.93	14970.07
475.12	14960.70
475.30	15372.64
475.48	15124.54
475.66	15154.97
475.84	15084.75
476.02	15433.49
476.20	15250.93
476.38	15793.94
476.56	15917.98
476.74	15782.23
476.92	15929.69
477.10	15594.99
477.28	16283.11
477.46	15988.20
477.64	16226.93
477.82	16610.78
478.00	16809.73
478.18	16912.71
478.36	16582.70
478.54	16959.52
478.72	17071.87
478.90	17205.28
479.08	17610.19
479.26	17781.05
479.44	17558.70
479.62	17666.36
479.80	17909.78
479.98	18157.88
480.16	18326.39
480.34	18155.54
480.52	18593.22
480.70	18537.04
480.88	18429.38
481.06	18707.90
481.24	18555.77
481.41	19178.35
481.59	19257.93
481.77	19552.84
481.95	19506.02
482.13	19962.43
482.31	19749.44
482.49	20023.28
482.67	19683.91
482.85	20266.70
483.03	20680.97
483.21	20762.89
483.39	20908.01
483.57	20776.94
483.74	20912.69
483.92	21366.75
484.10	20746.51
484.28	21427.60
484.46	21495.48
484.64	22497.23
484.82	21668.68
485.00	21933.16
485.18	22377.86
485.35	23019.17
485.53	22986.40
485.71	22897.46
485.89	23260.24
486.07	23199.39
486.25	23117.47
486.43	23630.05
486.61	23761.12
486.78	24081.77
486.96	23747.08
487.14	24519.45
487.32	24584.99
487.50	24465.62
487.68	24655.20
487.85	25139.69
488.03	25223.95
488.21	25516.52
488.39	25560.99
488.57	25572.69
488.75	25682.70
488.92	26347.41
489.10	26398.90
489.28	26553.38
489.46	26616.57
489.64	26974.67
489.81	27541.08
489.99	27337.46
490.17	27807.90
490.35	28048.98
490.53	27784.50
490.70	28369.63
490.88	27768.12
491.06	28737.10
491.24	28720.71
491.41	28772.21
491.59	29130.31
491.77	29139.67
491.95	29436.92
492.13	29523.52
492.30	29659.27
492.48	29928.43
492.66	30012.69
492.84	30302.92
493.01	30405.90
493.19	30354.41
493.37	30841.24
493.54	31234.45
493.72	31325.73
493.90	31255.51
494.08	31555.10
494.25	31838.31
494.43	31854.69
494.61	32453.87
494.79	32219.81
494.96	32046.62
495.14	32811.97
495.32	32868.14
495.49	33027.30
495.67	33163.05
495.85	33345.61
496.02	33745.84
496.20	33738.82
496.38	33809.04
496.55	34466.73
496.73	34548.65
496.91	34487.79
497.09	34712.49
497.26	35026.12
497.44	34448.00
497.62	35002.71
497.79	35484.86
497.97	35332.73
498.14	35447.41
498.32	35969.35
498.50	35955.31
498.67	36463.21
498.85	35964.67
499.03	36273.62
499.20	36594.28
499.38	36905.57
499.56	37170.05
499.73	36884.50
499.91	37120.90
500.08	37076.43
500.26	37338.57
500.44	37553.90
500.61	37982.21
500.79	37333.89
500.97	37701.35
501.14	38209.25
501.32	38256.06
501.49	38319.25
501.67	38326.27
501.84	39044.82
502.02	38712.46
502.20	39115.03
502.37	39182.91
502.55	39143.12
502.72	39047.16
502.90	39351.43
503.07	39477.82
503.25	39508.24
503.43	39805.49
503.60	39763.36
503.78	40158.91
503.95	39920.18
504.13	40404.67
504.30	40472.54
504.48	40271.26
504.65	40973.42
504.83	40928.95
505.01	41064.70
505.18	41284.71
505.36	41371.31
505.53	40811.92
505.71	41207.47
505.88	41614.72
506.06	41359.61
506.23	41839.42
506.41	41743.45
506.58	41694.30
506.76	42211.56
506.93	42087.51
507.11	42249.01
507.28	42429.23
507.46	42302.84
507.63	42782.65
507.81	42801.38
507.98	42600.09
508.16	42616.47
508.33	42939.47
508.50	43086.92
508.68	43505.88
508.85	43363.11
509.03	44163.57
509.20	44133.14
509.38	43838.23
509.55	44231.44
509.73	43896.75
509.90	44140.16
510.08	44282.94
510.25	44561.46
510.42	44851.69
510.60	44978.07
510.77	45062.33
510.95	45024.89
511.12	44650.40
511.30	45071.70
511.47	45441.50
511.64	45329.16
511.82	46033.66
511.99	45390.01
512.17	46239.62
512.34	45642.79
512.51	46075.79
512.69	45921.31
512.86	46164.73
513.04	46089.83
513.21	45895.56
513.38	46305.16
513.56	46401.12
513.73	46333.24
513.90	46899.65
514.08	46752.20
514.25	47217.97
514.43	47271.80
514.60	47304.57
514.77	47112.64
514.95	47650.97
515.12	47124.35
515.29	47482.45
515.47	47559.69
515.64	47938.85
515.81	47679.05
515.99	48135.46
516.16	48437.39
516.33	48367.17
516.51	48399.94
516.68	48165.88
516.85	47997.37
517.03	48774.42
517.20	48568.46
517.37	48729.95
517.54	48973.37
517.72	48629.31
517.89	48786.13
518.06	49088.06
518.24	48804.85
518.41	49186.36
518.58	49352.54
518.75	49027.20
518.93	49247.21
519.10	49212.10
519.27	49181.68
519.45	49652.12
519.62	49546.80
519.79	50195.13
519.96	49687.23
520.14	49972.78
520.31	49867.45
520.48	50124.91
520.65	50120.23
520.83	50260.66
521.00	50417.48
521.17	50410.46
521.34	50244.28
521.52	50321.52
521.69	50499.40
521.86	50646.85
522.03	50714.73
522.20	51058.79
522.38	51405.19
522.55	51182.84
522.72	50962.82
522.89	51091.55
523.07	51452.00
523.24	51072.83
523.41	51414.55
523.58	51519.87
523.75	51393.48
523.92	51693.07
524.10	51564.34
524.27	51976.28
524.44	51618.17
524.61	51695.41
524.78	52423.32
524.96	52044.15
525.13	51957.55
525.30	52317.99
525.47	52193.95
525.64	52453.75
525.81	52477.15
525.98	52549.71
526.16	52687.80
526.33	52533.32
526.50	52725.25
526.67	52535.66
526.84	52818.87
527.01	52753.33
527.18	52624.60
527.36	52804.83
527.53	53052.92
527.70	53361.87
527.87	53666.14
528.04	52985.05
528.21	53174.63
528.38	53179.31
528.55	53198.04
528.72	53188.67
528.89	53354.85
529.07	53144.20
529.24	53305.70
529.41	53694.23
529.58	53282.30
529.75	53392.30
529.92	53785.51
530.09	53670.82
530.26	53841.68
530.43	53907.22
530.60	53570.18
530.77	53521.03
530.94	53820.62
531.11	53907.22
531.28	54124.89
531.46	54192.76
531.63	54108.50
531.80	53958.71
531.97	54241.92
532.14	54656.19
532.31	54454.90
532.48	54197.44
532.65	54564.91
532.82	54291.07
532.99	54639.81
533.16	54569.59
533.33	54541.50
533.50	54852.80
533.67	54593.00
533.84	54564.91
534.01	54756.83
534.18	54602.36
534.35	55189.83
534.52	54932.37
534.69	54827.05
534.86	55138.34
535.03	54791.94
535.20	54934.71
535.37	55370.05
535.54	55566.66
535.71	55145.36
535.88	55306.86
536.05	55391.12
536.22	55466.02
536.38	55543.25
536.55	55269.41
536.72	55559.64
536.89	55676.66
537.06	55566.66
537.23	55585.38
537.40	55461.33
537.57	55578.36
537.74	55316.22
537.91	55882.63
538.08	55695.39
538.25	55561.98
538.42	55978.59
538.59	56240.73
538.75	55594.74
538.92	55985.61
539.09	56163.50
539.26	56027.74
539.43	55873.27
539.60	56034.77
539.77	56238.39
539.94	56334.35
540.11	56081.58
540.28	56163.50
540.44	56374.14
540.61	56329.67
540.78	56280.52
540.95	56233.71
541.12	56334.35
541.29	56371.80
541.46	56404.57
541.62	56395.21
541.79	56722.88
541.96	56030.08
542.13	56437.34
542.30	56566.07
542.47	56701.82
542.63	56818.84
542.80	56825.87
542.97	56830.55
543.14	57242.48
543.31	56858.63
543.48	57382.91
543.64	57329.08
543.81	57095.03
543.98	57401.64
544.15	57099.71
544.32	57125.46
544.48	57495.26
544.65	57165.24
544.82	57223.76
544.99	57045.88
545.16	57371.21
545.32	57450.79
545.49	57502.28
545.66	57361.85
545.83	57621.65
546.00	57680.16
546.16	57542.07
546.33	57549.09
546.50	57242.48
546.67	57490.58
546.83	57230.78
547.00	57537.39
547.17	57530.37
547.34	57485.90
547.50	57792.51
547.67	57928.26
547.84	57785.49
548.00	57886.13
548.17	57834.64
548.34	57909.53
548.51	58199.76
548.67	58230.19
548.84	57801.87
549.01	57946.98
549.18	57790.17
549.34	57853.36
549.51	58078.05
549.68	58042.95
549.84	58073.37
550.01	58277.00
550.18	58213.80
550.34	58508.71
550.51	58108.48
550.68	58466.58
550.84	58225.51
551.01	58227.85
551.18	58513.39
551.34	58368.28
551.51	58286.36
551.68	58508.71
551.84	58567.23
552.01	58042.95
552.18	58658.51
552.34	58358.92
552.51	58602.33
552.68	58300.40
552.84	58534.46
553.01	58969.80
553.18	58632.76
553.34	58705.32
553.51	58567.23
553.67	58653.82
553.84	58955.75
554.01	58719.36
554.17	58911.28
554.34	58965.12
554.51	58738.08
554.67	58955.75
554.84	58869.15
555.00	59028.31
555.17	58993.20
555.33	58775.53
555.50	58705.32
555.67	58787.24
555.83	58934.69
556.00	58955.75
556.16	59306.83
556.33	59018.95
556.50	59241.30
556.66	59257.68
556.83	58892.56
556.99	59302.15
557.16	59391.09
557.32	59330.24
557.49	59501.10
557.65	59363.01
557.82	59173.42
557.98	59292.79
558.15	59231.94
558.32	59243.64
558.48	59351.30
558.65	59213.21
558.81	59381.73
558.98	59524.50
559.14	59508.12
559.31	59667.28
559.47	59491.74
559.64	59508.12
559.80	59442.59
559.97	59655.57
560.13	59501.10
560.30	59508.12
560.46	59547.91
560.63	59814.73
560.79	59606.42
560.96	59744.51
561.12	59578.34
561.29	59758.56
561.45	59751.54
561.61	59812.39
561.78	59744.51
561.94	59781.96
562.11	59742.17
562.27	59660.26
562.44	59807.71
562.60	59625.15
562.77	59852.18
562.93	59559.61
563.10	60030.06
563.26	59732.81
563.42	60111.98
563.59	59962.18
563.75	59774.94
563.92	59828.77
564.08	59788.98
564.24	59990.27
564.41	60158.79
564.57	60196.24
564.74	59840.48
564.90	60048.78
565.07	59997.29
565.23	59999.63
565.39	60004.31
565.56	59868.56
565.72	60039.42
565.88	60177.51
566.05	59873.24
566.21	60039.42
566.38	60179.85
566.54	59894.31
566.70	60250.07
566.87	60458.38
567.03	60081.55
567.19	60170.49
567.36	60229.01
567.52	60261.77
567.68	60488.80
567.85	60233.69
568.01	60427.95
568.17	60062.83
568.34	60568.38
568.50	60402.21
568.66	60191.56
568.83	60322.63
568.99	60247.73
569.15	60317.95
569.32	60317.95
569.48	60301.56
569.64	60493.49
569.81	60413.91
569.97	60196.24
570.13	60320.29
570.30	60114.32
570.46	60507.53
570.62	60434.97
570.78	60229.01
570.95	60388.16
571.11	60472.42
571.27	60306.24
571.43	60289.86
571.60	60425.61
571.76	60608.17
571.92	60519.23
572.09	60331.99
572.25	60549.66
572.41	60243.05
572.57	60505.19
572.74	60542.64
572.90	60446.68
573.06	60430.29
573.22	60652.64
573.38	60563.70
573.55	60441.99
573.71	60587.11
573.87	60514.55
574.03	60360.08
574.20	60697.11
574.36	60493.49
574.52	60580.09
574.68	60676.05
574.84	60739.24
575.01	60659.66
575.17	60608.17
575.33	60521.57
575.49	60479.44
575.65	60657.32
575.82	60701.79
575.98	60610.51
576.14	60809.46
576.30	60818.82
576.46	60657.32
576.62	60535.62
576.79	60486.46
576.95	60477.10
577.11	60760.31
577.27	60554.34
577.43	60690.09
577.59	60755.63
577.75	60755.63
577.92	60397.52
578.08	60694.77
578.24	60856.27
578.40	60872.65
578.56	60846.91
578.72	60713.50
578.88	60779.03
579.04	60746.26
579.21	60694.77
579.37	60781.37
579.53	60844.57
579.69	60519.23
579.85	60629.24
580.01	60687.75
580.17	60608.17
580.33	60809.46
580.49	60956.91
580.65	60860.95
580.82	60671.37
580.98	60692.43
581.14	60594.13
581.30	60870.31
581.46	60755.63
581.62	60755.63
581.78	60659.66
581.94	60956.91
582.10	60591.79
582.26	60783.71
582.42	60547.32
582.58	60753.29
582.74	60788.39
582.90	60580.09
583.06	60783.71
583.22	60722.86
583.38	60903.08
583.54	60973.30
583.70	60882.02
583.86	60640.94
584.02	60727.54
584.18	60959.25
584.34	60877.33
584.50	60851.59
584.66	60772.01
584.82	60942.87
584.98	61069.26
585.14	60914.78
585.30	60652.64
585.46	60863.29
585.62	60973.30
585.78	60924.14
585.94	60563.70
586.10	60896.06
586.26	60814.14
586.42	60781.37
586.58	60905.42
586.74	60940.53
586.90	61001.38
587.06	60790.73
587.22	61055.21
587.38	60844.57
587.54	61048.19
587.70	61155.86
587.86	60802.44
588.02	60926.49
588.18	61197.99
588.34	60959.25
588.49	60797.76
