SpectraSuite Data File
++++++++++++++++++++++++++++++++++++
Date: Fri Oct 25 11:33:48 EDT 2013
User: price-jones
Dark Spectrum Present: No
Reference Spectrum Present: No
Number of Sampled Component Spectra: 1
Spectrometers: USB2+H05261
Integration Time (usec): 100000 (USB2+H05261)
Spectra Averaged: 1 (USB2+H05261)
Boxcar Smoothing: 0 (USB2+H05261)
Correct for Electrical Dark: No (USB2+H05261)
Strobe/Lamp Enabled: No (USB2+H05261)
Correct for Detector Non-linearity: No (USB2+H05261)
Correct for Stray Light: No (USB2+H05261)
Number of Pixels in Processed Spectrum: 2048
>>>>>Begin Processed Spectral Data<<<<<
365.73	245.76
365.92	245.76
366.12	245.76
366.32	220.01
366.52	241.08
366.72	196.60
366.91	191.92
367.11	161.50
367.31	203.63
367.51	107.66
367.70	220.01
367.90	198.95
368.10	205.97
368.30	161.50
368.49	175.54
368.69	184.90
368.89	145.11
369.09	156.82
369.28	231.71
369.48	236.39
369.68	189.58
369.87	238.73
370.07	266.82
370.27	238.73
370.47	285.55
370.66	437.68
370.86	484.49
371.06	540.66
371.25	617.90
371.45	540.66
371.65	592.16
371.84	571.09
372.04	528.96
372.24	606.20
372.44	585.13
372.63	573.43
372.83	589.82
373.03	608.54
373.22	594.50
373.42	643.65
373.62	624.92
373.81	566.41
374.01	624.92
374.21	634.29
374.40	631.94
374.60	615.56
374.79	671.73
374.99	669.39
375.19	580.45
375.38	676.41
375.58	596.84
375.78	627.26
375.97	697.48
376.17	709.18
376.37	688.12
376.56	727.91
376.76	636.63
376.95	660.03
377.15	692.80
377.35	741.95
377.54	692.80
377.74	713.86
377.93	636.63
378.13	777.06
378.33	748.97
378.52	727.91
378.72	734.93
378.91	723.23
379.11	674.07
379.31	772.38
379.50	683.44
379.70	683.44
379.89	650.67
380.09	725.57
380.28	758.33
380.48	737.27
380.68	760.67
380.87	716.20
381.07	791.10
381.26	748.97
381.46	727.91
381.65	763.01
381.85	800.46
382.04	741.95
382.24	873.02
382.43	770.04
382.63	767.70
382.83	753.65
383.02	842.59
383.22	856.64
383.41	784.08
383.61	774.72
383.80	849.61
384.00	800.46
384.19	809.83
384.39	814.51
384.58	765.36
384.78	851.96
384.97	786.42
385.17	812.17
385.36	851.96
385.56	854.30
385.75	737.27
385.95	926.85
386.14	837.91
386.34	830.89
386.53	767.70
386.72	851.96
386.92	915.15
387.11	931.53
387.31	877.70
387.50	840.25
387.70	903.45
387.89	891.74
388.09	931.53
388.28	990.05
388.48	767.70
388.67	910.47
388.86	889.40
389.06	924.51
389.25	1020.47
389.45	943.24
389.64	976.00
389.84	966.64
390.03	947.92
390.22	976.00
390.42	947.92
390.61	992.39
390.81	903.45
391.00	1015.79
391.19	952.60
391.39	1057.92
391.58	919.83
391.78	912.81
391.97	980.68
392.16	1025.15
392.36	1078.99
392.55	999.41
392.75	1013.45
392.94	1083.67
393.13	1057.92
393.33	966.64
393.52	1114.10
393.71	1022.81
393.91	1081.33
394.10	1095.37
394.29	1093.03
394.49	1020.47
394.68	1125.80
394.88	1128.14
395.07	1153.88
395.26	1128.14
395.46	1181.97
395.65	1226.44
395.84	1238.14
396.04	1254.53
396.23	1167.93
396.42	1151.54
396.62	1231.12
396.81	1238.14
397.00	1252.19
397.19	1179.63
397.39	1184.31
397.58	1277.93
397.77	1224.10
397.97	1320.06
398.16	1308.36
398.35	1385.60
398.55	1289.64
398.74	1254.53
398.93	1289.64
399.12	1366.87
399.32	1357.51
399.51	1329.42
399.70	1252.19
399.90	1418.36
400.09	1387.94
400.28	1437.09
400.47	1296.66
400.67	1420.71
400.86	1348.15
401.05	1423.05
401.24	1434.75
401.44	1350.49
401.63	1455.81
401.82	1544.75
402.01	1483.90
402.21	1399.64
402.40	1474.54
402.59	1486.24
402.78	1511.99
402.97	1507.30
403.17	1556.46
403.36	1490.92
403.55	1542.41
403.74	1502.62
403.93	1493.26
404.13	1671.14
404.32	1575.18
404.51	1675.82
404.70	1715.61
404.89	1643.06
405.09	1589.22
405.28	1678.16
405.47	1685.19
405.66	1596.25
405.85	1666.46
406.05	1652.42
406.24	1769.44
406.43	1802.21
406.62	1818.60
406.81	1886.47
407.00	1776.47
407.20	1746.04
407.39	1839.66
407.58	1870.09
407.77	1781.15
407.96	1865.41
408.15	1853.70
408.34	1893.49
408.54	1921.58
408.73	1921.58
408.92	1884.13
409.11	2008.18
409.30	2090.10
409.49	1928.60
409.68	2043.29
409.87	1858.39
410.07	2108.82
410.26	2017.54
410.45	1996.48
410.64	2069.03
410.83	2139.25
411.02	2155.63
411.21	2106.48
411.40	2239.89
411.59	2195.42
411.78	2286.70
411.98	2263.30
412.17	2230.53
412.36	2403.73
412.55	2228.19
412.74	2326.49
412.93	2296.07
413.12	2328.83
413.31	2459.90
413.50	2396.71
413.69	2462.24
413.88	2497.35
414.07	2413.09
414.26	2420.11
414.45	2562.89
414.64	2466.92
414.83	2567.57
415.02	2567.57
415.22	2583.95
415.41	2621.40
415.60	2700.98
415.79	2719.70
415.98	2661.19
416.17	2729.06
416.36	2696.30
416.55	2726.72
416.74	2806.30
416.93	2729.06
417.12	2825.03
417.31	2860.13
417.50	2920.99
417.69	3012.27
417.88	3070.78
418.07	2942.05
418.26	2818.00
418.45	3019.29
418.64	3040.36
418.83	2911.63
419.02	3150.36
419.21	3012.27
419.39	3255.69
419.58	3075.46
419.77	3157.38
419.96	3265.05
420.15	3269.73
420.34	3232.28
420.53	3169.09
420.72	3318.88
420.91	3293.13
421.10	3302.50
421.29	3213.56
421.48	3197.17
421.67	3382.07
421.86	3379.73
422.05	3332.92
422.24	3342.28
422.43	3272.07
422.61	3260.37
422.80	3433.57
422.99	3433.57
423.18	3424.20
423.37	3454.63
423.56	3414.84
423.75	3351.65
423.94	3281.43
424.13	3236.96
424.32	3323.56
424.50	3428.88
424.69	3618.47
424.88	3590.38
425.07	3489.74
425.26	3398.46
425.45	3435.91
425.64	3410.16
425.83	3449.95
426.01	3520.17
426.20	3513.14
426.39	3501.44
426.58	3314.20
426.77	3545.91
426.96	3494.42
427.15	3424.20
427.33	3698.05
427.52	3520.17
427.71	3562.30
427.90	3555.27
428.09	3726.13
428.28	3623.15
428.46	3623.15
428.65	3693.37
428.84	3754.22
429.03	3866.56
429.22	3679.32
429.40	3740.18
429.59	3765.92
429.78	3655.92
429.97	3698.05
430.16	3775.28
430.34	3904.01
430.53	3908.69
430.72	3988.27
430.91	3831.46
431.10	3847.84
431.28	4032.74
431.47	3948.48
431.66	4028.06
431.85	3960.19
432.03	4023.38
432.22	4070.19
432.41	4079.55
432.60	4037.42
432.79	4114.66
432.97	4198.92
433.16	4208.28
433.35	4138.07
433.54	4074.87
433.72	4229.35
433.91	4229.35
434.10	4318.29
434.28	4306.59
434.47	4348.72
434.66	4187.22
434.85	4367.44
435.03	4297.22
435.22	4386.16
435.41	4355.74
435.59	4447.02
435.78	4252.75
435.97	4507.87
436.16	4320.63
436.34	4386.16
436.53	4348.72
436.72	4608.51
436.90	4430.63
437.09	4554.68
437.28	4365.10
437.46	4535.96
437.65	4568.73
437.84	4538.30
438.02	4461.06
438.21	4610.86
438.40	4685.75
438.58	4571.07
438.77	4720.86
438.96	4802.78
439.14	4842.57
439.33	4702.14
439.52	4891.72
439.70	4795.76
439.89	5057.90
440.08	5001.72
440.26	5132.79
440.45	4917.47
440.63	5085.98
440.82	5090.67
441.01	5121.09
441.19	5125.77
441.38	5214.71
441.57	5224.08
441.75	5217.05
441.94	5348.12
442.12	5247.48
442.31	5355.15
442.50	5516.64
442.68	5350.46
442.87	5446.43
443.05	5584.52
443.24	5437.06
443.43	5626.65
443.61	5584.52
443.80	5783.46
443.98	5458.13
444.17	5345.78
444.35	5668.78
444.54	5600.90
444.73	5668.78
444.91	5696.86
445.10	5767.08
445.28	5600.90
445.47	5694.52
445.65	5643.03
445.84	5781.12
446.02	5636.01
446.21	5841.98
446.39	5699.20
446.58	5659.42
446.77	5781.12
446.95	5762.40
447.14	5750.70
447.32	5724.95
447.51	5792.83
447.69	5738.99
447.88	5678.14
448.06	5734.31
448.25	5738.99
448.43	5921.56
448.62	5757.72
448.80	5729.63
448.99	5870.06
449.17	6047.94
449.36	5898.15
449.54	6022.20
449.73	5942.62
449.91	6094.76
450.10	5933.26
450.28	5959.00
450.46	6094.76
450.65	6134.54
450.83	6127.52
451.02	6057.31
451.20	6260.93
451.39	6186.04
451.57	6200.08
451.76	6087.73
451.94	6221.14
452.13	6239.87
452.31	6429.45
452.49	6291.36
452.68	6197.74
452.86	6459.88
453.05	6382.64
453.23	6403.71
453.42	6443.49
453.60	6300.72
453.78	6497.33
453.97	6352.21
454.15	6396.68
454.34	6616.69
454.52	6483.28
454.70	6441.15
454.89	6525.41
455.07	6619.04
455.26	6553.50
455.44	6832.02
455.62	6654.14
455.81	6677.55
455.99	6761.81
456.17	6682.23
456.36	6775.85
456.54	6663.51
456.73	6939.69
456.91	7073.10
457.09	7019.27
457.28	7068.42
457.46	7061.40
457.64	7014.59
457.83	7145.66
458.01	6916.28
458.19	7169.06
458.38	7082.46
458.56	7272.04
458.74	7248.64
458.93	7218.21
459.11	7148.00
459.29	7234.60
459.48	7225.23
459.66	7213.53
459.84	7323.54
460.03	7424.18
460.21	7274.38
460.39	7393.75
460.57	7342.26
460.76	7613.76
460.94	7349.28
461.12	7702.70
461.31	7618.44
461.49	7470.99
461.67	7548.23
461.85	7742.49
462.04	7700.36
462.22	7957.82
462.40	7737.81
462.59	7707.38
462.77	7707.38
462.95	7784.62
463.13	7702.70
463.32	7899.31
463.50	7901.65
463.68	8042.08
463.86	7812.71
464.05	7693.34
464.23	7845.48
464.41	7964.84
464.59	7758.88
464.78	8011.65
464.96	7946.12
465.14	8070.17
465.32	8067.83
465.50	8219.96
465.69	8025.70
465.87	7960.16
466.05	8271.45
466.23	8180.17
466.41	8163.79
466.60	8248.05
466.78	8219.96
466.96	8077.19
467.14	8264.43
467.32	8435.29
467.51	8276.13
467.69	8098.25
467.87	8372.10
468.05	8432.95
468.23	8308.90
468.41	8276.13
468.60	8369.76
468.78	8451.67
468.96	8564.02
469.14	8610.83
469.32	8594.45
469.50	8650.62
469.69	8674.03
469.87	8692.75
470.05	8737.22
470.23	8751.26
470.41	8938.51
470.59	8917.44
470.77	8652.96
470.95	8716.16
471.14	9013.40
471.32	8760.63
471.50	8879.99
471.68	9020.42
471.86	9149.15
472.04	9074.26
472.22	9385.55
472.40	9034.47
472.58	9282.56
472.77	9177.24
472.95	9425.34
473.13	9544.70
473.31	9200.65
473.49	9345.76
473.67	9268.52
473.85	9406.61
474.03	9678.12
474.21	9694.50
474.39	9626.62
474.57	10038.56
474.75	10115.80
474.93	10073.67
475.12	9963.66
475.30	10061.96
475.48	10150.90
475.66	10019.83
475.84	10047.92
476.02	10174.31
476.20	10068.98
476.38	10569.86
476.56	10572.20
476.74	10590.92
476.92	10672.84
477.10	10492.62
477.28	10630.71
477.46	10684.55
477.64	10707.95
477.82	11042.65
478.00	11300.11
478.18	11257.98
478.36	11321.17
478.54	11349.26
478.72	11417.13
478.90	11365.64
479.08	11609.06
479.26	11571.61
479.44	11761.19
479.62	11829.07
479.80	11969.50
479.98	11976.52
480.16	12250.36
480.34	12241.00
480.52	12217.60
480.70	12224.62
480.88	12269.09
481.06	12334.62
481.24	12519.53
481.41	12746.56
481.59	12877.63
481.77	13008.70
481.95	12830.82
482.13	13053.17
482.31	12826.14
482.49	13406.59
482.67	13249.77
482.85	13336.37
483.03	13547.02
483.21	13542.34
483.39	13818.52
483.57	13881.72
483.74	13862.99
483.92	14150.88
484.10	13884.06
484.28	14429.40
484.46	14642.39
484.64	14799.21
484.82	14370.89
485.00	14995.81
485.18	14869.42
485.35	15126.88
485.53	15236.89
485.71	15021.56
485.89	15346.89
486.07	15440.51
486.25	15487.32
486.43	15503.71
486.61	15611.37
486.78	15761.17
486.96	15740.10
487.14	16032.67
487.32	15950.75
487.50	16353.32
487.68	16432.90
487.85	16795.68
488.03	16601.42
488.21	17130.38
488.39	16837.81
488.57	17174.85
488.75	17420.61
488.92	17212.30
489.10	17584.44
489.28	17436.99
489.46	17689.77
489.64	17919.14
489.81	18181.28
489.99	18008.08
490.17	18345.12
490.35	18394.27
490.53	18642.37
490.70	18609.60
490.88	18551.09
491.06	18829.61
491.24	18883.44
491.41	18862.38
491.59	19159.63
491.77	19077.71
491.95	19346.87
492.13	19578.58
492.30	19449.85
492.48	19999.88
492.66	19545.81
492.84	19765.82
493.01	20196.48
493.19	20191.80
493.37	20355.64
493.54	20542.88
493.72	20744.17
493.90	20439.90
494.08	20622.46
494.25	21268.45
494.43	20826.09
494.61	21275.47
494.79	21535.27
494.96	21202.91
495.14	21514.20
495.32	21551.65
495.49	21706.13
495.67	21991.67
495.85	22026.78
496.02	22160.19
496.20	22221.05
496.38	22621.28
496.55	22160.19
496.73	23012.15
496.91	22850.65
497.09	22607.23
497.26	22876.40
497.44	22977.04
497.62	23054.28
497.79	23047.26
497.97	23255.56
498.14	23564.51
498.32	23641.75
498.50	23868.78
498.67	23974.11
498.85	23723.67
499.03	24271.36
499.20	24203.48
499.38	24191.78
499.56	24219.86
499.73	24222.20
499.91	24659.88
500.08	25027.35
500.26	24692.65
500.44	24592.01
500.61	24748.82
500.79	25057.78
500.97	24510.09
501.14	25202.89
501.32	25514.18
501.49	25432.26
501.67	25422.90
501.84	25238.00
502.02	25497.80
502.20	25532.90
502.37	25951.86
502.55	26108.68
502.72	25804.41
502.90	26024.42
503.07	25965.90
503.25	26284.22
503.43	26265.49
503.60	26426.99
503.78	26370.82
503.95	26508.91
504.13	26464.44
504.30	26618.91
504.48	26895.10
504.65	27091.70
504.83	27012.12
505.01	27103.40
505.18	27267.24
505.36	27098.72
505.53	26822.54
505.71	27550.45
505.88	27550.45
506.06	27452.14
506.23	27807.90
506.41	27260.22
506.58	27950.68
506.76	27843.01
506.93	28095.79
507.11	28149.62
507.28	28116.86
507.46	28205.80
507.63	28421.13
507.81	28306.44
507.98	28594.32
508.16	28884.55
508.33	28570.92
508.50	28933.70
508.68	28657.52
508.85	29170.10
509.03	29027.32
509.20	29123.29
509.38	28961.79
509.55	29303.51
509.73	29495.43
509.90	29399.47
510.08	29544.58
510.25	29579.69
510.42	29975.24
510.60	29605.44
510.77	29984.60
510.95	30160.14
511.12	29759.91
511.30	29654.59
511.47	30005.67
511.64	29654.59
511.82	30363.77
511.99	30045.46
512.17	30253.76
512.34	30122.69
512.51	31087.00
512.69	31175.94
512.86	30621.23
513.04	31103.38
513.21	31049.55
513.38	31175.94
513.56	31337.43
513.73	31023.80
513.90	31337.43
514.08	31110.40
514.25	31552.76
514.43	31557.44
514.60	31292.96
514.77	31538.72
514.95	31857.03
515.12	31325.73
515.29	31929.59
515.47	32027.89
515.64	32283.01
515.81	31913.20
515.99	32184.71
516.16	32463.23
516.33	32243.22
516.51	32254.92
516.68	32182.37
516.85	32627.07
517.03	32699.62
517.20	32818.99
517.37	32893.89
517.54	32886.87
517.72	32952.40
517.89	32662.18
518.06	33088.15
518.24	33219.22
518.41	33043.68
518.58	33303.48
518.75	32950.06
518.93	33497.75
519.10	33427.53
519.27	33935.43
519.45	33408.81
519.62	33708.40
519.79	34106.29
519.96	34141.39
520.14	33624.14
520.31	33570.30
520.48	33954.15
520.65	33865.21
520.83	34455.03
521.00	34574.39
521.17	34384.81
521.34	34492.47
521.52	34543.97
521.69	34345.02
521.86	34340.34
522.03	34871.64
522.20	35084.63
522.38	35421.67
522.55	35498.91
522.72	35082.29
522.89	35206.34
523.07	35255.49
523.24	34991.01
523.41	35166.55
523.58	35051.86
523.75	35681.47
523.92	35508.27
524.10	35225.06
524.27	35480.18
524.44	35585.50
524.61	35873.39
524.78	35789.13
524.96	36292.35
525.13	36030.21
525.30	36226.81
525.47	36189.36
525.64	36011.48
525.81	36170.64
525.98	36371.92
526.16	36503.00
526.33	36418.74
526.50	36940.68
526.67	36266.60
526.84	36339.16
527.01	36385.97
527.18	36517.04
527.36	36910.25
527.53	36601.30
527.70	37338.57
527.87	37537.51
528.04	36767.48
528.21	37137.28
528.38	37174.73
528.55	37275.37
528.72	36734.71
528.89	37251.97
529.07	37373.67
529.24	37340.91
529.41	37706.03
529.58	37453.25
529.75	37385.38
529.92	37574.96
530.09	37677.94
530.26	37907.32
530.43	37596.03
530.60	37486.02
530.77	37579.64
530.94	37724.75
531.11	37764.54
531.28	38010.30
531.46	38150.73
531.63	38305.21
531.80	37823.06
531.97	38251.38
532.14	38354.36
532.31	38113.28
532.48	38731.18
532.65	38642.24
532.82	38366.06
532.99	39196.95
533.16	38543.94
533.33	38766.29
533.50	39051.84
533.67	38689.06
533.84	38410.53
534.01	38895.02
534.18	39147.80
534.35	39377.17
534.52	38927.79
534.69	39491.86
534.86	39227.38
535.03	39012.05
535.20	39285.89
535.37	39206.31
535.54	39096.31
535.71	39215.68
535.88	39220.36
536.05	39030.77
536.22	39632.29
536.38	39709.53
536.55	39615.91
536.72	39662.72
536.89	39480.16
537.06	39800.81
537.23	39529.31
537.40	39885.07
537.57	40051.25
537.74	40002.10
537.91	40278.28
538.08	40280.62
538.25	39957.63
538.42	40119.12
538.59	40573.19
538.75	40165.93
538.92	40449.14
539.09	40570.85
539.26	40596.59
539.43	40418.71
539.60	40528.72
539.77	40580.21
539.94	40769.79
540.11	40795.54
540.28	40835.33
540.44	40591.91
540.61	41022.57
540.78	40685.53
540.95	40587.23
541.12	41038.95
541.29	40832.99
541.46	40706.60
541.62	41015.55
541.79	41125.55
541.96	40945.33
542.13	41282.37
542.30	41111.51
542.47	41324.50
542.63	41390.03
542.80	41483.66
542.97	41116.19
543.14	41916.65
543.31	41841.76
543.48	41390.03
543.64	42146.03
543.81	41996.23
543.98	42141.35
544.15	41816.01
544.32	42110.92
544.48	41977.51
544.65	42110.92
544.82	42436.25
544.99	41902.61
545.16	42286.46
545.32	41731.75
545.49	42621.16
545.66	42300.50
545.83	42447.96
546.00	42976.92
546.16	42494.77
546.33	41982.19
546.50	42286.46
546.67	42370.72
546.83	42623.50
547.00	42873.93
547.17	42944.15
547.34	43044.79
547.50	43313.95
547.67	43365.45
547.84	43131.39
548.00	43086.92
548.17	43536.30
548.34	43384.17
548.51	43199.27
548.67	43356.08
548.84	43124.37
549.01	42850.53
549.18	43241.40
549.34	43260.12
549.51	43611.20
549.68	43744.61
549.84	43313.95
550.01	43859.30
550.18	43393.53
550.34	43210.97
550.51	43770.36
550.68	43529.28
550.84	43391.19
551.01	43812.49
551.18	43292.89
551.34	43470.77
551.51	43730.57
551.68	43676.74
551.84	43672.06
552.01	43512.90
552.18	43805.47
552.34	43419.28
552.51	43669.72
552.68	43683.76
552.84	43957.60
553.01	44086.33
553.18	44299.32
553.34	43866.32
553.51	43983.35
553.67	43920.15
553.84	44381.24
554.01	44528.69
554.17	44364.85
554.34	44531.03
554.51	44442.09
554.67	44622.31
554.84	44552.10
555.00	44402.30
555.17	44694.87
555.33	44629.34
555.50	44423.37
555.67	44367.20
555.83	44397.62
556.00	44612.95
556.16	45387.67
556.33	45123.19
556.50	44540.39
556.66	44919.56
556.83	44722.96
556.99	45085.74
557.16	45294.05
557.32	45207.45
557.49	45221.49
557.65	44479.54
557.82	45272.98
557.98	44528.69
558.15	44961.69
558.32	45418.10
558.48	44783.81
558.65	44978.07
558.81	45708.32
558.98	45041.27
559.14	45020.20
559.31	45113.83
559.47	45198.09
559.64	45483.63
559.80	45467.25
559.97	45455.54
560.13	45343.20
560.30	45432.14
560.46	45792.58
560.63	45729.39
560.79	45790.24
560.96	45673.21
561.12	45673.21
561.29	45801.94
561.45	46033.66
561.61	45825.35
561.78	45771.52
561.94	45724.71
562.11	45975.14
562.27	45862.80
562.44	45743.43
562.60	45567.89
562.77	45663.85
562.93	45481.29
563.10	45975.14
563.26	45869.82
563.42	45907.27
563.59	45542.14
563.75	46209.20
563.92	46068.76
564.08	45762.15
564.24	45996.21
564.41	45738.75
564.57	46199.83
564.74	46092.17
564.90	45965.78
565.07	45951.74
565.23	46253.67
565.39	45982.16
565.56	46202.18
565.72	45713.00
565.88	46066.42
566.05	46078.13
566.21	45975.14
566.38	46351.97
566.54	46181.11
566.70	46234.94
566.87	46681.98
567.03	46007.91
567.19	46288.77
567.36	46213.88
567.52	46375.37
567.68	46611.77
567.85	46440.91
568.01	46431.55
568.17	46520.49
568.34	46520.49
568.50	46279.41
568.66	46370.69
568.83	46579.00
568.99	46415.16
569.15	46611.77
569.32	46405.80
569.48	46012.59
569.64	46557.94
569.81	46642.20
569.97	46522.83
570.13	46469.00
570.30	46183.45
570.46	46712.41
570.62	46295.80
570.78	46731.14
570.95	46665.60
571.11	46745.18
571.27	46616.45
571.43	46298.14
571.60	46742.84
571.76	46305.16
571.92	46092.17
572.09	46550.91
572.25	46499.42
572.41	46644.54
572.57	46962.85
572.74	46866.89
572.90	46817.74
573.06	46689.01
573.22	46871.57
573.38	46932.42
573.55	46871.57
573.71	47070.51
573.87	46951.15
574.03	47199.24
574.20	46621.13
574.36	47103.28
574.52	47117.32
574.68	46972.21
574.84	47079.88
575.01	47117.32
575.17	47037.75
575.33	47040.09
575.49	47030.72
575.65	47178.18
575.82	46897.31
575.98	46691.35
576.14	47571.39
576.30	47114.98
576.46	47009.66
576.62	47201.58
576.79	46609.43
576.95	46597.73
577.11	46965.19
577.27	46878.59
577.43	46735.82
577.59	47154.77
577.75	47114.98
577.92	46808.37
578.08	47049.45
578.24	47068.17
578.40	46930.08
578.56	46754.54
578.72	46976.89
578.88	47145.41
579.04	47299.89
579.21	47051.79
579.37	46766.24
579.53	47533.94
579.69	47309.25
579.85	47009.66
580.01	47320.95
580.17	47000.30
580.33	47203.92
580.49	46958.17
580.65	47264.78
580.82	46859.87
580.98	47033.07
581.14	46667.94
581.30	47531.60
581.46	47239.03
581.62	47639.26
581.78	46600.07
581.94	47456.70
582.10	47065.83
582.26	47643.94
582.42	47187.54
582.58	46967.53
582.74	46698.37
582.90	47505.85
583.06	47353.72
583.22	46897.31
583.38	47299.89
583.54	47398.19
583.70	47114.98
583.86	47372.44
584.02	46958.17
584.18	47498.83
584.34	47765.65
584.50	47611.18
584.66	47203.92
584.82	47445.00
584.98	47751.61
585.14	47606.50
585.30	47276.48
585.46	47309.25
585.62	47026.04
585.78	47487.13
585.94	47065.83
586.10	47508.19
586.26	47288.18
586.42	47311.59
586.58	47194.56
586.74	47388.83
586.90	47210.95
587.06	47234.35
587.22	47129.03
587.38	47407.55
587.54	48072.26
587.70	47430.96
587.86	47056.47
588.02	47529.26
588.18	47496.49
588.34	47353.72
588.49	47522.24
588.65	47082.22
588.81	47456.70
588.97	47814.80
589.13	47199.24
589.29	47674.37
589.45	48186.95
589.61	47547.98
589.77	47763.31
589.93	47402.87
590.08	47742.25
