SpectraSuite Data File
++++++++++++++++++++++++++++++++++++
Date: Fri Oct 25 11:33:23 EDT 2013
User: price-jones
Dark Spectrum Present: No
Reference Spectrum Present: No
Number of Sampled Component Spectra: 1
Spectrometers: USB2+H05261
Integration Time (usec): 100000 (USB2+H05261)
Spectra Averaged: 1 (USB2+H05261)
Boxcar Smoothing: 0 (USB2+H05261)
Correct for Electrical Dark: No (USB2+H05261)
Strobe/Lamp Enabled: No (USB2+H05261)
Correct for Detector Non-linearity: No (USB2+H05261)
Correct for Stray Light: No (USB2+H05261)
Number of Pixels in Processed Spectrum: 2048
>>>>>Begin Processed Spectral Data<<<<<
365.73	245.76
365.92	245.76
366.12	245.76
366.32	255.12
366.52	238.73
366.72	159.16
366.91	149.79
367.11	194.26
367.31	133.41
367.51	180.22
367.70	154.48
367.90	205.97
368.10	175.54
368.30	180.22
368.49	161.50
368.69	208.31
368.89	170.86
369.09	229.37
369.28	175.54
369.48	220.01
369.68	255.12
369.87	266.82
370.07	196.60
370.27	280.86
370.47	278.52
370.66	475.13
370.86	461.09
371.06	484.49
371.25	592.16
371.45	493.85
371.65	568.75
371.84	540.66
372.04	559.39
372.24	550.03
372.44	620.24
372.63	622.58
372.83	608.54
373.03	664.71
373.22	627.26
373.42	606.20
373.62	543.00
373.81	627.26
374.01	645.99
374.21	669.39
374.40	620.24
374.60	681.10
374.79	645.99
374.99	615.56
375.19	683.44
375.38	662.37
375.58	638.97
375.78	685.78
375.97	681.10
376.17	699.82
376.37	692.80
376.56	634.29
376.76	709.18
376.95	706.84
377.15	697.48
377.35	648.33
377.54	622.58
377.74	727.91
377.93	690.46
378.13	685.78
378.33	702.16
378.52	678.76
378.72	786.42
378.91	692.80
379.11	664.71
379.31	655.35
379.50	744.29
379.70	746.63
379.89	770.04
380.09	758.33
380.28	746.63
380.48	751.31
380.68	784.08
380.87	755.99
381.07	732.59
381.26	805.14
381.46	826.21
381.65	746.63
381.85	699.82
382.04	763.01
382.24	821.53
382.43	732.59
382.63	826.21
382.83	718.54
383.02	840.25
383.22	814.51
383.41	737.27
383.61	805.14
383.80	746.63
384.00	737.27
384.19	748.97
384.39	779.40
384.58	807.48
384.78	849.61
384.97	819.19
385.17	823.87
385.36	791.10
385.56	856.64
385.75	802.80
385.95	826.21
386.14	887.06
386.34	898.77
386.53	877.70
386.72	819.19
386.92	947.92
387.11	842.59
387.31	868.34
387.50	976.00
387.70	889.40
387.89	919.83
388.09	933.87
388.28	954.94
388.48	898.77
388.67	882.38
388.86	870.68
389.06	894.08
389.25	910.47
389.45	973.66
389.64	931.53
389.84	947.92
390.03	1034.52
390.22	990.05
390.42	968.98
390.61	922.17
390.81	901.11
391.00	954.94
391.19	1015.79
391.39	961.96
391.58	945.58
391.78	961.96
391.97	1008.77
392.16	1011.11
392.36	1020.47
392.55	1036.86
392.75	1083.67
392.94	1022.81
393.13	1081.33
393.33	1057.92
393.52	1118.78
393.71	1074.31
393.91	1158.57
394.10	1076.65
394.29	1053.24
394.49	1053.24
394.68	1083.67
394.88	1114.10
395.07	1163.25
395.26	1153.88
395.46	1170.27
395.65	1289.64
395.84	1224.10
396.04	1240.48
396.23	1240.48
396.42	1177.29
396.62	1294.32
396.81	1139.84
397.00	1245.16
397.19	1266.23
397.39	1294.32
397.58	1177.29
397.77	1254.53
397.97	1343.47
398.16	1336.45
398.35	1231.12
398.55	1343.47
398.74	1270.91
398.93	1320.06
399.12	1355.17
399.32	1233.46
399.51	1254.53
399.70	1315.38
399.90	1357.51
400.09	1409.00
400.28	1519.01
400.47	1331.76
400.67	1369.21
400.86	1418.36
401.05	1425.39
401.24	1416.02
401.44	1448.79
401.63	1500.28
401.82	1446.45
402.01	1394.96
402.21	1441.77
402.40	1519.01
402.59	1427.73
402.78	1460.49
402.97	1472.20
403.17	1523.69
403.36	1523.69
403.55	1570.50
403.74	1612.63
403.93	1558.80
404.13	1612.63
404.32	1561.14
404.51	1586.88
404.70	1673.48
404.89	1582.20
405.09	1589.22
405.28	1692.21
405.47	1675.82
405.66	1734.34
405.85	1760.08
406.05	1739.02
406.24	1706.25
406.43	1795.19
406.62	1806.89
406.81	1781.15
407.00	1785.83
407.20	1736.68
407.39	1767.10
407.58	1802.21
407.77	1797.53
407.96	1923.92
408.15	1837.32
408.34	1902.86
408.54	1968.39
408.73	1849.02
408.92	1863.07
409.11	1987.11
409.30	1973.07
409.49	1959.03
409.68	2024.56
409.87	2003.50
410.07	2073.71
410.26	2129.89
410.45	2078.40
410.64	2085.42
410.83	2113.50
411.02	2190.74
411.21	2207.13
411.40	2113.50
411.59	2190.74
411.78	2139.25
411.98	2265.64
412.17	2349.90
412.36	2401.39
412.55	2260.96
412.74	2340.54
412.93	2326.49
413.12	2342.88
413.31	2490.33
413.50	2356.92
413.69	2448.20
413.88	2441.18
414.07	2356.92
414.26	2509.05
414.45	2473.95
414.64	2588.63
414.83	2534.80
415.02	2579.27
415.22	2609.70
415.41	2733.75
415.60	2675.23
415.79	2607.36
415.98	2803.96
416.17	2754.81
416.36	2782.90
416.55	2724.38
416.74	2822.69
416.93	2883.54
417.12	2724.38
417.31	2820.35
417.50	2771.19
417.69	3042.70
417.88	2867.16
418.07	2960.78
418.26	2942.05
418.45	3000.57
418.64	3033.33
418.83	3084.83
419.02	3077.80
419.21	3056.74
419.39	3180.79
419.58	3176.11
419.77	3129.30
419.96	3073.12
420.15	3124.62
420.34	3138.66
420.53	3157.38
420.72	3194.83
420.91	3239.30
421.10	3148.02
421.29	3276.75
421.48	3185.47
421.67	3337.60
421.86	3344.63
422.05	3225.26
422.24	3213.56
422.43	3276.75
422.61	3325.90
422.80	3466.33
422.99	3583.36
423.18	3557.61
423.37	3384.41
423.56	3363.35
423.75	3459.31
423.94	3325.90
424.13	3190.15
424.32	3274.41
424.50	3447.61
424.69	3627.83
424.88	3503.78
425.07	3424.20
425.26	3489.74
425.45	3445.27
425.64	3566.98
425.83	3346.97
426.01	3403.14
426.20	3478.04
426.39	3590.38
426.58	3515.48
426.77	3644.21
426.96	3499.10
427.15	3536.55
427.33	3468.67
427.52	3599.74
427.71	3623.15
427.90	3740.18
428.09	3576.34
428.28	3831.46
428.46	3557.61
428.65	3749.54
428.84	3796.35
429.03	3538.89
429.22	3637.19
429.40	3775.28
429.59	3805.71
429.78	3705.07
429.97	3723.79
430.16	3922.74
430.34	3817.41
430.53	3960.19
430.72	3995.29
430.91	3852.52
431.10	3803.37
431.28	3925.08
431.47	3838.48
431.66	4142.75
431.85	3892.31
432.03	4100.62
432.22	4205.94
432.41	4196.58
432.60	4259.78
432.79	4105.30
432.97	4021.04
433.16	4212.96
433.35	4091.26
433.54	4238.71
433.72	4138.07
433.91	4168.49
434.10	4152.11
434.28	4229.35
434.47	4217.65
434.66	4390.84
434.85	4287.86
435.03	4351.06
435.22	4297.22
435.41	4325.31
435.59	4414.25
435.78	4521.92
435.97	4486.81
436.16	4458.72
436.34	4271.48
436.53	4355.74
436.72	4592.13
436.90	4425.95
437.09	4557.02
437.28	4423.61
437.46	4461.06
437.65	4617.88
437.84	4737.24
438.02	4664.69
438.21	4631.92
438.40	4645.96
438.58	4753.63
438.77	4713.84
438.96	4760.65
439.14	4880.02
439.33	4997.04
439.52	4940.87
439.70	4863.63
439.89	4968.96
440.08	5029.81
440.26	5057.90
440.45	5076.62
440.63	5118.75
440.82	5200.67
441.01	5118.75
441.19	5078.96
441.38	5186.63
441.57	5303.65
441.75	5303.65
441.94	5327.06
442.12	5408.98
442.31	5502.60
442.50	5448.77
442.68	5465.15
442.87	5322.38
443.05	5549.41
443.24	5748.36
443.43	5638.35
443.61	5736.65
443.80	5617.29
443.98	5420.68
444.17	5383.23
444.35	5713.25
444.54	5668.78
444.73	5619.63
444.91	5640.69
445.10	5846.66
445.28	5617.29
445.47	5750.70
445.65	5666.44
445.84	5776.44
446.02	5746.02
446.21	5626.65
446.39	5675.80
446.58	5818.57
446.77	5788.14
446.95	5638.35
447.14	5685.16
447.32	5834.96
447.51	5827.93
447.69	5764.74
447.88	5699.20
448.06	5788.14
448.25	5762.40
448.43	5741.33
448.62	5802.19
448.80	5813.89
448.99	6120.50
449.17	6094.76
449.36	5980.07
449.54	5949.64
449.73	6078.37
449.91	6326.47
450.10	6076.03
450.28	6069.01
450.46	6160.29
450.65	6031.56
450.83	6225.82
451.02	6150.93
451.20	6267.95
451.39	6174.33
451.57	6118.16
451.76	6141.57
451.94	6333.49
452.13	6363.92
452.31	6366.26
452.49	6183.70
452.68	6413.07
452.86	6483.28
453.05	6483.28
453.23	6420.09
453.42	6249.23
453.60	6321.79
453.78	6373.28
453.97	6375.62
454.15	6424.77
454.34	6569.88
454.52	6698.61
454.70	6487.96
454.89	6724.36
455.07	6541.80
455.26	6494.99
455.44	6822.66
455.62	6787.55
455.81	6780.53
455.99	6825.00
456.17	6913.94
456.36	6803.94
456.54	6773.51
456.73	7014.59
456.91	7070.76
457.09	7122.25
457.28	7094.16
457.46	7002.88
457.64	7042.67
457.83	7197.15
458.01	7133.95
458.19	7197.15
458.38	7190.13
458.56	7311.83
458.74	7239.28
458.93	7248.64
459.11	7297.79
459.29	7243.96
459.48	7351.62
459.66	7363.33
459.84	7337.58
460.03	7475.67
460.21	7487.37
460.39	7375.03
460.57	7538.87
460.76	7564.61
460.94	7585.68
461.12	7606.74
461.31	7534.18
461.49	7644.19
461.67	7604.40
461.85	7562.27
462.04	7634.83
462.22	8231.66
462.40	7793.98
462.59	7962.50
462.77	7499.08
462.95	7845.48
463.13	8023.36
463.32	7700.36
463.50	8016.33
463.68	8098.25
463.86	8077.19
464.05	7847.82
464.23	7878.24
464.41	7918.03
464.59	7789.30
464.78	8177.83
464.96	8166.13
465.14	8037.40
465.32	8042.08
465.50	8042.08
465.69	8093.57
465.87	8203.58
466.05	8283.16
466.23	8135.70
466.41	8273.79
466.60	8451.67
466.78	8114.64
466.96	8238.69
467.14	8245.71
467.32	8243.37
467.51	8592.11
467.69	8173.15
467.87	8571.04
468.05	8283.16
468.23	8355.71
468.41	8479.76
468.60	8304.22
468.78	8608.49
468.96	8510.19
469.14	8667.00
469.32	8774.67
469.50	8365.07
469.69	8641.26
469.87	8926.80
470.05	8713.81
470.23	8709.13
470.41	8777.01
470.59	8990.00
470.77	8924.46
470.95	8968.93
471.14	9146.81
471.32	8702.11
471.50	9125.75
471.68	9032.13
471.86	9036.81
472.04	9245.12
472.22	9345.76
472.40	9123.41
472.58	9130.43
472.77	9406.61
472.95	9270.86
473.13	9699.18
473.31	9434.70
473.49	9518.96
473.67	9488.53
473.85	9514.28
474.03	9666.41
474.21	9750.67
474.39	10125.16
474.57	9783.44
474.75	10188.35
474.93	10043.24
475.12	10071.33
475.30	10024.51
475.48	9942.60
475.66	10174.31
475.84	10141.54
476.02	10167.29
476.20	10300.70
476.38	10555.82
476.56	10663.48
476.74	10368.57
476.92	10607.31
477.10	10651.78
477.28	10773.49
477.46	10796.89
477.64	11098.82
477.82	11037.97
478.00	11124.57
478.18	11255.64
478.36	11274.36
478.54	11515.44
478.72	11557.57
478.90	11662.89
479.08	11583.31
479.26	11742.47
479.44	11714.38
479.62	11836.09
479.80	11906.31
479.98	12081.85
480.16	12161.42
480.34	12184.83
480.52	12496.12
480.70	12285.47
480.88	12217.60
481.06	12390.80
481.24	12393.14
481.41	12814.43
481.59	12641.23
481.77	12823.80
481.95	13193.60
482.13	13146.79
482.31	13310.63
482.49	13245.09
482.67	13202.96
482.85	13359.78
483.03	13437.02
483.21	13619.58
483.39	13738.94
483.57	13799.80
483.74	14054.92
483.92	14225.78
484.10	14036.19
484.28	14321.74
484.46	14469.19
484.64	14827.29
484.82	14452.81
485.00	14651.75
485.18	15028.58
485.35	15281.36
485.53	15176.03
485.71	15396.04
485.89	15690.95
486.07	15475.62
486.25	15630.10
486.43	15604.35
486.61	15873.51
486.78	15925.00
486.96	16269.06
487.14	16147.36
487.32	16053.73
487.50	16456.31
487.68	16414.18
487.85	16664.61
488.03	17088.25
488.21	17062.51
488.39	17179.53
488.57	17235.70
488.75	17319.96
488.92	17378.48
489.10	17563.38
489.28	17532.95
489.46	17909.78
489.64	17692.11
489.81	18410.65
489.99	18183.62
490.17	18307.67
490.35	18511.30
490.53	18689.18
490.70	18864.72
490.88	18445.76
491.06	19168.99
491.24	18731.31
491.41	19143.24
491.59	19342.19
491.77	19185.37
491.95	19688.59
492.13	19491.98
492.30	19683.91
492.48	19852.42
492.66	19985.83
492.84	19906.26
493.01	20339.26
493.19	20025.62
493.37	20287.76
493.54	20643.52
493.72	20788.64
493.90	20744.17
494.08	21022.69
494.25	21357.39
494.43	21046.10
494.61	21322.28
494.79	21195.89
494.96	21523.57
495.14	21259.09
495.32	21542.29
495.49	21905.07
495.67	21848.90
495.85	21832.52
496.02	22141.47
496.20	22391.91
496.38	22621.28
496.55	22572.13
496.73	23058.96
496.91	22916.19
497.09	22977.04
497.26	22632.98
497.44	23119.81
497.62	23337.48
497.79	23466.21
497.97	23314.08
498.14	23770.48
498.32	24077.09
498.50	23847.72
498.67	23740.05
498.85	23896.87
499.03	24350.93
499.20	24294.76
499.38	24680.95
499.56	24320.51
499.73	24615.41
499.91	24769.89
500.08	25088.20
500.26	24896.28
500.44	24388.38
500.61	24985.22
500.79	24954.79
500.97	25497.80
501.14	25333.96
501.32	25390.13
501.49	25603.12
501.67	25362.04
501.84	25511.84
502.02	25546.95
502.20	25846.54
502.37	26031.44
502.55	25830.15
502.72	26199.96
502.90	26202.30
503.07	25975.27
503.25	26143.78
503.43	26223.36
503.60	26352.09
503.78	26480.82
503.95	26272.51
504.13	26759.34
504.30	26867.01
504.48	27080.00
504.65	26937.23
504.83	27260.22
505.01	27278.94
505.18	27234.47
505.36	27550.45
505.53	27442.78
505.71	27536.40
505.88	27644.07
506.06	27435.76
506.23	27651.09
506.41	27484.91
506.58	27763.43
506.76	28030.26
506.93	28142.60
507.11	28259.63
507.28	28163.67
507.46	28519.43
507.63	28512.41
507.81	28503.04
507.98	28566.24
508.16	28772.21
508.33	28975.83
508.50	28854.12
508.68	29275.42
508.85	29432.24
509.03	29017.96
509.20	29249.67
509.38	29642.88
509.55	29378.40
509.73	29584.37
509.90	29720.12
510.08	29621.82
510.25	29916.73
510.42	29785.66
510.60	30134.40
510.77	29883.96
510.95	30382.49
511.12	30497.18
511.30	30389.52
511.47	30462.07
511.64	30106.31
511.82	30670.38
511.99	30492.50
512.17	30380.15
512.34	30775.70
512.51	31140.83
512.69	31140.83
512.86	31199.34
513.04	30642.29
513.21	31119.76
513.38	31147.85
513.56	31707.24
513.73	31461.48
513.90	31344.45
514.08	31559.78
514.25	31903.84
514.43	31782.13
514.60	31363.18
514.77	31850.01
514.95	32184.71
515.12	32020.87
515.29	32067.68
515.47	32041.93
515.64	32629.41
515.81	32121.51
515.99	32498.34
516.16	32453.87
516.33	32320.46
516.51	32921.98
516.68	32456.21
516.85	32978.15
517.03	32814.31
517.20	32947.72
517.37	32711.33
517.54	33149.01
517.72	33268.37
517.89	33010.92
518.06	33521.15
518.24	33181.77
518.41	33425.19
518.58	33205.18
518.75	33202.84
518.93	33378.38
519.10	33668.61
519.27	33647.54
519.45	33378.38
519.62	34113.31
519.79	33947.13
519.96	33809.04
520.14	34403.53
520.31	33507.11
520.48	34632.91
520.65	34672.70
520.83	35005.05
521.00	34951.22
521.17	34892.71
521.34	34836.53
521.52	34679.72
521.69	34600.14
521.86	34890.37
522.03	35213.36
522.20	35077.61
522.38	35332.73
522.55	35271.87
522.72	35482.52
522.89	35316.34
523.07	35585.50
523.24	35140.80
523.41	35716.58
523.58	35681.47
523.75	35950.63
523.92	35796.15
524.10	35735.30
524.27	35880.41
524.44	35861.69
524.61	36205.75
524.78	35981.06
524.96	36158.94
525.13	36318.09
525.30	36381.29
525.47	36224.47
525.64	36175.32
525.81	36514.70
525.98	36723.01
526.16	36605.98
526.33	36287.67
526.50	36994.51
526.67	36453.84
526.84	36662.15
527.01	36641.09
527.18	37085.79
527.36	37053.02
527.53	37263.67
527.70	37315.16
527.87	37530.49
528.04	37324.52
528.21	37188.77
528.38	37329.20
528.55	37479.00
528.72	37146.64
528.89	37563.26
529.07	37778.59
529.24	37553.90
529.41	37872.21
529.58	37186.43
529.75	37298.78
529.92	37991.58
530.09	38075.84
530.26	38005.62
530.43	38319.25
530.60	37818.38
530.77	38024.34
530.94	38305.21
531.11	38167.12
531.28	38391.81
531.46	38457.34
531.63	38567.35
531.80	38398.83
531.97	38623.52
532.14	38766.29
532.31	38440.96
532.48	38878.64
532.65	39187.59
532.82	38703.10
532.99	39115.03
533.16	38625.86
533.33	38845.87
533.50	39129.08
533.67	38852.89
533.84	38590.75
534.01	38892.68
534.18	38998.01
534.35	39522.29
534.52	39533.99
534.69	39484.84
534.86	39456.75
535.03	39178.23
535.20	39681.44
535.37	39835.92
535.54	40161.25
535.71	39531.65
535.88	40053.59
536.05	39838.26
536.22	40058.27
536.38	40170.61
536.55	40016.14
536.72	40011.46
536.89	39934.22
537.06	40100.40
537.23	40273.60
537.40	39831.24
537.57	40062.95
537.74	40067.63
537.91	40437.44
538.08	39966.99
538.25	40362.54
538.42	40343.81
538.59	40528.72
538.75	40533.40
538.92	40989.80
539.09	40596.59
539.26	40444.46
539.43	41429.82
539.60	40996.82
539.77	40697.24
539.94	41436.84
540.11	41076.40
540.28	40847.03
540.44	40847.03
540.61	41113.85
540.78	40549.78
540.95	41151.30
541.12	41109.17
541.29	40832.99
541.46	41207.47
541.62	41441.53
541.79	41467.27
541.96	40800.22
542.13	41418.12
542.30	41778.56
542.47	41216.83
542.63	41785.58
542.80	41965.81
542.97	42024.32
543.14	42124.96
543.31	42351.99
543.48	41888.57
543.64	42155.39
543.81	42190.50
543.98	41961.12
544.15	42473.70
544.32	42263.05
544.48	42806.06
544.65	42583.71
544.82	42527.53
544.99	42232.63
545.16	42649.24
545.32	42195.18
545.49	43107.99
545.66	43374.81
545.83	42808.40
546.00	42859.89
546.16	43161.82
546.33	42667.97
546.50	42859.89
546.67	42822.44
546.83	42864.57
547.00	42672.65
547.17	42618.81
547.34	42983.94
547.50	43054.15
547.67	43438.00
547.84	43030.75
548.00	43515.24
548.17	43452.05
548.34	43435.66
548.51	43414.60
548.67	43409.92
548.84	43402.89
549.01	43552.69
549.18	43246.08
549.34	43585.46
549.51	44231.44
549.68	43826.53
549.84	43730.57
550.01	44093.35
550.18	43199.27
550.34	44088.67
550.51	43753.97
550.68	44186.97
550.84	43683.76
551.01	44147.18
551.18	44229.10
551.34	44016.11
551.51	44383.58
551.68	44109.74
551.84	43831.21
552.01	43658.01
552.18	44320.38
552.34	43945.90
552.51	44165.91
552.68	44135.48
552.84	44648.06
553.01	44502.95
553.18	44273.57
553.34	44240.81
553.51	44657.42
553.67	44765.09
553.84	44734.66
554.01	44601.25
554.17	44437.41
554.34	45172.34
554.51	44863.39
554.67	45233.19
554.84	44751.04
555.00	44608.27
555.17	44671.46
555.33	44659.76
555.50	44626.99
555.67	45174.68
555.83	45244.90
556.00	45017.86
556.16	45703.64
556.33	45375.97
556.50	45500.01
556.66	45067.02
556.83	45319.79
556.99	45586.61
557.16	45638.11
557.32	45352.56
557.49	45162.98
557.65	45310.43
557.82	45130.21
557.98	45448.52
558.15	45387.67
558.32	45406.39
558.48	45462.57
558.65	45490.65
558.81	45764.49
558.98	45422.78
559.14	45394.69
559.31	45284.68
559.47	45368.94
559.64	45947.06
559.80	45713.00
559.97	45605.34
560.13	45558.53
560.30	45778.54
560.46	45682.58
560.63	45574.91
560.79	46171.75
560.96	46089.83
561.12	46040.68
561.29	46078.13
561.45	46092.17
561.61	46122.60
561.78	46000.89
561.94	45961.10
562.11	45951.74
562.27	45867.48
562.44	45975.14
562.60	46181.11
562.77	45825.35
562.93	45642.79
563.10	46724.11
563.26	46422.19
563.42	46307.50
563.59	46124.94
563.75	45982.16
563.92	46124.94
564.08	46033.66
564.24	46555.60
564.41	46422.19
564.57	46272.39
564.74	46293.46
564.90	46227.92
565.07	46305.16
565.23	46415.16
565.39	46529.85
565.56	46705.39
565.72	46398.78
565.88	46426.87
566.05	46396.44
566.21	46539.21
566.38	46445.59
566.54	46646.88
566.70	46782.63
566.87	46595.38
567.03	46569.64
567.19	46972.21
567.36	46667.94
567.52	46696.03
567.68	46885.61
567.85	47136.05
568.01	46862.21
568.17	46394.10
568.34	46703.05
568.50	46974.55
568.66	46586.02
568.83	46983.91
568.99	46529.85
569.15	46775.61
569.32	46848.16
569.48	46789.65
569.64	46967.53
569.81	47199.24
569.97	46890.29
570.13	47096.26
570.30	46452.61
570.46	46925.40
570.62	47000.30
570.78	46899.65
570.95	47140.73
571.11	46911.36
571.27	46693.69
571.43	47110.30
571.60	46834.12
571.76	46820.08
571.92	47112.64
572.09	47093.92
572.25	47105.62
572.41	46796.67
572.57	47173.50
572.74	47445.00
572.90	47030.72
573.06	47051.79
573.22	47199.24
573.38	47550.32
573.55	47084.56
573.71	47562.03
573.87	47229.67
574.03	46995.62
574.20	47161.79
574.36	47201.58
574.52	47454.36
574.68	47386.49
574.84	47618.20
575.01	47700.12
575.17	47625.22
575.33	46817.74
575.49	47157.11
575.65	46916.04
575.82	47629.90
575.98	47100.94
576.14	47508.19
576.30	47657.99
576.46	47180.52
576.62	47264.78
576.79	47407.55
576.95	47124.35
577.11	47185.20
577.27	47494.15
577.43	47454.36
577.59	47686.07
577.75	47381.80
577.92	47157.11
578.08	47014.34
578.24	47323.29
578.40	47775.02
578.56	47831.19
578.72	47594.79
578.88	47454.36
579.04	47728.20
579.21	47306.91
579.37	47215.63
579.53	47817.14
579.69	47405.21
579.85	47519.90
580.01	47660.33
580.17	47449.68
580.33	47299.89
580.49	47489.47
580.65	47377.12
580.82	47414.57
580.98	47412.23
581.14	47421.59
581.30	47718.84
581.46	47192.22
581.62	47173.50
581.78	47288.18
581.94	47325.63
582.10	47482.45
582.26	47213.29
582.42	47587.77
582.58	47660.33
582.74	47711.82
582.90	47681.39
583.06	47854.59
583.22	47409.89
583.38	47854.59
583.54	47482.45
583.70	47798.42
583.86	47756.29
584.02	47985.66
584.18	47810.12
584.34	47604.16
584.50	47592.45
584.66	47913.11
584.82	47901.40
584.98	48245.46
585.14	48044.18
585.30	47452.02
585.46	47672.03
585.62	47732.89
585.78	47920.13
585.94	47625.22
586.10	47629.90
586.26	47337.33
586.42	48065.24
586.58	47522.24
586.74	47384.15
586.90	47524.58
587.06	47704.80
587.22	47744.59
587.38	47826.51
587.54	48186.95
587.70	48163.54
587.86	47730.54
588.02	47786.72
588.18	47821.83
588.34	48261.85
588.49	47913.11
588.65	47725.86
588.81	47620.54
588.97	47819.49
589.13	47585.43
589.29	47887.36
589.45	47739.91
589.61	48109.71
589.77	48100.35
589.93	47859.27
