SpectraSuite Data File
++++++++++++++++++++++++++++++++++++
Date: Fri Oct 25 10:44:29 EDT 2013
User: price-jones
Dark Spectrum Present: No
Reference Spectrum Present: No
Number of Sampled Component Spectra: 1
Spectrometers: USB2+H05261
Integration Time (usec): 100000 (USB2+H05261)
Spectra Averaged: 1 (USB2+H05261)
Boxcar Smoothing: 0 (USB2+H05261)
Correct for Electrical Dark: No (USB2+H05261)
Strobe/Lamp Enabled: No (USB2+H05261)
Correct for Detector Non-linearity: No (USB2+H05261)
Correct for Stray Light: No (USB2+H05261)
Number of Pixels in Processed Spectrum: 2048
>>>>>Begin Processed Spectral Data<<<<<
365.73	119.37
365.92	119.37
366.12	119.37
366.32	67.88
366.52	11.70
366.72	98.30
366.91	0.00
367.11	25.75
367.31	0.00
367.51	16.38
367.70	25.75
367.90	35.11
368.10	84.26
368.30	60.85
368.49	0.00
368.69	49.15
368.89	30.43
369.09	0.00
369.28	74.90
369.48	42.13
369.68	128.73
369.87	117.03
370.07	98.30
370.27	117.03
370.47	208.31
370.66	402.57
370.86	362.78
371.06	437.68
371.25	454.06
371.45	442.36
371.65	498.53
371.84	421.30
372.04	388.53
372.24	519.60
372.44	435.34
372.63	458.74
372.83	475.13
373.03	463.43
373.22	472.79
373.42	400.23
373.62	631.94
373.81	524.28
374.01	624.92
374.21	442.36
374.40	444.70
374.60	554.71
374.79	599.18
374.99	613.22
375.19	580.45
375.38	615.56
375.58	552.37
375.78	601.52
375.97	589.82
376.17	697.48
376.37	582.79
376.56	622.58
376.76	559.39
376.95	606.20
377.15	615.56
377.35	629.60
377.54	674.07
377.74	521.94
377.93	634.29
378.13	671.73
378.33	603.86
378.52	631.94
378.72	653.01
378.91	610.88
379.11	730.25
379.31	641.31
379.50	594.50
379.70	645.99
379.89	606.20
380.09	629.60
380.28	676.41
380.48	671.73
380.68	624.92
380.87	617.90
381.07	699.82
381.26	791.10
381.46	753.65
381.65	709.18
381.85	681.10
382.04	650.67
382.24	744.29
382.43	622.58
382.63	643.65
382.83	648.33
383.02	737.27
383.22	791.10
383.41	690.46
383.61	765.36
383.80	746.63
384.00	777.06
384.19	741.95
384.39	781.74
384.58	760.67
384.78	844.93
384.97	779.40
385.17	734.93
385.36	734.93
385.56	814.51
385.75	779.40
385.95	784.08
386.14	894.08
386.34	751.31
386.53	851.96
386.72	903.45
386.92	788.76
387.11	842.59
387.31	875.36
387.50	830.89
387.70	819.19
387.89	882.38
388.09	718.54
388.28	873.02
388.48	840.25
388.67	896.43
388.86	919.83
389.06	912.81
389.25	894.08
389.45	938.55
389.64	947.92
389.84	973.66
390.03	940.90
390.22	908.13
390.42	938.55
390.61	1008.77
390.81	950.26
391.00	971.32
391.19	978.34
391.39	976.00
391.58	987.71
391.78	1062.60
391.97	1004.09
392.16	950.26
392.36	1001.75
392.55	1011.11
392.75	887.06
392.94	978.34
393.13	1064.94
393.33	1029.84
393.52	1062.60
393.71	997.07
393.91	1015.79
394.10	990.05
394.29	1029.84
394.49	1153.88
394.68	1151.54
394.88	1174.95
395.07	1160.91
395.26	1081.33
395.46	1207.72
395.65	1146.86
395.84	1121.12
396.04	1268.57
396.23	1123.46
396.42	1121.12
396.62	1153.88
396.81	1160.91
397.00	1149.20
397.19	1210.06
397.39	1219.42
397.58	1275.59
397.77	1362.19
397.97	1423.05
398.16	1334.11
398.35	1448.79
398.55	1390.28
398.74	1430.07
398.93	1439.43
399.12	1397.30
399.32	1462.83
399.51	1441.77
399.70	1483.90
399.90	1514.33
400.09	1568.16
400.28	1542.41
400.47	1533.05
400.67	1526.03
400.86	1575.18
401.05	1619.65
401.24	1572.84
401.44	1673.48
401.63	1591.56
401.82	1664.12
402.01	1563.48
402.21	1621.99
402.40	1687.53
402.59	1673.48
402.78	1605.61
402.97	1701.57
403.17	1694.55
403.36	1699.23
403.55	1760.08
403.74	1736.68
403.93	1846.68
404.13	1748.38
404.32	1680.50
404.51	1734.34
404.70	1750.72
404.89	1858.39
405.09	1879.45
405.28	1825.62
405.47	1923.92
405.66	1942.64
405.85	1888.81
406.05	1884.13
406.24	1893.49
406.43	1844.34
406.62	1984.77
406.81	2010.52
407.00	1888.81
407.20	1954.35
407.39	1954.35
407.58	2024.56
407.77	2099.46
407.96	2090.10
408.15	2066.69
408.34	2127.55
408.54	2204.78
408.73	2099.46
408.92	2183.72
409.11	2179.04
409.30	2214.15
409.49	2108.82
409.68	2167.34
409.87	2244.57
410.07	2265.64
410.26	2263.30
410.45	2256.28
410.64	2363.94
410.83	2438.84
411.02	2359.26
411.21	2410.75
411.40	2511.39
411.59	2408.41
411.78	2434.16
411.98	2380.32
412.17	2558.21
412.36	2544.16
412.55	2572.25
412.74	2651.83
412.93	2621.40
413.12	2574.59
413.31	2796.94
413.50	2752.47
413.69	2803.96
413.88	2705.66
414.07	2745.45
414.26	2799.28
414.45	2822.69
414.64	2850.77
414.83	2864.82
415.02	2841.41
415.22	3016.95
415.41	2974.82
415.60	2885.88
415.79	3038.02
415.98	2942.05
416.17	3162.06
416.36	3049.72
416.55	2991.20
416.74	3119.93
416.93	3105.89
417.12	3234.62
417.31	3110.57
417.50	3208.87
417.69	3335.26
417.88	3197.17
418.07	3269.73
418.26	3311.86
418.45	3293.13
418.64	3419.52
418.83	3363.35
419.02	3492.08
419.21	3330.58
419.39	3494.42
419.58	3400.80
419.77	3438.25
419.96	3419.52
420.15	3534.21
420.34	3494.42
420.53	3456.97
420.72	3667.62
420.91	3531.87
421.10	3693.37
421.29	3566.98
421.48	3625.49
421.67	3779.97
421.86	3321.22
422.05	3674.64
422.24	3480.38
422.43	3763.58
422.61	3688.68
422.80	3847.84
422.99	3803.37
423.18	3709.75
423.37	3789.33
423.56	3712.09
423.75	3634.85
423.94	3868.91
424.13	3456.97
424.32	3672.30
424.50	3751.88
424.69	3875.93
424.88	3840.82
425.07	3754.22
425.26	3719.11
425.45	3749.54
425.64	3836.14
425.83	3817.41
426.01	3927.42
426.20	3908.69
426.39	3822.09
426.58	3859.54
426.77	3794.01
426.96	3779.97
427.15	3882.95
427.33	3962.53
427.52	3953.16
427.71	3969.55
427.90	3960.19
428.09	3927.42
428.28	4084.23
428.46	3976.57
428.65	4100.62
428.84	3943.80
429.03	4236.37
429.22	3794.01
429.40	3943.80
429.59	4074.87
429.78	3810.39
429.97	3812.73
430.16	3868.91
430.34	3969.55
430.53	4049.13
430.72	4095.94
430.91	4039.76
431.10	4283.18
431.28	4313.61
431.47	4512.55
431.66	4308.93
431.85	4341.69
432.03	4498.51
432.22	4521.92
432.41	4552.34
432.60	4526.60
432.79	4575.75
432.97	4517.23
433.16	4617.88
433.35	4449.36
433.54	4430.63
433.72	4585.11
433.91	4521.92
434.10	4634.26
434.28	4650.64
434.47	4727.88
434.66	4786.40
434.85	4720.86
435.03	4734.90
435.22	4718.52
435.41	4997.04
435.59	4847.25
435.78	4950.23
435.97	4873.00
436.16	4938.53
436.34	4952.57
436.53	4940.87
436.72	4929.17
436.90	4770.01
437.09	4905.76
437.28	4800.44
437.46	4805.12
437.65	5027.47
437.84	5013.43
438.02	5067.26
438.21	4990.02
438.40	5022.79
438.58	5226.42
438.77	5181.95
438.96	5245.14
439.14	5399.62
439.33	5268.55
439.52	5366.85
439.70	5376.21
439.89	5359.83
440.08	5331.74
440.26	5516.64
440.45	5479.19
440.63	5582.18
440.82	5668.78
441.01	5849.00
441.19	5692.18
441.38	5888.79
441.57	5806.87
441.75	5970.71
441.94	6050.28
442.12	5905.17
442.31	6059.65
442.50	6125.18
442.68	6015.18
442.87	5895.81
443.05	6001.13
443.24	6143.91
443.43	6265.61
443.61	6111.14
443.80	6237.53
443.98	6202.42
444.17	6134.54
444.35	6190.72
444.54	6370.94
444.73	6352.21
444.91	6200.08
445.10	6094.76
445.28	6235.19
445.47	6134.54
445.65	6026.88
445.84	6176.67
446.02	6415.41
446.21	6274.98
446.39	6300.72
446.58	6417.75
446.77	6375.62
446.95	6319.45
447.14	6502.01
447.32	6532.44
447.51	6431.79
447.69	6527.75
447.88	6483.28
448.06	6427.11
448.25	6403.71
448.43	6485.62
448.62	6408.39
448.80	6506.69
448.99	6621.38
449.17	6654.14
449.36	6530.09
449.54	6558.18
449.73	6633.08
449.91	6869.47
450.10	6780.53
450.28	6963.09
450.46	6839.05
450.65	6857.77
450.83	6782.87
451.02	6902.24
451.20	7005.22
451.39	6991.18
451.57	7098.84
451.76	6775.85
451.94	6832.02
452.13	6799.26
452.31	6904.58
452.49	6651.80
452.68	6906.92
452.86	6939.69
453.05	7110.55
453.23	7052.03
453.42	7136.29
453.60	6960.75
453.78	7194.81
453.97	7070.76
454.15	7033.31
454.34	7087.14
454.52	7021.61
454.70	7140.97
454.89	7124.59
455.07	7407.80
455.26	7339.92
455.44	7288.43
455.62	7466.31
455.81	7304.81
455.99	7529.50
456.17	7515.46
456.36	7414.82
456.54	7372.69
456.73	7655.89
456.91	7857.18
457.09	7733.13
457.28	7981.23
457.46	7648.87
457.64	7744.83
457.83	7669.94
458.01	7531.84
458.19	7911.01
458.38	7742.49
458.56	7927.39
458.74	7822.07
458.93	7885.26
459.11	7976.55
459.29	7927.39
459.48	7908.67
459.66	7845.48
459.84	7878.24
460.03	8264.43
460.21	8079.53
460.39	8175.49
460.57	8241.03
460.76	8109.96
460.94	8191.88
461.12	8367.42
461.31	8318.26
461.49	8339.33
461.67	8351.03
461.85	8376.78
462.04	8283.16
462.22	8791.05
462.40	8493.80
462.59	8390.82
462.77	8552.32
462.95	8451.67
463.13	8540.61
463.32	8575.72
463.50	8779.35
463.68	8730.20
463.86	8500.83
464.05	8688.07
464.23	8554.66
464.41	8627.21
464.59	8643.60
464.78	8940.85
464.96	8681.05
465.14	8702.11
465.32	8812.12
465.50	8975.95
465.69	8952.55
465.87	8833.18
466.05	8863.61
466.23	8741.90
466.41	8847.22
466.60	8966.59
466.78	8929.14
466.96	8835.52
467.14	8833.18
467.32	8959.57
467.51	9130.43
467.69	8863.61
467.87	9210.01
468.05	9015.74
468.23	8933.82
468.41	9053.19
468.60	9231.07
468.78	9308.31
468.96	8933.82
469.14	9413.63
469.32	9275.54
469.50	9043.83
469.69	9305.97
469.87	9305.97
470.05	9329.38
470.23	9240.44
470.41	9570.45
470.59	9446.40
470.77	9418.32
470.95	9565.77
471.14	9523.64
471.32	9423.00
471.50	9598.54
471.68	9799.82
471.86	9893.44
472.04	9790.46
472.22	10146.22
472.40	9914.51
472.58	10029.20
472.77	9961.32
472.95	10045.58
473.13	10305.38
473.31	10155.58
473.49	10211.76
473.67	10476.24
473.85	10207.08
474.03	10796.89
474.21	10808.59
474.39	10736.04
474.57	10604.97
474.75	10817.96
474.93	10691.57
475.12	10773.49
475.30	10918.60
475.48	10855.40
475.66	10874.13
475.84	10824.98
476.02	10998.18
476.20	10951.37
476.38	10970.09
476.56	11435.86
476.74	11391.39
476.92	11290.74
477.10	11431.18
477.28	11564.59
477.46	11686.29
477.64	11686.29
477.82	11826.73
478.00	11929.71
478.18	12049.08
478.36	12004.61
478.54	12343.99
478.72	12255.04
478.90	12418.88
479.08	12500.80
479.26	12573.36
479.44	12805.07
479.62	12865.92
479.80	12636.55
479.98	12905.71
480.16	13156.15
480.34	12968.91
480.52	13186.58
480.70	13205.30
480.88	13055.51
481.06	13289.56
481.24	13497.87
481.41	13619.58
481.59	14094.71
481.77	13781.07
481.95	13734.26
482.13	14071.30
482.31	13877.04
482.49	14036.19
482.67	14314.72
482.85	14457.49
483.03	14574.52
483.21	14787.50
483.39	14867.08
483.57	14759.42
483.74	14860.06
483.92	14965.39
484.10	14965.39
484.28	15339.87
484.46	15098.80
484.64	15939.05
484.82	15559.88
485.00	15602.01
485.18	15964.79
485.35	15960.11
485.53	15988.20
485.71	15690.95
485.89	16004.58
486.07	15925.00
486.25	16018.63
486.43	16329.92
486.61	16702.06
486.78	16919.73
486.96	16762.92
487.14	16987.61
487.32	17043.78
487.50	17235.70
487.68	17547.00
487.85	17589.13
488.03	17745.94
488.21	18010.42
488.39	17832.54
488.57	18253.84
488.75	17944.89
488.92	18534.70
489.10	18513.64
489.28	18581.51
489.46	18988.77
489.64	18991.11
489.81	19014.51
489.99	19234.52
490.17	19414.74
490.35	19627.73
490.53	19461.55
490.70	19742.42
490.88	19651.14
491.06	20451.60
491.24	20020.94
491.41	20231.59
491.59	20025.62
491.77	20074.77
491.95	20442.24
492.13	20622.46
492.30	20879.92
492.48	20908.01
492.66	20870.56
492.84	20938.43
493.01	21509.52
493.19	21163.12
493.37	21273.13
493.54	21607.83
493.72	21757.62
493.90	21778.68
494.08	22066.57
494.25	22305.31
494.43	22232.75
494.61	22881.08
494.79	22771.07
494.96	22670.43
495.14	22691.49
495.32	22963.00
495.49	22993.42
495.67	22948.95
495.85	23285.99
496.02	23414.72
496.20	23569.19
496.38	23613.66
496.55	23779.84
496.73	23903.89
496.91	23880.49
497.09	24315.83
497.26	24128.58
497.44	24025.60
497.62	24247.95
497.79	24465.62
497.97	24238.59
498.14	24673.93
498.32	24369.66
498.50	24755.85
498.67	25294.17
498.85	25188.85
499.03	25551.63
499.20	25249.70
499.38	25652.27
499.56	25305.87
499.73	25802.07
499.91	25483.75
500.08	25699.08
500.26	25355.02
500.44	25935.48
500.61	26321.66
500.79	25656.95
500.97	25886.32
501.14	26347.41
501.32	26415.29
501.49	26253.79
501.67	26312.30
501.84	26483.16
502.02	26216.34
502.20	27243.84
502.37	26946.59
502.55	26951.27
502.72	27115.11
502.90	27370.22
503.07	27229.79
503.25	27417.04
503.43	27047.23
503.60	27269.58
503.78	27456.82
503.95	27421.72
504.13	27665.13
504.30	27885.14
504.48	27861.74
504.65	28004.51
504.83	28409.42
505.01	28016.21
505.18	28278.35
505.36	28704.33
505.53	28376.66
505.71	28676.24
505.88	28524.11
506.06	28531.13
506.23	28795.61
506.41	28587.30
506.58	28711.35
506.76	28751.14
506.93	28889.23
507.11	29254.36
507.28	29294.14
507.46	29256.70
507.63	29240.31
507.81	29406.49
507.98	29127.97
508.16	29275.42
508.33	29355.00
508.50	29670.97
508.68	29806.72
508.85	30478.46
509.03	29923.75
509.20	30150.78
509.38	30146.10
509.55	30022.05
509.73	29996.31
509.90	30574.42
510.08	30363.77
510.25	30405.90
510.42	30693.79
510.60	30792.09
510.77	31194.66
510.95	31168.91
511.12	30904.43
511.30	31147.85
511.47	31445.10
511.64	31365.52
511.82	31517.65
511.99	30817.83
512.17	31454.46
512.34	31487.23
512.51	31660.43
512.69	31658.09
512.86	31740.00
513.04	31852.35
513.21	31630.00
513.38	31985.76
513.56	31751.71
513.73	31976.40
513.90	32168.32
514.08	32189.39
514.25	31971.72
514.43	32411.74
514.60	32783.88
514.77	32196.41
514.95	32629.41
515.12	32643.45
515.29	32730.05
515.47	33081.13
515.64	33081.13
515.81	32804.95
515.99	33008.58
516.16	32732.39
516.33	32826.01
516.51	32950.06
516.68	32449.19
516.85	32732.39
517.03	32580.26
517.20	33043.68
517.37	33170.07
517.54	33071.77
517.72	33436.89
517.89	33326.89
518.06	33120.92
518.24	33301.14
518.41	33132.62
518.58	33502.43
518.75	33528.17
518.93	33799.68
519.10	33682.65
519.27	34361.40
519.45	34155.44
519.62	34340.34
519.79	34480.77
519.96	34183.52
520.14	34356.72
520.31	34518.22
520.48	34307.57
520.65	34513.54
520.83	34602.48
521.00	34490.13
521.17	34696.10
521.34	34888.03
521.52	35138.46
521.69	35091.65
521.86	35276.55
522.03	35442.73
522.20	35311.66
522.38	35199.32
522.55	35501.25
522.72	35477.84
522.89	35468.48
523.07	35351.45
523.24	35864.03
523.41	36048.93
523.58	36009.14
523.75	36779.18
523.92	36402.35
524.10	36032.55
524.27	35955.31
524.44	36748.75
524.61	36769.82
524.78	36790.88
524.96	36652.79
525.13	36725.35
525.30	37198.13
525.47	36774.50
525.64	36982.80
525.81	36350.86
525.98	36739.39
526.16	36517.04
526.33	36369.58
526.50	36727.69
526.67	36343.84
526.84	36587.25
527.01	36545.12
527.18	36835.35
527.36	37376.01
527.53	36938.33
527.70	37633.47
527.87	37308.14
528.04	37251.97
528.21	37738.80
528.38	37689.65
528.55	38029.02
528.72	37666.24
528.89	38143.71
529.07	37790.29
529.24	38085.20
529.41	37542.19
529.58	38094.56
529.75	37872.21
529.92	38073.49
530.09	38433.94
530.26	38113.28
530.43	38246.69
530.60	38274.78
530.77	38361.38
530.94	38497.13
531.11	38256.06
531.28	38663.31
531.46	38707.78
531.63	38600.12
531.80	38237.33
531.97	38565.01
532.14	38370.74
532.31	38396.49
532.48	38436.28
532.65	38394.15
532.82	38635.22
532.99	38745.23
533.16	38693.74
533.33	39192.27
533.50	39468.45
533.67	39199.29
533.84	39412.28
534.01	39089.29
534.18	39323.34
534.35	39482.50
534.52	39049.50
534.69	39402.92
534.86	39700.17
535.03	39129.08
535.20	39831.24
535.37	39824.22
535.54	39941.24
535.71	39646.33
535.88	40240.83
536.05	39711.87
536.22	39714.21
536.38	40039.54
536.55	39824.22
536.72	39779.74
536.89	39662.72
537.06	39754.00
537.23	39660.38
537.40	40074.65
537.57	40205.72
537.74	39688.46
537.91	40521.69
538.08	40201.04
538.25	40458.50
538.42	40215.08
538.59	40395.31
538.75	39938.90
538.92	40598.93
539.09	40531.06
539.26	40514.67
539.43	40346.15
539.60	40680.85
539.77	39950.60
539.94	40119.12
540.11	40048.91
540.28	40421.05
540.44	40423.39
540.61	40502.97
540.78	40919.59
540.95	40509.99
541.12	40730.00
541.29	40739.36
541.46	40928.95
541.62	40924.27
541.79	41462.59
541.96	40500.63
542.13	41001.50
542.30	40926.61
542.47	41361.95
542.63	41570.25
542.80	41111.51
542.97	41436.84
543.14	42043.04
543.31	41935.38
543.48	41778.56
543.64	42506.47
543.81	42211.56
543.98	41940.06
544.15	41720.05
544.32	41776.22
544.48	42272.42
544.65	41794.95
544.82	42019.64
544.99	41696.64
545.16	41977.51
545.32	41825.37
545.49	42368.38
545.66	42464.34
545.83	42602.43
546.00	42438.59
546.16	41755.16
546.33	42359.02
546.50	42061.77
546.67	42384.76
546.83	42206.88
547.00	42340.29
547.17	42347.31
547.34	42817.76
547.50	42326.25
547.67	42883.30
547.84	42490.09
548.00	42646.90
548.17	43103.31
548.34	42857.55
548.51	42852.87
548.67	43009.68
548.84	42857.55
549.01	42902.02
549.18	42941.81
549.34	42824.78
549.51	42710.10
549.68	42674.99
549.84	42827.12
550.01	42958.19
550.18	43283.53
550.34	43023.73
550.51	43559.71
550.68	43147.78
550.84	42895.00
551.01	43276.51
551.18	43405.23
551.34	43524.60
551.51	43540.99
551.68	43477.79
551.84	43164.16
552.01	43201.61
552.18	43529.28
552.34	43608.86
552.51	43564.39
552.68	43264.80
552.84	43515.24
553.01	44074.63
553.18	43325.66
553.34	43711.84
553.51	43426.30
553.67	43423.96
553.84	44336.77
554.01	43952.92
554.17	44009.09
554.34	44385.92
554.51	43854.62
554.67	44563.80
554.84	43856.96
555.00	43917.81
555.17	43896.75
555.33	44140.16
555.50	43522.26
555.67	43899.09
555.83	43887.39
556.00	44100.37
556.16	44561.46
556.33	44128.46
556.50	44243.15
556.66	44011.43
556.83	44002.07
556.99	44514.65
557.16	44383.58
557.32	44247.83
557.49	44175.27
557.65	44182.29
557.82	44126.12
557.98	44355.49
558.15	44060.58
558.32	44505.29
558.48	44156.55
558.65	44364.85
558.81	43803.13
558.98	44285.28
559.14	44196.34
559.31	44414.01
559.47	43885.04
559.64	44790.83
559.80	44568.48
559.97	44612.95
560.13	44673.81
560.30	44315.70
560.46	44856.37
560.63	44502.95
560.79	44299.32
560.96	45057.65
561.12	44669.12
561.29	44322.72
561.45	44631.68
561.61	44428.05
561.78	44556.78
561.94	44926.58
562.11	45216.81
562.27	44769.77
562.44	44444.43
562.60	44781.47
562.77	45263.62
562.93	44921.90
563.10	45205.11
563.26	44765.09
563.42	44779.13
563.59	44378.90
563.75	44636.36
563.92	44790.83
564.08	44907.86
564.24	44737.00
564.41	45043.61
564.57	45027.23
564.74	44783.81
564.90	44933.60
565.07	44982.76
565.23	45123.19
565.39	44847.00
565.56	44816.58
565.72	44713.59
565.88	44643.38
566.05	45020.20
566.21	45090.42
566.38	44907.86
566.54	45284.68
566.70	45574.91
566.87	45427.46
567.03	45120.85
567.19	45724.71
567.36	45160.64
567.52	44994.46
567.68	45270.64
567.85	45069.36
568.01	45198.09
568.17	45106.80
568.34	45254.26
568.50	45235.53
568.66	45205.11
568.83	45301.07
568.99	44945.31
569.15	44910.20
569.32	45366.60
569.48	44851.69
569.64	45605.34
569.81	45254.26
569.97	45151.27
570.13	45045.95
570.30	44879.77
570.46	44666.78
570.62	45008.50
570.78	44580.18
570.95	45008.50
571.11	45897.91
571.27	45219.15
571.43	45125.53
571.60	45233.19
571.76	45003.82
571.92	44856.37
572.09	45312.77
572.25	45392.35
572.41	45057.65
572.57	45394.69
572.74	45839.39
572.90	45055.31
573.06	45500.01
573.22	45324.47
573.38	45481.29
573.55	45139.57
573.71	45368.94
573.87	45420.44
574.03	45205.11
574.20	45287.03
574.36	44935.95
574.52	45401.71
574.68	45631.08
574.84	45064.67
575.01	45303.41
575.17	45207.45
575.33	45214.47
575.49	45074.04
575.65	45675.55
575.82	45272.98
575.98	45102.12
576.14	45626.40
576.30	45514.06
576.46	45193.40
576.62	45186.38
576.79	45188.72
576.95	44980.42
577.11	45404.05
577.27	45387.67
577.43	45382.99
577.59	45010.84
577.75	45174.68
577.92	45130.21
578.08	45022.54
578.24	45427.46
578.40	45200.43
578.56	45256.60
578.72	45661.51
578.88	45708.32
579.04	45928.33
579.21	45193.40
579.37	45296.39
579.53	45394.69
579.69	45287.03
579.85	45134.89
580.01	45432.14
580.17	45067.02
580.33	45780.88
580.49	45698.96
580.65	45617.04
580.82	45958.76
580.98	45237.87
581.14	45514.06
581.30	46040.68
581.46	45563.21
581.62	45502.35
581.78	45624.06
581.94	45399.37
582.10	45191.06
582.26	45411.07
582.42	45048.29
582.58	45897.91
582.74	45343.20
582.90	45904.93
583.06	45764.49
583.22	45420.44
583.38	45598.32
583.54	45492.99
583.70	45890.88
583.86	45654.49
584.02	44989.78
584.18	45574.91
584.34	45832.37
584.50	45614.70
584.66	45521.08
584.82	45059.99
584.98	45771.52
585.14	45385.33
585.30	45551.51
585.46	45474.27
585.62	45258.94
585.78	45378.31
585.94	45144.25
586.10	45673.21
586.26	45677.90
586.42	45769.18
586.58	45691.94
586.74	45148.93
586.90	45500.01
587.06	45549.17
587.22	45551.51
587.38	45226.17
587.54	45656.83
587.70	45778.54
587.86	45750.45
588.02	45553.85
588.18	45544.48
588.34	45359.58
588.49	45125.53
588.65	45247.24
588.81	45162.98
588.97	45460.23
589.13	45141.91
589.29	45537.46
589.45	45666.19
589.61	45397.03
589.77	45429.80
589.93	45666.19
590.08	45813.65
