SpectraSuite Data File
++++++++++++++++++++++++++++++++++++
Date: Fri Oct 25 11:23:07 EDT 2013
User: price-jones
Dark Spectrum Present: No
Reference Spectrum Present: No
Number of Sampled Component Spectra: 1
Spectrometers: USB2+H05261
Integration Time (usec): 100000 (USB2+H05261)
Spectra Averaged: 1 (USB2+H05261)
Boxcar Smoothing: 0 (USB2+H05261)
Correct for Electrical Dark: No (USB2+H05261)
Strobe/Lamp Enabled: No (USB2+H05261)
Correct for Detector Non-linearity: No (USB2+H05261)
Correct for Stray Light: No (USB2+H05261)
Number of Pixels in Processed Spectrum: 2048
>>>>>Begin Processed Spectral Data<<<<<
365.73	205.97
365.92	205.97
366.12	205.97
366.32	100.64
366.52	147.45
366.72	220.01
366.91	84.26
367.11	93.62
367.31	67.88
367.51	63.19
367.70	110.01
367.90	243.42
368.10	105.32
368.30	147.45
368.49	121.71
368.69	119.37
368.89	117.03
369.09	212.99
369.28	159.16
369.48	112.35
369.68	203.63
369.87	191.92
370.07	161.50
370.27	238.73
370.47	327.68
370.66	674.07
370.86	645.99
371.06	655.35
371.25	760.67
371.45	662.37
371.65	688.12
371.84	559.39
372.04	709.18
372.24	770.04
372.44	699.82
372.63	732.59
372.83	713.86
373.03	697.48
373.22	765.36
373.42	788.76
373.62	844.93
373.81	774.72
374.01	835.57
374.21	840.25
374.40	781.74
374.60	840.25
374.79	795.78
374.99	821.53
375.19	788.76
375.38	901.11
375.58	765.36
375.78	795.78
375.97	903.45
376.17	905.79
376.37	819.19
376.56	880.04
376.76	889.40
376.95	873.02
377.15	959.62
377.35	873.02
377.54	919.83
377.74	873.02
377.93	903.45
378.13	917.49
378.33	922.17
378.52	940.90
378.72	954.94
378.91	966.64
379.11	889.40
379.31	987.71
379.50	954.94
379.70	959.62
379.89	964.30
380.09	987.71
380.28	952.60
380.48	1001.75
380.68	1057.92
380.87	1086.01
381.07	1025.15
381.26	1022.81
381.46	1062.60
381.65	1015.79
381.85	1041.54
382.04	959.62
382.24	1132.82
382.43	1036.86
382.63	1074.31
382.83	1123.46
383.02	1062.60
383.22	1158.57
383.41	1043.88
383.61	1055.58
383.80	1076.65
384.00	1055.58
384.19	1071.97
384.39	1170.27
384.58	1142.18
384.78	1088.35
384.97	1203.04
385.17	1174.95
385.36	1170.27
385.56	1160.91
385.75	1221.76
385.95	1179.63
386.14	1217.08
386.34	1284.95
386.53	1217.08
386.72	1116.44
386.92	1205.38
387.11	1310.70
387.31	1252.19
387.50	1273.25
387.70	1177.29
387.89	1226.44
388.09	1219.42
388.28	1350.49
388.48	1277.93
388.67	1359.85
388.86	1352.83
389.06	1315.38
389.25	1387.94
389.45	1294.32
389.64	1331.76
389.84	1362.19
390.03	1376.24
390.22	1483.90
390.42	1481.56
390.61	1369.21
390.81	1453.47
391.00	1392.62
391.19	1502.62
391.39	1418.36
391.58	1437.09
391.78	1444.11
391.97	1425.39
392.16	1387.94
392.36	1533.05
392.55	1521.35
392.75	1523.69
392.94	1511.99
393.13	1486.24
393.33	1544.75
393.52	1483.90
393.71	1598.59
393.91	1551.78
394.10	1696.89
394.29	1736.68
394.49	1617.31
394.68	1647.74
394.88	1636.03
395.07	1607.95
395.26	1614.97
395.46	1724.97
395.65	1736.68
395.84	1746.04
396.04	1755.40
396.23	1727.32
396.42	1657.10
396.62	1816.26
396.81	1844.34
397.00	1739.02
397.19	1804.55
397.39	1757.74
397.58	1799.87
397.77	1933.28
397.97	1870.09
398.16	1788.17
398.35	1870.09
398.55	1870.09
398.74	1877.11
398.93	1856.04
399.12	1989.46
399.32	1881.79
399.51	1872.43
399.70	2120.53
399.90	1928.60
400.09	2029.24
400.28	2211.81
400.47	2066.69
400.67	2104.14
400.86	2062.01
401.05	2001.16
401.24	2153.29
401.44	2118.18
401.63	2092.44
401.82	2108.82
402.01	2129.89
402.21	2078.40
402.40	2225.85
402.59	2235.21
402.78	2218.83
402.97	2272.66
403.17	2300.75
403.36	2307.77
403.55	2331.17
403.74	2455.22
403.93	2307.77
404.13	2312.45
404.32	2279.68
404.51	2504.37
404.70	2499.69
404.89	2597.99
405.09	2410.75
405.28	2548.84
405.47	2455.22
405.66	2483.31
405.85	2525.44
406.05	2572.25
406.24	2628.42
406.43	2590.97
406.62	2612.04
406.81	2654.17
407.00	2525.44
407.20	2569.91
407.39	2569.91
407.58	2665.87
407.77	2822.69
407.96	2808.64
408.15	2810.98
408.34	2658.85
408.54	2832.05
408.73	2768.85
408.92	2888.22
409.11	2918.65
409.30	2881.20
409.49	2895.24
409.68	2860.13
409.87	3115.25
410.07	3016.95
410.26	3073.12
410.45	3063.76
410.64	3073.12
410.83	3122.27
411.02	3110.57
411.21	3023.97
411.40	3253.34
411.59	3262.71
411.78	3141.00
411.98	3152.70
412.17	3241.64
412.36	3314.20
412.55	3379.73
412.74	3267.39
412.93	3417.18
413.12	3433.57
413.31	3604.42
413.50	3412.50
413.69	3581.02
413.88	3712.09
414.07	3588.04
414.26	3639.53
414.45	3756.56
414.64	3740.18
414.83	3833.80
415.02	3646.55
415.22	3915.72
415.41	3791.67
415.60	3922.74
415.79	3843.16
415.98	4070.19
416.17	4065.51
416.36	4084.23
416.55	3988.27
416.74	4234.03
416.93	3941.46
417.12	4109.98
417.31	4304.25
417.50	4210.62
417.69	4219.99
417.88	4243.39
418.07	4407.23
418.26	4374.46
418.45	4535.96
418.64	4447.02
418.83	4479.79
419.02	4383.82
419.21	4652.98
419.39	4496.17
419.58	4601.49
419.77	4470.42
419.96	4636.60
420.15	4622.56
420.34	4720.86
420.53	4652.98
420.72	4849.59
420.91	4723.20
421.10	4746.61
421.29	4770.01
421.48	4777.03
421.67	4791.08
421.86	4823.84
422.05	4912.78
422.24	4765.33
422.43	4819.16
422.61	4875.34
422.80	4985.34
422.99	4971.30
423.18	5036.83
423.37	5018.11
423.56	5195.99
423.75	5102.37
423.94	4952.57
424.13	4716.18
424.32	4800.44
424.50	5240.46
424.69	5203.01
424.88	5078.96
425.07	4943.21
425.26	4964.28
425.45	4952.57
425.64	5022.79
425.83	4894.06
426.01	5266.21
426.20	5174.92
426.39	5090.67
426.58	5210.03
426.77	5121.09
426.96	5109.39
427.15	5102.37
427.33	5181.95
427.52	5085.98
427.71	5315.36
427.90	5387.91
428.09	5392.59
428.28	5207.69
428.46	5310.68
428.65	5184.29
428.84	5621.97
429.03	5619.63
429.22	5488.56
429.40	5504.94
429.59	5547.07
429.78	5247.48
429.97	5221.74
430.16	5528.35
430.34	5640.69
430.53	5802.19
430.72	5626.65
430.91	5729.63
431.10	5514.30
431.28	5947.30
431.47	5839.64
431.66	5860.70
431.85	5858.36
432.03	5947.30
432.22	6190.72
432.41	5930.92
432.60	5935.60
432.79	5970.71
432.97	6029.22
433.16	6263.27
433.35	5933.26
433.54	6085.39
433.72	6218.80
433.91	6317.11
434.10	6167.31
434.28	6150.93
434.47	6324.13
434.66	6270.30
434.85	6415.41
435.03	6249.23
435.22	6441.15
435.41	6502.01
435.59	6733.72
435.78	6726.70
435.97	6497.33
436.16	6516.05
436.34	6417.75
436.53	6630.74
436.72	6642.44
436.90	6494.99
437.09	6670.53
437.28	6480.94
437.46	6778.19
437.65	6752.45
437.84	6995.86
438.02	6780.53
438.21	6881.18
438.40	6773.51
438.58	7101.19
438.77	7082.46
438.96	7206.51
439.14	7307.15
439.33	7002.88
439.52	7169.06
439.70	7232.26
439.89	7302.47
440.08	7442.90
440.26	7445.24
440.45	7353.96
440.63	7557.59
440.82	7583.34
441.01	7566.95
441.19	7620.78
441.38	7854.84
441.57	7784.62
441.75	7772.92
441.94	7962.50
442.12	7948.46
442.31	8016.33
442.50	8044.42
442.68	8182.51
442.87	8145.06
443.05	8138.04
443.24	8313.58
443.43	8229.32
443.61	8154.43
443.80	8484.44
443.98	8215.28
444.17	7964.84
444.35	8257.41
444.54	8269.11
444.73	8533.59
444.91	8189.53
445.10	8404.86
445.28	8264.43
445.47	8435.29
445.65	8344.01
445.84	8575.72
446.02	8681.05
446.21	8425.93
446.39	8589.77
446.58	8596.79
446.77	8617.85
446.95	8386.14
447.14	8505.51
447.32	8498.49
447.51	8463.38
447.69	8472.74
447.88	8451.67
448.06	8491.46
448.25	8561.68
448.43	8617.85
448.62	8493.80
448.80	8702.11
448.99	8865.95
449.17	8861.27
449.36	8655.30
449.54	8791.05
449.73	9100.00
449.91	9046.17
450.10	9095.32
450.28	9139.79
450.46	9027.45
450.65	9186.60
450.83	9088.30
451.02	9001.70
451.20	9231.07
451.39	9362.14
451.57	9149.15
451.76	9135.11
451.94	9324.69
452.13	9331.72
452.31	9411.29
452.49	9191.28
452.68	9441.72
452.86	9565.77
453.05	9755.35
453.23	9582.15
453.42	9483.85
453.60	9458.10
453.78	9668.75
453.97	9610.24
454.15	9610.24
454.34	9430.02
454.52	9675.77
454.70	9783.44
454.89	9851.31
455.07	9914.51
455.26	9713.22
455.44	10019.83
455.62	9970.68
455.81	9823.23
455.99	10094.73
456.17	10286.65
456.36	10061.96
456.54	10249.21
456.73	10387.30
456.91	10494.96
457.09	10408.36
457.28	10548.79
457.46	10368.57
457.64	10516.03
457.83	10525.39
458.01	10391.98
458.19	10827.32
458.38	10611.99
458.56	10750.08
458.74	10581.56
458.93	10729.02
459.11	10785.19
459.29	10944.34
459.48	10759.44
459.66	10895.19
459.84	11190.10
460.03	11108.18
460.21	11150.31
460.39	11157.33
460.57	11169.04
460.76	11461.60
460.94	11178.40
461.12	11157.33
461.31	11417.13
461.49	11098.82
461.67	11412.45
461.85	11672.25
462.04	11477.99
462.22	11709.70
462.40	11861.84
462.59	11632.46
462.77	11637.14
462.95	11674.59
463.13	11744.81
463.32	11946.09
463.50	11847.79
463.68	12058.44
463.86	12093.55
464.05	11854.81
464.23	11639.48
464.41	12098.23
464.59	11808.00
464.78	12100.57
464.96	11992.90
465.14	11833.75
465.32	12177.81
465.50	11967.16
465.69	12198.87
465.87	12339.30
466.05	12390.80
466.23	12287.81
466.41	12432.93
466.60	12683.36
466.78	12255.04
466.96	12355.69
467.14	12442.29
467.32	12409.52
467.51	12552.29
467.69	12325.26
467.87	12407.18
468.05	12744.22
468.23	12655.28
468.41	12542.93
468.60	12753.58
468.78	12929.12
468.96	12540.59
469.14	12779.32
469.32	13006.36
469.50	12772.30
469.69	13158.49
469.87	13146.79
470.05	13303.60
470.23	13345.73
470.41	13392.55
470.59	13261.48
470.77	13327.01
470.95	13268.50
471.14	13565.74
471.32	13441.70
471.50	13851.29
471.68	13605.53
471.86	13898.10
472.04	14068.96
472.22	14136.84
472.40	13692.13
472.58	14143.86
472.77	14195.35
472.95	14239.82
473.13	14717.29
473.31	14319.40
473.49	14436.42
473.67	14075.98
473.85	14611.96
474.03	14403.66
474.21	14848.36
474.39	14810.91
474.57	15161.99
474.75	15082.41
474.93	15239.23
475.12	15021.56
475.30	15396.04
475.48	15405.41
475.66	15435.83
475.84	15014.54
476.02	15503.71
476.20	15543.50
476.38	15925.00
476.56	16091.18
476.74	16116.93
476.92	16121.61
477.10	15943.73
477.28	16435.24
477.46	16404.81
477.64	16451.63
477.82	16510.14
478.00	17177.19
478.18	17092.93
478.36	17083.57
478.54	17366.78
478.72	17539.97
478.90	17448.69
479.08	17671.04
479.26	17788.07
479.44	17848.93
479.62	18216.39
479.80	18244.48
479.98	18441.08
480.16	18773.44
480.34	18707.90
480.52	18988.77
480.70	18878.76
480.88	18593.22
481.06	18735.99
481.24	18780.46
481.41	19264.95
481.59	19730.72
481.77	19461.55
481.95	19545.81
482.13	19969.45
482.31	20034.99
482.49	20514.80
482.67	20313.51
482.85	20563.95
483.03	20788.64
483.21	21156.10
483.39	21303.56
483.57	21259.09
483.74	21582.08
483.92	21586.76
484.10	21558.67
484.28	21881.67
484.46	22108.70
484.64	22412.97
484.82	22349.78
485.00	22436.38
485.18	22771.07
485.35	23105.77
485.53	23269.61
485.71	23489.62
485.89	23545.79
486.07	23836.02
486.25	23360.89
486.43	23742.39
486.61	24493.71
486.78	24098.16
486.96	24968.84
487.14	24634.14
487.32	24746.48
487.50	25198.21
487.68	25383.11
487.85	25380.77
488.03	25645.25
488.21	25933.14
488.39	25846.54
488.57	26417.63
488.75	26300.60
488.92	26398.90
489.10	27080.00
489.28	27035.53
489.46	27194.68
489.64	26979.36
489.81	27896.85
489.99	27990.47
490.17	27880.46
490.35	28287.71
490.53	28170.69
490.70	28577.94
490.88	28704.33
491.06	29137.33
491.24	29048.39
491.41	29542.24
491.59	29853.53
491.77	29673.31
491.95	30033.75
492.13	30129.72
492.30	30204.61
492.48	30553.35
492.66	30504.20
492.84	30895.07
493.01	30969.97
493.19	30878.69
493.37	31150.19
493.54	31342.11
493.72	31728.30
493.90	31826.60
494.08	32252.58
494.25	32547.49
494.43	32858.78
494.61	32680.90
494.79	33055.39
494.96	32809.63
495.14	32989.85
495.32	33324.55
495.49	33546.90
495.67	33525.83
495.85	33773.93
496.02	34506.52
496.20	33851.17
496.38	34607.16
496.55	34408.22
496.73	35014.41
496.91	35014.41
497.09	34991.01
497.26	35391.24
497.44	35452.09
497.62	35854.67
497.79	36065.31
497.97	35840.62
498.14	36367.24
498.32	36973.44
498.50	36566.19
498.67	37017.91
498.85	36959.40
499.03	37015.57
499.20	37160.69
499.38	37507.08
499.56	37350.27
499.73	37586.66
499.91	37556.24
500.08	38335.63
500.26	37584.32
500.44	37855.82
500.61	38073.49
500.79	38169.46
500.97	39115.03
501.14	38663.31
501.32	38993.32
501.49	38845.87
501.67	38859.91
501.84	39400.58
502.02	39150.14
502.20	39360.79
502.37	39660.38
502.55	39470.79
502.72	39957.63
502.90	40044.23
503.07	40203.38
503.25	40481.91
503.43	39887.41
503.60	40226.79
503.78	40968.74
503.95	40535.74
504.13	40996.82
504.30	40994.48
504.48	40886.82
504.65	40783.83
504.83	41317.48
505.01	41862.82
505.18	41476.63
505.36	41965.81
505.53	41893.25
505.71	42129.64
505.88	42146.03
506.06	41954.10
506.23	42206.88
506.41	41986.87
506.58	42258.37
506.76	42590.73
506.93	42663.28
507.11	42761.59
507.28	43012.02
507.46	42951.17
507.63	43220.33
507.81	43674.40
507.98	43573.75
508.16	43814.83
508.33	43765.68
508.50	43938.88
508.68	44196.34
508.85	44081.65
509.03	44589.55
509.20	44437.41
509.38	44343.79
509.55	44964.03
509.73	45074.04
509.90	45375.97
510.08	44821.26
510.25	45050.63
510.42	45336.18
510.60	45895.56
510.77	45823.01
510.95	46036.00
511.12	45713.00
511.30	45610.02
511.47	45713.00
511.64	45624.06
511.82	46499.42
511.99	46019.61
512.17	46429.21
512.34	46286.43
512.51	46806.03
512.69	46911.36
512.86	46768.58
513.04	46742.84
513.21	46859.87
513.38	47168.82
513.56	47311.59
513.73	47208.61
513.90	47732.89
514.08	47491.81
514.25	47423.93
514.43	47842.89
514.60	47920.13
514.77	47812.46
514.95	48222.06
515.12	47845.23
515.29	47938.85
515.47	48479.52
515.64	48250.14
515.81	48610.59
515.99	48575.48
516.16	49010.82
516.33	48949.96
516.51	49048.27
516.68	48879.75
516.85	48823.58
517.03	49235.51
517.20	49380.62
517.37	48971.03
517.54	49181.68
517.72	49329.13
517.89	49312.75
518.06	49649.78
518.24	49638.08
518.41	49846.39
518.58	49989.16
518.75	49474.24
518.93	49947.03
519.10	50068.74
519.27	50373.01
519.45	50218.53
519.62	50445.57
519.79	50277.05
519.96	50305.13
520.14	50431.52
520.31	50492.38
520.48	50534.51
520.65	50703.03
520.83	51217.94
521.00	51215.60
521.17	51016.66
521.34	50726.43
521.52	51037.72
521.69	50927.72
521.86	51543.28
522.03	51503.49
522.20	51679.03
522.38	52037.13
522.55	51484.76
522.72	51934.15
522.89	51356.03
523.07	52109.69
523.24	52034.79
523.41	52280.55
523.58	51861.59
523.75	52231.40
523.92	51962.23
524.10	52245.44
524.27	52163.52
524.44	52327.36
524.61	52432.68
524.78	52498.22
524.96	52587.16
525.13	52828.23
525.30	52676.10
525.47	52933.56
525.64	52919.51
525.81	52886.74
525.98	52893.77
526.16	52973.34
526.33	53038.88
526.50	53214.42
526.67	53415.71
526.84	53083.35
527.01	53205.06
527.18	53153.57
527.36	53226.12
527.53	53509.33
527.70	53525.71
527.87	53691.89
528.04	53516.35
528.21	53881.47
528.38	53712.95
528.55	53649.76
528.72	53602.95
528.89	53680.19
529.07	53750.40
529.24	53961.05
529.41	54129.57
529.58	53991.48
529.75	54007.86
529.92	54099.14
530.09	54040.63
530.26	54347.24
530.43	54356.60
530.60	54141.27
530.77	54122.55
530.94	54461.93
531.11	54380.01
531.28	54396.39
531.46	54602.36
531.63	54595.34
531.80	54452.56
531.97	54607.04
532.14	54850.45
532.31	54817.69
532.48	54993.23
532.65	54993.23
532.82	54904.29
532.99	55018.97
533.16	54653.85
533.33	55147.70
533.50	55206.22
533.67	55309.20
533.84	54927.69
534.01	55367.71
534.18	55192.17
534.35	55557.30
534.52	55288.13
534.69	55758.58
534.86	55580.70
535.03	55150.04
535.20	55639.22
535.37	55480.06
535.54	55697.73
535.71	55505.80
535.88	55667.30
536.05	55627.51
536.22	56123.71
536.38	55803.05
536.55	55817.10
536.72	56030.08
536.89	55756.24
537.06	56114.34
537.23	56240.73
537.40	55704.75
537.57	56039.45
537.74	56179.88
537.91	56175.20
538.08	56200.94
538.25	55952.85
538.42	56346.06
538.59	56488.83
538.75	56458.40
538.92	56418.61
539.09	56718.20
539.26	56456.06
539.43	56540.32
539.60	56404.57
539.77	56498.19
539.94	56736.93
540.11	56568.41
540.28	56626.92
540.44	56842.25
540.61	56591.81
540.78	56729.90
540.95	56678.41
541.12	56659.69
541.29	56919.49
541.46	56989.70
541.62	56942.89
541.79	56832.89
541.96	56750.97
542.13	56949.92
542.30	57219.08
542.47	57057.58
542.63	57130.14
542.80	57165.24
542.97	57483.56
543.14	57411.00
543.31	57556.11
543.48	57560.79
543.64	57757.40
543.81	57364.19
543.98	57600.58
544.15	57827.62
544.32	57633.35
544.48	58021.88
544.65	57822.93
544.82	57858.04
544.99	57612.29
545.16	57659.10
545.32	57715.27
545.49	57951.66
545.66	58101.46
545.83	57954.00
546.00	57848.68
546.16	57851.02
546.33	57965.71
546.50	57612.29
546.67	58024.22
546.83	57628.67
547.00	58131.89
547.17	58143.59
547.34	57923.58
547.50	58241.89
547.67	58520.41
547.84	58197.42
548.00	58445.52
548.17	58632.76
548.34	58473.60
548.51	58447.86
548.67	58480.63
548.84	58511.05
549.01	58499.35
549.18	58351.90
549.34	58445.52
549.51	58595.31
549.68	58761.49
549.84	58646.80
550.01	58646.80
550.18	58590.63
550.34	58876.18
550.51	58571.91
550.68	58693.61
550.84	58475.94
551.01	58812.98
551.18	58733.40
551.34	58820.00
551.51	58677.23
551.68	58913.62
551.84	58894.90
552.01	58834.05
552.18	59185.13
552.34	58717.02
552.51	58885.54
552.68	58873.84
552.84	59023.63
553.01	59339.60
553.18	59126.61
553.34	59278.75
553.51	59014.27
553.67	59000.22
553.84	59135.98
554.01	59224.92
554.17	59119.59
554.34	59309.18
554.51	59271.73
554.67	59393.43
554.84	59269.39
555.00	59339.60
555.17	59210.87
555.33	59482.37
555.50	59260.02
555.67	59402.80
555.83	59306.83
556.00	59449.61
556.16	59728.13
556.33	59543.23
556.50	59561.95
556.66	59608.76
556.83	59290.45
556.99	59503.44
557.16	59756.22
557.32	59566.63
557.49	59903.67
557.65	59573.66
557.82	59559.61
557.98	59643.87
558.15	59587.70
558.32	59674.30
558.48	59625.15
558.65	59767.92
558.81	59454.29
558.98	59772.60
559.14	59845.16
559.31	59798.35
559.47	59875.58
559.64	60090.91
559.80	60023.04
559.97	60037.08
560.13	60093.25
560.30	60046.44
560.46	60154.11
560.63	60053.47
560.79	60238.37
560.96	60076.87
561.12	60175.17
561.29	60072.19
561.45	60083.89
561.61	60041.76
561.78	60252.41
561.94	60186.88
562.11	60229.01
562.27	59987.93
562.44	60111.98
562.60	60292.20
562.77	60306.24
562.93	60030.06
563.10	60294.54
563.26	60093.25
563.42	60397.52
563.59	60221.98
563.75	60336.67
563.92	60339.01
564.08	60341.35
564.24	60392.84
564.41	60406.89
564.57	60444.33
564.74	60207.94
564.90	60402.21
565.07	60346.03
565.23	60413.91
565.39	60486.46
565.56	60441.99
565.72	60322.63
565.88	60392.84
566.05	60282.84
566.21	60245.39
566.38	60451.36
566.54	60388.16
566.70	60704.13
566.87	60542.64
567.03	60453.70
567.19	60582.43
567.36	60708.82
567.52	60584.77
567.68	60699.45
567.85	60772.01
568.01	60769.67
568.17	60671.37
568.34	60697.11
568.50	60587.11
568.66	60598.81
568.83	60573.06
568.99	60493.49
569.15	60715.84
569.32	60535.62
569.48	60624.56
569.64	60762.65
569.81	60748.60
569.97	60617.53
570.13	60636.26
570.30	60837.54
570.46	60802.44
570.62	60795.42
570.78	60786.05
570.95	60547.32
571.11	60905.42
571.27	60669.03
571.43	60839.89
571.60	60849.25
571.76	60903.08
571.92	60907.76
572.09	60734.56
572.25	60858.61
572.41	60811.80
572.57	60556.68
572.74	60985.00
572.90	60851.59
573.06	60905.42
573.22	60811.80
573.38	60882.02
573.55	60779.03
573.71	61097.34
573.87	60678.39
574.03	60776.69
574.20	60952.23
574.36	60900.74
574.52	60898.40
574.68	60846.91
574.84	61172.24
575.01	60860.95
575.17	61050.53
575.33	60858.61
575.49	60952.23
575.65	61038.83
575.82	60952.23
575.98	61127.77
576.14	61045.85
576.30	61043.51
576.46	60748.60
576.62	60975.64
576.79	60753.29
576.95	61038.83
577.11	61186.28
577.27	61174.58
577.43	61062.24
577.59	60905.42
577.75	60952.23
577.92	60893.72
578.08	60907.76
578.24	61151.18
578.40	61022.45
578.56	61265.86
578.72	61031.81
578.88	61263.52
579.04	61336.08
579.21	61200.33
579.37	61378.21
579.53	61298.63
579.69	60973.30
579.85	60940.53
580.01	61092.66
580.17	61195.65
580.33	61118.41
580.49	61286.93
580.65	61038.83
580.82	60966.27
580.98	61052.87
581.14	61113.73
581.30	61298.63
581.46	60956.91
581.62	61268.20
581.78	61429.70
581.94	61179.26
582.10	61003.72
582.26	61116.07
582.42	61188.63
582.58	61221.39
582.74	61123.09
582.90	61158.20
583.06	61076.28
583.22	61085.64
583.38	61179.26
583.54	61247.14
583.70	61277.57
583.86	61385.23
584.02	61197.99
584.18	61228.41
584.34	61270.54
584.50	61146.50
584.66	61104.37
584.82	61069.26
584.98	61331.40
585.14	61087.98
585.30	61256.50
585.46	61340.76
585.62	61219.05
585.78	61345.44
585.94	61205.01
586.10	61254.16
586.26	61504.60
586.42	61532.68
586.58	61265.86
586.74	61289.27
586.90	61261.18
587.06	61027.13
587.22	61410.98
587.38	61286.93
587.54	61553.75
587.70	61577.15
587.86	61258.84
588.02	61052.87
588.18	61654.39
588.34	61284.59
588.49	61230.75
