SpectraSuite Data File
++++++++++++++++++++++++++++++++++++
Date: Fri Oct 25 11:23:51 EDT 2013
User: price-jones
Dark Spectrum Present: No
Reference Spectrum Present: No
Number of Sampled Component Spectra: 1
Spectrometers: USB2+H05261
Integration Time (usec): 100000 (USB2+H05261)
Spectra Averaged: 1 (USB2+H05261)
Boxcar Smoothing: 0 (USB2+H05261)
Correct for Electrical Dark: No (USB2+H05261)
Strobe/Lamp Enabled: No (USB2+H05261)
Correct for Detector Non-linearity: No (USB2+H05261)
Correct for Stray Light: No (USB2+H05261)
Number of Pixels in Processed Spectrum: 2048
>>>>>Begin Processed Spectral Data<<<<<
365.73	220.01
365.92	220.01
366.12	220.01
366.32	177.88
366.52	175.54
366.72	161.50
366.91	154.48
367.11	77.24
367.31	140.43
367.51	74.90
367.70	175.54
367.90	154.48
368.10	77.24
368.30	56.17
368.49	131.07
368.69	170.86
368.89	173.20
369.09	145.11
369.28	105.32
369.48	208.31
369.68	140.43
369.87	119.37
370.07	187.24
370.27	222.35
370.47	313.63
370.66	547.69
370.86	596.84
371.06	690.46
371.25	681.10
371.45	660.03
371.65	629.60
371.84	702.16
372.04	648.33
372.24	671.73
372.44	739.61
372.63	734.93
372.83	774.72
373.03	791.10
373.22	830.89
373.42	767.70
373.62	753.65
373.81	720.88
374.01	866.00
374.21	837.91
374.40	798.12
374.60	800.46
374.79	842.59
374.99	849.61
375.19	835.57
375.38	798.12
375.58	877.70
375.78	905.79
375.97	837.91
376.17	875.36
376.37	929.19
376.56	889.40
376.76	781.74
376.95	774.72
377.15	830.89
377.35	873.02
377.54	964.30
377.74	837.91
377.93	842.59
378.13	926.85
378.33	856.64
378.52	875.36
378.72	917.49
378.91	931.53
379.11	1004.09
379.31	917.49
379.50	917.49
379.70	910.47
379.89	1011.11
380.09	905.79
380.28	877.70
380.48	1036.86
380.68	940.90
380.87	1008.77
381.07	990.05
381.26	1067.28
381.46	1062.60
381.65	968.98
381.85	954.94
382.04	1025.15
382.24	1097.71
382.43	1067.28
382.63	1086.01
382.83	1121.12
383.02	1149.20
383.22	1095.37
383.41	1144.52
383.61	1116.44
383.80	1121.12
384.00	1118.78
384.19	1116.44
384.39	1125.80
384.58	1118.78
384.78	1170.27
384.97	1149.20
385.17	1132.82
385.36	1095.37
385.56	1170.27
385.75	1132.82
385.95	1121.12
386.14	1221.76
386.34	1268.57
386.53	1207.72
386.72	1114.10
386.92	1188.99
387.11	1233.46
387.31	1200.69
387.50	1170.27
387.70	1277.93
387.89	1266.23
388.09	1322.40
388.28	1287.29
388.48	1371.55
388.67	1214.74
388.86	1366.87
389.06	1338.79
389.25	1418.36
389.45	1238.14
389.64	1299.00
389.84	1376.24
390.03	1387.94
390.22	1469.86
390.42	1418.36
390.61	1474.54
390.81	1425.39
391.00	1299.00
391.19	1544.75
391.39	1469.86
391.58	1341.13
391.78	1432.41
391.97	1416.02
392.16	1472.20
392.36	1568.16
392.55	1563.48
392.75	1540.07
392.94	1469.86
393.13	1486.24
393.33	1563.48
393.52	1521.35
393.71	1535.39
393.91	1612.63
394.10	1474.54
394.29	1657.10
394.49	1624.33
394.68	1661.78
394.88	1610.29
395.07	1722.63
395.26	1776.47
395.46	1579.86
395.65	1715.61
395.84	1746.04
396.04	1748.38
396.23	1762.42
396.42	1720.29
396.62	1739.02
396.81	1811.57
397.00	1858.39
397.19	1762.42
397.39	1891.15
397.58	1884.13
397.77	1820.94
397.97	1858.39
398.16	1860.73
398.35	1994.14
398.55	1788.17
398.74	1919.24
398.93	2003.50
399.12	1877.11
399.32	1914.56
399.51	1867.75
399.70	2045.63
399.90	2001.16
400.09	1994.14
400.28	2069.03
400.47	2045.63
400.67	2057.33
400.86	2019.88
401.05	2026.90
401.24	2066.69
401.44	2155.63
401.63	2115.84
401.82	2120.53
402.01	2094.78
402.21	2174.36
402.40	2193.08
402.59	2136.91
402.78	2099.46
402.97	2214.15
403.17	2232.87
403.36	2256.28
403.55	2382.67
403.74	2300.75
403.93	2326.49
404.13	2392.03
404.32	2204.78
404.51	2284.36
404.70	2537.14
404.89	2387.35
405.09	2532.46
405.28	2518.42
405.47	2321.81
405.66	2499.69
405.85	2567.57
406.05	2473.95
406.24	2455.22
406.43	2623.74
406.62	2670.55
406.81	2649.49
407.00	2597.99
407.20	2626.08
407.39	2579.27
407.58	2609.70
407.77	2820.35
407.96	2855.45
408.15	2806.30
408.34	2778.22
408.54	2885.88
408.73	2787.58
408.92	2808.64
409.11	3014.61
409.30	2876.52
409.49	2813.32
409.68	3002.91
409.87	3019.29
410.07	3042.70
410.26	3035.67
410.45	2937.37
410.64	3136.32
410.83	3073.12
411.02	3124.62
411.21	3220.58
411.40	3155.04
411.59	3197.17
411.78	3084.83
411.98	3185.47
412.17	3171.43
412.36	3344.63
412.55	3325.90
412.74	3421.86
412.93	3463.99
413.12	3236.96
413.31	3513.14
413.50	3520.17
413.69	3454.63
413.88	3604.42
414.07	3597.40
414.26	3611.45
414.45	3604.42
414.64	3658.26
414.83	3782.31
415.02	3737.84
415.22	3960.19
415.41	3978.91
415.60	3971.89
415.79	3990.61
415.98	3985.93
416.17	4035.08
416.36	3983.59
416.55	3967.21
416.74	4140.41
416.93	4035.08
417.12	4124.02
417.31	4297.22
417.50	4095.94
417.69	4280.84
417.88	4250.41
418.07	4117.00
418.26	4283.18
418.45	4393.19
418.64	4582.77
418.83	4454.04
419.02	4503.19
419.21	4498.51
419.39	4512.55
419.58	4524.26
419.77	4458.72
419.96	4500.85
420.15	4667.03
420.34	4470.42
420.53	4589.79
420.72	4655.33
420.91	4706.82
421.10	4739.58
421.29	4873.00
421.48	4725.54
421.67	4798.10
421.86	4751.29
422.05	4641.28
422.24	4802.78
422.43	5128.11
422.61	4870.65
422.80	4971.30
422.99	5011.09
423.18	4968.96
423.37	5090.67
423.56	4821.50
423.75	4985.34
423.94	4849.59
424.13	4638.94
424.32	4713.84
424.50	5116.41
424.69	5039.17
424.88	5029.81
425.07	4772.35
425.26	4849.59
425.45	5036.83
425.64	4765.33
425.83	4943.21
426.01	5081.30
426.20	5090.67
426.39	5116.41
426.58	5118.75
426.77	5050.88
426.96	4936.19
427.15	5212.37
427.33	5144.50
427.52	5088.32
427.71	5228.76
427.90	5111.73
428.09	5245.14
428.28	5324.72
428.46	5336.42
428.65	5385.57
428.84	5420.68
429.03	5467.49
429.22	5352.81
429.40	5493.24
429.59	5380.89
429.78	5130.45
429.97	5336.42
430.16	5430.04
430.34	5624.31
430.53	5680.48
430.72	5659.42
430.91	5455.79
431.10	5612.60
431.28	5767.08
431.47	5647.71
431.66	5729.63
431.85	5748.36
432.03	5989.43
432.22	5998.79
432.41	5902.83
432.60	5947.30
432.79	5867.72
432.97	6050.28
433.16	6050.28
433.35	5774.10
433.54	6136.88
433.72	6293.70
433.91	6115.82
434.10	6043.26
434.28	6090.07
434.47	6312.42
434.66	6277.32
434.85	6438.81
435.03	6338.17
435.22	6272.64
435.41	6558.18
435.59	6476.26
435.78	6317.11
435.97	6499.67
436.16	6457.54
436.34	6324.13
436.53	6377.96
436.72	6551.16
436.90	6389.66
437.09	6649.46
437.28	6361.58
437.46	6628.40
437.65	6705.63
437.84	6731.38
438.02	6895.22
438.21	6913.94
438.40	6841.39
438.58	6998.20
438.77	6986.50
438.96	7019.27
439.14	7098.84
439.33	7227.57
439.52	7220.55
439.70	7222.89
439.89	7391.41
440.08	7438.22
440.26	7323.54
440.45	7332.90
440.63	7480.35
440.82	7583.34
441.01	7702.70
441.19	7503.76
441.38	7716.75
441.57	7784.62
441.75	7758.88
441.94	7971.86
442.12	7969.52
442.31	7978.89
442.50	8030.38
442.68	8152.09
442.87	8067.83
443.05	8072.51
443.24	8109.96
443.43	8128.68
443.61	8273.79
443.80	8402.52
443.98	8091.23
444.17	7808.03
444.35	8348.69
444.54	8418.91
444.73	8397.84
444.91	8531.25
445.10	8346.35
445.28	8435.29
445.47	8243.37
445.65	8355.71
445.84	8346.35
446.02	8423.59
446.21	8322.94
446.39	8493.80
446.58	8505.51
446.77	8613.17
446.95	8353.37
447.14	8414.23
447.32	8706.79
447.51	8566.36
447.69	8496.14
447.88	8650.62
448.06	8479.76
448.25	8641.26
448.43	8491.46
448.62	8526.57
448.80	8638.92
448.99	8500.83
449.17	8762.97
449.36	8578.06
449.54	8805.10
449.73	9128.09
449.91	9062.55
450.10	9029.79
450.28	9128.09
450.46	9004.04
450.65	9294.27
450.83	9022.77
451.02	9116.39
451.20	9067.24
451.39	9270.86
451.57	9008.72
451.76	9195.96
451.94	9121.07
452.13	9359.80
452.31	9291.93
452.49	9097.66
452.68	9298.95
452.86	9401.93
453.05	9523.64
453.23	9530.66
453.42	9242.78
453.60	9434.70
453.78	9596.20
453.97	9411.29
454.15	9430.02
454.34	9497.89
454.52	9640.67
454.70	9516.62
454.89	9685.14
455.07	9731.95
455.26	9944.94
455.44	10125.16
455.62	9916.85
455.81	9816.21
455.99	9996.43
456.17	10120.48
456.36	10260.91
456.54	10296.02
456.73	10258.57
456.91	10494.96
457.09	10291.34
457.28	10441.13
457.46	10303.04
457.64	10487.94
457.83	10462.19
458.01	10429.43
458.19	10869.45
458.38	10595.61
458.56	10693.91
458.74	10523.05
458.93	10794.55
459.11	10623.69
459.29	10785.19
459.48	10787.53
459.66	11019.24
459.84	10963.07
460.03	11215.85
460.21	10822.64
460.39	11124.57
460.57	11180.74
460.76	11197.12
460.94	11349.26
461.12	11089.46
461.31	11234.57
461.49	11164.36
461.67	11262.66
461.85	11644.17
462.04	11398.41
462.22	11730.76
462.40	11702.68
462.59	11562.25
462.77	11611.40
462.95	11641.82
463.13	11611.40
463.32	11595.01
463.50	11737.79
463.68	11758.85
463.86	11866.52
464.05	11611.40
464.23	11971.84
464.41	11836.09
464.59	11672.25
464.78	12229.30
464.96	12051.42
465.14	11887.58
465.32	12231.64
465.50	12173.13
465.69	12482.08
465.87	12011.63
466.05	12180.15
466.23	12233.98
466.41	12423.56
466.60	12505.48
466.78	12042.06
466.96	12121.63
467.14	12166.10
467.32	12446.97
467.51	12809.75
467.69	12079.50
467.87	12587.40
468.05	12854.22
468.23	12444.63
468.41	12610.81
468.60	12697.41
468.78	12671.66
468.96	12458.67
469.14	12849.54
469.32	12795.71
469.50	12533.57
469.69	12872.95
469.87	13144.45
470.05	13088.28
470.23	12898.69
470.41	13055.51
470.59	13235.73
470.77	13341.05
470.95	13338.71
471.14	13710.86
471.32	13345.73
471.50	13570.43
471.68	13525.96
471.86	13872.36
472.04	13874.70
472.22	14073.64
472.40	13664.05
472.58	14073.64
472.77	13954.27
472.95	14157.90
473.13	14544.09
473.31	14157.90
473.49	14244.50
473.67	14171.94
473.85	14207.05
474.03	14824.95
474.21	14738.35
474.39	14576.86
474.57	14661.12
474.75	14834.32
474.93	15023.90
475.12	15197.10
475.30	15119.86
475.48	15176.03
475.66	15225.18
475.84	15138.58
476.02	15314.13
476.20	15550.52
476.38	15566.90
476.56	16168.42
476.74	15754.15
476.92	15786.91
477.10	15740.10
477.28	16152.04
477.46	16243.32
477.64	16278.43
477.82	16507.80
478.00	17008.67
478.18	16957.18
478.36	17081.23
478.54	17146.76
478.72	17195.92
478.90	17741.26
479.08	17633.60
479.26	17579.76
479.44	17701.47
479.62	17738.92
479.80	18043.19
479.98	17928.50
480.16	18738.33
480.34	18483.21
480.52	18874.08
480.70	18934.93
480.88	18808.54
481.06	18916.21
481.24	18752.37
481.41	19204.10
481.59	19412.40
481.77	19850.08
481.95	19674.54
482.13	19356.23
482.31	19744.76
482.49	20390.75
482.67	20175.42
482.85	20208.19
483.03	20783.96
483.21	20826.09
483.39	20898.64
483.57	20973.54
483.74	21366.75
483.92	21345.69
484.10	21348.03
484.28	21841.88
484.46	22244.45
484.64	22338.07
484.82	22214.02
485.00	22515.95
485.18	22738.30
485.35	23171.30
485.53	22881.08
485.71	23288.33
485.89	23447.49
486.07	23515.36
486.25	23449.83
486.43	24056.03
486.61	23882.83
486.78	24009.22
486.96	24159.01
487.14	24610.73
487.32	24673.93
487.50	25214.59
487.68	24957.13
487.85	25008.62
488.03	25404.17
488.21	25727.17
488.39	26071.23
488.57	26284.22
488.75	26373.16
488.92	26682.11
489.10	27096.38
489.28	26962.97
489.46	27337.46
489.64	26986.38
489.81	27686.20
489.99	27934.29
490.17	27910.89
490.35	28086.43
490.53	28189.41
490.70	28685.61
490.88	28610.71
491.06	28622.41
491.24	28912.64
491.41	29591.39
491.59	28975.83
491.77	29472.03
491.95	29603.10
492.13	30171.85
492.30	30235.04
492.48	29954.18
492.66	30504.20
492.84	30235.04
493.01	30993.37
493.19	30441.01
493.37	31140.83
493.54	31159.55
493.72	31644.04
493.90	31637.02
494.08	31828.95
494.25	32156.62
494.43	32383.65
494.61	32435.14
494.79	32924.32
494.96	32463.23
495.14	33294.12
495.32	32889.21
495.49	33387.74
495.67	33521.15
495.85	33352.63
496.02	33720.10
496.20	34300.55
496.38	34122.67
496.55	34548.65
496.73	35243.79
496.91	34841.21
497.09	34946.54
497.26	35360.81
497.44	34834.19
497.62	35086.97
497.79	35697.85
497.97	35849.99
498.14	35896.80
498.32	36376.61
498.50	36470.23
498.67	36538.10
498.85	36905.57
499.03	37008.55
499.20	36790.88
499.38	37034.30
499.56	37214.52
499.73	37666.24
499.91	37474.32
500.08	37605.39
500.26	37647.52
500.44	37792.63
500.61	38031.36
500.79	38164.78
500.97	38251.38
501.14	38405.85
501.32	38904.38
501.49	38836.51
501.67	38667.99
501.84	39143.12
502.02	39091.63
502.20	39445.05
502.37	39323.34
502.55	39566.76
502.72	39321.00
502.90	39793.79
503.07	39695.49
503.25	40179.98
503.43	39988.05
503.60	40271.26
503.78	40486.59
503.95	40554.46
504.13	40582.55
504.30	40774.47
504.48	40322.75
504.65	40821.28
504.83	40992.14
505.01	40912.56
505.18	41230.88
505.36	41862.82
505.53	41537.49
505.71	41530.47
505.88	42204.54
506.06	41394.71
506.23	41986.87
506.41	42328.59
506.58	42241.99
506.76	42045.38
506.93	42466.68
507.11	42656.26
507.28	42698.39
507.46	42932.45
507.63	42887.98
507.81	43540.99
507.98	43145.44
508.16	43166.50
508.33	43405.23
508.50	43620.56
508.68	43360.76
508.85	43962.28
509.03	43840.57
509.20	43983.35
509.38	44748.70
509.55	44233.78
509.73	44842.32
509.90	44587.21
510.08	44935.95
510.25	44832.96
510.42	44994.46
510.60	45123.19
510.77	45507.04
510.95	45251.92
511.12	45280.00
511.30	44942.97
511.47	45731.73
511.64	45523.42
511.82	46206.86
511.99	45652.15
512.17	46258.35
512.34	45977.48
512.51	46330.90
512.69	46300.48
512.86	46478.36
513.04	46916.04
513.21	46621.13
513.38	47089.24
513.56	46986.25
513.73	46927.74
513.90	47426.28
514.08	46600.07
514.25	47185.20
514.43	47421.59
514.60	47241.37
514.77	47271.80
514.95	47999.71
515.12	47793.74
515.29	47625.22
515.47	48140.14
515.64	47908.43
515.81	48196.31
515.99	48451.43
516.16	49006.14
516.33	48538.03
516.51	48900.81
516.68	48685.48
516.85	48882.09
517.03	48821.23
517.20	48851.66
517.37	48882.09
517.54	48985.07
517.72	48952.30
517.89	49174.66
518.06	49329.13
518.24	49282.32
518.41	49607.65
518.58	49404.03
518.75	49291.68
518.93	49897.88
519.10	49930.65
519.27	49663.83
519.45	49661.49
519.62	49865.11
519.79	50344.92
519.96	49787.88
520.14	50466.63
520.31	49853.41
520.48	50445.57
520.65	50466.63
520.83	50616.43
521.00	50824.73
521.17	50394.07
521.34	50948.78
521.52	50951.12
521.69	51349.01
521.86	51295.18
522.03	51447.32
522.20	51374.76
522.38	51583.07
522.55	51475.40
522.72	51437.95
522.89	51547.96
523.07	51819.46
523.24	51655.62
523.41	51877.97
523.58	51522.21
523.75	52196.29
523.92	51503.49
524.10	51828.82
524.27	51849.89
524.44	52231.40
524.61	52282.89
524.78	52200.97
524.96	52315.65
525.13	52233.74
525.30	52523.96
525.47	52409.28
525.64	52528.64
525.81	52615.24
525.98	52832.91
526.16	52629.29
526.33	52783.76
526.50	53200.38
526.67	52790.78
526.84	52942.92
527.01	53090.37
527.18	52884.40
527.36	53312.72
527.53	53319.74
527.70	53652.10
527.87	53654.44
528.04	53242.51
528.21	53371.24
528.38	53586.57
528.55	53635.72
528.72	53462.52
528.89	53588.91
529.07	53570.18
529.24	53689.55
529.41	53792.53
529.58	53794.87
529.75	53808.92
529.92	53972.75
530.09	53876.79
530.26	54227.87
530.43	54080.42
530.60	53895.52
530.77	53963.39
530.94	54225.53
531.11	53829.98
531.28	54274.68
531.46	54033.61
531.63	54475.97
531.80	54115.53
531.97	54129.57
532.14	54731.09
532.31	54588.31
532.48	54670.23
532.65	54714.70
532.82	54501.71
532.99	54747.47
533.16	54625.76
533.33	55241.32
533.50	55145.36
533.67	54927.69
533.84	54752.15
534.01	54892.58
534.18	54775.56
534.35	55248.35
534.52	55208.56
534.69	55238.98
534.86	55206.22
535.03	55173.45
535.20	55206.22
535.37	55442.61
535.54	55154.72
535.71	55192.17
535.88	55426.23
536.05	55803.05
536.22	55674.32
536.38	55695.39
536.55	55714.11
536.72	55597.09
536.89	55580.70
537.06	55606.45
537.23	55854.54
537.40	55662.62
537.57	55838.16
537.74	55690.71
537.91	55859.23
538.08	55915.40
538.25	55824.12
538.42	56044.13
538.59	56357.76
538.75	55796.03
538.92	56229.03
539.09	56292.22
539.26	56151.79
539.43	56104.98
539.60	56355.42
539.77	56315.63
539.94	56669.05
540.11	56376.48
540.28	56360.10
540.44	56655.01
540.61	56516.92
540.78	56306.27
540.95	56535.64
541.12	56619.90
541.29	56493.51
541.46	56498.19
541.62	56622.24
541.79	56856.29
541.96	56556.70
542.13	56772.03
542.30	56781.40
542.47	56940.55
542.63	57006.09
542.80	57146.52
542.97	57048.22
543.14	57249.50
543.31	57214.40
543.48	57319.72
543.64	57647.39
543.81	57403.98
543.98	57474.20
544.15	57464.83
544.32	57820.59
544.48	57705.91
544.65	57544.41
544.82	57572.50
544.99	57474.20
545.16	57502.28
545.32	57539.73
545.49	57841.66
545.66	57668.46
545.83	57865.06
546.00	58003.16
546.16	57907.19
546.33	57773.78
546.50	57579.52
546.67	57944.64
546.83	57654.42
547.00	57930.60
547.17	57853.36
547.34	57949.32
547.50	58253.59
547.67	58127.20
547.84	58150.61
548.00	58277.00
548.17	58188.06
548.34	58279.34
548.51	58150.61
548.67	58321.47
548.84	58007.84
549.01	58183.38
549.18	58192.74
549.34	58298.06
549.51	58595.31
549.68	58433.81
549.84	58335.51
550.01	58492.33
550.18	58536.80
550.34	58429.13
550.51	58646.80
550.68	58487.65
550.84	58284.02
551.01	58684.25
551.18	58396.37
551.34	58492.33
551.51	58712.34
551.68	58801.28
551.84	58452.54
552.01	58471.26
552.18	58660.85
552.34	58541.48
552.51	58911.28
552.68	58742.77
552.84	58714.68
553.01	59131.29
553.18	58817.66
553.34	58983.84
553.51	58749.79
553.67	58747.45
553.84	59215.55
554.01	58885.54
554.17	59021.29
554.34	59199.17
554.51	59068.10
554.67	59196.83
554.84	59164.06
555.00	59098.53
555.17	59096.19
555.33	59250.66
555.50	58915.96
555.67	59016.61
555.83	59009.59
556.00	59147.68
556.16	59437.90
556.33	59449.61
556.50	59327.90
556.66	59318.54
556.83	59131.29
556.99	59501.10
557.16	59606.42
557.32	59531.53
557.49	59784.30
557.65	59278.75
557.82	59517.48
557.98	59435.56
558.15	59618.13
558.32	59461.31
558.48	59391.09
558.65	59571.32
558.81	59461.31
558.98	59636.85
559.14	59674.30
559.31	59819.41
559.47	59793.67
559.64	59737.49
559.80	59821.75
559.97	59824.09
560.13	59620.47
560.30	59667.28
560.46	59863.88
560.63	59810.05
560.79	59976.23
560.96	59882.61
561.12	60023.04
561.29	59945.80
561.45	59990.27
561.61	59915.37
561.78	60023.04
561.94	59959.84
562.11	59845.16
562.27	59711.75
562.44	59997.29
562.60	60137.72
562.77	60179.85
562.93	59884.95
563.10	60149.43
563.26	59847.50
563.42	60233.69
563.59	60126.02
563.75	60212.62
563.92	60191.56
564.08	60069.85
564.24	60184.54
564.41	60236.03
564.57	60207.94
564.74	60278.16
564.90	60184.54
565.07	60133.04
565.23	60135.38
565.39	60296.88
565.56	60395.18
565.72	60285.18
565.88	60364.76
566.05	60198.58
566.21	60233.69
566.38	60151.77
566.54	60413.91
566.70	60313.26
566.87	60488.80
567.03	60364.76
567.19	60324.97
567.36	60360.08
567.52	60456.04
567.68	60502.85
567.85	60392.84
568.01	60570.72
568.17	60273.48
568.34	60327.31
568.50	60486.46
568.66	60289.86
568.83	60390.50
568.99	60275.82
569.15	60399.86
569.32	60355.39
569.48	60449.02
569.64	60474.76
569.81	60650.30
569.97	60364.76
570.13	60622.22
570.30	60397.52
570.46	60493.49
570.62	60713.50
570.78	60547.32
570.95	60507.53
571.11	60697.11
571.27	60720.52
571.43	60633.92
571.60	60645.62
571.76	60743.92
571.92	60610.51
572.09	60573.06
572.25	60701.79
572.41	60633.92
572.57	60748.60
572.74	60947.55
572.90	60671.37
573.06	60795.42
573.22	60877.33
573.38	60680.73
573.55	60652.64
573.71	60837.54
573.87	60549.66
574.03	60514.55
574.20	60697.11
574.36	60736.90
574.52	60811.80
574.68	60879.67
574.84	60903.08
575.01	60795.42
575.17	60699.45
575.33	60680.73
575.49	60631.58
575.65	60872.65
575.82	60947.55
575.98	60816.48
576.14	60907.76
576.30	60963.93
576.46	60917.12
576.62	60720.52
576.79	60945.21
576.95	60673.71
577.11	60830.52
577.27	60917.12
577.43	61062.24
577.59	60692.43
577.75	60786.05
577.92	60992.02
578.08	60757.97
578.24	60872.65
578.40	61064.58
578.56	61022.45
578.72	61059.90
578.88	60985.00
579.04	61066.92
579.21	61062.24
579.37	60980.32
579.53	61183.94
579.69	61059.90
579.85	60860.95
580.01	60989.68
580.17	60867.97
580.33	61102.03
580.49	61183.94
580.65	61104.37
580.82	60977.98
580.98	60879.67
581.14	60647.96
581.30	60992.02
581.46	61036.49
581.62	61001.38
581.78	61043.51
581.94	60987.34
582.10	60921.80
582.26	60907.76
582.42	60893.72
582.58	61006.06
582.74	60889.04
582.90	60905.42
583.06	60975.64
583.22	60839.89
583.38	60977.98
583.54	60956.91
583.70	60935.85
583.86	61104.37
584.02	60963.93
584.18	61045.85
584.34	60942.87
584.50	61052.87
584.66	61169.90
584.82	61022.45
584.98	61148.84
585.14	61083.30
585.30	61029.47
585.46	61174.58
585.62	61219.05
585.78	61275.22
585.94	60846.91
586.10	61066.92
586.26	61024.79
586.42	61139.47
586.58	61190.97
586.74	61059.90
586.90	61080.96
587.06	60877.33
587.22	61111.39
587.38	61153.52
587.54	61095.00
587.70	61275.22
587.86	61125.43
588.02	61134.79
588.18	61371.19
588.34	61073.94
588.49	60893.72
