SpectraSuite Data File
++++++++++++++++++++++++++++++++++++
Date: Fri Oct 25 11:23:50 EDT 2013
User: price-jones
Dark Spectrum Present: No
Reference Spectrum Present: No
Number of Sampled Component Spectra: 1
Spectrometers: USB2+H05261
Integration Time (usec): 100000 (USB2+H05261)
Spectra Averaged: 1 (USB2+H05261)
Boxcar Smoothing: 0 (USB2+H05261)
Correct for Electrical Dark: No (USB2+H05261)
Strobe/Lamp Enabled: No (USB2+H05261)
Correct for Detector Non-linearity: No (USB2+H05261)
Correct for Stray Light: No (USB2+H05261)
Number of Pixels in Processed Spectrum: 2048
>>>>>Begin Processed Spectral Data<<<<<
365.73	266.82
365.92	266.82
366.12	266.82
366.32	86.60
366.52	110.01
366.72	100.64
366.91	93.62
367.11	135.75
367.31	74.90
367.51	173.20
367.70	56.17
367.90	107.66
368.10	149.79
368.30	180.22
368.49	142.77
368.69	124.05
368.89	124.05
369.09	173.20
369.28	147.45
369.48	180.22
369.68	177.88
369.87	224.69
370.07	250.44
370.27	170.86
370.47	337.04
370.66	615.56
370.86	535.98
371.06	732.59
371.25	709.18
371.45	634.29
371.65	716.20
371.84	634.29
372.04	676.41
372.24	664.71
372.44	725.57
372.63	706.84
372.83	765.36
373.03	748.97
373.22	779.40
373.42	725.57
373.62	692.80
373.81	793.44
374.01	851.96
374.21	866.00
374.40	795.78
374.60	821.53
374.79	866.00
374.99	795.78
375.19	823.87
375.38	837.91
375.58	847.27
375.78	833.23
375.97	908.13
376.17	945.58
376.37	866.00
376.56	772.38
376.76	898.77
376.95	842.59
377.15	828.55
377.35	868.34
377.54	983.02
377.74	926.85
377.93	830.89
378.13	861.32
378.33	983.02
378.52	940.90
378.72	978.34
378.91	922.17
379.11	926.85
379.31	961.96
379.50	976.00
379.70	961.96
379.89	1022.81
380.09	1018.13
380.28	1013.45
380.48	929.19
380.68	1053.24
380.87	1001.75
381.07	1064.94
381.26	1046.22
381.46	1022.81
381.65	1032.18
381.85	1057.92
382.04	1032.18
382.24	1090.69
382.43	1046.22
382.63	1111.75
382.83	1086.01
383.02	1102.39
383.22	1088.35
383.41	1062.60
383.61	1114.10
383.80	1174.95
384.00	1123.46
384.19	1137.50
384.39	1170.27
384.58	1158.57
384.78	1116.44
384.97	1158.57
385.17	1174.95
385.36	1128.14
385.56	1198.35
385.75	1184.31
385.95	1235.80
386.14	1226.44
386.34	1156.22
386.53	1214.74
386.72	1184.31
386.92	1177.29
387.11	1235.80
387.31	1231.12
387.50	1263.89
387.70	1259.21
387.89	1240.48
388.09	1306.02
388.28	1188.99
388.48	1355.17
388.67	1317.72
388.86	1289.64
389.06	1380.92
389.25	1364.53
389.45	1345.81
389.64	1329.42
389.84	1385.60
390.03	1441.77
390.22	1352.83
390.42	1380.92
390.61	1317.72
390.81	1275.59
391.00	1577.52
391.19	1483.90
391.39	1383.26
391.58	1439.43
391.78	1437.09
391.97	1516.67
392.16	1584.54
392.36	1535.39
392.55	1462.83
392.75	1535.39
392.94	1451.13
393.13	1469.86
393.33	1465.18
393.52	1666.46
393.71	1598.59
393.91	1624.33
394.10	1521.35
394.29	1605.61
394.49	1678.16
394.68	1645.40
394.88	1664.12
395.07	1624.33
395.26	1755.40
395.46	1802.21
395.65	1722.63
395.84	1722.63
396.04	1732.00
396.23	1708.59
396.42	1703.91
396.62	1799.87
396.81	1706.25
397.00	1774.13
397.19	1804.55
397.39	1743.70
397.58	1755.40
397.77	1827.96
397.97	1884.13
398.16	1839.66
398.35	1874.77
398.55	2003.50
398.74	1872.43
398.93	1912.22
399.12	1907.54
399.32	1921.58
399.51	2015.20
399.70	1977.75
399.90	2001.16
400.09	2022.22
400.28	2015.20
400.47	2083.08
400.67	2101.80
400.86	2188.40
401.05	2148.61
401.24	2155.63
401.44	2127.55
401.63	2193.08
401.82	2132.23
402.01	2165.00
402.21	2239.89
402.40	2230.53
402.59	2181.38
402.78	2260.96
402.97	2305.43
403.17	2253.94
403.36	2209.47
403.55	2260.96
403.74	2471.61
403.93	2326.49
404.13	2298.41
404.32	2403.73
404.51	2314.79
404.70	2422.45
404.89	2326.49
405.09	2392.03
405.28	2518.42
405.47	2551.18
405.66	2438.84
405.85	2539.48
406.05	2626.08
406.24	2480.97
406.43	2616.72
406.62	2724.38
406.81	2670.55
407.00	2551.18
407.20	2579.27
407.39	2621.40
407.58	2752.47
407.77	2682.25
407.96	2787.58
408.15	2796.94
408.34	2794.60
408.54	2895.24
408.73	2810.98
408.92	2944.39
409.11	2939.71
409.30	2911.63
409.49	3009.93
409.68	2892.90
409.87	2937.37
410.07	3052.06
410.26	3026.31
410.45	3197.17
410.64	3124.62
410.83	3049.72
411.02	3096.53
411.21	3019.29
411.40	3021.63
411.59	3155.04
411.78	3286.11
411.98	3206.53
412.17	3337.60
412.36	3169.09
412.55	3255.69
412.74	3316.54
412.93	3398.46
413.12	3258.03
413.31	3653.58
413.50	3524.85
413.69	3555.27
413.88	3590.38
414.07	3599.74
414.26	3576.34
414.45	3719.11
414.64	3726.13
414.83	3826.78
415.02	3873.59
415.22	3782.31
415.41	3836.14
415.60	3941.46
415.79	3880.61
415.98	3995.29
416.17	3866.56
416.36	4014.02
416.55	3969.55
416.74	4112.32
416.93	3962.53
417.12	4126.36
417.31	4259.78
417.50	4210.62
417.69	4402.55
417.88	4306.59
418.07	4311.27
418.26	4227.01
418.45	4308.93
418.64	4435.32
418.83	4554.68
419.02	4395.53
419.21	4386.16
419.39	4374.46
419.58	4554.68
419.77	4351.06
419.96	4585.11
420.15	4629.58
420.34	4734.90
420.53	4641.28
420.72	4690.43
420.91	4777.03
421.10	4678.73
421.29	4851.93
421.48	4695.11
421.67	4744.27
421.86	4858.95
422.05	4910.44
422.24	4880.02
422.43	4924.49
422.61	4821.50
422.80	4964.28
422.99	4957.25
423.18	5022.79
423.37	4858.95
423.56	4861.29
423.75	4870.65
423.94	4826.18
424.13	4587.45
424.32	4758.31
424.50	5020.45
424.69	5298.97
424.88	4992.36
425.07	4945.55
425.26	4966.62
425.45	4966.62
425.64	5032.15
425.83	4971.30
426.01	5107.05
426.20	5146.84
426.39	5195.99
426.58	5001.72
426.77	5036.83
426.96	5107.05
427.15	5085.98
427.33	5247.48
427.52	5111.73
427.71	5434.72
427.90	5083.64
428.09	5359.83
428.28	5280.25
428.46	5287.27
428.65	5303.65
428.84	5563.45
429.03	5565.79
429.22	5341.10
429.40	5621.97
429.59	5518.98
429.78	5392.59
429.97	5221.74
430.16	5397.28
430.34	5631.33
430.53	5760.06
430.72	5614.95
430.91	5596.22
431.10	5713.25
431.28	5846.66
431.47	5923.90
431.66	5846.66
431.85	5923.90
432.03	5959.00
432.22	6033.90
432.41	5863.04
432.60	5879.43
432.79	5973.05
432.97	6005.81
433.16	6057.31
433.35	6092.41
433.54	6139.23
433.72	6181.35
433.91	6153.27
434.10	6043.26
434.28	6162.63
434.47	6335.83
434.66	6122.84
434.85	6340.51
435.03	6333.49
435.22	6314.77
435.41	6661.16
435.59	6464.56
435.78	6476.26
435.97	6377.96
436.16	6324.13
436.34	6532.44
436.53	6516.05
436.72	6649.46
436.90	6494.99
437.09	6827.34
437.28	6384.98
437.46	6799.26
437.65	6698.61
437.84	6801.60
438.02	6794.58
438.21	6888.20
438.40	6745.42
438.58	7059.06
438.77	6956.07
438.96	7040.33
439.14	7049.69
439.33	7056.72
439.52	7265.02
439.70	7115.23
439.89	7592.70
440.08	7316.51
440.26	7379.71
440.45	7246.30
440.63	7538.87
440.82	7639.51
441.01	7583.34
441.19	7630.15
441.38	7707.38
441.57	7765.90
441.75	7789.30
441.94	8021.02
442.12	7943.78
442.31	8182.51
442.50	8039.74
442.68	8011.65
442.87	8093.57
443.05	8028.04
443.24	8313.58
443.43	8135.70
443.61	8189.53
443.80	8269.11
443.98	8044.42
444.17	7712.07
444.35	8336.99
444.54	8322.94
444.73	8486.78
444.91	8224.64
445.10	8241.03
445.28	8374.44
445.47	8205.92
445.65	8339.33
445.84	8446.99
446.02	8397.84
446.21	8437.63
446.39	8528.91
446.58	8564.02
446.77	8507.85
446.95	8238.69
447.14	8540.61
447.32	8671.68
447.51	8479.76
447.69	8418.91
447.88	8465.72
448.06	8582.74
448.25	8308.90
448.43	8657.64
448.62	8596.79
448.80	8664.66
448.99	8685.73
449.17	8777.01
449.36	8631.90
449.54	8982.98
449.73	8968.93
449.91	8950.21
450.10	8826.16
450.28	9404.27
450.46	9078.94
450.65	9071.92
450.83	9132.77
451.02	9046.17
451.20	9231.07
451.39	9270.86
451.57	9341.08
451.76	9135.11
451.94	9406.61
452.13	9434.70
452.31	9455.76
452.49	9275.54
452.68	9256.82
452.86	9371.50
453.05	9469.81
453.23	9380.87
453.42	9202.99
453.60	9320.01
453.78	9582.15
453.97	9699.18
454.15	9575.13
454.34	9511.94
454.52	9760.03
454.70	9963.66
454.89	9745.99
455.07	9853.66
455.26	9905.15
455.44	9928.55
455.62	10033.88
455.81	9738.97
455.99	9949.62
456.17	10242.18
456.36	10237.50
456.54	10078.35
456.73	10391.98
456.91	10296.02
457.09	10574.54
457.28	10338.15
457.46	10303.04
457.64	10696.25
457.83	10590.92
458.01	10485.60
458.19	10904.56
458.38	10583.90
458.56	10656.46
458.74	10782.85
458.93	10885.83
459.11	10869.45
459.29	10850.72
459.48	11061.37
459.66	10888.17
459.84	10960.73
460.03	10892.85
460.21	10857.75
460.39	10824.98
460.57	11133.93
460.76	11164.36
460.94	11204.14
461.12	11328.19
461.31	11133.93
461.49	11295.43
461.67	11173.72
461.85	11353.94
462.04	11339.90
462.22	11468.62
462.40	11728.42
462.59	11573.95
462.77	11810.34
462.95	11735.45
463.13	11545.86
463.32	11875.88
463.50	11859.49
463.68	11840.77
463.86	11770.55
464.05	11599.70
464.23	11470.97
464.41	11843.11
464.59	11693.32
464.78	12168.45
464.96	11920.35
465.14	11920.35
465.32	12170.79
465.50	12032.69
465.69	12161.42
465.87	12058.44
466.05	12058.44
466.23	12374.41
466.41	12210.57
466.60	12505.48
466.78	12196.53
466.96	12336.96
467.14	12145.04
467.32	12402.50
467.51	12432.93
467.69	12332.28
467.87	12435.27
468.05	12678.68
468.23	12336.96
468.41	12627.19
468.60	12638.89
468.78	12915.08
468.96	12734.85
469.14	12894.01
469.32	12989.97
469.50	12695.07
469.69	12851.88
469.87	13202.96
470.05	13064.87
470.23	13099.98
470.41	13259.13
470.59	13284.88
470.77	13401.91
470.95	13521.27
471.14	13748.31
471.32	13493.19
471.50	13586.81
471.68	13799.80
471.86	13884.06
472.04	13846.61
472.22	14218.75
472.40	13666.39
472.58	13846.61
472.77	13902.78
472.95	14181.31
473.13	14881.13
473.31	14108.75
473.49	14314.72
473.67	14190.67
473.85	14494.94
474.03	14864.74
474.21	14347.48
474.39	14927.94
474.57	14895.17
474.75	15014.54
474.93	14728.99
475.12	15098.80
475.30	15335.19
475.48	15073.05
475.66	15456.90
475.84	15194.76
476.02	15454.56
476.20	15564.56
476.38	15941.39
476.56	15889.90
476.74	15995.22
476.92	16126.29
477.10	15613.71
477.28	16205.87
477.46	16500.78
477.64	16442.26
477.82	16641.21
478.00	17207.62
478.18	16453.97
478.36	16783.98
478.54	17242.73
478.72	17348.05
478.90	17345.71
479.08	17465.08
479.26	17846.58
479.44	17872.33
479.62	18256.18
479.80	18272.56
479.98	18293.63
480.16	18576.83
480.34	18508.96
480.52	18665.77
480.70	18752.37
480.88	18391.93
481.06	18920.89
481.24	19150.26
481.41	19147.92
481.59	19342.19
481.77	19658.16
481.95	19349.21
482.13	19641.78
482.31	19812.63
482.49	20393.09
482.67	20416.49
482.85	20554.58
483.03	20819.07
483.21	20868.22
483.39	21364.41
483.57	21149.08
483.74	21193.55
483.92	21596.12
484.10	21177.17
484.28	22033.80
484.46	21804.43
484.64	22162.53
484.82	21806.77
485.00	22324.03
485.18	22745.33
485.35	22977.04
485.53	22810.86
485.71	23105.77
485.89	23269.61
486.07	23243.86
486.25	23686.22
486.43	23934.32
486.61	23812.61
486.78	24154.33
486.96	24535.84
487.14	24613.07
487.32	24444.56
487.50	25120.97
487.68	25118.63
487.85	25165.44
488.03	25565.67
488.21	26111.02
488.39	25944.84
488.57	25893.35
488.75	26583.80
488.92	26644.66
489.10	26937.23
489.28	26665.72
489.46	27129.15
489.64	27049.57
489.81	27484.91
489.99	27735.35
490.17	27814.93
490.35	28109.83
490.53	28285.37
490.70	28751.14
490.88	28343.89
491.06	28943.06
491.24	28919.66
491.41	29565.65
491.59	29666.29
491.77	29329.25
491.95	29504.79
492.13	30405.90
492.30	30115.67
492.48	30338.02
492.66	30354.41
492.84	30520.59
493.01	30668.04
493.19	30792.09
493.37	31307.01
493.54	31330.41
493.72	31632.34
493.90	31548.08
494.08	32063.00
494.25	32252.58
494.43	32156.62
494.61	32355.57
494.79	32751.12
494.96	32751.12
495.14	33359.66
495.32	33132.62
495.49	33266.03
495.67	33518.81
495.85	33823.08
496.02	33748.18
496.20	34265.44
496.38	34148.42
496.55	34525.24
496.73	34941.86
496.91	34806.11
497.09	34871.64
497.26	35196.98
497.44	35379.54
497.62	35622.95
497.79	35676.79
497.97	35648.70
498.14	36168.30
498.32	36514.70
498.50	36268.94
498.67	36844.71
498.85	36421.08
499.03	37230.90
499.20	36912.59
499.38	36809.61
499.56	37544.53
499.73	37858.17
499.91	37694.33
500.08	37490.70
500.26	37563.26
500.44	37797.31
500.61	37940.08
500.79	38134.35
500.97	37968.17
501.14	38913.75
501.32	38831.83
501.49	38492.45
501.67	38899.70
501.84	39468.45
502.02	39187.59
502.20	39145.46
502.37	39281.21
502.55	39915.50
502.72	39192.27
502.90	40128.48
503.07	39899.11
503.25	39821.87
503.43	39796.13
503.60	40016.14
503.78	40559.14
503.95	40353.18
504.13	40795.54
504.30	41209.81
504.48	40720.64
504.65	41029.59
504.83	41076.40
505.01	41516.42
505.18	41303.43
505.36	41495.36
505.53	41364.29
505.71	41769.20
505.88	42108.58
506.06	41474.29
506.23	41965.81
506.41	42298.16
506.58	42363.70
506.76	42660.94
506.93	42555.62
507.11	42579.03
507.28	42829.46
507.46	42927.77
507.63	43288.21
507.81	43374.81
507.98	43473.11
508.16	43515.24
508.33	43653.33
508.50	43873.34
508.68	43838.23
508.85	44444.43
509.03	43873.34
509.20	44526.35
509.38	44257.19
509.55	44793.17
509.73	44608.27
509.90	44444.43
510.08	45130.21
510.25	45111.49
510.42	44893.82
510.60	45247.24
510.77	45249.58
510.95	45792.58
511.12	45631.08
511.30	45076.38
511.47	45556.19
511.64	45628.74
511.82	46183.45
511.99	46216.22
512.17	46012.59
512.34	46342.61
512.51	46752.20
512.69	46298.14
512.86	46642.20
513.04	47260.10
513.21	47051.79
513.38	46937.10
513.56	47182.86
513.73	46986.25
513.90	47351.38
514.08	47075.19
514.25	47143.07
514.43	47398.19
514.60	47927.15
514.77	47473.09
514.95	47763.31
515.12	47861.61
515.29	47718.84
515.47	48193.97
515.64	48133.12
515.81	48165.88
515.99	48292.27
516.16	48727.61
516.33	48509.94
516.51	48886.77
516.68	48638.67
516.85	48692.50
517.03	49130.19
517.20	49146.57
517.37	48865.70
517.54	49420.41
517.72	48968.69
517.89	49043.59
518.06	49315.09
518.24	49425.09
518.41	49537.44
518.58	49497.65
518.75	49352.54
518.93	50012.57
519.10	49808.94
519.27	50124.91
519.45	49996.18
519.62	50096.83
519.79	50263.00
519.96	50108.53
520.14	50621.11
520.31	50267.69
520.48	50616.43
520.65	50546.21
520.83	50763.88
521.00	50923.04
521.17	50782.60
521.34	50958.14
521.52	51033.04
521.69	50946.44
521.86	51423.91
522.03	51138.36
522.20	51393.48
522.38	51636.90
522.55	51660.30
522.72	51679.03
522.89	51707.12
523.07	51903.72
523.24	51672.01
523.41	51999.68
523.58	51491.79
523.75	51892.02
523.92	51922.44
524.10	52079.26
524.27	52172.88
524.44	52343.74
524.61	52500.56
524.78	52350.76
524.96	52465.45
525.13	52339.06
525.30	52615.24
525.47	52917.17
525.64	52949.94
525.81	52643.33
525.98	53132.50
526.16	52676.10
526.33	52601.20
526.50	52823.55
526.67	53001.43
526.84	52952.28
527.01	53001.43
527.18	53392.30
527.36	53034.20
527.53	53279.96
527.70	53539.75
527.87	53265.91
528.04	53478.90
528.21	53411.02
528.38	53659.12
528.55	53502.31
528.72	53485.92
528.89	53593.59
529.07	53645.08
529.24	53488.26
529.41	53750.40
529.58	53834.66
529.75	53731.68
529.92	54129.57
530.09	53876.79
530.26	54045.31
530.43	53996.16
530.60	53909.56
530.77	53865.09
530.94	54092.12
531.11	54258.30
531.28	54082.76
531.46	54464.27
531.63	54337.88
531.80	54281.70
531.97	54513.42
532.14	54693.64
532.31	54520.44
532.48	54857.48
532.65	54728.75
532.82	54475.97
532.99	54714.70
533.16	54747.47
533.33	55098.55
533.50	55049.40
533.67	54948.76
533.84	54983.86
534.01	54990.89
534.18	54962.80
534.35	55281.11
534.52	55215.58
534.69	55444.95
534.86	55620.49
535.03	55217.92
535.20	55508.14
535.37	55517.51
535.54	55569.00
535.71	55583.04
535.88	55547.93
536.05	55667.30
536.22	55580.70
536.38	55800.71
536.55	55826.46
536.72	55739.86
536.89	55660.28
537.06	55601.77
537.23	55915.40
537.40	55641.56
537.57	55936.46
537.74	56133.07
537.91	56147.11
538.08	56107.32
538.25	55950.51
538.42	55913.06
538.59	56381.16
538.75	56123.71
538.92	56315.63
539.09	56156.47
539.26	56184.56
539.43	56353.08
539.60	56549.68
539.77	56275.84
539.94	56725.22
540.11	56397.55
540.28	56701.82
540.44	56552.02
540.61	56603.52
540.78	56491.17
540.95	56849.27
541.12	56409.25
541.29	56556.70
541.46	56715.86
541.62	56896.08
541.79	56545.00
541.96	56601.18
542.13	56521.60
542.30	56774.37
542.47	56903.10
542.63	57045.88
542.80	57076.30
542.97	56999.07
543.14	57340.78
543.31	57375.89
543.48	57305.68
543.64	57619.31
543.81	57382.91
543.98	57528.03
544.15	57439.09
544.32	57673.14
544.48	57680.16
544.65	57532.71
544.82	57623.99
544.99	57408.66
545.16	57663.78
545.32	57506.96
545.49	57780.81
545.66	57928.26
545.83	57773.78
546.00	57811.23
546.16	57748.04
546.33	57881.45
546.50	57652.08
546.67	57834.64
546.83	57546.75
547.00	57975.07
547.17	57771.44
547.34	57780.81
547.50	57979.75
547.67	58185.72
547.84	58056.99
548.00	58211.46
548.17	58330.83
548.34	58244.23
548.51	58387.00
548.67	58485.31
548.84	58192.74
549.01	57993.79
549.18	58415.09
549.34	58375.30
549.51	58604.67
549.68	58649.14
549.84	58436.16
550.01	58607.01
550.18	58501.69
550.34	58571.91
550.51	58777.87
550.68	58585.95
550.84	58305.09
551.01	58642.12
551.18	58550.84
551.34	58801.28
551.51	58901.92
551.68	58698.30
551.84	58684.25
552.01	58677.23
552.18	58782.55
552.34	58733.40
552.51	58948.73
552.68	58583.61
552.84	58887.88
553.01	58925.33
553.18	58899.58
553.34	59086.82
553.51	58766.17
553.67	58883.20
553.84	59194.49
554.01	59007.25
554.17	59320.88
554.34	59110.23
554.51	59150.02
554.67	59164.06
554.84	59145.34
555.00	59227.26
555.17	59157.04
555.33	59054.06
555.50	59028.31
555.67	59157.04
555.83	59065.76
556.00	59049.38
556.16	59613.44
556.33	59365.35
556.50	59253.00
556.66	59370.03
556.83	59332.58
556.99	59606.42
557.16	59695.36
557.32	59737.49
557.49	59700.04
557.65	59561.95
557.82	59374.71
557.98	59414.50
558.15	59454.29
558.32	59739.83
558.48	59348.96
558.65	59613.44
558.81	59714.09
558.98	59784.30
559.14	59812.39
559.31	59732.81
559.47	59636.85
559.64	59983.25
559.80	59781.96
559.97	59950.48
560.13	59632.17
560.30	59882.61
560.46	59983.25
560.63	59922.40
560.79	59948.14
560.96	59973.89
561.12	59889.63
561.29	59943.46
561.45	59983.25
561.61	60107.30
561.78	59887.29
561.94	60023.04
562.11	60041.76
562.27	60121.34
562.44	59913.03
562.60	59969.21
562.77	60135.38
562.93	59891.97
563.10	59927.08
563.26	60109.64
563.42	60327.31
563.59	60119.00
563.75	59990.27
563.92	60294.54
564.08	60149.43
564.24	60329.65
564.41	60271.14
564.57	60360.08
564.74	60119.00
564.90	60250.07
565.07	60313.26
565.23	60243.05
565.39	60310.92
565.56	60301.56
565.72	60254.75
565.88	60390.50
566.05	60196.24
566.21	60374.12
566.38	60378.80
566.54	60460.72
566.70	60643.28
566.87	60626.90
567.03	60397.52
567.19	60554.34
567.36	60463.06
567.52	60406.89
567.68	60678.39
567.85	60409.23
568.01	60425.61
568.17	60264.11
568.34	60493.49
568.50	60559.02
568.66	60271.14
568.83	60514.55
568.99	60521.57
569.15	60523.91
569.32	60477.10
569.48	60573.06
569.64	60697.11
569.81	60479.44
569.97	60409.23
570.13	60650.30
570.30	60463.06
570.46	60631.58
570.62	60629.24
570.78	60533.28
570.95	60601.15
571.11	60788.39
571.27	60303.90
571.43	60753.29
571.60	60638.60
571.76	60652.64
571.92	60608.17
572.09	60687.75
572.25	60699.45
572.41	60584.77
572.57	60734.56
572.74	61059.90
572.90	60736.90
573.06	60708.82
573.22	60664.35
573.38	60891.38
573.55	60863.29
573.71	61031.81
573.87	60722.86
574.03	60786.05
574.20	60893.72
574.36	60713.50
574.52	60970.96
574.68	60851.59
574.84	61001.38
575.01	60856.27
575.17	60954.57
575.33	60793.07
575.49	60800.10
575.65	60942.87
575.82	60786.05
575.98	60989.68
576.14	61127.77
576.30	60973.30
576.46	60697.11
576.62	60863.29
576.79	60938.19
576.95	60835.20
577.11	60945.21
577.27	60907.76
577.43	60802.44
577.59	60842.23
577.75	60921.80
577.92	60919.46
578.08	60786.05
578.24	61001.38
578.40	61106.71
578.56	61071.60
578.72	60940.53
578.88	61289.27
579.04	61151.18
579.21	61006.06
579.37	61013.08
579.53	61235.44
579.69	60743.92
579.85	61066.92
580.01	60921.80
580.17	60870.31
580.33	61085.64
580.49	60994.36
580.65	61010.74
580.82	61167.56
580.98	60947.55
581.14	60860.95
581.30	60992.02
581.46	61144.16
581.62	61097.34
581.78	61085.64
581.94	61003.72
582.10	60844.57
582.26	61073.94
582.42	61008.40
582.58	60945.21
582.74	61001.38
582.90	60982.66
583.06	61141.81
583.22	61045.85
583.38	61286.93
583.54	61027.13
583.70	61123.09
583.86	61188.63
584.02	61003.72
584.18	61066.92
584.34	60865.63
584.50	60919.46
584.66	60816.48
584.82	60938.19
584.98	61413.32
585.14	61249.48
585.30	60919.46
585.46	61193.31
585.62	61226.07
585.78	61205.01
585.94	61003.72
586.10	61066.92
586.26	61165.22
586.42	61207.35
586.58	61305.65
586.74	61104.37
586.90	61200.33
587.06	60968.61
587.22	61024.79
587.38	61141.81
587.54	61247.14
587.70	61385.23
587.86	61118.41
588.02	61097.34
588.18	61324.38
588.34	61216.71
588.49	61113.73
