SpectraSuite Data File
++++++++++++++++++++++++++++++++++++
Date: Fri Oct 25 11:22:53 EDT 2013
User: price-jones
Dark Spectrum Present: No
Reference Spectrum Present: No
Number of Sampled Component Spectra: 1
Spectrometers: USB2+H05261
Integration Time (usec): 100000 (USB2+H05261)
Spectra Averaged: 1 (USB2+H05261)
Boxcar Smoothing: 0 (USB2+H05261)
Correct for Electrical Dark: No (USB2+H05261)
Strobe/Lamp Enabled: No (USB2+H05261)
Correct for Detector Non-linearity: No (USB2+H05261)
Correct for Stray Light: No (USB2+H05261)
Number of Pixels in Processed Spectrum: 2048
>>>>>Begin Processed Spectral Data<<<<<
365.73	173.20
365.92	173.20
366.12	173.20
366.32	128.73
366.52	140.43
366.72	152.13
366.91	81.92
367.11	98.30
367.31	102.98
367.51	205.97
367.70	147.45
367.90	156.82
368.10	88.94
368.30	70.22
368.49	124.05
368.69	105.32
368.89	217.67
369.09	93.62
369.28	210.65
369.48	161.50
369.68	182.56
369.87	217.67
370.07	224.69
370.27	168.52
370.47	332.36
370.66	561.73
370.86	650.67
371.06	676.41
371.25	786.42
371.45	594.50
371.65	697.48
371.84	688.12
372.04	620.24
372.24	770.04
372.44	770.04
372.63	798.12
372.83	807.48
373.03	685.78
373.22	805.14
373.42	725.57
373.62	781.74
373.81	798.12
374.01	882.38
374.21	851.96
374.40	784.08
374.60	765.36
374.79	786.42
374.99	774.72
375.19	840.25
375.38	844.93
375.58	875.36
375.78	866.00
375.97	851.96
376.17	964.30
376.37	901.11
376.56	800.46
376.76	830.89
376.95	884.72
377.15	851.96
377.35	873.02
377.54	908.13
377.74	844.93
377.93	812.17
378.13	854.30
378.33	929.19
378.52	903.45
378.72	938.55
378.91	973.66
379.11	978.34
379.31	908.13
379.50	933.87
379.70	940.90
379.89	1076.65
380.09	950.26
380.28	1018.13
380.48	1071.97
380.68	985.37
380.87	961.96
381.07	1020.47
381.26	971.32
381.46	1025.15
381.65	1043.88
381.85	1093.03
382.04	1064.94
382.24	1034.52
382.43	1067.28
382.63	1036.86
382.83	1090.69
383.02	1048.56
383.22	1123.46
383.41	1111.75
383.61	1013.45
383.80	1132.82
384.00	1104.73
384.19	1088.35
384.39	1088.35
384.58	1160.91
384.78	1097.71
384.97	1093.03
385.17	1078.99
385.36	1142.18
385.56	1181.97
385.75	1186.65
385.95	1196.01
386.14	1100.05
386.34	1268.57
386.53	1186.65
386.72	1247.51
386.92	1277.93
387.11	1231.12
387.31	1233.46
387.50	1303.68
387.70	1210.06
387.89	1322.40
388.09	1263.89
388.28	1303.68
388.48	1322.40
388.67	1383.26
388.86	1380.92
389.06	1289.64
389.25	1345.81
389.45	1299.00
389.64	1317.72
389.84	1336.45
390.03	1401.98
390.22	1371.55
390.42	1416.02
390.61	1427.73
390.81	1348.15
391.00	1308.36
391.19	1488.58
391.39	1397.30
391.58	1467.52
391.78	1418.36
391.97	1437.09
392.16	1352.83
392.36	1455.81
392.55	1509.65
392.75	1568.16
392.94	1547.09
393.13	1556.46
393.33	1521.35
393.52	1624.33
393.71	1659.44
393.91	1540.07
394.10	1544.75
394.29	1589.22
394.49	1593.90
394.68	1671.14
394.88	1621.99
395.07	1617.31
395.26	1706.25
395.46	1715.61
395.65	1640.72
395.84	1685.19
396.04	1865.41
396.23	1685.19
396.42	1792.85
396.62	1722.63
396.81	1778.81
397.00	1739.02
397.19	1774.13
397.39	1729.66
397.58	1739.02
397.77	1820.94
397.97	1820.94
398.16	1830.30
398.35	2001.16
398.55	1909.88
398.74	1816.26
398.93	1930.94
399.12	1933.28
399.32	1860.73
399.51	1895.83
399.70	2083.08
399.90	2036.27
400.09	2111.16
400.28	1987.11
400.47	2097.12
400.67	2092.44
400.86	2087.76
401.05	2122.87
401.24	2054.99
401.44	2286.70
401.63	2165.00
401.82	2162.66
402.01	2150.95
402.21	2307.77
402.40	2195.42
402.59	2237.55
402.78	2113.50
402.97	2176.70
403.17	2162.66
403.36	2275.00
403.55	2366.28
403.74	2284.36
403.93	2377.98
404.13	2361.60
404.32	2457.56
404.51	2445.86
404.70	2539.48
404.89	2382.67
405.09	2448.20
405.28	2450.54
405.47	2459.90
405.66	2541.82
405.85	2698.64
406.05	2640.12
406.24	2619.06
406.43	2630.76
406.62	2602.68
406.81	2670.55
407.00	2607.36
407.20	2586.29
407.39	2719.70
407.58	2682.25
407.77	2724.38
407.96	2656.51
408.15	2789.92
408.34	2815.66
408.54	2733.75
408.73	2768.85
408.92	2895.24
409.11	2918.65
409.30	2977.16
409.49	2923.33
409.68	2965.46
409.87	2986.52
410.07	3012.27
410.26	2993.55
410.45	2958.44
410.64	3023.97
410.83	3159.72
411.02	3035.67
411.21	3152.70
411.40	3133.98
411.59	3279.09
411.78	3178.45
411.98	3185.47
412.17	3222.92
412.36	3351.65
412.55	3218.24
412.74	3384.41
412.93	3405.48
413.12	3405.48
413.31	3758.90
413.50	3578.68
413.69	3419.52
413.88	3548.25
414.07	3662.94
414.26	3707.41
414.45	3791.67
414.64	3740.18
414.83	3559.95
415.02	3887.63
415.22	3878.27
415.41	4035.08
415.60	3798.69
415.79	3955.51
415.98	3913.38
416.17	4009.34
416.36	3918.06
416.55	3964.87
416.74	3974.23
416.93	4255.09
417.12	4117.00
417.31	4168.49
417.50	4100.62
417.69	4397.87
417.88	4315.95
418.07	4264.46
418.26	4285.52
418.45	4339.35
418.64	4376.80
418.83	4559.36
419.02	4486.81
419.21	4531.28
419.39	4500.85
419.58	4503.19
419.77	4601.49
419.96	4589.79
420.15	4444.68
420.34	4667.03
420.53	4793.42
420.72	4762.99
420.91	4688.09
421.10	4732.56
421.29	4821.50
421.48	4599.15
421.67	4795.76
421.86	4840.23
422.05	4664.69
422.24	4786.40
422.43	4809.80
422.61	4908.10
422.80	5060.24
422.99	4994.70
423.18	4931.51
423.37	5074.28
423.56	4983.00
423.75	4961.94
423.94	4943.21
424.13	4587.45
424.32	4823.84
424.50	4985.34
424.69	5018.11
424.88	5130.45
425.07	4975.98
425.26	4990.02
425.45	5034.49
425.64	4891.72
425.83	4961.94
426.01	5195.99
426.20	5013.43
426.39	4980.66
426.58	5064.92
426.77	4966.62
426.96	5083.64
427.15	5214.71
427.33	5289.61
427.52	5273.23
427.71	5355.15
427.90	5357.49
428.09	5474.51
428.28	5430.04
428.46	5540.05
428.65	5439.40
428.84	5631.33
429.03	5521.32
429.22	5231.10
429.40	5486.22
429.59	5509.62
429.78	5214.71
429.97	5303.65
430.16	5528.35
430.34	5764.74
430.53	5675.80
430.72	5738.99
430.91	5816.23
431.10	5703.89
431.28	5851.34
431.47	5858.36
431.66	5900.49
431.85	5832.62
432.03	6005.81
432.22	5907.51
432.41	5966.03
432.60	5912.19
432.79	5984.75
432.97	5959.00
433.16	6155.61
433.35	6101.78
433.54	6228.17
433.72	6083.05
433.91	6087.73
434.10	6153.27
434.28	6162.63
434.47	6354.55
434.66	6340.51
434.85	6333.49
435.03	6347.53
435.22	6282.00
435.41	6436.47
435.59	6413.07
435.78	6471.58
435.97	6462.22
436.16	6399.02
436.34	6626.06
436.53	6499.67
436.72	6614.35
436.90	6644.78
437.09	6794.58
437.28	6558.18
437.46	6754.79
437.65	6750.10
437.84	6944.37
438.02	6745.42
438.21	6904.58
438.40	6850.75
438.58	6892.88
438.77	6920.96
438.96	7033.31
439.14	7140.97
439.33	7131.61
439.52	7232.26
439.70	7265.02
439.89	7391.41
440.08	7508.44
440.26	7513.12
440.45	7405.46
440.63	7541.21
440.82	7695.68
441.01	7791.64
441.19	7679.30
441.38	7740.15
441.57	7857.18
441.75	7964.84
441.94	7981.23
442.12	8098.25
442.31	8114.64
442.50	8081.87
442.68	7833.77
442.87	8035.06
443.05	8051.44
443.24	8498.49
443.43	8088.89
443.61	8318.26
443.80	8374.44
443.98	8060.80
444.17	8058.46
444.35	8257.41
444.54	8383.80
444.73	8411.89
444.91	8507.85
445.10	8432.95
445.28	8454.02
445.47	8269.11
445.65	8393.16
445.84	8470.40
446.02	8432.95
446.21	8486.78
446.39	8549.98
446.58	8552.32
446.77	8617.85
446.95	8332.31
447.14	8510.19
447.32	8636.58
447.51	8468.06
447.69	8414.23
447.88	8697.43
448.06	8816.80
448.25	8622.53
448.43	8585.08
448.62	8589.77
448.80	8615.51
448.99	8772.33
449.17	8737.22
449.36	8650.62
449.54	8755.94
449.73	8982.98
449.91	8922.12
450.10	8997.02
450.28	9291.93
450.46	9144.47
450.65	9156.18
450.83	9226.39
451.02	9111.71
451.20	9107.02
451.39	9092.98
451.57	9338.74
451.76	9013.40
451.94	9334.06
452.13	9607.90
452.31	9291.93
452.49	9214.69
452.68	9200.65
452.86	9575.13
453.05	9390.23
453.23	9628.96
453.42	9479.17
453.60	9460.45
453.78	9631.30
453.97	9415.98
454.15	9497.89
454.34	9790.46
454.52	9715.56
454.70	9731.95
454.89	9762.37
455.07	9891.10
455.26	9764.72
455.44	9984.73
455.62	9989.41
455.81	10024.51
455.99	10071.33
456.17	10085.37
456.36	10155.58
456.54	10125.16
456.73	10356.87
456.91	10361.55
457.09	10546.45
457.28	10616.67
457.46	10373.25
457.64	10590.92
457.83	10684.55
458.01	10492.62
458.19	10841.36
458.38	10628.37
458.56	10789.87
458.74	10649.44
458.93	10836.68
459.11	10806.25
459.29	10890.51
459.48	10970.09
459.66	10995.84
459.84	11019.24
460.03	11204.14
460.21	11026.26
460.39	11143.29
460.57	11089.46
460.76	11180.74
460.94	11255.64
461.12	11208.83
461.31	11328.19
461.49	11218.19
461.67	11276.70
461.85	11754.17
462.04	11461.60
462.22	11819.71
462.40	11754.17
462.59	11712.04
462.77	11609.06
462.95	11585.65
463.13	11534.16
463.32	11845.45
463.50	11641.82
463.68	12006.95
463.86	11903.96
464.05	11721.40
464.23	11644.17
464.41	12205.89
464.59	11740.13
464.78	12542.93
464.96	11962.48
465.14	12105.25
465.32	12081.85
465.50	12182.49
465.69	12510.16
465.87	12348.67
466.05	12250.36
466.23	12166.10
466.41	12336.96
466.60	12517.18
466.78	12320.58
466.96	12526.55
467.14	12512.50
467.32	12629.53
467.51	12442.29
467.69	12402.50
467.87	12692.73
468.05	12690.38
468.23	12528.89
468.41	12587.40
468.60	12720.81
468.78	13078.91
468.96	12709.11
469.14	12713.79
469.32	12795.71
469.50	12903.37
469.69	13074.23
469.87	13088.28
470.05	13144.45
470.23	13504.89
470.41	13217.01
470.59	13334.03
470.77	13425.31
470.95	13397.23
471.14	13376.16
471.32	13074.23
471.50	13776.39
471.68	13593.83
471.86	13635.96
472.04	13785.76
472.22	14094.71
472.40	13731.92
472.58	13963.64
472.77	13940.23
472.95	14319.40
473.13	14775.80
473.31	14115.77
473.49	14347.48
473.67	14225.78
473.85	14438.76
474.03	14628.35
474.21	14925.60
474.39	14960.70
474.57	14721.97
474.75	15040.28
474.93	15119.86
475.12	15021.56
475.30	15110.50
475.48	15056.67
475.66	15229.87
475.84	15307.10
476.02	15482.64
476.20	15566.90
476.38	15896.92
476.56	16355.66
476.74	16119.27
476.92	16381.41
477.10	15950.75
477.28	16407.16
477.46	16507.80
477.64	16486.73
477.82	16915.05
478.00	17128.04
478.18	17104.64
478.36	16826.11
478.54	17179.53
478.72	17130.38
478.90	17722.54
479.08	17940.21
479.26	18015.10
479.44	17867.65
479.62	18164.90
479.80	18324.05
479.98	18326.39
480.16	18991.11
480.34	18438.74
480.52	18831.95
480.70	18930.25
480.88	18675.13
481.06	18813.23
481.24	18902.17
481.41	19269.63
481.59	19847.74
481.77	19585.60
481.95	19779.87
482.13	20002.22
482.31	19957.75
482.49	20315.85
482.67	20203.50
482.85	20594.37
483.03	21010.99
483.21	20776.94
483.39	21104.61
483.57	21277.81
483.74	21296.53
483.92	21699.11
484.10	21130.36
484.28	22038.48
484.46	21921.46
484.64	22562.76
484.82	22272.54
485.00	22604.89
485.18	23037.89
485.35	23396.00
485.53	22799.16
485.71	23154.92
485.89	23524.72
486.07	23374.93
486.25	23690.90
486.43	23704.95
486.61	24067.73
486.78	24051.34
486.96	24510.09
487.14	24769.89
487.32	24814.36
487.50	24926.71
487.68	25106.93
487.85	25717.81
488.03	25771.64
488.21	26150.81
488.39	25872.28
488.57	26597.85
488.75	26721.90
488.92	26616.57
489.10	27255.54
489.28	27080.00
489.46	27428.74
489.64	27435.76
489.81	27976.42
489.99	27583.21
490.17	28442.19
490.35	28332.18
490.53	28252.61
490.70	28577.94
490.88	28577.94
491.06	28973.49
491.24	29259.04
491.41	29322.23
491.59	29645.23
491.77	29048.39
491.95	29797.36
492.13	30232.70
492.30	30125.04
492.48	30228.02
492.66	30754.64
492.84	30562.72
493.01	31131.47
493.19	31051.89
493.37	31517.65
493.54	31704.90
493.72	31789.16
493.90	31763.41
494.08	32112.15
494.25	32224.50
494.43	32545.15
494.61	32723.03
494.79	32739.41
494.96	32741.75
495.14	32924.32
495.32	33390.08
495.49	33596.05
495.67	33677.97
495.85	33776.27
496.02	33937.77
496.20	34618.86
496.38	34270.12
496.55	34415.24
496.73	35208.68
496.91	34817.81
497.09	35255.49
497.26	35182.93
497.44	35578.48
497.62	35711.89
497.79	35983.40
497.97	35594.87
498.14	36727.69
498.32	36636.41
498.50	36671.51
498.67	37670.92
498.85	36734.71
499.03	37378.36
499.20	37043.66
499.38	37778.59
499.56	37895.61
499.73	37397.08
499.91	37675.60
500.08	38082.86
500.26	37867.53
500.44	38319.25
500.61	38263.08
500.79	38274.78
500.97	38677.35
501.14	39115.03
501.32	38834.17
501.49	39152.48
501.67	38983.96
501.84	39548.03
502.02	39494.20
502.20	39550.37
502.37	39906.13
502.55	39639.31
502.72	39842.94
502.90	40222.11
503.07	40013.80
503.25	40098.06
503.43	40154.23
503.60	40519.35
503.78	40704.26
503.95	40467.86
504.13	40612.98
504.30	40968.74
504.48	40612.98
504.65	41092.79
504.83	41535.15
505.01	41841.76
505.18	41509.40
505.36	42190.50
505.53	41694.30
505.71	42080.49
505.88	42202.20
506.06	42284.12
506.23	42597.75
506.41	42497.11
506.58	42572.00
506.76	42382.42
506.93	42799.04
507.11	42780.31
507.28	42824.78
507.46	42897.34
507.63	43110.33
507.81	43601.84
507.98	42918.40
508.16	43299.91
508.33	43725.89
508.50	43772.70
508.68	44186.97
508.85	44362.51
509.03	44046.54
509.20	44311.02
509.38	44912.54
509.55	44830.62
509.73	44701.89
509.90	45064.67
510.08	44893.82
510.25	44863.39
510.42	45106.80
510.60	45359.58
510.77	45745.77
510.95	45471.93
511.12	45696.62
511.30	45708.32
511.47	45886.20
511.64	46237.28
511.82	46422.19
511.99	46127.28
512.17	46298.14
512.34	46003.23
512.51	46862.21
512.69	46461.97
512.86	46719.43
513.04	47187.54
513.21	47224.99
513.38	46871.57
513.56	47299.89
513.73	47405.21
513.90	47297.55
514.08	47402.87
514.25	47463.72
514.43	47824.17
514.60	47746.93
514.77	47899.06
514.95	48587.18
515.12	47728.20
515.29	48079.28
515.47	48411.64
515.64	48788.47
515.81	48219.72
515.99	49001.46
516.16	48795.49
516.33	48715.91
516.51	48971.03
516.68	48858.68
516.85	48994.43
517.03	49371.26
517.20	49153.59
517.37	49181.68
517.54	49373.60
517.72	49595.95
517.89	49853.41
518.06	49624.04
518.24	49338.49
518.41	49467.22
518.58	49631.06
518.75	49720.00
518.93	49944.69
519.10	49258.91
519.27	49925.97
519.45	50314.50
519.62	50134.28
519.79	50248.96
519.96	50265.34
520.14	50167.04
520.31	50443.23
520.48	50880.91
520.65	50712.39
520.83	50887.93
521.00	51033.04
521.17	50773.24
521.34	51065.81
521.52	50972.19
521.69	51236.67
521.86	51370.08
522.03	51391.14
522.20	51744.56
522.38	51721.16
522.55	51833.50
522.72	51866.27
522.89	51800.74
523.07	51814.78
523.24	51983.30
523.41	52224.37
523.58	51739.88
523.75	52231.40
523.92	52320.34
524.10	52224.37
524.27	52582.48
524.44	52161.18
524.61	52357.78
524.78	52367.15
524.96	52694.82
525.13	52633.97
525.30	52594.18
525.47	52968.66
525.64	53003.77
525.81	53064.63
525.98	53127.82
526.16	52816.53
526.33	52800.15
526.50	53673.16
526.67	53155.91
526.84	53317.40
527.01	53216.76
527.18	53396.98
527.36	53396.98
527.53	53258.89
527.70	53633.38
527.87	53858.07
528.04	53408.68
528.21	53460.18
528.38	53848.71
528.55	53844.02
528.72	53694.23
528.89	53829.98
529.07	53586.57
529.24	53874.45
529.41	54157.66
529.58	54167.02
529.75	53832.32
529.92	53928.28
530.09	54415.11
530.26	54494.69
530.43	54277.02
530.60	53982.12
530.77	54089.78
530.94	54174.04
531.11	54227.87
531.28	54209.15
531.46	54534.48
531.63	54471.29
531.80	54412.77
531.97	54869.18
532.14	54686.62
532.31	54768.54
532.48	54801.30
532.65	54951.10
532.82	54798.96
532.99	55007.27
533.16	54892.58
533.33	55068.12
533.50	55451.97
533.67	55065.78
533.84	54941.74
534.01	55150.04
534.18	55414.52
534.35	55615.81
534.52	55543.25
534.69	55466.02
534.86	55489.42
535.03	55388.78
535.20	55365.37
535.37	55269.41
535.54	55814.76
535.71	55187.49
535.88	55552.62
536.05	55910.72
536.22	55908.38
536.38	55969.23
536.55	55791.35
536.72	55936.46
536.89	55899.01
537.06	56046.47
537.23	56034.77
537.40	56037.11
537.57	56114.34
537.74	56020.72
537.91	56170.52
538.08	55992.64
538.25	55838.16
538.42	56299.25
538.59	56463.08
538.75	56170.52
538.92	56287.54
539.09	56507.55
539.26	56175.20
539.43	56259.46
539.60	56470.11
539.77	56343.72
539.94	56870.34
540.11	56596.49
540.28	56851.61
540.44	56669.05
540.61	56704.16
540.78	56631.60
540.95	56650.33
541.12	56542.66
541.29	56692.46
541.46	56718.20
541.62	56781.40
541.79	57181.63
541.96	56830.55
542.13	56835.23
542.30	56914.81
542.47	57003.75
542.63	57169.93
542.80	57034.17
542.97	57399.30
543.14	57396.96
543.31	57467.17
543.48	57411.00
543.64	57675.48
543.81	57710.59
543.98	57523.35
544.15	57654.42
544.32	57588.88
544.48	57855.70
544.65	57652.08
544.82	57780.81
544.99	57635.69
545.16	57602.92
545.32	57680.16
545.49	58127.20
545.66	58078.05
545.83	57825.28
546.00	57909.53
546.16	57883.79
546.33	57689.52
546.50	57612.29
546.67	57993.79
546.83	57757.40
547.00	58141.25
547.17	58047.63
547.34	58255.93
547.50	58171.67
547.67	58255.93
547.84	58143.59
548.00	58478.28
548.17	58656.17
548.34	58281.68
548.51	58361.26
548.67	58597.65
548.84	58513.39
549.01	58269.98
549.18	58333.17
549.34	58569.57
549.51	58632.76
549.68	58513.39
549.84	58419.77
550.01	58700.64
550.18	58527.44
550.34	58548.50
550.51	58768.51
550.68	58665.53
550.84	58681.91
551.01	58944.05
551.18	58749.79
551.34	58829.37
551.51	58827.02
551.68	58798.94
551.84	58649.14
552.01	58759.15
552.18	59007.25
552.34	58754.47
552.51	58965.12
552.68	59051.72
552.84	58855.11
553.01	59231.94
553.18	59117.25
553.34	58944.05
553.51	58805.96
553.67	58939.37
553.84	59274.07
554.01	59091.51
554.17	59189.81
554.34	59208.53
554.51	59325.56
554.67	59381.73
554.84	59363.01
555.00	59313.86
555.17	59283.43
555.33	59231.94
555.50	59110.23
555.67	59171.08
555.83	59189.81
556.00	59416.84
556.16	59653.23
556.33	59419.18
556.50	59444.93
556.66	59487.06
556.83	59274.07
556.99	59571.32
557.16	59662.60
557.32	59784.30
557.49	59735.15
557.65	59632.17
557.82	59728.13
557.98	59571.32
558.15	59695.36
558.32	59817.07
558.48	59615.79
558.65	59611.10
558.81	59877.93
558.98	59793.67
559.14	59735.15
559.31	59779.62
559.47	59952.82
559.64	60051.12
559.80	59957.50
559.97	59896.65
560.13	59819.41
560.30	59875.58
560.46	60020.70
560.63	60023.04
560.79	59910.69
560.96	60175.17
561.12	60065.17
561.29	60121.34
561.45	60053.47
561.61	60111.98
561.78	59957.50
561.94	60088.57
562.11	59966.87
562.27	60111.98
562.44	60004.31
562.60	60331.99
562.77	60261.77
562.93	60111.98
563.10	60193.90
563.26	60100.28
563.42	60360.08
563.59	60252.41
563.75	60364.76
563.92	60212.62
564.08	60346.03
564.24	60324.97
564.41	60413.91
564.57	60214.96
564.74	60346.03
564.90	60161.13
565.07	60554.34
565.23	60313.26
565.39	60367.10
565.56	60294.54
565.72	60287.52
565.88	60371.78
566.05	60425.61
566.21	60472.42
566.38	60495.83
566.54	60556.68
566.70	60505.19
566.87	60507.53
567.03	60315.61
567.19	60568.38
567.36	60521.57
567.52	60371.78
567.68	60556.68
567.85	60645.62
568.01	60671.37
568.17	60519.23
568.34	60605.83
568.50	60650.30
568.66	60566.04
568.83	60683.07
568.99	60324.97
569.15	60533.28
569.32	60622.22
569.48	60598.81
569.64	60795.42
569.81	60832.86
569.97	60645.62
570.13	60676.05
570.30	60582.43
570.46	60626.90
570.62	60809.46
570.78	60821.16
570.95	60755.63
571.11	60743.92
571.27	60748.60
571.43	60865.63
571.60	60884.36
571.76	60863.29
571.92	60772.01
572.09	60886.70
572.25	60996.70
572.41	60793.07
572.57	60741.58
572.74	61043.51
572.90	60748.60
573.06	60949.89
573.22	60781.37
573.38	60830.52
573.55	60860.95
573.71	61258.84
573.87	60935.85
574.03	60619.88
574.20	60882.02
574.36	60893.72
574.52	60940.53
574.68	60994.36
574.84	60954.57
575.01	61155.86
575.17	60905.42
575.33	60917.12
575.49	61085.64
575.65	60914.78
575.82	60924.14
575.98	60912.44
576.14	61275.22
576.30	61179.26
576.46	60942.87
576.62	60987.34
576.79	61095.00
576.95	60830.52
577.11	60940.53
577.27	61212.03
577.43	61092.66
577.59	60905.42
577.75	60898.40
577.92	60762.65
578.08	61015.43
578.24	61078.62
578.40	61125.43
578.56	61172.24
578.72	61102.03
578.88	61286.93
579.04	61230.75
579.21	61251.82
579.37	61244.80
579.53	61174.58
579.69	60924.14
579.85	61148.84
580.01	61027.13
580.17	60928.83
580.33	61230.75
580.49	61212.03
580.65	61200.33
580.82	61034.15
580.98	61055.21
581.14	60933.51
581.30	61106.71
581.46	61087.98
581.62	61205.01
581.78	61116.07
581.94	61212.03
582.10	60954.57
582.26	61043.51
582.42	61102.03
582.58	61181.60
582.74	61120.75
582.90	61195.65
583.06	61237.78
583.22	60963.93
583.38	61303.31
583.54	61216.71
583.70	61343.10
583.86	61127.77
584.02	61045.85
584.18	61296.29
584.34	61151.18
584.50	61167.56
584.66	61226.07
584.82	61024.79
584.98	61242.46
585.14	61265.86
585.30	61069.26
585.46	61188.63
585.62	61256.50
585.78	61305.65
585.94	61207.35
586.10	61249.48
586.26	61174.58
586.42	61389.91
586.58	61214.37
586.74	61247.14
586.90	61240.12
587.06	61202.67
587.22	61298.63
587.38	61418.00
587.54	61434.38
587.70	61350.12
587.86	61286.93
588.02	61279.91
588.18	61382.89
588.34	61300.97
588.49	61300.97
