SpectraSuite Data File
++++++++++++++++++++++++++++++++++++
Date: Fri Oct 25 10:47:56 EDT 2013
User: price-jones
Dark Spectrum Present: No
Reference Spectrum Present: No
Number of Sampled Component Spectra: 1
Spectrometers: USB2+H05261
Integration Time (usec): 100000 (USB2+H05261)
Spectra Averaged: 1 (USB2+H05261)
Boxcar Smoothing: 0 (USB2+H05261)
Correct for Electrical Dark: No (USB2+H05261)
Strobe/Lamp Enabled: No (USB2+H05261)
Correct for Detector Non-linearity: No (USB2+H05261)
Correct for Stray Light: No (USB2+H05261)
Number of Pixels in Processed Spectrum: 2048
>>>>>Begin Processed Spectral Data<<<<<
365.73	126.39
365.92	126.39
366.12	126.39
366.32	81.92
366.52	77.24
366.72	84.26
366.91	18.72
367.11	37.45
367.31	32.77
367.51	46.81
367.70	74.90
367.90	105.32
368.10	77.24
368.30	110.01
368.49	98.30
368.69	112.35
368.89	4.68
369.09	28.09
369.28	124.05
369.48	42.13
369.68	187.24
369.87	112.35
370.07	81.92
370.27	177.88
370.47	205.97
370.66	430.66
370.86	404.91
371.06	425.98
371.25	507.90
371.45	367.46
371.65	454.06
371.84	468.11
372.04	477.47
372.24	524.28
372.44	514.92
372.63	493.85
372.83	538.32
373.03	379.17
373.22	573.43
373.42	514.92
373.62	566.41
373.81	500.87
374.01	557.05
374.21	594.50
374.40	526.62
374.60	491.51
374.79	610.88
374.99	540.66
375.19	585.13
375.38	561.73
375.58	580.45
375.78	608.54
375.97	554.71
376.17	573.43
376.37	540.66
376.56	603.86
376.76	543.00
376.95	503.22
377.15	552.37
377.35	624.92
377.54	594.50
377.74	631.94
377.93	645.99
378.13	608.54
378.33	624.92
378.52	627.26
378.72	592.16
378.91	648.33
379.11	671.73
379.31	610.88
379.50	559.39
379.70	657.69
379.89	683.44
380.09	610.88
380.28	657.69
380.48	585.13
380.68	629.60
380.87	552.37
381.07	720.88
381.26	674.07
381.46	660.03
381.65	678.76
381.85	582.79
382.04	662.37
382.24	732.59
382.43	671.73
382.63	638.97
382.83	657.69
383.02	725.57
383.22	723.23
383.41	699.82
383.61	641.31
383.80	779.40
384.00	727.91
384.19	734.93
384.39	709.18
384.58	826.21
384.78	753.65
384.97	692.80
385.17	688.12
385.36	758.33
385.56	793.44
385.75	763.01
385.95	856.64
386.14	791.10
386.34	739.61
386.53	851.96
386.72	741.95
386.92	770.04
387.11	917.49
387.31	763.01
387.50	751.31
387.70	760.67
387.89	842.59
388.09	849.61
388.28	849.61
388.48	793.44
388.67	711.52
388.86	858.98
389.06	856.64
389.25	866.00
389.45	894.08
389.64	898.77
389.84	940.90
390.03	938.55
390.22	889.40
390.42	924.51
390.61	880.04
390.81	896.43
391.00	1043.88
391.19	1053.24
391.39	940.90
391.58	880.04
391.78	992.39
391.97	959.62
392.16	961.96
392.36	922.17
392.55	973.66
392.75	987.71
392.94	912.81
393.13	933.87
393.33	1008.77
393.52	905.79
393.71	1036.86
393.91	1029.84
394.10	1050.90
394.29	1093.03
394.49	1053.24
394.68	1081.33
394.88	1034.52
395.07	1177.29
395.26	1167.93
395.46	1025.15
395.65	1172.61
395.84	1160.91
396.04	1160.91
396.23	1114.10
396.42	1153.88
396.62	1095.37
396.81	1104.73
397.00	1097.71
397.19	1170.27
397.39	1181.97
397.58	1233.46
397.77	1270.91
397.97	1294.32
398.16	1273.25
398.35	1263.89
398.55	1313.04
398.74	1331.76
398.93	1336.45
399.12	1383.26
399.32	1334.11
399.51	1420.71
399.70	1406.66
399.90	1355.17
400.09	1401.98
400.28	1420.71
400.47	1441.77
400.67	1465.18
400.86	1399.64
401.05	1352.83
401.24	1357.51
401.44	1511.99
401.63	1490.92
401.82	1591.56
402.01	1446.45
402.21	1540.07
402.40	1561.14
402.59	1540.07
402.78	1453.47
402.97	1593.90
403.17	1568.16
403.36	1490.92
403.55	1657.10
403.74	1661.78
403.93	1682.85
404.13	1715.61
404.32	1643.06
404.51	1715.61
404.70	1802.21
404.89	1675.82
405.09	1739.02
405.28	1764.76
405.47	1727.32
405.66	1699.23
405.85	1741.36
406.05	1795.19
406.24	1739.02
406.43	1776.47
406.62	1809.23
406.81	1844.34
407.00	1912.22
407.20	1792.85
407.39	1809.23
407.58	1842.00
407.77	2017.54
407.96	1916.90
408.15	1980.09
408.34	1825.62
408.54	1954.35
408.73	1935.62
408.92	1961.37
409.11	1973.07
409.30	2043.29
409.49	2019.88
409.68	2064.35
409.87	1998.82
410.07	2078.40
410.26	2150.95
410.45	2085.42
410.64	2221.17
410.83	2263.30
411.02	2218.83
411.21	2298.41
411.40	2239.89
411.59	2211.81
411.78	2195.42
411.98	2214.15
412.17	2328.83
412.36	2338.20
412.55	2335.85
412.74	2401.39
412.93	2431.82
413.12	2424.80
413.31	2394.37
413.50	2445.86
413.69	2572.25
413.88	2623.74
414.07	2597.99
414.26	2668.21
414.45	2525.44
414.64	2574.59
414.83	2689.28
415.02	2747.79
415.22	2766.51
415.41	2691.62
415.60	2708.00
415.79	2778.22
415.98	2932.69
416.17	2944.39
416.36	2836.73
416.55	2965.46
416.74	2883.54
416.93	3035.67
417.12	3009.93
417.31	2979.50
417.50	2958.44
417.69	3009.93
417.88	3014.61
418.07	2958.44
418.26	3082.49
418.45	3089.51
418.64	3272.07
418.83	3133.98
419.02	3204.19
419.21	3236.96
419.39	3260.37
419.58	3208.87
419.77	3222.92
419.96	3194.83
420.15	3115.25
420.34	3346.97
420.53	3274.41
420.72	3391.44
420.91	3279.09
421.10	3412.50
421.29	3412.50
421.48	3396.12
421.67	3419.52
421.86	3506.12
422.05	3440.59
422.24	3332.92
422.43	3314.20
422.61	3506.12
422.80	3590.38
422.99	3461.65
423.18	3574.00
423.37	3639.53
423.56	3583.36
423.75	3508.46
423.94	3459.31
424.13	3197.17
424.32	3321.22
424.50	3562.30
424.69	3543.57
424.88	3609.11
425.07	3435.91
425.26	3384.41
425.45	3407.82
425.64	3508.46
425.83	3604.42
426.01	3604.42
426.20	3574.00
426.39	3679.32
426.58	3482.72
426.77	3669.96
426.96	3588.04
427.15	3531.87
427.33	3634.85
427.52	3597.40
427.71	3616.13
427.90	3695.71
428.09	3857.20
428.28	3754.22
428.46	3693.37
428.65	3747.20
428.84	3779.97
429.03	4014.02
429.22	3721.45
429.40	3943.80
429.59	3880.61
429.78	3604.42
429.97	3740.18
430.16	3779.97
430.34	3808.05
430.53	3957.85
430.72	3974.23
430.91	3932.10
431.10	3852.52
431.28	4002.32
431.47	4004.66
431.66	3995.29
431.85	4105.30
432.03	4203.60
432.22	4173.18
432.41	4067.85
432.60	4156.79
432.79	4133.39
432.97	4278.50
433.16	4325.31
433.35	4269.14
433.54	4297.22
433.72	4329.99
433.91	4187.22
434.10	4407.23
434.28	4308.93
434.47	4376.80
434.66	4425.95
434.85	4592.13
435.03	4407.23
435.22	4362.76
435.41	4510.21
435.59	4521.92
435.78	4636.60
435.97	4596.81
436.16	4617.88
436.34	4550.00
436.53	4582.77
436.72	4676.39
436.90	4655.33
437.09	4685.75
437.28	4606.17
437.46	4685.75
437.65	4777.03
437.84	4599.15
438.02	4526.60
438.21	4681.07
438.40	4610.86
438.58	4931.51
438.77	4929.17
438.96	4821.50
439.14	4926.83
439.33	4889.38
439.52	5060.24
439.70	5114.07
439.89	5083.64
440.08	5067.26
440.26	5181.95
440.45	5107.05
440.63	5179.61
440.82	5235.78
441.01	5284.93
441.19	5392.59
441.38	5364.51
441.57	5460.47
441.75	5542.39
441.94	5783.46
442.12	5530.69
442.31	5547.07
442.50	5692.18
442.68	5596.22
442.87	5523.66
443.05	5675.80
443.24	5893.47
443.43	5626.65
443.61	5853.68
443.80	5893.47
443.98	5886.45
444.17	5582.18
444.35	5809.21
444.54	5900.49
444.73	5811.55
444.91	5832.62
445.10	5841.98
445.28	5762.40
445.47	5652.39
445.65	5781.12
445.84	5820.91
446.02	5919.21
446.21	5961.34
446.39	5994.11
446.58	6047.94
446.77	5837.30
446.95	5816.23
447.14	5947.30
447.32	6054.97
447.51	6019.86
447.69	6012.84
447.88	6092.41
448.06	6038.58
448.25	6085.39
448.43	6036.24
448.62	6043.26
448.80	6005.81
448.99	6069.01
449.17	6078.37
449.36	6050.28
449.54	6169.65
449.73	6246.89
449.91	6333.49
450.10	6207.10
450.28	6497.33
450.46	6469.24
450.65	6352.21
450.83	6415.41
451.02	6298.38
451.20	6366.26
451.39	6616.69
451.57	6377.96
451.76	6349.87
451.94	6396.68
452.13	6677.55
452.31	6431.79
452.49	6438.81
452.68	6532.44
452.86	6499.67
453.05	6565.20
453.23	6483.28
453.42	6579.25
453.60	6532.44
453.78	6633.08
453.97	6459.88
454.15	6590.95
454.34	6443.49
454.52	6806.28
454.70	6722.02
454.89	6780.53
455.07	6958.41
455.26	6839.05
455.44	6984.16
455.62	7037.99
455.81	7091.82
455.99	7035.65
456.17	7028.63
456.36	7026.29
456.54	7349.28
456.73	7108.21
456.91	7435.88
457.09	7098.84
457.28	7405.46
457.46	7185.44
457.64	7370.35
457.83	7552.91
458.01	7349.28
458.19	7431.20
458.38	7356.30
458.56	7295.45
458.74	7349.28
458.93	7267.36
459.11	7499.08
459.29	7375.03
459.48	7581.00
459.66	7440.56
459.84	7573.97
460.03	7777.60
460.21	7470.99
460.39	7810.37
460.57	7756.54
460.76	7707.38
460.94	7552.91
461.12	7749.51
461.31	7700.36
461.49	7793.98
461.67	7688.66
461.85	7885.26
462.04	7801.01
462.22	8442.31
462.40	7967.18
462.59	8042.08
462.77	7932.08
462.95	8121.66
463.13	8063.15
463.32	8084.21
463.50	8149.75
463.68	8079.53
463.86	8105.28
464.05	8112.30
464.23	8088.89
464.41	8184.85
464.59	7871.22
464.78	8184.85
464.96	8194.22
465.14	8002.29
465.32	8505.51
465.50	8409.54
465.69	8219.96
465.87	8414.23
466.05	8446.99
466.23	8252.73
466.41	8280.82
466.60	8451.67
466.78	8344.01
466.96	8383.80
467.14	8517.21
467.32	8589.77
467.51	8526.57
467.69	8468.06
467.87	8690.41
468.05	8564.02
468.23	8491.46
468.41	8571.04
468.60	8482.10
468.78	8634.24
468.96	8568.70
469.14	8861.27
469.32	8922.12
469.50	8388.48
469.69	8606.15
469.87	8917.44
470.05	9064.89
470.23	9069.58
470.41	8830.84
470.59	8856.59
470.77	9097.66
470.95	8997.02
471.14	9167.88
471.32	8877.65
471.50	9284.91
471.68	9266.18
471.86	9277.88
472.04	9547.05
472.22	9404.27
472.40	9231.07
472.58	9437.04
472.77	9446.40
472.95	9448.74
473.13	9853.66
473.31	9579.81
473.49	9551.73
473.67	9593.86
473.85	9624.28
474.03	10047.92
474.21	9844.29
474.39	9970.68
474.57	9844.29
474.75	10106.43
474.93	10186.01
475.12	9956.64
475.30	10417.72
475.48	10427.09
475.66	10242.18
475.84	10017.49
476.02	10422.41
476.20	10267.93
476.38	10523.05
476.56	10848.38
476.74	10824.98
476.92	10761.78
477.10	10499.64
477.28	10988.82
477.46	10778.17
477.64	10951.37
477.82	11133.93
478.00	11548.20
478.18	11534.16
478.36	11286.06
478.54	11599.70
478.72	11461.60
478.90	11681.61
479.08	11861.84
479.26	12006.95
479.44	12091.21
479.62	12028.01
479.80	11918.01
479.98	12149.72
480.16	12421.22
480.34	12409.52
480.52	12538.25
480.70	12379.09
480.88	12428.24
481.06	12393.14
481.24	12636.55
481.41	12919.76
481.59	12966.57
481.77	13268.50
481.95	13146.79
482.13	13249.77
482.31	13371.48
482.49	13434.68
482.67	13516.59
482.85	13647.66
483.03	13795.12
483.21	14078.32
483.39	14134.50
483.57	13937.89
483.74	14281.95
483.92	14230.46
484.10	14078.32
484.28	14476.21
484.46	14593.24
484.64	15094.11
484.82	14469.19
485.00	14752.40
485.18	15061.35
485.35	15073.05
485.53	14813.25
485.71	14813.25
485.89	15328.17
486.07	15094.11
486.25	15473.28
486.43	15515.41
486.61	15775.21
486.78	15920.32
486.96	15939.05
487.14	16233.96
487.32	15915.64
487.50	16177.78
487.68	16563.97
487.85	16685.68
488.03	16945.48
488.21	17207.62
488.39	17088.25
488.57	17338.69
488.75	17378.48
488.92	17357.41
489.10	17994.04
489.28	17446.35
489.46	17928.50
489.64	17884.03
489.81	18216.39
489.99	18302.99
490.17	18181.28
490.35	18853.02
490.53	18492.57
490.70	18979.40
490.88	18675.13
491.06	18874.08
491.24	19154.94
491.41	19190.05
491.59	19171.33
491.77	19339.85
491.95	19159.63
492.13	19606.67
492.30	19810.29
492.48	19859.45
492.66	20034.99
492.84	19875.83
493.01	19981.15
493.19	20081.80
493.37	20458.62
493.54	20512.46
493.72	20746.51
493.90	20638.84
494.08	21092.91
494.25	21085.89
494.43	20835.45
494.61	21434.63
494.79	21254.40
494.96	21696.77
495.14	21453.35
495.32	21539.95
495.49	22199.98
495.67	22104.02
495.85	22139.13
496.02	22223.39
496.20	22377.86
496.38	22274.88
496.55	22417.65
496.73	23304.71
496.91	22768.73
497.09	22803.84
497.26	23096.41
497.44	22974.70
497.62	23131.51
497.79	23438.12
497.97	23239.18
498.14	23555.15
498.32	23620.69
498.50	23676.86
498.67	24135.60
498.85	23962.40
499.03	24058.37
499.20	24423.49
499.38	24318.17
499.56	23962.40
499.73	24210.50
499.91	24542.86
500.08	24687.97
500.26	24507.75
500.44	24582.65
500.61	24554.56
500.79	24830.74
500.97	25312.89
501.14	25191.19
501.32	25130.33
501.49	25025.01
501.67	25235.66
501.84	25663.97
502.02	25238.00
502.20	25598.44
502.37	25818.45
502.55	25883.98
502.72	25638.23
502.90	25722.49
503.07	25703.76
503.25	26225.70
503.43	26008.03
503.60	26403.58
503.78	26015.05
503.95	26113.36
504.13	26455.08
504.30	26747.64
504.48	26675.09
504.65	26813.18
504.83	26850.63
505.01	26962.97
505.18	27040.21
505.36	27068.30
505.53	27058.93
505.71	27337.46
505.88	27601.94
506.06	26977.01
506.23	27105.74
506.41	27243.84
506.58	27552.79
506.76	27779.82
506.93	27943.66
507.11	27690.88
507.28	28056.00
507.46	27873.44
507.63	27962.38
507.81	28315.80
507.98	28233.88
508.16	28311.12
508.33	28491.34
508.50	28332.18
508.68	28467.94
508.85	28683.27
509.03	28854.12
509.20	28889.23
509.38	28996.90
509.55	28872.85
509.73	29273.08
509.90	29216.91
510.08	28865.83
510.25	28727.74
510.42	29635.86
510.60	29345.64
510.77	29394.79
510.95	29663.95
511.12	29497.77
511.30	29769.27
511.47	30160.14
511.64	30295.89
511.82	30012.69
511.99	29958.86
512.17	30216.32
512.34	29968.22
512.51	30450.37
512.69	30583.78
512.86	30246.74
513.04	30120.35
513.21	30677.40
513.38	30499.52
513.56	30485.48
513.73	30527.61
513.90	30684.42
514.08	30948.90
514.25	30979.33
514.43	30778.04
514.60	31007.42
514.77	30888.05
514.95	31524.68
515.12	31126.78
515.29	31468.50
515.47	31608.93
515.64	31929.59
515.81	31597.23
515.99	31585.53
516.16	31297.64
516.33	31564.46
516.51	31732.98
516.68	31667.45
516.85	31180.62
517.03	31714.26
517.20	31676.81
517.37	31864.05
517.54	31857.03
517.72	32268.97
517.89	31978.74
518.06	32130.87
518.24	32112.15
518.41	32079.38
518.58	32477.27
518.75	32350.88
518.93	32608.34
519.10	32577.92
519.27	32425.78
519.45	32811.97
519.62	32622.39
519.79	32940.70
519.96	32912.61
520.14	33516.47
520.31	33104.54
520.48	33270.72
520.65	32975.81
520.83	33139.65
521.00	33820.74
521.17	33862.87
521.34	33846.49
521.52	33582.01
521.69	33769.25
521.86	34246.72
522.03	34380.13
522.20	34000.96
522.38	34160.12
522.55	34459.71
522.72	34143.74
522.89	34560.35
523.07	34230.33
523.24	33977.56
523.41	34693.76
523.58	34686.74
523.75	35009.73
523.92	34787.38
524.10	35311.66
524.27	34850.58
524.44	35023.78
524.61	35002.71
524.78	34888.03
524.96	35133.78
525.13	35117.40
525.30	35545.72
525.47	35021.44
525.64	35306.98
525.81	35384.22
525.98	35426.35
526.16	35063.57
526.33	35229.74
526.50	35409.96
526.67	35250.81
526.84	35725.94
527.01	35571.46
527.18	35721.26
527.36	35779.77
527.53	35805.52
527.70	36423.42
527.87	36184.68
528.04	36315.75
528.21	35945.95
528.38	36416.40
528.55	36528.74
528.72	36095.74
528.89	36203.41
529.07	36772.16
529.24	36215.11
529.41	36634.06
529.58	36809.61
529.75	36772.16
529.92	36708.96
530.09	36975.78
530.26	36975.78
530.43	37027.28
530.60	36919.61
530.77	36905.57
530.94	36865.78
531.11	37102.17
531.28	37352.61
531.46	36664.49
531.63	37528.15
531.80	37228.56
531.97	37008.55
532.14	37577.30
532.31	36842.37
532.48	37738.80
532.65	37275.37
532.82	37603.05
532.99	37799.65
533.16	37471.98
533.33	37766.88
533.50	37919.02
533.67	37874.55
533.84	37509.43
534.01	37794.97
534.18	37881.57
534.35	38134.35
534.52	38054.77
534.69	38153.07
534.86	38160.09
535.03	38253.72
535.20	38443.30
535.37	37944.76
535.54	38899.70
535.71	38864.60
535.88	38220.95
536.05	38483.09
536.22	38375.42
536.38	38789.70
536.55	38663.31
536.72	38567.35
536.89	38029.02
537.06	38590.75
537.23	38801.40
537.40	38913.75
537.57	38696.08
537.74	38972.26
537.91	39545.69
538.08	39213.34
538.25	38497.13
538.42	38965.24
538.59	39285.89
538.75	38611.82
538.92	39068.22
539.09	39086.95
539.26	38904.38
539.43	38897.36
539.60	39672.08
539.77	38902.04
539.94	39716.55
540.11	39260.15
540.28	39452.07
540.44	39234.40
540.61	39428.66
540.78	39122.05
540.95	39522.29
541.12	39393.56
541.29	39803.15
541.46	39718.89
541.62	39604.20
541.79	40034.86
541.96	39421.64
542.13	39796.13
542.30	39871.03
542.47	39758.68
542.63	39974.01
542.80	39981.03
542.97	40451.48
543.14	40758.09
543.31	40287.64
543.48	40797.88
543.64	40935.97
543.81	41001.50
543.98	40456.16
544.15	40397.65
544.32	40744.05
544.48	40961.72
544.65	40818.94
544.82	40910.22
544.99	40376.58
545.16	40921.93
545.32	40664.47
545.49	41408.76
545.66	40882.14
545.83	40994.48
546.00	41287.05
546.16	41324.50
546.33	40868.09
546.50	40790.86
546.67	41270.67
546.83	40509.99
547.00	41226.20
547.17	41015.55
547.34	41415.78
547.50	41223.86
547.67	41687.28
547.84	41518.76
548.00	41404.08
548.17	41904.95
548.34	41759.84
548.51	41799.63
548.67	41670.90
548.84	42117.94
549.01	41425.14
549.18	41359.61
549.34	41792.61
549.51	41766.86
549.68	41904.95
549.84	42071.13
550.01	41846.44
550.18	41827.71
550.34	41823.03
550.51	41603.02
550.68	42043.04
550.84	41535.15
551.01	42052.41
551.18	41975.17
551.34	42162.41
551.51	42300.50
551.68	42384.76
551.84	42277.10
552.01	41886.23
552.18	41998.57
552.34	42029.00
552.51	42071.13
552.68	42223.26
552.84	42504.13
553.01	42621.16
553.18	42623.50
553.34	42160.07
553.51	42059.43
553.67	42618.81
553.84	42497.11
554.01	42871.59
554.17	42869.25
554.34	42810.74
554.51	43131.39
554.67	43098.62
554.84	42569.66
555.00	42478.38
555.17	42487.74
555.33	42759.25
555.50	42948.83
555.67	43133.73
555.83	43014.37
556.00	43175.86
556.16	43021.39
556.33	43262.46
556.50	43033.09
556.66	43096.28
556.83	42976.92
556.99	42972.24
557.16	43173.52
557.32	43058.84
557.49	43232.04
557.65	43063.52
557.82	42766.27
557.98	42586.05
558.15	43416.94
558.32	43590.14
558.48	43194.59
558.65	43260.12
558.81	43342.04
558.98	42976.92
559.14	43770.36
559.31	43421.62
559.47	43529.28
559.64	43395.87
559.80	43384.17
559.97	43985.69
560.13	43489.49
560.30	43632.27
560.46	43716.53
560.63	43302.25
560.79	43552.69
560.96	43716.53
561.12	43370.13
561.29	43810.15
561.45	43700.14
561.61	43983.35
561.78	43393.53
561.94	43433.32
562.11	43854.62
562.27	43688.44
562.44	43608.86
562.60	43913.13
562.77	43814.83
562.93	43749.29
563.10	44011.43
563.26	43515.24
563.42	43810.15
563.59	43662.69
563.75	43501.20
563.92	44058.24
564.08	43775.04
564.24	43866.32
564.41	44034.84
564.57	43690.78
564.74	43875.68
564.90	44165.91
565.07	44210.38
565.23	43681.42
565.39	43896.75
565.56	44046.54
565.72	44100.37
565.88	43943.56
566.05	43559.71
566.21	44254.85
566.38	44119.10
566.54	44189.31
566.70	44690.19
566.87	44308.68
567.03	44114.42
567.19	44432.73
567.36	44505.29
567.52	43592.48
567.68	44168.25
567.85	44449.11
568.01	44133.14
568.17	44018.46
568.34	44353.15
568.50	44189.31
568.66	44100.37
568.83	44301.66
568.99	43725.89
569.15	43761.00
569.32	44458.48
569.48	44182.29
569.64	44210.38
569.81	44175.27
569.97	44224.42
570.13	44313.36
570.30	44114.42
570.46	43653.33
570.62	44004.41
570.78	44355.49
570.95	44547.42
571.11	43995.05
571.27	44055.90
571.43	44355.49
571.60	44404.64
571.76	44437.41
571.92	44601.25
572.09	44488.90
572.25	44619.97
572.41	44381.24
572.57	44479.54
572.74	45015.52
572.90	44580.18
573.06	44619.97
573.22	44617.63
573.38	44875.09
573.55	44364.85
573.71	44744.02
573.87	43887.39
574.03	44289.96
574.20	44275.91
574.36	44357.83
574.52	44690.19
574.68	44463.16
574.84	44350.81
575.01	44411.67
575.17	44498.26
575.33	44706.57
575.49	44088.67
575.65	44737.00
575.82	44828.28
575.98	44666.78
576.14	45059.99
576.30	44315.70
576.46	44432.73
576.62	44215.06
576.79	44598.91
576.95	44451.45
577.11	44683.17
577.27	44615.29
577.43	44612.95
577.59	44320.38
577.75	44226.76
577.92	44229.10
578.08	44399.96
578.24	44282.94
578.40	44329.75
578.56	44481.88
578.72	44699.55
578.88	44729.98
579.04	44605.93
579.21	44013.77
579.37	44556.78
579.53	44231.44
579.69	44336.77
579.85	44467.84
580.01	44816.58
580.17	44451.45
580.33	44800.19
580.49	44516.99
580.65	44348.47
580.82	44575.50
580.98	44423.37
581.14	44519.33
581.30	44786.15
581.46	44699.55
581.62	44795.51
581.78	44671.46
581.94	44949.99
582.10	44435.07
582.26	44912.54
582.42	44835.30
582.58	44617.63
582.74	44325.07
582.90	44877.43
583.06	44669.12
583.22	44896.16
583.38	45340.86
583.54	45116.17
583.70	44404.64
583.86	44708.91
584.02	44617.63
584.18	44804.88
584.34	45020.20
584.50	44720.62
584.66	44619.97
584.82	44629.34
584.98	44912.54
585.14	44858.71
585.30	44659.76
585.46	44744.02
585.62	44575.50
585.78	44430.39
585.94	44165.91
586.10	44362.51
586.26	44610.61
586.42	44568.48
586.58	44683.17
586.74	44713.59
586.90	44194.00
587.06	44556.78
587.22	44406.98
587.38	45001.48
587.54	45029.57
587.70	45111.49
587.86	45193.40
588.02	44748.70
588.18	44652.74
588.34	44971.05
588.49	44645.72
588.65	44456.14
588.81	44519.33
588.97	44280.60
589.13	44273.57
589.29	44570.82
589.45	44622.31
589.61	44910.20
589.77	44938.29
589.93	45230.85
590.08	44931.26
590.24	44905.52
