SpectraSuite Data File
++++++++++++++++++++++++++++++++++++
Date: Fri Oct 25 11:23:11 EDT 2013
User: price-jones
Dark Spectrum Present: No
Reference Spectrum Present: No
Number of Sampled Component Spectra: 1
Spectrometers: USB2+H05261
Integration Time (usec): 100000 (USB2+H05261)
Spectra Averaged: 1 (USB2+H05261)
Boxcar Smoothing: 0 (USB2+H05261)
Correct for Electrical Dark: No (USB2+H05261)
Strobe/Lamp Enabled: No (USB2+H05261)
Correct for Detector Non-linearity: No (USB2+H05261)
Correct for Stray Light: No (USB2+H05261)
Number of Pixels in Processed Spectrum: 2048
>>>>>Begin Processed Spectral Data<<<<<
365.73	227.03
365.92	227.03
366.12	227.03
366.32	220.01
366.52	100.64
366.72	105.32
366.91	93.62
367.11	126.39
367.31	166.18
367.51	163.84
367.70	107.66
367.90	166.18
368.10	161.50
368.30	133.41
368.49	117.03
368.69	191.92
368.89	182.56
369.09	208.31
369.28	117.03
369.48	163.84
369.68	238.73
369.87	198.95
370.07	198.95
370.27	191.92
370.47	407.25
370.66	596.84
370.86	650.67
371.06	587.47
371.25	760.67
371.45	660.03
371.65	627.26
371.84	638.97
372.04	657.69
372.24	688.12
372.44	730.25
372.63	688.12
372.83	711.52
373.03	821.53
373.22	772.38
373.42	772.38
373.62	793.44
373.81	685.78
374.01	802.80
374.21	713.86
374.40	805.14
374.60	816.85
374.79	854.30
374.99	875.36
375.19	826.21
375.38	870.68
375.58	807.48
375.78	863.66
375.97	882.38
376.17	868.34
376.37	866.00
376.56	903.45
376.76	931.53
376.95	819.19
377.15	947.92
377.35	884.72
377.54	903.45
377.74	950.26
377.93	917.49
378.13	964.30
378.33	1027.50
378.52	945.58
378.72	884.72
378.91	985.37
379.11	903.45
379.31	908.13
379.50	964.30
379.70	1025.15
379.89	976.00
380.09	1057.92
380.28	1022.81
380.48	983.02
380.68	999.41
380.87	978.34
381.07	1006.43
381.26	1107.07
381.46	994.73
381.65	1062.60
381.85	1069.62
382.04	1071.97
382.24	1139.84
382.43	1064.94
382.63	1034.52
382.83	1125.80
383.02	1086.01
383.22	1041.54
383.41	1022.81
383.61	1174.95
383.80	1144.52
384.00	1118.78
384.19	1083.67
384.39	1032.18
384.58	1188.99
384.78	1064.94
384.97	1158.57
385.17	1270.91
385.36	1142.18
385.56	1093.03
385.75	1055.58
385.95	1217.08
386.14	1177.29
386.34	1207.72
386.53	1336.45
386.72	1259.21
386.92	1299.00
387.11	1242.82
387.31	1249.85
387.50	1277.93
387.70	1242.82
387.89	1280.27
388.09	1235.80
388.28	1245.16
388.48	1277.93
388.67	1390.28
388.86	1308.36
389.06	1320.06
389.25	1355.17
389.45	1371.55
389.64	1322.40
389.84	1345.81
390.03	1348.15
390.22	1411.34
390.42	1425.39
390.61	1341.13
390.81	1390.28
391.00	1401.98
391.19	1483.90
391.39	1509.65
391.58	1474.54
391.78	1455.81
391.97	1458.15
392.16	1423.05
392.36	1551.78
392.55	1430.07
392.75	1481.56
392.94	1563.48
393.13	1530.71
393.33	1509.65
393.52	1488.58
393.71	1530.71
393.91	1568.16
394.10	1561.14
394.29	1551.78
394.49	1657.10
394.68	1636.03
394.88	1706.25
395.07	1617.31
395.26	1664.12
395.46	1682.85
395.65	1734.34
395.84	1746.04
396.04	1685.19
396.23	1818.60
396.42	1853.70
396.62	1781.15
396.81	1813.92
397.00	1753.06
397.19	1762.42
397.39	1870.09
397.58	1872.43
397.77	1860.73
397.97	1811.57
398.16	1984.77
398.35	1860.73
398.55	1872.43
398.74	1914.56
398.93	1956.69
399.12	1872.43
399.32	1919.24
399.51	1940.30
399.70	2005.84
399.90	1968.39
400.09	1942.64
400.28	1966.05
400.47	2015.20
400.67	2181.38
400.86	2087.76
401.05	2090.10
401.24	2022.22
401.44	2197.76
401.63	2139.25
401.82	2087.76
402.01	2005.84
402.21	2087.76
402.40	2223.51
402.59	2150.95
402.78	2148.61
402.97	2270.32
403.17	2265.64
403.36	2326.49
403.55	2275.00
403.74	2363.94
403.93	2373.30
404.13	2401.39
404.32	2340.54
404.51	2445.86
404.70	2509.05
404.89	2310.11
405.09	2457.56
405.28	2448.20
405.47	2408.41
405.66	2583.95
405.85	2555.86
406.05	2516.08
406.24	2710.34
406.43	2574.59
406.62	2642.46
406.81	2705.66
407.00	2654.17
407.20	2546.50
407.39	2581.61
407.58	2827.37
407.77	2733.75
407.96	2729.06
408.15	2803.96
408.34	2757.15
408.54	2715.02
408.73	2740.77
408.92	2803.96
409.11	2822.69
409.30	2827.37
409.49	2920.99
409.68	2904.60
409.87	3014.61
410.07	2965.46
410.26	3089.51
410.45	3059.08
410.64	3157.38
410.83	3155.04
411.02	3101.21
411.21	3225.26
411.40	3241.64
411.59	3253.34
411.78	3208.87
411.98	3232.28
412.17	3384.41
412.36	3281.43
412.55	3335.26
412.74	3438.25
412.93	3550.59
413.12	3377.39
413.31	3602.08
413.50	3543.57
413.69	3543.57
413.88	3541.23
414.07	3620.81
414.26	3602.08
414.45	3803.37
414.64	3808.05
414.83	3808.05
415.02	3700.39
415.22	3880.61
415.41	3880.61
415.60	3843.16
415.79	3974.23
415.98	4135.73
416.17	4004.66
416.36	3999.98
416.55	4102.96
416.74	4032.74
416.93	4124.02
417.12	4030.40
417.31	4238.71
417.50	4067.85
417.69	4451.70
417.88	4339.35
418.07	4287.86
418.26	4337.01
418.45	4346.37
418.64	4428.29
418.83	4351.06
419.02	4461.06
419.21	4601.49
419.39	4531.28
419.58	4538.30
419.77	4517.23
419.96	4498.51
420.15	4683.41
420.34	4655.33
420.53	4720.86
420.72	4744.27
420.91	4601.49
421.10	4762.99
421.29	4922.15
421.48	4922.15
421.67	4922.15
421.86	4807.46
422.05	4877.68
422.24	4898.74
422.43	5008.75
422.61	5004.07
422.80	4898.74
422.99	4882.36
423.18	5085.98
423.37	5043.85
423.56	4973.64
423.75	4943.21
423.94	4983.00
424.13	4585.11
424.32	4748.95
424.50	5121.09
424.69	5188.97
424.88	5153.86
425.07	5027.47
425.26	5064.92
425.45	4837.89
425.64	4936.19
425.83	4926.83
426.01	5212.37
426.20	5093.01
426.39	5060.24
426.58	5177.26
426.77	5217.05
426.96	5104.71
427.15	5048.54
427.33	5261.52
427.52	5282.59
427.71	5467.49
427.90	5348.12
428.09	5275.57
428.28	5474.51
428.46	5404.30
428.65	5268.55
428.84	5408.98
429.03	5507.28
429.22	5490.90
429.40	5551.75
429.59	5483.88
429.78	5432.38
429.97	5191.31
430.16	5579.84
430.34	5565.79
430.53	5696.86
430.72	5762.40
430.91	5575.16
431.10	5713.25
431.28	5743.67
431.47	5820.91
431.66	5902.83
431.85	5797.51
432.03	5973.05
432.22	5989.43
432.41	5940.28
432.60	5905.17
432.79	6134.54
432.97	6179.01
433.16	6176.67
433.35	5844.32
433.54	5975.39
433.72	6221.14
433.91	6296.04
434.10	6249.23
434.28	5996.45
434.47	6333.49
434.66	6338.17
434.85	6450.52
435.03	6558.18
435.22	6204.76
435.41	6558.18
435.59	6635.42
435.78	6518.39
435.97	6396.68
436.16	6410.73
436.34	6333.49
436.53	6588.61
436.72	6743.08
436.90	6668.19
437.09	6815.64
437.28	6574.56
437.46	6537.12
437.65	6738.40
437.84	6871.81
438.02	6733.72
438.21	6946.71
438.40	6768.83
438.58	7136.29
438.77	6967.77
438.96	6991.18
439.14	7143.32
439.33	7417.16
439.52	7262.68
439.70	7243.96
439.89	7461.63
440.08	7478.01
440.26	7419.50
440.45	7431.20
440.63	7463.97
440.82	7691.00
441.01	7583.34
441.19	7709.72
441.38	7850.16
441.57	7770.58
441.75	7775.26
441.94	7978.89
442.12	8154.43
442.31	8114.64
442.50	8128.68
442.68	7976.55
442.87	8011.65
443.05	8205.92
443.24	8168.47
443.43	8280.82
443.61	8311.24
443.80	8468.06
443.98	8194.22
444.17	7901.65
444.35	8252.73
444.54	8472.74
444.73	8322.94
444.91	8468.06
445.10	8379.12
445.28	8306.56
445.47	8456.36
445.65	8524.23
445.84	8524.23
446.02	8561.68
446.21	8510.19
446.39	8519.55
446.58	8566.36
446.77	8568.70
446.95	8248.05
447.14	8503.17
447.32	8702.11
447.51	8648.28
447.69	8615.51
447.88	8531.25
448.06	8629.56
448.25	8594.45
448.43	8578.06
448.62	8709.13
448.80	8610.83
448.99	8982.98
449.17	8952.55
449.36	8727.86
449.54	9055.53
449.73	9046.17
449.91	9205.33
450.10	8973.61
450.28	9254.48
450.46	9123.41
450.65	9308.31
450.83	9125.75
451.02	9067.24
451.20	9263.84
451.39	9249.80
451.57	9240.44
451.76	9247.46
451.94	9430.02
452.13	9378.53
452.31	9437.04
452.49	9160.86
452.68	9404.27
452.86	9476.83
453.05	9521.30
453.23	9661.73
453.42	9441.72
453.60	9453.42
453.78	9771.74
453.97	9540.02
454.15	9350.44
454.34	9619.60
454.52	9858.34
454.70	9991.75
454.89	9809.19
455.07	9837.27
455.26	9837.27
455.44	9893.44
455.62	10078.35
455.81	9963.66
455.99	10111.11
456.17	10160.27
456.36	10080.69
456.54	10307.72
456.73	10270.27
456.91	10626.03
457.09	10494.96
457.28	10602.63
457.46	10401.34
457.64	10745.40
457.83	10705.61
458.01	10485.60
458.19	10815.62
458.38	10661.14
458.56	10759.44
458.74	10686.89
458.93	10860.09
459.11	10733.70
459.29	10764.12
459.48	10913.92
459.66	10651.78
459.84	11056.69
460.03	11206.48
460.21	11222.87
460.39	11077.76
460.57	10934.98
460.76	11468.62
460.94	11187.76
461.12	11545.86
461.31	11241.59
461.49	11176.06
461.67	11325.85
461.85	11583.31
462.04	11257.98
462.22	11669.91
462.40	11751.83
462.59	11412.45
462.77	11468.62
462.95	11740.13
463.13	11693.32
463.32	11868.86
463.50	11932.05
463.68	12049.08
463.86	11962.48
464.05	11695.66
464.23	11913.33
464.41	12294.83
464.59	11777.58
464.78	12400.16
464.96	12091.21
465.14	11964.82
465.32	12056.10
465.50	12287.81
465.69	12184.83
465.87	12203.55
466.05	11995.25
466.23	12201.21
466.41	12355.69
466.60	12748.90
466.78	12145.04
466.96	12271.43
467.14	12109.93
467.32	12535.91
467.51	12676.34
467.69	12203.55
467.87	12411.86
468.05	12865.92
468.23	12599.10
468.41	12564.00
468.60	12723.15
468.78	12807.41
468.96	12992.31
469.14	12730.17
469.32	13076.57
469.50	12826.14
469.69	13172.54
469.87	13282.54
470.05	13191.26
470.23	13256.79
470.41	13362.12
470.59	13432.33
470.77	13263.82
470.95	13444.04
471.14	13708.52
471.32	13366.80
471.50	13593.83
471.68	13621.92
471.86	13687.45
472.04	13804.48
472.22	13909.80
472.40	13872.36
472.58	13870.01
472.77	14061.94
472.95	14237.48
473.13	14902.19
473.31	14398.98
473.49	14530.05
473.67	14237.48
473.85	14499.62
474.03	14892.83
474.21	14621.33
474.39	14824.95
474.57	14801.55
474.75	15129.22
474.93	15154.97
475.12	15330.51
475.30	15541.16
475.48	15309.44
475.66	15358.60
475.84	15042.62
476.02	15246.25
476.20	15461.58
476.38	15927.35
476.56	16006.92
476.74	15985.86
476.92	15988.20
477.10	15845.43
477.28	16168.42
477.46	16699.72
477.64	16472.69
477.82	16510.14
478.00	16971.22
478.18	17050.80
478.36	17015.69
478.54	17404.22
478.72	17280.18
478.90	17717.86
479.08	17729.56
479.26	17891.06
479.44	17928.50
479.62	18132.13
479.80	18043.19
479.98	18345.12
480.16	18792.16
480.34	18595.56
480.52	18743.01
480.70	18831.95
480.88	18672.79
481.06	18956.00
481.24	18951.32
481.41	19152.60
481.59	19578.58
481.77	19686.25
481.95	19496.66
482.13	19772.85
482.31	20013.92
482.49	20154.35
482.67	20393.09
482.85	20709.06
483.03	20659.91
483.21	21104.61
483.39	21205.25
483.57	21046.10
483.74	21472.07
483.92	21401.86
484.10	21593.78
484.28	21951.88
484.46	22211.68
484.64	22787.46
484.82	22382.54
485.00	22508.93
485.18	23152.58
485.35	23267.27
485.53	23115.13
485.71	23023.85
485.89	23812.61
486.07	23634.73
486.25	23714.31
486.43	23950.70
486.61	24077.09
486.78	24414.13
486.96	24746.48
487.14	24765.21
487.32	24720.74
487.50	24779.25
487.68	25303.53
487.85	25113.95
488.03	25727.17
488.21	25790.36
488.39	26134.42
488.57	26288.90
488.75	26443.37
488.92	26541.68
489.10	26916.16
489.28	26953.61
489.46	27714.28
489.64	27213.41
489.81	27999.83
489.99	27889.82
490.17	28023.23
490.35	28521.77
490.53	28355.59
490.70	28481.98
490.88	28437.51
491.06	29111.58
491.24	29163.08
491.41	29703.74
491.59	29736.51
491.77	30045.46
491.95	29743.53
492.13	30038.44
492.30	30171.85
492.48	30567.40
492.66	30515.90
492.84	30888.05
493.01	31056.57
493.19	30876.35
493.37	31236.79
493.54	31393.61
493.72	31817.24
493.90	31484.89
494.08	32053.64
494.25	32407.06
494.43	32371.95
494.61	32568.55
494.79	33008.58
494.96	32814.31
495.14	32781.54
495.32	33134.96
495.49	33406.47
495.67	33816.06
495.85	33729.46
496.02	34094.58
496.20	33963.51
496.38	34361.40
496.55	34471.41
496.73	35091.65
496.91	34560.35
497.09	35552.74
497.26	35662.74
497.44	34998.03
497.62	35866.37
497.79	35971.69
497.97	36355.54
498.14	36287.67
498.32	36109.78
498.50	36568.53
498.67	37160.69
498.85	37027.28
499.03	37249.63
499.20	37422.83
499.38	37109.19
499.56	37448.57
499.73	37453.25
499.91	37710.71
500.08	37940.08
500.26	38117.96
500.44	38026.68
500.61	38607.14
500.79	38043.07
500.97	38218.61
501.14	38918.43
501.32	38656.29
501.49	38752.25
501.67	39246.10
501.84	39147.80
502.02	39597.18
502.20	39236.74
502.37	39646.33
502.55	39725.91
502.72	40121.46
502.90	39943.58
503.07	40168.27
503.25	40512.33
503.43	39842.94
503.60	40746.39
503.78	40746.39
503.95	40758.09
504.13	40924.27
504.30	40694.89
504.48	41074.06
504.65	41125.55
504.83	41399.40
505.01	41684.94
505.18	41982.19
505.36	41928.36
505.53	41563.23
505.71	42190.50
505.88	41979.85
506.06	42078.15
506.23	42628.18
506.41	42113.26
506.58	42674.99
506.76	42581.37
506.93	43119.69
507.11	43175.86
507.28	42651.58
507.46	43208.63
507.63	43426.30
507.81	43346.72
507.98	43065.86
508.16	43299.91
508.33	43798.44
508.50	43505.88
508.68	44343.79
508.85	44554.44
509.03	44240.81
509.20	44776.79
509.38	44418.69
509.55	44671.46
509.73	44907.86
509.90	45024.89
510.08	44781.47
510.25	45198.09
510.42	44935.95
510.60	45469.59
510.77	45490.65
510.95	45940.04
511.12	45633.42
511.30	45530.44
511.47	45329.16
511.64	45902.59
511.82	46389.42
511.99	46120.26
512.17	46155.36
512.34	46171.75
512.51	46979.23
512.69	46904.34
512.86	46777.95
513.04	47110.30
513.21	47208.61
513.38	47456.70
513.56	47253.08
513.73	47210.95
513.90	47110.30
514.08	47283.50
514.25	47620.54
514.43	47920.13
514.60	47765.65
514.77	47503.51
514.95	48554.41
515.12	48128.44
515.29	48322.70
515.47	48353.13
515.64	48451.43
515.81	48502.92
515.99	48596.54
516.16	48928.90
516.33	48711.23
516.51	48818.89
516.68	48898.47
516.85	48748.68
517.03	49359.56
517.20	49350.20
517.37	48790.81
517.54	49453.18
517.72	49066.99
517.89	49455.52
518.06	49722.34
518.24	49595.95
518.41	49450.84
518.58	50000.86
518.75	49696.59
518.93	49764.47
519.10	49602.97
519.27	50117.89
519.45	50405.78
519.62	50344.92
519.79	50475.99
519.96	50248.96
520.14	50483.01
520.31	50553.23
520.48	50588.34
520.65	50677.28
520.83	50988.57
521.00	50988.57
521.17	50873.88
521.34	50988.57
521.52	51229.65
521.69	51126.66
521.86	51351.35
522.03	51763.29
522.20	51664.99
522.38	51870.95
522.55	51847.55
522.72	51952.87
522.89	51215.60
523.07	52083.94
523.24	51758.61
523.41	51885.00
523.58	51889.68
523.75	52259.48
523.92	51849.89
524.10	52507.58
524.27	52505.24
524.44	52470.13
524.61	52376.51
524.78	52615.24
524.96	52603.54
525.13	52610.56
525.30	52755.68
525.47	52711.20
525.64	52776.74
525.81	53034.20
525.98	53169.95
526.16	52858.66
526.33	52882.06
526.50	53389.96
526.67	53165.27
526.84	53289.32
527.01	53118.46
527.18	53277.61
527.36	53504.65
527.53	53102.07
527.70	53635.72
527.87	53530.39
528.04	53570.18
528.21	53727.00
528.38	53776.15
528.55	54028.93
528.72	53497.62
528.89	53677.85
529.07	53616.99
529.24	53834.66
529.41	54164.68
529.58	53846.36
529.75	53645.08
529.92	53851.05
530.09	54305.11
530.26	54328.52
530.43	54429.16
530.60	54031.27
530.77	54342.56
530.94	54281.70
531.11	54504.06
531.28	54625.76
531.46	54583.63
531.63	54391.71
531.80	54625.76
531.97	54864.50
532.14	54717.04
532.31	55091.53
532.48	55044.72
532.65	54735.77
532.82	54578.95
532.99	54817.69
533.16	55070.46
533.33	55093.87
533.50	54962.80
533.67	55171.11
533.84	55121.96
534.01	54855.14
534.18	55145.36
534.35	55505.80
534.52	55510.49
534.69	55337.29
534.86	55597.09
535.03	55414.52
535.20	55430.91
535.37	55627.51
535.54	55365.37
535.71	55447.29
535.88	55625.17
536.05	55688.37
536.22	55702.41
536.38	55920.08
536.55	55824.12
536.72	55934.12
536.89	55739.86
537.06	55709.43
537.23	56088.60
537.40	56023.06
537.57	55966.89
537.74	55952.85
537.91	56388.19
538.08	56238.39
538.25	55913.06
538.42	56060.51
538.59	56336.69
538.75	56062.85
538.92	56282.86
539.09	56203.28
539.26	56299.25
539.43	56451.38
539.60	56491.17
539.77	56332.01
539.94	56612.88
540.11	56502.87
540.28	56631.60
540.44	56615.22
540.61	56903.10
540.78	56577.77
540.95	56669.05
541.12	56626.92
541.29	56577.77
541.46	56797.78
541.62	56947.57
541.79	57088.01
541.96	56617.56
542.13	56804.80
542.30	57071.62
542.47	57366.53
542.63	57167.58
542.80	57162.90
542.97	57235.46
543.14	57626.33
543.31	57521.01
543.48	57446.11
543.64	57888.47
543.81	57546.75
543.98	57680.16
544.15	57654.42
544.32	57623.99
544.48	57989.11
544.65	57471.85
544.82	57703.57
544.99	57528.03
545.16	57867.40
545.32	57656.76
545.49	57855.70
545.66	57715.27
545.83	58033.58
546.00	58059.33
546.16	57602.92
546.33	57741.02
546.50	57865.06
546.67	58042.95
546.83	57846.34
547.00	57935.28
547.17	58045.29
547.34	57998.48
547.50	58241.89
547.67	58342.53
547.84	58286.36
548.00	58302.74
548.17	58433.81
548.34	58372.96
548.51	58541.48
548.67	58363.60
548.84	58387.00
549.01	58251.25
549.18	58363.60
549.34	58382.32
549.51	58417.43
549.68	58567.23
549.84	58375.30
550.01	58719.36
550.18	58539.14
550.34	58728.72
550.51	58763.83
550.68	58588.29
550.84	58405.73
551.01	58735.74
551.18	58740.42
551.34	58754.47
551.51	58742.77
551.68	58815.32
551.84	58969.80
552.01	58672.55
552.18	58787.24
552.34	58801.28
552.51	58890.22
552.68	58979.16
552.84	58930.01
553.01	59182.79
553.18	59112.57
553.34	59346.62
553.51	59030.65
553.67	59025.97
553.84	59114.91
554.01	59114.91
554.17	59110.23
554.34	59379.39
554.51	59325.56
554.67	59379.39
554.84	59224.92
555.00	59351.30
555.17	59121.93
555.33	59327.90
555.50	59260.02
555.67	59182.79
555.83	59304.49
556.00	59283.43
556.16	59714.09
556.33	59655.57
556.50	59416.84
556.66	59746.86
556.83	59463.65
556.99	59704.73
557.16	59613.44
557.32	59798.35
557.49	59753.88
557.65	59718.77
557.82	59859.20
557.98	59767.92
558.15	59597.06
558.32	59657.91
558.48	59320.88
558.65	59803.03
558.81	59627.49
558.98	59777.28
559.14	59812.39
559.31	59913.03
559.47	60053.47
559.64	60081.55
559.80	60097.94
559.97	60004.31
560.13	59812.39
560.30	59772.60
560.46	60079.21
560.63	60123.68
560.79	59898.99
560.96	59934.10
561.12	60034.74
561.29	60233.69
561.45	60065.17
561.61	59962.18
561.78	60196.24
561.94	60275.82
562.11	60065.17
562.27	60114.32
562.44	60030.06
562.60	60198.58
562.77	60023.04
562.93	60079.21
563.10	60280.50
563.26	60114.32
563.42	60575.40
563.59	60516.89
563.75	60076.87
563.92	60416.25
564.08	60203.26
564.24	60348.37
564.41	60229.01
564.57	60402.21
564.74	60376.46
564.90	60221.98
565.07	60313.26
565.23	60212.62
565.39	60362.42
565.56	60587.11
565.72	60441.99
565.88	60411.57
566.05	60409.23
566.21	60456.04
566.38	60467.74
566.54	60467.74
566.70	60697.11
566.87	60645.62
567.03	60374.12
567.19	60434.97
567.36	60617.53
567.52	60495.83
567.68	60832.86
567.85	60573.06
568.01	60671.37
568.17	60456.04
568.34	60636.26
568.50	60587.11
568.66	60463.06
568.83	60608.17
568.99	60615.19
569.15	60711.16
569.32	60898.40
569.48	60622.22
569.64	60685.41
569.81	60699.45
569.97	60680.73
570.13	60610.51
570.30	60687.75
570.46	60629.24
570.62	60767.33
570.78	60769.67
570.95	60748.60
571.11	60727.54
571.27	60711.16
571.43	60701.79
571.60	61043.51
571.76	60860.95
571.92	60907.76
572.09	60767.33
572.25	60608.17
572.41	61015.43
572.57	60977.98
572.74	61020.11
572.90	60715.84
573.06	60830.52
573.22	60858.61
573.38	60882.02
573.55	60919.46
573.71	61123.09
573.87	60748.60
574.03	60678.39
574.20	60905.42
574.36	60757.97
574.52	60985.00
574.68	60968.61
574.84	61116.07
575.01	60767.33
575.17	60905.42
575.33	60842.23
575.49	60933.51
575.65	60938.19
575.82	61029.47
575.98	60919.46
576.14	61188.63
576.30	60968.61
576.46	61193.31
576.62	60992.02
576.79	61197.99
576.95	60683.07
577.11	61134.79
577.27	60947.55
577.43	61120.75
577.59	60910.10
577.75	61123.09
577.92	60945.21
578.08	61078.62
578.24	61153.52
578.40	61066.92
578.56	61003.72
578.72	61223.73
578.88	61087.98
579.04	61329.06
579.21	61155.86
579.37	61209.69
579.53	61193.31
579.69	60837.54
579.85	60874.99
580.01	60947.55
580.17	61048.19
580.33	61282.25
580.49	61153.52
580.65	61125.43
580.82	60947.55
580.98	60891.38
581.14	61200.33
581.30	61092.66
581.46	60982.66
581.62	61380.55
581.78	61027.13
581.94	61382.89
582.10	60872.65
582.26	61027.13
582.42	61216.71
582.58	61212.03
582.74	61132.45
582.90	61151.18
583.06	60931.17
583.22	61055.21
583.38	61244.80
583.54	61307.99
583.70	61439.06
583.86	61361.82
584.02	61148.84
584.18	61200.33
584.34	61265.86
584.50	61095.00
584.66	61111.39
584.82	60884.36
584.98	61162.88
585.14	61361.82
585.30	61141.81
585.46	61146.50
585.62	61378.21
585.78	61403.95
585.94	61052.87
586.10	61244.80
586.26	61153.52
586.42	61200.33
586.58	61289.27
586.74	61291.61
586.90	61162.88
587.06	61111.39
587.22	61425.02
587.38	61284.59
587.54	61467.15
587.70	61457.79
587.86	61380.55
588.02	61174.58
588.18	61354.80
588.34	61410.98
