SpectraSuite Data File
++++++++++++++++++++++++++++++++++++
Date: Fri Oct 25 11:25:32 EDT 2013
User: price-jones
Dark Spectrum Present: No
Reference Spectrum Present: No
Number of Sampled Component Spectra: 1
Spectrometers: USB2+H05261
Integration Time (usec): 100000 (USB2+H05261)
Spectra Averaged: 1 (USB2+H05261)
Boxcar Smoothing: 0 (USB2+H05261)
Correct for Electrical Dark: No (USB2+H05261)
Strobe/Lamp Enabled: No (USB2+H05261)
Correct for Detector Non-linearity: No (USB2+H05261)
Correct for Stray Light: No (USB2+H05261)
Number of Pixels in Processed Spectrum: 2048
>>>>>Begin Processed Spectral Data<<<<<
365.73	243.42
365.92	243.42
366.12	243.42
366.32	107.66
366.52	154.48
366.72	128.73
366.91	135.75
367.11	189.58
367.31	107.66
367.51	149.79
367.70	196.60
367.90	114.69
368.10	145.11
368.30	114.69
368.49	74.90
368.69	203.63
368.89	180.22
369.09	175.54
369.28	147.45
369.48	196.60
369.68	201.29
369.87	156.82
370.07	217.67
370.27	266.82
370.47	322.99
370.66	528.96
370.86	636.63
371.06	657.69
371.25	683.44
371.45	641.31
371.65	662.37
371.84	716.20
372.04	692.80
372.24	702.16
372.44	753.65
372.63	692.80
372.83	718.54
373.03	744.29
373.22	718.54
373.42	758.33
373.62	753.65
373.81	772.38
374.01	814.51
374.21	798.12
374.40	760.67
374.60	905.79
374.79	847.27
374.99	833.23
375.19	877.70
375.38	823.87
375.58	802.80
375.78	805.14
375.97	847.27
376.17	931.53
376.37	828.55
376.56	931.53
376.76	844.93
376.95	891.74
377.15	840.25
377.35	936.21
377.54	842.59
377.74	915.15
377.93	835.57
378.13	929.19
378.33	992.39
378.52	940.90
378.72	945.58
378.91	943.24
379.11	931.53
379.31	1015.79
379.50	985.37
379.70	1025.15
379.89	1067.28
380.09	910.47
380.28	997.07
380.48	964.30
380.68	933.87
380.87	966.64
381.07	1020.47
381.26	1074.31
381.46	987.71
381.65	1034.52
381.85	1062.60
382.04	1095.37
382.24	1090.69
382.43	1064.94
382.63	978.34
382.83	1060.26
383.02	1034.52
383.22	1022.81
383.41	1093.03
383.61	1118.78
383.80	1139.84
384.00	1057.92
384.19	1100.05
384.39	1097.71
384.58	1111.75
384.78	1179.63
384.97	1137.50
385.17	1100.05
385.36	1224.10
385.56	1167.93
385.75	1163.25
385.95	1135.16
386.14	1184.31
386.34	1144.52
386.53	1151.54
386.72	1153.88
386.92	1205.38
387.11	1125.80
387.31	1228.78
387.50	1200.69
387.70	1268.57
387.89	1306.02
388.09	1273.25
388.28	1299.00
388.48	1280.27
388.67	1238.14
388.86	1303.68
389.06	1233.46
389.25	1341.13
389.45	1299.00
389.64	1364.53
389.84	1441.77
390.03	1352.83
390.22	1397.30
390.42	1406.66
390.61	1376.24
390.81	1404.32
391.00	1483.90
391.19	1479.22
391.39	1390.28
391.58	1493.26
391.78	1504.96
391.97	1488.58
392.16	1437.09
392.36	1523.69
392.55	1561.14
392.75	1474.54
392.94	1493.26
393.13	1526.03
393.33	1528.37
393.52	1511.99
393.71	1582.20
393.91	1521.35
394.10	1519.01
394.29	1530.71
394.49	1720.29
394.68	1727.32
394.88	1575.18
395.07	1610.29
395.26	1633.69
395.46	1671.14
395.65	1673.48
395.84	1739.02
396.04	1767.10
396.23	1750.72
396.42	1727.32
396.62	1788.17
396.81	1753.06
397.00	1820.94
397.19	1701.57
397.39	1783.49
397.58	1806.89
397.77	1762.42
397.97	1785.83
398.16	1804.55
398.35	1764.76
398.55	1888.81
398.74	1942.64
398.93	1942.64
399.12	1921.58
399.32	1858.39
399.51	1870.09
399.70	1968.39
399.90	1954.35
400.09	1947.33
400.28	2010.52
400.47	1989.46
400.67	2120.53
400.86	2104.14
401.05	2036.27
401.24	2047.97
401.44	2050.31
401.63	2071.37
401.82	2090.10
402.01	2120.53
402.21	2211.81
402.40	2125.21
402.59	2167.34
402.78	2183.72
402.97	2146.27
403.17	2218.83
403.36	2317.13
403.55	2305.43
403.74	2335.85
403.93	2263.30
404.13	2413.09
404.32	2286.70
404.51	2359.26
404.70	2427.14
404.89	2420.11
405.09	2406.07
405.28	2385.01
405.47	2387.35
405.66	2511.39
405.85	2590.97
406.05	2553.52
406.24	2541.82
406.43	2497.35
406.62	2635.44
406.81	2642.46
407.00	2523.10
407.20	2637.78
407.39	2551.18
407.58	2708.00
407.77	2738.43
407.96	2705.66
408.15	2710.34
408.34	2754.81
408.54	2827.37
408.73	2885.88
408.92	2792.26
409.11	2860.13
409.30	2970.14
409.49	2825.03
409.68	2946.73
409.87	2853.11
410.07	3026.31
410.26	3040.36
410.45	3016.95
410.64	2918.65
410.83	3157.38
411.02	3117.59
411.21	3080.14
411.40	3143.34
411.59	3166.74
411.78	3101.21
411.98	3152.70
412.17	3187.81
412.36	3229.94
412.55	3435.91
412.74	3279.09
412.93	3274.41
413.12	3304.84
413.31	3452.29
413.50	3337.60
413.69	3368.03
413.88	3646.55
414.07	3513.14
414.26	3524.85
414.45	3641.87
414.64	3627.83
414.83	3749.54
415.02	3723.79
415.22	3779.97
415.41	3831.46
415.60	3899.33
415.79	3880.61
415.98	3918.06
416.17	4053.81
416.36	3908.69
416.55	3913.38
416.74	4044.45
416.93	3943.80
417.12	4056.15
417.31	4011.68
417.50	3988.27
417.69	4301.90
417.88	4301.90
418.07	4168.49
418.26	4203.60
418.45	4376.80
418.64	4423.61
418.83	4542.98
419.02	4482.13
419.21	4526.60
419.39	4414.25
419.58	4547.66
419.77	4528.94
419.96	4601.49
420.15	4578.09
420.34	4648.30
420.53	4545.32
420.72	4648.30
420.91	4690.43
421.10	4681.07
421.29	4873.00
421.48	4655.33
421.67	4692.77
421.86	4748.95
422.05	4760.65
422.24	4770.01
422.43	4833.21
422.61	4910.44
422.80	4788.74
422.99	4922.15
423.18	4936.19
423.37	5078.96
423.56	4947.89
423.75	4926.83
423.94	4830.87
424.13	4535.96
424.32	4765.33
424.50	4917.47
424.69	4990.02
424.88	4987.68
425.07	4873.00
425.26	4842.57
425.45	4863.63
425.64	4992.36
425.83	5069.60
426.01	5107.05
426.20	5004.07
426.39	5057.90
426.58	5142.16
426.77	5085.98
426.96	5144.50
427.15	5036.83
427.33	5284.93
427.52	5174.92
427.71	5203.01
427.90	5242.80
428.09	5310.68
428.28	5298.97
428.46	5277.91
428.65	5338.76
428.84	5586.86
429.03	5561.11
429.22	5336.42
429.40	5537.71
429.59	5439.40
429.78	5268.55
429.97	5109.39
430.16	5530.69
430.34	5523.66
430.53	5542.39
430.72	5455.79
430.91	5547.07
431.10	5692.18
431.28	5643.03
431.47	5741.33
431.66	5827.93
431.85	5856.02
432.03	5809.21
432.22	5923.90
432.41	5900.49
432.60	5849.00
432.79	5935.60
432.97	5886.45
433.16	6036.24
433.35	5968.37
433.54	6022.20
433.72	6066.67
433.91	6092.41
434.10	6193.06
434.28	6115.82
434.47	5909.85
434.66	6284.34
434.85	6307.74
435.03	6214.12
435.22	6174.33
435.41	6363.92
435.59	6296.04
435.78	6249.23
435.97	6356.90
436.16	6331.15
436.34	6359.24
436.53	6520.73
436.72	6834.36
436.90	6539.46
437.09	6612.01
437.28	6286.68
437.46	6525.41
437.65	6619.04
437.84	6684.57
438.02	6607.33
438.21	6813.30
438.40	6846.07
438.58	6869.47
438.77	6951.39
438.96	6939.69
439.14	6942.03
439.33	7063.74
439.52	6993.52
439.70	7129.27
439.89	7265.02
440.08	7185.44
440.26	7510.78
440.45	7307.15
440.63	7293.11
440.82	7618.44
441.01	7487.37
441.19	7702.70
441.38	7573.97
441.57	7793.98
441.75	7646.53
441.94	7911.01
442.12	7843.14
442.31	7964.84
442.50	7896.97
442.68	7824.41
442.87	7911.01
443.05	8173.15
443.24	8269.11
443.43	8121.66
443.61	8063.15
443.80	8407.20
443.98	8194.22
444.17	7681.64
444.35	8196.56
444.54	8306.56
444.73	8315.92
444.91	8461.04
445.10	8226.98
445.28	8348.69
445.47	8100.59
445.65	8234.00
445.84	8383.80
446.02	8545.30
446.21	8339.33
446.39	8418.91
446.58	8411.89
446.77	8386.14
446.95	8212.94
447.14	8163.79
447.32	8528.91
447.51	8278.47
447.69	8299.54
447.88	8416.57
448.06	8486.78
448.25	8468.06
448.43	8655.30
448.62	8446.99
448.80	8500.83
448.99	8704.45
449.17	8755.94
449.36	8519.55
449.54	8809.78
449.73	8877.65
449.91	8968.93
450.10	8950.21
450.28	9123.41
450.46	8863.61
450.65	8908.08
450.83	8688.07
451.02	8966.59
451.20	9123.41
451.39	9121.07
451.57	9242.78
451.76	8954.89
451.94	9111.71
452.13	9235.75
452.31	9228.73
452.49	9249.80
452.68	9542.36
452.86	9179.58
453.05	9338.74
453.23	9362.14
453.42	9217.03
453.60	9284.91
453.78	9540.02
453.97	9530.66
454.15	9219.37
454.34	9327.03
454.52	9750.67
454.70	9888.76
454.89	9572.79
455.07	9989.41
455.26	9748.33
455.44	9877.06
455.62	9797.48
455.81	9895.78
455.99	9970.68
456.17	10003.45
456.36	10054.94
456.54	9958.98
456.73	10129.84
456.91	10541.77
457.09	10289.00
457.28	10373.25
457.46	10253.89
457.64	10464.54
457.83	10436.45
458.01	10445.81
458.19	10740.72
458.38	10457.51
458.56	10644.76
458.74	10637.73
458.93	10637.73
459.11	10670.50
459.29	10588.58
459.48	10855.40
459.66	10621.35
459.84	10951.37
460.03	11162.01
460.21	10829.66
460.39	10934.98
460.57	11033.29
460.76	10923.28
460.94	10944.34
461.12	11147.97
461.31	11164.36
461.49	11129.25
461.67	11332.87
461.85	11344.58
462.04	11122.23
462.22	11611.40
462.40	11606.72
462.59	11536.50
462.77	11428.84
462.95	11489.69
463.13	11534.16
463.32	11513.10
463.50	11784.60
463.68	11777.58
463.86	11660.55
464.05	11496.71
464.23	11548.20
464.41	11763.53
464.59	11899.28
464.78	11934.39
464.96	12044.40
465.14	11955.46
465.32	11908.65
465.50	12025.67
465.69	12088.87
465.87	12067.80
466.05	12119.29
466.23	12063.12
466.41	12241.00
466.60	12463.35
466.78	12166.10
466.96	12060.78
467.14	12156.74
467.32	12468.03
467.51	12505.48
467.69	12025.67
467.87	12231.64
468.05	12524.21
468.23	12133.34
468.41	12556.97
468.60	12411.86
468.78	12800.39
468.96	12491.44
469.14	12592.08
469.32	12746.56
469.50	12718.47
469.69	13004.02
469.87	13191.26
470.05	12741.88
470.23	12954.87
470.41	13212.32
470.59	13282.54
470.77	13399.57
470.95	13296.58
471.14	13422.97
471.32	13043.81
471.50	13434.68
471.68	13444.04
471.86	13502.55
472.04	13654.69
472.22	13848.95
472.40	13970.66
472.58	13898.10
472.77	13844.27
472.95	14003.43
473.13	14356.85
473.31	13837.25
473.49	14265.57
473.67	14040.87
473.85	14303.01
474.03	14422.38
474.21	14389.61
474.39	14422.38
474.57	14417.70
474.75	14787.50
474.93	14934.96
475.12	14839.00
475.30	14794.53
475.48	15077.73
475.66	14949.00
475.84	15115.18
476.02	15197.10
476.20	15199.44
476.38	15733.08
476.56	15541.16
476.74	15901.60
476.92	15653.50
477.10	15936.71
477.28	15920.32
477.46	16159.06
477.64	16159.06
477.82	16388.43
478.00	16837.81
478.18	16833.13
478.36	16762.92
478.54	16992.29
478.72	17186.55
478.90	17158.47
479.08	17514.23
479.26	17310.60
479.44	17556.36
479.62	17596.15
479.80	17984.68
479.98	18040.85
480.16	18312.35
480.34	18111.07
480.52	18445.76
480.70	18738.33
480.88	18237.45
481.06	18773.44
481.24	18700.88
481.41	18977.06
481.59	19033.24
481.77	19374.95
481.95	19550.49
482.13	19527.09
482.31	19281.33
482.49	20229.25
482.67	19791.57
482.85	20252.66
483.03	20229.25
483.21	20699.70
483.39	20599.05
483.57	20676.29
483.74	21053.12
483.92	21010.99
484.10	21099.93
484.28	21680.38
484.46	21589.10
484.64	22164.87
484.82	21584.42
485.00	22120.40
485.18	22541.70
485.35	22394.25
485.53	22862.35
485.71	22993.42
485.89	23372.59
486.07	23222.80
486.25	23175.98
486.43	23417.06
486.61	23683.88
486.78	23814.95
486.96	24060.71
487.14	24643.50
487.32	24411.79
487.50	24620.10
487.68	24589.67
487.85	25184.16
488.03	25476.73
488.21	25579.71
488.39	25792.70
488.57	25806.75
488.75	26022.08
488.92	26286.56
489.10	26424.65
489.28	26827.22
489.46	26670.40
489.64	26831.90
489.81	27035.53
489.99	27105.74
490.17	27660.45
490.35	28163.67
490.53	27779.82
490.70	28290.06
490.88	28383.68
491.06	28610.71
491.24	28599.01
491.41	29039.03
491.59	29062.43
491.77	29216.91
491.95	29418.19
492.13	29429.90
492.30	29680.33
492.48	29825.45
492.66	30190.57
492.84	30295.89
493.01	30405.90
493.19	30368.45
493.37	30815.49
493.54	30628.25
493.72	31140.83
493.90	31218.07
494.08	31960.02
494.25	31578.51
494.43	31461.48
494.61	32278.33
494.79	32137.90
494.96	32091.09
495.14	32371.95
495.32	32795.59
495.49	33163.05
495.67	32957.08
495.85	33198.16
496.02	33844.15
496.20	33427.53
496.38	33809.04
496.55	33600.73
496.73	34550.99
496.91	34099.26
497.09	34272.46
497.26	34740.57
497.44	34843.56
497.62	34909.09
497.79	35662.74
497.97	35625.29
498.14	35756.36
498.32	35920.20
498.50	35875.73
498.67	36519.38
498.85	36275.96
499.03	36538.10
499.20	36540.44
499.38	36453.84
499.56	36568.53
499.73	36720.66
499.91	37055.36
500.08	37530.49
500.26	37572.62
500.44	37188.77
500.61	37586.66
500.79	37139.62
500.97	37544.53
501.14	38122.65
501.32	38101.58
501.49	38132.01
501.67	38366.06
501.84	38670.33
502.02	38202.22
502.20	39002.69
502.37	38855.23
502.55	39456.75
502.72	38878.64
502.90	39267.17
503.07	39138.44
503.25	39868.69
503.43	39552.71
503.60	39407.60
503.78	39854.64
503.95	40119.12
504.13	40137.85
504.30	40332.11
504.48	40425.73
504.65	40289.98
504.83	40528.72
505.01	41015.55
505.18	40643.40
505.36	41289.39
505.53	40830.65
505.71	41612.38
505.88	41265.99
506.06	41088.10
506.23	41684.94
506.41	41942.40
506.58	41574.94
506.76	41972.83
506.93	42064.11
507.11	42241.99
507.28	42251.35
507.46	42012.62
507.63	42499.45
507.81	43096.28
507.98	42572.00
508.16	42564.98
508.33	43253.10
508.50	43100.97
508.68	43164.16
508.85	43578.43
509.03	43225.01
509.20	43599.50
509.38	44252.51
509.55	44156.55
509.73	44165.91
509.90	44119.10
510.08	44238.47
510.25	44755.72
510.42	44348.47
510.60	44774.45
510.77	45186.38
510.95	44800.19
511.12	44739.34
511.30	45504.70
511.47	45130.21
511.64	45551.51
511.82	46150.68
511.99	45268.30
512.17	45574.91
512.34	45574.91
512.51	46014.93
512.69	46295.80
512.86	46321.54
513.04	46335.59
513.21	46213.88
513.38	46382.40
513.56	46808.37
513.73	46478.36
513.90	46651.56
514.08	46445.59
514.25	46817.74
514.43	47342.02
514.60	47295.21
514.77	47597.13
514.95	47353.72
515.12	47494.15
515.29	47346.70
515.47	47746.93
515.64	47997.37
515.81	47913.11
515.99	48126.10
516.16	48329.72
516.33	48018.43
516.51	48041.84
516.68	48296.95
516.85	47941.19
517.03	48491.22
517.20	48652.72
517.37	48645.69
517.54	48493.56
517.72	49123.16
517.89	48603.56
518.06	49055.29
518.24	48945.28
518.41	48706.55
518.58	49240.19
518.75	49125.50
518.93	49169.97
519.10	48971.03
519.27	49471.90
519.45	49457.86
519.62	49766.81
519.79	49366.58
519.96	49698.94
520.14	49710.64
520.31	49780.85
520.48	50052.36
520.65	49783.19
520.83	50497.06
521.00	50656.21
521.17	50047.68
521.34	50239.60
521.52	50653.87
521.69	50796.65
521.86	50852.82
522.03	50679.62
522.20	50820.05
522.38	51093.89
522.55	51210.92
522.72	50932.40
522.89	51019.00
523.07	51470.72
523.24	51189.86
523.41	51653.28
523.58	51320.93
523.75	51664.99
523.92	51208.58
524.10	51744.56
524.27	51723.50
524.44	51924.78
524.61	51763.29
524.78	51917.76
524.96	52135.43
525.13	52105.01
525.30	52172.88
525.47	52006.70
525.64	52165.86
525.81	52034.79
525.98	52425.66
526.16	52177.56
526.33	52580.13
526.50	52856.32
526.67	52247.78
526.84	52722.91
527.01	52743.97
527.18	52582.48
527.36	52844.62
527.53	52935.90
527.70	53223.78
527.87	53134.84
528.04	52954.62
528.21	53153.57
528.38	53092.71
528.55	53401.66
528.72	53408.68
528.89	53361.87
529.07	53261.23
529.24	53286.98
529.41	53460.18
529.58	53511.67
529.75	53301.02
529.92	53698.91
530.09	53455.50
530.26	53734.02
530.43	54113.19
530.60	53490.60
530.77	53574.86
530.94	54064.03
531.11	53832.32
531.28	53986.80
531.46	54024.25
531.63	54113.19
531.80	54057.01
531.97	54195.10
532.14	54251.28
532.31	54162.34
532.48	54349.58
532.65	54326.17
532.82	54433.84
532.99	54649.17
533.16	54426.82
533.33	54396.39
533.50	54733.43
533.67	54658.53
533.84	54225.53
534.01	54946.42
534.18	55037.70
534.35	54948.76
534.52	54789.60
534.69	55145.36
534.86	54958.12
535.03	54824.71
535.20	55023.65
535.37	54976.84
535.54	55068.12
535.71	55007.27
535.88	55208.56
536.05	55033.02
536.22	55524.53
536.38	55554.96
536.55	55271.75
536.72	55161.75
536.89	55278.77
537.06	55341.97
537.23	55526.87
537.40	55302.18
537.57	55641.56
537.74	55381.76
537.91	55887.31
538.08	55732.84
538.25	55571.34
538.42	55620.49
538.59	55875.61
538.75	55770.28
538.92	55980.93
539.09	55889.65
539.26	56025.40
539.43	55941.14
539.60	55997.32
539.77	56266.48
539.94	56268.82
540.11	56226.69
540.28	56413.93
540.44	56332.01
540.61	56308.61
540.78	56212.65
540.95	56186.90
541.12	56093.28
541.29	56114.34
541.46	56378.82
541.62	56444.36
541.79	56444.36
541.96	56219.67
542.13	56516.92
542.30	56631.60
542.47	56687.78
542.63	56734.59
542.80	56619.90
542.97	56872.68
543.14	57038.86
543.31	57293.97
543.48	56987.36
543.64	57282.27
543.81	57343.12
543.98	57031.83
544.15	57055.24
544.32	57350.15
544.48	57324.40
544.65	57214.40
544.82	57368.87
544.99	57450.79
545.16	57296.31
545.32	57298.65
545.49	57394.62
545.66	57647.39
545.83	57511.64
546.00	57668.46
546.16	57565.48
546.33	57357.17
546.50	57198.01
546.67	57560.79
546.83	57415.68
547.00	57595.90
547.17	57450.79
547.34	57609.95
547.50	57780.81
547.67	57925.92
547.84	57874.43
548.00	58010.18
548.17	57748.04
548.34	57907.19
548.51	57879.11
548.67	58190.40
548.84	57879.11
549.01	58019.54
549.18	57783.15
549.34	58159.97
549.51	58110.82
549.68	58323.81
549.84	58138.91
550.01	58429.13
550.18	58138.91
550.34	58286.36
550.51	58298.06
550.68	58225.51
550.84	58108.48
551.01	58321.47
551.18	58335.51
551.34	58379.98
551.51	58288.70
551.68	58597.65
551.84	58454.88
552.01	58342.53
552.18	58592.97
552.34	58117.84
552.51	58534.46
552.68	58375.30
552.84	58450.20
553.01	58674.89
553.18	58529.78
553.34	58646.80
553.51	58501.69
553.67	58660.85
553.84	58761.49
554.01	58922.99
554.17	58829.37
554.34	59061.08
554.51	58773.19
554.67	58838.73
554.84	58892.56
555.00	59040.01
555.17	58824.68
555.33	58766.17
555.50	58721.70
555.67	58883.20
555.83	59016.61
556.00	58972.14
556.16	59178.10
556.33	59143.00
556.50	58871.49
556.66	59161.72
556.83	59110.23
556.99	59145.34
557.16	59147.68
557.32	59444.93
557.49	59587.70
557.65	59180.45
557.82	59264.70
557.98	59245.98
558.15	59054.06
558.32	59189.81
558.48	59166.40
558.65	59400.46
558.81	59358.33
558.98	59554.93
559.14	59496.42
559.31	59290.45
559.47	59517.48
559.64	59629.83
559.80	59625.15
559.97	59477.69
560.13	59473.01
560.30	59669.62
560.46	59681.32
560.63	59627.49
560.79	59489.40
560.96	59765.58
561.12	59746.86
561.29	59784.30
561.45	59723.45
561.61	59545.57
561.78	59826.43
561.94	59393.43
562.11	59859.20
562.27	59753.88
562.44	59908.35
562.60	59863.88
562.77	59714.09
562.93	59632.17
563.10	59849.84
563.26	59667.28
563.42	60191.56
563.59	60011.34
563.75	59852.18
563.92	59746.86
564.08	59821.75
564.24	59955.16
564.41	59971.55
564.57	59945.80
564.74	59730.47
564.90	60140.07
565.07	60046.44
565.23	59938.78
565.39	60023.04
565.56	60151.77
565.72	60011.34
565.88	60097.94
566.05	59985.59
566.21	60051.12
566.38	59936.44
566.54	60065.17
566.70	60266.45
566.87	60308.58
567.03	59913.03
567.19	60193.90
567.36	60039.42
567.52	60102.62
567.68	60390.50
567.85	60324.97
568.01	60259.43
568.17	60221.98
568.34	60217.30
568.50	60240.71
568.66	60301.56
568.83	60533.28
568.99	60095.60
569.15	60179.85
569.32	60247.73
569.48	60093.25
569.64	60203.26
569.81	60308.58
569.97	60037.08
570.13	60219.64
570.30	60095.60
570.46	60250.07
570.62	60247.73
570.78	60275.82
570.95	60418.59
571.11	60416.25
571.27	60161.13
571.43	60610.51
571.60	60507.53
571.76	60474.76
571.92	60507.53
572.09	60528.59
572.25	60355.39
572.41	60409.23
572.57	60420.93
572.74	60451.36
572.90	60495.83
573.06	60582.43
573.22	60610.51
573.38	60467.74
573.55	60559.02
573.71	60474.76
573.87	60486.46
574.03	60289.86
574.20	60608.17
574.36	60479.44
574.52	60463.06
574.68	60547.32
574.84	60746.26
575.01	60720.52
575.17	60402.21
575.33	60493.49
575.49	60474.76
575.65	60725.20
575.82	60739.24
575.98	60566.04
576.14	60692.43
576.30	60762.65
576.46	60633.92
576.62	60566.04
576.79	60561.36
576.95	60453.70
577.11	60697.11
577.27	60523.91
577.43	60685.41
577.59	60729.88
577.75	60589.45
577.92	60395.18
578.08	60582.43
578.24	60849.25
578.40	60788.39
578.56	60720.52
578.72	60619.88
578.88	60647.96
579.04	60898.40
579.21	60767.33
579.37	60807.12
579.53	60860.95
579.69	60587.11
579.85	60727.54
580.01	60610.51
580.17	60591.79
580.33	60912.44
580.49	60748.60
580.65	60846.91
580.82	60666.69
580.98	60676.05
581.14	60647.96
581.30	60884.36
581.46	60739.24
581.62	60795.42
581.78	60739.24
581.94	60954.57
582.10	60722.86
582.26	60542.64
582.42	60559.02
582.58	60793.07
582.74	60631.58
582.90	60657.32
583.06	61027.13
583.22	60664.35
583.38	60657.32
583.54	60898.40
583.70	60870.31
583.86	60992.02
584.02	60640.94
584.18	60982.66
584.34	60830.52
584.50	60935.85
584.66	60704.13
584.82	60523.91
584.98	61080.96
585.14	61006.06
585.30	60821.16
585.46	60954.57
585.62	60837.54
585.78	60811.80
585.94	60659.66
586.10	60935.85
586.26	60856.27
586.42	60860.95
586.58	61003.72
586.74	61008.40
586.90	60905.42
587.06	60793.07
587.22	61048.19
587.38	60928.83
587.54	60865.63
587.70	61219.05
587.86	60926.49
588.02	60821.16
588.18	60921.80
588.34	60963.93
588.49	60963.93
