SpectraSuite Data File
++++++++++++++++++++++++++++++++++++
Date: Fri Oct 25 11:25:17 EDT 2013
User: price-jones
Dark Spectrum Present: No
Reference Spectrum Present: No
Number of Sampled Component Spectra: 1
Spectrometers: USB2+H05261
Integration Time (usec): 100000 (USB2+H05261)
Spectra Averaged: 1 (USB2+H05261)
Boxcar Smoothing: 0 (USB2+H05261)
Correct for Electrical Dark: No (USB2+H05261)
Strobe/Lamp Enabled: No (USB2+H05261)
Correct for Detector Non-linearity: No (USB2+H05261)
Correct for Stray Light: No (USB2+H05261)
Number of Pixels in Processed Spectrum: 2048
>>>>>Begin Processed Spectral Data<<<<<
365.73	227.03
365.92	227.03
366.12	227.03
366.32	215.33
366.52	98.30
366.72	161.50
366.91	100.64
367.11	74.90
367.31	58.51
367.51	128.73
367.70	98.30
367.90	205.97
368.10	149.79
368.30	217.67
368.49	208.31
368.69	175.54
368.89	105.32
369.09	161.50
369.28	168.52
369.48	166.18
369.68	147.45
369.87	224.69
370.07	196.60
370.27	236.39
370.47	308.95
370.66	545.34
370.86	573.43
371.06	667.05
371.25	645.99
371.45	676.41
371.65	739.61
371.84	657.69
372.04	692.80
372.24	788.76
372.44	695.14
372.63	716.20
372.83	784.08
373.03	788.76
373.22	643.65
373.42	697.48
373.62	833.23
373.81	929.19
374.01	830.89
374.21	894.08
374.40	779.40
374.60	823.87
374.79	875.36
374.99	805.14
375.19	851.96
375.38	814.51
375.58	823.87
375.78	842.59
375.97	887.06
376.17	903.45
376.37	912.81
376.56	917.49
376.76	854.30
376.95	837.91
377.15	891.74
377.35	870.68
377.54	837.91
377.74	945.58
377.93	940.90
378.13	964.30
378.33	894.08
378.52	931.53
378.72	1006.43
378.91	877.70
379.11	910.47
379.31	968.98
379.50	880.04
379.70	1015.79
379.89	910.47
380.09	983.02
380.28	957.28
380.48	978.34
380.68	903.45
380.87	1015.79
381.07	1055.58
381.26	1020.47
381.46	1078.99
381.65	1088.35
381.85	1039.20
382.04	1064.94
382.24	1020.47
382.43	1083.67
382.63	1090.69
382.83	1071.97
383.02	1109.41
383.22	1025.15
383.41	1165.59
383.61	1146.86
383.80	1060.26
384.00	1069.62
384.19	1053.24
384.39	1069.62
384.58	1160.91
384.78	1158.57
384.97	1214.74
385.17	1263.89
385.36	1149.20
385.56	1153.88
385.75	1135.16
385.95	1135.16
386.14	1275.59
386.34	1214.74
386.53	1268.57
386.72	1277.93
386.92	1299.00
387.11	1240.48
387.31	1245.16
387.50	1217.08
387.70	1224.10
387.89	1247.51
388.09	1315.38
388.28	1308.36
388.48	1245.16
388.67	1383.26
388.86	1317.72
389.06	1291.98
389.25	1387.94
389.45	1334.11
389.64	1294.32
389.84	1380.92
390.03	1280.27
390.22	1418.36
390.42	1423.05
390.61	1345.81
390.81	1385.60
391.00	1453.47
391.19	1441.77
391.39	1458.15
391.58	1497.94
391.78	1481.56
391.97	1514.33
392.16	1488.58
392.36	1401.98
392.55	1423.05
392.75	1472.20
392.94	1577.52
393.13	1507.30
393.33	1537.73
393.52	1537.73
393.71	1647.74
393.91	1561.14
394.10	1565.82
394.29	1612.63
394.49	1666.46
394.68	1652.42
394.88	1596.25
395.07	1661.78
395.26	1645.40
395.46	1687.53
395.65	1741.36
395.84	1757.74
396.04	1727.32
396.23	1750.72
396.42	1732.00
396.62	1696.89
396.81	1746.04
397.00	1724.97
397.19	1750.72
397.39	1860.73
397.58	1788.17
397.77	1844.34
397.97	1968.39
398.16	1928.60
398.35	1837.32
398.55	1792.85
398.74	1823.28
398.93	1923.92
399.12	1820.94
399.32	1860.73
399.51	1907.54
399.70	1966.05
399.90	2050.31
400.09	1952.01
400.28	2078.40
400.47	1994.14
400.67	2057.33
400.86	2059.67
401.05	2064.35
401.24	2073.71
401.44	2122.87
401.63	2040.95
401.82	2080.74
402.01	2162.66
402.21	2162.66
402.40	2148.61
402.59	2139.25
402.78	2228.19
402.97	2282.02
403.17	2253.94
403.36	2214.15
403.55	2251.60
403.74	2436.50
403.93	2272.66
404.13	2296.07
404.32	2300.75
404.51	2331.17
404.70	2303.09
404.89	2319.47
405.09	2562.89
405.28	2497.35
405.47	2495.01
405.66	2523.10
405.85	2427.14
406.05	2530.12
406.24	2476.29
406.43	2583.95
406.62	2581.61
406.81	2633.10
407.00	2595.65
407.20	2434.16
407.39	2647.15
407.58	2792.26
407.77	2684.59
407.96	2698.64
408.15	2747.79
408.34	2757.15
408.54	2686.94
408.73	2642.46
408.92	2729.06
409.11	2834.39
409.30	2874.18
409.49	2843.75
409.68	2853.11
409.87	2850.77
410.07	2960.78
410.26	2937.37
410.45	3014.61
410.64	2981.84
410.83	3042.70
411.02	3248.66
411.21	3101.21
411.40	3084.83
411.59	3243.98
411.78	3192.49
411.98	3176.11
412.17	3248.66
412.36	3112.91
412.55	3358.67
412.74	3346.97
412.93	3389.10
413.12	3321.22
413.31	3435.91
413.50	3344.63
413.69	3597.40
413.88	3501.44
414.07	3473.36
414.26	3597.40
414.45	3559.95
414.64	3662.94
414.83	3782.31
415.02	3801.03
415.22	3772.94
415.41	3880.61
415.60	3772.94
415.79	3843.16
415.98	3957.85
416.17	4018.70
416.36	4056.15
416.55	3911.04
416.74	4004.66
416.93	4063.17
417.12	4032.74
417.31	4241.05
417.50	4217.65
417.69	4252.75
417.88	4248.07
418.07	4236.37
418.26	4196.58
418.45	4353.40
418.64	4423.61
418.83	4320.63
419.02	4360.42
419.21	4503.19
419.39	4596.81
419.58	4500.85
419.77	4652.98
419.96	4634.26
420.15	4697.46
420.34	4622.56
420.53	4547.66
420.72	4650.64
420.91	4709.16
421.10	4589.79
421.29	4844.91
421.48	4528.94
421.67	4727.88
421.86	4889.38
422.05	4767.67
422.24	4751.29
422.43	4760.65
422.61	4856.61
422.80	4791.08
422.99	4990.02
423.18	4851.93
423.37	4870.65
423.56	4840.23
423.75	4983.00
423.94	4697.46
424.13	4463.40
424.32	4777.03
424.50	4985.34
424.69	4915.12
424.88	5116.41
425.07	4952.57
425.26	4987.68
425.45	4943.21
425.64	4910.44
425.83	4917.47
426.01	4975.98
426.20	4929.17
426.39	5032.15
426.58	5174.92
426.77	5069.60
426.96	5032.15
427.15	5170.24
427.33	5219.39
427.52	5160.88
427.71	5132.79
427.90	5259.18
428.09	5369.19
428.28	5385.57
428.46	5268.55
428.65	5221.74
428.84	5582.18
429.03	5577.50
429.22	5324.72
429.40	5345.78
429.59	5404.30
429.78	5331.74
429.97	5296.63
430.16	5488.56
430.34	5437.06
430.53	5547.07
430.72	5556.43
430.91	5554.09
431.10	5530.69
431.28	5687.50
431.47	5610.26
431.66	5633.67
431.85	5788.14
432.03	5816.23
432.22	5746.02
432.41	5863.04
432.60	5804.53
432.79	5748.36
432.97	5886.45
433.16	6073.69
433.35	5940.28
433.54	5926.24
433.72	6090.07
433.91	6132.20
434.10	6293.70
434.28	6038.58
434.47	6195.40
434.66	6277.32
434.85	6146.25
435.03	6291.36
435.22	6017.52
435.41	6417.75
435.59	6310.08
435.78	6265.61
435.97	6494.99
436.16	6455.20
436.34	6373.28
436.53	6537.12
436.72	6513.71
436.90	6328.81
437.09	6511.37
437.28	6382.64
437.46	6560.52
437.65	6499.67
437.84	6684.57
438.02	6700.95
438.21	6738.40
438.40	6698.61
438.58	6885.86
438.77	6909.26
438.96	6916.28
439.14	7047.35
439.33	7112.89
439.52	7180.76
439.70	7253.32
439.89	7431.20
440.08	7148.00
440.26	7314.17
440.45	7236.94
440.63	7538.87
440.82	7606.74
441.01	7424.18
441.19	7583.34
441.38	7599.72
441.57	7784.62
441.75	7948.46
441.94	7955.48
442.12	8016.33
442.31	7985.91
442.50	7967.18
442.68	8112.30
442.87	7873.56
443.05	8072.51
443.24	8163.79
443.43	8107.62
443.61	8140.38
443.80	8264.43
443.98	7967.18
444.17	7646.53
444.35	8100.59
444.54	8231.66
444.73	8360.39
444.91	8306.56
445.10	8269.11
445.28	8290.18
445.47	8248.05
445.65	8299.54
445.84	8437.63
446.02	8339.33
446.21	8245.71
446.39	8226.98
446.58	8425.93
446.77	8264.43
446.95	8290.18
447.14	8346.35
447.32	8475.08
447.51	8418.91
447.69	8360.39
447.88	8360.39
448.06	8418.91
448.25	8451.67
448.43	8423.59
448.62	8596.79
448.80	8540.61
448.99	8528.91
449.17	8592.11
449.36	8674.03
449.54	8840.20
449.73	9048.51
449.91	8915.10
450.10	8994.68
450.28	8877.65
450.46	8954.89
450.65	8828.50
450.83	9156.18
451.02	8971.27
451.20	9109.36
451.39	9128.09
451.57	8908.08
451.76	9006.38
451.94	9149.15
452.13	9226.39
452.31	9521.30
452.49	8894.04
452.68	9336.40
452.86	9280.22
453.05	9425.34
453.23	9394.91
453.42	9280.22
453.60	9380.87
453.78	9504.92
453.97	9383.21
454.15	9497.89
454.34	9308.31
454.52	9753.01
454.70	9661.73
454.89	9577.47
455.07	9757.69
455.26	9799.82
455.44	9982.38
455.62	10125.16
455.81	9720.24
455.99	9963.66
456.17	10068.98
456.36	10129.84
456.54	10197.71
456.73	10160.27
456.91	10345.17
457.09	10462.19
457.28	10413.04
457.46	10401.34
457.64	10403.68
457.83	10270.27
458.01	10377.94
458.19	10553.48
458.38	10537.09
458.56	10834.34
458.74	10789.87
458.93	10504.32
459.11	10544.11
459.29	10726.68
459.48	10700.93
459.66	10616.67
459.84	10808.59
460.03	11126.91
460.21	10988.82
460.39	10724.33
460.57	11080.10
460.76	11087.12
460.94	11218.19
461.12	11059.03
461.31	11164.36
461.49	11183.08
461.67	11206.48
461.85	11391.39
462.04	11133.93
462.22	11658.21
462.40	11536.50
462.59	11438.20
462.77	11232.23
462.95	11597.35
463.13	11597.35
463.32	11468.62
463.50	11513.10
463.68	11524.80
463.86	11737.79
464.05	11634.80
464.23	11602.04
464.41	11901.62
464.59	11693.32
464.78	12187.17
464.96	12046.74
465.14	11487.35
465.32	11819.71
465.50	12020.99
465.69	12203.55
465.87	11887.58
466.05	12203.55
466.23	12131.00
466.41	12112.27
466.60	12329.94
466.78	12046.74
466.96	12079.50
467.14	12322.92
467.32	12325.26
467.51	12568.68
467.69	12058.44
467.87	12479.74
468.05	12549.95
468.23	12479.74
468.41	12329.94
468.60	12327.60
468.78	12479.74
468.96	12528.89
469.14	12695.07
469.32	13048.49
469.50	12493.78
469.69	12952.52
469.87	13055.51
470.05	13315.31
470.23	13076.57
470.41	13104.66
470.59	13352.76
470.77	13172.54
470.95	13085.94
471.14	13528.30
471.32	13130.41
471.50	13481.49
471.68	13385.52
471.86	13841.93
472.04	13645.32
472.22	14181.31
472.40	13493.19
472.58	13886.40
472.77	13827.88
472.95	13951.93
473.13	14485.58
473.31	13973.00
473.49	14118.11
473.67	13902.78
473.85	14134.50
474.03	14436.42
474.21	14628.35
474.39	14581.54
474.57	14427.06
474.75	14979.43
474.93	14995.81
475.12	14724.31
475.30	15007.52
475.48	14939.64
475.66	15232.21
475.84	14841.34
476.02	15524.77
476.20	14965.39
476.38	15564.56
476.56	15805.64
476.74	15971.82
476.92	15690.95
477.10	15637.12
477.28	16460.99
477.46	16208.21
477.64	16093.52
477.82	16575.67
478.00	16933.78
478.18	16606.10
478.36	16886.97
478.54	17277.83
478.72	16765.26
478.90	17130.38
479.08	17448.69
479.26	17399.54
479.44	17530.61
479.62	17745.94
479.80	17830.20
479.98	18162.56
480.16	18298.31
480.34	18031.49
480.52	18508.96
480.70	18874.08
480.88	18155.54
481.06	18377.89
481.24	18670.45
481.41	19227.50
481.59	19239.20
481.77	19185.37
481.95	19323.46
482.13	19461.55
482.31	19548.15
482.49	20121.59
482.67	20210.53
482.85	20109.88
483.03	20636.50
483.21	20720.76
483.39	20662.25
483.57	20617.78
483.74	21252.06
483.92	21207.59
484.10	21130.36
484.28	21338.66
484.46	21633.57
484.64	22242.11
484.82	21596.12
485.00	22085.30
485.18	22855.33
485.35	22806.18
485.53	22794.48
485.71	22852.99
485.89	23358.55
486.07	23194.71
486.25	23344.50
486.43	23449.83
486.61	23845.38
486.78	23983.47
486.96	24194.12
487.14	24512.43
487.32	24233.91
487.50	24828.40
487.68	24795.64
487.85	24973.52
488.03	25380.77
488.21	25811.43
488.39	25436.94
488.57	25816.11
488.75	26279.54
488.92	26455.08
489.10	26527.63
489.28	26761.69
489.46	26883.39
489.64	27182.98
489.81	27239.15
489.99	27543.42
490.17	27653.43
490.35	27789.18
490.53	27885.14
490.70	27969.40
490.88	27999.83
491.06	28247.93
491.24	28549.85
491.41	28922.00
491.59	28814.34
491.77	28898.59
491.95	29209.89
492.13	29390.11
492.30	30228.02
492.48	29626.50
492.66	30134.40
492.84	30038.44
493.01	30586.12
493.19	30263.13
493.37	30981.67
493.54	31304.67
493.72	31353.82
493.90	31161.89
494.08	31264.88
494.25	32006.83
494.43	31749.37
494.61	31955.33
494.79	32280.67
494.96	32091.09
495.14	32856.44
495.32	32835.38
495.49	33095.18
495.67	32886.87
495.85	33034.32
496.02	33663.93
496.20	33993.94
496.38	33991.60
496.55	33408.81
496.73	34682.06
496.91	34431.62
497.09	34689.08
497.26	34862.28
497.44	34712.49
497.62	35023.78
497.79	35091.65
497.97	35115.06
498.14	35496.56
498.32	36137.87
498.50	35988.08
498.67	36229.15
498.85	36123.83
499.03	36816.63
499.20	36355.54
499.38	36524.06
499.56	36769.82
499.73	36650.45
499.91	37429.85
500.08	37163.03
500.26	36999.19
500.44	37490.70
500.61	37769.22
500.79	37352.61
500.97	37876.89
501.14	38492.45
501.32	38354.36
501.49	38251.38
501.67	38436.28
501.84	38815.44
502.02	38745.23
502.20	38651.61
502.37	38946.51
502.55	39281.21
502.72	39234.40
502.90	39246.10
503.07	39082.27
503.25	39505.90
503.43	39625.27
503.60	39632.29
503.78	40187.00
503.95	40098.06
504.13	40313.39
504.30	39725.91
504.48	39866.34
504.65	40456.16
504.83	40767.45
505.01	40795.54
505.18	40849.37
505.36	41256.62
505.53	41298.75
505.71	41305.77
505.88	41375.99
506.06	41249.60
506.23	41951.76
506.41	41392.37
506.58	41869.84
506.76	42059.43
506.93	42550.94
507.11	42204.54
507.28	42349.65
507.46	42555.62
507.63	42597.75
507.81	42848.19
507.98	42651.58
508.16	42810.74
508.33	43253.10
508.50	43180.54
508.68	43428.64
508.85	43641.63
509.03	43573.75
509.20	43573.75
509.38	44308.68
509.55	43894.41
509.73	44226.76
509.90	44491.24
510.08	44304.00
510.25	44673.81
510.42	44467.84
510.60	44765.09
510.77	44900.84
510.95	45340.86
511.12	44406.98
511.30	45167.66
511.47	45003.82
511.64	45336.18
511.82	45432.14
511.99	44940.63
512.17	45621.72
512.34	45567.89
512.51	46038.34
512.69	46052.38
512.86	45989.19
513.04	45996.21
513.21	46464.32
513.38	46789.65
513.56	46326.22
513.73	46735.82
513.90	46869.23
514.08	46574.32
514.25	46990.94
514.43	47122.01
514.60	47213.29
514.77	47124.35
514.95	47763.31
515.12	47517.56
515.29	47147.75
515.47	47849.91
515.64	47686.07
515.81	47634.58
515.99	48074.60
516.16	48392.92
516.33	48107.37
516.51	48514.62
516.68	47901.40
516.85	48212.70
517.03	48715.91
517.20	48416.32
517.37	48474.84
517.54	48617.61
517.72	48598.88
517.89	48949.96
518.06	48772.08
518.24	49155.93
518.41	48882.09
518.58	49312.75
518.75	48968.69
518.93	49263.60
519.10	48912.52
519.27	49598.29
519.45	49523.40
519.62	49567.87
519.79	49886.18
519.96	49663.83
520.14	50026.61
520.31	49844.05
520.48	50202.15
520.65	50042.99
520.83	50335.56
521.00	50672.60
521.17	50569.61
521.34	50272.37
521.52	50597.70
521.69	50616.43
521.86	50855.16
522.03	51079.85
522.20	50836.44
522.38	51255.39
522.55	51250.71
522.72	51166.45
522.89	50667.92
523.07	51526.89
523.24	51208.58
523.41	51517.53
523.58	51281.14
523.75	51466.04
523.92	51690.73
524.10	51608.81
524.27	51786.69
524.44	51889.68
524.61	51669.67
524.78	52018.41
524.96	52004.36
525.13	52140.11
525.30	52526.30
525.47	52238.42
525.64	52456.09
525.81	52060.54
525.98	52294.59
526.16	52198.63
526.33	52582.48
526.50	52835.25
526.67	52615.24
526.84	52650.35
527.01	52584.82
527.18	52601.20
527.36	52900.79
527.53	52914.83
527.70	52882.06
527.87	53146.54
528.04	53071.65
528.21	53191.01
528.38	53020.16
528.55	53441.45
528.72	53230.80
528.89	53364.21
529.07	53095.05
529.24	53237.83
529.41	53652.10
529.58	53478.90
529.75	53130.16
529.92	53776.15
530.09	53731.68
530.26	53570.18
530.43	53897.86
530.60	53682.53
530.77	53762.11
530.94	53778.49
531.11	53797.21
531.28	53984.46
531.46	54246.60
531.63	54176.38
531.80	53986.80
531.97	54096.80
532.14	54148.29
532.31	54195.10
532.48	54466.61
532.65	54401.07
532.82	54454.90
532.99	54506.40
533.16	54293.41
533.33	54506.40
533.50	54695.98
533.67	54576.61
533.84	54698.32
534.01	54415.11
534.18	54710.02
534.35	54880.88
534.52	54930.03
534.69	54953.44
534.86	55047.06
535.03	54805.98
535.20	54845.77
535.37	54995.57
535.54	55358.35
535.71	55178.13
535.88	55372.39
536.05	55229.62
536.22	55304.52
536.38	55304.52
536.55	55524.53
536.72	55185.15
536.89	55494.10
537.06	55456.65
537.23	55519.85
537.40	55278.77
537.57	55625.17
537.74	55573.68
537.91	55906.04
538.08	55889.65
538.25	55636.87
538.42	55903.70
538.59	56102.64
538.75	55524.53
538.92	55796.03
539.09	56112.00
539.26	55889.65
539.43	55894.33
539.60	56144.77
539.77	55992.64
539.94	56240.73
540.11	56165.84
540.28	56172.86
540.44	56392.87
540.61	56287.54
540.78	56420.95
540.95	56182.22
541.12	56044.13
541.29	56212.65
541.46	56444.36
541.62	56486.49
541.79	56610.54
541.96	56222.01
542.13	56481.81
542.30	56486.49
542.47	56793.10
542.63	56577.77
542.80	56659.69
542.97	57041.20
543.14	57083.33
543.31	57155.88
543.48	57097.37
543.64	57333.76
543.81	57202.69
543.98	57132.48
544.15	57003.75
544.32	57127.80
544.48	57368.87
544.65	57141.84
544.82	57263.55
544.99	57195.67
545.16	57324.40
545.32	57024.81
545.49	57509.30
545.66	57214.40
545.83	57214.40
546.00	57621.65
546.16	57242.48
546.33	57359.51
546.50	57322.06
546.67	57600.58
546.83	57317.38
547.00	57513.98
547.17	57324.40
547.34	57717.61
547.50	57811.23
547.67	58017.20
547.84	58056.99
548.00	57963.37
548.17	57975.07
548.34	58033.58
548.51	57989.11
548.67	58080.39
548.84	57937.62
549.01	58073.37
549.18	58152.95
549.34	57986.77
549.51	58241.89
549.68	58190.40
549.84	58368.28
550.01	58166.99
550.18	58099.12
550.34	58291.04
550.51	58351.90
550.68	58316.79
550.84	57975.07
551.01	58288.70
551.18	58281.68
551.34	58508.71
551.51	58309.77
551.68	58326.15
551.84	58403.39
552.01	58398.71
552.18	58279.34
552.34	58227.85
552.51	58555.52
552.68	58394.03
552.84	58569.57
553.01	58906.60
553.18	58754.47
553.34	58754.47
553.51	58679.57
553.67	58365.94
553.84	58953.41
554.01	58885.54
554.17	58855.11
554.34	58894.90
554.51	58855.11
554.67	58784.90
554.84	58796.60
555.00	58766.17
555.17	58784.90
555.33	58820.00
555.50	58812.98
555.67	58740.42
555.83	58913.62
556.00	59037.67
556.16	59348.96
556.33	59084.48
556.50	59124.27
556.66	59114.91
556.83	58941.71
556.99	59306.83
557.16	59358.33
557.32	59208.53
557.49	59465.99
557.65	59100.87
557.82	59316.20
557.98	59334.92
558.15	59313.86
558.32	59306.83
558.48	59253.00
558.65	59370.03
558.81	59178.10
558.98	59384.07
559.14	59458.97
559.31	59316.20
559.47	59442.59
559.64	59437.90
559.80	59636.85
559.97	59578.34
560.13	59318.54
560.30	59501.10
560.46	59828.77
560.63	59655.57
560.79	59545.57
560.96	59625.15
561.12	59772.60
561.29	59678.98
561.45	59929.42
561.61	59655.57
561.78	59501.10
561.94	59515.14
562.11	59709.41
562.27	59643.87
562.44	59763.24
562.60	59697.70
562.77	59831.11
562.93	59573.66
563.10	59915.37
563.26	59821.75
563.42	60001.97
563.59	59999.63
563.75	59842.82
563.92	59788.98
564.08	59934.10
564.24	60104.96
564.41	59894.31
564.57	60168.15
564.74	60081.55
564.90	59985.59
565.07	59992.61
565.23	59992.61
565.39	59929.42
565.56	60130.70
565.72	59990.27
565.88	60090.91
566.05	59854.52
566.21	59842.82
566.38	60299.22
566.54	59983.25
566.70	60006.65
566.87	60336.67
567.03	60004.31
567.19	60219.64
567.36	60032.40
567.52	59927.08
567.68	60369.44
567.85	60039.42
568.01	60402.21
568.17	60142.41
568.34	60521.57
568.50	60079.21
568.66	60243.05
568.83	60137.72
568.99	60221.98
569.15	60418.59
569.32	60200.92
569.48	60189.22
569.64	60441.99
569.81	60343.69
569.97	60165.81
570.13	60439.65
570.30	60214.96
570.46	60212.62
570.62	60229.01
570.78	60355.39
570.95	60278.16
571.11	60329.65
571.27	60259.43
571.43	60374.12
571.60	60385.82
571.76	60456.04
571.92	60266.45
572.09	60343.69
572.25	60425.61
572.41	60383.48
572.57	60467.74
572.74	60589.45
572.90	60463.06
573.06	60509.87
573.22	60306.24
573.38	60619.88
573.55	60479.44
573.71	60704.13
573.87	60528.59
574.03	60528.59
574.20	60584.77
574.36	60406.89
574.52	60598.81
574.68	60416.25
574.84	60566.04
575.01	60638.60
575.17	60561.36
575.33	60552.00
575.49	60615.19
575.65	60535.62
575.82	60750.94
575.98	60683.07
576.14	60774.35
576.30	60669.03
576.46	60690.09
576.62	60748.60
576.79	60678.39
576.95	60390.50
577.11	60626.90
577.27	60722.86
577.43	60725.20
577.59	60542.64
577.75	60664.35
577.92	60629.24
578.08	60559.02
578.24	60835.20
578.40	60720.52
578.56	60867.97
578.72	60582.43
578.88	60790.73
579.04	60732.22
579.21	60512.21
579.37	60938.19
579.53	60849.25
579.69	60584.77
579.85	60636.26
580.01	60886.70
580.17	60601.15
580.33	60762.65
580.49	60818.82
580.65	60757.97
580.82	60736.90
580.98	60750.94
581.14	60793.07
581.30	60821.16
581.46	60774.35
581.62	60753.29
581.78	60760.31
581.94	60767.33
582.10	60540.30
582.26	60678.39
582.42	60734.56
582.58	60851.59
582.74	60795.42
582.90	60783.71
583.06	60858.61
583.22	60563.70
583.38	60779.03
583.54	60666.69
583.70	60797.76
583.86	60711.16
584.02	60720.52
584.18	61022.45
584.34	60924.14
584.50	60767.33
584.66	60832.86
584.82	60397.52
584.98	61043.51
585.14	60867.97
585.30	60645.62
585.46	60835.20
585.62	60940.53
585.78	60851.59
585.94	60942.87
586.10	60804.78
586.26	60987.34
586.42	60893.72
586.58	60865.63
586.74	60912.44
586.90	60949.89
587.06	60800.10
587.22	61001.38
587.38	60683.07
587.54	61027.13
587.70	61041.17
587.86	60793.07
588.02	60837.54
588.18	61048.19
588.34	61008.40
588.49	60816.48
