SpectraSuite Data File
++++++++++++++++++++++++++++++++++++
Date: Fri Oct 25 11:33:11 EDT 2013
User: price-jones
Dark Spectrum Present: No
Reference Spectrum Present: No
Number of Sampled Component Spectra: 1
Spectrometers: USB2+H05261
Integration Time (usec): 100000 (USB2+H05261)
Spectra Averaged: 1 (USB2+H05261)
Boxcar Smoothing: 0 (USB2+H05261)
Correct for Electrical Dark: No (USB2+H05261)
Strobe/Lamp Enabled: No (USB2+H05261)
Correct for Detector Non-linearity: No (USB2+H05261)
Correct for Stray Light: No (USB2+H05261)
Number of Pixels in Processed Spectrum: 2048
>>>>>Begin Processed Spectral Data<<<<<
365.73	227.03
365.92	227.03
366.12	227.03
366.32	196.60
366.52	224.69
366.72	210.65
366.91	152.13
367.11	163.84
367.31	100.64
367.51	194.26
367.70	238.73
367.90	220.01
368.10	187.24
368.30	194.26
368.49	182.56
368.69	187.24
368.89	184.90
369.09	119.37
369.28	276.18
369.48	224.69
369.68	231.71
369.87	241.08
370.07	168.52
370.27	238.73
370.47	327.68
370.66	505.56
370.86	510.24
371.06	421.30
371.25	564.07
371.45	493.85
371.65	571.09
371.84	596.84
372.04	589.82
372.24	601.52
372.44	587.47
372.63	543.00
372.83	589.82
373.03	631.94
373.22	547.69
373.42	636.63
373.62	624.92
373.81	669.39
374.01	664.71
374.21	634.29
374.40	622.58
374.60	608.54
374.79	657.69
374.99	587.47
375.19	671.73
375.38	613.22
375.58	589.82
375.78	617.90
375.97	725.57
376.17	699.82
376.37	660.03
376.56	653.01
376.76	617.90
376.95	676.41
377.15	674.07
377.35	772.38
377.54	692.80
377.74	615.56
377.93	653.01
378.13	699.82
378.33	695.14
378.52	631.94
378.72	781.74
378.91	697.48
379.11	681.10
379.31	713.86
379.50	793.44
379.70	725.57
379.89	760.67
380.09	641.31
380.28	685.78
380.48	697.48
380.68	744.29
380.87	779.40
381.07	765.36
381.26	805.14
381.46	744.29
381.65	800.46
381.85	873.02
382.04	725.57
382.24	847.27
382.43	847.27
382.63	758.33
382.83	772.38
383.02	809.83
383.22	786.42
383.41	716.20
383.61	798.12
383.80	772.38
384.00	849.61
384.19	837.91
384.39	751.31
384.58	844.93
384.78	877.70
384.97	847.27
385.17	807.48
385.36	805.14
385.56	786.42
385.75	830.89
385.95	849.61
386.14	854.30
386.34	844.93
386.53	891.74
386.72	961.96
386.92	990.05
387.11	866.00
387.31	849.61
387.50	880.04
387.70	779.40
387.89	898.77
388.09	896.43
388.28	870.68
388.48	910.47
388.67	915.15
388.86	880.04
389.06	931.53
389.25	901.11
389.45	978.34
389.64	929.19
389.84	926.85
390.03	957.28
390.22	1022.81
390.42	931.53
390.61	1001.75
390.81	931.53
391.00	999.41
391.19	1001.75
391.39	966.64
391.58	1036.86
391.78	961.96
391.97	1025.15
392.16	957.28
392.36	1109.41
392.55	1081.33
392.75	1067.28
392.94	1006.43
393.13	1027.50
393.33	1034.52
393.52	1097.71
393.71	1050.90
393.91	1139.84
394.10	1109.41
394.29	1118.78
394.49	1139.84
394.68	1165.59
394.88	1132.82
395.07	1158.57
395.26	1156.22
395.46	1219.42
395.65	1125.80
395.84	1210.06
396.04	1256.87
396.23	1191.33
396.42	1174.95
396.62	1268.57
396.81	1217.08
397.00	1193.67
397.19	1245.16
397.39	1186.65
397.58	1287.29
397.77	1315.38
397.97	1240.48
398.16	1153.88
398.35	1308.36
398.55	1270.91
398.74	1385.60
398.93	1416.02
399.12	1242.82
399.32	1308.36
399.51	1343.47
399.70	1406.66
399.90	1352.83
400.09	1341.13
400.28	1376.24
400.47	1444.11
400.67	1378.58
400.86	1481.56
401.05	1413.68
401.24	1390.28
401.44	1397.30
401.63	1474.54
401.82	1514.33
402.01	1373.89
402.21	1437.09
402.40	1519.01
402.59	1444.11
402.78	1481.56
402.97	1460.49
403.17	1448.79
403.36	1575.18
403.55	1561.14
403.74	1636.03
403.93	1643.06
404.13	1533.05
404.32	1582.20
404.51	1650.08
404.70	1600.93
404.89	1631.35
405.09	1650.08
405.28	1645.40
405.47	1783.49
405.66	1720.29
405.85	1710.93
406.05	1678.16
406.24	1741.36
406.43	1708.59
406.62	1781.15
406.81	1898.17
407.00	1834.98
407.20	1811.57
407.39	1790.51
407.58	1975.41
407.77	1849.02
407.96	1816.26
408.15	1926.26
408.34	1872.43
408.54	2026.90
408.73	1961.37
408.92	2001.16
409.11	1975.41
409.30	1973.07
409.49	1870.09
409.68	1944.99
409.87	2012.86
410.07	2031.58
410.26	2106.48
410.45	2073.71
410.64	2078.40
410.83	2157.97
411.02	2120.53
411.21	2113.50
411.40	2179.04
411.59	2249.25
411.78	2169.68
411.98	2267.98
412.17	2289.04
412.36	2249.25
412.55	2260.96
412.74	2354.58
412.93	2349.90
413.12	2335.85
413.31	2476.29
413.50	2300.75
413.69	2356.92
413.88	2487.99
414.07	2356.92
414.26	2581.61
414.45	2546.50
414.64	2534.80
414.83	2541.82
415.02	2619.06
415.22	2612.04
415.41	2679.91
415.60	2663.53
415.79	2682.25
415.98	2670.55
416.17	2745.45
416.36	2764.17
416.55	2775.88
416.74	2773.53
416.93	2766.51
417.12	2771.19
417.31	2930.35
417.50	2892.90
417.69	2949.08
417.88	2939.71
418.07	2930.35
418.26	3012.27
418.45	3023.97
418.64	3087.17
418.83	3061.42
419.02	3117.59
419.21	3098.87
419.39	3145.68
419.58	3035.67
419.77	3080.14
419.96	3183.13
420.15	3152.70
420.34	3321.22
420.53	3171.43
420.72	3417.18
420.91	3199.51
421.10	3269.73
421.29	3211.22
421.48	3276.75
421.67	3293.13
421.86	3396.12
422.05	3332.92
422.24	3309.52
422.43	3379.73
422.61	3424.20
422.80	3508.46
422.99	3332.92
423.18	3276.75
423.37	3463.99
423.56	3438.25
423.75	3445.27
423.94	3276.75
424.13	3227.60
424.32	3248.66
424.50	3541.23
424.69	3550.59
424.88	3426.54
425.07	3414.84
425.26	3435.91
425.45	3389.10
425.64	3421.86
425.83	3529.53
426.01	3562.30
426.20	3473.36
426.39	3496.76
426.58	3435.91
426.77	3653.58
426.96	3684.00
427.15	3471.01
427.33	3487.40
427.52	3625.49
427.71	3658.26
427.90	3648.90
428.09	3709.75
428.28	3740.18
428.46	3772.94
428.65	3758.90
428.84	3728.47
429.03	3915.72
429.22	3639.53
429.40	3831.46
429.59	3918.06
429.78	3695.71
429.97	3679.32
430.16	3770.60
430.34	3962.53
430.53	3932.10
430.72	3826.78
430.91	3803.37
431.10	3840.82
431.28	3922.74
431.47	3997.64
431.66	4002.32
431.85	4030.40
432.03	4053.81
432.22	4159.13
432.41	4126.36
432.60	4081.89
432.79	3999.98
432.97	4217.65
433.16	4014.02
433.35	4124.02
433.54	4194.24
433.72	4243.39
433.91	4133.39
434.10	4250.41
434.28	4255.09
434.47	4236.37
434.66	4311.27
434.85	4180.20
435.03	4248.07
435.22	4390.84
435.41	4489.15
435.59	4409.57
435.78	4519.57
435.97	4470.42
436.16	4402.55
436.34	4386.16
436.53	4557.02
436.72	4643.62
436.90	4437.66
437.09	4554.68
437.28	4557.02
437.46	4524.26
437.65	4643.62
437.84	4634.26
438.02	4692.77
438.21	4638.94
438.40	4641.28
438.58	4634.26
438.77	4880.02
438.96	4880.02
439.14	4816.82
439.33	4936.19
439.52	4959.60
439.70	4882.36
439.89	5036.83
440.08	5029.81
440.26	5135.14
440.45	4929.17
440.63	5125.77
440.82	5137.48
441.01	5076.62
441.19	5266.21
441.38	5397.28
441.57	5214.71
441.75	5542.39
441.94	5394.93
442.12	5317.70
442.31	5453.45
442.50	5366.85
442.68	5448.77
442.87	5465.15
443.05	5554.09
443.24	5593.88
443.43	5605.58
443.61	5430.04
443.80	5731.97
443.98	5579.84
444.17	5317.70
444.35	5636.01
444.54	5767.08
444.73	5647.71
444.91	5636.01
445.10	5783.46
445.28	5818.57
445.47	5547.07
445.65	5476.85
445.84	5790.49
446.02	5774.10
446.21	5799.85
446.39	5628.99
446.58	5678.14
446.77	5720.27
446.95	5757.72
447.14	5797.51
447.32	5956.66
447.51	5834.96
447.69	5900.49
447.88	5881.77
448.06	5790.49
448.25	5811.55
448.43	5774.10
448.62	5909.85
448.80	5905.17
448.99	5968.37
449.17	5987.09
449.36	5792.83
449.54	6054.97
449.73	6108.80
449.91	6136.88
450.10	6090.07
450.28	6218.80
450.46	6127.52
450.65	6174.33
450.83	6069.01
451.02	6214.12
451.20	6466.90
451.39	6204.76
451.57	6157.95
451.76	6162.63
451.94	6188.38
452.13	6272.64
452.31	6235.19
452.49	6340.51
452.68	6335.83
452.86	6415.41
453.05	6382.64
453.23	6434.13
453.42	6338.17
453.60	6286.68
453.78	6516.05
453.97	6478.60
454.15	6452.86
454.34	6399.02
454.52	6511.37
454.70	6583.93
454.89	6612.01
455.07	6637.76
455.26	6705.63
455.44	6740.74
455.62	6651.80
455.81	6583.93
455.99	6820.32
456.17	6696.27
456.36	6965.43
456.54	6909.26
456.73	6902.24
456.91	7143.32
457.09	7185.44
457.28	7169.06
457.46	7185.44
457.64	7234.60
457.83	7148.00
458.01	7199.49
458.19	7332.90
458.38	7119.91
458.56	7342.26
458.74	7234.60
458.93	7279.07
459.11	7269.70
459.29	7185.44
459.48	7220.55
459.66	7360.98
459.84	7466.31
460.03	7686.32
460.21	7545.89
460.39	7398.43
460.57	7470.99
460.76	7552.91
460.94	7660.57
461.12	7728.45
461.31	7698.02
461.49	7449.93
461.67	7801.01
461.85	7660.57
462.04	7740.15
462.22	7995.27
462.40	7859.52
462.59	7765.90
462.77	7758.88
462.95	7868.88
463.13	7815.05
463.32	7985.91
463.50	7999.95
463.68	7925.05
463.86	7971.86
464.05	7889.95
464.23	7962.50
464.41	8079.53
464.59	7967.18
464.78	8095.91
464.96	8145.06
465.14	7932.08
465.32	8086.55
465.50	8205.92
465.69	8100.59
465.87	8149.75
466.05	8346.35
466.23	8241.03
466.41	8264.43
466.60	8344.01
466.78	8205.92
466.96	8166.13
467.14	8215.28
467.32	8507.85
467.51	8421.25
467.69	8423.59
467.87	8484.44
468.05	8465.72
468.23	8238.69
468.41	8304.22
468.60	8390.82
468.78	8762.97
468.96	8446.99
469.14	8627.21
469.32	8814.46
469.50	8402.52
469.69	8601.47
469.87	8760.63
470.05	8931.48
470.23	8769.99
470.41	8774.67
470.59	8856.59
470.77	8807.44
470.95	8793.39
471.14	9022.77
471.32	8828.50
471.50	9149.15
471.68	9252.14
471.86	9301.29
472.04	9324.69
472.22	9444.06
472.40	9188.94
472.58	9415.98
472.77	9378.53
472.95	9533.00
473.13	9956.64
473.31	9177.24
473.49	9551.73
473.67	9462.79
473.85	9860.68
474.03	9799.82
474.21	9537.68
474.39	9970.68
474.57	9757.69
474.75	9848.97
474.93	10066.64
475.12	9989.41
475.30	10525.39
475.48	10122.82
475.66	10328.78
475.84	10209.42
476.02	10387.30
476.20	10345.17
476.38	10494.96
476.56	10658.80
476.74	10754.76
476.92	10731.36
477.10	10848.38
477.28	10906.90
477.46	10862.43
477.64	10878.81
477.82	10906.90
478.00	11513.10
478.18	11375.00
478.36	11239.25
478.54	11417.13
478.72	11389.05
478.90	11489.69
479.08	11833.75
479.26	11779.92
479.44	11723.74
479.62	11997.59
479.80	11939.07
479.98	12065.46
480.16	12100.57
480.34	12051.42
480.52	12102.91
480.70	12243.34
480.88	12212.92
481.06	12695.07
481.24	12554.63
481.41	12596.76
481.59	12730.17
481.77	12844.86
481.95	13076.57
482.13	13387.86
482.31	13111.68
482.49	13406.59
482.67	13310.63
482.85	13532.98
483.03	13818.52
483.21	13951.93
483.39	13811.50
483.57	13923.85
483.74	13937.89
483.92	14396.64
484.10	13963.64
484.28	14640.05
484.46	14593.24
484.64	14583.88
484.82	14314.72
485.00	14998.15
485.18	14993.47
485.35	15131.56
485.53	15302.42
485.71	15389.02
485.89	15599.67
486.07	15536.48
486.25	15461.58
486.43	15674.57
486.61	15744.78
486.78	16130.97
486.96	16079.48
487.14	16128.63
487.32	16107.57
487.50	16449.28
487.68	16681.00
487.85	16575.67
488.03	16985.27
488.21	16999.31
488.39	16973.56
488.57	17401.88
488.75	17357.41
488.92	17490.82
489.10	17891.06
489.28	17785.73
489.46	17898.08
489.64	18129.79
489.81	18366.18
489.99	18258.52
490.17	18274.90
490.35	18621.30
490.53	18817.91
490.70	18822.59
490.88	18843.65
491.06	19084.73
491.24	18993.45
491.41	19356.23
491.59	19391.34
491.77	19208.78
491.95	19440.49
492.13	19606.67
492.30	19971.79
492.48	20016.26
492.66	19941.36
492.84	20025.62
493.01	20709.06
493.19	20460.96
493.37	20673.95
493.54	20645.87
493.72	20805.02
493.90	20479.69
494.08	20837.79
494.25	21010.99
494.43	21181.85
494.61	21081.21
494.79	21432.29
494.96	21357.39
495.14	21776.34
495.32	22059.55
495.49	21802.09
495.67	22059.55
495.85	22256.15
496.02	22455.10
496.20	22548.72
496.38	22897.46
496.55	22766.39
496.73	23293.01
496.91	22881.08
497.09	23356.21
497.26	23073.00
497.44	23110.45
497.62	23183.01
497.79	23606.64
497.97	23498.98
498.14	23974.11
498.32	23971.77
498.50	23974.11
498.67	24292.42
498.85	24257.31
499.03	24390.72
499.20	24334.55
499.38	24601.37
499.56	24622.44
499.73	24781.59
499.91	24910.32
500.08	25268.42
500.26	24648.18
500.44	24823.72
500.61	24933.73
500.79	25055.43
500.97	25469.71
501.14	25263.74
501.32	25467.37
501.49	25502.48
501.67	25516.52
501.84	25783.34
502.02	25738.87
502.20	25963.56
502.37	25949.52
502.55	26195.28
502.72	26356.77
502.90	26445.71
503.07	26228.04
503.25	26206.98
503.43	26331.03
503.60	26316.98
503.78	27063.61
503.95	26754.66
504.13	27096.38
504.30	26782.75
504.48	26586.15
504.65	27065.96
504.83	27248.52
505.01	27461.51
505.18	27353.84
505.36	27639.39
505.53	27452.14
505.71	27882.80
505.88	28084.09
506.06	27555.13
506.23	28088.77
506.41	27817.27
506.58	27903.87
506.76	27873.44
506.93	28198.77
507.11	28402.40
507.28	28318.14
507.46	28105.15
507.63	28793.27
507.81	28299.42
507.98	28465.60
508.16	28814.34
508.33	28725.39
508.50	28982.85
508.68	28957.11
508.85	29060.09
509.03	29134.99
509.20	29177.12
509.38	29472.03
509.55	29764.59
509.73	29839.49
509.90	29799.70
510.08	29244.99
510.25	29900.34
510.42	30080.56
510.60	30017.37
510.77	29996.31
510.95	30487.82
511.12	30628.25
511.30	30118.01
511.47	30572.08
511.64	30347.39
511.82	30766.34
511.99	30501.86
512.17	30778.04
512.34	30775.70
512.51	30998.06
512.69	31236.79
512.86	30813.15
513.04	31386.58
513.21	31175.94
513.38	31484.89
513.56	31374.88
513.73	31351.48
513.90	31234.45
514.08	31253.17
514.25	31690.85
514.43	31431.05
514.60	31908.52
514.77	31985.76
514.95	32292.37
515.12	31620.64
515.29	32383.65
515.47	32704.31
515.64	32542.81
515.81	32133.21
515.99	32753.46
516.16	32800.27
516.33	32823.67
516.51	33029.64
516.68	32514.72
516.85	32811.97
517.03	33102.20
517.20	32704.31
517.37	33156.03
517.54	32992.19
517.72	33088.15
517.89	33170.07
518.06	33193.48
518.24	33514.13
518.41	33055.39
518.58	33343.27
518.75	33366.68
518.93	33951.81
519.10	33518.81
519.27	33706.05
519.45	34244.38
519.62	34576.73
519.79	33986.92
519.96	33895.64
520.14	34375.45
520.31	33872.23
520.48	34185.86
520.65	34546.31
520.83	34550.99
521.00	34993.35
521.17	34307.57
521.34	34859.94
521.52	34539.29
521.69	34628.23
521.86	35033.14
522.03	35040.16
522.20	35194.64
522.38	34934.84
522.55	35131.44
522.72	35381.88
522.89	35592.53
523.07	35784.45
523.24	35421.67
523.41	35700.19
523.58	35005.05
523.75	35952.97
523.92	35775.09
524.10	36006.80
524.27	35861.69
524.44	36285.33
524.61	36163.62
524.78	36053.61
524.96	36299.37
525.13	36713.64
525.30	36666.83
525.47	36713.64
525.64	36123.83
525.81	36627.04
525.98	36587.25
526.16	36610.66
526.33	36683.22
526.50	36818.97
526.67	36907.91
526.84	37055.36
527.01	36891.52
527.18	37083.45
527.36	37088.13
527.53	37041.32
527.70	37352.61
527.87	37415.80
528.04	37682.62
528.21	37626.45
528.38	37624.11
528.55	37663.90
528.72	37914.34
528.89	37347.93
529.07	36999.19
529.24	37317.50
529.41	37773.91
529.58	37743.48
529.75	37933.06
529.92	37855.82
530.09	38071.15
530.26	38174.14
530.43	37897.95
530.60	38031.36
530.77	37949.45
530.94	38270.10
531.11	37792.63
531.28	38206.90
531.46	38356.70
531.63	38415.21
531.80	38586.07
531.97	39002.69
532.14	38843.53
532.31	38747.57
532.48	38965.24
532.65	39100.99
532.82	39239.08
532.99	39065.88
533.16	38859.91
533.33	38925.45
533.50	38983.96
533.67	39100.99
533.84	38883.32
534.01	39274.19
534.18	39009.71
534.35	39468.45
534.52	39536.33
534.69	39501.22
534.86	39454.41
535.03	39653.36
535.20	39316.32
535.37	40084.01
535.54	40088.70
535.71	39732.93
535.88	40114.44
536.05	40238.49
536.22	40301.68
536.38	39868.69
536.55	40027.84
536.72	40465.52
536.89	40247.85
537.06	40154.23
537.23	40091.04
537.40	40184.66
537.57	40055.93
537.74	40154.23
537.91	40776.81
538.08	40517.01
538.25	40236.15
538.42	40603.61
538.59	40978.10
538.75	40807.24
538.92	40767.45
539.09	40994.48
539.26	40502.97
539.43	40477.22
539.60	41177.04
539.77	40987.46
539.94	41652.17
540.11	40905.54
540.28	41429.82
540.44	40879.80
540.61	41205.13
540.78	40832.99
540.95	41198.11
541.12	41525.78
541.29	41258.96
541.46	41596.00
541.62	41434.50
541.79	41652.17
541.96	41476.63
542.13	41368.97
542.30	41383.01
542.47	41717.71
542.63	41359.61
542.80	41982.19
542.97	42188.16
543.14	42253.69
543.31	41799.63
543.48	41874.52
543.64	42653.92
543.81	42747.54
543.98	42316.89
544.15	42508.81
544.32	42342.63
544.48	42777.97
544.65	42813.08
544.82	42768.61
544.99	42700.73
545.16	42689.03
545.32	42754.57
545.49	43498.86
545.66	43133.73
545.83	42782.65
546.00	42988.62
546.16	42859.89
546.33	42801.38
546.50	42340.29
546.67	43299.91
546.83	42574.34
547.00	43512.90
547.17	42852.87
547.34	42866.91
547.50	43756.32
547.67	43412.26
547.84	43091.60
548.00	43484.81
548.17	44006.75
548.34	43597.16
548.51	43700.14
548.67	43267.14
548.84	43093.94
549.01	43232.04
549.18	43744.61
549.34	43725.89
549.51	44041.86
549.68	43856.96
549.84	43831.21
550.01	44105.06
550.18	43641.63
550.34	44243.15
550.51	44514.65
550.68	44320.38
550.84	44025.48
551.01	44175.27
551.18	43592.48
551.34	44219.74
551.51	44449.11
551.68	44442.09
551.84	44119.10
552.01	43688.44
552.18	44727.64
552.34	44381.24
552.51	43995.05
552.68	44416.35
552.84	44378.90
553.01	44474.86
553.18	44587.21
553.34	45010.84
553.51	44694.87
553.67	44722.96
553.84	45015.52
554.01	44832.96
554.17	44889.13
554.34	45443.84
554.51	45020.20
554.67	45029.57
554.84	45146.59
555.00	45258.94
555.17	44701.89
555.33	45177.02
555.50	45427.46
555.67	44872.75
555.83	45083.40
556.00	45757.47
556.16	45549.17
556.33	45329.16
556.50	45221.49
556.66	45329.16
556.83	44671.46
556.99	45855.78
557.16	45532.78
557.32	45345.54
557.49	45322.13
557.65	45420.44
557.82	45963.44
557.98	45872.16
558.15	45469.59
558.32	45577.25
558.48	45202.77
558.65	45682.58
558.81	45907.27
558.98	45748.11
559.14	45240.21
559.31	45507.04
559.47	45593.64
559.64	45780.88
559.80	45514.06
559.97	45532.78
560.13	45406.39
560.30	45600.66
560.46	45865.14
560.63	45848.75
560.79	45993.87
560.96	46183.45
561.12	46211.54
561.29	46153.02
561.45	45972.80
561.61	46256.01
561.78	45879.18
561.94	46150.68
562.11	45902.59
562.27	45947.06
562.44	46148.34
562.60	46298.14
562.77	46461.97
562.93	45858.12
563.10	46436.23
563.26	46387.08
563.42	46501.76
563.59	46293.46
563.75	46230.26
563.92	46433.89
564.08	46405.80
564.24	46639.86
564.41	46106.21
564.57	46373.03
564.74	46747.52
564.90	46239.62
565.07	46354.31
565.23	46368.35
565.39	46412.82
565.56	46508.79
565.72	46288.77
565.88	46611.77
566.05	46738.16
566.21	46773.27
566.38	46763.90
566.54	46967.53
566.70	46801.35
566.87	46429.21
567.03	46705.39
567.19	46747.52
567.36	46749.86
567.52	46932.42
567.68	47065.83
567.85	47000.30
568.01	47409.89
568.17	46773.27
568.34	46810.71
568.50	47098.60
568.66	46721.77
568.83	46691.35
568.99	46642.20
569.15	46822.42
569.32	46801.35
569.48	47014.34
569.64	47393.51
569.81	47126.69
569.97	46630.49
570.13	47049.45
570.30	46902.00
570.46	47054.13
570.62	47049.45
570.78	47239.03
570.95	46579.00
571.11	46993.28
571.27	46976.89
571.43	46904.34
571.60	47133.71
571.76	47021.36
571.92	47372.44
572.09	46817.74
572.25	46958.17
572.41	47058.81
572.57	47503.51
572.74	47498.83
572.90	47213.29
573.06	47157.11
573.22	47271.80
573.38	47660.33
573.55	47248.39
573.71	47641.60
573.87	47538.62
574.03	47601.82
574.20	47157.11
574.36	46941.78
574.52	47508.19
574.68	47208.61
574.84	47608.84
575.01	47819.49
575.17	47693.10
575.33	47491.81
575.49	47351.38
575.65	47543.30
575.82	47643.94
575.98	47295.21
576.14	47615.86
576.30	47643.94
576.46	47236.69
576.62	47386.49
576.79	47313.93
576.95	47222.65
577.11	47262.44
577.27	47414.57
577.43	47512.88
577.59	47536.28
577.75	47037.75
577.92	47157.11
578.08	47236.69
578.24	47505.85
578.40	47739.91
578.56	47608.84
578.72	47386.49
578.88	47578.41
579.04	47503.51
579.21	47281.16
579.37	47442.66
579.53	47571.39
579.69	47440.32
579.85	47803.10
580.01	47559.69
580.17	47615.86
580.33	47735.23
580.49	47679.05
580.65	47454.36
580.82	47166.48
580.98	47173.50
581.14	47363.08
581.30	47693.10
581.46	47164.14
581.62	47690.76
581.78	47414.57
581.94	47498.83
582.10	47779.70
582.26	47924.81
582.42	47559.69
582.58	47892.04
582.74	47676.71
582.90	47878.00
583.06	47856.93
583.22	47704.80
583.38	47800.76
583.54	47501.17
583.70	47700.12
583.86	47810.12
584.02	47852.25
584.18	47988.00
584.34	47714.16
584.50	48329.72
584.66	47899.06
584.82	47718.84
584.98	48116.73
585.14	48121.41
585.30	47753.95
585.46	47440.32
585.62	47601.82
585.78	48128.44
585.94	47852.25
586.10	47718.84
586.26	47739.91
586.42	47620.54
586.58	47920.13
586.74	47487.13
586.90	48083.97
587.06	47767.99
587.22	47878.00
587.38	47569.05
587.54	47966.94
587.70	48109.71
587.86	48006.73
588.02	47641.60
588.18	47990.34
588.34	47622.88
588.49	47931.83
588.65	47566.71
588.81	47959.92
588.97	47880.34
589.13	47672.03
589.29	48002.05
589.45	48083.97
589.61	48318.02
589.77	47924.81
589.93	47985.66
