SpectraSuite Data File
++++++++++++++++++++++++++++++++++++
Date: Fri Oct 25 11:23:49 EDT 2013
User: price-jones
Dark Spectrum Present: No
Reference Spectrum Present: No
Number of Sampled Component Spectra: 1
Spectrometers: USB2+H05261
Integration Time (usec): 100000 (USB2+H05261)
Spectra Averaged: 1 (USB2+H05261)
Boxcar Smoothing: 0 (USB2+H05261)
Correct for Electrical Dark: No (USB2+H05261)
Strobe/Lamp Enabled: No (USB2+H05261)
Correct for Detector Non-linearity: No (USB2+H05261)
Correct for Stray Light: No (USB2+H05261)
Number of Pixels in Processed Spectrum: 2048
>>>>>Begin Processed Spectral Data<<<<<
365.73	245.76
365.92	245.76
366.12	245.76
366.32	269.16
366.52	182.56
366.72	124.05
366.91	191.92
367.11	100.64
367.31	142.77
367.51	105.32
367.70	142.77
367.90	107.66
368.10	161.50
368.30	98.30
368.49	112.35
368.69	128.73
368.89	180.22
369.09	159.16
369.28	184.90
369.48	105.32
369.68	215.33
369.87	159.16
370.07	191.92
370.27	297.25
370.47	292.57
370.66	554.71
370.86	641.31
371.06	617.90
371.25	695.14
371.45	650.67
371.65	786.42
371.84	664.71
372.04	713.86
372.24	755.99
372.44	704.50
372.63	709.18
372.83	774.72
373.03	723.23
373.22	772.38
373.42	753.65
373.62	833.23
373.81	711.52
374.01	849.61
374.21	844.93
374.40	809.83
374.60	744.29
374.79	788.76
374.99	873.02
375.19	802.80
375.38	858.98
375.58	854.30
375.78	856.64
375.97	926.85
376.17	905.79
376.37	748.97
376.56	917.49
376.76	847.27
376.95	833.23
377.15	976.00
377.35	978.34
377.54	891.74
377.74	945.58
377.93	849.61
378.13	924.51
378.33	915.15
378.52	866.00
378.72	903.45
378.91	978.34
379.11	791.10
379.31	866.00
379.50	910.47
379.70	1008.77
379.89	1027.50
380.09	954.94
380.28	1013.45
380.48	1006.43
380.68	987.71
380.87	1069.62
381.07	1025.15
381.26	999.41
381.46	1006.43
381.65	1029.84
381.85	1062.60
382.04	1039.20
382.24	1069.62
382.43	1004.09
382.63	1097.71
382.83	1043.88
383.02	1088.35
383.22	1060.26
383.41	1076.65
383.61	1107.07
383.80	1130.48
384.00	1071.97
384.19	1100.05
384.39	1144.52
384.58	1137.50
384.78	1097.71
384.97	1142.18
385.17	1184.31
385.36	1160.91
385.56	1130.48
385.75	976.00
385.95	1104.73
386.14	1179.63
386.34	1247.51
386.53	1214.74
386.72	1132.82
386.92	1343.47
387.11	1256.87
387.31	1219.42
387.50	1210.06
387.70	1228.78
387.89	1266.23
388.09	1277.93
388.28	1249.85
388.48	1287.29
388.67	1362.19
388.86	1383.26
389.06	1331.76
389.25	1350.49
389.45	1313.04
389.64	1357.51
389.84	1366.87
390.03	1458.15
390.22	1416.02
390.42	1383.26
390.61	1345.81
390.81	1315.38
391.00	1406.66
391.19	1502.62
391.39	1502.62
391.58	1455.81
391.78	1511.99
391.97	1364.53
392.16	1345.81
392.36	1486.24
392.55	1462.83
392.75	1584.54
392.94	1490.92
393.13	1584.54
393.33	1516.67
393.52	1537.73
393.71	1563.48
393.91	1561.14
394.10	1558.80
394.29	1650.08
394.49	1664.12
394.68	1584.54
394.88	1638.38
395.07	1633.69
395.26	1694.55
395.46	1664.12
395.65	1710.93
395.84	1645.40
396.04	1724.97
396.23	1776.47
396.42	1701.57
396.62	1825.62
396.81	1865.41
397.00	1767.10
397.19	1732.00
397.39	1827.96
397.58	1839.66
397.77	1858.39
397.97	1823.28
398.16	1933.28
398.35	1856.04
398.55	1846.68
398.74	1909.88
398.93	1947.33
399.12	1942.64
399.32	2005.84
399.51	1916.90
399.70	1961.37
399.90	1984.77
400.09	2001.16
400.28	2071.37
400.47	2047.97
400.67	2054.99
400.86	2054.99
401.05	2062.01
401.24	2066.69
401.44	2146.27
401.63	2090.10
401.82	2172.02
402.01	2181.38
402.21	2272.66
402.40	2218.83
402.59	2113.50
402.78	2263.30
402.97	2291.38
403.17	2289.04
403.36	2282.02
403.55	2289.04
403.74	2272.66
403.93	2347.56
404.13	2385.01
404.32	2370.96
404.51	2331.17
404.70	2345.22
404.89	2359.26
405.09	2583.95
405.28	2406.07
405.47	2539.48
405.66	2492.67
405.85	2370.96
406.05	2401.39
406.24	2487.99
406.43	2605.02
406.62	2612.04
406.81	2726.72
407.00	2555.86
407.20	2668.21
407.39	2600.34
407.58	2663.53
407.77	2705.66
407.96	2825.03
408.15	2841.41
408.34	2696.30
408.54	2724.38
408.73	2719.70
408.92	2867.16
409.11	2818.00
409.30	2888.22
409.49	2881.20
409.68	2897.58
409.87	2855.45
410.07	2960.78
410.26	3075.46
410.45	2965.46
410.64	3012.27
410.83	3131.64
411.02	3145.68
411.21	3246.32
411.40	3204.19
411.59	3248.66
411.78	3159.72
411.98	3225.26
412.17	3293.13
412.36	3276.75
412.55	3356.33
412.74	3375.05
412.93	3346.97
413.12	3332.92
413.31	3508.46
413.50	3386.76
413.69	3630.17
413.88	3531.87
414.07	3662.94
414.26	3782.31
414.45	3616.13
414.64	3531.87
414.83	3756.56
415.02	3749.54
415.22	3723.79
415.41	3936.78
415.60	3950.82
415.79	4074.87
415.98	3922.74
416.17	3992.95
416.36	4032.74
416.55	4035.08
416.74	4086.58
416.93	4088.92
417.12	4011.68
417.31	4196.58
417.50	4360.42
417.69	4348.72
417.88	4362.76
418.07	4203.60
418.26	4208.28
418.45	4430.63
418.64	4505.53
418.83	4402.55
419.02	4533.62
419.21	4559.36
419.39	4430.63
419.58	4493.83
419.77	4498.51
419.96	4411.91
420.15	4622.56
420.34	4692.77
420.53	4786.40
420.72	4739.58
420.91	4772.35
421.10	4898.74
421.29	4793.42
421.48	4617.88
421.67	4880.02
421.86	4884.70
422.05	4793.42
422.24	4807.46
422.43	4835.55
422.61	4884.70
422.80	5100.03
422.99	5111.73
423.18	4947.89
423.37	5015.77
423.56	4821.50
423.75	4847.25
423.94	4936.19
424.13	4535.96
424.32	4823.84
424.50	5039.17
424.69	5156.20
424.88	5013.43
425.07	4807.46
425.26	4964.28
425.45	4987.68
425.64	4896.40
425.83	5011.09
426.01	5111.73
426.20	5144.50
426.39	5186.63
426.58	5004.07
426.77	5018.11
426.96	5298.97
427.15	5088.32
427.33	5193.65
427.52	4994.70
427.71	5259.18
427.90	5233.44
428.09	5437.06
428.28	5296.63
428.46	5425.36
428.65	5280.25
428.84	5493.24
429.03	5647.71
429.22	5385.57
429.40	5397.28
429.59	5526.00
429.78	5413.66
429.97	5394.93
430.16	5654.73
430.34	5633.67
430.53	5701.54
430.72	5776.44
430.91	5696.86
431.10	5687.50
431.28	5809.21
431.47	5746.02
431.66	5914.53
431.85	5757.72
432.03	5940.28
432.22	6139.23
432.41	5851.34
432.60	6097.10
432.79	6120.50
432.97	6047.94
433.16	6038.58
433.35	6113.48
433.54	6174.33
433.72	6204.76
433.91	6101.78
434.10	6136.88
434.28	6099.44
434.47	6052.63
434.66	6448.18
434.85	6338.17
435.03	6345.19
435.22	6389.66
435.41	6548.82
435.59	6452.86
435.78	6471.58
435.97	6480.94
436.16	6370.94
436.34	6377.96
436.53	6621.38
436.72	6792.23
436.90	6504.35
437.09	6628.40
437.28	6586.27
437.46	6532.44
437.65	6670.53
437.84	6740.74
438.02	6726.70
438.21	6892.88
438.40	6635.42
438.58	7094.16
438.77	7080.12
438.96	7028.63
439.14	7091.82
439.33	7155.02
439.52	7262.68
439.70	7232.26
439.89	7468.65
440.08	7452.27
440.26	7330.56
440.45	7482.69
440.63	7534.18
440.82	7609.08
441.01	7707.38
441.19	7660.57
441.38	7667.60
441.57	7630.15
441.75	7901.65
441.94	7974.21
442.12	7812.71
442.31	8051.44
442.50	8056.12
442.68	7985.91
442.87	8147.40
443.05	8280.82
443.24	8482.10
443.43	8077.19
443.61	8318.26
443.80	8538.27
443.98	7941.44
444.17	7880.58
444.35	8327.63
444.54	8241.03
444.73	8421.25
444.91	8435.29
445.10	8329.97
445.28	8196.56
445.47	8411.89
445.65	8437.63
445.84	8491.46
446.02	8643.60
446.21	8280.82
446.39	8376.78
446.58	8683.39
446.77	8327.63
446.95	8255.07
447.14	8477.42
447.32	8418.91
447.51	8580.40
447.69	8475.08
447.88	8582.74
448.06	8585.08
448.25	8435.29
448.43	8493.80
448.62	8727.86
448.80	8578.06
448.99	8561.68
449.17	8769.99
449.36	8681.05
449.54	8968.93
449.73	9062.55
449.91	8896.38
450.10	9055.53
450.28	9193.62
450.46	9137.45
450.65	8994.68
450.83	9165.54
451.02	9043.83
451.20	9240.44
451.39	9158.52
451.57	9186.60
451.76	9104.68
451.94	9142.13
452.13	9404.27
452.31	9233.41
452.49	9188.94
452.68	9570.45
452.86	9364.48
453.05	9427.68
453.23	9441.72
453.42	9453.42
453.60	9451.08
453.78	9540.02
453.97	9467.47
454.15	9404.27
454.34	9596.20
454.52	9863.02
454.70	9818.55
454.89	9844.29
455.07	9830.25
455.26	9877.06
455.44	9954.30
455.62	10008.13
455.81	10024.51
455.99	9858.34
456.17	10026.86
456.36	10127.50
456.54	9884.08
456.73	10307.72
456.91	10436.45
457.09	10448.15
457.28	10391.98
457.46	10427.09
457.64	10558.16
457.83	10506.66
458.01	10518.37
458.19	10773.49
458.38	10609.65
458.56	10663.48
458.74	10712.63
458.93	10766.46
459.11	10853.06
459.29	10853.06
459.48	10700.93
459.66	10775.83
459.84	11002.86
460.03	11005.20
460.21	11063.71
460.39	10951.37
460.57	11218.19
460.76	11300.11
460.94	11145.63
461.12	11311.81
461.31	11227.55
461.49	11246.27
461.67	11403.09
461.85	11382.03
462.04	11573.95
462.22	11683.95
462.40	11510.75
462.59	11602.04
462.77	11761.19
462.95	11700.34
463.13	11576.29
463.32	11702.68
463.50	11740.13
463.68	11726.08
463.86	11602.04
464.05	11758.85
464.23	11866.52
464.41	11967.16
464.59	11716.72
464.78	12320.58
464.96	12212.92
465.14	11847.79
465.32	12006.95
465.50	11985.88
465.69	12159.08
465.87	12336.96
466.05	12276.11
466.23	12315.90
466.41	12318.24
466.60	12547.61
466.78	12533.57
466.96	12318.24
467.14	12257.39
467.32	12241.00
467.51	12585.06
467.69	12149.72
467.87	12425.90
468.05	12727.83
468.23	12348.67
468.41	12528.89
468.60	12622.51
468.78	12905.71
468.96	12568.68
469.14	12805.07
469.32	13036.78
469.50	12554.63
469.69	13053.17
469.87	13303.60
470.05	13191.26
470.23	13067.21
470.41	13228.71
470.59	13408.93
470.77	13252.11
470.95	13453.40
471.14	13647.66
471.32	13350.42
471.50	13474.46
471.68	13626.60
471.86	13731.92
472.04	13668.73
472.22	13958.96
472.40	13907.46
472.58	13926.19
472.77	14092.37
472.95	14111.09
473.13	14827.29
473.31	14033.85
473.49	14160.24
473.67	14331.10
473.85	14389.61
474.03	14773.46
474.21	14691.54
474.39	14974.75
474.57	14537.07
474.75	15021.56
474.93	14974.75
475.12	15002.83
475.30	15372.64
475.48	15147.95
475.66	15288.38
475.84	14946.66
476.02	15400.72
476.20	15494.35
476.38	15728.40
476.56	16273.74
476.74	16278.43
476.92	15974.16
477.10	16035.01
477.28	16224.59
477.46	16465.67
477.64	16388.43
477.82	16622.48
478.00	17151.45
478.18	16917.39
478.36	17057.82
478.54	17371.46
478.72	17006.33
478.90	17537.63
479.08	17895.74
479.26	17855.95
479.44	17654.66
479.62	18153.20
479.80	18174.26
479.98	18347.46
480.16	18712.58
480.34	18478.53
480.52	18750.03
480.70	18462.15
480.88	18682.16
481.06	18785.14
481.24	18881.10
481.41	19051.96
481.59	19335.17
481.77	19587.94
481.95	19768.16
482.13	19784.55
482.31	20065.41
482.49	20318.19
482.67	20013.92
482.85	20475.01
483.03	20713.74
483.21	20676.29
483.39	20996.95
483.57	21151.42
483.74	21193.55
483.92	21240.36
484.10	21214.62
484.28	21951.88
484.46	22223.39
484.64	22607.23
484.82	22185.94
485.00	22672.77
485.18	22724.26
485.35	23351.52
485.53	22726.60
485.71	22883.42
485.89	23498.98
486.07	23108.11
486.25	23840.70
486.43	23632.39
486.61	24212.84
486.78	24231.57
486.96	24306.46
487.14	25034.37
487.32	24648.18
487.50	25022.67
487.68	25074.16
487.85	25509.50
488.03	25310.55
488.21	26192.94
488.39	26064.21
488.57	26417.63
488.75	26218.68
488.92	26434.01
489.10	26955.95
489.28	27044.89
489.46	27138.51
489.64	27206.39
489.81	27751.73
489.99	27976.42
490.17	27803.22
490.35	28250.27
490.53	28512.41
490.70	28435.17
490.88	28226.86
491.06	28980.51
491.24	28886.89
491.41	29350.32
491.59	29266.06
491.77	29486.07
491.95	29706.08
492.13	30462.07
492.30	29982.26
492.48	30335.68
492.66	30251.42
492.84	30623.57
493.01	31208.70
493.19	30682.08
493.37	31290.62
493.54	31505.95
493.72	31796.18
493.90	31398.29
494.08	31908.52
494.25	32158.96
494.43	31985.76
494.61	32622.39
494.79	32503.02
494.96	32634.09
495.14	32643.45
495.32	33820.74
495.49	33240.29
495.67	33408.81
495.85	33631.16
496.02	34085.22
496.20	34319.28
496.38	34284.17
496.55	34265.44
496.73	35054.20
496.91	34478.43
497.09	35133.78
497.26	35012.07
497.44	35281.24
497.62	35501.25
497.79	35964.67
497.97	35873.39
498.14	36388.31
498.32	36147.23
498.50	36423.42
498.67	36882.16
498.85	36479.59
499.03	36950.04
499.20	36950.04
499.38	37172.39
499.56	37158.34
499.73	37158.34
499.91	37387.72
500.08	37514.11
500.26	37951.79
500.44	37663.90
500.61	38064.13
500.79	37710.71
500.97	38389.47
501.14	39187.59
501.32	38742.89
501.49	38630.54
501.67	38682.03
501.84	39093.97
502.02	39758.68
502.20	39461.43
502.37	39463.77
502.55	39498.88
502.72	39765.70
502.90	39721.23
503.07	39948.26
503.25	39929.54
503.43	39988.05
503.60	40486.59
503.78	40282.96
503.95	40662.13
504.13	40430.41
504.30	40648.08
504.48	40891.50
504.65	41134.92
504.83	41797.29
505.01	41383.01
505.18	41617.07
505.36	41432.16
505.53	41366.63
505.71	41724.73
505.88	42155.39
506.06	41357.27
506.23	42113.26
506.41	42031.34
506.58	41942.40
506.76	42398.80
506.93	42405.83
507.11	42415.19
507.28	42597.75
507.46	42777.97
507.63	42995.64
507.81	43332.68
507.98	42717.12
508.16	43803.13
508.33	43494.18
508.50	43810.15
508.68	43704.82
508.85	44020.80
509.03	43854.62
509.20	44383.58
509.38	44626.99
509.55	44404.64
509.73	44739.34
509.90	45223.83
510.08	44886.79
510.25	44910.20
510.42	44376.56
510.60	45228.51
510.77	45478.95
510.95	46064.08
511.12	44708.91
511.30	45394.69
511.47	45315.11
511.64	45556.19
511.82	45825.35
511.99	45635.77
512.17	45839.39
512.34	46162.39
512.51	46593.04
512.69	46265.37
512.86	46705.39
513.04	46862.21
513.21	46604.75
513.38	46803.69
513.56	47098.60
513.73	47044.77
513.90	47199.24
514.08	47253.08
514.25	47653.31
514.43	47723.52
514.60	47767.99
514.77	47693.10
514.95	47800.76
515.12	47512.88
515.29	47760.97
515.47	48449.09
515.64	48098.01
515.81	47885.02
515.99	48343.77
516.16	48795.49
516.33	48631.65
516.51	48783.79
516.68	48964.01
516.85	48594.20
517.03	49001.46
517.20	48973.37
517.37	48685.48
517.54	49188.70
517.72	49066.99
517.89	49277.64
518.06	49336.15
518.24	49216.78
518.41	49169.97
518.58	49635.74
518.75	49827.66
518.93	49792.56
519.10	49532.76
519.27	49752.77
519.45	49783.19
519.62	49846.39
519.79	49736.38
519.96	50270.03
520.14	50293.43
520.31	50171.72
520.48	50700.68
520.65	50583.66
520.83	51117.30
521.00	50890.27
521.17	50485.36
521.34	50801.33
521.52	50951.12
521.69	50871.54
521.86	51192.20
522.03	51433.27
522.20	51496.47
522.38	51669.67
522.55	51501.15
522.72	51650.94
522.89	51250.71
523.07	51721.16
523.24	51576.04
523.41	51723.50
523.58	51756.27
523.75	52032.45
523.92	52083.94
524.10	52086.28
524.27	52023.09
524.44	52224.37
524.61	52207.99
524.78	52381.19
524.96	52367.15
525.13	52292.25
525.30	52491.19
525.47	52601.20
525.64	52509.92
525.81	52851.64
525.98	52872.70
526.16	52863.34
526.33	52800.15
526.50	52985.05
526.67	52994.41
526.84	53270.59
527.01	52767.38
527.18	53448.47
527.36	53249.53
527.53	53366.55
527.70	53389.96
527.87	53563.16
528.04	53081.01
528.21	53600.61
528.38	53535.07
528.55	53734.02
528.72	53471.88
528.89	53518.69
529.07	53684.87
529.24	53677.85
529.41	53841.68
529.58	53635.72
529.75	53928.28
529.92	53972.75
530.09	54164.68
530.26	54087.44
530.43	54094.46
530.60	54136.59
530.77	54085.10
530.94	54213.83
531.11	54220.85
531.28	54504.06
531.46	54305.11
531.63	54494.69
531.80	54354.26
531.97	54796.62
532.14	54569.59
532.31	54789.60
532.48	54789.60
532.65	54787.26
532.82	54721.72
532.99	54843.43
533.16	54522.78
533.33	55018.97
533.50	55304.52
533.67	55004.93
533.84	54735.77
534.01	54855.14
534.18	55217.92
534.35	55241.32
534.52	55213.24
534.69	55274.09
534.86	55428.57
535.03	55269.41
535.20	55147.70
535.37	55297.50
535.54	55489.42
535.71	55398.14
535.88	55496.44
536.05	55585.38
536.22	55931.78
536.38	55664.96
536.55	55524.53
536.72	55929.44
536.89	55796.03
537.06	55763.26
537.23	55882.63
537.40	55842.84
537.57	55529.21
537.74	56086.26
537.91	56203.28
538.08	56121.37
538.25	55781.99
538.42	56350.74
538.59	56360.10
538.75	56027.74
538.92	56203.28
539.09	56184.56
539.26	56317.97
539.43	56191.58
539.60	56224.35
539.77	56327.33
539.94	56502.87
540.11	56760.33
540.28	56615.22
540.44	56643.30
540.61	56605.86
540.78	56556.70
540.95	56678.41
541.12	56399.89
541.29	56622.24
541.46	56706.50
541.62	56556.70
541.79	57034.17
541.96	56587.13
542.13	56666.71
542.30	56802.46
542.47	56989.70
542.63	56849.27
542.80	57052.90
542.97	56968.64
543.14	57385.25
543.31	57277.59
543.48	57434.41
543.64	57642.71
543.81	57502.28
543.98	57549.09
544.15	57600.58
544.32	57712.93
544.48	57591.22
544.65	57521.01
544.82	57733.99
544.99	57439.09
545.16	57471.85
545.32	57511.64
545.49	57635.69
545.66	57902.51
545.83	57598.24
546.00	58045.29
546.16	57804.21
546.33	57619.31
546.50	57567.82
546.67	57874.43
546.83	57652.08
547.00	57890.81
547.17	57921.24
547.34	57862.72
547.50	58049.97
547.67	58316.79
547.84	58197.42
548.00	58223.17
548.17	58389.34
548.34	58134.23
548.51	58487.65
548.67	58314.45
548.84	58211.46
549.01	58351.90
549.18	58197.42
549.34	58471.26
549.51	58630.42
549.68	58365.94
549.84	58588.29
550.01	58349.56
550.18	58457.22
550.34	58485.31
550.51	58607.01
550.68	58581.27
550.84	58377.64
551.01	58721.70
551.18	58564.88
551.34	58431.47
551.51	58679.57
551.68	58651.48
551.84	58866.81
552.01	58684.25
552.18	58665.53
552.34	58686.59
552.51	58712.34
552.68	58642.12
552.84	58695.95
553.01	59089.16
553.18	58791.92
553.34	58925.33
553.51	58890.22
553.67	58941.71
553.84	58906.60
554.01	59152.36
554.17	59222.58
554.34	59175.76
554.51	59002.56
554.67	59290.45
554.84	59117.25
555.00	59194.49
555.17	59131.29
555.33	59374.71
555.50	59082.14
555.67	59047.04
555.83	59124.27
556.00	59262.36
556.16	59379.39
556.33	59526.84
556.50	59440.24
556.66	59573.66
556.83	59159.38
556.99	59386.41
557.16	59725.79
557.32	59688.34
557.49	59913.03
557.65	59505.78
557.82	59625.15
557.98	59512.80
558.15	59583.02
558.32	59629.83
558.48	59222.58
558.65	59683.66
558.81	59580.68
558.98	59571.32
559.14	59561.95
559.31	59854.52
559.47	59683.66
559.64	59772.60
559.80	59859.20
559.97	59784.30
560.13	59700.04
560.30	59856.86
560.46	59875.58
560.63	60114.32
560.79	59807.71
560.96	59894.31
561.12	59906.01
561.29	59821.75
561.45	59985.59
561.61	60011.34
561.78	60041.76
561.94	59849.84
562.11	60090.91
562.27	60027.72
562.44	59828.77
562.60	60116.66
562.77	60250.07
562.93	59786.64
563.10	60065.17
563.26	59915.37
563.42	60381.14
563.59	60037.08
563.75	60217.30
563.92	60001.97
564.08	60144.75
564.24	60446.68
564.41	60264.11
564.57	60303.90
564.74	60149.43
564.90	60161.13
565.07	60093.25
565.23	60135.38
565.39	60341.35
565.56	60189.22
565.72	60341.35
565.88	60463.06
566.05	60252.41
566.21	60140.07
566.38	60402.21
566.54	60313.26
566.70	60444.33
566.87	60636.26
567.03	60287.52
567.19	60640.94
567.36	60301.56
567.52	60570.72
567.68	60863.29
567.85	60505.19
568.01	60577.75
568.17	60446.68
568.34	60339.01
568.50	60528.59
568.66	60413.91
568.83	60657.32
568.99	60530.93
569.15	60533.28
569.32	60631.58
569.48	60544.98
569.64	60807.12
569.81	60552.00
569.97	60413.91
570.13	60458.38
570.30	60676.05
570.46	60699.45
570.62	60790.73
570.78	60704.13
570.95	60687.75
571.11	60591.79
571.27	60605.83
571.43	60559.02
571.60	60800.10
571.76	60753.29
571.92	60898.40
572.09	60750.94
572.25	60872.65
572.41	60823.50
572.57	60626.90
572.74	60987.34
572.90	60594.13
573.06	60788.39
573.22	60640.94
573.38	60764.99
573.55	60687.75
573.71	60985.00
573.87	60905.42
574.03	60711.16
574.20	60893.72
574.36	60589.45
574.52	60764.99
574.68	60711.16
574.84	61052.87
575.01	60977.98
575.17	60839.89
575.33	60903.08
575.49	60797.76
575.65	60711.16
575.82	60924.14
575.98	60863.29
576.14	60996.70
576.30	60907.76
576.46	60816.48
576.62	60818.82
576.79	60919.46
576.95	60947.55
577.11	60825.84
577.27	60942.87
577.43	60959.25
577.59	60896.06
577.75	60807.12
577.92	60907.76
578.08	60935.85
578.24	60975.64
578.40	61247.14
578.56	61020.11
578.72	61111.39
578.88	61247.14
579.04	61099.68
579.21	61015.43
579.37	61010.74
579.53	61116.07
579.69	60905.42
579.85	61137.13
580.01	61087.98
580.17	60849.25
580.33	60959.25
580.49	61216.71
580.65	61104.37
580.82	61006.06
580.98	60982.66
581.14	60891.38
581.30	61059.90
581.46	60900.74
581.62	61024.79
581.78	61097.34
581.94	61305.65
582.10	60966.27
582.26	61155.86
582.42	60893.72
582.58	61008.40
582.74	60900.74
582.90	60982.66
583.06	61123.09
583.22	60839.89
583.38	61195.65
583.54	61073.94
583.70	61013.08
583.86	61087.98
584.02	61057.56
584.18	61279.91
584.34	61083.30
584.50	61179.26
584.66	61045.85
584.82	61017.77
584.98	61132.45
585.14	61263.52
585.30	61059.90
585.46	60952.23
585.62	60898.40
585.78	61516.30
585.94	60921.80
586.10	61202.67
586.26	61181.60
586.42	61041.17
586.58	61333.74
586.74	61205.01
586.90	61031.81
587.06	61097.34
587.22	61340.76
587.38	61015.43
587.54	61277.57
587.70	61322.04
587.86	61230.75
588.02	61066.92
588.18	61254.16
588.34	61050.53
