SpectraSuite Data File
++++++++++++++++++++++++++++++++++++
Date: Fri Oct 25 10:43:51 EDT 2013
User: price-jones
Dark Spectrum Present: No
Reference Spectrum Present: No
Number of Sampled Component Spectra: 1
Spectrometers: USB2+H05261
Integration Time (usec): 100000 (USB2+H05261)
Spectra Averaged: 1 (USB2+H05261)
Boxcar Smoothing: 0 (USB2+H05261)
Correct for Electrical Dark: No (USB2+H05261)
Strobe/Lamp Enabled: No (USB2+H05261)
Correct for Detector Non-linearity: No (USB2+H05261)
Correct for Stray Light: No (USB2+H05261)
Number of Pixels in Processed Spectrum: 2048
>>>>>Begin Processed Spectral Data<<<<<
365.73	95.96
365.92	95.96
366.12	95.96
366.32	0.00
366.52	0.00
366.72	79.58
366.91	30.43
367.11	0.00
367.31	72.56
367.51	65.54
367.70	16.38
367.90	81.92
368.10	35.11
368.30	44.47
368.49	0.00
368.69	65.54
368.89	32.77
369.09	14.04
369.28	56.17
369.48	37.45
369.68	105.32
369.87	95.96
370.07	107.66
370.27	128.73
370.47	166.18
370.66	358.10
370.86	346.40
371.06	440.02
371.25	484.49
371.45	514.92
371.65	500.87
371.84	433.00
372.04	334.70
372.24	465.77
372.44	463.43
372.63	505.56
372.83	498.53
373.03	554.71
373.22	337.04
373.42	514.92
373.62	514.92
373.81	514.92
374.01	599.18
374.21	568.75
374.40	479.81
374.60	524.28
374.79	578.11
374.99	653.01
375.19	533.64
375.38	594.50
375.58	535.98
375.78	592.16
375.97	617.90
376.17	592.16
376.37	634.29
376.56	564.07
376.76	603.86
376.95	653.01
377.15	678.76
377.35	645.99
377.54	723.23
377.74	678.76
377.93	692.80
378.13	603.86
378.33	657.69
378.52	645.99
378.72	685.78
378.91	669.39
379.11	620.24
379.31	671.73
379.50	596.84
379.70	730.25
379.89	667.05
380.09	636.63
380.28	718.54
380.48	746.63
380.68	613.22
380.87	690.46
381.07	681.10
381.26	748.97
381.46	709.18
381.65	725.57
381.85	690.46
382.04	725.57
382.24	723.23
382.43	730.25
382.63	699.82
382.83	725.57
383.02	753.65
383.22	763.01
383.41	819.19
383.61	758.33
383.80	814.51
384.00	786.42
384.19	770.04
384.39	702.16
384.58	805.14
384.78	791.10
384.97	798.12
385.17	854.30
385.36	812.17
385.56	788.76
385.75	812.17
385.95	753.65
386.14	866.00
386.34	798.12
386.53	915.15
386.72	779.40
386.92	924.51
387.11	875.36
387.31	821.53
387.50	926.85
387.70	938.55
387.89	802.80
388.09	844.93
388.28	882.38
388.48	884.72
388.67	957.28
388.86	926.85
389.06	851.96
389.25	990.05
389.45	959.62
389.64	983.02
389.84	1160.91
390.03	1041.54
390.22	1032.18
390.42	990.05
390.61	952.60
390.81	1046.22
391.00	1081.33
391.19	1025.15
391.39	1076.65
391.58	1043.88
391.78	1043.88
391.97	1071.97
392.16	1025.15
392.36	1118.78
392.55	1027.50
392.75	1048.56
392.94	976.00
393.13	980.68
393.33	917.49
393.52	1027.50
393.71	1130.48
393.91	1158.57
394.10	1076.65
394.29	1116.44
394.49	1132.82
394.68	1132.82
394.88	1200.69
395.07	1245.16
395.26	1235.80
395.46	1303.68
395.65	1249.85
395.84	1217.08
396.04	1221.76
396.23	1242.82
396.42	1188.99
396.62	1275.59
396.81	1100.05
397.00	1273.25
397.19	1343.47
397.39	1289.64
397.58	1437.09
397.77	1458.15
397.97	1458.15
398.16	1378.58
398.35	1483.90
398.55	1355.17
398.74	1502.62
398.93	1563.48
399.12	1521.35
399.32	1530.71
399.51	1554.12
399.70	1593.90
399.90	1666.46
400.09	1490.92
400.28	1722.63
400.47	1540.07
400.67	1685.19
400.86	1694.55
401.05	1701.57
401.24	1668.80
401.44	1703.91
401.63	1736.68
401.82	1750.72
402.01	1771.79
402.21	1813.92
402.40	1701.57
402.59	1727.32
402.78	1755.40
402.97	1797.53
403.17	1764.76
403.36	1804.55
403.55	1891.15
403.74	1884.13
403.93	1919.24
404.13	1809.23
404.32	1832.64
404.51	1806.89
404.70	1973.07
404.89	2050.31
405.09	2111.16
405.28	1975.41
405.47	2064.35
405.66	1994.14
405.85	2148.61
406.05	2003.50
406.24	2010.52
406.43	2057.33
406.62	2146.27
406.81	2298.41
407.00	2024.56
407.20	2069.03
407.39	2143.93
407.58	2232.87
407.77	2111.16
407.96	2284.36
408.15	2275.00
408.34	2207.13
408.54	2218.83
408.73	2289.04
408.92	2265.64
409.11	2377.98
409.30	2279.68
409.49	2284.36
409.68	2300.75
409.87	2300.75
410.07	2420.11
410.26	2387.35
410.45	2420.11
410.64	2422.45
410.83	2422.45
411.02	2551.18
411.21	2623.74
411.40	2516.08
411.59	2684.59
411.78	2640.12
411.98	2555.86
412.17	2588.63
412.36	2703.32
412.55	2621.40
412.74	2750.13
412.93	2722.04
413.12	2745.45
413.31	2801.62
413.50	2789.92
413.69	2724.38
413.88	3047.38
414.07	2998.23
414.26	2939.71
414.45	2970.14
414.64	2963.12
414.83	3141.00
415.02	3108.23
415.22	3119.93
415.41	3325.90
415.60	3141.00
415.79	3194.83
415.98	3236.96
416.17	3166.74
416.36	3218.24
416.55	3302.50
416.74	3288.45
416.93	3239.30
417.12	3222.92
417.31	3487.40
417.50	3412.50
417.69	3480.38
417.88	3529.53
418.07	3372.71
418.26	3449.95
418.45	3468.67
418.64	3684.00
418.83	3529.53
419.02	3590.38
419.21	3616.13
419.39	3634.85
419.58	3559.95
419.77	3536.55
419.96	3637.19
420.15	3709.75
420.34	3754.22
420.53	3735.50
420.72	3744.86
420.91	3845.50
421.10	3728.47
421.29	3904.01
421.48	3824.44
421.67	3904.01
421.86	3796.35
422.05	3716.77
422.24	3761.24
422.43	3854.86
422.61	3852.52
422.80	3887.63
422.99	4009.34
423.18	3967.21
423.37	3957.85
423.56	3927.42
423.75	3859.54
423.94	3901.67
424.13	3756.56
424.32	3742.52
424.50	4088.92
424.69	4039.76
424.88	3988.27
425.07	3957.85
425.26	3852.52
425.45	3985.93
425.64	3934.44
425.83	4060.83
426.01	4044.45
426.20	3953.16
426.39	4147.43
426.58	3964.87
426.77	3997.64
426.96	3960.19
427.15	4114.66
427.33	4060.83
427.52	4145.09
427.71	4109.98
427.90	4259.78
428.09	4318.29
428.28	4091.26
428.46	4243.39
428.65	4224.67
428.84	4414.25
429.03	4322.97
429.22	4112.32
429.40	4205.94
429.59	3962.53
429.78	3920.40
429.97	3976.57
430.16	4002.32
430.34	4093.60
430.53	4313.61
430.72	4168.49
430.91	4283.18
431.10	4418.93
431.28	4449.36
431.47	4739.58
431.66	4784.06
431.85	4503.19
432.03	4741.93
432.22	4564.04
432.41	4599.15
432.60	4645.96
432.79	4732.56
432.97	4828.53
433.16	4688.09
433.35	4645.96
433.54	4627.24
433.72	4695.11
433.91	4847.25
434.10	4830.87
434.28	4683.41
434.47	4709.16
434.66	4901.08
434.85	4966.62
435.03	5177.26
435.22	4854.27
435.41	5130.45
435.59	5144.50
435.78	5210.03
435.97	5273.23
436.16	5074.28
436.34	5076.62
436.53	5165.56
436.72	5359.83
436.90	5043.85
437.09	5214.71
437.28	5144.50
437.46	5179.61
437.65	5158.54
437.84	5172.58
438.02	5217.05
438.21	5165.56
438.40	5125.77
438.58	5378.55
438.77	5476.85
438.96	5547.07
439.14	5673.46
439.33	5589.20
439.52	5638.35
439.70	5458.13
439.89	5806.87
440.08	5647.71
440.26	5774.10
440.45	5685.16
440.63	5937.94
440.82	6005.81
441.01	5865.38
441.19	6017.52
441.38	6005.81
441.57	6125.18
441.75	6188.38
441.94	6228.17
442.12	6289.02
442.31	6361.58
442.50	6340.51
442.68	6286.68
442.87	6331.15
443.05	6389.66
443.24	6277.32
443.43	6450.52
443.61	6511.37
443.80	6780.53
443.98	6354.55
444.17	6232.85
444.35	6623.72
444.54	6726.70
444.73	6553.50
444.91	6567.54
445.10	6609.67
445.28	6469.24
445.47	6509.03
445.65	6574.56
445.84	6466.90
446.02	6726.70
446.21	6537.12
446.39	6544.14
446.58	6743.08
446.77	6630.74
446.95	6534.78
447.14	6766.49
447.32	6803.94
447.51	6628.40
447.69	6752.45
447.88	6806.28
448.06	6773.51
448.25	6548.82
448.43	6740.74
448.62	6703.29
448.80	6862.45
448.99	6801.60
449.17	6876.49
449.36	7007.56
449.54	7126.93
449.73	7070.76
449.91	7138.63
450.10	7110.55
450.28	7412.48
450.46	7218.21
450.65	7311.83
450.83	7279.07
451.02	7368.01
451.20	7272.04
451.39	7667.60
451.57	7094.16
451.76	7250.98
451.94	7279.07
452.13	7297.79
452.31	7403.11
452.49	7190.13
452.68	7185.44
452.86	7370.35
453.05	7311.83
453.23	7267.36
453.42	7269.70
453.60	7297.79
453.78	7424.18
453.97	7400.77
454.15	7426.52
454.34	7417.16
454.52	7595.04
454.70	7609.08
454.89	7330.56
455.07	7662.91
455.26	7730.79
455.44	7962.50
455.62	7688.66
455.81	7812.71
455.99	7782.28
456.17	7992.93
456.36	7992.93
456.54	7999.95
456.73	7920.37
456.91	8236.35
457.09	8187.19
457.28	8255.07
457.46	8042.08
457.64	8032.72
457.83	8140.38
458.01	7911.01
458.19	8252.73
458.38	8032.72
458.56	8362.73
458.74	8149.75
458.93	8360.39
459.11	8292.52
459.29	8329.97
459.48	8348.69
459.66	8468.06
459.84	8379.12
460.03	8372.10
460.21	8531.25
460.39	8636.58
460.57	8477.42
460.76	8718.50
460.94	8709.13
461.12	8533.59
461.31	8727.86
461.49	8688.07
461.67	8777.01
461.85	8947.87
462.04	8772.33
462.22	8973.61
462.40	8943.19
462.59	8922.12
462.77	9004.04
462.95	9153.84
463.13	9111.71
463.32	8961.91
463.50	9092.98
463.68	9092.98
463.86	9071.92
464.05	8922.12
464.23	8968.93
464.41	8997.02
464.59	9027.45
464.78	9322.35
464.96	9156.18
465.14	8889.35
465.32	9474.49
465.50	9294.27
465.69	9303.63
465.87	9401.93
466.05	9401.93
466.23	9266.18
466.41	9135.11
466.60	9502.58
466.78	9357.46
466.96	9240.44
467.14	9301.29
467.32	9320.01
467.51	9540.02
467.69	9254.48
467.87	9420.66
468.05	9680.46
468.23	9500.23
468.41	9645.35
468.60	9408.95
468.78	9703.86
468.96	9556.41
469.14	9734.29
469.32	9933.23
469.50	9750.67
469.69	9748.33
469.87	9865.36
470.05	10139.20
470.23	9928.55
470.41	9916.85
470.59	9951.96
470.77	9977.70
470.95	10127.50
471.14	10286.65
471.32	9879.40
471.50	10347.51
471.68	10387.30
471.86	10361.55
472.04	10466.88
472.22	10588.58
472.40	10303.04
472.58	10335.81
472.77	10483.26
472.95	10384.96
473.13	10904.56
473.31	10511.35
473.49	10590.92
473.67	10497.30
473.85	10565.18
474.03	10878.81
474.21	11075.42
474.39	11136.27
474.57	11225.21
474.75	11311.81
474.93	11304.79
475.12	11440.54
475.30	11297.77
475.48	11344.58
475.66	11529.48
475.84	11463.94
476.02	11377.34
476.20	11473.31
476.38	11648.85
476.56	11852.47
476.74	11868.86
476.92	11964.82
477.10	11772.89
477.28	12219.94
477.46	12201.21
477.64	12203.55
477.82	12269.09
478.00	12521.87
478.18	12599.10
478.36	12519.53
478.54	12723.15
478.72	12669.32
478.90	13043.81
479.08	12950.18
479.26	13050.83
479.44	13217.01
479.62	13469.78
479.80	13420.63
479.98	13392.55
480.16	14012.79
480.34	13652.34
480.52	13837.25
480.70	13893.42
480.88	13565.74
481.06	14066.62
481.24	13982.36
481.41	14434.08
481.59	14574.52
481.77	14417.70
481.95	14600.26
482.13	14579.20
482.31	14604.94
482.49	14937.30
482.67	14963.04
482.85	15082.41
483.03	15236.89
483.21	15339.87
483.39	15604.35
483.57	15428.81
483.74	15454.56
483.92	15616.05
484.10	15506.05
484.28	15971.82
484.46	16269.06
484.64	16622.48
484.82	16432.90
485.00	16315.87
485.18	16542.91
485.35	16475.03
485.53	16226.93
485.71	16322.90
485.89	16290.13
486.07	16367.37
486.25	16748.87
486.43	16802.71
486.61	17170.17
486.78	17015.69
486.96	17460.40
487.14	17441.67
487.32	17750.62
487.50	17858.29
487.68	18263.20
487.85	18256.18
488.03	18427.04
488.21	18541.72
488.39	18527.68
488.57	18850.67
488.75	18923.23
488.92	19112.81
489.10	19468.58
489.28	19262.61
489.46	19555.18
489.64	19702.63
489.81	20463.30
489.99	20269.04
490.17	20397.77
490.35	20577.99
490.53	20318.19
490.70	20634.16
490.88	20580.33
491.06	20760.55
491.24	20868.22
491.41	21116.31
491.59	21048.44
491.77	20849.49
491.95	21032.05
492.13	21523.57
492.30	21713.15
492.48	21806.77
492.66	21811.45
492.84	22148.49
493.01	22326.37
493.19	22207.00
493.37	22347.44
493.54	22195.30
493.72	22808.52
493.90	22602.55
494.08	23080.02
494.25	23302.37
494.43	23267.27
494.61	23433.44
494.79	23473.23
494.96	23571.54
495.14	23421.74
495.32	23864.10
495.49	23833.68
495.67	23939.00
495.85	24084.11
496.02	24451.58
496.20	24343.91
496.38	24568.60
496.55	24526.47
496.73	25106.93
496.91	24943.09
497.09	25123.31
497.26	25385.45
497.44	25401.83
497.62	25481.41
497.79	25692.06
497.97	25516.52
498.14	25813.77
498.32	25654.61
498.50	25530.56
498.67	26005.69
498.85	25893.35
499.03	26209.32
499.20	26581.46
499.38	26380.18
499.56	26661.04
499.73	26757.00
499.91	26478.48
500.08	26448.05
500.26	26258.47
500.44	26644.66
500.61	26658.70
500.79	26682.11
500.97	26881.05
501.14	27147.87
501.32	27178.30
501.49	27274.26
501.67	27491.93
501.84	27206.39
502.02	27679.18
502.20	27889.82
502.37	28100.47
502.55	27758.75
502.72	28166.01
502.90	28226.86
503.07	27976.42
503.25	28098.13
503.43	28320.48
503.60	28283.03
503.78	28507.72
503.95	28341.55
504.13	28638.80
504.30	28699.65
504.48	28559.22
504.65	29123.29
504.83	29167.76
505.01	29085.84
505.18	29254.36
505.36	29467.34
505.53	29729.48
505.71	29563.31
505.88	29699.06
506.06	29392.45
506.23	29823.11
506.41	30134.40
506.58	30221.00
506.76	29956.52
506.93	30562.72
507.11	30211.64
507.28	29968.22
507.46	30064.18
507.63	30581.44
507.81	30752.30
507.98	30213.98
508.16	30672.72
508.33	30745.28
508.50	30696.13
508.68	31225.09
508.85	31199.34
509.03	31168.91
509.20	30808.47
509.38	31779.79
509.55	31353.82
509.73	31571.49
509.90	32130.87
510.08	31213.38
510.25	31613.62
510.42	31683.83
510.60	32034.91
510.77	31871.07
510.95	32081.72
511.12	32095.77
511.30	32463.23
511.47	32037.25
511.64	32357.91
511.82	32807.29
511.99	32451.53
512.17	32627.07
512.34	32219.81
512.51	32921.98
512.69	33340.93
512.86	33104.54
513.04	32884.53
513.21	33280.08
513.38	33003.89
513.56	32793.25
513.73	32692.60
513.90	33006.23
514.08	32601.32
514.25	33333.91
514.43	33212.20
514.60	33039.00
514.77	33663.93
514.95	33530.51
515.12	33694.35
515.29	33972.88
515.47	34202.25
515.64	34604.82
515.81	34047.77
515.99	33837.12
516.16	33551.58
516.33	33935.43
516.51	33638.18
516.68	32919.63
516.85	33149.01
517.03	33909.68
517.20	34424.60
517.37	34646.95
517.54	34810.79
517.72	34190.55
517.89	34050.11
518.06	33996.28
518.24	34211.61
518.41	34359.06
518.58	34817.81
518.75	34731.21
518.93	35227.40
519.10	35037.82
519.27	34869.30
519.45	35365.49
519.62	35510.61
519.79	35103.35
519.96	35454.44
520.14	35641.68
520.31	35667.42
520.48	35501.25
520.65	35817.22
520.83	36002.12
521.00	36119.15
521.17	35716.58
521.34	36219.79
521.52	36243.20
521.69	36278.30
521.86	36458.52
522.03	36519.38
522.20	36641.09
522.38	36282.98
522.55	36404.69
522.72	36191.70
522.89	35959.99
523.07	36917.27
523.24	37090.47
523.41	36835.35
523.58	36596.62
523.75	37785.61
523.92	37455.59
524.10	37350.27
524.27	37839.44
524.44	37315.16
524.61	37881.57
524.78	37633.47
524.96	37532.83
525.13	37689.65
525.30	37832.42
525.47	37921.36
525.64	37385.38
525.81	37830.08
525.98	37479.00
526.16	37532.83
526.33	37404.10
526.50	37659.22
526.67	37230.90
526.84	37755.18
527.01	37827.74
527.18	38342.66
527.36	38319.25
527.53	38160.09
527.70	38850.55
527.87	38548.62
528.04	38277.12
528.21	38665.65
528.38	38995.67
528.55	39000.35
528.72	39330.36
528.89	39152.48
529.07	38555.64
529.24	39000.35
529.41	38869.28
529.58	38675.01
529.75	38841.19
529.92	39220.36
530.09	39274.19
530.26	39564.42
530.43	39615.91
530.60	39136.10
530.77	39381.85
530.94	39807.83
531.11	39412.28
531.28	39564.42
531.46	39915.50
531.63	39936.56
531.80	39662.72
531.97	39395.90
532.14	39627.61
532.31	39536.33
532.48	39433.35
532.65	39573.78
532.82	39901.45
532.99	40100.40
533.16	39899.11
533.33	40142.53
533.50	40175.30
533.67	40006.78
533.84	40053.59
534.01	40423.39
534.18	39976.35
534.35	40552.12
534.52	40390.62
534.69	40254.87
534.86	40325.09
535.03	40582.55
535.20	41230.88
535.37	41193.43
535.54	41151.30
535.71	40938.31
535.88	40730.00
536.05	41090.44
536.22	40982.78
536.38	40928.95
536.55	40928.95
536.72	40809.58
536.89	40416.37
537.06	40505.31
537.23	41202.79
537.40	41125.55
537.57	41518.76
537.74	41249.60
537.91	41610.04
538.08	41324.50
538.25	41048.32
538.42	41193.43
538.59	41240.24
538.75	41174.70
538.92	41432.16
539.09	41448.55
539.26	41422.80
539.43	41474.29
539.60	41656.85
539.77	40928.95
539.94	41359.61
540.11	41464.93
540.28	41715.37
540.44	41930.70
540.61	41670.90
540.78	41242.58
540.95	41406.42
541.12	41989.21
541.29	42085.17
541.46	41895.59
541.62	42277.10
541.79	42085.17
541.96	41872.18
542.13	41661.54
542.30	41808.99
542.47	42368.38
542.63	42450.30
542.80	42333.27
542.97	42476.04
543.14	42815.42
543.31	42721.80
543.48	42876.27
543.64	43143.09
543.81	42848.19
543.98	43166.50
544.15	42534.56
544.32	43049.47
544.48	43454.39
544.65	42773.29
544.82	43227.35
544.99	42951.17
545.16	43012.02
545.32	42433.91
545.49	43377.15
545.66	43590.14
545.83	43019.05
546.00	43140.75
546.16	43283.53
546.33	43192.25
546.50	42677.33
546.67	43496.52
546.83	43379.49
547.00	43356.08
547.17	43154.80
547.34	42958.19
547.50	43723.55
547.67	43805.47
547.84	43496.52
548.00	43927.17
548.17	44025.48
548.34	44076.97
548.51	43746.95
548.67	43941.22
548.84	44296.98
549.01	43765.68
549.18	43814.83
549.34	43625.25
549.51	43983.35
549.68	44107.40
549.84	44142.50
550.01	44425.71
550.18	44210.38
550.34	44102.71
550.51	43779.72
550.68	43817.17
550.84	43569.07
551.01	44399.96
551.18	44086.33
551.34	44037.18
551.51	44839.98
551.68	44261.87
551.84	44371.88
552.01	44343.79
552.18	44584.86
552.34	44018.46
552.51	44552.10
552.68	44488.90
552.84	44538.05
553.01	44472.52
553.18	44582.52
553.34	44289.96
553.51	44456.14
553.67	44479.54
553.84	44662.10
554.01	44893.82
554.17	44945.31
554.34	45155.96
554.51	44926.58
554.67	45277.66
554.84	44952.33
555.00	44652.74
555.17	44830.62
555.33	44491.24
555.50	45141.91
555.67	44837.64
555.83	45003.82
556.00	44942.97
556.16	45319.79
556.33	44964.03
556.50	45029.57
556.66	44849.35
556.83	44690.19
556.99	44989.78
557.16	45291.71
557.32	44889.13
557.49	45181.70
557.65	45308.09
557.82	45207.45
557.98	44973.39
558.15	45113.83
558.32	45488.31
558.48	44760.40
558.65	44889.13
558.81	45371.28
558.98	44629.34
559.14	45172.34
559.31	45074.04
559.47	45415.76
559.64	45294.05
559.80	45284.68
559.97	44856.37
560.13	45312.77
560.30	45485.97
560.46	45474.27
560.63	45600.66
560.79	45560.87
560.96	45792.58
561.12	45441.50
561.29	45242.56
561.45	45390.01
561.61	45565.55
561.78	45275.32
561.94	45385.33
562.11	45558.53
562.27	45134.89
562.44	45673.21
562.60	45638.11
562.77	45530.44
562.93	45661.51
563.10	46036.00
563.26	45516.40
563.42	45951.74
563.59	45720.02
563.75	45776.20
563.92	45991.53
564.08	46148.34
564.24	45551.51
564.41	45890.88
564.57	45492.99
564.74	45720.02
564.90	45872.16
565.07	46040.68
565.23	45535.12
565.39	45883.86
565.56	45228.51
565.72	45378.31
565.88	45741.09
566.05	45146.59
566.21	45443.84
566.38	45820.67
566.54	45797.26
566.70	45893.22
566.87	45928.33
567.03	45780.88
567.19	46234.94
567.36	46298.14
567.52	45991.53
567.68	46036.00
567.85	45785.56
568.01	45813.65
568.17	46162.39
568.34	46031.32
568.50	46138.98
568.66	45591.30
568.83	46185.79
568.99	45579.59
569.15	45476.61
569.32	45900.25
569.48	45617.04
569.64	46237.28
569.81	45900.25
569.97	45441.50
570.13	45914.29
570.30	45530.44
570.46	45502.35
570.62	45467.25
570.78	45794.92
570.95	46021.95
571.11	45958.76
571.27	45813.65
571.43	45741.09
571.60	45586.61
571.76	46122.60
571.92	45998.55
572.09	46199.83
572.25	46061.74
572.41	46113.23
572.57	46260.69
572.74	46337.93
572.90	46258.35
573.06	46447.93
573.22	46110.89
573.38	46021.95
573.55	46050.04
573.71	46291.12
573.87	46291.12
574.03	46162.39
574.20	46085.15
574.36	45954.08
574.52	46162.39
574.68	45972.80
574.84	46082.81
575.01	45579.59
575.17	46068.76
575.33	46167.07
575.49	46087.49
575.65	46291.12
575.82	46569.64
575.98	45614.70
576.14	46087.49
576.30	46424.53
576.46	45804.28
576.62	46382.40
576.79	45790.24
576.95	45984.51
577.11	46052.38
577.27	45914.29
577.43	45942.38
577.59	46057.06
577.75	46234.94
577.92	45757.47
578.08	46005.57
578.24	45766.84
578.40	45846.41
578.56	46309.84
578.72	46199.83
578.88	45991.53
579.04	46340.27
579.21	45942.38
579.37	46153.02
579.53	46197.49
579.69	46581.34
579.85	46171.75
580.01	46398.78
580.17	46319.20
580.33	45991.53
580.49	45860.46
580.65	46253.67
580.82	46080.47
580.98	46244.30
581.14	45869.82
581.30	46309.84
581.46	46340.27
581.62	46377.72
581.78	45925.99
581.94	46941.78
582.10	46227.92
582.26	45979.82
582.42	46557.94
582.58	46298.14
582.74	46316.86
582.90	46265.37
583.06	46871.57
583.22	46536.87
583.38	46674.96
583.54	46508.79
583.70	46291.12
583.86	45956.42
584.02	46087.49
584.18	46150.68
584.34	46246.65
584.50	46389.42
584.66	46471.34
584.82	45638.11
584.98	46508.79
585.14	46167.07
585.30	46019.61
585.46	46270.05
585.62	45586.61
585.78	46045.36
585.94	45844.07
586.10	45867.48
586.26	46248.99
586.42	46384.74
586.58	46515.81
586.74	46763.90
586.90	45965.78
587.06	46101.53
587.22	46396.44
587.38	46602.41
587.54	46227.92
587.70	46382.40
587.86	46609.43
588.02	46223.24
588.18	46267.71
588.34	45914.29
588.49	45801.94
588.65	45787.90
588.81	45668.53
588.97	45794.92
589.13	45645.13
589.29	46066.42
589.45	45886.20
589.61	46108.55
589.77	46403.46
589.93	46333.24
