SpectraSuite Data File
++++++++++++++++++++++++++++++++++++
Date: Fri Oct 25 11:33:32 EDT 2013
User: price-jones
Dark Spectrum Present: No
Reference Spectrum Present: No
Number of Sampled Component Spectra: 1
Spectrometers: USB2+H05261
Integration Time (usec): 100000 (USB2+H05261)
Spectra Averaged: 1 (USB2+H05261)
Boxcar Smoothing: 0 (USB2+H05261)
Correct for Electrical Dark: No (USB2+H05261)
Strobe/Lamp Enabled: No (USB2+H05261)
Correct for Detector Non-linearity: No (USB2+H05261)
Correct for Stray Light: No (USB2+H05261)
Number of Pixels in Processed Spectrum: 2048
>>>>>Begin Processed Spectral Data<<<<<
365.73	259.80
365.92	259.80
366.12	259.80
366.32	280.86
366.52	184.90
366.72	217.67
366.91	145.11
367.11	198.95
367.31	121.71
367.51	173.20
367.70	147.45
367.90	259.80
368.10	205.97
368.30	161.50
368.49	175.54
368.69	187.24
368.89	177.88
369.09	255.12
369.28	241.08
369.48	212.99
369.68	238.73
369.87	234.05
370.07	266.82
370.27	294.91
370.47	330.02
370.66	482.15
370.86	475.13
371.06	491.51
371.25	535.98
371.45	507.90
371.65	615.56
371.84	580.45
372.04	585.13
372.24	571.09
372.44	580.45
372.63	533.64
372.83	596.84
373.03	594.50
373.22	585.13
373.42	610.88
373.62	730.25
373.81	795.78
374.01	683.44
374.21	645.99
374.40	664.71
374.60	676.41
374.79	730.25
374.99	657.69
375.19	697.48
375.38	655.35
375.58	650.67
375.78	657.69
375.97	692.80
376.17	713.86
376.37	631.94
376.56	613.22
376.76	648.33
376.95	671.73
377.15	702.16
377.35	718.54
377.54	671.73
377.74	704.50
377.93	716.20
378.13	711.52
378.33	711.52
378.52	674.07
378.72	737.27
378.91	755.99
379.11	753.65
379.31	636.63
379.50	648.33
379.70	674.07
379.89	704.50
380.09	732.59
380.28	779.40
380.48	753.65
380.68	774.72
380.87	772.38
381.07	713.86
381.26	802.80
381.46	699.82
381.65	725.57
381.85	814.51
382.04	807.48
382.24	763.01
382.43	791.10
382.63	737.27
382.83	753.65
383.02	779.40
383.22	840.25
383.41	779.40
383.61	784.08
383.80	781.74
384.00	746.63
384.19	830.89
384.39	791.10
384.58	812.17
384.78	798.12
384.97	858.98
385.17	870.68
385.36	809.83
385.56	873.02
385.75	833.23
385.95	856.64
386.14	877.70
386.34	816.85
386.53	854.30
386.72	908.13
386.92	922.17
387.11	894.08
387.31	863.66
387.50	847.27
387.70	856.64
387.89	919.83
388.09	954.94
388.28	908.13
388.48	896.43
388.67	929.19
388.86	840.25
389.06	943.24
389.25	987.71
389.45	833.23
389.64	954.94
389.84	1036.86
390.03	945.58
390.22	1020.47
390.42	973.66
390.61	929.19
390.81	940.90
391.00	976.00
391.19	1006.43
391.39	1027.50
391.58	1053.24
391.78	1048.56
391.97	945.58
392.16	1001.75
392.36	1060.26
392.55	1078.99
392.75	1067.28
392.94	1022.81
393.13	1034.52
393.33	1081.33
393.52	1036.86
393.71	1174.95
393.91	1156.22
394.10	1078.99
394.29	1011.11
394.49	1121.12
394.68	1193.67
394.88	1076.65
395.07	1090.69
395.26	1093.03
395.46	1090.69
395.65	1240.48
395.84	1200.69
396.04	1235.80
396.23	1123.46
396.42	1107.07
396.62	1160.91
396.81	1217.08
397.00	1233.46
397.19	1212.40
397.39	1299.00
397.58	1256.87
397.77	1219.42
397.97	1324.74
398.16	1245.16
398.35	1341.13
398.55	1184.31
398.74	1245.16
398.93	1315.38
399.12	1343.47
399.32	1348.15
399.51	1338.79
399.70	1451.13
399.90	1336.45
400.09	1287.29
400.28	1406.66
400.47	1303.68
400.67	1387.94
400.86	1383.26
401.05	1341.13
401.24	1434.75
401.44	1446.45
401.63	1472.20
401.82	1490.92
402.01	1434.75
402.21	1483.90
402.40	1460.49
402.59	1579.86
402.78	1523.69
402.97	1558.80
403.17	1479.22
403.36	1568.16
403.55	1514.33
403.74	1626.67
403.93	1577.52
404.13	1495.60
404.32	1547.09
404.51	1486.24
404.70	1603.27
404.89	1596.25
405.09	1734.34
405.28	1657.10
405.47	1680.50
405.66	1652.42
405.85	1645.40
406.05	1710.93
406.24	1757.74
406.43	1748.38
406.62	1748.38
406.81	1902.86
407.00	1734.34
407.20	1757.74
407.39	1797.53
407.58	1818.60
407.77	1879.45
407.96	1942.64
408.15	1909.88
408.34	1961.37
408.54	1898.17
408.73	1872.43
408.92	1774.13
409.11	1877.11
409.30	1984.77
409.49	1895.83
409.68	2005.84
409.87	1998.82
410.07	2078.40
410.26	2050.31
410.45	1994.14
410.64	2043.29
410.83	2125.21
411.02	2153.29
411.21	2069.03
411.40	2258.62
411.59	2136.91
411.78	2122.87
411.98	2277.34
412.17	2251.60
412.36	2153.29
412.55	2338.20
412.74	2483.31
412.93	2415.43
413.12	2293.72
413.31	2338.20
413.50	2310.11
413.69	2473.95
413.88	2597.99
414.07	2495.01
414.26	2483.31
414.45	2551.18
414.64	2539.48
414.83	2579.27
415.02	2726.72
415.22	2569.91
415.41	2609.70
415.60	2661.19
415.79	2703.32
415.98	2708.00
416.17	2754.81
416.36	2729.06
416.55	2757.15
416.74	2773.53
416.93	2911.63
417.12	2822.69
417.31	2832.05
417.50	2937.37
417.69	2902.26
417.88	3005.25
418.07	2850.77
418.26	2925.67
418.45	2977.16
418.64	3040.36
418.83	3089.51
419.02	3007.59
419.21	3054.40
419.39	3145.68
419.58	3056.74
419.77	3117.59
419.96	3159.72
420.15	3080.14
420.34	3155.04
420.53	3155.04
420.72	3229.94
420.91	3073.12
421.10	3208.87
421.29	3201.85
421.48	3227.60
421.67	3258.03
421.86	3363.35
422.05	3269.73
422.24	3480.38
422.43	3386.76
422.61	3337.60
422.80	3375.05
422.99	3426.54
423.18	3403.14
423.37	3398.46
423.56	3410.16
423.75	3316.54
423.94	3300.16
424.13	3178.45
424.32	3297.81
424.50	3576.34
424.69	3445.27
424.88	3562.30
425.07	3440.59
425.26	3290.79
425.45	3447.61
425.64	3475.70
425.83	3414.84
426.01	3508.46
426.20	3454.63
426.39	3482.72
426.58	3515.48
426.77	3492.08
426.96	3545.91
427.15	3508.46
427.33	3473.36
427.52	3632.51
427.71	3606.77
427.90	3644.21
428.09	3665.28
428.28	3655.92
428.46	3801.03
428.65	3719.11
428.84	3815.07
429.03	3819.75
429.22	3698.05
429.40	3737.84
429.59	3758.90
429.78	3531.87
429.97	3665.28
430.16	3709.75
430.34	3747.20
430.53	3794.01
430.72	3943.80
430.91	3943.80
431.10	3885.29
431.28	3906.35
431.47	4149.77
431.66	4028.06
431.85	4002.32
432.03	4093.60
432.22	4100.62
432.41	3906.35
432.60	4021.04
432.79	4004.66
432.97	4109.98
433.16	4156.79
433.35	4133.39
433.54	4198.92
433.72	4077.21
433.91	4194.24
434.10	4100.62
434.28	4093.60
434.47	4264.46
434.66	4297.22
434.85	4348.72
435.03	4465.74
435.22	4332.33
435.41	4491.49
435.59	4311.27
435.78	4339.35
435.97	4404.89
436.16	4273.82
436.34	4454.04
436.53	4372.12
436.72	4624.90
436.90	4447.02
437.09	4470.42
437.28	4397.87
437.46	4458.72
437.65	4519.57
437.84	4542.98
438.02	4631.92
438.21	4730.22
438.40	4606.17
438.58	4674.05
438.77	4858.95
438.96	4760.65
439.14	4816.82
439.33	4926.83
439.52	4779.37
439.70	4950.23
439.89	4854.27
440.08	5032.15
440.26	5135.14
440.45	5036.83
440.63	5191.31
440.82	5156.20
441.01	5172.58
441.19	5238.12
441.38	5212.37
441.57	5359.83
441.75	5334.08
441.94	5273.23
442.12	5338.76
442.31	5413.66
442.50	5446.43
442.68	5423.02
442.87	5320.04
443.05	5554.09
443.24	5661.76
443.43	5540.05
443.61	5675.80
443.80	5652.39
443.98	5586.86
444.17	5184.29
444.35	5558.77
444.54	5727.29
444.73	5781.12
444.91	5554.09
445.10	5654.73
445.28	5650.05
445.47	5671.12
445.65	5600.90
445.84	5584.52
446.02	5596.22
446.21	5720.27
446.39	5598.56
446.58	5776.44
446.77	5626.65
446.95	5710.91
447.14	5699.20
447.32	5884.11
447.51	5731.97
447.69	5750.70
447.88	5788.14
448.06	5778.78
448.25	5837.30
448.43	5823.25
448.62	5879.43
448.80	5912.19
448.99	5846.66
449.17	5954.32
449.36	5914.53
449.54	5940.28
449.73	5996.45
449.91	6183.70
450.10	5975.39
450.28	6193.06
450.46	6073.69
450.65	6003.47
450.83	6155.61
451.02	6134.54
451.20	6200.08
451.39	6193.06
451.57	6345.19
451.76	6228.17
451.94	6099.44
452.13	6279.66
452.31	6242.21
452.49	6104.12
452.68	6303.06
452.86	6368.60
453.05	6408.39
453.23	6586.27
453.42	6272.64
453.60	6312.42
453.78	6396.68
453.97	6363.92
454.15	6623.72
454.34	6396.68
454.52	6682.23
454.70	6487.96
454.89	6480.94
455.07	6520.73
455.26	6597.97
455.44	6654.14
455.62	6616.69
455.81	6642.44
455.99	6731.38
456.17	6759.47
456.36	6761.81
456.54	6876.49
456.73	6965.43
456.91	6822.66
457.09	7061.40
457.28	7089.48
457.46	7037.99
457.64	7002.88
457.83	6909.26
458.01	7030.97
458.19	7300.13
458.38	7250.98
458.56	7098.84
458.74	7157.36
458.93	7162.04
459.11	7082.46
459.29	7449.93
459.48	7330.56
459.66	7239.28
459.84	7255.66
460.03	7468.65
460.21	7470.99
460.39	7585.68
460.57	7396.09
460.76	7487.37
460.94	7330.56
461.12	7494.40
461.31	7583.34
461.49	7709.72
461.67	7501.42
461.85	7822.07
462.04	7541.21
462.22	8049.10
462.40	7782.28
462.59	7751.85
462.77	7618.44
462.95	7716.75
463.13	7754.19
463.32	7751.85
463.50	7868.88
463.68	7847.82
463.86	7852.50
464.05	7765.90
464.23	7922.71
464.41	7892.29
464.59	7913.35
464.78	8077.19
464.96	7932.08
465.14	7784.62
465.32	7960.16
465.50	8053.78
465.69	8124.00
465.87	8264.43
466.05	8271.45
466.23	8053.78
466.41	8297.20
466.60	8161.45
466.78	8077.19
466.96	8203.58
467.14	8231.66
467.32	8353.37
467.51	8341.67
467.69	8009.31
467.87	8278.47
468.05	8486.78
468.23	8409.54
468.41	8542.96
468.60	8229.32
468.78	8428.27
468.96	8393.16
469.14	8421.25
469.32	8667.00
469.50	8493.80
469.69	8720.84
469.87	8718.50
470.05	8795.73
470.23	8865.95
470.41	8765.31
470.59	8833.18
470.77	8905.74
470.95	8786.37
471.14	9036.81
471.32	8772.33
471.50	9046.17
471.68	8987.66
471.86	9430.02
472.04	9139.79
472.22	9479.17
472.40	9128.09
472.58	9224.05
472.77	9446.40
472.95	9493.21
473.13	9577.47
473.31	9327.03
473.49	9561.09
473.67	9392.57
473.85	9724.93
474.03	9575.13
474.21	9563.43
474.39	9949.62
474.57	9792.80
474.75	9980.04
474.93	9783.44
475.12	9891.10
475.30	10104.09
475.48	10097.07
475.66	10223.46
475.84	10010.47
476.02	10303.04
476.20	10387.30
476.38	10382.62
476.56	10530.07
476.74	10588.58
476.92	10630.71
477.10	10356.87
477.28	10827.32
477.46	10621.35
477.64	10733.70
477.82	10974.77
478.00	11103.50
478.18	11232.23
478.36	11302.45
478.54	11363.30
478.72	11489.69
478.90	11595.01
479.08	11632.46
479.26	11728.42
479.44	11705.02
479.62	11705.02
479.80	11857.15
479.98	12093.55
480.16	12173.13
480.34	12325.26
480.52	12468.03
480.70	12219.94
480.88	12060.78
481.06	12453.99
481.24	12407.18
481.41	12643.57
481.59	12610.81
481.77	12674.00
481.95	13011.04
482.13	12922.10
482.31	13128.06
482.49	13125.72
482.67	13518.93
482.85	13544.68
483.03	13516.59
483.21	13706.18
483.39	13832.57
483.57	13895.76
483.74	13752.99
483.92	14015.13
484.10	13977.68
484.28	14253.86
484.46	14581.54
484.64	14738.35
484.82	14443.45
485.00	14679.84
485.18	14932.62
485.35	15037.94
485.53	14867.08
485.71	14984.11
485.89	15311.78
486.07	15161.99
486.25	15468.60
486.43	15646.48
486.61	15864.15
486.78	15751.81
486.96	15826.70
487.14	16114.59
487.32	16245.66
487.50	16435.24
487.68	16519.50
487.85	16704.40
488.03	16800.37
488.21	16828.45
488.39	16751.21
488.57	17303.58
488.75	17078.89
488.92	17472.10
489.10	17528.27
489.28	17853.61
489.46	17937.87
489.64	17827.86
489.81	18097.02
489.99	18190.64
490.17	18263.20
490.35	18483.21
490.53	18576.83
490.70	18658.75
490.88	18422.36
491.06	18881.10
491.24	18836.63
491.41	19058.98
491.59	18944.30
491.77	19246.23
491.95	19412.40
492.13	19356.23
492.30	19463.90
492.48	19655.82
492.66	19920.30
492.84	20046.69
493.01	20187.12
493.19	20367.34
493.37	20467.98
493.54	20180.10
493.72	20994.61
493.90	20678.63
494.08	20753.53
494.25	20964.18
494.43	20919.71
494.61	21081.21
494.79	21081.21
494.96	21231.00
495.14	21551.65
495.32	21682.72
495.49	21874.65
495.67	21631.23
495.85	22148.49
496.02	22204.66
496.20	22270.20
496.38	22462.12
496.55	22363.82
496.73	22572.13
496.91	22492.55
497.09	22759.37
497.26	23049.60
497.44	23126.83
497.62	23175.98
497.79	23396.00
497.97	23222.80
498.14	23655.79
498.32	23730.69
498.50	23915.59
498.67	24093.47
498.85	23445.15
499.03	24074.75
499.20	24245.61
499.38	24196.46
499.56	24346.25
499.73	24360.30
499.91	24432.85
500.08	24751.17
500.26	25071.82
500.44	24645.84
500.61	25135.01
500.79	24966.49
500.97	25029.69
501.14	25617.16
501.32	25212.25
501.49	25022.67
501.67	25429.92
501.84	25514.18
502.02	25467.37
502.20	25600.78
502.37	25792.70
502.55	25553.97
502.72	25961.22
502.90	25872.28
503.07	26029.10
503.25	26206.98
503.43	26164.85
503.60	26527.63
503.78	26590.83
503.95	26558.06
504.13	26665.72
504.30	26799.13
504.48	26448.05
504.65	26857.65
504.83	27058.93
505.01	27117.45
505.18	27274.26
505.36	27435.76
505.53	27234.47
505.71	27386.61
505.88	27735.35
506.06	27351.50
506.23	27704.92
506.41	27627.68
506.58	27938.97
506.76	27756.41
506.93	28119.20
507.11	27744.71
507.28	28175.37
507.46	28491.34
507.63	28240.90
507.81	28568.58
507.98	28231.54
508.16	28484.32
508.33	28606.03
508.50	28933.70
508.68	28772.21
508.85	29345.64
509.03	29186.48
509.20	28659.86
509.38	29298.83
509.55	29095.20
509.73	29158.39
509.90	29680.33
510.08	29355.00
510.25	29500.11
510.42	29694.38
510.60	29914.39
510.77	30024.39
510.95	29984.60
511.12	29759.91
511.30	30043.12
511.47	29986.94
511.64	30101.63
511.82	30352.07
511.99	30256.11
512.17	30410.58
512.34	30480.80
512.51	30810.81
512.69	30778.04
512.86	30375.47
513.04	31108.06
513.21	30855.28
513.38	31311.69
513.56	31087.00
513.73	31002.74
513.90	31358.50
514.08	31262.54
514.25	31503.61
514.43	31821.92
514.60	31608.93
514.77	31789.16
514.95	31456.80
515.12	31590.21
515.29	31920.23
515.47	31686.17
515.64	32268.97
515.81	31735.32
515.99	32044.27
516.16	32685.58
516.33	32336.84
516.51	32301.73
516.68	32245.56
516.85	32697.28
517.03	32629.41
517.20	32769.84
517.37	32779.20
517.54	32767.50
517.72	33127.94
517.89	32725.37
518.06	32903.25
518.24	32716.01
518.41	33202.84
518.58	33317.53
518.75	33111.56
518.93	33397.10
519.10	33495.41
519.27	33567.96
519.45	33610.09
519.62	33511.79
519.79	34110.97
519.96	33591.37
520.14	33614.77
520.31	33769.25
520.48	34080.54
520.65	34265.44
520.83	34293.53
521.00	34246.72
521.17	34387.15
521.34	34396.51
521.52	34590.78
521.69	34330.98
521.86	34918.45
522.03	34471.41
522.20	34763.98
522.38	34902.07
522.55	34899.73
522.72	34892.71
522.89	34941.86
523.07	35601.89
523.24	35147.82
523.41	35445.07
523.58	35065.91
523.75	35625.29
523.92	35494.22
524.10	35688.49
524.27	35644.02
524.44	35761.05
524.61	35981.06
524.78	35665.08
524.96	36004.46
525.13	36107.44
525.30	36320.43
525.47	36348.52
525.64	36526.40
525.81	36699.60
525.98	36465.55
526.16	36416.40
526.33	36385.97
526.50	36662.15
526.67	36484.27
526.84	36327.45
527.01	36638.75
527.18	36943.02
527.36	36863.44
527.53	37467.30
527.70	37038.98
527.87	36877.48
528.04	37347.93
528.21	37656.88
528.38	37148.98
528.55	37436.87
528.72	37074.09
528.89	37404.10
529.07	36910.25
529.24	37214.52
529.41	37493.04
529.58	37537.51
529.75	37390.06
529.92	37530.49
530.09	37551.56
530.26	37727.10
530.43	37883.91
530.60	37570.28
530.77	37743.48
530.94	38157.75
531.11	37940.08
531.28	38054.77
531.46	37979.87
531.63	38183.50
531.80	38054.77
531.97	38279.46
532.14	38387.13
532.31	38337.98
532.48	38770.97
532.65	38602.46
532.82	38583.73
532.99	38768.63
533.16	38565.01
533.33	38904.38
533.50	39086.95
533.67	39000.35
533.84	38476.07
534.01	38813.10
534.18	38897.36
534.35	39505.90
534.52	39887.41
534.69	39323.34
534.86	39381.85
535.03	39044.82
535.20	39316.32
535.37	39119.71
535.54	39552.71
535.71	39461.43
535.88	39583.14
536.05	39693.15
536.22	39742.30
536.38	39796.13
536.55	39531.65
536.72	39941.24
536.89	39365.47
537.06	40304.02
537.23	40081.67
537.40	39812.51
537.57	40027.84
537.74	39927.20
537.91	40339.13
538.08	39800.81
538.25	40023.16
538.42	40381.26
538.59	40456.16
538.75	40552.12
538.92	40580.21
539.09	41099.81
539.26	40137.85
539.43	40704.26
539.60	40697.24
539.77	40442.12
539.94	40849.37
540.11	40868.09
540.28	40748.73
540.44	40917.25
540.61	41027.25
540.78	41141.94
540.95	41102.15
541.12	40678.51
541.29	41038.95
541.46	41127.89
541.62	41387.69
541.79	41387.69
541.96	40898.52
542.13	41120.87
542.30	40940.65
542.47	41214.49
542.63	41698.98
542.80	41336.20
542.97	41818.35
543.14	41708.35
543.31	41853.46
543.48	41890.91
543.64	42557.96
543.81	41902.61
543.98	42356.67
544.15	41425.14
544.32	42075.81
544.48	42316.89
544.65	42609.45
544.82	42499.45
544.99	42094.53
545.16	41956.44
545.32	42059.43
545.49	42925.42
545.66	42595.41
545.83	42817.76
546.00	42263.05
546.16	42951.17
546.33	42724.14
546.50	42373.06
546.67	42698.39
546.83	42256.03
547.00	42719.46
547.17	42588.39
547.34	42948.83
547.50	42920.74
547.67	43325.66
547.84	42784.99
548.00	42827.12
548.17	43552.69
548.34	43208.63
548.51	43571.41
548.67	43243.74
548.84	43187.56
549.01	43051.81
549.18	43323.32
549.34	43449.70
549.51	43515.24
549.68	43508.22
549.84	43473.11
550.01	43761.00
550.18	43173.52
550.34	43330.34
550.51	43484.81
550.68	43988.03
550.84	43367.79
551.01	44048.88
551.18	43562.05
551.34	44156.55
551.51	43966.96
551.68	43992.71
551.84	43936.54
552.01	43655.67
552.18	44027.82
552.34	43931.86
552.51	44098.03
552.68	43508.22
552.84	43910.79
553.01	44414.01
553.18	44069.95
553.34	44273.57
553.51	44612.95
553.67	44378.90
553.84	44594.23
554.01	44430.39
554.17	44601.25
554.34	44940.63
554.51	44643.38
554.67	44739.34
554.84	44641.04
555.00	44479.54
555.17	44306.34
555.33	44729.98
555.50	44683.17
555.67	44573.16
555.83	44715.93
556.00	44521.67
556.16	45345.54
556.33	44694.87
556.50	44823.60
556.66	44512.31
556.83	44992.12
556.99	45345.54
557.16	45076.38
557.32	44994.46
557.49	45181.70
557.65	44832.96
557.82	45235.53
557.98	45219.15
558.15	45095.10
558.32	45191.06
558.48	44701.89
558.65	45319.79
558.81	45476.61
558.98	45179.36
559.14	45294.05
559.31	45071.70
559.47	45368.94
559.64	45284.68
559.80	45619.38
559.97	45659.17
560.13	44889.13
560.30	45439.16
560.46	45984.51
560.63	46099.19
560.79	45727.05
560.96	45776.20
561.12	45638.11
561.29	45773.86
561.45	46040.68
561.61	45457.88
561.78	45514.06
561.94	45785.56
562.11	45673.21
562.27	45420.44
562.44	45677.90
562.60	46007.91
562.77	46108.55
562.93	45858.12
563.10	45993.87
563.26	45827.69
563.42	46382.40
563.59	45593.64
563.75	45837.05
563.92	46314.52
564.08	45724.71
564.24	45628.74
564.41	45923.65
564.57	46176.43
564.74	46150.68
564.90	46059.40
565.07	46094.51
565.23	45963.44
565.39	46302.82
565.56	46082.81
565.72	46213.88
565.88	46461.97
566.05	46630.49
566.21	46050.04
566.38	46579.00
566.54	46305.16
566.70	46211.54
566.87	46092.17
567.03	46122.60
567.19	46726.46
567.36	45909.61
567.52	46218.56
567.68	46445.59
567.85	46686.67
568.01	46677.30
568.17	46724.11
568.34	47241.37
568.50	46457.29
568.66	46321.54
568.83	46211.54
568.99	46677.30
569.15	46571.98
569.32	46560.28
569.48	46546.23
569.64	46892.63
569.81	47096.26
569.97	46616.45
570.13	46799.01
570.30	46401.12
570.46	46887.95
570.62	46714.75
570.78	46887.95
570.95	46532.19
571.11	46728.80
571.27	46487.72
571.43	46827.10
571.60	47147.75
571.76	46754.54
571.92	46611.77
572.09	46660.92
572.25	46824.76
572.41	46651.56
572.57	46677.30
572.74	47175.84
572.90	46593.04
573.06	46855.18
573.22	47388.83
573.38	47318.61
573.55	47012.00
573.71	47555.00
573.87	47276.48
574.03	46939.44
574.20	47629.90
574.36	47234.35
574.52	47136.05
574.68	47192.22
574.84	47129.03
575.01	46635.17
575.17	47056.47
575.33	46717.09
575.49	46857.52
575.65	46948.81
575.82	47098.60
575.98	46946.47
576.14	47557.35
576.30	47416.91
576.46	46960.51
576.62	46965.19
576.79	47159.45
576.95	47028.38
577.11	46660.92
577.27	47084.56
577.43	46848.16
577.59	47232.01
577.75	47056.47
577.92	46831.78
578.08	47100.94
578.24	47021.36
578.40	47042.43
578.56	46997.96
578.72	46824.76
578.88	47171.16
579.04	47618.20
579.21	47150.09
579.37	47690.76
579.53	47285.84
579.69	47026.04
579.85	47152.43
580.01	46981.57
580.17	46902.00
580.33	47035.41
580.49	47356.06
580.65	47110.30
580.82	47164.14
580.98	47110.30
581.14	47384.15
581.30	47414.57
581.46	47346.70
581.62	47330.31
581.78	46946.47
581.94	47482.45
582.10	47037.75
582.26	47559.69
582.42	47058.81
582.58	47206.26
582.74	47346.70
582.90	47283.50
583.06	47538.62
583.22	47327.97
583.38	47103.28
583.54	47840.55
583.70	47555.00
583.86	47388.83
584.02	47154.77
584.18	47744.59
584.34	47686.07
584.50	47878.00
584.66	47306.91
584.82	47564.37
584.98	47491.81
585.14	47473.09
585.30	47339.68
585.46	47709.48
585.62	47269.46
585.78	47693.10
585.94	47330.31
586.10	47152.43
586.26	47175.84
586.42	47473.09
586.58	47559.69
586.74	47583.09
586.90	47229.67
587.06	47388.83
587.22	47573.73
587.38	47122.01
587.54	47407.55
587.70	47896.72
587.86	47662.67
588.02	47430.96
588.18	47327.97
588.34	47732.89
588.49	47800.76
588.65	47447.34
588.81	47339.68
588.97	47714.16
589.13	47786.72
589.29	47512.88
589.45	47849.91
589.61	47725.86
589.77	47409.89
589.93	47538.62
