SpectraSuite Data File
++++++++++++++++++++++++++++++++++++
Date: Fri Oct 25 11:26:19 EDT 2013
User: price-jones
Dark Spectrum Present: No
Reference Spectrum Present: No
Number of Sampled Component Spectra: 1
Spectrometers: USB2+H05261
Integration Time (usec): 100000 (USB2+H05261)
Spectra Averaged: 1 (USB2+H05261)
Boxcar Smoothing: 0 (USB2+H05261)
Correct for Electrical Dark: No (USB2+H05261)
Strobe/Lamp Enabled: No (USB2+H05261)
Correct for Detector Non-linearity: No (USB2+H05261)
Correct for Stray Light: No (USB2+H05261)
Number of Pixels in Processed Spectrum: 2048
>>>>>Begin Processed Spectral Data<<<<<
365.73	266.82
365.92	266.82
366.12	266.82
366.32	124.05
366.52	189.58
366.72	173.20
366.91	147.45
367.11	124.05
367.31	140.43
367.51	177.88
367.70	173.20
367.90	189.58
368.10	234.05
368.30	217.67
368.49	147.45
368.69	205.97
368.89	145.11
369.09	231.71
369.28	175.54
369.48	180.22
369.68	187.24
369.87	166.18
370.07	231.71
370.27	259.80
370.47	353.42
370.66	589.82
370.86	629.60
371.06	657.69
371.25	657.69
371.45	688.12
371.65	758.33
371.84	655.35
372.04	716.20
372.24	716.20
372.44	702.16
372.63	678.76
372.83	772.38
373.03	751.31
373.22	758.33
373.42	713.86
373.62	772.38
373.81	840.25
374.01	805.14
374.21	765.36
374.40	873.02
374.60	802.80
374.79	802.80
374.99	744.29
375.19	809.83
375.38	807.48
375.58	877.70
375.78	938.55
375.97	856.64
376.17	847.27
376.37	856.64
376.56	854.30
376.76	870.68
376.95	873.02
377.15	898.77
377.35	924.51
377.54	950.26
377.74	880.04
377.93	952.60
378.13	856.64
378.33	868.34
378.52	891.74
378.72	973.66
378.91	931.53
379.11	828.55
379.31	891.74
379.50	978.34
379.70	887.06
379.89	994.73
380.09	943.24
380.28	973.66
380.48	980.68
380.68	926.85
380.87	966.64
381.07	952.60
381.26	1039.20
381.46	1032.18
381.65	1050.90
381.85	1104.73
382.04	1039.20
382.24	1027.50
382.43	987.71
382.63	1032.18
382.83	1090.69
383.02	1109.41
383.22	1121.12
383.41	1125.80
383.61	1100.05
383.80	1207.72
384.00	1078.99
384.19	1022.81
384.39	1186.65
384.58	1210.06
384.78	1198.35
384.97	1158.57
385.17	1093.03
385.36	1048.56
385.56	1102.39
385.75	1188.99
385.95	1135.16
386.14	1184.31
386.34	1118.78
386.53	1188.99
386.72	1203.04
386.92	1233.46
387.11	1231.12
387.31	1170.27
387.50	1158.57
387.70	1242.82
387.89	1331.76
388.09	1268.57
388.28	1280.27
388.48	1327.08
388.67	1320.06
388.86	1373.89
389.06	1282.61
389.25	1301.34
389.45	1385.60
389.64	1362.19
389.84	1362.19
390.03	1357.51
390.22	1352.83
390.42	1406.66
390.61	1313.04
390.81	1406.66
391.00	1394.96
391.19	1469.86
391.39	1514.33
391.58	1411.34
391.78	1413.68
391.97	1453.47
392.16	1570.50
392.36	1645.40
392.55	1446.45
392.75	1504.96
392.94	1488.58
393.13	1462.83
393.33	1598.59
393.52	1631.35
393.71	1549.43
393.91	1528.37
394.10	1591.56
394.29	1565.82
394.49	1657.10
394.68	1703.91
394.88	1542.41
395.07	1680.50
395.26	1612.63
395.46	1600.93
395.65	1614.97
395.84	1792.85
396.04	1863.07
396.23	1872.43
396.42	1717.95
396.62	1769.44
396.81	1713.27
397.00	1785.83
397.19	1715.61
397.39	1785.83
397.58	1804.55
397.77	1767.10
397.97	1830.30
398.16	1842.00
398.35	1956.69
398.55	1914.56
398.74	1893.49
398.93	1942.64
399.12	1853.70
399.32	1907.54
399.51	1895.83
399.70	1937.96
399.90	1970.73
400.09	1909.88
400.28	1991.80
400.47	2069.03
400.67	2097.12
400.86	1940.30
401.05	2040.95
401.24	2092.44
401.44	2071.37
401.63	2054.99
401.82	2122.87
402.01	2010.52
402.21	2052.65
402.40	2127.55
402.59	2207.13
402.78	2101.80
402.97	2204.78
403.17	2223.51
403.36	2293.72
403.55	2303.09
403.74	2319.47
403.93	2401.39
404.13	2370.96
404.32	2368.62
404.51	2380.32
404.70	2473.95
404.89	2328.83
405.09	2429.48
405.28	2548.84
405.47	2497.35
405.66	2401.39
405.85	2324.15
406.05	2455.22
406.24	2429.48
406.43	2443.52
406.62	2590.97
406.81	2614.38
407.00	2509.05
407.20	2497.35
407.39	2626.08
407.58	2663.53
407.77	2628.42
407.96	2810.98
408.15	2892.90
408.34	2787.58
408.54	2700.98
408.73	2766.51
408.92	2815.66
409.11	2885.88
409.30	2911.63
409.49	2822.69
409.68	3021.63
409.87	3012.27
410.07	3021.63
410.26	3108.23
410.45	3038.02
410.64	3040.36
410.83	3133.98
411.02	3038.02
411.21	3129.30
411.40	3199.51
411.59	3281.43
411.78	3138.66
411.98	3112.91
412.17	3206.53
412.36	3274.41
412.55	3316.54
412.74	3372.71
412.93	3461.65
413.12	3267.39
413.31	3447.61
413.50	3531.87
413.69	3461.65
413.88	3538.89
414.07	3557.61
414.26	3468.67
414.45	3503.78
414.64	3566.98
414.83	3707.41
415.02	3744.86
415.22	3794.01
415.41	3948.48
415.60	3875.93
415.79	3925.08
415.98	3899.33
416.17	4042.11
416.36	3829.12
416.55	3955.51
416.74	4086.58
416.93	3971.89
417.12	4046.79
417.31	4117.00
417.50	4301.90
417.69	4241.05
417.88	4269.14
418.07	4117.00
418.26	4304.25
418.45	4278.50
418.64	4510.21
418.83	4465.74
419.02	4418.93
419.21	4334.67
419.39	4379.14
419.58	4432.97
419.77	4329.99
419.96	4564.04
420.15	4463.40
420.34	4601.49
420.53	4470.42
420.72	4655.33
420.91	4561.70
421.10	4786.40
421.29	4802.78
421.48	4795.76
421.67	4718.52
421.86	4648.30
422.05	4788.74
422.24	4645.96
422.43	4919.81
422.61	4819.16
422.80	4812.14
422.99	4898.74
423.18	5020.45
423.37	4929.17
423.56	4842.57
423.75	5015.77
423.94	4755.97
424.13	4620.22
424.32	4695.11
424.50	4903.42
424.69	4952.57
424.88	5156.20
425.07	5060.24
425.26	5018.11
425.45	4823.84
425.64	4875.34
425.83	4980.66
426.01	4997.04
426.20	5013.43
426.39	5050.88
426.58	5121.09
426.77	5177.26
426.96	5275.57
427.15	5137.48
427.33	5294.29
427.52	5097.69
427.71	5057.90
427.90	5137.48
428.09	5275.57
428.28	5380.89
428.46	5334.08
428.65	5277.91
428.84	5427.70
429.03	5416.00
429.22	5416.00
429.40	5533.03
429.59	5413.66
429.78	5270.89
429.97	5298.97
430.16	5418.34
430.34	5413.66
430.53	5771.76
430.72	5528.35
430.91	5738.99
431.10	5661.76
431.28	5668.78
431.47	5738.99
431.66	5774.10
431.85	5628.99
432.03	5816.23
432.22	5912.19
432.41	5757.72
432.60	5919.21
432.79	5987.09
432.97	6043.26
433.16	6012.84
433.35	6043.26
433.54	5996.45
433.72	6101.78
433.91	5947.30
434.10	5991.77
434.28	5909.85
434.47	6228.17
434.66	6092.41
434.85	6352.21
435.03	6200.08
435.22	6200.08
435.41	6565.20
435.59	6415.41
435.78	6317.11
435.97	6630.74
436.16	6459.88
436.34	6406.05
436.53	6319.45
436.72	6759.47
436.90	6558.18
437.09	6551.16
437.28	6506.69
437.46	6555.84
437.65	6593.29
437.84	6710.32
438.02	6892.88
438.21	6839.05
438.40	6750.10
438.58	6974.80
438.77	6932.67
438.96	6930.33
439.14	7169.06
439.33	7150.34
439.52	7164.38
439.70	7222.89
439.89	7386.73
440.08	7304.81
440.26	7204.17
440.45	7442.90
440.63	7379.71
440.82	7447.58
441.01	7494.40
441.19	7529.50
441.38	7735.47
441.57	7716.75
441.75	7859.52
441.94	7903.99
442.12	7747.17
442.31	7819.73
442.50	7981.23
442.68	7978.89
442.87	8009.31
443.05	8098.25
443.24	8173.15
443.43	8217.62
443.61	8320.60
443.80	8306.56
443.98	7939.10
444.17	7810.37
444.35	8149.75
444.54	8374.44
444.73	8327.63
444.91	8329.97
445.10	8187.19
445.28	8276.13
445.47	8196.56
445.65	8257.41
445.84	8444.65
446.02	8507.85
446.21	8322.94
446.39	8430.61
446.58	8444.65
446.77	8388.48
446.95	8355.71
447.14	8514.87
447.32	8336.99
447.51	8580.40
447.69	8465.72
447.88	8278.47
448.06	8627.21
448.25	8320.60
448.43	8479.76
448.62	8568.70
448.80	8479.76
448.99	8716.16
449.17	8606.15
449.36	8369.76
449.54	8753.60
449.73	8985.32
449.91	9041.49
450.10	9130.43
450.28	8891.70
450.46	9081.28
450.65	8978.30
450.83	9139.79
451.02	8933.82
451.20	9076.60
451.39	9179.58
451.57	9062.55
451.76	9088.30
451.94	9107.02
452.13	9226.39
452.31	9135.11
452.49	9153.84
452.68	9528.32
452.86	9458.10
453.05	9343.42
453.23	9624.28
453.42	9233.41
453.60	9294.27
453.78	9371.50
453.97	9378.53
454.15	9418.32
454.34	9231.07
454.52	9748.33
454.70	9565.77
454.89	9657.05
455.07	9633.64
455.26	9664.07
455.44	9958.98
455.62	9797.48
455.81	9914.51
455.99	9888.76
456.17	10087.71
456.36	9914.51
456.54	10223.46
456.73	10125.16
456.91	10321.76
457.09	10340.49
457.28	10431.77
457.46	10155.58
457.64	10539.43
457.83	10565.18
458.01	10513.69
458.19	10682.20
458.38	10307.72
458.56	10499.64
458.74	10525.39
458.93	10628.37
459.11	10473.90
459.29	10745.40
459.48	10759.44
459.66	10857.75
459.84	10771.15
460.03	11059.03
460.21	10918.60
460.39	11037.97
460.57	10949.03
460.76	10860.09
460.94	11096.48
461.12	11171.38
461.31	10946.69
461.49	11087.12
461.67	10984.13
461.85	11248.61
462.04	11393.73
462.22	11480.33
462.40	11363.30
462.59	11316.49
462.77	11482.67
462.95	11555.22
463.13	11536.50
463.32	11515.44
463.50	11583.31
463.68	11513.10
463.86	11508.41
464.05	11705.02
464.23	11604.38
464.41	11777.58
464.59	11566.93
464.78	11953.12
464.96	12060.78
465.14	11981.20
465.32	11981.20
465.50	12217.60
465.69	12138.02
465.87	12233.98
466.05	12173.13
466.23	12116.95
466.41	12578.04
466.60	12414.20
466.78	11995.25
466.96	12121.63
467.14	12241.00
467.32	12233.98
467.51	12624.85
467.69	12341.64
467.87	12358.03
468.05	12571.02
468.23	12437.61
468.41	12320.58
468.60	12587.40
468.78	12709.11
468.96	12486.76
469.14	12837.84
469.32	12776.98
469.50	12486.76
469.69	13160.83
469.87	12868.27
470.05	13125.72
470.23	13013.38
470.41	12978.27
470.59	13081.25
470.77	13186.58
470.95	13282.54
471.14	13362.12
471.32	12982.95
471.50	13628.94
471.68	13661.71
471.86	13542.34
472.04	13752.99
472.22	13886.40
472.40	13561.06
472.58	13650.00
472.77	13928.53
472.95	14216.41
473.13	14586.22
473.31	14214.07
473.49	14019.81
473.67	13905.12
473.85	14326.42
474.03	14738.35
474.21	14623.67
474.39	14672.82
474.57	14611.96
474.75	14864.74
474.93	15005.17
475.12	14993.47
475.30	14941.98
475.48	14710.27
475.66	15204.12
475.84	15239.23
476.02	15239.23
476.20	15517.75
476.38	15470.94
476.56	15719.04
476.74	15768.19
476.92	15974.16
477.10	15672.23
477.28	15847.77
477.46	16166.08
477.64	15985.86
477.82	16266.72
478.00	16608.44
478.18	16512.48
478.36	16720.79
478.54	17144.42
478.72	17027.40
478.90	17184.21
479.08	17380.82
479.26	17614.87
479.44	17717.86
479.62	17755.30
479.80	18008.08
479.98	18291.29
480.16	18600.24
480.34	18216.39
480.52	18710.24
480.70	18647.05
480.88	18045.53
481.06	18635.35
481.24	18661.09
481.41	18836.63
481.59	19068.34
481.77	19332.82
481.95	19716.67
482.13	19716.67
482.31	19417.08
482.49	20313.51
482.67	20063.07
482.85	20500.75
483.03	20709.06
483.21	20346.28
483.39	20690.34
483.57	20828.43
483.74	21064.82
483.92	21350.37
484.10	21139.72
484.28	21455.69
484.46	22104.02
484.64	22324.03
484.82	21766.98
485.00	22256.15
485.18	22562.76
485.35	22895.12
485.53	22934.91
485.71	23080.02
485.89	23400.68
486.07	23520.04
486.25	23264.92
486.43	23269.61
486.61	23604.30
486.78	23789.20
486.96	24341.57
487.14	24276.04
487.32	24556.90
487.50	24788.61
487.68	24889.26
487.85	25387.79
488.03	25411.20
488.21	25834.83
488.39	25598.44
488.57	26206.98
488.75	26291.24
488.92	26251.45
489.10	26838.92
489.28	26803.82
489.46	26848.29
489.64	26939.57
489.81	27501.29
489.99	27623.00
490.17	27864.08
490.35	28123.88
490.53	27988.13
490.70	28231.54
490.88	28182.39
491.06	28561.56
491.24	28673.90
491.41	28582.62
491.59	28957.11
491.77	29355.00
491.95	29785.66
492.13	29539.90
492.30	29818.42
492.48	29914.39
492.66	30096.95
492.84	30293.55
493.01	30433.99
493.19	30487.82
493.37	31225.09
493.54	31211.04
493.72	31545.74
493.90	31150.19
494.08	31370.20
494.25	31995.12
494.43	32128.53
494.61	32280.67
494.79	32053.64
494.96	31938.95
495.14	32503.02
495.32	33111.56
495.49	33366.68
495.67	33055.39
495.85	33174.75
496.02	33404.13
496.20	33776.27
496.38	34050.11
496.55	33699.03
496.73	35028.46
496.91	34443.32
497.09	34726.53
497.26	34857.60
497.44	34539.29
497.62	34836.53
497.79	35447.41
497.97	35571.46
498.14	36032.55
498.32	36137.87
498.50	36290.01
498.67	36285.33
498.85	36348.52
499.03	36444.48
499.20	36594.28
499.38	36514.70
499.56	36893.86
499.73	37177.07
499.91	37347.93
500.08	37113.87
500.26	37249.63
500.44	37624.11
500.61	37832.42
500.79	37544.53
500.97	37549.21
501.14	38738.21
501.32	38433.94
501.49	38314.57
501.67	38785.02
501.84	38815.44
502.02	38878.64
502.20	38405.85
502.37	39164.18
502.55	38876.30
502.72	39136.10
502.90	39154.82
503.07	39374.83
503.25	39377.17
503.43	39395.90
503.60	40182.32
503.78	40135.51
503.95	40119.12
504.13	40294.66
504.30	40769.79
504.48	40084.01
504.65	40261.90
504.83	40950.01
505.01	40863.41
505.18	41148.96
505.36	41310.46
505.53	41034.27
505.71	41476.63
505.88	41539.83
506.06	41305.77
506.23	41460.25
506.41	41605.36
506.58	41729.41
506.76	41862.82
506.93	42019.64
507.11	41881.55
507.28	42122.62
507.46	42216.24
507.63	42485.40
507.81	43222.67
507.98	42733.50
508.16	43173.52
508.33	43019.05
508.50	43157.14
508.68	43718.87
508.85	43290.55
509.03	43576.09
509.20	43742.27
509.38	44004.41
509.55	44306.34
509.73	44399.96
509.90	44184.63
510.08	44032.50
510.25	44481.88
510.42	44472.52
510.60	45366.60
510.77	45167.66
510.95	44992.12
511.12	44875.09
511.30	45111.49
511.47	45130.21
511.64	45113.83
511.82	45984.51
511.99	45860.46
512.17	45780.88
512.34	45336.18
512.51	46377.72
512.69	46330.90
512.86	46136.64
513.04	46426.87
513.21	46600.07
513.38	46328.56
513.56	46574.32
513.73	46213.88
513.90	46820.08
514.08	46658.58
514.25	47164.14
514.43	47292.86
514.60	47407.55
514.77	46857.52
514.95	47672.03
515.12	47779.70
515.29	47505.85
515.47	47489.47
515.64	47576.07
515.81	47585.43
515.99	47889.70
516.16	47997.37
516.33	48016.09
516.51	48636.33
516.68	48311.00
516.85	48294.61
517.03	48325.04
517.20	48947.62
517.37	48587.18
517.54	48278.23
517.72	48662.08
517.89	48706.55
518.06	49148.91
518.24	49031.88
518.41	48903.15
518.58	49364.24
518.75	49352.54
518.93	49331.47
519.10	49364.24
519.27	49532.76
519.45	49481.27
519.62	49851.07
519.79	49923.63
519.96	50136.62
520.14	49982.14
520.31	50117.89
520.48	50117.89
520.65	50351.94
520.83	50335.56
521.00	50391.73
521.17	50450.25
521.34	50553.23
521.52	50756.86
521.69	50422.16
521.86	51047.08
522.03	50745.15
522.20	51168.79
522.38	51217.94
522.55	51236.67
522.72	51042.40
522.89	51189.86
523.07	51267.09
523.24	51222.62
523.41	51571.36
523.58	51278.80
523.75	51657.96
523.92	51629.88
524.10	52009.04
524.27	51896.70
524.44	51934.15
524.61	51966.91
524.78	51805.42
524.96	52006.70
525.13	52280.55
525.30	52147.14
525.47	52381.19
525.64	52341.40
525.81	52406.94
525.98	52528.64
526.16	52271.18
526.33	52559.07
526.50	52952.28
526.67	52514.60
526.84	52509.92
527.01	53069.31
527.18	53045.90
527.36	52488.85
527.53	53319.74
527.70	53216.76
527.87	53326.77
528.04	52980.37
528.21	53155.91
528.38	53069.31
528.55	53322.08
528.72	53378.26
528.89	53406.34
529.07	53265.91
529.24	53139.52
529.41	53492.94
529.58	53483.58
529.75	53202.72
529.92	53457.84
530.09	53607.63
530.26	53909.56
530.43	53750.40
530.60	53532.73
530.77	53773.81
530.94	54012.54
531.11	53654.44
531.28	53808.92
531.46	53970.41
531.63	54096.80
531.80	54176.38
531.97	53773.81
532.14	54319.15
532.31	54562.57
532.48	54600.02
532.65	54562.57
532.82	54300.43
532.99	54798.96
533.16	54548.53
533.33	54951.10
533.50	54906.63
533.67	54614.06
533.84	54490.01
534.01	54646.83
534.18	54838.75
534.35	54885.56
534.52	55021.31
534.69	54981.52
534.86	55065.78
535.03	54817.69
535.20	54864.50
535.37	55147.70
535.54	55203.88
535.71	55217.92
535.88	55037.70
536.05	55269.41
536.22	55433.25
536.38	55353.67
536.55	55426.23
536.72	55461.33
536.89	55255.37
537.06	55327.92
537.23	55561.98
537.40	55461.33
537.57	55585.38
537.74	55543.25
537.91	55910.72
538.08	55999.66
538.25	55798.37
538.42	55955.19
538.59	56142.43
538.75	55772.63
538.92	56034.77
539.09	56207.97
539.26	55899.01
539.43	56100.30
539.60	56133.07
539.77	56069.87
539.94	56411.59
540.11	56285.20
540.28	56247.75
540.44	56322.65
540.61	56317.97
540.78	56088.60
540.95	56449.04
541.12	56320.31
541.29	56121.37
541.46	56271.16
541.62	56336.69
541.79	56662.03
541.96	56292.22
542.13	56341.38
542.30	56582.45
542.47	56753.31
542.63	56694.80
542.80	56645.65
542.97	57125.46
543.14	57137.16
543.31	57202.69
543.48	57139.50
543.64	57464.83
543.81	57525.69
543.98	57350.15
544.15	57497.60
544.32	57298.65
544.48	57446.11
544.65	57277.59
544.82	57296.31
544.99	57137.16
545.16	57221.42
545.32	57387.60
545.49	57602.92
545.66	57638.03
545.83	57411.00
546.00	57602.92
546.16	57464.83
546.33	57506.96
546.50	57242.48
546.67	57745.70
546.83	57216.74
547.00	57560.79
547.17	57511.64
547.34	57757.40
547.50	57783.15
547.67	57991.45
547.84	57853.36
548.00	57914.22
548.17	58152.95
548.34	57989.11
548.51	57972.73
548.67	58089.76
548.84	58080.39
549.01	57907.19
549.18	58166.99
549.34	58351.90
549.51	58202.10
549.68	58216.14
549.84	58302.74
550.01	58546.16
550.18	58220.83
550.34	58227.85
550.51	58410.41
550.68	58429.13
550.84	58045.29
551.01	58272.32
551.18	58178.70
551.34	58188.06
551.51	58403.39
551.68	58424.45
551.84	58599.99
552.01	58520.41
552.18	58571.91
552.34	58382.32
552.51	58759.15
552.68	58394.03
552.84	58274.66
553.01	58768.51
553.18	58691.27
553.34	58745.11
553.51	58705.32
553.67	58686.59
553.84	58892.56
554.01	58894.90
554.17	58934.69
554.34	58873.84
554.51	58946.39
554.67	58932.35
554.84	58885.54
555.00	58777.87
555.17	58939.37
555.33	58871.49
555.50	58693.61
555.67	58829.37
555.83	58834.05
556.00	59086.82
556.16	59217.89
556.33	59110.23
556.50	59164.06
556.66	59281.09
556.83	59096.19
556.99	59021.29
557.16	59477.69
557.32	59360.67
557.49	59299.81
557.65	59068.10
557.82	59250.66
557.98	59346.62
558.15	59311.52
558.32	59561.95
558.48	59386.41
558.65	59325.56
558.81	59402.80
558.98	59372.37
559.14	59487.06
559.31	59561.95
559.47	59508.12
559.64	59615.79
559.80	59458.97
559.97	59641.53
560.13	59564.29
560.30	59606.42
560.46	59660.26
560.63	59363.01
560.79	59819.41
560.96	59798.35
561.12	59807.71
561.29	59842.82
561.45	59821.75
561.61	59807.71
561.78	59561.95
561.94	59840.48
562.11	59744.51
562.27	59800.69
562.44	59810.05
562.60	59763.24
562.77	59945.80
562.93	59730.47
563.10	60090.91
563.26	59924.74
563.42	60116.66
563.59	60034.74
563.75	59824.09
563.92	59786.64
564.08	59884.95
564.24	60020.70
564.41	60172.83
564.57	60013.68
564.74	59971.55
564.90	60018.36
565.07	59924.74
565.23	60097.94
565.39	59948.14
565.56	60161.13
565.72	59870.90
565.88	60051.12
566.05	59875.58
566.21	60175.17
566.38	60156.45
566.54	60060.49
566.70	60381.14
566.87	60243.05
567.03	60133.04
567.19	60238.37
567.36	60294.54
567.52	60102.62
567.68	60357.74
567.85	60151.77
568.01	60385.82
568.17	60135.38
568.34	60339.01
568.50	60336.67
568.66	60339.01
568.83	60301.56
568.99	60233.69
569.15	60444.33
569.32	60399.86
569.48	60189.22
569.64	60486.46
569.81	60463.06
569.97	60317.95
570.13	60273.48
570.30	60214.96
570.46	60273.48
570.62	60481.78
570.78	60460.72
570.95	60362.42
571.11	60507.53
571.27	60210.28
571.43	60577.75
571.60	60268.79
571.76	60317.95
571.92	60507.53
572.09	60491.15
572.25	60563.70
572.41	60383.48
572.57	60369.44
572.74	60626.90
572.90	60357.74
573.06	60561.36
573.22	60598.81
573.38	60500.51
573.55	60507.53
573.71	60821.16
573.87	60692.43
574.03	60603.49
574.20	60573.06
574.36	60624.56
574.52	60694.77
574.68	60612.85
574.84	60664.35
575.01	60842.23
575.17	60622.22
575.33	60666.69
575.49	60477.10
575.65	60615.19
575.82	60598.81
575.98	60669.03
576.14	60877.33
576.30	60781.37
576.46	60605.83
576.62	60598.81
576.79	60629.24
576.95	60526.25
577.11	60713.50
577.27	60617.53
577.43	60807.12
577.59	60577.75
577.75	60615.19
577.92	60385.82
578.08	60832.86
578.24	60786.05
578.40	60673.71
578.56	60889.04
578.72	60645.62
578.88	60926.49
579.04	60783.71
579.21	60601.15
579.37	60956.91
579.53	61003.72
579.69	60568.38
579.85	60662.00
580.01	60640.94
580.17	60748.60
580.33	60732.22
580.49	60687.75
580.65	60821.16
580.82	60743.92
580.98	60872.65
581.14	60856.27
581.30	60905.42
581.46	60853.93
581.62	60626.90
581.78	60577.75
581.94	60954.57
582.10	60781.37
582.26	60917.12
582.42	60729.88
582.58	60755.63
582.74	60643.28
582.90	60907.76
583.06	60673.71
583.22	60760.31
583.38	60863.29
583.54	60907.76
583.70	60940.53
583.86	60896.06
584.02	60755.63
584.18	60846.91
584.34	60919.46
584.50	60970.96
584.66	60879.67
584.82	60757.97
584.98	61127.77
585.14	60879.67
585.30	60715.84
585.46	61013.08
585.62	60924.14
585.78	61102.03
585.94	60872.65
586.10	60889.04
586.26	60776.69
586.42	61092.66
586.58	60903.08
586.74	60952.23
586.90	60954.57
587.06	60977.98
587.22	60963.93
587.38	60914.78
587.54	60970.96
587.70	60992.02
587.86	60940.53
588.02	61160.54
588.18	60999.04
588.34	61071.60
588.49	60886.70
