SpectraSuite Data File
++++++++++++++++++++++++++++++++++++
Date: Fri Oct 25 11:23:30 EDT 2013
User: price-jones
Dark Spectrum Present: No
Reference Spectrum Present: No
Number of Sampled Component Spectra: 1
Spectrometers: USB2+H05261
Integration Time (usec): 100000 (USB2+H05261)
Spectra Averaged: 1 (USB2+H05261)
Boxcar Smoothing: 0 (USB2+H05261)
Correct for Electrical Dark: No (USB2+H05261)
Strobe/Lamp Enabled: No (USB2+H05261)
Correct for Detector Non-linearity: No (USB2+H05261)
Correct for Stray Light: No (USB2+H05261)
Number of Pixels in Processed Spectrum: 2048
>>>>>Begin Processed Spectral Data<<<<<
365.73	166.18
365.92	166.18
366.12	166.18
366.32	203.63
366.52	138.09
366.72	159.16
366.91	35.11
367.11	93.62
367.31	212.99
367.51	166.18
367.70	184.90
367.90	124.05
368.10	110.01
368.30	133.41
368.49	145.11
368.69	217.67
368.89	154.48
369.09	175.54
369.28	161.50
369.48	133.41
369.68	112.35
369.87	173.20
370.07	255.12
370.27	276.18
370.47	353.42
370.66	519.60
370.86	662.37
371.06	617.90
371.25	690.46
371.45	709.18
371.65	741.95
371.84	648.33
372.04	723.23
372.24	720.88
372.44	660.03
372.63	767.70
372.83	667.05
373.03	781.74
373.22	791.10
373.42	636.63
373.62	791.10
373.81	793.44
374.01	795.78
374.21	791.10
374.40	814.51
374.60	772.38
374.79	823.87
374.99	784.08
375.19	830.89
375.38	851.96
375.58	858.98
375.78	866.00
375.97	896.43
376.17	931.53
376.37	910.47
376.56	880.04
376.76	854.30
376.95	887.06
377.15	866.00
377.35	919.83
377.54	905.79
377.74	894.08
377.93	943.24
378.13	873.02
378.33	910.47
378.52	868.34
378.72	929.19
378.91	924.51
379.11	908.13
379.31	898.77
379.50	901.11
379.70	994.73
379.89	997.07
380.09	964.30
380.28	917.49
380.48	976.00
380.68	954.94
380.87	978.34
381.07	978.34
381.26	1020.47
381.46	931.53
381.65	1006.43
381.85	1078.99
382.04	1041.54
382.24	1029.84
382.43	985.37
382.63	978.34
382.83	1041.54
383.02	1118.78
383.22	1139.84
383.41	1062.60
383.61	1081.33
383.80	1160.91
384.00	1104.73
384.19	1093.03
384.39	1109.41
384.58	1111.75
384.78	1193.67
384.97	1179.63
385.17	1125.80
385.36	1231.12
385.56	1144.52
385.75	1235.80
385.95	1163.25
386.14	1207.72
386.34	1181.97
386.53	1081.33
386.72	1128.14
386.92	1177.29
387.11	1289.64
387.31	1277.93
387.50	1181.97
387.70	1205.38
387.89	1242.82
388.09	1331.76
388.28	1256.87
388.48	1203.04
388.67	1322.40
388.86	1254.53
389.06	1338.79
389.25	1261.55
389.45	1228.78
389.64	1359.85
389.84	1306.02
390.03	1444.11
390.22	1458.15
390.42	1341.13
390.61	1371.55
390.81	1420.71
391.00	1455.81
391.19	1397.30
391.39	1437.09
391.58	1474.54
391.78	1420.71
391.97	1481.56
392.16	1409.00
392.36	1528.37
392.55	1523.69
392.75	1481.56
392.94	1465.18
393.13	1476.88
393.33	1551.78
393.52	1561.14
393.71	1643.06
393.91	1558.80
394.10	1575.18
394.29	1490.92
394.49	1582.20
394.68	1617.31
394.88	1607.95
395.07	1624.33
395.26	1568.16
395.46	1579.86
395.65	1701.57
395.84	1678.16
396.04	1750.72
396.23	1739.02
396.42	1657.10
396.62	1753.06
396.81	1739.02
397.00	1647.74
397.19	1755.40
397.39	1832.64
397.58	2003.50
397.77	1811.57
397.97	1937.96
398.16	1902.86
398.35	1912.22
398.55	1886.47
398.74	1860.73
398.93	1977.75
399.12	2031.58
399.32	1884.13
399.51	1935.62
399.70	1956.69
399.90	1916.90
400.09	2029.24
400.28	1998.82
400.47	2062.01
400.67	1982.43
400.86	2047.97
401.05	2165.00
401.24	2120.53
401.44	2069.03
401.63	2080.74
401.82	2076.06
402.01	2132.23
402.21	2207.13
402.40	2239.89
402.59	2197.76
402.78	2118.18
402.97	2209.47
403.17	2216.49
403.36	2221.17
403.55	2246.91
403.74	2312.45
403.93	2387.35
404.13	2293.72
404.32	2338.20
404.51	2370.96
404.70	2373.30
404.89	2502.03
405.09	2436.50
405.28	2525.44
405.47	2485.65
405.66	2574.59
405.85	2558.21
406.05	2504.37
406.24	2665.87
406.43	2614.38
406.62	2567.57
406.81	2832.05
407.00	2574.59
407.20	2530.12
407.39	2626.08
407.58	2782.90
407.77	2642.46
407.96	2928.01
408.15	2757.15
408.34	2640.12
408.54	2881.20
408.73	2759.49
408.92	2719.70
409.11	2846.09
409.30	2829.71
409.49	2923.33
409.68	2867.16
409.87	2986.52
410.07	2787.58
410.26	3129.30
410.45	3019.29
410.64	3098.87
410.83	3023.97
411.02	3131.64
411.21	3176.11
411.40	3105.89
411.59	3159.72
411.78	3267.39
411.98	3105.89
412.17	3304.84
412.36	3398.46
412.55	3269.73
412.74	3314.20
412.93	3361.01
413.12	3375.05
413.31	3602.08
413.50	3548.25
413.69	3463.99
413.88	3639.53
414.07	3574.00
414.26	3653.58
414.45	3522.51
414.64	3632.51
414.83	3822.09
415.02	3801.03
415.22	3826.78
415.41	3953.16
415.60	3892.31
415.79	4014.02
415.98	3967.21
416.17	3971.89
416.36	4032.74
416.55	3948.48
416.74	4053.81
416.93	4009.34
417.12	4086.58
417.31	4339.35
417.50	4133.39
417.69	4236.37
417.88	4222.33
418.07	4271.48
418.26	4292.54
418.45	4280.84
418.64	4545.32
418.83	4374.46
419.02	4402.55
419.21	4470.42
419.39	4418.93
419.58	4519.57
419.77	4528.94
419.96	4552.34
420.15	4669.37
420.34	4531.28
420.53	4622.56
420.72	4608.51
420.91	4753.63
421.10	4704.48
421.29	4638.94
421.48	4664.69
421.67	4793.42
421.86	4683.41
422.05	4762.99
422.24	4847.25
422.43	4910.44
422.61	4873.00
422.80	4882.36
422.99	4889.38
423.18	5015.77
423.37	4943.21
423.56	4905.76
423.75	4922.15
423.94	4791.08
424.13	4596.81
424.32	4664.69
424.50	4922.15
424.69	5053.22
424.88	5135.14
425.07	5013.43
425.26	4980.66
425.45	4999.38
425.64	4973.64
425.83	5025.13
426.01	5156.20
426.20	5210.03
426.39	5104.71
426.58	4990.02
426.77	5008.75
426.96	5167.90
427.15	5172.58
427.33	5184.29
427.52	5165.56
427.71	5198.33
427.90	5270.89
428.09	5296.63
428.28	5280.25
428.46	5228.76
428.65	5280.25
428.84	5411.32
429.03	5322.38
429.22	5238.12
429.40	5451.11
429.59	5465.15
429.78	5350.46
429.97	5313.02
430.16	5483.88
430.34	5598.56
430.53	5598.56
430.72	5605.58
430.91	5757.72
431.10	5619.63
431.28	5631.33
431.47	5715.59
431.66	6012.84
431.85	5668.78
432.03	5811.55
432.22	5877.09
432.41	5994.11
432.60	5905.17
432.79	5947.30
432.97	6005.81
433.16	5907.51
433.35	6083.05
433.54	6108.80
433.72	6092.41
433.91	6076.03
434.10	6143.91
434.28	5982.41
434.47	6031.56
434.66	6190.72
434.85	6291.36
435.03	6258.59
435.22	6485.62
435.41	6420.09
435.59	6499.67
435.78	6289.02
435.97	6509.03
436.16	6389.66
436.34	6408.39
436.53	6516.05
436.72	6630.74
436.90	6612.01
437.09	6691.59
437.28	6272.64
437.46	6757.13
437.65	6899.90
437.84	6761.81
438.02	6656.48
438.21	6906.92
438.40	6782.87
438.58	6970.12
438.77	6979.48
438.96	6869.47
439.14	7012.24
439.33	7077.78
439.52	7227.57
439.70	7136.29
439.89	7386.73
440.08	7215.87
440.26	7290.77
440.45	7318.86
440.63	7485.03
440.82	7840.79
441.01	7417.16
441.19	7604.40
441.38	7705.04
441.57	7646.53
441.75	7892.29
441.94	7829.09
442.12	7971.86
442.31	8004.63
442.50	7997.61
442.68	8063.15
442.87	7934.42
443.05	8011.65
443.24	8381.46
443.43	8203.58
443.61	8344.01
443.80	8512.53
443.98	8173.15
444.17	7896.97
444.35	8311.24
444.54	8306.56
444.73	8325.29
444.91	8180.17
445.10	8414.23
445.28	8404.86
445.47	8365.07
445.65	8315.92
445.84	8278.47
446.02	8479.76
446.21	8416.57
446.39	8397.84
446.58	8486.78
446.77	8559.34
446.95	8145.06
447.14	8393.16
447.32	8477.42
447.51	8617.85
447.69	8587.43
447.88	8500.83
448.06	8395.50
448.25	8411.89
448.43	8664.66
448.62	8355.71
448.80	8617.85
448.99	8739.56
449.17	8730.20
449.36	8772.33
449.54	8727.86
449.73	9088.30
449.91	9100.00
450.10	9067.24
450.28	8931.48
450.46	9109.36
450.65	9046.17
450.83	9111.71
451.02	9109.36
451.20	9195.96
451.39	9263.84
451.57	9245.12
451.76	9069.58
451.94	9041.49
452.13	9238.09
452.31	9439.38
452.49	9310.65
452.68	9214.69
452.86	9369.16
453.05	9544.70
453.23	9509.60
453.42	9275.54
453.60	9404.27
453.78	9488.53
453.97	9621.94
454.15	9408.95
454.34	9591.52
454.52	9624.28
454.70	9886.42
454.89	9612.58
455.07	9783.44
455.26	9994.09
455.44	9998.77
455.62	9909.83
455.81	9879.40
455.99	9928.55
456.17	9893.44
456.36	10047.92
456.54	10104.09
456.73	10232.82
456.91	10541.77
457.09	10480.92
457.28	10621.35
457.46	10274.95
457.64	10478.58
457.83	10424.75
458.01	10427.09
458.19	10651.78
458.38	10637.73
458.56	10815.62
458.74	10672.84
458.93	10661.14
459.11	10600.29
459.29	10431.77
459.48	10717.31
459.66	10743.06
459.84	10965.41
460.03	10986.47
460.21	10885.83
460.39	10757.10
460.57	11206.48
460.76	11023.92
460.94	11145.63
461.12	11126.91
461.31	11211.17
461.49	11187.76
461.67	11094.14
461.85	11609.06
462.04	11384.37
462.22	11831.41
462.40	11616.08
462.59	11733.11
462.77	11433.52
462.95	11571.61
463.13	11459.26
463.32	11545.86
463.50	11690.98
463.68	11641.82
463.86	11932.05
464.05	11625.44
464.23	11707.36
464.41	12156.74
464.59	11707.36
464.78	12056.10
464.96	12063.12
465.14	11714.38
465.32	12002.27
465.50	12191.85
465.69	12290.15
465.87	12215.26
466.05	12196.53
466.23	12035.03
466.41	12140.36
466.60	12549.95
466.78	12273.77
466.96	12231.64
467.14	12463.35
467.32	12341.64
467.51	12524.21
467.69	12271.43
467.87	12510.16
468.05	12624.85
468.23	12329.94
468.41	12475.06
468.60	12699.75
468.78	12683.36
468.96	12514.84
469.14	12746.56
469.32	12896.35
469.50	12896.35
469.69	13027.42
469.87	13123.38
470.05	13102.32
470.23	13256.79
470.41	13212.32
470.59	13315.31
470.77	13200.62
470.95	13266.16
471.14	13446.38
471.32	12982.95
471.50	13701.50
471.68	13788.10
471.86	13481.49
472.04	13668.73
472.22	14092.37
472.40	13823.20
472.58	13975.34
472.77	13806.82
472.95	14246.84
473.13	14623.67
473.31	14218.75
473.49	14277.27
473.67	14197.69
473.85	14239.82
474.03	14654.09
474.21	14853.04
474.39	14792.19
474.57	14691.54
474.75	14581.54
474.93	15028.58
475.12	15023.90
475.30	15281.36
475.48	15077.73
475.66	15220.50
475.84	15112.84
476.02	15316.47
476.20	15337.53
476.38	15749.46
476.56	16060.76
476.74	15990.54
476.92	15953.09
477.10	15824.36
477.28	15943.73
477.46	16201.19
477.64	16264.38
477.82	16552.27
478.00	16908.03
478.18	16659.93
478.36	16776.96
478.54	17291.88
478.72	17350.39
478.90	17226.34
479.08	17734.24
479.26	17755.30
479.44	17710.83
479.62	18099.36
479.80	17722.54
479.98	18260.86
480.16	18640.03
480.34	18267.88
480.52	18808.54
480.70	18361.50
480.88	18565.13
481.06	18803.86
481.24	18876.42
481.41	19035.58
481.59	19264.95
481.77	19283.67
481.95	19180.69
482.13	19627.73
482.31	19384.32
482.49	20222.23
482.67	20404.79
482.85	20409.47
483.03	20671.61
483.21	20833.11
483.39	21282.49
483.57	21020.35
483.74	21174.83
483.92	21425.26
484.10	21289.51
484.28	21811.45
484.46	22333.39
484.64	22185.94
484.82	22197.64
485.00	22520.63
485.18	22705.54
485.35	23000.44
485.53	23007.47
485.71	23384.29
485.89	23484.94
486.07	23417.06
486.25	23550.47
486.43	23616.01
486.61	23847.72
486.78	24170.71
486.96	24292.42
487.14	24486.68
487.32	24343.91
487.50	24987.56
487.68	24748.82
487.85	25366.73
488.03	25434.60
488.21	25708.44
488.39	25848.88
488.57	26331.03
488.75	26426.99
488.92	26415.29
489.10	26885.73
489.28	26885.73
489.46	27049.57
489.64	27204.05
489.81	27545.76
489.99	27843.01
490.17	27995.15
490.35	28481.98
490.53	28016.21
490.70	28753.48
490.88	28479.64
491.06	29001.58
491.24	28772.21
491.41	29425.22
491.59	29296.49
491.77	29420.53
491.95	29418.19
492.13	29413.51
492.30	30094.61
492.48	30143.76
492.66	30326.32
492.84	30412.92
493.01	30859.96
493.19	30691.44
493.37	31005.08
493.54	31103.38
493.72	31814.90
493.90	31398.29
494.08	31772.77
494.25	31913.20
494.43	31651.06
494.61	31924.91
494.79	32858.78
494.96	32453.87
495.14	32669.20
495.32	33102.20
495.49	33312.84
495.67	33177.09
495.85	33610.09
496.02	33935.43
496.20	34024.37
496.38	34192.89
496.55	34291.19
496.73	35199.32
496.91	34263.10
497.09	34719.51
497.26	34991.01
497.44	35035.48
497.62	35524.65
497.79	35728.28
497.97	35552.74
498.14	36198.73
498.32	36486.61
498.50	36055.95
498.67	36753.43
498.85	36643.43
499.03	36800.24
499.20	36692.58
499.38	36730.03
499.56	36818.97
499.73	37067.06
499.91	37179.41
500.08	37408.78
500.26	37574.96
500.44	37804.33
500.61	37876.89
500.79	37954.13
500.97	38171.80
501.14	38642.24
501.32	38478.41
501.49	38543.94
501.67	38983.96
501.84	38974.60
502.02	38817.78
502.20	38658.63
502.37	39239.08
502.55	39283.55
502.72	39744.64
502.90	39346.75
503.07	39466.11
503.25	40041.88
503.43	39941.24
503.60	40306.37
503.78	40322.75
503.95	40847.03
504.13	40088.70
504.30	40552.12
504.48	40678.51
504.65	40954.69
504.83	41092.79
505.01	41722.39
505.18	41415.78
505.36	41801.97
505.53	41240.24
505.71	41390.03
505.88	42328.59
506.06	41724.73
506.23	41794.95
506.41	41883.89
506.58	42396.46
506.76	42429.23
506.93	42445.62
507.11	42253.69
507.28	42885.64
507.46	42733.50
507.63	42674.99
507.81	43562.05
507.98	43356.08
508.16	43297.57
508.33	43189.91
508.50	43328.00
508.68	44009.09
508.85	43777.38
509.03	43964.62
509.20	44306.34
509.38	44144.84
509.55	44598.91
509.73	44591.89
509.90	44589.55
510.08	44830.62
510.25	44774.45
510.42	44746.36
510.60	45228.51
510.77	45385.33
510.95	45668.53
511.12	45666.19
511.30	45579.59
511.47	45368.94
511.64	45439.16
511.82	45792.58
511.99	45907.27
512.17	46124.94
512.34	46349.63
512.51	46415.16
512.69	46536.87
512.86	46335.59
513.04	46513.47
513.21	46869.23
513.38	46569.64
513.56	46993.28
513.73	46913.70
513.90	47107.96
514.08	46700.71
514.25	47318.61
514.43	47299.89
514.60	47522.24
514.77	47767.99
514.95	47657.99
515.12	47547.98
515.29	47484.79
515.47	48161.20
515.64	48048.86
515.81	47873.32
515.99	48322.70
516.16	48758.04
516.33	48781.45
516.51	48669.10
516.68	48397.60
516.85	48432.71
517.03	48481.86
517.20	48715.91
517.37	49022.52
517.54	48917.20
517.72	49043.59
517.89	48952.30
518.06	49443.82
518.24	49261.26
518.41	49467.22
518.58	49677.87
518.75	49380.62
518.93	49811.28
519.10	49507.01
519.27	49956.39
519.45	50103.85
519.62	49972.78
519.79	49975.12
519.96	49890.86
520.14	50232.58
520.31	50705.37
520.48	50342.58
520.65	50150.66
520.83	50951.12
521.00	50883.25
521.17	50665.58
521.34	50740.47
521.52	50941.76
521.69	50827.07
521.86	51014.32
522.03	51231.99
522.20	51526.89
522.38	51435.61
522.55	51664.99
522.72	51388.80
522.89	51147.73
523.07	51938.83
523.24	51400.50
523.41	51648.60
523.58	51831.16
523.75	51985.64
523.92	52013.73
524.10	52161.18
524.27	51718.82
524.44	52325.02
524.61	52205.65
524.78	52114.37
524.96	52229.05
525.13	52278.21
525.30	52231.40
525.47	52795.46
525.64	52491.19
525.81	52662.05
525.98	52893.77
526.16	52765.04
526.33	52811.85
526.50	53162.93
526.67	52601.20
526.84	52980.37
527.01	52720.57
527.18	52800.15
527.36	53081.01
527.53	53331.45
527.70	53413.37
527.87	53389.96
528.04	53214.42
528.21	53144.20
528.38	53446.13
528.55	53504.65
528.72	53357.19
528.89	53712.95
529.07	53317.40
529.24	53712.95
529.41	53792.53
529.58	53645.08
529.75	53984.46
529.92	53804.24
530.09	53942.33
530.26	54157.66
530.43	54183.40
530.60	53790.19
530.77	53799.55
530.94	54255.96
531.11	54382.35
531.28	54089.78
531.46	54160.00
531.63	54220.85
531.80	54274.68
531.97	54560.23
532.14	54342.56
532.31	54609.38
532.48	54637.47
532.65	54941.74
532.82	54827.05
532.99	54958.12
533.16	54590.66
533.33	54948.76
533.50	54878.54
533.67	54728.75
533.84	54742.79
534.01	55150.04
534.18	55189.83
534.35	55049.40
534.52	55227.28
534.69	55299.84
534.86	55444.95
535.03	54894.92
535.20	55330.26
535.37	55330.26
535.54	55304.52
535.71	55351.33
535.88	55531.55
536.05	55468.36
536.22	55604.11
536.38	55639.22
536.55	55557.30
536.72	55814.76
536.89	55458.99
537.06	55828.80
537.23	55739.86
537.40	55735.18
537.57	55767.94
537.74	55950.51
537.91	56093.28
538.08	55709.43
538.25	55845.18
538.42	55906.04
538.59	56034.77
538.75	55948.17
538.92	56020.72
539.09	56388.19
539.26	56250.09
539.43	56034.77
539.60	56306.27
539.77	56413.93
539.94	56500.53
540.11	56280.52
540.28	56460.74
540.44	56554.36
540.61	56474.79
540.78	56397.55
540.95	56753.31
541.12	56533.30
541.29	56313.29
541.46	56378.82
541.62	56788.42
541.79	56591.81
541.96	56399.89
542.13	56568.41
542.30	56587.13
542.47	56769.69
542.63	56860.97
542.80	57066.94
542.97	56982.68
543.14	57310.36
543.31	57270.57
543.48	57401.64
543.64	57293.97
543.81	57469.51
543.98	57251.84
544.15	57183.97
544.32	57411.00
544.48	57621.65
544.65	57406.32
544.82	57635.69
544.99	57272.91
545.16	57684.84
545.32	57488.24
545.49	57848.68
545.66	58026.56
545.83	57600.58
546.00	57923.58
546.16	57645.05
546.33	57525.69
546.50	57506.96
546.67	58019.54
546.83	57741.02
547.00	57790.17
547.17	57705.91
547.34	57839.32
547.50	57918.90
547.67	58056.99
547.84	58035.92
548.00	58267.64
548.17	58412.75
548.34	58164.65
548.51	58354.24
548.67	58377.64
548.84	58038.26
549.01	58157.63
549.18	58010.18
549.34	58143.59
549.51	58286.36
549.68	58581.27
549.84	58422.11
550.01	58499.35
550.18	58351.90
550.34	58379.98
550.51	58408.07
550.68	58443.18
550.84	58225.51
551.01	58656.17
551.18	58693.61
551.34	58672.55
551.51	58749.79
551.68	58569.57
551.84	58548.50
552.01	58471.26
552.18	58754.47
552.34	58548.50
552.51	58897.24
552.68	58567.23
552.84	58812.98
553.01	59112.57
553.18	58913.62
553.34	59021.29
553.51	58787.24
553.67	58871.49
553.84	59098.53
554.01	59037.67
554.17	59117.25
554.34	59096.19
554.51	58960.44
554.67	59126.61
554.84	59128.95
555.00	59086.82
555.17	58927.67
555.33	59119.59
555.50	59112.57
555.67	59189.81
555.83	58941.71
556.00	59128.95
556.16	59564.29
556.33	59346.62
556.50	59283.43
556.66	59360.67
556.83	59000.22
556.99	59414.50
557.16	59550.25
557.32	59409.82
557.49	59498.76
557.65	59384.07
557.82	59334.92
557.98	59568.97
558.15	59512.80
558.32	59554.93
558.48	59374.71
558.65	59552.59
558.81	59346.62
558.98	59632.17
559.14	59674.30
559.31	59671.96
559.47	59686.00
559.64	59700.04
559.80	59791.33
559.97	59756.22
560.13	59788.98
560.30	59723.45
560.46	59671.96
560.63	59887.29
560.79	59796.01
560.96	59882.61
561.12	59812.39
561.29	59650.89
561.45	60027.72
561.61	60037.08
561.78	59800.69
561.94	59908.35
562.11	59880.27
562.27	59990.27
562.44	60212.62
562.60	60172.83
562.77	59908.35
562.93	59901.33
563.10	60119.00
563.26	59964.52
563.42	60121.34
563.59	59901.33
563.75	59962.18
563.92	59917.71
564.08	60060.49
564.24	60250.07
564.41	60116.66
564.57	60294.54
564.74	60207.94
564.90	60067.51
565.07	60186.88
565.23	60182.19
565.39	60069.85
565.56	60324.97
565.72	60376.46
565.88	60104.96
566.05	60147.09
566.21	60331.99
566.38	60308.58
566.54	60399.86
566.70	60280.50
566.87	60395.18
567.03	60261.77
567.19	60547.32
567.36	60313.26
567.52	60205.60
567.68	60640.94
567.85	60416.25
568.01	60458.38
568.17	60350.71
568.34	60486.46
568.50	60540.30
568.66	60432.63
568.83	60350.71
568.99	60294.54
569.15	60456.04
569.32	60514.55
569.48	60423.27
569.64	60376.46
569.81	60706.47
569.97	60418.59
570.13	60346.03
570.30	60336.67
570.46	60587.11
570.62	60711.16
570.78	60818.82
570.95	60657.32
571.11	60603.49
571.27	60594.13
571.43	60687.75
571.60	60790.73
571.76	60514.55
571.92	60603.49
572.09	60645.62
572.25	60786.05
572.41	60526.25
572.57	60793.07
572.74	60816.48
572.90	60449.02
573.06	60811.80
573.22	60917.12
573.38	60647.96
573.55	60640.94
573.71	60786.05
573.87	60610.51
574.03	60671.37
574.20	60732.22
574.36	60505.19
574.52	60772.01
574.68	60748.60
574.84	60898.40
575.01	60905.42
575.17	60851.59
575.33	60720.52
575.49	60575.40
575.65	60917.12
575.82	60891.38
575.98	60963.93
576.14	61188.63
576.30	61029.47
576.46	60673.71
576.62	60900.74
576.79	60692.43
576.95	60687.75
577.11	60956.91
577.27	60917.12
577.43	60711.16
577.59	60797.76
577.75	60694.77
577.92	60603.49
578.08	60666.69
578.24	60992.02
578.40	61006.06
578.56	61034.15
578.72	60755.63
578.88	60879.67
579.04	61111.39
579.21	60830.52
579.37	61050.53
579.53	61078.62
579.69	60858.61
579.85	60828.18
580.01	60797.76
580.17	60870.31
580.33	60835.20
580.49	60999.04
580.65	60860.95
580.82	60851.59
580.98	60837.54
581.14	60804.78
581.30	61017.77
581.46	60872.65
581.62	61043.51
581.78	61045.85
581.94	60959.25
582.10	60830.52
582.26	60992.02
582.42	61010.74
582.58	60872.65
582.74	61057.56
582.90	60970.96
583.06	61031.81
583.22	60961.59
583.38	61057.56
583.54	61111.39
583.70	61008.40
583.86	61013.08
584.02	60907.76
584.18	61045.85
584.34	61066.92
584.50	61001.38
584.66	60830.52
584.82	60818.82
584.98	61237.78
585.14	61059.90
585.30	60935.85
585.46	61078.62
585.62	61116.07
585.78	61102.03
585.94	60832.86
586.10	60907.76
586.26	61062.24
586.42	61244.80
586.58	61109.05
586.74	61036.49
586.90	60977.98
587.06	61087.98
587.22	61268.20
587.38	61251.82
587.54	61132.45
587.70	61167.56
587.86	61172.24
588.02	61137.13
588.18	61195.65
588.34	61045.85
588.49	61038.83
