SpectraSuite Data File
++++++++++++++++++++++++++++++++++++
Date: Fri Oct 25 11:25:35 EDT 2013
User: price-jones
Dark Spectrum Present: No
Reference Spectrum Present: No
Number of Sampled Component Spectra: 1
Spectrometers: USB2+H05261
Integration Time (usec): 100000 (USB2+H05261)
Spectra Averaged: 1 (USB2+H05261)
Boxcar Smoothing: 0 (USB2+H05261)
Correct for Electrical Dark: No (USB2+H05261)
Strobe/Lamp Enabled: No (USB2+H05261)
Correct for Detector Non-linearity: No (USB2+H05261)
Correct for Stray Light: No (USB2+H05261)
Number of Pixels in Processed Spectrum: 2048
>>>>>Begin Processed Spectral Data<<<<<
365.73	262.14
365.92	262.14
366.12	262.14
366.32	154.48
366.52	142.77
366.72	91.28
366.91	166.18
367.11	117.03
367.31	119.37
367.51	79.58
367.70	138.09
367.90	194.26
368.10	149.79
368.30	145.11
368.49	110.01
368.69	147.45
368.89	114.69
369.09	152.13
369.28	166.18
369.48	187.24
369.68	189.58
369.87	194.26
370.07	264.48
370.27	292.57
370.47	322.99
370.66	552.37
370.86	643.65
371.06	620.24
371.25	732.59
371.45	594.50
371.65	727.91
371.84	650.67
372.04	662.37
372.24	702.16
372.44	702.16
372.63	760.67
372.83	737.27
373.03	709.18
373.22	760.67
373.42	748.97
373.62	772.38
373.81	809.83
374.01	835.57
374.21	791.10
374.40	870.68
374.60	807.48
374.79	809.83
374.99	770.04
375.19	770.04
375.38	835.57
375.58	854.30
375.78	952.60
375.97	847.27
376.17	917.49
376.37	877.70
376.56	933.87
376.76	866.00
376.95	851.96
377.15	912.81
377.35	847.27
377.54	978.34
377.74	945.58
377.93	943.24
378.13	903.45
378.33	924.51
378.52	908.13
378.72	896.43
378.91	952.60
379.11	908.13
379.31	952.60
379.50	858.98
379.70	961.96
379.89	992.39
380.09	950.26
380.28	901.11
380.48	1015.79
380.68	1013.45
380.87	947.92
381.07	1029.84
381.26	1011.11
381.46	976.00
381.65	1027.50
381.85	950.26
382.04	1027.50
382.24	1069.62
382.43	1018.13
382.63	1036.86
382.83	1071.97
383.02	1095.37
383.22	1200.69
383.41	1074.31
383.61	1111.75
383.80	1121.12
384.00	1146.86
384.19	1137.50
384.39	1123.46
384.58	1188.99
384.78	1172.61
384.97	1238.14
385.17	1210.06
385.36	1179.63
385.56	1191.33
385.75	1123.46
385.95	1149.20
386.14	1210.06
386.34	1196.01
386.53	1132.82
386.72	1247.51
386.92	1219.42
387.11	1296.66
387.31	1315.38
387.50	1207.72
387.70	1242.82
387.89	1259.21
388.09	1320.06
388.28	1172.61
388.48	1284.95
388.67	1331.76
388.86	1322.40
389.06	1378.58
389.25	1369.21
389.45	1329.42
389.64	1364.53
389.84	1425.39
390.03	1373.89
390.22	1399.64
390.42	1348.15
390.61	1409.00
390.81	1359.85
391.00	1476.88
391.19	1458.15
391.39	1481.56
391.58	1446.45
391.78	1453.47
391.97	1446.45
392.16	1434.75
392.36	1509.65
392.55	1547.09
392.75	1586.88
392.94	1561.14
393.13	1472.20
393.33	1416.02
393.52	1638.38
393.71	1582.20
393.91	1556.46
394.10	1607.95
394.29	1575.18
394.49	1565.82
394.68	1652.42
394.88	1614.97
395.07	1694.55
395.26	1654.76
395.46	1629.01
395.65	1689.87
395.84	1732.00
396.04	1767.10
396.23	1729.66
396.42	1729.66
396.62	1739.02
396.81	1767.10
397.00	1682.85
397.19	1809.23
397.39	1799.87
397.58	1888.81
397.77	1797.53
397.97	1959.03
398.16	1776.47
398.35	1846.68
398.55	1834.98
398.74	1879.45
398.93	1898.17
399.12	1949.67
399.32	1905.20
399.51	1947.33
399.70	2045.63
399.90	1980.09
400.09	2066.69
400.28	2073.71
400.47	2036.27
400.67	2019.88
400.86	1989.46
401.05	2045.63
401.24	2033.93
401.44	2069.03
401.63	2157.97
401.82	2062.01
402.01	2104.14
402.21	2300.75
402.40	2263.30
402.59	2230.53
402.78	2132.23
402.97	2214.15
403.17	2195.42
403.36	2157.97
403.55	2251.60
403.74	2410.75
403.93	2394.37
404.13	2284.36
404.32	2312.45
404.51	2448.20
404.70	2415.43
404.89	2331.17
405.09	2448.20
405.28	2370.96
405.47	2499.69
405.66	2616.72
405.85	2520.76
406.05	2567.57
406.24	2499.69
406.43	2537.14
406.62	2626.08
406.81	2553.52
407.00	2588.63
407.20	2626.08
407.39	2619.06
407.58	2818.00
407.77	2731.41
407.96	2724.38
408.15	2724.38
408.34	2736.09
408.54	2782.90
408.73	2722.04
408.92	2869.50
409.11	2822.69
409.30	2881.20
409.49	2956.10
409.68	2939.71
409.87	2860.13
410.07	3045.04
410.26	2963.12
410.45	2995.89
410.64	3066.10
410.83	3075.46
411.02	3110.57
411.21	3253.34
411.40	3026.31
411.59	3236.96
411.78	3206.53
411.98	3211.22
412.17	3251.00
412.36	3382.07
412.55	3218.24
412.74	3325.90
412.93	3328.24
413.12	3393.78
413.31	3632.51
413.50	3506.12
413.69	3342.28
413.88	3625.49
414.07	3597.40
414.26	3583.36
414.45	3630.17
414.64	3712.09
414.83	3597.40
415.02	3733.15
415.22	3723.79
415.41	3770.60
415.60	3812.73
415.79	3915.72
415.98	3981.25
416.17	3943.80
416.36	4102.96
416.55	3981.25
416.74	4095.94
416.93	4051.47
417.12	4126.36
417.31	4109.98
417.50	4175.52
417.69	4348.72
417.88	4219.99
418.07	4362.76
418.26	4301.90
418.45	4386.16
418.64	4477.44
418.83	4472.76
419.02	4451.70
419.21	4456.38
419.39	4461.06
419.58	4514.89
419.77	4442.34
419.96	4596.81
420.15	4479.79
420.34	4519.57
420.53	4732.56
420.72	4671.71
420.91	4744.27
421.10	4580.43
421.29	4676.39
421.48	4788.74
421.67	4762.99
421.86	4798.10
422.05	4734.90
422.24	4760.65
422.43	4865.97
422.61	4837.89
422.80	4880.02
422.99	4987.68
423.18	5022.79
423.37	5090.67
423.56	4896.40
423.75	4910.44
423.94	4851.93
424.13	4601.49
424.32	4755.97
424.50	4833.21
424.69	5057.90
424.88	5228.76
425.07	4863.63
425.26	4938.53
425.45	4823.84
425.64	4842.57
425.83	4947.89
426.01	5149.18
426.20	5006.41
426.39	5137.48
426.58	4940.87
426.77	5074.28
426.96	5153.86
427.15	5172.58
427.33	5219.39
427.52	5102.37
427.71	5331.74
427.90	5224.08
428.09	5336.42
428.28	5329.40
428.46	5322.38
428.65	5334.08
428.84	5502.60
429.03	5336.42
429.22	5247.48
429.40	5380.89
429.59	5451.11
429.78	5366.85
429.97	5247.48
430.16	5451.11
430.34	5554.09
430.53	5713.25
430.72	5675.80
430.91	5547.07
431.10	5476.85
431.28	5593.88
431.47	5804.53
431.66	5865.38
431.85	5659.42
432.03	5790.49
432.22	5921.56
432.41	5895.81
432.60	5940.28
432.79	5746.02
432.97	6031.56
433.16	5984.75
433.35	6134.54
433.54	5975.39
433.72	6157.95
433.91	6160.29
434.10	6221.14
434.28	6069.01
434.47	6094.76
434.66	6195.40
434.85	6197.74
435.03	6298.38
435.22	6270.30
435.41	6443.49
435.59	6296.04
435.78	6338.17
435.97	6464.56
436.16	6520.73
436.34	6415.41
436.53	6473.92
436.72	6656.48
436.90	6427.11
437.09	6518.39
437.28	6509.03
437.46	6553.50
437.65	6464.56
437.84	6829.68
438.02	6715.00
438.21	6572.22
438.40	6906.92
438.58	6946.71
438.77	7028.63
438.96	6993.52
439.14	7236.94
439.33	7272.04
439.52	7311.83
439.70	7187.79
439.89	7290.77
440.08	7314.17
440.26	7456.95
440.45	7407.80
440.63	7473.33
440.82	7485.03
441.01	7438.22
441.19	7749.51
441.38	7569.29
441.57	7747.17
441.75	7709.72
441.94	7955.48
442.12	7946.12
442.31	7939.10
442.50	8044.42
442.68	8088.89
442.87	8098.25
443.05	8053.78
443.24	8222.30
443.43	8198.90
443.61	8276.13
443.80	8388.48
443.98	7777.60
444.17	8037.40
444.35	8184.85
444.54	8264.43
444.73	8299.54
444.91	8322.94
445.10	8271.45
445.28	8381.46
445.47	8262.09
445.65	8304.22
445.84	8404.86
446.02	8535.93
446.21	8315.92
446.39	8461.04
446.58	8566.36
446.77	8449.33
446.95	8336.99
447.14	8320.60
447.32	8512.53
447.51	8477.42
447.69	8521.89
447.88	8608.49
448.06	8549.98
448.25	8365.07
448.43	8573.38
448.62	8613.17
448.80	8318.26
448.99	8699.77
449.17	8695.09
449.36	8685.73
449.54	8791.05
449.73	8788.71
449.91	8645.94
450.10	8910.42
450.28	8978.30
450.46	8982.98
450.65	8954.89
450.83	9090.64
451.02	8903.40
451.20	9191.28
451.39	9039.15
451.57	9062.55
451.76	9011.06
451.94	9050.85
452.13	9303.63
452.31	9366.82
452.49	9219.37
452.68	9453.42
452.86	9362.14
453.05	9369.16
453.23	9331.72
453.42	9458.10
453.60	9357.46
453.78	9448.74
453.97	9357.46
454.15	9453.42
454.34	9568.11
454.52	9563.43
454.70	9680.46
454.89	9935.57
455.07	9802.16
455.26	9577.47
455.44	9888.76
455.62	9788.12
455.81	9977.70
455.99	9846.63
456.17	10003.45
456.36	10026.86
456.54	10237.50
456.73	10176.65
456.91	10490.28
457.09	10429.43
457.28	10394.32
457.46	10225.80
457.64	10359.21
457.83	10354.53
458.01	10406.02
458.19	10494.96
458.38	10525.39
458.56	10656.46
458.74	10698.59
458.93	10616.67
459.11	10579.22
459.29	10661.14
459.48	10832.00
459.66	10754.76
459.84	10920.94
460.03	10927.96
460.21	10911.58
460.39	11229.89
460.57	11061.37
460.76	11234.57
460.94	11501.39
461.12	11250.96
461.31	11098.82
461.49	11159.67
461.67	11021.58
461.85	11454.58
462.04	11307.13
462.22	11730.76
462.40	11515.44
462.59	11480.33
462.77	11719.06
462.95	11410.11
463.13	11618.42
463.32	11625.44
463.50	11609.06
463.68	11698.00
463.86	11674.59
464.05	11672.25
464.23	11702.68
464.41	11847.79
464.59	11496.71
464.78	12170.79
464.96	11997.59
465.14	11810.34
465.32	12093.55
465.50	11988.22
465.69	12091.21
465.87	11964.82
466.05	11953.12
466.23	11929.71
466.41	12332.28
466.60	12453.99
466.78	11985.88
466.96	12262.07
467.14	12009.29
467.32	12358.03
467.51	12601.44
467.69	12135.68
467.87	12446.97
468.05	12610.81
468.23	12486.76
468.41	12390.80
468.60	12819.11
468.78	12840.18
468.96	12690.38
469.14	12826.14
469.32	13156.15
469.50	12592.08
469.69	12664.64
469.87	13212.32
470.05	13015.72
470.23	13195.94
470.41	12933.80
470.59	13172.54
470.77	13144.45
470.95	13291.90
471.14	13364.46
471.32	13319.99
471.50	13879.38
471.68	13514.25
471.86	13617.24
472.04	13650.00
472.22	13954.27
472.40	13832.57
472.58	13879.38
472.77	13902.78
472.95	14193.01
473.13	14602.60
473.31	13909.80
473.49	14363.87
473.67	13994.06
473.85	14221.10
474.03	14740.69
474.21	14600.26
474.39	14913.89
474.57	14719.63
474.75	14927.94
474.93	14792.19
475.12	14970.07
475.30	15159.65
475.48	15051.99
475.66	14918.57
475.84	14806.23
476.02	15573.92
476.20	15283.70
476.38	15475.62
476.56	15917.98
476.74	15908.62
476.92	15831.38
477.10	15845.43
477.28	15838.41
477.46	15988.20
477.64	16182.46
477.82	16491.41
478.00	17216.98
478.18	16908.03
478.36	16882.28
478.54	16805.05
478.72	17029.74
478.90	17376.14
479.08	17528.27
479.26	17659.34
479.44	17834.88
479.62	17809.14
479.80	17886.37
479.98	17900.42
480.16	18555.77
480.34	18092.34
480.52	18417.68
480.70	18834.29
480.88	18445.76
481.06	18668.11
481.24	18611.94
481.41	18960.68
481.59	19288.35
481.77	19580.92
481.95	19381.98
482.13	19604.33
482.31	19831.36
482.49	20257.34
482.67	20009.24
482.85	20257.34
483.03	20847.15
483.21	20526.50
483.39	21128.02
483.57	20559.27
483.74	21322.28
483.92	21170.15
484.10	21317.60
484.28	21837.20
484.46	21738.90
484.64	22305.31
484.82	21743.58
485.00	22401.27
485.18	22860.01
485.35	22939.59
485.53	22885.76
485.71	22977.04
485.89	23503.66
486.07	23192.37
486.25	23304.71
486.43	23503.66
486.61	23709.63
486.78	24023.26
486.96	24325.19
487.14	24816.70
487.32	24545.20
487.50	24711.38
487.68	24687.97
487.85	25696.74
488.03	25188.85
488.21	25685.04
488.39	25839.51
488.57	26115.70
488.75	26080.59
488.92	26569.76
489.10	26754.66
489.28	26504.23
489.46	26958.29
489.64	27007.44
489.81	27740.03
489.99	27601.94
490.17	27704.92
490.35	27791.52
490.53	28233.88
490.70	28430.49
490.88	28114.52
491.06	28561.56
491.24	28683.27
491.41	28835.40
491.59	29369.04
491.77	29244.99
491.95	29532.88
492.13	29635.86
492.30	29640.54
492.48	29926.09
492.66	29797.36
492.84	30136.74
493.01	30965.29
493.19	30583.78
493.37	31105.72
493.54	30993.37
493.72	31538.72
493.90	31480.21
494.08	31777.45
494.25	32180.03
494.43	31742.35
494.61	32334.50
494.79	32685.58
494.96	32545.15
495.14	32891.55
495.32	32910.27
495.49	33425.19
495.67	33001.55
495.85	33589.03
496.02	33841.81
496.20	33766.91
496.38	33757.55
496.55	33848.83
496.73	34735.89
496.91	34412.90
497.09	34918.45
497.26	34642.27
497.44	34658.65
497.62	35309.32
497.79	35585.50
497.97	35370.18
498.14	35651.04
498.32	36077.02
498.50	36072.34
498.67	36346.18
498.85	36584.91
499.03	36863.44
499.20	36549.81
499.38	36943.02
499.56	37216.86
499.73	37024.93
499.91	37062.38
500.08	37275.37
500.26	37345.59
500.44	37509.43
500.61	37844.12
500.79	37607.73
500.97	37984.55
501.14	38693.74
501.32	38092.22
501.49	38780.34
501.67	38263.08
501.84	38976.94
502.02	38422.23
502.20	39014.39
502.37	39248.44
502.55	39505.90
502.72	39276.53
502.90	39679.10
503.07	39423.98
503.25	39950.60
503.43	39739.96
503.60	39864.00
503.78	39981.03
503.95	39849.96
504.13	40451.48
504.30	40346.15
504.48	40172.96
504.65	40858.73
504.83	40645.74
505.01	41230.88
505.18	40837.67
505.36	41343.22
505.53	41184.07
505.71	41420.46
505.88	41954.10
506.06	41462.59
506.23	42452.64
506.41	41837.08
506.58	42120.28
506.76	42270.08
506.93	42749.88
507.11	41947.08
507.28	42375.40
507.46	42548.60
507.63	43075.22
507.81	43215.65
507.98	42951.17
508.16	42754.57
508.33	43063.52
508.50	43428.64
508.68	43409.92
508.85	43966.96
509.03	43552.69
509.20	44325.07
509.38	44411.67
509.55	44229.10
509.73	43899.09
509.90	44769.77
510.08	44519.33
510.25	44102.71
510.42	44315.70
510.60	44816.58
510.77	45003.82
510.95	45916.63
511.12	44650.40
511.30	45226.17
511.47	45373.63
511.64	45546.82
511.82	45787.90
511.99	45975.14
512.17	45944.72
512.34	45794.92
512.51	45979.82
512.69	46340.27
512.86	46422.19
513.04	46195.15
513.21	46696.03
513.38	46674.96
513.56	46630.49
513.73	46583.68
513.90	46923.06
514.08	46827.10
514.25	46761.56
514.43	47430.96
514.60	47255.42
514.77	47367.76
514.95	47379.46
515.12	47320.95
515.29	47194.56
515.47	48208.01
515.64	48067.58
515.81	47639.26
515.99	48076.94
516.16	48259.51
516.33	48371.85
516.51	48575.48
516.68	48638.67
516.85	48734.63
517.03	48547.39
517.20	48573.14
517.37	48575.48
517.54	48868.05
517.72	48692.50
517.89	49219.13
518.06	49130.19
518.24	49106.78
518.41	49324.45
518.58	49352.54
518.75	49378.28
518.93	49336.15
519.10	49397.01
519.27	49509.35
519.45	49612.34
519.62	49923.63
519.79	49588.93
519.96	49581.91
520.14	50223.22
520.31	50010.23
520.48	50567.27
520.65	50232.58
520.83	50607.06
521.00	50415.14
521.17	50651.53
521.34	50382.37
521.52	50424.50
521.69	50993.25
521.86	50923.04
522.03	51168.79
522.20	51004.95
522.38	51327.95
522.55	51152.41
522.72	51210.92
522.89	51093.89
523.07	51753.93
523.24	51192.20
523.41	51702.43
523.58	51356.03
523.75	51554.98
523.92	51688.39
524.10	51833.50
524.27	51716.48
524.44	51643.92
524.61	52177.56
524.78	51992.66
524.96	52257.14
525.13	52161.18
525.30	52069.90
525.47	52486.51
525.64	52296.93
525.81	52601.20
525.98	52446.72
526.16	52500.56
526.33	52657.37
526.50	52772.06
526.67	52638.65
526.84	52910.15
527.01	52776.74
527.18	52994.41
527.36	53034.20
527.53	52926.53
527.70	53598.27
527.87	53233.14
528.04	52975.69
528.21	53492.94
528.38	53286.98
528.55	53378.26
528.72	53516.35
528.89	53169.95
529.07	53422.73
529.24	53375.92
529.41	53640.40
529.58	53621.67
529.75	53495.28
529.92	53525.71
530.09	53757.42
530.26	53736.36
530.43	53879.13
530.60	53773.81
530.77	53928.28
530.94	54096.80
531.11	54089.78
531.28	54045.31
531.46	54272.34
531.63	54003.18
531.80	54405.75
531.97	54508.74
532.14	54298.09
532.31	54099.14
532.48	54578.95
532.65	54686.62
532.82	54389.37
532.99	54557.89
533.16	54461.93
533.33	54585.97
533.50	54735.77
533.67	54630.44
533.84	54550.87
534.01	54864.50
534.18	54817.69
534.35	55077.49
534.52	54930.03
534.69	55150.04
534.86	55140.68
535.03	55044.72
535.20	54892.58
535.37	55341.97
535.54	55482.40
535.71	55327.92
535.88	55508.14
536.05	55505.80
536.22	55398.14
536.38	55636.87
536.55	55325.58
536.72	55454.31
536.89	55374.73
537.06	55487.08
537.23	55709.43
537.40	55423.89
537.57	55655.60
537.74	55601.77
537.91	55810.07
538.08	55831.14
538.25	55304.52
538.42	56130.73
538.59	56175.20
538.75	55819.44
538.92	56034.77
539.09	56156.47
539.26	55987.95
539.43	56142.43
539.60	56212.65
539.77	56107.32
539.94	56439.68
540.11	56189.24
540.28	56324.99
540.44	56229.03
540.61	56341.38
540.78	56175.20
540.95	56388.19
541.12	56502.87
541.29	56184.56
541.46	56493.51
541.62	56523.94
541.79	56147.11
541.96	56437.34
542.13	56715.86
542.30	56624.58
542.47	56683.09
542.63	56699.48
542.80	56638.62
542.97	57069.28
543.14	57235.46
543.31	57188.65
543.48	57134.82
543.64	57432.07
543.81	57286.95
543.98	57202.69
544.15	57228.44
544.32	57282.27
544.48	57595.90
544.65	57240.14
544.82	57378.23
544.99	57148.86
545.16	57616.97
545.32	57476.54
545.49	57703.57
545.66	57656.76
545.83	57471.85
546.00	57666.12
546.16	57406.32
546.33	57668.46
546.50	57324.40
546.67	57666.12
546.83	57647.39
547.00	57600.58
547.17	57619.31
547.34	57563.14
547.50	57923.58
547.67	57946.98
547.84	57879.11
548.00	58014.86
548.17	58178.70
548.34	58035.92
548.51	58064.01
548.67	58136.57
548.84	58190.40
549.01	57825.28
549.18	58049.97
549.34	58272.32
549.51	58293.38
549.68	58269.98
549.84	58157.63
550.01	58501.69
550.18	58220.83
550.34	58330.83
550.51	58351.90
550.68	58166.99
550.84	58204.44
551.01	58557.86
551.18	58419.77
551.34	58504.03
551.51	58614.04
551.68	58595.31
551.84	58457.22
552.01	58281.68
552.18	58541.48
552.34	58347.21
552.51	58834.05
552.68	58494.67
552.84	58595.31
553.01	58834.05
553.18	58780.21
553.34	58890.22
553.51	58555.52
553.67	58770.85
553.84	58887.88
554.01	58841.07
554.17	59030.65
554.34	59070.44
554.51	58775.53
554.67	59157.04
554.84	58908.94
555.00	58955.75
555.17	58908.94
555.33	58948.73
555.50	58993.20
555.67	59016.61
555.83	58890.22
556.00	59128.95
556.16	59311.52
556.33	59355.99
556.50	59302.15
556.66	59203.85
556.83	59241.30
556.99	59348.96
557.16	59297.47
557.32	59482.37
557.49	59508.12
557.65	59171.08
557.82	59348.96
557.98	59103.21
558.15	59306.83
558.32	59421.52
558.48	59437.90
558.65	59510.46
558.81	59571.32
558.98	59458.97
559.14	59559.61
559.31	59526.84
559.47	59625.15
559.64	59695.36
559.80	59681.32
559.97	59774.94
560.13	59482.37
560.30	59695.36
560.46	59763.24
560.63	59606.42
560.79	59716.43
560.96	59821.75
561.12	59781.96
561.29	59800.69
561.45	59842.82
561.61	59746.86
561.78	59744.51
561.94	59695.36
562.11	59845.16
562.27	59669.62
562.44	59700.04
562.60	59976.23
562.77	59884.95
562.93	59838.14
563.10	60109.64
563.26	59819.41
563.42	59980.91
563.59	59973.89
563.75	59957.50
563.92	59934.10
564.08	60009.00
564.24	59973.89
564.41	60023.04
564.57	59980.91
564.74	59826.43
564.90	60023.04
565.07	60016.02
565.23	59891.97
565.39	59999.63
565.56	60130.70
565.72	59955.16
565.88	60278.16
566.05	60154.11
566.21	59760.90
566.38	60048.78
566.54	60266.45
566.70	60254.75
566.87	60032.40
567.03	60177.51
567.19	60282.84
567.36	60315.61
567.52	60130.70
567.68	60444.33
567.85	60357.74
568.01	60329.65
568.17	60273.48
568.34	60460.72
568.50	60266.45
568.66	60418.59
568.83	60566.04
568.99	60315.61
569.15	60446.68
569.32	60280.50
569.48	60149.43
569.64	60451.36
569.81	60404.55
569.97	60158.79
570.13	60336.67
570.30	60236.03
570.46	60491.15
570.62	60612.85
570.78	60381.14
570.95	60266.45
571.11	60615.19
571.27	60533.28
571.43	60559.02
571.60	60491.15
571.76	60409.23
571.92	60376.46
572.09	60516.89
572.25	60460.72
572.41	60612.85
572.57	60444.33
572.74	60535.62
572.90	60549.66
573.06	60542.64
573.22	60736.90
573.38	60437.31
573.55	60549.66
573.71	60580.09
573.87	60666.69
574.03	60493.49
574.20	60591.79
574.36	60708.82
574.52	60757.97
574.68	60729.88
574.84	60594.13
575.01	60612.85
575.17	60622.22
575.33	60446.68
575.49	60425.61
575.65	60638.60
575.82	60362.42
575.98	60772.01
576.14	60685.41
576.30	60821.16
576.46	60769.67
576.62	60748.60
576.79	60788.39
576.95	60404.55
577.11	60772.01
577.27	60903.08
577.43	60657.32
577.59	60645.62
577.75	60699.45
577.92	60577.75
578.08	60739.24
578.24	60739.24
578.40	60849.25
578.56	60947.55
578.72	60786.05
578.88	60914.78
579.04	61036.49
579.21	60776.69
579.37	61020.11
579.53	61132.45
579.69	60463.06
579.85	60867.97
580.01	60797.76
580.17	60678.39
580.33	60694.77
580.49	60992.02
580.65	60886.70
580.82	60893.72
580.98	60711.16
581.14	60727.54
581.30	61153.52
581.46	60772.01
581.62	60846.91
581.78	60671.37
581.94	60830.52
582.10	60797.76
582.26	60732.22
582.42	60605.83
582.58	60917.12
582.74	60823.50
582.90	60837.54
583.06	60818.82
583.22	60640.94
583.38	60884.36
583.54	60783.71
583.70	60963.93
583.86	60905.42
584.02	60938.19
584.18	61041.17
584.34	60900.74
584.50	60818.82
584.66	60952.23
584.82	60617.53
584.98	61069.26
585.14	61247.14
585.30	60699.45
585.46	60952.23
585.62	60980.32
585.78	61160.54
585.94	60889.04
586.10	61041.17
586.26	60748.60
586.42	60956.91
586.58	61221.39
586.74	60900.74
586.90	60851.59
587.06	60992.02
587.22	61059.90
587.38	60996.70
587.54	61130.11
587.70	61104.37
587.86	60907.76
588.02	60896.06
588.18	61097.34
588.34	60802.44
588.49	61076.28
