SpectraSuite Data File
++++++++++++++++++++++++++++++++++++
Date: Fri Oct 25 11:25:43 EDT 2013
User: price-jones
Dark Spectrum Present: No
Reference Spectrum Present: No
Number of Sampled Component Spectra: 1
Spectrometers: USB2+H05261
Integration Time (usec): 100000 (USB2+H05261)
Spectra Averaged: 1 (USB2+H05261)
Boxcar Smoothing: 0 (USB2+H05261)
Correct for Electrical Dark: No (USB2+H05261)
Strobe/Lamp Enabled: No (USB2+H05261)
Correct for Detector Non-linearity: No (USB2+H05261)
Correct for Stray Light: No (USB2+H05261)
Number of Pixels in Processed Spectrum: 2048
>>>>>Begin Processed Spectral Data<<<<<
365.73	205.97
365.92	205.97
366.12	205.97
366.32	145.11
366.52	133.41
366.72	229.37
366.91	114.69
367.11	163.84
367.31	133.41
367.51	159.16
367.70	140.43
367.90	114.69
368.10	100.64
368.30	198.95
368.49	107.66
368.69	117.03
368.89	112.35
369.09	149.79
369.28	156.82
369.48	147.45
369.68	245.76
369.87	222.35
370.07	229.37
370.27	205.97
370.47	334.70
370.66	622.58
370.86	692.80
371.06	692.80
371.25	702.16
371.45	683.44
371.65	624.92
371.84	631.94
372.04	727.91
372.24	720.88
372.44	669.39
372.63	723.23
372.83	727.91
373.03	781.74
373.22	763.01
373.42	657.69
373.62	716.20
373.81	748.97
374.01	798.12
374.21	858.98
374.40	858.98
374.60	840.25
374.79	858.98
374.99	779.40
375.19	847.27
375.38	812.17
375.58	851.96
375.78	823.87
375.97	851.96
376.17	863.66
376.37	816.85
376.56	877.70
376.76	917.49
376.95	933.87
377.15	912.81
377.35	898.77
377.54	863.66
377.74	901.11
377.93	891.74
378.13	952.60
378.33	844.93
378.52	905.79
378.72	866.00
378.91	891.74
379.11	990.05
379.31	954.94
379.50	884.72
379.70	943.24
379.89	961.96
380.09	898.77
380.28	908.13
380.48	929.19
380.68	933.87
380.87	997.07
381.07	922.17
381.26	1032.18
381.46	997.07
381.65	1011.11
381.85	1067.28
382.04	1046.22
382.24	1067.28
382.43	1069.62
382.63	1118.78
382.83	1046.22
383.02	1020.47
383.22	1090.69
383.41	1043.88
383.61	1137.50
383.80	1102.39
384.00	1116.44
384.19	1177.29
384.39	1188.99
384.58	1174.95
384.78	1111.75
384.97	1083.67
385.17	1139.84
385.36	1207.72
385.56	1196.01
385.75	1146.86
385.95	1149.20
386.14	1146.86
386.34	1203.04
386.53	1156.22
386.72	1188.99
386.92	1179.63
387.11	1289.64
387.31	1214.74
387.50	1294.32
387.70	1273.25
387.89	1263.89
388.09	1242.82
388.28	1310.70
388.48	1254.53
388.67	1373.89
388.86	1366.87
389.06	1296.66
389.25	1394.96
389.45	1385.60
389.64	1320.06
389.84	1338.79
390.03	1437.09
390.22	1284.95
390.42	1345.81
390.61	1310.70
390.81	1373.89
391.00	1420.71
391.19	1446.45
391.39	1423.05
391.58	1455.81
391.78	1401.98
391.97	1490.92
392.16	1444.11
392.36	1481.56
392.55	1502.62
392.75	1467.52
392.94	1474.54
393.13	1542.41
393.33	1542.41
393.52	1537.73
393.71	1591.56
393.91	1521.35
394.10	1603.27
394.29	1612.63
394.49	1577.52
394.68	1643.06
394.88	1614.97
395.07	1706.25
395.26	1682.85
395.46	1640.72
395.65	1774.13
395.84	1816.26
396.04	1827.96
396.23	1668.80
396.42	1680.50
396.62	1783.49
396.81	1790.51
397.00	1813.92
397.19	1689.87
397.39	1654.76
397.58	1781.15
397.77	1827.96
397.97	1832.64
398.16	1788.17
398.35	1886.47
398.55	1811.57
398.74	1956.69
398.93	1940.30
399.12	1888.81
399.32	1942.64
399.51	1881.79
399.70	2003.50
399.90	2069.03
400.09	1921.58
400.28	1989.46
400.47	2078.40
400.67	2101.80
400.86	2029.24
401.05	2085.42
401.24	2085.42
401.44	2129.89
401.63	2125.21
401.82	2160.31
402.01	2120.53
402.21	2176.70
402.40	2251.60
402.59	2237.55
402.78	2134.57
402.97	2298.41
403.17	2267.98
403.36	2366.28
403.55	2293.72
403.74	2340.54
403.93	2277.34
404.13	2401.39
404.32	2422.45
404.51	2417.77
404.70	2408.41
404.89	2408.41
405.09	2485.65
405.28	2385.01
405.47	2406.07
405.66	2410.75
405.85	2523.10
406.05	2525.44
406.24	2602.68
406.43	2490.33
406.62	2700.98
406.81	2679.91
407.00	2644.81
407.20	2633.10
407.39	2649.49
407.58	2740.77
407.77	2691.62
407.96	2888.22
408.15	2853.11
408.34	2813.32
408.54	2827.37
408.73	2829.71
408.92	2925.67
409.11	2771.19
409.30	2920.99
409.49	2965.46
409.68	2864.82
409.87	2841.41
410.07	2904.60
410.26	3012.27
410.45	2902.26
410.64	3012.27
410.83	3000.57
411.02	3000.57
411.21	3054.40
411.40	3056.74
411.59	3246.32
411.78	3171.43
411.98	3145.68
412.17	3297.81
412.36	3190.15
412.55	3267.39
412.74	3279.09
412.93	3391.44
413.12	3211.22
413.31	3602.08
413.50	3428.88
413.69	3480.38
413.88	3606.77
414.07	3489.74
414.26	3681.66
414.45	3716.77
414.64	3599.74
414.83	3691.02
415.02	3817.41
415.22	3894.65
415.41	4018.70
415.60	3777.62
415.79	3988.27
415.98	3941.46
416.17	3838.48
416.36	4030.40
416.55	3925.08
416.74	3896.99
416.93	3964.87
417.12	4030.40
417.31	4245.73
417.50	4191.90
417.69	4198.92
417.88	4290.20
418.07	4292.54
418.26	4400.21
418.45	4315.95
418.64	4470.42
418.83	4421.27
419.02	4411.91
419.21	4337.01
419.39	4547.66
419.58	4505.53
419.77	4507.87
419.96	4447.02
420.15	4484.47
420.34	4458.72
420.53	4430.63
420.72	4833.21
420.91	4554.68
421.10	4770.01
421.29	4791.08
421.48	4713.84
421.67	4744.27
421.86	4802.78
422.05	4807.46
422.24	4753.63
422.43	4788.74
422.61	4819.16
422.80	4887.04
422.99	4837.89
423.18	5011.09
423.37	5055.56
423.56	4908.10
423.75	5013.43
423.94	4798.10
424.13	4456.38
424.32	4851.93
424.50	5008.75
424.69	5200.67
424.88	4961.94
425.07	4858.95
425.26	4706.82
425.45	4961.94
425.64	4924.49
425.83	4952.57
426.01	5081.30
426.20	5083.64
426.39	5081.30
426.58	5006.41
426.77	4929.17
426.96	5132.79
427.15	5093.01
427.33	5191.31
427.52	5074.28
427.71	5221.74
427.90	5205.35
428.09	5233.44
428.28	5308.34
428.46	5385.57
428.65	5282.59
428.84	5549.41
429.03	5488.56
429.22	5336.42
429.40	5418.34
429.59	5596.22
429.78	5193.65
429.97	5270.89
430.16	5411.32
430.34	5657.07
430.53	5664.10
430.72	5511.96
430.91	5621.97
431.10	5710.91
431.28	5535.37
431.47	5792.83
431.66	5818.57
431.85	5753.04
432.03	5802.19
432.22	6015.18
432.41	5811.55
432.60	5951.98
432.79	5788.14
432.97	6092.41
433.16	6125.18
433.35	6076.03
433.54	6005.81
433.72	6267.95
433.91	6043.26
434.10	6171.99
434.28	6043.26
434.47	6183.70
434.66	6167.31
434.85	6186.04
435.03	6277.32
435.22	6548.82
435.41	6527.75
435.59	6476.26
435.78	6342.85
435.97	6408.39
436.16	6539.46
436.34	6218.80
436.53	6511.37
436.72	6672.87
436.90	6494.99
437.09	6698.61
437.28	6469.24
437.46	6567.54
437.65	6700.95
437.84	6754.79
438.02	6633.08
438.21	6801.60
438.40	6684.57
438.58	6740.74
438.77	7101.19
438.96	6906.92
439.14	7185.44
439.33	7049.69
439.52	7199.49
439.70	7243.96
439.89	7342.26
440.08	7274.38
440.26	7314.17
440.45	7431.20
440.63	7426.52
440.82	7623.12
441.01	7391.41
441.19	7545.89
441.38	7679.30
441.57	7812.71
441.75	7798.66
441.94	7988.25
442.12	7887.61
442.31	7953.14
442.50	8126.34
442.68	7929.74
442.87	8093.57
443.05	8065.49
443.24	8112.30
443.43	8070.17
443.61	8159.11
443.80	8145.06
443.98	8095.91
444.17	7772.92
444.35	8234.00
444.54	8402.52
444.73	8212.94
444.91	8166.13
445.10	8166.13
445.28	8187.19
445.47	8222.30
445.65	8152.09
445.84	8491.46
446.02	8451.67
446.21	8470.40
446.39	8308.90
446.58	8383.80
446.77	8552.32
446.95	8423.59
447.14	8489.12
447.32	8341.67
447.51	8566.36
447.69	8376.78
447.88	8601.47
448.06	8613.17
448.25	8442.31
448.43	8608.49
448.62	8580.40
448.80	8428.27
448.99	8676.37
449.17	8601.47
449.36	8730.20
449.54	8748.92
449.73	9004.04
449.91	8959.57
450.10	8835.52
450.28	8863.61
450.46	9013.40
450.65	8889.35
450.83	8985.32
451.02	9111.71
451.20	9135.11
451.39	9102.34
451.57	9095.32
451.76	8938.51
451.94	9067.24
452.13	9224.05
452.31	9174.90
452.49	9114.05
452.68	9305.97
452.86	9092.98
453.05	9612.58
453.23	9352.78
453.42	9483.85
453.60	9336.40
453.78	9488.53
453.97	9397.25
454.15	9362.14
454.34	9680.46
454.52	9837.27
454.70	9600.88
454.89	9762.37
455.07	9596.20
455.26	9825.57
455.44	9886.42
455.62	10008.13
455.81	9823.23
455.99	9973.02
456.17	10162.61
456.36	10036.22
456.54	10251.55
456.73	10270.27
456.91	10422.41
457.09	10303.04
457.28	10478.58
457.46	10223.46
457.64	10473.90
457.83	10513.69
458.01	10436.45
458.19	10581.56
458.38	10562.84
458.56	10635.39
458.74	10729.02
458.93	10504.32
459.11	10523.05
459.29	10747.74
459.48	10731.36
459.66	10813.28
459.84	10857.75
460.03	10984.13
460.21	10956.05
460.39	10988.82
460.57	10832.00
460.76	10923.28
460.94	10930.30
461.12	11227.55
461.31	11187.76
461.49	10876.47
461.67	11000.52
461.85	11426.50
462.04	11379.68
462.22	11693.32
462.40	11470.97
462.59	11281.38
462.77	11445.22
462.95	11506.07
463.13	11473.31
463.32	11580.97
463.50	11611.40
463.68	11733.11
463.86	11634.80
464.05	11548.20
464.23	11667.57
464.41	11772.89
464.59	11468.62
464.78	12116.95
464.96	11978.86
465.14	11899.28
465.32	11960.14
465.50	11950.78
465.69	12149.72
465.87	11969.50
466.05	12016.31
466.23	12037.38
466.41	12037.38
466.60	12123.98
466.78	12147.38
466.96	12095.89
467.14	12273.77
467.32	12217.60
467.51	12266.75
467.69	12016.31
467.87	12077.16
468.05	12456.33
468.23	12292.49
468.41	12468.03
468.60	12540.59
468.78	12638.89
468.96	12369.73
469.14	12678.68
469.32	12861.24
469.50	12692.73
469.69	12938.48
469.87	12992.31
470.05	12924.44
470.23	13107.00
470.41	13259.13
470.59	13135.09
470.77	13179.56
470.95	13146.79
471.14	13322.33
471.32	13212.32
471.50	13584.47
471.68	13350.42
471.86	13687.45
472.04	13591.49
472.22	14075.98
472.40	13586.81
472.58	13783.41
472.77	14075.98
472.95	13935.55
473.13	14630.69
473.31	14029.17
473.49	14193.01
473.67	14019.81
473.85	14019.81
474.03	14328.76
474.21	14518.34
474.39	14588.56
474.57	14523.02
474.75	14787.50
474.93	14822.61
475.12	14970.07
475.30	14972.41
475.48	14815.59
475.66	15054.33
475.84	15161.99
476.02	15131.56
476.20	15431.15
476.38	15747.12
476.56	15997.56
476.74	15838.41
476.92	15873.51
477.10	15704.99
477.28	15997.56
477.46	16126.29
477.64	16229.27
477.82	16397.79
478.00	16788.66
478.18	16734.83
478.36	16730.15
478.54	17177.19
478.72	17092.93
478.90	17249.75
479.08	17561.04
479.26	17446.35
479.44	17565.72
479.62	17738.92
479.80	17820.84
479.98	18150.85
480.16	18412.99
480.34	18019.78
480.52	18195.32
480.70	18455.12
480.88	18324.05
481.06	18476.19
481.24	18710.24
481.41	18750.03
481.59	19239.20
481.77	19349.21
481.95	19410.06
482.13	19562.20
482.31	19335.17
482.49	20182.44
482.67	20238.61
482.85	20170.74
483.03	20418.83
483.21	20582.67
483.39	20622.46
483.57	20683.31
483.74	21081.21
483.92	21359.73
484.10	20884.60
484.28	21656.98
484.46	21745.92
484.64	22087.64
484.82	21844.22
485.00	22008.06
485.18	22412.97
485.35	22665.75
485.53	22349.78
485.71	22658.73
485.89	23517.70
486.07	23122.15
486.25	23419.40
486.43	23637.07
486.61	23700.26
486.78	23676.86
486.96	24074.75
487.14	24428.17
487.32	24746.48
487.50	24634.14
487.68	24905.64
487.85	25252.04
488.03	25116.29
488.21	25703.76
488.39	25589.08
488.57	25752.91
488.75	26197.62
488.92	26005.69
489.10	26590.83
489.28	26492.52
489.46	26897.44
489.64	26911.48
489.81	27325.75
489.99	27775.14
490.17	27482.57
490.35	27630.02
490.53	28168.35
490.70	28304.10
490.88	28142.60
491.06	28713.69
491.24	28659.86
491.41	28950.09
491.59	28807.31
491.77	28821.36
491.95	29380.74
492.13	29338.62
492.30	29654.59
492.48	29406.49
492.66	29692.04
492.84	30352.07
493.01	30742.94
493.19	30455.05
493.37	30754.64
493.54	31012.10
493.72	31262.54
493.90	31445.10
494.08	31227.43
494.25	31641.70
494.43	31866.39
494.61	32044.27
494.79	32067.68
494.96	32283.01
495.14	32390.67
495.32	33153.69
495.49	32856.44
495.67	33532.86
495.85	33455.62
496.02	33490.73
496.20	33706.05
496.38	33916.70
496.55	33682.65
496.73	34979.31
496.91	34576.73
497.09	34859.94
497.26	34782.70
497.44	34670.36
497.62	34778.02
497.79	35555.08
497.97	35246.13
498.14	35901.48
498.32	35955.31
498.50	36194.04
498.67	36479.59
498.85	36243.20
499.03	36196.38
499.20	36079.36
499.38	36704.28
499.56	37111.53
499.73	36685.56
499.91	37069.40
500.08	37268.35
500.26	37434.53
500.44	37165.37
500.61	37488.36
500.79	37930.72
500.97	38038.39
501.14	38740.55
501.32	38354.36
501.49	38403.51
501.67	38375.42
501.84	38433.94
502.02	38895.02
502.20	38873.96
502.37	38883.32
502.55	38897.36
502.72	39388.88
502.90	39363.13
503.07	39196.95
503.25	39700.17
503.43	39304.62
503.60	39824.22
503.78	40030.18
503.95	40287.64
504.13	40549.78
504.30	40631.70
504.48	40477.22
504.65	40512.33
504.83	40737.02
505.01	41401.74
505.18	40772.13
505.36	41177.04
505.53	41261.30
505.71	41371.31
505.88	41368.97
506.06	41216.83
506.23	41872.18
506.41	41998.57
506.58	41759.84
506.76	41600.68
506.93	42597.75
507.11	41832.39
507.28	42391.78
507.46	42497.11
507.63	42490.09
507.81	43215.65
507.98	42483.06
508.16	42911.38
508.33	43201.61
508.50	43136.07
508.68	43562.05
508.85	43320.98
509.03	43739.93
509.20	43962.28
509.38	43985.69
509.55	44009.09
509.73	44161.23
509.90	44477.20
510.08	44287.62
510.25	44416.35
510.42	44818.92
510.60	44458.48
510.77	44971.05
510.95	45315.11
511.12	44865.73
511.30	44959.35
511.47	45294.05
511.64	45415.76
511.82	45539.80
511.99	45230.85
512.17	45586.61
512.34	45745.77
512.51	45624.06
512.69	46506.44
512.86	46272.39
513.04	46340.27
513.21	46499.42
513.38	46562.62
513.56	47379.46
513.73	46651.56
513.90	46752.20
514.08	46504.10
514.25	47210.95
514.43	47019.02
514.60	47117.32
514.77	47112.64
514.95	47267.12
515.12	47384.15
515.29	47313.93
515.47	47973.96
515.64	48009.07
515.81	47459.04
515.99	48186.95
516.16	48065.24
516.33	47913.11
516.51	48498.24
516.68	48020.77
516.85	48273.55
517.03	48608.25
517.20	48570.80
517.37	48556.75
517.54	48339.08
517.72	48643.35
517.89	48940.60
518.06	49069.33
518.24	48935.92
518.41	49275.30
518.58	48800.17
518.75	49083.37
518.93	49354.88
519.10	49038.90
519.27	49586.59
519.45	49436.80
519.62	49392.33
519.79	49897.88
519.96	49771.49
520.14	50017.25
520.31	49911.92
520.48	49872.14
520.65	49951.71
520.83	50522.80
521.00	50209.17
521.17	50621.11
521.34	50693.66
521.52	50408.12
521.69	50403.44
521.86	50679.62
522.03	50698.34
522.20	50899.63
522.38	51517.53
522.55	51138.36
522.72	50899.63
522.89	51119.64
523.07	51213.26
523.24	51250.71
523.41	51454.34
523.58	51402.85
523.75	51789.03
523.92	51320.93
524.10	51683.71
524.27	51590.09
524.44	51863.93
524.61	51906.06
524.78	51835.84
524.96	51800.74
525.13	52065.22
525.30	52172.88
525.47	52177.56
525.64	52371.83
525.81	52100.32
525.98	52247.78
526.16	52729.93
526.33	52636.31
526.50	52559.07
526.67	52317.99
526.84	52818.87
527.01	52467.79
527.18	52610.56
527.36	52530.98
527.53	52783.76
527.70	53443.79
527.87	52971.00
528.04	52945.26
528.21	53378.26
528.38	53097.39
528.55	53387.62
528.72	53277.61
528.89	53609.97
529.07	53062.29
529.24	53294.00
529.41	53717.64
529.58	53743.38
529.75	53474.22
529.92	53621.67
530.09	53691.89
530.26	53827.64
530.43	53932.96
530.60	53485.92
530.77	53691.89
530.94	54082.76
531.11	54157.66
531.28	53652.10
531.46	54176.38
531.63	53841.68
531.80	53897.86
531.97	54429.16
532.14	54227.87
532.31	54089.78
532.48	54756.83
532.65	54567.25
532.82	54101.48
532.99	54473.63
533.16	54358.94
533.33	54621.08
533.50	54635.13
533.67	54775.56
533.84	54319.15
534.01	54827.05
534.18	54948.76
534.35	54972.16
534.52	54845.77
534.69	54887.90
534.86	55035.36
535.03	54742.79
535.20	55103.23
535.37	55332.60
535.54	55377.08
535.71	55070.46
535.88	55325.58
536.05	55454.31
536.22	55381.76
536.38	55704.75
536.55	55480.06
536.72	55416.86
536.89	55370.05
537.06	55533.89
537.23	55557.30
537.40	55290.48
537.57	55781.99
537.74	55716.45
537.91	55641.56
538.08	55695.39
538.25	55564.32
538.42	55800.71
538.59	55889.65
538.75	55660.28
538.92	56020.72
539.09	56144.77
539.26	55894.33
539.43	56020.72
539.60	56310.95
539.77	56107.32
539.94	56371.80
540.11	56231.37
540.28	56161.15
540.44	56315.63
540.61	56348.40
540.78	56144.77
540.95	56203.28
541.12	56210.31
541.29	56275.84
541.46	56303.93
541.62	56612.88
541.79	56605.86
541.96	56332.01
542.13	56353.08
542.30	56341.38
542.47	56713.52
542.63	56942.89
542.80	56626.92
542.97	56474.79
543.14	57162.90
543.31	56856.29
543.48	57235.46
543.64	57165.24
543.81	57254.18
543.98	57226.10
544.15	57209.71
544.32	57303.34
544.48	57439.09
544.65	57361.85
544.82	57265.89
544.99	56975.66
545.16	57345.47
545.32	57312.70
545.49	57738.68
545.66	57607.61
545.83	57530.37
546.00	57551.43
546.16	57476.54
546.33	57464.83
546.50	57228.44
546.67	57499.94
546.83	57577.18
547.00	57509.30
547.17	57378.23
547.34	57710.59
547.50	57708.25
547.67	58021.88
547.84	57977.41
548.00	57982.09
548.17	58085.07
548.34	57895.49
548.51	57687.18
548.67	58024.22
548.84	58092.10
549.01	57928.26
549.18	58115.50
549.34	58061.67
549.51	58045.29
549.68	57963.37
549.84	58188.06
550.01	58159.97
550.18	58136.57
550.34	58145.93
550.51	58307.43
550.68	58429.13
550.84	57956.35
551.01	58244.23
551.18	58031.24
551.34	58267.64
551.51	58644.46
551.68	58576.59
551.84	58468.92
552.01	58337.85
552.18	58569.57
552.34	58391.68
552.51	58520.41
552.68	58555.52
552.84	58604.67
553.01	58885.54
553.18	58616.38
553.34	58878.52
553.51	58688.93
553.67	58824.68
553.84	58820.00
554.01	59049.38
554.17	58628.08
554.34	59030.65
554.51	58740.42
554.67	58948.73
554.84	59082.14
555.00	58707.66
555.17	58855.11
555.33	59119.59
555.50	58789.58
555.67	58740.42
555.83	58815.32
556.00	58967.46
556.16	59227.26
556.33	59175.76
556.50	59016.61
556.66	59065.76
556.83	59021.29
556.99	59299.81
557.16	59276.41
557.32	59271.73
557.49	59501.10
557.65	59306.83
557.82	59501.10
557.98	59306.83
558.15	59128.95
558.32	59421.52
558.48	59278.75
558.65	59428.54
558.81	59482.37
558.98	59440.24
559.14	59503.44
559.31	59512.80
559.47	59597.06
559.64	59351.30
559.80	59671.96
559.97	59634.51
560.13	59334.92
560.30	59370.03
560.46	59648.55
560.63	59749.20
560.79	59796.01
560.96	59604.08
561.12	59676.64
561.29	59859.20
561.45	59650.89
561.61	59482.37
561.78	59826.43
561.94	59377.05
562.11	59805.37
562.27	59552.59
562.44	59983.25
562.60	60074.53
562.77	59753.88
562.93	59852.18
563.10	59831.11
563.26	59716.43
563.42	59955.16
563.59	59765.58
563.75	59917.71
563.92	59896.65
564.08	59896.65
564.24	60053.47
564.41	60128.36
564.57	59992.61
564.74	60025.38
564.90	59875.58
565.07	59842.82
565.23	60032.40
565.39	60060.49
565.56	60041.76
565.72	59992.61
565.88	60074.53
566.05	59971.55
566.21	59887.29
566.38	59999.63
566.54	60137.72
566.70	60142.41
566.87	60172.83
567.03	60137.72
567.19	60317.95
567.36	60233.69
567.52	60154.11
567.68	60420.93
567.85	60278.16
568.01	60210.28
568.17	60324.97
568.34	60243.05
568.50	60168.15
568.66	60308.58
568.83	60303.90
568.99	60219.64
569.15	60285.18
569.32	60177.51
569.48	60339.01
569.64	60505.19
569.81	60221.98
569.97	60346.03
570.13	60339.01
570.30	60097.94
570.46	60285.18
570.62	60343.69
570.78	60308.58
570.95	60273.48
571.11	60449.02
571.27	60072.19
571.43	60374.12
571.60	60502.85
571.76	60275.82
571.92	60451.36
572.09	60341.35
572.25	60580.09
572.41	60268.79
572.57	60584.77
572.74	60889.04
572.90	60514.55
573.06	60573.06
573.22	60364.76
573.38	60690.09
573.55	60633.92
573.71	60612.85
573.87	60643.28
574.03	60432.63
574.20	60687.75
574.36	60509.87
574.52	60692.43
574.68	60739.24
574.84	60610.51
575.01	60767.33
575.17	60650.30
575.33	60533.28
575.49	60491.15
575.65	60537.96
575.82	60896.06
575.98	60678.39
576.14	60795.42
576.30	60727.54
576.46	60615.19
576.62	60566.04
576.79	60580.09
576.95	60444.33
577.11	60846.91
577.27	60566.04
577.43	60664.35
577.59	60530.93
577.75	60512.21
577.92	60533.28
578.08	60547.32
578.24	60823.50
578.40	60699.45
578.56	60853.93
578.72	60570.72
578.88	60938.19
579.04	60849.25
579.21	60832.86
579.37	60774.35
579.53	60938.19
579.69	60484.12
579.85	60736.90
580.01	60680.73
580.17	60470.08
580.33	60720.52
580.49	60697.11
580.65	60800.10
580.82	60589.45
580.98	60596.47
581.14	60814.14
581.30	60931.17
581.46	60882.02
581.62	60973.30
581.78	60399.86
581.94	60762.65
582.10	60718.18
582.26	60692.43
582.42	60615.19
582.58	60931.17
582.74	60708.82
582.90	61017.77
583.06	60905.42
583.22	60650.30
583.38	60882.02
583.54	60692.43
583.70	60727.54
583.86	60823.50
584.02	60816.48
584.18	61041.17
584.34	60851.59
584.50	60849.25
584.66	60704.13
584.82	60694.77
584.98	61013.08
585.14	60842.23
585.30	60664.35
585.46	61027.13
585.62	60762.65
585.78	61010.74
585.94	60589.45
586.10	60624.56
586.26	60699.45
586.42	60952.23
586.58	60823.50
586.74	60818.82
586.90	60860.95
587.06	60860.95
587.22	60996.70
587.38	60788.39
587.54	60989.68
587.70	61106.71
587.86	60935.85
588.02	60945.21
588.18	61130.11
588.34	60963.93
588.49	60863.29
