SpectraSuite Data File
++++++++++++++++++++++++++++++++++++
Date: Fri Oct 25 11:25:59 EDT 2013
User: price-jones
Dark Spectrum Present: No
Reference Spectrum Present: No
Number of Sampled Component Spectra: 1
Spectrometers: USB2+H05261
Integration Time (usec): 100000 (USB2+H05261)
Spectra Averaged: 1 (USB2+H05261)
Boxcar Smoothing: 0 (USB2+H05261)
Correct for Electrical Dark: No (USB2+H05261)
Strobe/Lamp Enabled: No (USB2+H05261)
Correct for Detector Non-linearity: No (USB2+H05261)
Correct for Stray Light: No (USB2+H05261)
Number of Pixels in Processed Spectrum: 2048
>>>>>Begin Processed Spectral Data<<<<<
365.73	271.50
365.92	271.50
366.12	271.50
366.32	170.86
366.52	220.01
366.72	65.54
366.91	142.77
367.11	135.75
367.31	133.41
367.51	84.26
367.70	196.60
367.90	105.32
368.10	117.03
368.30	163.84
368.49	131.07
368.69	117.03
368.89	163.84
369.09	170.86
369.28	173.20
369.48	203.63
369.68	161.50
369.87	154.48
370.07	252.78
370.27	215.33
370.47	294.91
370.66	528.96
370.86	657.69
371.06	653.01
371.25	692.80
371.45	629.60
371.65	699.82
371.84	704.50
372.04	716.20
372.24	753.65
372.44	723.23
372.63	763.01
372.83	791.10
373.03	713.86
373.22	763.01
373.42	772.38
373.62	798.12
373.81	788.76
374.01	854.30
374.21	772.38
374.40	793.44
374.60	830.89
374.79	851.96
374.99	795.78
375.19	842.59
375.38	823.87
375.58	861.32
375.78	908.13
375.97	903.45
376.17	772.38
376.37	870.68
376.56	866.00
376.76	847.27
376.95	950.26
377.15	905.79
377.35	896.43
377.54	828.55
377.74	971.32
377.93	905.79
378.13	889.40
378.33	877.70
378.52	1015.79
378.72	968.98
378.91	985.37
379.11	964.30
379.31	973.66
379.50	985.37
379.70	940.90
379.89	1025.15
380.09	1074.31
380.28	1015.79
380.48	945.58
380.68	959.62
380.87	964.30
381.07	1022.81
381.26	1006.43
381.46	1036.86
381.65	1034.52
381.85	1060.26
382.04	1048.56
382.24	1060.26
382.43	1057.92
382.63	1076.65
382.83	1062.60
383.02	1086.01
383.22	1086.01
383.41	1100.05
383.61	1118.78
383.80	1184.31
384.00	1102.39
384.19	1261.55
384.39	1174.95
384.58	1104.73
384.78	1181.97
384.97	1123.46
385.17	1179.63
385.36	1186.65
385.56	1247.51
385.75	1231.12
385.95	1167.93
386.14	1294.32
386.34	1135.16
386.53	1193.67
386.72	1212.40
386.92	1256.87
387.11	1284.95
387.31	1245.16
387.50	1296.66
387.70	1287.29
387.89	1238.14
388.09	1256.87
388.28	1233.46
388.48	1287.29
388.67	1299.00
388.86	1331.76
389.06	1284.95
389.25	1352.83
389.45	1348.15
389.64	1331.76
389.84	1315.38
390.03	1324.74
390.22	1369.21
390.42	1371.55
390.61	1320.06
390.81	1453.47
391.00	1493.26
391.19	1479.22
391.39	1474.54
391.58	1451.13
391.78	1479.22
391.97	1446.45
392.16	1577.52
392.36	1500.28
392.55	1441.77
392.75	1547.09
392.94	1411.34
393.13	1530.71
393.33	1526.03
393.52	1591.56
393.71	1593.90
393.91	1537.73
394.10	1657.10
394.29	1575.18
394.49	1647.74
394.68	1582.20
394.88	1603.27
395.07	1661.78
395.26	1640.72
395.46	1722.63
395.65	1703.91
395.84	1774.13
396.04	1715.61
396.23	1624.33
396.42	1743.70
396.62	1795.19
396.81	1853.70
397.00	1760.08
397.19	1776.47
397.39	1834.98
397.58	1900.52
397.77	1895.83
397.97	1839.66
398.16	1867.75
398.35	1905.20
398.55	1905.20
398.74	1825.62
398.93	1851.36
399.12	1949.67
399.32	1921.58
399.51	1984.77
399.70	1989.46
399.90	1959.03
400.09	2062.01
400.28	2005.84
400.47	1987.11
400.67	1973.07
400.86	2078.40
401.05	2033.93
401.24	2101.80
401.44	2054.99
401.63	2214.15
401.82	2104.14
402.01	2167.34
402.21	2303.09
402.40	2146.27
402.59	2165.00
402.78	2303.09
402.97	2230.53
403.17	2352.24
403.36	2148.61
403.55	2305.43
403.74	2366.28
403.93	2471.61
404.13	2392.03
404.32	2382.67
404.51	2368.62
404.70	2476.29
404.89	2347.56
405.09	2464.58
405.28	2504.37
405.47	2448.20
405.66	2443.52
405.85	2499.69
406.05	2525.44
406.24	2520.76
406.43	2560.55
406.62	2651.83
406.81	2614.38
407.00	2595.65
407.20	2605.02
407.39	2651.83
407.58	2745.45
407.77	2733.75
407.96	2665.87
408.15	2768.85
408.34	2782.90
408.54	2843.75
408.73	2881.20
408.92	2818.00
409.11	2918.65
409.30	2881.20
409.49	2874.18
409.68	2956.10
409.87	2909.29
410.07	2958.44
410.26	3005.25
410.45	2963.12
410.64	3091.85
410.83	3087.17
411.02	3112.91
411.21	3126.96
411.40	3178.45
411.59	3260.37
411.78	3187.81
411.98	3328.24
412.17	3234.62
412.36	3293.13
412.55	3351.65
412.74	3459.31
412.93	3339.94
413.12	3265.05
413.31	3559.95
413.50	3363.35
413.69	3520.17
413.88	3648.90
414.07	3620.81
414.26	3634.85
414.45	3691.02
414.64	3602.08
414.83	3688.68
415.02	3915.72
415.22	3794.01
415.41	3812.73
415.60	3906.35
415.79	3904.01
415.98	3906.35
416.17	3906.35
416.36	3880.61
416.55	3885.29
416.74	4049.13
416.93	3995.29
417.12	4147.43
417.31	4182.54
417.50	4180.20
417.69	4271.48
417.88	4173.18
418.07	4222.33
418.26	4264.46
418.45	4294.88
418.64	4418.93
418.83	4390.84
419.02	4393.19
419.21	4437.66
419.39	4547.66
419.58	4507.87
419.77	4505.53
419.96	4688.09
420.15	4573.41
420.34	4622.56
420.53	4552.34
420.72	4606.17
420.91	4798.10
421.10	4669.37
421.29	4627.24
421.48	4660.01
421.67	4858.95
421.86	4812.14
422.05	4889.38
422.24	4800.44
422.43	4718.52
422.61	4842.57
422.80	4968.96
422.99	5022.79
423.18	4863.63
423.37	5060.24
423.56	4894.06
423.75	4873.00
423.94	4880.02
424.13	4624.90
424.32	4739.58
424.50	4994.70
424.69	5226.42
424.88	4912.78
425.07	4980.66
425.26	4835.55
425.45	4999.38
425.64	5008.75
425.83	4901.08
426.01	5231.10
426.20	4973.64
426.39	5088.32
426.58	4903.42
426.77	5053.22
426.96	5093.01
427.15	5022.79
427.33	5210.03
427.52	5128.11
427.71	5217.05
427.90	5268.55
428.09	5252.16
428.28	5305.99
428.46	5387.91
428.65	5341.10
428.84	5544.73
429.03	5518.98
429.22	5200.67
429.40	5561.11
429.59	5607.92
429.78	5240.46
429.97	5254.50
430.16	5493.24
430.34	5584.52
430.53	5586.86
430.72	5659.42
430.91	5607.92
431.10	5575.16
431.28	5603.24
431.47	5713.25
431.66	5643.03
431.85	5825.59
432.03	5987.09
432.22	5813.89
432.41	5907.51
432.60	5827.93
432.79	6033.90
432.97	5977.73
433.16	5858.36
433.35	5975.39
433.54	6071.35
433.72	6169.65
433.91	6181.35
434.10	6104.12
434.28	6157.95
434.47	6209.44
434.66	6207.10
434.85	6188.38
435.03	6380.30
435.22	6291.36
435.41	6595.63
435.59	6373.28
435.78	6270.30
435.97	6518.39
436.16	6525.41
436.34	6455.20
436.53	6593.29
436.72	6679.89
436.90	6635.42
437.09	6558.18
437.28	6553.50
437.46	6534.78
437.65	6586.27
437.84	6726.70
438.02	6670.53
438.21	6771.17
438.40	6642.44
438.58	6944.37
438.77	7005.22
438.96	6895.22
439.14	7169.06
439.33	7063.74
439.52	7068.42
439.70	7234.60
439.89	7318.86
440.08	7119.91
440.26	7300.13
440.45	7239.28
440.63	7524.82
440.82	7772.92
441.01	7456.95
441.19	7468.65
441.38	7700.36
441.57	7658.23
441.75	7733.13
441.94	7894.63
442.12	8128.68
442.31	8105.28
442.50	8175.49
442.68	7768.24
442.87	8095.91
443.05	8102.93
443.24	8264.43
443.43	8229.32
443.61	8294.86
443.80	8514.87
443.98	8203.58
444.17	7955.48
444.35	8217.62
444.54	8304.22
444.73	8332.31
444.91	8386.14
445.10	8631.90
445.28	8486.78
445.47	8290.18
445.65	8299.54
445.84	8407.20
446.02	8374.44
446.21	8580.40
446.39	8454.02
446.58	8437.63
446.77	8519.55
446.95	8327.63
447.14	8374.44
447.32	8503.17
447.51	8528.91
447.69	8430.61
447.88	8465.72
448.06	8477.42
448.25	8372.10
448.43	8414.23
448.62	8362.73
448.80	8496.14
448.99	8655.30
449.17	8629.56
449.36	8564.02
449.54	8847.22
449.73	8870.63
449.91	8879.99
450.10	8943.19
450.28	9177.24
450.46	9064.89
450.65	9181.92
450.83	9198.31
451.02	8882.33
451.20	9158.52
451.39	9011.06
451.57	9275.54
451.76	9184.26
451.94	9207.67
452.13	9397.25
452.31	9289.59
452.49	9352.78
452.68	9268.52
452.86	9432.36
453.05	9401.93
453.23	9537.68
453.42	9238.09
453.60	9448.74
453.78	9729.61
453.97	9418.32
454.15	9336.40
454.34	9446.40
454.52	9591.52
454.70	9600.88
454.89	9741.31
455.07	9572.79
455.26	9741.31
455.44	9996.43
455.62	9858.34
455.81	9809.19
455.99	10029.20
456.17	10178.99
456.36	10047.92
456.54	10221.12
456.73	10396.66
456.91	10588.58
457.09	10193.03
457.28	10471.56
457.46	10356.87
457.64	10406.02
457.83	10532.41
458.01	10303.04
458.19	10895.19
458.38	10406.02
458.56	10771.15
458.74	10733.70
458.93	10747.74
459.11	10806.25
459.29	10787.53
459.48	10539.43
459.66	10621.35
459.84	10939.66
460.03	10965.41
460.21	11183.08
460.39	11201.80
460.57	10885.83
460.76	10738.38
460.94	11335.21
461.12	11028.60
461.31	11110.52
461.49	11185.42
461.67	11283.72
461.85	11515.44
462.04	11377.34
462.22	11887.58
462.40	11817.36
462.59	11410.11
462.77	11279.04
462.95	11447.56
463.13	11910.99
463.32	11557.57
463.50	11796.30
463.68	11599.70
463.86	11690.98
464.05	11485.01
464.23	11749.49
464.41	11800.98
464.59	11599.70
464.78	12011.63
464.96	12037.38
465.14	11723.74
465.32	11908.65
465.50	12147.38
465.69	12180.15
465.87	12180.15
466.05	12121.63
466.23	12004.61
466.41	12262.07
466.60	12217.60
466.78	12112.27
466.96	12042.06
467.14	12222.28
467.32	12416.54
467.51	12411.86
467.69	12123.98
467.87	12299.52
468.05	12767.62
468.23	12386.12
468.41	12528.89
468.60	12627.19
468.78	12606.13
468.96	12718.47
469.14	12802.73
469.32	12975.93
469.50	12879.97
469.69	13109.34
469.87	13181.90
470.05	12919.76
470.23	13081.25
470.41	13202.96
470.59	13483.83
470.77	13181.90
470.95	13434.68
471.14	13745.97
471.32	13078.91
471.50	13556.38
471.68	13437.02
471.86	13858.31
472.04	13804.48
472.22	14132.15
472.40	13734.26
472.58	13982.36
472.77	14218.75
472.95	14207.05
473.13	14635.37
473.31	14073.64
473.49	14218.75
473.67	14106.41
473.85	14525.36
474.03	14621.33
474.21	14398.98
474.39	14604.94
474.57	14516.00
474.75	14792.19
474.93	15218.16
475.12	14656.43
475.30	15213.48
475.48	15051.99
475.66	15178.37
475.84	15229.87
476.02	15466.26
476.20	15311.78
476.38	15754.15
476.56	16255.02
476.74	15833.72
476.92	16095.86
477.10	15655.84
477.28	15892.24
477.46	16189.49
477.64	16468.01
477.82	16540.57
478.00	16884.62
478.18	16919.73
478.36	17095.27
478.54	17034.42
478.72	17184.21
478.90	17359.75
479.08	17565.72
479.26	17809.14
479.44	17879.35
479.62	18031.49
479.80	18134.47
479.98	18200.01
480.16	18590.88
480.34	18099.36
480.52	18597.90
480.70	18750.03
480.88	18483.21
481.06	18869.40
481.24	18494.91
481.41	18911.53
481.59	19019.19
481.77	19381.98
481.95	19953.07
482.13	19733.06
482.31	19435.81
482.49	20170.74
482.67	20006.90
482.85	20601.40
483.03	20702.04
483.21	20629.48
483.39	20741.83
483.57	20840.13
483.74	21174.83
483.92	21380.79
484.10	21048.44
484.28	21853.58
484.46	21668.68
484.64	22347.44
484.82	22085.30
485.00	22408.29
485.18	23070.66
485.35	22965.34
485.53	22724.26
485.71	23089.38
485.89	23466.21
486.07	23264.92
486.25	23601.96
486.43	23704.95
486.61	24053.69
486.78	24229.23
486.96	24357.96
487.14	24416.47
487.32	24680.95
487.50	24826.06
487.68	24734.78
487.85	25221.61
488.03	25610.14
488.21	25937.82
488.39	25764.62
488.57	26033.78
488.75	26300.60
488.92	26609.55
489.10	26574.44
489.28	26824.88
489.46	27019.14
489.64	26761.69
489.81	27840.67
489.99	27723.65
490.17	27880.46
490.35	28243.24
490.53	28313.46
490.70	28224.52
490.88	28704.33
491.06	29043.71
491.24	28957.11
491.41	29289.46
491.59	29193.50
491.77	29151.37
491.95	29422.87
492.13	29528.20
492.30	30017.37
492.48	29699.06
492.66	29893.32
492.84	30349.73
493.01	30735.92
493.19	30457.39
493.37	31152.53
493.54	31159.55
493.72	31608.93
493.90	31456.80
494.08	31725.96
494.25	32013.85
494.43	32112.15
494.61	32301.73
494.79	32126.19
494.96	32526.42
495.14	32238.54
495.32	32802.61
495.49	33394.76
495.67	32957.08
495.85	33317.53
496.02	33804.36
496.20	34017.35
496.38	34312.25
496.55	34220.97
496.73	34696.10
496.91	34000.96
497.09	34801.43
497.26	34955.90
497.44	34932.50
497.62	35449.75
497.79	35955.31
497.97	35421.67
498.14	35915.52
498.32	36187.02
498.50	36498.31
498.67	36701.94
498.85	36610.66
499.03	36825.99
499.20	37179.41
499.38	36954.72
499.56	37230.90
499.73	37120.90
499.91	37584.32
500.08	37596.03
500.26	37170.05
500.44	37649.86
500.61	38213.93
500.79	37904.98
500.97	38300.53
501.14	38373.08
501.32	38352.02
501.49	38459.68
501.67	39086.95
501.84	38951.20
502.02	38955.88
502.20	39007.37
502.37	39365.47
502.55	39601.86
502.72	39255.46
502.90	39484.84
503.07	39627.61
503.25	39922.52
503.43	39585.48
503.60	40320.41
503.78	40205.72
503.95	40261.90
504.13	40191.68
504.30	40685.53
504.48	40046.57
504.65	40711.28
504.83	40973.42
505.01	41020.23
505.18	40978.10
505.36	41359.61
505.53	41249.60
505.71	41450.89
505.88	41825.37
506.06	41687.28
506.23	41869.84
506.41	41338.54
506.58	42380.08
506.76	42237.31
506.93	42342.63
507.11	42330.93
507.28	42574.34
507.46	42871.59
507.63	42841.17
507.81	42843.51
507.98	42752.23
508.16	42824.78
508.33	43622.90
508.50	43606.52
508.68	43604.18
508.85	43700.14
509.03	44072.29
509.20	44362.51
509.38	43959.94
509.55	44304.00
509.73	44605.93
509.90	44477.20
510.08	44091.01
510.25	44797.85
510.42	44842.32
510.60	45076.38
510.77	44952.33
510.95	45925.99
511.12	45001.48
511.30	44854.03
511.47	45565.55
511.64	45705.98
511.82	45764.49
511.99	45675.55
512.17	45883.86
512.34	45785.56
512.51	46628.15
512.69	46127.28
512.86	46328.56
513.04	46637.51
513.21	46656.24
513.38	46487.72
513.56	47217.97
513.73	46607.09
513.90	46770.93
514.08	47058.81
514.25	46986.25
514.43	47461.38
514.60	47758.63
514.77	47419.25
514.95	47695.44
515.12	47327.97
515.29	47342.02
515.47	48016.09
515.64	47922.47
515.81	47948.21
515.99	47702.46
516.16	48523.99
516.33	48704.21
516.51	48727.61
516.68	48479.52
516.85	48479.52
517.03	49001.46
517.20	49074.01
517.37	48657.40
517.54	48968.69
517.72	48849.32
517.89	49036.56
518.06	48900.81
518.24	49289.34
518.41	49406.37
518.58	49130.19
518.75	49298.70
518.93	49649.78
519.10	49507.01
519.27	49811.28
519.45	49385.30
519.62	50241.94
519.79	50068.74
519.96	50110.87
520.14	50145.98
520.31	50089.80
520.48	50459.61
520.65	50050.02
520.83	50906.65
521.00	51037.72
521.17	50522.80
521.34	50560.25
521.52	50862.18
521.69	50806.01
521.86	50983.89
522.03	51498.81
522.20	51409.87
522.38	51386.46
522.55	51358.38
522.72	51171.13
522.89	51372.42
523.07	51821.80
523.24	51618.17
523.41	51550.30
523.58	51372.42
523.75	51906.06
523.92	51800.74
524.10	52027.77
524.27	51789.03
524.44	51842.87
524.61	52105.01
524.78	51936.49
524.96	52296.93
525.13	51957.55
525.30	52175.22
525.47	52095.64
525.64	52325.02
525.81	52439.70
525.98	52655.03
526.16	52332.04
526.33	52645.67
526.50	53066.97
526.67	53036.54
526.84	53017.82
527.01	52645.67
527.18	52996.75
527.36	52985.05
527.53	53134.84
527.70	53453.15
527.87	53474.22
528.04	53055.26
528.21	53598.27
528.38	53249.53
528.55	53371.24
528.72	53198.04
528.89	52980.37
529.07	53118.46
529.24	53387.62
529.41	53577.20
529.58	53619.33
529.75	53741.04
529.92	53806.58
530.09	53663.80
530.26	53553.80
530.43	53865.09
530.60	53666.14
530.77	53659.12
530.94	54319.15
531.11	54059.35
531.28	54024.25
531.46	54227.87
531.63	54281.70
531.80	54258.30
531.97	54499.37
532.14	54534.48
532.31	54536.82
532.48	54478.31
532.65	54686.62
532.82	54438.52
532.99	54672.57
533.16	54398.73
533.33	54726.41
533.50	55112.59
533.67	54852.80
533.84	54660.87
534.01	54777.90
534.18	55009.61
534.35	55082.17
534.52	55072.81
534.69	55025.99
534.86	55068.12
535.03	54997.91
535.20	55238.98
535.37	55021.31
535.54	55143.02
535.71	55208.56
535.88	55330.26
536.05	55311.54
536.22	55547.93
536.38	55774.97
536.55	55669.64
536.72	55573.68
536.89	55442.61
537.06	55667.30
537.23	55664.96
537.40	55718.79
537.57	55751.56
537.74	56018.38
537.91	55959.87
538.08	55690.71
538.25	55545.59
538.42	55578.36
538.59	56018.38
538.75	55868.59
538.92	56093.28
539.09	56191.58
539.26	56257.12
539.43	56130.73
539.60	55899.01
539.77	56142.43
539.94	56275.84
540.11	56451.38
540.28	56399.89
540.44	56266.48
540.61	56324.99
540.78	56467.76
540.95	56463.08
541.12	56306.27
541.29	56310.95
541.46	56406.91
541.62	56552.02
541.79	56741.61
541.96	56236.05
542.13	56360.10
542.30	56409.25
542.47	56687.78
542.63	56739.27
542.80	57069.28
542.97	57151.20
543.14	57099.71
543.31	57083.33
543.48	57099.71
543.64	57565.48
543.81	57399.30
543.98	57378.23
544.15	57338.44
544.32	57268.23
544.48	57546.75
544.65	57340.78
544.82	57434.41
544.99	57521.01
545.16	57326.74
545.32	57312.70
545.49	57563.14
545.66	57722.29
545.83	57518.67
546.00	57907.19
546.16	57429.72
546.33	57413.34
546.50	57385.25
546.67	57879.11
546.83	57495.26
547.00	57560.79
547.17	57633.35
547.34	57888.47
547.50	58089.76
547.67	58026.56
547.84	57986.77
548.00	58188.06
548.17	57961.03
548.34	57827.62
548.51	58185.72
548.67	58342.53
548.84	58143.59
549.01	58157.63
549.18	58089.76
549.34	58468.92
549.51	58183.38
549.68	58337.85
549.84	58372.96
550.01	58302.74
550.18	58267.64
550.34	58522.76
550.51	58452.54
550.68	58253.59
550.84	58106.14
551.01	58522.76
551.18	58548.50
551.34	58564.88
551.51	58354.24
551.68	58724.04
551.84	58623.40
552.01	58164.65
552.18	58546.16
552.34	58354.24
552.51	58604.67
552.68	58635.10
552.84	58719.36
553.01	58864.47
553.18	58695.95
553.34	59025.97
553.51	58876.18
553.67	58836.39
553.84	58922.99
554.01	58789.58
554.17	59079.80
554.34	58857.45
554.51	58906.60
554.67	59082.14
554.84	58822.34
555.00	59016.61
555.17	58986.18
555.33	58955.75
555.50	58988.52
555.67	59070.44
555.83	58932.35
556.00	59000.22
556.16	59421.52
556.33	59274.07
556.50	59288.11
556.66	59103.21
556.83	59084.48
556.99	59393.43
557.16	59480.03
557.32	59491.74
557.49	59690.68
557.65	59276.41
557.82	59510.46
557.98	59271.73
558.15	59236.62
558.32	59522.16
558.48	59365.35
558.65	59220.23
558.81	59545.57
558.98	59519.82
559.14	59681.32
559.31	59522.16
559.47	59592.38
559.64	59625.15
559.80	59606.42
559.97	59573.66
560.13	59573.66
560.30	59650.89
560.46	59646.21
560.63	59695.36
560.79	59704.73
560.96	59749.20
561.12	59590.04
561.29	59882.61
561.45	59760.90
561.61	59707.07
561.78	59716.43
561.94	59875.58
562.11	59793.67
562.27	59894.31
562.44	59814.73
562.60	59849.84
562.77	59908.35
562.93	59938.78
563.10	60018.36
563.26	59852.18
563.42	60184.54
563.59	59831.11
563.75	60067.51
563.92	60032.40
564.08	60032.40
564.24	60301.56
564.41	60137.72
564.57	59976.23
564.74	60119.00
564.90	59983.25
565.07	59983.25
565.23	59978.57
565.39	60083.89
565.56	60214.96
565.72	60226.66
565.88	60149.43
566.05	59983.25
566.21	60151.77
566.38	60163.47
566.54	60236.03
566.70	60259.43
566.87	60484.12
567.03	60198.58
567.19	60437.31
567.36	60233.69
567.52	60395.18
567.68	60343.69
567.85	60287.52
568.01	60458.38
568.17	60392.84
568.34	60512.21
568.50	60376.46
568.66	60381.14
568.83	60509.87
568.99	60404.55
569.15	60341.35
569.32	60280.50
569.48	60406.89
569.64	60434.97
569.81	60514.55
569.97	60170.49
570.13	60252.41
570.30	60395.18
570.46	60205.60
570.62	60430.29
570.78	60315.61
570.95	60463.06
571.11	60687.75
571.27	60367.10
571.43	60516.89
571.60	60762.65
571.76	60608.17
571.92	60715.84
572.09	60423.27
572.25	60587.11
572.41	60334.33
572.57	60516.89
572.74	60725.20
572.90	60430.29
573.06	60619.88
573.22	60671.37
573.38	60535.62
573.55	60622.22
573.71	60715.84
573.87	60846.91
574.03	60563.70
574.20	60715.84
574.36	60434.97
574.52	60800.10
574.68	60753.29
574.84	60769.67
575.01	60683.07
575.17	60615.19
575.33	60692.43
575.49	60626.90
575.65	60701.79
575.82	60708.82
575.98	60722.86
576.14	60994.36
576.30	60772.01
576.46	60800.10
576.62	60741.58
576.79	60640.94
576.95	60666.69
577.11	60889.04
577.27	60874.99
577.43	60760.31
577.59	60718.18
577.75	60711.16
577.92	60718.18
578.08	60610.51
578.24	60856.27
578.40	61038.83
578.56	60622.22
578.72	60622.22
578.88	60832.86
579.04	61029.47
579.21	60816.48
579.37	60956.91
579.53	60664.35
579.69	60753.29
579.85	60762.65
580.01	60938.19
580.17	60793.07
580.33	60919.46
580.49	60926.49
580.65	60814.14
580.82	60891.38
580.98	60809.46
581.14	60779.03
581.30	61022.45
581.46	60842.23
581.62	60891.38
581.78	60755.63
581.94	60846.91
582.10	60879.67
582.26	60823.50
582.42	60647.96
582.58	60879.67
582.74	60942.87
582.90	60931.17
583.06	60992.02
583.22	60839.89
583.38	60945.21
583.54	61104.37
583.70	60963.93
583.86	60919.46
584.02	60867.97
584.18	60994.36
584.34	60973.30
584.50	61050.53
584.66	60905.42
584.82	60814.14
584.98	61085.64
585.14	61001.38
585.30	60938.19
585.46	61216.71
585.62	60842.23
585.78	61059.90
585.94	60874.99
586.10	61036.49
586.26	61010.74
586.42	61155.86
586.58	61169.90
586.74	61202.67
586.90	61087.98
587.06	61003.72
587.22	61050.53
587.38	60989.68
587.54	61282.25
587.70	61055.21
587.86	61048.19
588.02	61041.17
588.18	61052.87
588.34	60921.80
