SpectraSuite Data File
++++++++++++++++++++++++++++++++++++
Date: Fri Oct 25 11:26:26 EDT 2013
User: price-jones
Dark Spectrum Present: No
Reference Spectrum Present: No
Number of Sampled Component Spectra: 1
Spectrometers: USB2+H05261
Integration Time (usec): 100000 (USB2+H05261)
Spectra Averaged: 1 (USB2+H05261)
Boxcar Smoothing: 0 (USB2+H05261)
Correct for Electrical Dark: No (USB2+H05261)
Strobe/Lamp Enabled: No (USB2+H05261)
Correct for Detector Non-linearity: No (USB2+H05261)
Correct for Stray Light: No (USB2+H05261)
Number of Pixels in Processed Spectrum: 2048
>>>>>Begin Processed Spectral Data<<<<<
365.73	234.05
365.92	234.05
366.12	234.05
366.32	138.09
366.52	107.66
366.72	203.63
366.91	203.63
367.11	107.66
367.31	184.90
367.51	187.24
367.70	81.92
367.90	70.22
368.10	147.45
368.30	121.71
368.49	159.16
368.69	107.66
368.89	114.69
369.09	145.11
369.28	131.07
369.48	121.71
369.68	166.18
369.87	210.65
370.07	255.12
370.27	271.50
370.47	332.36
370.66	610.88
370.86	592.16
371.06	603.86
371.25	692.80
371.45	702.16
371.65	730.25
371.84	711.52
372.04	695.14
372.24	636.63
372.44	667.05
372.63	793.44
372.83	748.97
373.03	767.70
373.22	763.01
373.42	809.83
373.62	809.83
373.81	711.52
374.01	767.70
374.21	786.42
374.40	830.89
374.60	774.72
374.79	777.06
374.99	945.58
375.19	884.72
375.38	849.61
375.58	837.91
375.78	931.53
375.97	823.87
376.17	950.26
376.37	837.91
376.56	882.38
376.76	880.04
376.95	924.51
377.15	978.34
377.35	983.02
377.54	929.19
377.74	830.89
377.93	861.32
378.13	903.45
378.33	873.02
378.52	987.71
378.72	938.55
378.91	936.21
379.11	926.85
379.31	978.34
379.50	1004.09
379.70	1018.13
379.89	973.66
380.09	952.60
380.28	987.71
380.48	1018.13
380.68	952.60
380.87	1013.45
381.07	1083.67
381.26	1046.22
381.46	1022.81
381.65	985.37
381.85	1081.33
382.04	1008.77
382.24	1139.84
382.43	1097.71
382.63	1086.01
382.83	1121.12
383.02	1095.37
383.22	1006.43
383.41	1090.69
383.61	1151.54
383.80	1184.31
384.00	1093.03
384.19	1074.31
384.39	1125.80
384.58	1146.86
384.78	1200.69
384.97	1181.97
385.17	1228.78
385.36	1245.16
385.56	1212.40
385.75	1181.97
385.95	1156.22
386.14	1219.42
386.34	1212.40
386.53	1163.25
386.72	1235.80
386.92	1310.70
387.11	1231.12
387.31	1310.70
387.50	1226.44
387.70	1203.04
387.89	1203.04
388.09	1291.98
388.28	1329.42
388.48	1219.42
388.67	1273.25
388.86	1310.70
389.06	1296.66
389.25	1406.66
389.45	1392.62
389.64	1383.26
389.84	1343.47
390.03	1409.00
390.22	1378.58
390.42	1287.29
390.61	1399.64
390.81	1427.73
391.00	1434.75
391.19	1385.60
391.39	1469.86
391.58	1446.45
391.78	1451.13
391.97	1544.75
392.16	1411.34
392.36	1488.58
392.55	1586.88
392.75	1577.52
392.94	1511.99
393.13	1633.69
393.33	1423.05
393.52	1530.71
393.71	1533.05
393.91	1624.33
394.10	1584.54
394.29	1577.52
394.49	1607.95
394.68	1671.14
394.88	1621.99
395.07	1664.12
395.26	1710.93
395.46	1647.74
395.65	1694.55
395.84	1722.63
396.04	1774.13
396.23	1802.21
396.42	1792.85
396.62	1736.68
396.81	1783.49
397.00	1687.53
397.19	1771.79
397.39	1743.70
397.58	1811.57
397.77	1757.74
397.97	1806.89
398.16	1710.93
398.35	1795.19
398.55	1923.92
398.74	1879.45
398.93	1973.07
399.12	1996.48
399.32	1891.15
399.51	1912.22
399.70	1870.09
399.90	1954.35
400.09	1940.30
400.28	2059.67
400.47	2043.29
400.67	2054.99
400.86	2033.93
401.05	2101.80
401.24	2136.91
401.44	2165.00
401.63	2045.63
401.82	2193.08
402.01	2026.90
402.21	2230.53
402.40	2218.83
402.59	2232.87
402.78	2202.44
402.97	2270.32
403.17	2200.10
403.36	2345.22
403.55	2296.07
403.74	2413.09
403.93	2253.94
404.13	2263.30
404.32	2326.49
404.51	2373.30
404.70	2471.61
404.89	2455.22
405.09	2597.99
405.28	2511.39
405.47	2502.03
405.66	2621.40
405.85	2445.86
406.05	2476.29
406.24	2579.27
406.43	2555.86
406.62	2689.28
406.81	2607.36
407.00	2551.18
407.20	2532.46
407.39	2544.16
407.58	2726.72
407.77	2740.77
407.96	2595.65
408.15	2698.64
408.34	2766.51
408.54	2963.12
408.73	2759.49
408.92	2867.16
409.11	2773.53
409.30	2839.07
409.49	2787.58
409.68	2904.60
409.87	2965.46
410.07	3023.97
410.26	3005.25
410.45	2977.16
410.64	3087.17
410.83	3141.00
411.02	3126.96
411.21	3073.12
411.40	3143.34
411.59	3297.81
411.78	3220.58
411.98	3248.66
412.17	3302.50
412.36	3229.94
412.55	3344.63
412.74	3332.92
412.93	3358.67
413.12	3379.73
413.31	3569.32
413.50	3426.54
413.69	3440.59
413.88	3510.80
414.07	3588.04
414.26	3536.55
414.45	3552.93
414.64	3625.49
414.83	3712.09
415.02	3761.24
415.22	3655.92
415.41	3929.76
415.60	3716.77
415.79	3957.85
415.98	3939.12
416.17	3983.59
416.36	3908.69
416.55	3953.16
416.74	4065.51
416.93	3922.74
417.12	4018.70
417.31	4107.64
417.50	4170.83
417.69	4208.28
417.88	4285.52
418.07	4227.01
418.26	4278.50
418.45	4327.65
418.64	4510.21
418.83	4393.19
419.02	4461.06
419.21	4566.39
419.39	4482.13
419.58	4386.16
419.77	4411.91
419.96	4498.51
420.15	4650.64
420.34	4486.81
420.53	4631.92
420.72	4681.07
420.91	4683.41
421.10	4795.76
421.29	4926.83
421.48	4671.71
421.67	4798.10
421.86	4662.35
422.05	4716.18
422.24	4753.63
422.43	4957.25
422.61	4795.76
422.80	4891.72
422.99	4947.89
423.18	4943.21
423.37	4922.15
423.56	4919.81
423.75	4877.68
423.94	4685.75
424.13	4542.98
424.32	4774.69
424.50	4945.55
424.69	5057.90
424.88	4971.30
425.07	4952.57
425.26	4898.74
425.45	5074.28
425.64	4966.62
425.83	4999.38
426.01	5011.09
426.20	4973.64
426.39	5043.85
426.58	4973.64
426.77	4994.70
426.96	5039.17
427.15	5090.67
427.33	5186.63
427.52	5160.88
427.71	5167.90
427.90	5221.74
428.09	5427.70
428.28	5399.62
428.46	5474.51
428.65	5352.81
428.84	5558.77
429.03	5343.44
429.22	5273.23
429.40	5371.53
429.59	5392.59
429.78	5240.46
429.97	5228.76
430.16	5579.84
430.34	5607.92
430.53	5685.16
430.72	5743.67
430.91	5469.83
431.10	5558.77
431.28	5804.53
431.47	5816.23
431.66	5863.04
431.85	5596.22
432.03	5830.27
432.22	5996.45
432.41	5879.43
432.60	5823.25
432.79	5900.49
432.97	5951.98
433.16	6024.54
433.35	5907.51
433.54	6129.86
433.72	6038.58
433.91	6057.31
434.10	6176.67
434.28	6134.54
434.47	5968.37
434.66	6319.45
434.85	6494.99
435.03	6307.74
435.22	6155.61
435.41	6455.20
435.59	6366.26
435.78	6424.77
435.97	6497.33
436.16	6420.09
436.34	6420.09
436.53	6466.90
436.72	6689.25
436.90	6394.34
437.09	6445.84
437.28	6363.92
437.46	6661.16
437.65	6464.56
437.84	6806.28
438.02	6682.23
438.21	6677.55
438.40	6614.35
438.58	6897.56
438.77	7080.12
438.96	6981.82
439.14	7068.42
439.33	7061.40
439.52	7052.03
439.70	7138.63
439.89	7297.79
440.08	7335.24
440.26	7368.01
440.45	7424.18
440.63	7459.29
440.82	7426.52
441.01	7618.44
441.19	7541.21
441.38	7637.17
441.57	7730.79
441.75	7749.51
441.94	7908.67
442.12	8009.31
442.31	8056.12
442.50	8039.74
442.68	7990.59
442.87	8004.63
443.05	8077.19
443.24	8126.34
443.43	8023.36
443.61	8205.92
443.80	8311.24
443.98	7899.31
444.17	7786.96
444.35	8126.34
444.54	8238.69
444.73	8229.32
444.91	8184.85
445.10	8383.80
445.28	8234.00
445.47	8475.08
445.65	8215.28
445.84	8519.55
446.02	8290.18
446.21	8409.54
446.39	8367.42
446.58	8388.48
446.77	8327.63
446.95	8231.66
447.14	8325.29
447.32	8355.71
447.51	8362.73
447.69	8393.16
447.88	8372.10
448.06	8554.66
448.25	8418.91
448.43	8549.98
448.62	8477.42
448.80	8299.54
448.99	8741.90
449.17	8650.62
449.36	8641.26
449.54	8837.86
449.73	8964.25
449.91	8973.61
450.10	8872.97
450.28	9064.89
450.46	8959.57
450.65	9053.19
450.83	8973.61
451.02	8723.18
451.20	9020.42
451.39	9043.83
451.57	8978.30
451.76	8954.89
451.94	9039.15
452.13	9413.63
452.31	9095.32
452.49	9153.84
452.68	9296.61
452.86	9172.56
453.05	9167.88
453.23	9577.47
453.42	9334.06
453.60	9277.88
453.78	9352.78
453.97	9472.15
454.15	9460.45
454.34	9385.55
454.52	9755.35
454.70	9598.54
454.89	9771.74
455.07	9727.27
455.26	9767.06
455.44	9813.87
455.62	9942.60
455.81	9832.59
455.99	10211.76
456.17	10127.50
456.36	10148.56
456.54	10319.42
456.73	10349.85
456.91	10562.84
457.09	10190.69
457.28	10310.06
457.46	10181.33
457.64	10333.47
457.83	10506.66
458.01	10342.83
458.19	10509.01
458.38	10445.81
458.56	10619.01
458.74	10729.02
458.93	10581.56
459.11	10654.12
459.29	10649.44
459.48	10850.72
459.66	10764.12
459.84	10665.82
460.03	11225.21
460.21	11044.99
460.39	10986.47
460.57	11047.33
460.76	11037.97
460.94	11169.04
461.12	11124.57
461.31	11005.20
461.49	11154.99
461.67	11073.07
461.85	11442.88
462.04	11424.15
462.22	12032.69
462.40	11440.54
462.59	11683.95
462.77	11639.48
462.95	11494.37
463.13	11550.54
463.32	11454.58
463.50	11786.94
463.68	11618.42
463.86	11943.75
464.05	11545.86
464.23	11674.59
464.41	11688.64
464.59	11784.60
464.78	11910.99
464.96	11983.54
465.14	11871.20
465.32	11953.12
465.50	12051.42
465.69	12084.19
465.87	12086.53
466.05	12084.19
466.23	12060.78
466.41	12098.23
466.60	12535.91
466.78	11831.41
466.96	12173.13
467.14	12264.41
467.32	12215.26
467.51	12489.10
467.69	12065.46
467.87	12116.95
468.05	12496.12
468.23	12278.45
468.41	12374.41
468.60	12599.10
468.78	12723.15
468.96	12547.61
469.14	12659.96
469.32	13097.64
469.50	12503.14
469.69	12809.75
469.87	12973.59
470.05	12966.57
470.23	12968.91
470.41	13121.04
470.59	13427.65
470.77	13043.81
470.95	13240.41
471.14	13465.10
471.32	12975.93
471.50	13598.51
471.68	13530.64
471.86	13556.38
472.04	13687.45
472.22	13926.19
472.40	13806.82
472.58	14036.19
472.77	14012.79
472.95	14141.52
473.13	14665.80
473.31	14038.53
473.49	13956.61
473.67	14040.87
473.85	14389.61
474.03	14532.39
474.21	14743.03
474.39	14647.07
474.57	14513.66
474.75	14813.25
474.93	14930.28
475.12	14801.55
475.30	14752.40
475.48	15009.86
475.66	15192.42
475.84	14958.36
476.02	15456.90
476.20	15150.29
476.38	15611.37
476.56	15576.27
476.74	15978.84
476.92	15843.09
477.10	15807.98
477.28	15871.17
477.46	16257.36
477.64	16219.91
477.82	16624.83
478.00	16765.26
478.18	16435.24
478.36	16915.05
478.54	17095.27
478.72	16842.50
478.90	17408.90
479.08	17383.16
479.26	17509.55
479.44	17619.55
479.62	17694.45
479.80	18202.35
479.98	18010.42
480.16	18249.16
480.34	18054.89
480.52	18497.25
480.70	18569.81
480.88	18466.83
481.06	18532.36
481.24	18625.98
481.41	19033.24
481.59	19138.56
481.77	19440.49
481.95	19683.91
482.13	19482.62
482.31	19323.46
482.49	19852.42
482.67	19950.73
482.85	20250.32
483.03	20423.51
483.21	20898.64
483.39	20758.21
483.57	20493.73
483.74	21245.04
483.92	21329.30
484.10	20943.11
484.28	21680.38
484.46	21481.44
484.64	22375.52
484.82	21935.50
485.00	22408.29
485.18	22314.67
485.35	22656.39
485.53	22579.15
485.71	22799.16
485.89	23459.19
486.07	23033.21
486.25	23260.24
486.43	23318.76
486.61	23667.50
486.78	23978.79
486.96	23915.59
487.14	24467.96
487.32	24610.73
487.50	24709.04
487.68	24926.71
487.85	24842.45
488.03	25626.53
488.21	25795.04
488.39	25523.54
488.57	26036.12
488.75	26029.10
488.92	26490.18
489.10	26607.21
489.28	26625.93
489.46	27201.71
489.64	26717.22
489.81	27211.07
489.99	27910.89
490.17	27555.13
490.35	28409.42
490.53	28079.41
490.70	28292.40
490.88	28180.05
491.06	28341.55
491.24	28589.64
491.41	29296.49
491.59	29256.70
491.77	29041.37
491.95	29352.66
492.13	29610.12
492.30	29958.86
492.48	29720.12
492.66	29855.87
492.84	30361.43
493.01	30586.12
493.19	30553.35
493.37	30909.11
493.54	31082.31
493.72	31204.02
493.90	31302.32
494.08	31377.22
494.25	31737.66
494.43	32271.31
494.61	32121.51
494.79	32091.09
494.96	32154.28
495.14	32713.67
495.32	33343.27
495.49	33151.35
495.67	33111.56
495.85	33235.61
496.02	33579.67
496.20	33682.65
496.38	33516.47
496.55	34019.69
496.73	34883.34
496.91	34513.54
497.09	35302.30
497.26	34771.00
497.44	34684.40
497.62	34756.96
497.79	35648.70
497.97	34892.71
498.14	35728.28
498.32	36055.95
498.50	35875.73
498.67	36531.08
498.85	36273.62
499.03	36245.54
499.20	36341.50
499.38	36528.74
499.56	36613.00
499.73	37076.43
499.91	36959.40
500.08	37436.87
500.26	37074.09
500.44	37387.72
500.61	37392.40
500.79	37284.73
500.97	37727.10
501.14	38405.85
501.32	37951.79
501.49	38457.34
501.67	38188.18
501.84	38782.68
502.02	38873.96
502.20	38632.88
502.37	38787.36
502.55	38843.53
502.72	38990.98
502.90	38969.92
503.07	39349.09
503.25	39398.24
503.43	39512.92
503.60	40018.48
503.78	40020.82
503.95	40081.67
504.13	40051.25
504.30	40313.39
504.48	40191.68
504.65	40498.29
504.83	40765.11
505.01	41226.20
505.18	40699.58
505.36	41324.50
505.53	41195.77
505.71	41755.16
505.88	41251.94
506.06	41228.54
506.23	41577.28
506.41	41567.91
506.58	41911.97
506.76	41895.59
506.93	42244.33
507.11	42136.66
507.28	42270.08
507.46	42518.17
507.63	42618.81
507.81	43299.91
507.98	42869.25
508.16	43138.41
508.33	42986.28
508.50	43388.85
508.68	43342.04
508.85	43756.32
509.03	43789.08
509.20	43749.29
509.38	43945.90
509.55	44030.16
509.73	44259.53
509.90	44100.37
510.08	44446.77
510.25	44767.43
510.42	44657.42
510.60	44748.70
510.77	44889.13
510.95	45317.45
511.12	44397.62
511.30	44622.31
511.47	45097.44
511.64	45001.48
511.82	45844.07
511.99	45244.90
512.17	45525.76
512.34	45680.24
512.51	46021.95
512.69	45886.20
512.86	46298.14
513.04	46555.60
513.21	46218.56
513.38	46335.59
513.56	46522.83
513.73	46600.07
513.90	46630.49
514.08	46689.01
514.25	46967.53
514.43	46937.10
514.60	47241.37
514.77	47091.58
514.95	47805.44
515.12	47187.54
515.29	47480.11
515.47	47716.50
515.64	48315.68
515.81	47800.76
515.99	47924.81
516.16	47957.58
516.33	48083.97
516.51	48327.38
516.68	47999.71
516.85	48350.79
517.03	48495.90
517.20	48821.23
517.37	48175.25
517.54	48779.10
517.72	48619.95
517.89	48978.05
518.06	49261.26
518.24	49343.17
518.41	48706.55
518.58	49052.95
518.75	48949.96
518.93	49525.74
519.10	49155.93
519.27	49137.21
519.45	49773.83
519.62	49813.62
519.79	49851.07
519.96	49736.38
520.14	50101.51
520.31	49949.37
520.48	50223.22
520.65	49935.33
520.83	50094.49
521.00	50475.99
521.17	50183.43
521.34	50316.84
521.52	50618.77
521.69	50461.95
521.86	50883.25
522.03	50806.01
522.20	51274.12
522.38	51239.01
522.55	50988.57
522.72	51011.98
522.89	51253.05
523.07	51213.26
523.24	51405.19
523.41	51650.94
523.58	51288.16
523.75	51957.55
523.92	51585.41
524.10	51716.48
524.27	51838.18
524.44	51833.50
524.61	51709.46
524.78	51976.28
524.96	52037.13
525.13	52018.41
525.30	52264.16
525.47	52210.33
525.64	52233.74
525.81	52252.46
525.98	52280.55
526.16	52266.50
526.33	52523.96
526.50	52659.71
526.67	52367.15
526.84	52853.98
527.01	52839.93
527.18	52516.94
527.36	52673.76
527.53	52945.26
527.70	53146.54
527.87	53146.54
528.04	53073.99
528.21	53249.53
528.38	53272.93
528.55	53279.96
528.72	53095.05
528.89	53057.60
529.07	53324.43
529.24	53219.10
529.41	53544.44
529.58	53577.20
529.75	53303.36
529.92	53492.94
530.09	53588.91
530.26	53876.79
530.43	53801.89
530.60	53441.45
530.77	53734.02
530.94	53757.42
531.11	53677.85
531.28	53806.58
531.46	54110.85
531.63	54078.08
531.80	53982.12
531.97	54305.11
532.14	54368.30
532.31	54389.37
532.48	54396.39
532.65	54330.86
532.82	54459.58
532.99	54471.29
533.16	54351.92
533.33	54653.85
533.50	54974.50
533.67	54738.11
533.84	54363.62
534.01	54883.22
534.18	54569.59
534.35	55075.15
534.52	54934.71
534.69	55269.41
534.86	55496.44
535.03	54906.63
535.20	54941.74
535.37	55196.85
535.54	55484.74
535.71	55210.90
535.88	55503.46
536.05	55395.80
536.22	55250.69
536.38	55323.24
536.55	55171.11
536.72	55412.18
536.89	55288.13
537.06	55524.53
537.23	55505.80
537.40	55515.17
537.57	55473.04
537.74	55466.02
537.91	55735.18
538.08	55814.76
538.25	55313.88
538.42	55950.51
538.59	56044.13
538.75	55597.09
538.92	56041.79
539.09	55978.59
539.26	56179.88
539.43	56030.08
539.60	56268.82
539.77	56177.54
539.94	56355.42
540.11	56549.68
540.28	56179.88
540.44	56322.65
540.61	56250.09
540.78	56250.09
540.95	56381.16
541.12	56200.94
541.29	56362.44
541.46	56444.36
541.62	56390.53
541.79	56631.60
541.96	56046.47
542.13	56247.75
542.30	56573.09
542.47	56781.40
542.63	56914.81
542.80	56687.78
542.97	56933.53
543.14	57031.83
543.31	57076.30
543.48	57062.26
543.64	57172.27
543.81	57450.79
543.98	57106.73
544.15	57279.93
544.32	57453.13
544.48	57506.96
544.65	57481.22
544.82	57511.64
544.99	57162.90
545.16	57422.70
545.32	57265.89
545.49	57649.74
545.66	57504.62
545.83	57375.89
546.00	57778.46
546.16	57462.49
546.33	57357.17
546.50	57616.97
546.67	57586.54
546.83	57228.44
547.00	57467.17
547.17	57638.03
547.34	57640.37
547.50	57635.69
547.67	57846.34
547.84	57785.49
548.00	58155.29
548.17	58159.97
548.34	57785.49
548.51	58038.26
548.67	57972.73
548.84	57876.77
549.01	58049.97
549.18	58007.84
549.34	58014.86
549.51	57982.09
549.68	58206.78
549.84	58103.80
550.01	58342.53
550.18	58113.16
550.34	58284.02
550.51	58234.87
550.68	58426.79
550.84	57993.79
551.01	58164.65
551.18	58546.16
551.34	58330.83
551.51	58391.68
551.68	58375.30
551.84	58342.53
552.01	58213.80
552.18	58564.88
552.34	58251.25
552.51	58515.73
552.68	58520.41
552.84	58529.78
553.01	58745.11
553.18	58784.90
553.34	58955.75
553.51	58443.18
553.67	58796.60
553.84	58962.78
554.01	58759.15
554.17	58805.96
554.34	58850.43
554.51	58972.14
554.67	58986.18
554.84	58768.51
555.00	58869.15
555.17	58848.09
555.33	58738.08
555.50	58908.94
555.67	58824.68
555.83	58665.53
556.00	58869.15
556.16	59192.15
556.33	59063.42
556.50	59171.08
556.66	59203.85
556.83	58915.96
556.99	59330.24
557.16	59325.56
557.32	59332.58
557.49	59709.41
557.65	59178.10
557.82	59164.06
557.98	59257.68
558.15	59255.34
558.32	59402.80
558.48	59487.06
558.65	59245.98
558.81	59276.41
558.98	59423.86
559.14	59594.72
559.31	59737.49
559.47	59461.31
559.64	59571.32
559.80	59557.27
559.97	59381.73
560.13	59529.19
560.30	59412.16
560.46	59494.08
560.63	59657.91
560.79	59784.30
560.96	59688.34
561.12	59798.35
561.29	59697.70
561.45	59526.84
561.61	59629.83
561.78	59533.87
561.94	59749.20
562.11	59554.93
562.27	59777.28
562.44	59852.18
562.60	59948.14
562.77	60025.38
562.93	59646.21
563.10	60039.42
563.26	59632.17
563.42	59994.95
563.59	59852.18
563.75	59735.15
563.92	59957.50
564.08	59852.18
564.24	60165.81
564.41	59980.91
564.57	59908.35
564.74	59922.40
564.90	59891.97
565.07	60046.44
565.23	59894.31
565.39	59931.76
565.56	59880.27
565.72	59922.40
565.88	60123.68
566.05	59945.80
566.21	60055.81
566.38	60172.83
566.54	60362.42
566.70	60184.54
566.87	60252.41
567.03	60130.70
567.19	60383.48
567.36	59948.14
567.52	60205.60
567.68	60353.05
567.85	60123.68
568.01	60331.99
568.17	60128.36
568.34	60240.71
568.50	60313.26
568.66	60233.69
568.83	60214.96
568.99	60196.24
569.15	60172.83
569.32	60090.91
569.48	59966.87
569.64	60491.15
569.81	60278.16
569.97	60264.11
570.13	60395.18
570.30	60243.05
570.46	60315.61
570.62	60236.03
570.78	60514.55
570.95	60299.22
571.11	60236.03
571.27	60119.00
571.43	60390.50
571.60	60371.78
571.76	60411.57
571.92	60491.15
572.09	60533.28
572.25	60594.13
572.41	60320.29
572.57	60425.61
572.74	60636.26
572.90	60231.35
573.06	60399.86
573.22	60505.19
573.38	60465.40
573.55	60444.33
573.71	60636.26
573.87	60664.35
574.03	60409.23
574.20	60491.15
574.36	60519.23
574.52	60425.61
574.68	60556.68
574.84	60603.49
575.01	60767.33
575.17	60654.98
575.33	60523.91
575.49	60470.08
575.65	60563.70
575.82	60636.26
575.98	60701.79
576.14	60722.86
576.30	60647.96
576.46	60505.19
576.62	60732.22
576.79	60547.32
576.95	60526.25
577.11	60530.93
577.27	60612.85
577.43	60687.75
577.59	60671.37
577.75	60645.62
577.92	60376.46
578.08	60591.79
578.24	60708.82
578.40	60980.32
578.56	60954.57
578.72	60676.05
578.88	60954.57
579.04	60935.85
579.21	60849.25
579.37	60547.32
579.53	60947.55
579.69	60479.44
579.85	60594.13
580.01	60626.90
580.17	60596.47
580.33	60767.33
580.49	60708.82
580.65	60783.71
580.82	60889.04
580.98	60750.94
581.14	60460.72
581.30	60729.88
581.46	60516.89
581.62	60722.86
581.78	60722.86
581.94	60725.20
582.10	60905.42
582.26	60654.98
582.42	60701.79
582.58	60783.71
582.74	60781.37
582.90	60832.86
583.06	60601.15
583.22	60776.69
583.38	60809.46
583.54	60697.11
583.70	60893.72
583.86	60917.12
584.02	60601.15
584.18	60865.63
584.34	60949.89
584.50	60870.31
584.66	60851.59
584.82	60568.38
584.98	61099.68
585.14	61073.94
585.30	60549.66
585.46	60982.66
585.62	60945.21
585.78	60914.78
585.94	60690.09
586.10	60926.49
586.26	60900.74
586.42	60816.48
586.58	61048.19
586.74	61181.60
586.90	60872.65
587.06	60900.74
587.22	60966.27
587.38	60837.54
587.54	60882.02
587.70	61233.10
587.86	60882.02
588.02	60809.46
588.18	61024.79
588.34	60886.70
588.49	61069.26
