SpectraSuite Data File
++++++++++++++++++++++++++++++++++++
Date: Fri Oct 25 11:25:29 EDT 2013
User: price-jones
Dark Spectrum Present: No
Reference Spectrum Present: No
Number of Sampled Component Spectra: 1
Spectrometers: USB2+H05261
Integration Time (usec): 100000 (USB2+H05261)
Spectra Averaged: 1 (USB2+H05261)
Boxcar Smoothing: 0 (USB2+H05261)
Correct for Electrical Dark: No (USB2+H05261)
Strobe/Lamp Enabled: No (USB2+H05261)
Correct for Detector Non-linearity: No (USB2+H05261)
Correct for Stray Light: No (USB2+H05261)
Number of Pixels in Processed Spectrum: 2048
>>>>>Begin Processed Spectral Data<<<<<
365.73	264.48
365.92	264.48
366.12	264.48
366.32	168.52
366.52	102.98
366.72	110.01
366.91	102.98
367.11	194.26
367.31	152.13
367.51	131.07
367.70	124.05
367.90	105.32
368.10	173.20
368.30	112.35
368.49	163.84
368.69	227.03
368.89	187.24
369.09	173.20
369.28	163.84
369.48	156.82
369.68	149.79
369.87	194.26
370.07	205.97
370.27	229.37
370.47	372.15
370.66	547.69
370.86	645.99
371.06	678.76
371.25	664.71
371.45	718.54
371.65	746.63
371.84	622.58
372.04	713.86
372.24	657.69
372.44	622.58
372.63	716.20
372.83	748.97
373.03	758.33
373.22	814.51
373.42	706.84
373.62	786.42
373.81	795.78
374.01	854.30
374.21	889.40
374.40	812.17
374.60	809.83
374.79	770.04
374.99	870.68
375.19	863.66
375.38	940.90
375.58	802.80
375.78	880.04
375.97	922.17
376.17	950.26
376.37	816.85
376.56	940.90
376.76	924.51
376.95	835.57
377.15	835.57
377.35	903.45
377.54	882.38
377.74	905.79
377.93	875.36
378.13	901.11
378.33	894.08
378.52	966.64
378.72	912.81
378.91	938.55
379.11	931.53
379.31	938.55
379.50	950.26
379.70	947.92
379.89	968.98
380.09	917.49
380.28	954.94
380.48	1022.81
380.68	1008.77
380.87	954.94
381.07	973.66
381.26	1055.58
381.46	910.47
381.65	1001.75
381.85	1083.67
382.04	1111.75
382.24	1015.79
382.43	1076.65
382.63	1011.11
382.83	1036.86
383.02	1160.91
383.22	1095.37
383.41	1046.22
383.61	1107.07
383.80	1135.16
384.00	1142.18
384.19	1156.22
384.39	1172.61
384.58	1102.39
384.78	1128.14
384.97	1196.01
385.17	1118.78
385.36	1224.10
385.56	1151.54
385.75	1104.73
385.95	1184.31
386.14	1196.01
386.34	1233.46
386.53	1233.46
386.72	1186.65
386.92	1294.32
387.11	1245.16
387.31	1235.80
387.50	1163.25
387.70	1245.16
387.89	1252.19
388.09	1224.10
388.28	1289.64
388.48	1282.61
388.67	1249.85
388.86	1404.32
389.06	1413.68
389.25	1448.79
389.45	1259.21
389.64	1299.00
389.84	1268.57
390.03	1387.94
390.22	1366.87
390.42	1390.28
390.61	1404.32
390.81	1352.83
391.00	1336.45
391.19	1530.71
391.39	1371.55
391.58	1479.22
391.78	1516.67
391.97	1514.33
392.16	1455.81
392.36	1544.75
392.55	1472.20
392.75	1507.30
392.94	1497.94
393.13	1533.05
393.33	1523.69
393.52	1497.94
393.71	1572.84
393.91	1572.84
394.10	1544.75
394.29	1561.14
394.49	1650.08
394.68	1483.90
394.88	1643.06
395.07	1668.80
395.26	1591.56
395.46	1689.87
395.65	1769.44
395.84	1675.82
396.04	1767.10
396.23	1778.81
396.42	1753.06
396.62	1785.83
396.81	1849.02
397.00	1760.08
397.19	1811.57
397.39	1785.83
397.58	1842.00
397.77	1846.68
397.97	1804.55
398.16	1811.57
398.35	1919.24
398.55	1895.83
398.74	1832.64
398.93	1914.56
399.12	1937.96
399.32	1975.41
399.51	1856.04
399.70	2125.21
399.90	1867.75
400.09	2017.54
400.28	2094.78
400.47	2113.50
400.67	2073.71
400.86	2066.69
401.05	2033.93
401.24	2026.90
401.44	2073.71
401.63	2127.55
401.82	2172.02
402.01	2120.53
402.21	2169.68
402.40	2125.21
402.59	2202.44
402.78	2150.95
402.97	2108.82
403.17	2172.02
403.36	2277.34
403.55	2319.47
403.74	2424.80
403.93	2260.96
404.13	2368.62
404.32	2420.11
404.51	2434.16
404.70	2466.92
404.89	2331.17
405.09	2429.48
405.28	2469.27
405.47	2441.18
405.66	2408.41
405.85	2567.57
406.05	2558.21
406.24	2445.86
406.43	2504.37
406.62	2558.21
406.81	2525.44
407.00	2497.35
407.20	2649.49
407.39	2569.91
407.58	2635.44
407.77	2703.32
407.96	2745.45
408.15	2815.66
408.34	2729.06
408.54	2825.03
408.73	2860.13
408.92	2834.39
409.11	2986.52
409.30	2951.42
409.49	3023.97
409.68	2920.99
409.87	2930.35
410.07	2909.29
410.26	2944.39
410.45	3007.59
410.64	2977.16
410.83	3061.42
411.02	2974.82
411.21	3171.43
411.40	3187.81
411.59	3197.17
411.78	3272.07
411.98	3307.18
412.17	3105.89
412.36	3286.11
412.55	3353.99
412.74	3445.27
412.93	3475.70
413.12	3468.67
413.31	3599.74
413.50	3471.01
413.69	3459.31
413.88	3590.38
414.07	3641.87
414.26	3686.34
414.45	3688.68
414.64	3499.10
414.83	3721.45
415.02	3819.75
415.22	3815.07
415.41	3852.52
415.60	3784.65
415.79	3894.65
415.98	4051.47
416.17	3913.38
416.36	3868.91
416.55	4039.76
416.74	4067.85
416.93	4079.55
417.12	4035.08
417.31	4248.07
417.50	4093.60
417.69	4379.14
417.88	4294.88
418.07	4133.39
418.26	4273.82
418.45	4276.16
418.64	4447.02
418.83	4388.50
419.02	4339.35
419.21	4468.08
419.39	4465.74
419.58	4472.76
419.77	4491.49
419.96	4477.44
420.15	4622.56
420.34	4498.51
420.53	4624.90
420.72	4613.20
420.91	4617.88
421.10	4704.48
421.29	4748.95
421.48	4657.67
421.67	4767.67
421.86	4613.20
422.05	4774.69
422.24	4781.71
422.43	4901.08
422.61	4924.49
422.80	4898.74
422.99	5006.41
423.18	4950.23
423.37	4924.49
423.56	4861.29
423.75	4868.31
423.94	4692.77
424.13	4723.20
424.32	4615.54
424.50	5004.07
424.69	4987.68
424.88	5149.18
425.07	4910.44
425.26	4896.40
425.45	5006.41
425.64	5067.26
425.83	4950.23
426.01	5008.75
426.20	5097.69
426.39	4999.38
426.58	5074.28
426.77	4999.38
426.96	5093.01
427.15	5100.03
427.33	5149.18
427.52	5036.83
427.71	5219.39
427.90	5291.95
428.09	5320.04
428.28	5338.76
428.46	5416.00
428.65	5294.29
428.84	5495.58
429.03	5460.47
429.22	5280.25
429.40	5301.31
429.59	5488.56
429.78	5341.10
429.97	5263.86
430.16	5343.44
430.34	5535.37
430.53	5664.10
430.72	5551.75
430.91	5614.95
431.10	5638.35
431.28	5884.11
431.47	5643.03
431.66	5820.91
431.85	5647.71
432.03	5839.64
432.22	5795.17
432.41	5898.15
432.60	5947.30
432.79	5996.45
432.97	6066.67
433.16	5893.47
433.35	6033.90
433.54	6073.69
433.72	6061.99
433.91	6216.46
434.10	6052.63
434.28	6153.27
434.47	5989.43
434.66	6246.89
434.85	6314.77
435.03	6356.90
435.22	6272.64
435.41	6604.99
435.59	6408.39
435.78	6534.78
435.97	6441.15
436.16	6359.24
436.34	6347.53
436.53	6532.44
436.72	6443.49
436.90	6492.65
437.09	6604.99
437.28	6380.30
437.46	6679.89
437.65	6494.99
437.84	6696.27
438.02	6569.88
438.21	6590.95
438.40	6642.44
438.58	6874.15
438.77	6967.77
438.96	6780.53
439.14	7234.60
439.33	7014.59
439.52	7037.99
439.70	7119.91
439.89	7398.43
440.08	7180.76
440.26	7360.98
440.45	7337.58
440.63	7293.11
440.82	7485.03
441.01	7536.52
441.19	7435.88
441.38	7761.22
441.57	7719.09
441.75	7538.87
441.94	7990.59
442.12	7939.10
442.31	8056.12
442.50	7997.61
442.68	8098.25
442.87	8009.31
443.05	7847.82
443.24	8107.62
443.43	8236.35
443.61	8145.06
443.80	8369.76
443.98	8081.87
444.17	7824.41
444.35	8154.43
444.54	8294.86
444.73	8051.44
444.91	8168.47
445.10	8161.45
445.28	8418.91
445.47	8280.82
445.65	8318.26
445.84	8224.64
446.02	8411.89
446.21	8386.14
446.39	8084.21
446.58	8287.84
446.77	8332.31
446.95	8294.86
447.14	8498.49
447.32	8458.70
447.51	8411.89
447.69	8381.46
447.88	8542.96
448.06	8524.23
448.25	8676.37
448.43	8512.53
448.62	8463.38
448.80	8376.78
448.99	8549.98
449.17	8664.66
449.36	8592.11
449.54	8718.50
449.73	8961.91
449.91	8812.12
450.10	8929.14
450.28	9156.18
450.46	8966.59
450.65	8908.08
450.83	9013.40
451.02	8872.97
451.20	9378.53
451.39	9193.62
451.57	9142.13
451.76	9111.71
451.94	9202.99
452.13	9345.76
452.31	9345.76
452.49	9078.94
452.68	9254.48
452.86	9338.74
453.05	9441.72
453.23	9408.95
453.42	9345.76
453.60	9390.23
453.78	9486.19
453.97	9369.16
454.15	9373.85
454.34	9680.46
454.52	9626.62
454.70	9472.15
454.89	9612.58
455.07	9579.81
455.26	9717.90
455.44	10120.48
455.62	9984.73
455.81	9841.95
455.99	9802.16
456.17	9886.42
456.36	9895.78
456.54	10186.01
456.73	10279.63
456.91	10567.52
457.09	10291.34
457.28	10408.36
457.46	10375.59
457.64	10284.31
457.83	10466.88
458.01	10415.38
458.19	10588.58
458.38	10333.47
458.56	10511.35
458.74	10682.20
458.93	10476.24
459.11	10607.31
459.29	10705.61
459.48	10934.98
459.66	10509.01
459.84	10897.53
460.03	11173.72
460.21	10911.58
460.39	10881.15
460.57	11033.29
460.76	11049.67
460.94	11248.61
461.12	11140.95
461.31	11199.46
461.49	11265.00
461.67	11325.85
461.85	11410.11
462.04	11344.58
462.22	11620.76
462.40	11541.18
462.59	11379.68
462.77	11358.62
462.95	11463.94
463.13	11501.39
463.32	11857.15
463.50	11669.91
463.68	11662.89
463.86	11721.40
464.05	11609.06
464.23	11648.85
464.41	11782.26
464.59	11557.57
464.78	11857.15
464.96	11838.43
465.14	11786.94
465.32	11943.75
465.50	11885.24
465.69	12166.10
465.87	12191.85
466.05	12079.50
466.23	12018.65
466.41	12269.09
466.60	12549.95
466.78	12053.76
466.96	11981.20
467.14	12060.78
467.32	12297.17
467.51	12437.61
467.69	12006.95
467.87	12606.13
468.05	12615.49
468.23	12184.83
468.41	12334.62
468.60	12603.78
468.78	12844.86
468.96	12564.00
469.14	12814.43
469.32	12879.97
469.50	12613.15
469.69	13048.49
469.87	12966.57
470.05	13135.09
470.23	13132.75
470.41	13027.42
470.59	13259.13
470.77	13050.83
470.95	13327.01
471.14	13352.76
471.32	13289.56
471.50	13444.04
471.68	13474.46
471.86	13600.85
472.04	13612.56
472.22	13762.35
472.40	13532.98
472.58	13853.63
472.77	13914.48
472.95	13970.66
473.13	14321.74
473.31	13942.57
473.49	13916.83
473.67	14061.94
473.85	14218.75
474.03	14452.81
474.21	14420.04
474.39	14609.62
474.57	14501.96
474.75	14684.52
474.93	14981.77
475.12	14780.48
475.30	15044.96
475.48	15105.82
475.66	15009.86
475.84	15068.37
476.02	15325.83
476.20	15396.04
476.38	15459.24
476.56	15992.88
476.74	15609.03
476.92	15475.62
477.10	15955.43
477.28	15934.37
477.46	16035.01
477.64	16100.55
477.82	16240.98
478.00	16936.12
478.18	16498.44
478.36	16725.47
478.54	17102.29
478.72	17095.27
478.90	17186.55
479.08	17621.89
479.26	17811.48
479.44	17877.01
479.62	17699.13
479.80	17930.84
479.98	18085.32
480.16	18630.66
480.34	18164.90
480.52	18562.79
480.70	18242.14
480.88	18312.35
481.06	18684.50
481.24	18754.71
481.41	19190.05
481.59	19262.61
481.77	19599.65
481.95	19410.06
482.13	19646.46
482.31	19662.84
482.49	19946.05
482.67	19981.15
482.85	20093.50
483.03	20390.75
483.21	20709.06
483.39	20833.11
483.57	20755.87
483.74	20954.82
483.92	21357.39
484.10	20964.18
484.28	21736.56
484.46	21799.75
484.64	22267.86
484.82	22003.38
485.00	22181.26
485.18	22637.66
485.35	22801.50
485.53	22595.53
485.71	22597.87
485.89	23255.56
486.07	23110.45
486.25	23297.69
486.43	23281.31
486.61	23833.68
486.78	23775.16
486.96	23976.45
487.14	24369.66
487.32	24538.18
487.50	25081.18
487.68	24790.95
487.85	25139.69
488.03	25703.76
488.21	25673.34
488.39	25701.42
488.57	25834.83
488.75	26054.84
488.92	26405.92
489.10	26749.98
489.28	26569.76
489.46	27328.10
489.64	27019.14
489.81	27164.26
489.99	27772.80
490.17	27623.00
490.35	27946.00
490.53	28151.96
490.70	28112.17
490.88	28236.22
491.06	28676.24
491.24	28393.04
491.41	28774.55
491.59	28847.10
491.77	29411.17
491.95	29289.46
492.13	29610.12
492.30	29860.55
492.48	29986.94
492.66	30122.69
492.84	30073.54
493.01	30848.26
493.19	30646.97
493.37	30986.35
493.54	31157.21
493.72	31456.80
493.90	31164.23
494.08	31660.43
494.25	31632.34
494.43	31791.50
494.61	31945.97
494.79	32142.58
494.96	32341.52
495.14	32519.40
495.32	32912.61
495.49	32959.42
495.67	33071.77
495.85	33432.21
496.02	33607.75
496.20	34183.52
496.38	33818.40
496.55	33986.92
496.73	34590.78
496.91	34183.52
497.09	34792.06
497.26	34878.66
497.44	34803.77
497.62	35068.25
497.79	35590.19
497.97	35267.19
498.14	35541.03
498.32	36184.68
498.50	35606.57
498.67	36535.76
498.85	36526.40
499.03	36549.81
499.20	36282.98
499.38	36594.28
499.56	36713.64
499.73	36840.03
499.91	37383.04
500.08	37280.05
500.26	37104.51
500.44	37411.12
500.61	37804.33
500.79	37464.96
500.97	37902.64
501.14	38202.22
501.32	38555.64
501.49	38256.06
501.67	38440.96
501.84	38466.70
502.02	38576.71
502.20	39133.76
502.37	38983.96
502.55	39047.16
502.72	39440.37
502.90	39431.01
503.07	39208.65
503.25	39826.56
503.43	39477.82
503.60	39718.89
503.78	40051.25
503.95	40069.97
504.13	40030.18
504.30	40165.93
504.48	40325.09
504.65	40596.59
504.83	40748.73
505.01	40753.41
505.18	40797.88
505.36	40935.97
505.53	41160.66
505.71	41198.11
505.88	41464.93
506.06	41462.59
506.23	41834.74
506.41	41759.84
506.58	41893.25
506.76	41984.53
506.93	42330.93
507.11	42246.67
507.28	42356.67
507.46	42279.44
507.63	42721.80
507.81	43187.56
507.98	42728.82
508.16	43150.12
508.33	43126.71
508.50	43430.98
508.68	43629.93
508.85	43739.93
509.03	43447.36
509.20	43456.73
509.38	44086.33
509.55	43887.39
509.73	44425.71
509.90	44346.13
510.08	44325.07
510.25	44538.05
510.42	44673.81
510.60	44708.91
510.77	45404.05
510.95	45291.71
511.12	44914.88
511.30	44966.37
511.47	45277.66
511.64	45265.96
511.82	45357.24
511.99	45270.64
512.17	45839.39
512.34	45757.47
512.51	46293.46
512.69	46094.51
512.86	46291.12
513.04	46389.42
513.21	46850.50
513.38	46361.33
513.56	46639.86
513.73	46429.21
513.90	47105.62
514.08	46754.54
514.25	46693.69
514.43	47049.45
514.60	47173.50
514.77	47161.79
514.95	47681.39
515.12	47379.46
515.29	47222.65
515.47	47562.03
515.64	48210.35
515.81	47889.70
515.99	47870.98
516.16	48395.26
516.33	48018.43
516.51	48573.14
516.68	48055.88
516.85	48072.26
517.03	48390.58
517.20	48645.69
517.37	48547.39
517.54	48811.87
517.72	48622.29
517.89	49095.08
518.06	48804.85
518.24	49490.63
518.41	49109.12
518.58	48903.15
518.75	49345.51
518.93	49492.97
519.10	49184.02
519.27	49270.62
519.45	49446.16
519.62	49883.84
519.79	49832.35
519.96	49647.44
520.14	49958.73
520.31	50014.91
520.48	49977.46
520.65	49928.31
520.83	50567.27
521.00	50478.33
521.17	49975.12
521.34	50494.72
521.52	50794.31
521.69	50593.02
521.86	50534.51
522.03	51033.04
522.20	51030.70
522.38	51365.40
522.55	51215.60
522.72	51133.68
522.89	51136.02
523.07	51686.05
523.24	51227.31
523.41	51711.80
523.58	50997.93
523.75	51800.74
523.92	51346.67
524.10	51997.34
524.27	51634.56
524.44	52069.90
524.61	51957.55
524.78	52182.24
524.96	52037.13
525.13	52095.64
525.30	52404.59
525.47	52299.27
525.64	52060.54
525.81	52420.98
525.98	52467.79
526.16	52294.59
526.33	52395.23
526.50	52821.21
526.67	52699.50
526.84	52776.74
527.01	52750.99
527.18	53003.77
527.36	52713.55
527.53	52804.83
527.70	52858.66
527.87	53394.64
528.04	52830.57
528.21	53130.16
528.38	53125.48
528.55	53207.40
528.72	53446.13
528.89	53088.03
529.07	53291.66
529.24	53111.44
529.41	53680.19
529.58	53324.43
529.75	53422.73
529.92	53104.41
530.09	53701.25
530.26	53549.12
530.43	53638.06
530.60	53572.52
530.77	53797.21
530.94	53939.99
531.11	54265.32
531.28	54028.93
531.46	53633.38
531.63	54054.67
531.80	54012.54
531.97	54220.85
532.14	54178.72
532.31	54255.96
532.48	54457.24
532.65	54571.93
532.82	54314.47
532.99	54485.33
533.16	54447.88
533.33	54918.33
533.50	54653.85
533.67	54679.60
533.84	54349.58
534.01	54939.39
534.18	54752.15
534.35	55121.96
534.52	55136.00
534.69	54934.71
534.86	55140.68
535.03	54885.56
535.20	55114.94
535.37	55395.80
535.54	55175.79
535.71	54997.91
535.88	55466.02
536.05	55201.53
536.22	55475.38
536.38	55597.09
536.55	55351.33
536.72	55222.60
536.89	55311.54
537.06	55444.95
537.23	55503.46
537.40	55442.61
537.57	55636.87
537.74	55618.15
537.91	55863.91
538.08	55810.07
538.25	55498.78
538.42	55735.18
538.59	55934.12
538.75	55646.24
538.92	55805.39
539.09	56158.81
539.26	55669.64
539.43	55840.50
539.60	56222.01
539.77	56282.86
539.94	56200.94
540.11	56083.92
540.28	56397.55
540.44	56207.97
540.61	56133.07
540.78	56214.99
540.95	56322.65
541.12	56100.30
541.29	56287.54
541.46	56755.65
541.62	56430.32
541.79	56643.30
541.96	56252.44
542.13	56659.69
542.30	56509.89
542.47	56542.66
542.63	56683.09
542.80	56802.46
542.97	57092.69
543.14	57141.84
543.31	56992.04
543.48	57069.28
543.64	57275.25
543.81	57205.03
543.98	57198.01
544.15	57195.67
544.32	57364.19
544.48	57455.47
544.65	57165.24
544.82	57293.97
544.99	57022.47
545.16	57291.63
545.32	57436.75
545.49	57375.89
545.66	57609.95
545.83	57476.54
546.00	57525.69
546.16	57394.62
546.33	57661.44
546.50	57485.90
546.67	57577.18
546.83	57146.52
547.00	57616.97
547.17	57710.59
547.34	57741.02
547.50	57874.43
547.67	57869.75
547.84	57876.77
548.00	57780.81
548.17	58059.33
548.34	58040.60
548.51	58049.97
548.67	58134.23
548.84	57965.71
549.01	57949.32
549.18	57874.43
549.34	57946.98
549.51	58255.93
549.68	58188.06
549.84	58375.30
550.01	58293.38
550.18	58019.54
550.34	58272.32
550.51	58267.64
550.68	58284.02
550.84	58150.61
551.01	58403.39
551.18	58152.95
551.34	58150.61
551.51	58370.62
551.68	58492.33
551.84	58557.86
552.01	58218.49
552.18	58663.19
552.34	58258.27
552.51	58475.94
552.68	58370.62
552.84	58592.97
553.01	58665.53
553.18	58504.03
553.34	58688.93
553.51	58583.61
553.67	58628.08
553.84	58829.37
554.01	58740.42
554.17	58941.71
554.34	58944.05
554.51	58855.11
554.67	58946.39
554.84	58892.56
555.00	58841.07
555.17	58747.45
555.33	58941.71
555.50	58843.41
555.67	58904.26
555.83	58787.24
556.00	59117.25
556.16	59047.04
556.33	59161.72
556.50	58937.03
556.66	59245.98
556.83	59023.63
556.99	59224.92
557.16	59421.52
557.32	59304.49
557.49	59627.49
557.65	59257.68
557.82	59222.58
557.98	59283.43
558.15	59299.81
558.32	59465.99
558.48	59290.45
558.65	59236.62
558.81	59334.92
558.98	59372.37
559.14	59381.73
559.31	59533.87
559.47	59629.83
559.64	59667.28
559.80	59643.87
559.97	59774.94
560.13	59377.05
560.30	59568.97
560.46	59643.87
560.63	59751.54
560.79	59643.87
560.96	59503.44
561.12	59639.19
561.29	59695.36
561.45	59728.13
561.61	59915.37
561.78	59849.84
561.94	59503.44
562.11	59664.94
562.27	59686.00
562.44	59999.63
562.60	59957.50
562.77	59728.13
562.93	59636.85
563.10	59880.27
563.26	59894.31
563.42	60128.36
563.59	59976.23
563.75	59758.56
563.92	59859.20
564.08	59601.74
564.24	60058.15
564.41	59959.84
564.57	60006.65
564.74	60191.56
564.90	60004.31
565.07	59992.61
565.23	60032.40
565.39	60018.36
565.56	60046.44
565.72	60027.72
565.88	60238.37
566.05	60088.57
566.21	59943.46
566.38	60140.07
566.54	60238.37
566.70	60196.24
566.87	60301.56
567.03	60055.81
567.19	60463.06
567.36	60191.56
567.52	60301.56
567.68	60465.40
567.85	60156.45
568.01	60308.58
568.17	60266.45
568.34	60233.69
568.50	60301.56
568.66	60364.76
568.83	60381.14
568.99	60212.62
569.15	60371.78
569.32	60397.52
569.48	60179.85
569.64	60563.70
569.81	60348.37
569.97	60280.50
570.13	60535.62
570.30	60320.29
570.46	60217.30
570.62	60547.32
570.78	60229.01
570.95	60470.08
571.11	60512.21
571.27	60364.76
571.43	60552.00
571.60	60420.93
571.76	60556.68
571.92	60505.19
572.09	60537.96
572.25	60514.55
572.41	60350.71
572.57	60392.84
572.74	60626.90
572.90	60523.91
573.06	60303.90
573.22	60413.91
573.38	60491.15
573.55	60402.21
573.71	60664.35
573.87	60561.36
574.03	60519.23
574.20	60692.43
574.36	60636.26
574.52	60617.53
574.68	60647.96
574.84	60645.62
575.01	60800.10
575.17	60708.82
575.33	60577.75
575.49	60566.04
575.65	60488.80
575.82	60706.47
575.98	60800.10
576.14	60839.89
576.30	60725.20
576.46	60418.59
576.62	60516.89
576.79	60528.59
576.95	60568.38
577.11	60795.42
577.27	60704.13
577.43	60554.34
577.59	60729.88
577.75	60767.33
577.92	60692.43
578.08	60533.28
578.24	60764.99
578.40	60853.93
578.56	60739.24
578.72	60832.86
578.88	60809.46
579.04	60900.74
579.21	60671.37
579.37	60608.17
579.53	60914.78
579.69	60425.61
579.85	60547.32
580.01	60580.09
580.17	60591.79
580.33	60816.48
580.49	60767.33
580.65	60924.14
580.82	60741.58
580.98	60701.79
581.14	60669.03
581.30	60970.96
581.46	60846.91
581.62	60715.84
581.78	60772.01
581.94	60708.82
582.10	60863.29
582.26	60830.52
582.42	60676.05
582.58	60708.82
582.74	60676.05
582.90	60685.41
583.06	61006.06
583.22	60552.00
583.38	60919.46
583.54	60800.10
583.70	60928.83
583.86	60863.29
584.02	60977.98
584.18	60994.36
584.34	60797.76
584.50	60636.26
584.66	60781.37
584.82	60687.75
584.98	61169.90
585.14	60982.66
585.30	60713.50
585.46	60872.65
585.62	60917.12
585.78	61017.77
585.94	60753.29
586.10	61008.40
586.26	60790.73
586.42	60966.27
586.58	61226.07
586.74	60853.93
586.90	60690.09
587.06	60989.68
587.22	61048.19
587.38	60896.06
587.54	60959.25
587.70	61001.38
587.86	61043.51
588.02	61055.21
588.18	61038.83
588.34	60963.93
588.49	60884.36
