SpectraSuite Data File
++++++++++++++++++++++++++++++++++++
Date: Fri Oct 25 11:25:43 EDT 2013
User: price-jones
Dark Spectrum Present: No
Reference Spectrum Present: No
Number of Sampled Component Spectra: 1
Spectrometers: USB2+H05261
Integration Time (usec): 100000 (USB2+H05261)
Spectra Averaged: 1 (USB2+H05261)
Boxcar Smoothing: 0 (USB2+H05261)
Correct for Electrical Dark: No (USB2+H05261)
Strobe/Lamp Enabled: No (USB2+H05261)
Correct for Detector Non-linearity: No (USB2+H05261)
Correct for Stray Light: No (USB2+H05261)
Number of Pixels in Processed Spectrum: 2048
>>>>>Begin Processed Spectral Data<<<<<
365.73	243.42
365.92	243.42
366.12	243.42
366.32	147.45
366.52	131.07
366.72	110.01
366.91	112.35
367.11	128.73
367.31	112.35
367.51	114.69
367.70	124.05
367.90	124.05
368.10	110.01
368.30	117.03
368.49	149.79
368.69	107.66
368.89	133.41
369.09	231.71
369.28	212.99
369.48	170.86
369.68	238.73
369.87	203.63
370.07	182.56
370.27	217.67
370.47	351.08
370.66	629.60
370.86	582.79
371.06	643.65
371.25	758.33
371.45	617.90
371.65	704.50
371.84	662.37
372.04	660.03
372.24	704.50
372.44	748.97
372.63	753.65
372.83	730.25
373.03	664.71
373.22	777.06
373.42	734.93
373.62	674.07
373.81	781.74
374.01	795.78
374.21	730.25
374.40	802.80
374.60	781.74
374.79	723.23
374.99	847.27
375.19	781.74
375.38	849.61
375.58	858.98
375.78	858.98
375.97	840.25
376.17	875.36
376.37	854.30
376.56	908.13
376.76	828.55
376.95	866.00
377.15	931.53
377.35	894.08
377.54	863.66
377.74	880.04
377.93	978.34
378.13	910.47
378.33	884.72
378.52	896.43
378.72	910.47
378.91	922.17
379.11	866.00
379.31	908.13
379.50	922.17
379.70	950.26
379.89	940.90
380.09	966.64
380.28	1032.18
380.48	933.87
380.68	968.98
380.87	1027.50
381.07	1032.18
381.26	1032.18
381.46	1006.43
381.65	1006.43
381.85	992.39
382.04	1081.33
382.24	1100.05
382.43	1067.28
382.63	1076.65
382.83	1020.47
383.02	1240.48
383.22	1144.52
383.41	1039.20
383.61	1102.39
383.80	1135.16
384.00	1156.22
384.19	1193.67
384.39	1149.20
384.58	1165.59
384.78	1196.01
384.97	1177.29
385.17	1221.76
385.36	1130.48
385.56	1153.88
385.75	1139.84
385.95	1069.62
386.14	1041.54
386.34	1287.29
386.53	1179.63
386.72	1146.86
386.92	1240.48
387.11	1254.53
387.31	1268.57
387.50	1163.25
387.70	1284.95
387.89	1308.36
388.09	1306.02
388.28	1348.15
388.48	1235.80
388.67	1380.92
388.86	1313.04
389.06	1273.25
389.25	1404.32
389.45	1301.34
389.64	1371.55
389.84	1409.00
390.03	1287.29
390.22	1383.26
390.42	1369.21
390.61	1371.55
390.81	1334.11
391.00	1465.18
391.19	1409.00
391.39	1451.13
391.58	1423.05
391.78	1486.24
391.97	1434.75
392.16	1519.01
392.36	1533.05
392.55	1521.35
392.75	1528.37
392.94	1469.86
393.13	1434.75
393.33	1558.80
393.52	1577.52
393.71	1526.03
393.91	1514.33
394.10	1636.03
394.29	1629.01
394.49	1542.41
394.68	1675.82
394.88	1617.31
395.07	1638.38
395.26	1692.21
395.46	1558.80
395.65	1713.27
395.84	1795.19
396.04	1771.79
396.23	1746.04
396.42	1767.10
396.62	1732.00
396.81	1813.92
397.00	1804.55
397.19	1809.23
397.39	1802.21
397.58	1823.28
397.77	1804.55
397.97	1905.20
398.16	1785.83
398.35	1827.96
398.55	1870.09
398.74	2005.84
398.93	2031.58
399.12	1956.69
399.32	1900.52
399.51	1956.69
399.70	1926.26
399.90	1966.05
400.09	1984.77
400.28	1987.11
400.47	2054.99
400.67	1954.35
400.86	2031.58
401.05	2083.08
401.24	2045.63
401.44	2043.29
401.63	2120.53
401.82	2132.23
402.01	2106.48
402.21	2139.25
402.40	2080.74
402.59	2267.98
402.78	2314.79
402.97	2263.30
403.17	2141.59
403.36	2354.58
403.55	2235.21
403.74	2317.13
403.93	2270.32
404.13	2354.58
404.32	2345.22
404.51	2396.71
404.70	2434.16
404.89	2406.07
405.09	2385.01
405.28	2532.46
405.47	2530.12
405.66	2492.67
405.85	2518.42
406.05	2443.52
406.24	2551.18
406.43	2637.78
406.62	2560.55
406.81	2665.87
407.00	2539.48
407.20	2630.76
407.39	2647.15
407.58	2548.84
407.77	2729.06
407.96	2712.68
408.15	2782.90
408.34	2757.15
408.54	2843.75
408.73	2759.49
408.92	2878.86
409.11	2822.69
409.30	2855.45
409.49	2818.00
409.68	2913.97
409.87	2768.85
410.07	3066.10
410.26	2956.10
410.45	2918.65
410.64	2904.60
410.83	3054.40
411.02	3124.62
411.21	3087.17
411.40	3075.46
411.59	3152.70
411.78	3178.45
411.98	3194.83
412.17	3262.71
412.36	3351.65
412.55	3304.84
412.74	3452.29
412.93	3346.97
413.12	3410.16
413.31	3489.74
413.50	3412.50
413.69	3342.28
413.88	3471.01
414.07	3571.66
414.26	3571.66
414.45	3585.70
414.64	3588.04
414.83	3803.37
415.02	3751.88
415.22	3847.84
415.41	3964.87
415.60	3728.47
415.79	3826.78
415.98	3913.38
416.17	4039.76
416.36	3868.91
416.55	3936.78
416.74	4007.00
416.93	3978.91
417.12	4044.45
417.31	4093.60
417.50	4098.28
417.69	4217.65
417.88	4234.03
418.07	4304.25
418.26	4297.22
418.45	4161.47
418.64	4444.68
418.83	4423.61
419.02	4381.48
419.21	4465.74
419.39	4353.40
419.58	4390.84
419.77	4535.96
419.96	4566.39
420.15	4442.34
420.34	4737.24
420.53	4571.07
420.72	4690.43
420.91	4786.40
421.10	4784.06
421.29	4678.73
421.48	4753.63
421.67	4809.80
421.86	4978.32
422.05	4744.27
422.24	4786.40
422.43	4786.40
422.61	4917.47
422.80	4950.23
422.99	4814.48
423.18	5008.75
423.37	4978.32
423.56	5036.83
423.75	4929.17
423.94	4812.14
424.13	4585.11
424.32	4624.90
424.50	5029.81
424.69	4999.38
424.88	4957.25
425.07	5008.75
425.26	4964.28
425.45	4861.29
425.64	4896.40
425.83	4887.04
426.01	5018.11
426.20	4964.28
426.39	5055.56
426.58	4978.32
426.77	4945.55
426.96	5200.67
427.15	5015.77
427.33	5027.47
427.52	5090.67
427.71	5207.69
427.90	5128.11
428.09	5289.61
428.28	5298.97
428.46	5343.44
428.65	5266.21
428.84	5540.05
429.03	5610.26
429.22	5305.99
429.40	5181.95
429.59	5479.19
429.78	5373.87
429.97	5287.27
430.16	5338.76
430.34	5509.62
430.53	5479.19
430.72	5507.28
430.91	5650.05
431.10	5666.44
431.28	5643.03
431.47	5699.20
431.66	5834.96
431.85	5790.49
432.03	5865.38
432.22	5846.66
432.41	5905.17
432.60	5841.98
432.79	5895.81
432.97	6019.86
433.16	5940.28
433.35	5870.06
433.54	6029.22
433.72	6207.10
433.91	6134.54
434.10	6106.46
434.28	6099.44
434.47	6080.71
434.66	6171.99
434.85	6370.94
435.03	6347.53
435.22	6139.23
435.41	6441.15
435.59	6319.45
435.78	6462.22
435.97	6328.81
436.16	6361.58
436.34	6361.58
436.53	6415.41
436.72	6715.00
436.90	6574.56
437.09	6541.80
437.28	6560.52
437.46	6499.67
437.65	6579.25
437.84	6670.53
438.02	6654.14
438.21	6771.17
438.40	6731.38
438.58	6853.09
438.77	6998.20
438.96	6918.62
439.14	6986.50
439.33	6995.86
439.52	7169.06
439.70	7220.55
439.89	7213.53
440.08	7279.07
440.26	7225.23
440.45	7363.33
440.63	7403.11
440.82	7550.57
441.01	7424.18
441.19	7480.35
441.38	7779.94
441.57	7686.32
441.75	8018.68
441.94	8006.97
442.12	7728.45
442.31	7885.26
442.50	7941.44
442.68	7850.16
442.87	8013.99
443.05	8086.55
443.24	8072.51
443.43	8112.30
443.61	8238.69
443.80	8514.87
443.98	7915.69
444.17	7908.67
444.35	8058.46
444.54	8418.91
444.73	8271.45
444.91	8259.75
445.10	8358.05
445.28	8301.88
445.47	8388.48
445.65	8327.63
445.84	8285.50
446.02	8386.14
446.21	8500.83
446.39	8334.65
446.58	8585.08
446.77	8414.23
446.95	8229.32
447.14	8320.60
447.32	8297.20
447.51	8390.82
447.69	8346.35
447.88	8702.11
448.06	8416.57
448.25	8615.51
448.43	8215.28
448.62	8624.87
448.80	8498.49
448.99	8528.91
449.17	8578.06
449.36	8566.36
449.54	8744.24
449.73	9006.38
449.91	8898.72
450.10	8784.03
450.28	9006.38
450.46	8947.87
450.65	8894.04
450.83	9046.17
451.02	9252.14
451.20	8985.32
451.39	9057.87
451.57	9104.68
451.76	9015.74
451.94	9083.62
452.13	9015.74
452.31	9172.56
452.49	9025.11
452.68	9039.15
452.86	9156.18
453.05	9277.88
453.23	9495.55
453.42	9373.85
453.60	9338.74
453.78	9654.71
453.97	9376.19
454.15	9453.42
454.34	9387.89
454.52	9612.58
454.70	9785.78
454.89	9600.88
455.07	9687.48
455.26	9734.29
455.44	9977.70
455.62	9652.37
455.81	9987.07
455.99	9865.36
456.17	9947.28
456.36	9930.89
456.54	10111.11
456.73	10176.65
456.91	10345.17
457.09	10366.23
457.28	10583.90
457.46	10190.69
457.64	10272.61
457.83	10403.68
458.01	10317.08
458.19	10752.42
458.38	10520.71
458.56	10586.24
458.74	10424.75
458.93	10539.43
459.11	10347.51
459.29	10792.21
459.48	10621.35
459.66	10635.39
459.84	10672.84
460.03	10977.11
460.21	10902.22
460.39	10773.49
460.57	10904.56
460.76	10981.79
460.94	11145.63
461.12	11056.69
461.31	11023.92
461.49	11096.48
461.67	11145.63
461.85	11190.10
462.04	11309.47
462.22	11599.70
462.40	11543.52
462.59	11515.44
462.77	11438.20
462.95	11735.45
463.13	11403.09
463.32	11414.79
463.50	11709.70
463.68	11606.72
463.86	11903.96
464.05	11555.22
464.23	11709.70
464.41	11882.90
464.59	11618.42
464.78	11983.54
464.96	11903.96
465.14	12070.14
465.32	11960.14
465.50	11946.09
465.69	12060.78
465.87	12358.03
466.05	12060.78
466.23	11962.48
466.41	12184.83
466.60	12255.04
466.78	12126.32
466.96	11974.18
467.14	12081.85
467.32	12353.35
467.51	12325.26
467.69	12044.40
467.87	12449.31
468.05	12367.39
468.23	12173.13
468.41	12231.64
468.60	12475.06
468.78	12709.11
468.96	12573.36
469.14	12769.96
469.32	12643.57
469.50	12798.05
469.69	13076.57
469.87	12957.21
470.05	13057.85
470.23	13125.72
470.41	13025.08
470.59	13329.35
470.77	13069.55
470.95	13209.98
471.14	13532.98
471.32	12989.97
471.50	13191.26
471.68	13710.86
471.86	13774.05
472.04	13795.12
472.22	13860.65
472.40	13621.92
472.58	13771.71
472.77	14054.92
472.95	14064.28
473.13	14485.58
473.31	14012.79
473.49	14160.24
473.67	13792.78
473.85	14242.16
474.03	14541.75
474.21	14677.50
474.39	14654.09
474.57	14764.10
474.75	14705.59
474.93	14855.38
475.12	14740.69
475.30	14934.96
475.48	14862.40
475.66	15096.46
475.84	15147.95
476.02	15272.00
476.20	15283.70
476.38	15506.05
476.56	15962.45
476.74	15861.81
476.92	15681.59
477.10	15545.84
477.28	15957.77
477.46	16011.60
477.64	16325.24
477.82	16542.91
478.00	16638.87
478.18	16519.50
478.36	16833.13
478.54	17104.64
478.72	16926.75
478.90	17240.39
479.08	17411.25
479.26	17769.35
479.44	17867.65
479.62	17785.73
479.80	17921.48
479.98	18092.34
480.16	18628.32
480.34	17989.36
480.52	18265.54
480.70	18183.62
480.88	18167.24
481.06	18614.28
481.24	18775.78
481.41	18836.63
481.59	19213.46
481.77	19300.06
481.95	19431.13
482.13	19651.14
482.31	19756.46
482.49	20393.09
482.67	19831.36
482.85	20217.55
483.03	20643.52
483.21	20617.78
483.39	20858.85
483.57	20587.35
483.74	20917.37
483.92	21284.83
484.10	20989.92
484.28	21303.56
484.46	21846.56
484.64	22232.75
484.82	21535.27
485.00	22375.52
485.18	22256.15
485.35	22754.69
485.53	22382.54
485.71	23021.51
485.89	23363.23
486.07	23274.29
486.25	23267.27
486.43	23285.99
486.61	23506.00
486.78	24072.41
486.96	23967.09
487.14	24355.61
487.32	24547.54
487.50	24877.55
487.68	25163.10
487.85	24971.18
488.03	25282.47
488.21	25888.67
488.39	25722.49
488.57	25659.29
488.75	26015.05
488.92	26174.21
489.10	26771.05
489.28	26403.58
489.46	26602.53
489.64	26941.91
489.81	27274.26
489.99	27435.76
490.17	27585.55
490.35	27866.42
490.53	27920.25
490.70	28224.52
490.88	28116.86
491.06	28645.82
491.24	28624.75
491.41	29043.71
491.59	29127.97
491.77	28971.15
491.95	29380.74
492.13	29369.04
492.30	30031.41
492.48	29598.41
492.66	29851.19
492.84	29914.39
493.01	30436.33
493.19	30492.50
493.37	30717.19
493.54	30918.48
493.72	31222.75
493.90	31323.39
494.08	31519.99
494.25	31681.49
494.43	31693.19
494.61	32350.88
494.79	32292.37
494.96	31861.71
495.14	32432.80
495.32	32907.93
495.49	32807.29
495.67	33046.02
495.85	33116.24
496.02	33530.51
496.20	33769.25
496.38	33708.40
496.55	33804.36
496.73	34745.25
496.91	34202.25
497.09	34443.32
497.26	34342.68
497.44	34300.55
497.62	35196.98
497.79	35688.49
497.97	35384.22
498.14	35374.86
498.32	35955.31
498.50	35985.74
498.67	36636.41
498.85	35952.97
499.03	36538.10
499.20	36320.43
499.38	36428.10
499.56	36552.15
499.73	37258.99
499.91	36980.46
500.08	37294.10
500.26	37242.60
500.44	37525.81
500.61	37745.82
500.79	37745.82
500.97	37668.58
501.14	37970.51
501.32	38096.90
501.49	38473.73
501.67	38539.26
501.84	38717.14
502.02	38515.86
502.20	38471.39
502.37	38763.95
502.55	38597.77
502.72	39269.51
502.90	39482.50
503.07	39367.81
503.25	39311.64
503.43	39297.59
503.60	39732.93
503.78	39639.31
503.95	39798.47
504.13	40608.29
504.30	40278.28
504.48	39990.39
504.65	40196.36
504.83	41425.14
505.01	41034.27
505.18	41352.58
505.36	41155.98
505.53	41109.17
505.71	41504.72
505.88	41607.70
506.06	41235.56
506.23	41668.56
506.41	41263.64
506.58	42012.62
506.76	41839.42
506.93	42333.27
507.11	42003.25
507.28	42616.47
507.46	42555.62
507.63	42590.73
507.81	43061.18
507.98	43175.86
508.16	42756.91
508.33	43496.52
508.50	43227.35
508.68	43234.38
508.85	43608.86
509.03	43309.27
509.20	43880.36
509.38	43938.88
509.55	44011.43
509.73	44266.55
509.90	44292.30
510.08	44252.51
510.25	44636.36
510.42	44205.70
510.60	44694.87
510.77	44624.65
510.95	44690.19
511.12	44980.42
511.30	44968.71
511.47	45251.92
511.64	44896.16
511.82	45752.79
511.99	45518.74
512.17	45591.30
512.34	45799.60
512.51	45958.76
512.69	46047.70
512.86	45811.31
513.04	46237.28
513.21	46347.29
513.38	46464.32
513.56	46756.88
513.73	46113.23
513.90	46391.76
514.08	46476.02
514.25	47288.18
514.43	46920.72
514.60	47206.26
514.77	46852.84
514.95	47119.66
515.12	47484.79
515.29	46988.60
515.47	47723.52
515.64	47793.74
515.81	47428.62
515.99	47821.83
516.16	48158.86
516.33	47753.95
516.51	48680.80
516.68	48318.02
516.85	48215.04
517.03	48582.50
517.20	48619.95
517.37	48428.02
517.54	48463.13
517.72	48882.09
517.89	48577.82
518.06	48692.50
518.24	48964.01
518.41	48949.96
518.58	49350.20
518.75	48952.30
518.93	49380.62
519.10	49106.78
519.27	49191.04
519.45	49443.82
519.62	49633.40
519.79	49614.68
519.96	49680.21
520.14	49682.55
520.31	49837.03
520.48	50167.04
520.65	49886.18
520.83	50047.68
521.00	50061.72
521.17	50117.89
521.34	50178.75
521.52	50728.77
521.69	50454.93
521.86	51061.13
522.03	51213.26
522.20	51178.15
522.38	50955.80
522.55	51349.01
522.72	51145.39
522.89	50976.87
523.07	51496.47
523.24	51466.04
523.41	51323.27
523.58	51112.62
523.75	51856.91
523.92	51566.68
524.10	51648.60
524.27	51767.97
524.44	51772.65
524.61	52055.85
524.78	51749.24
524.96	51983.30
525.13	52013.73
525.30	52023.09
525.47	52339.06
525.64	52130.75
525.81	52315.65
525.98	52402.25
526.16	52334.38
526.33	52287.57
526.50	52779.08
526.67	52409.28
526.84	52395.23
527.01	52310.97
527.18	52692.48
527.36	52699.50
527.53	52994.41
527.70	53308.04
527.87	53209.74
528.04	52734.61
528.21	53113.78
528.38	53226.12
528.55	53254.21
528.72	53102.07
528.89	52994.41
529.07	53169.95
529.24	53055.26
529.41	53331.45
529.58	53584.22
529.75	52971.00
529.92	53427.41
530.09	53757.42
530.26	53710.61
530.43	53506.99
530.60	53439.11
530.77	53673.16
530.94	53986.80
531.11	53766.79
531.28	53893.18
531.46	53670.82
531.63	53874.45
531.80	53928.28
531.97	54291.07
532.14	54101.48
532.31	54270.00
532.48	54555.55
532.65	54459.58
532.82	54461.93
532.99	54670.23
533.16	54637.47
533.33	54653.85
533.50	54759.17
533.67	54368.30
533.84	54230.21
534.01	54677.25
534.18	54529.80
534.35	55325.58
534.52	54829.39
534.69	54904.29
534.86	55051.74
535.03	54604.70
535.20	54859.82
535.37	54983.86
535.54	55065.78
535.71	55124.30
535.88	55241.32
536.05	55480.06
536.22	55512.83
536.38	55409.84
536.55	55367.71
536.72	55426.23
536.89	55262.39
537.06	55356.01
537.23	55437.93
537.40	55292.82
537.57	55737.52
537.74	55557.30
537.91	55814.76
538.08	55655.60
538.25	55657.94
538.42	55730.50
538.59	55913.06
538.75	55721.13
538.92	55842.84
539.09	55791.35
539.26	55908.38
539.43	56037.11
539.60	56102.64
539.77	56119.02
539.94	56507.55
540.11	56240.73
540.28	56090.94
540.44	56346.06
540.61	56334.35
540.78	56229.03
540.95	56149.45
541.12	56149.45
541.29	56348.40
541.46	56367.12
541.62	56692.46
541.79	56622.24
541.96	56189.24
542.13	56418.61
542.30	56339.04
542.47	56643.30
542.63	56783.74
542.80	56413.93
542.97	56912.47
543.14	57020.13
543.31	56933.53
543.48	56966.30
543.64	57237.80
543.81	57401.64
543.98	56949.92
544.15	56961.62
544.32	57326.74
544.48	57380.57
544.65	57214.40
544.82	57448.45
544.99	57050.56
545.16	57380.57
545.32	57432.07
545.49	57513.98
545.66	57584.20
545.83	57319.72
546.00	57268.23
546.16	57471.85
546.33	57485.90
546.50	57062.26
546.67	57425.04
546.83	57102.05
547.00	57579.52
547.17	57422.70
547.34	57745.70
547.50	57858.04
547.67	57801.87
547.84	57694.21
548.00	57993.79
548.17	58082.73
548.34	57918.90
548.51	58075.71
548.67	57984.43
548.84	57977.41
549.01	57822.93
549.18	58021.88
549.34	57991.45
549.51	58007.84
549.68	58183.38
549.84	57975.07
550.01	58066.35
550.18	58005.50
550.34	58244.23
550.51	58312.11
550.68	58267.64
550.84	58171.67
551.01	58454.88
551.18	58497.01
551.34	58340.19
551.51	58300.40
551.68	58368.28
551.84	58426.79
552.01	58251.25
552.18	58398.71
552.34	58239.55
552.51	58536.80
552.68	58410.41
552.84	58663.19
553.01	58848.09
553.18	58677.23
553.34	58700.64
553.51	58461.90
553.67	58749.79
553.84	58887.88
554.01	58597.65
554.17	58763.83
554.34	58906.60
554.51	58726.38
554.67	58995.54
554.84	58927.67
555.00	58749.79
555.17	58969.80
555.33	58850.43
555.50	58782.55
555.67	58946.39
555.83	58719.36
556.00	58972.14
556.16	59271.73
556.33	59133.63
556.50	59063.42
556.66	59096.19
556.83	58918.31
556.99	59281.09
557.16	59150.02
557.32	59299.81
557.49	59421.52
557.65	59014.27
557.82	59325.56
557.98	59126.61
558.15	59332.58
558.32	59203.85
558.48	59203.85
558.65	59363.01
558.81	59365.35
558.98	59276.41
559.14	59365.35
559.31	59517.48
559.47	59442.59
559.64	59367.69
559.80	59503.44
559.97	59573.66
560.13	59505.78
560.30	59468.33
560.46	59681.32
560.63	59606.42
560.79	59592.38
560.96	59765.58
561.12	59618.13
561.29	59751.54
561.45	59613.44
561.61	59697.70
561.78	59561.95
561.94	59613.44
562.11	59669.62
562.27	59774.94
562.44	59812.39
562.60	59714.09
562.77	59770.26
562.93	59660.26
563.10	59831.11
563.26	59709.41
563.42	59973.89
563.59	59873.24
563.75	59725.79
563.92	59765.58
564.08	59828.77
564.24	60116.66
564.41	59894.31
564.57	59980.91
564.74	59788.98
564.90	60048.78
565.07	59863.88
565.23	59943.46
565.39	60001.97
565.56	59969.21
565.72	60158.79
565.88	60079.21
566.05	59971.55
566.21	59950.48
566.38	60051.12
566.54	60097.94
566.70	60261.77
566.87	60065.17
567.03	60236.03
567.19	60172.83
567.36	60067.51
567.52	60254.75
567.68	60294.54
567.85	60170.49
568.01	60217.30
568.17	60308.58
568.34	60423.27
568.50	60221.98
568.66	60121.34
568.83	60140.07
568.99	60245.39
569.15	60481.78
569.32	60243.05
569.48	60226.66
569.64	60416.25
569.81	60044.10
569.97	60266.45
570.13	60425.61
570.30	60179.85
570.46	60296.88
570.62	60299.22
570.78	60240.71
570.95	60392.84
571.11	60360.08
571.27	60205.60
571.43	60308.58
571.60	60540.30
571.76	60282.84
571.92	60456.04
572.09	60472.42
572.25	60355.39
572.41	60509.87
572.57	60409.23
572.74	60598.81
572.90	60289.86
573.06	60456.04
573.22	60573.06
573.38	60411.57
573.55	60465.40
573.71	60741.58
573.87	60748.60
574.03	60537.96
574.20	60533.28
574.36	60434.97
574.52	60594.13
574.68	60640.94
574.84	60720.52
575.01	60594.13
575.17	60580.09
575.33	60523.91
575.49	60512.21
575.65	60645.62
575.82	60734.56
575.98	60563.70
576.14	60774.35
576.30	60872.65
576.46	60472.42
576.62	60570.72
576.79	60809.46
576.95	60591.79
577.11	60622.22
577.27	60750.94
577.43	60526.25
577.59	60741.58
577.75	60509.87
577.92	60512.21
578.08	60519.23
578.24	60601.15
578.40	60802.44
578.56	60870.31
578.72	60601.15
578.88	60835.20
579.04	60863.29
579.21	60636.26
579.37	60860.95
579.53	60743.92
579.69	60659.66
579.85	60514.55
580.01	60645.62
580.17	60587.11
580.33	60788.39
580.49	60786.05
580.65	60800.10
580.82	60685.41
580.98	60654.98
581.14	60683.07
581.30	60872.65
581.46	60774.35
581.62	60905.42
581.78	60584.77
581.94	60772.01
582.10	60786.05
582.26	60692.43
582.42	60725.20
582.58	60898.40
582.74	60804.78
582.90	61001.38
583.06	60757.97
583.22	60568.38
583.38	60701.79
583.54	60664.35
583.70	60786.05
583.86	60966.27
584.02	60853.93
584.18	61064.58
584.34	60982.66
584.50	61008.40
584.66	60750.94
584.82	60472.42
584.98	61036.49
585.14	60884.36
585.30	60772.01
585.46	60870.31
585.62	60816.48
585.78	61102.03
585.94	60781.37
586.10	60853.93
586.26	60853.93
586.42	60954.57
586.58	61024.79
586.74	61102.03
586.90	60884.36
587.06	60804.78
587.22	60931.17
587.38	61069.26
587.54	60977.98
587.70	61071.60
587.86	60886.70
588.02	60800.10
588.18	60907.76
588.34	60835.20
588.49	60835.20
