SpectraSuite Data File
++++++++++++++++++++++++++++++++++++
Date: Fri Oct 25 10:47:21 EDT 2013
User: price-jones
Dark Spectrum Present: No
Reference Spectrum Present: No
Number of Sampled Component Spectra: 1
Spectrometers: USB2+H05261
Integration Time (usec): 100000 (USB2+H05261)
Spectra Averaged: 1 (USB2+H05261)
Boxcar Smoothing: 0 (USB2+H05261)
Correct for Electrical Dark: No (USB2+H05261)
Strobe/Lamp Enabled: No (USB2+H05261)
Correct for Detector Non-linearity: No (USB2+H05261)
Correct for Stray Light: No (USB2+H05261)
Number of Pixels in Processed Spectrum: 2048
>>>>>Begin Processed Spectral Data<<<<<
365.73	128.73
365.92	128.73
366.12	128.73
366.32	51.49
366.52	79.58
366.72	95.96
366.91	74.90
367.11	56.17
367.31	0.00
367.51	37.45
367.70	0.00
367.90	46.81
368.10	100.64
368.30	37.45
368.49	32.77
368.69	131.07
368.89	0.00
369.09	53.83
369.28	44.47
369.48	0.00
369.68	84.26
369.87	79.58
370.07	189.58
370.27	135.75
370.47	191.92
370.66	318.31
370.86	418.96
371.06	400.23
371.25	521.94
371.45	407.25
371.65	498.53
371.84	477.47
372.04	454.06
372.24	449.38
372.44	500.87
372.63	503.22
372.83	477.47
373.03	521.94
373.22	517.26
373.42	461.09
373.62	505.56
373.81	482.15
374.01	566.41
374.21	540.66
374.40	571.09
374.60	538.32
374.79	552.37
374.99	521.94
375.19	543.00
375.38	564.07
375.58	559.39
375.78	638.97
375.97	533.64
376.17	596.84
376.37	559.39
376.56	557.05
376.76	533.64
376.95	496.19
377.15	573.43
377.35	568.75
377.54	627.26
377.74	578.11
377.93	575.77
378.13	599.18
378.33	601.52
378.52	554.71
378.72	573.43
378.91	629.60
379.11	662.37
379.31	617.90
379.50	629.60
379.70	723.23
379.89	662.37
380.09	601.52
380.28	624.92
380.48	650.67
380.68	653.01
380.87	685.78
381.07	720.88
381.26	685.78
381.46	599.18
381.65	723.23
381.85	662.37
382.04	669.39
382.24	706.84
382.43	641.31
382.63	706.84
382.83	678.76
383.02	662.37
383.22	741.95
383.41	779.40
383.61	699.82
383.80	741.95
384.00	725.57
384.19	732.59
384.39	720.88
384.58	786.42
384.78	702.16
384.97	657.69
385.17	732.59
385.36	716.20
385.56	730.25
385.75	765.36
385.95	744.29
386.14	823.87
386.34	741.95
386.53	711.52
386.72	844.93
386.92	800.46
387.11	816.85
387.31	795.78
387.50	788.76
387.70	821.53
387.89	894.08
388.09	727.91
388.28	821.53
388.48	826.21
388.67	833.23
388.86	901.11
389.06	828.55
389.25	952.60
389.45	887.06
389.64	863.66
389.84	936.21
390.03	990.05
390.22	936.21
390.42	903.45
390.61	933.87
390.81	894.08
391.00	952.60
391.19	994.73
391.39	891.74
391.58	985.37
391.78	938.55
391.97	987.71
392.16	837.91
392.36	1036.86
392.55	973.66
392.75	959.62
392.94	973.66
393.13	973.66
393.33	997.07
393.52	1015.79
393.71	1029.84
393.91	917.49
394.10	1043.88
394.29	1001.75
394.49	994.73
394.68	1074.31
394.88	1090.69
395.07	1179.63
395.26	1130.48
395.46	1118.78
395.65	1086.01
395.84	1170.27
396.04	1123.46
396.23	1055.58
396.42	1025.15
396.62	1123.46
396.81	1100.05
397.00	1088.35
397.19	1111.75
397.39	1102.39
397.58	1210.06
397.77	1186.65
397.97	1212.40
398.16	1245.16
398.35	1310.70
398.55	1315.38
398.74	1252.19
398.93	1256.87
399.12	1287.29
399.32	1224.10
399.51	1352.83
399.70	1385.60
399.90	1359.85
400.09	1373.89
400.28	1369.21
400.47	1430.07
400.67	1446.45
400.86	1451.13
401.05	1427.73
401.24	1547.09
401.44	1439.43
401.63	1530.71
401.82	1439.43
402.01	1472.20
402.21	1469.86
402.40	1474.54
402.59	1490.92
402.78	1511.99
402.97	1444.11
403.17	1469.86
403.36	1544.75
403.55	1558.80
403.74	1570.50
403.93	1631.35
404.13	1626.67
404.32	1668.80
404.51	1542.41
404.70	1701.57
404.89	1701.57
405.09	1696.89
405.28	1750.72
405.47	1741.36
405.66	1722.63
405.85	1736.68
406.05	1664.12
406.24	1722.63
406.43	1732.00
406.62	1771.79
406.81	1879.45
407.00	1865.41
407.20	1799.87
407.39	1783.49
407.58	1849.02
407.77	1877.11
407.96	1968.39
408.15	1919.24
408.34	1959.03
408.54	1902.86
408.73	1989.46
408.92	2040.95
409.11	1926.26
409.30	2022.22
409.49	2022.22
409.68	1980.09
409.87	2015.20
410.07	2132.23
410.26	2054.99
410.45	2069.03
410.64	2052.65
410.83	2029.24
411.02	2190.74
411.21	2190.74
411.40	2218.83
411.59	2331.17
411.78	2300.75
411.98	2246.91
412.17	2347.56
412.36	2410.75
412.55	2410.75
412.74	2455.22
412.93	2345.22
413.12	2340.54
413.31	2443.52
413.50	2356.92
413.69	2434.16
413.88	2574.59
414.07	2590.97
414.26	2509.05
414.45	2656.51
414.64	2548.84
414.83	2607.36
415.02	2717.36
415.22	2665.87
415.41	2738.43
415.60	2686.94
415.79	2794.60
415.98	2871.84
416.17	2839.07
416.36	2806.30
416.55	2780.56
416.74	2796.94
416.93	2916.31
417.12	2946.73
417.31	2928.01
417.50	2965.46
417.69	3082.49
417.88	3000.57
418.07	2925.67
418.26	3007.59
418.45	3000.57
418.64	3145.68
418.83	3082.49
419.02	3112.91
419.21	3169.09
419.39	3234.62
419.58	3157.38
419.77	3234.62
419.96	3045.04
420.15	3180.79
420.34	3269.73
420.53	3290.79
420.72	3435.91
420.91	3328.24
421.10	3274.41
421.29	3379.73
421.48	3276.75
421.67	3468.67
421.86	3344.63
422.05	3445.27
422.24	3452.29
422.43	3325.90
422.61	3435.91
422.80	3449.95
422.99	3480.38
423.18	3482.72
423.37	3487.40
423.56	3431.23
423.75	3566.98
423.94	3375.05
424.13	3251.00
424.32	3351.65
424.50	3506.12
424.69	3431.23
424.88	3552.93
425.07	3370.37
425.26	3506.12
425.45	3541.23
425.64	3398.46
425.83	3492.08
426.01	3485.06
426.20	3550.59
426.39	3597.40
426.58	3487.40
426.77	3557.61
426.96	3473.36
427.15	3562.30
427.33	3541.23
427.52	3660.60
427.71	3648.90
427.90	3686.34
428.09	3735.50
428.28	3758.90
428.46	3676.98
428.65	3630.17
428.84	3761.24
429.03	3852.52
429.22	3784.65
429.40	3646.55
429.59	3662.94
429.78	3613.79
429.97	3534.21
430.16	3758.90
430.34	3756.56
430.53	3826.78
430.72	3871.25
430.91	3974.23
431.10	3887.63
431.28	4044.45
431.47	4042.11
431.66	4063.17
431.85	3992.95
432.03	4018.70
432.22	4177.86
432.41	4170.83
432.60	4248.07
432.79	4091.26
432.97	4311.27
433.16	4280.84
433.35	4070.19
433.54	4107.64
433.72	4198.92
433.91	4112.32
434.10	4250.41
434.28	4182.54
434.47	4351.06
434.66	4379.14
434.85	4400.21
435.03	4402.55
435.22	4505.53
435.41	4660.01
435.59	4629.58
435.78	4447.02
435.97	4606.17
436.16	4444.68
436.34	4491.49
436.53	4575.75
436.72	4681.07
436.90	4397.87
437.09	4596.81
437.28	4599.15
437.46	4669.37
437.65	4585.11
437.84	4650.64
438.02	4837.89
438.21	4573.41
438.40	4615.54
438.58	4880.02
438.77	4877.68
438.96	4973.64
439.14	4985.34
439.33	4999.38
439.52	4898.74
439.70	5053.22
439.89	4978.32
440.08	5034.49
440.26	5102.37
440.45	5069.60
440.63	5167.90
440.82	5303.65
441.01	5294.29
441.19	5132.79
441.38	5390.25
441.57	5467.49
441.75	5430.04
441.94	5596.22
442.12	5383.23
442.31	5682.82
442.50	5671.12
442.68	5458.13
442.87	5591.54
443.05	5570.48
443.24	5760.06
443.43	5687.50
443.61	5703.89
443.80	5907.51
443.98	5750.70
444.17	5537.71
444.35	5729.63
444.54	5717.93
444.73	5753.04
444.91	5724.95
445.10	5701.54
445.28	5832.62
445.47	5659.42
445.65	5610.26
445.84	5809.21
446.02	5692.18
446.21	5867.72
446.39	5809.21
446.58	5989.43
446.77	5746.02
446.95	5760.06
447.14	5809.21
447.32	5914.53
447.51	5879.43
447.69	5900.49
447.88	6087.73
448.06	6040.92
448.25	5844.32
448.43	5968.37
448.62	5877.09
448.80	5982.41
448.99	5984.75
449.17	6003.47
449.36	5881.77
449.54	6314.77
449.73	6134.54
449.91	6221.14
450.10	6267.95
450.28	6232.85
450.46	6326.47
450.65	6127.52
450.83	6363.92
451.02	6296.04
451.20	6335.83
451.39	6195.40
451.57	6333.49
451.76	6331.15
451.94	6359.24
452.13	6595.63
452.31	6359.24
452.49	6267.95
452.68	6525.41
452.86	6396.68
453.05	6551.16
453.23	6560.52
453.42	6445.84
453.60	6406.05
453.78	6527.75
453.97	6722.02
454.15	6499.67
454.34	6497.33
454.52	6731.38
454.70	6682.23
454.89	6691.59
455.07	6698.61
455.26	6867.13
455.44	6857.77
455.62	6820.32
455.81	6930.33
455.99	6853.09
456.17	6801.60
456.36	6738.40
456.54	6958.41
456.73	6935.01
456.91	7098.84
457.09	7180.76
457.28	7187.79
457.46	7197.15
457.64	7265.02
457.83	7122.25
458.01	7157.36
458.19	7328.22
458.38	7157.36
458.56	7304.81
458.74	7342.26
458.93	7300.13
459.11	7445.24
459.29	7318.86
459.48	7403.11
459.66	7267.36
459.84	7396.09
460.03	7616.10
460.21	7400.77
460.39	7620.78
460.57	7541.21
460.76	7672.28
460.94	7625.47
461.12	7726.11
461.31	7934.42
461.49	7637.17
461.67	7606.74
461.85	7688.66
462.04	7754.19
462.22	8510.19
462.40	7871.22
462.59	7887.61
462.77	7922.71
462.95	8030.38
463.13	7784.62
463.32	7934.42
463.50	8051.44
463.68	8004.63
463.86	7819.73
464.05	7967.18
464.23	7925.05
464.41	7955.48
464.59	7864.20
464.78	8238.69
464.96	8142.72
465.14	8114.64
465.32	8219.96
465.50	8140.38
465.69	8414.23
465.87	8126.34
466.05	8208.26
466.23	8201.24
466.41	8315.92
466.60	8147.40
466.78	8255.07
466.96	8346.35
467.14	8505.51
467.32	8241.03
467.51	8381.46
467.69	8154.43
467.87	8315.92
468.05	8636.58
468.23	8301.88
468.41	8351.03
468.60	8264.43
468.78	8718.50
468.96	8465.72
469.14	8798.07
469.32	8809.78
469.50	8636.58
469.69	8709.13
469.87	8695.09
470.05	8896.38
470.23	8739.56
470.41	8961.91
470.59	8828.50
470.77	8987.66
470.95	9128.09
471.14	9195.96
471.32	8933.82
471.50	9343.42
471.68	9418.32
471.86	9238.09
472.04	9174.90
472.22	9355.12
472.40	9085.96
472.58	9273.20
472.77	9437.04
472.95	9710.88
473.13	9671.09
473.31	9518.96
473.49	9626.62
473.67	9352.78
473.85	9624.28
474.03	9898.13
474.21	9731.95
474.39	9832.59
474.57	9827.91
474.75	10022.17
474.93	9886.42
475.12	9958.98
475.30	9937.91
475.48	10115.80
475.66	10249.21
475.84	10076.01
476.02	10171.97
476.20	10113.45
476.38	10319.42
476.56	10595.61
476.74	10534.75
476.92	10647.10
477.10	10544.11
477.28	10733.70
477.46	10693.91
477.64	10977.11
477.82	11346.92
478.00	11194.78
478.18	11164.36
478.36	11454.58
478.54	11382.03
478.72	11358.62
478.90	11768.21
479.08	11690.98
479.26	11819.71
479.44	11616.08
479.62	11798.64
479.80	11974.18
479.98	12107.59
480.16	12416.54
480.34	12189.51
480.52	12285.47
480.70	12362.71
480.88	12341.64
481.06	12194.19
481.24	12692.73
481.41	12624.85
481.59	13008.70
481.77	13057.85
481.95	12931.46
482.13	13055.51
482.31	12917.42
482.49	13186.58
482.67	13399.57
482.85	13277.86
483.03	13476.80
483.21	13633.62
483.39	13745.97
483.57	13736.60
483.74	14164.92
483.92	14171.94
484.10	14061.94
484.28	14345.14
484.46	14541.75
484.64	14789.85
484.82	14420.04
485.00	14738.35
485.18	14658.78
485.35	14827.29
485.53	14651.75
485.71	14822.61
485.89	15159.65
486.07	15087.09
486.25	15227.53
486.43	15431.15
486.61	15424.13
486.78	15712.02
486.96	15925.00
487.14	16067.78
487.32	16102.89
487.50	16346.30
487.68	16610.78
487.85	16622.48
488.03	16908.03
488.21	16919.73
488.39	16877.60
488.57	17046.12
488.75	17116.34
488.92	17465.08
489.10	17469.76
489.28	17530.61
489.46	17790.41
489.64	17781.05
489.81	17972.97
489.99	18134.47
490.17	18146.17
490.35	18476.19
490.53	18459.81
490.70	18658.75
490.88	18890.46
491.06	19044.94
491.24	18888.12
491.41	18874.08
491.59	18941.96
491.77	19073.03
491.95	19421.77
492.13	19197.07
492.30	19796.25
492.48	19543.47
492.66	19819.66
492.84	19726.04
493.01	20269.04
493.19	19969.45
493.37	20285.42
493.54	20194.14
493.72	20577.99
493.90	20449.26
494.08	20947.79
494.25	20980.56
494.43	21062.48
494.61	21142.06
494.79	21153.76
494.96	21109.29
495.14	21252.06
495.32	21682.72
495.49	21678.04
495.67	21654.64
495.85	21811.45
496.02	22015.08
496.20	22277.22
496.38	22473.82
496.55	22225.73
496.73	23035.55
496.91	22537.02
497.09	22616.60
497.26	22984.06
497.44	23075.34
497.62	23194.71
497.79	23332.80
497.97	22904.48
498.14	23484.94
498.32	23407.70
498.50	23459.19
498.67	23562.17
498.85	23618.35
499.03	23871.12
499.20	24077.09
499.38	23793.89
499.56	24301.78
499.73	24056.03
499.91	24133.26
500.08	24341.57
500.26	24634.14
500.44	24400.08
500.61	24545.20
500.79	24088.79
500.97	24671.59
501.14	25170.12
501.32	24837.76
501.49	25322.26
501.67	24854.15
501.84	25186.50
502.02	25060.12
502.20	25425.24
502.37	25415.88
502.55	25408.86
502.72	25453.33
502.90	25586.74
503.07	25696.74
503.25	25862.92
503.43	26150.81
503.60	25743.55
503.78	25762.28
503.95	25804.41
504.13	26281.88
504.30	26499.55
504.48	26274.85
504.65	26534.65
504.83	26522.95
505.01	27040.21
505.18	26649.34
505.36	27063.61
505.53	27000.42
505.71	27173.62
505.88	27311.71
506.06	26871.69
506.23	27232.13
506.41	27089.36
506.58	27136.17
506.76	27688.54
506.93	27824.29
507.11	27505.98
507.28	27700.24
507.46	28128.56
507.63	27758.75
507.81	28070.04
507.98	27597.26
508.16	27772.80
508.33	28107.49
508.50	28395.38
508.68	28451.55
508.85	28556.88
509.03	28439.85
509.20	28797.95
509.38	28664.54
509.55	28849.44
509.73	28772.21
509.90	28692.63
510.08	28617.73
510.25	29170.10
510.42	29006.26
510.60	28943.06
510.77	29139.67
510.95	29710.76
511.12	29528.20
511.30	29336.27
511.47	29820.77
511.64	29682.67
511.82	30019.71
511.99	29759.91
512.17	30373.13
512.34	29656.93
512.51	29876.94
512.69	30146.10
512.86	30501.86
513.04	30448.03
513.21	30403.56
513.38	30525.27
513.56	30267.81
513.73	29975.24
513.90	30604.84
514.08	30628.25
514.25	30733.57
514.43	30803.79
514.60	31009.76
514.77	30782.73
514.95	31033.16
515.12	31007.42
515.29	30813.15
515.47	31508.29
515.64	31285.94
515.81	31072.95
515.99	31704.90
516.16	31494.25
516.33	31501.27
516.51	31512.97
516.68	31222.75
516.85	31592.55
517.03	31379.56
517.20	31943.63
517.37	31779.79
517.54	31999.80
517.72	32203.43
517.89	32243.22
518.06	32037.25
518.24	32072.36
518.41	31936.61
518.58	32266.63
518.75	32313.44
518.93	32121.51
519.10	32418.76
519.27	32713.67
519.45	32753.46
519.62	33230.93
519.79	32903.25
519.96	33184.12
520.14	33207.52
520.31	32952.40
520.48	33160.71
520.65	33233.27
520.83	33724.78
521.00	33787.97
521.17	33291.78
521.34	33415.83
521.52	33420.51
521.69	33816.06
521.86	33532.86
522.03	33734.14
522.20	33886.28
522.38	33956.49
522.55	34174.16
522.72	33757.55
522.89	34291.19
523.07	34153.10
523.24	34361.40
523.41	33975.22
523.58	34246.72
523.75	34831.85
523.92	34548.65
524.10	34682.06
524.27	34955.90
524.44	34668.02
524.61	35225.06
524.78	34782.70
524.96	35316.34
525.13	34925.47
525.30	35545.72
525.47	35377.20
525.64	35232.08
525.81	35028.46
525.98	35262.51
526.16	35241.45
526.33	35168.89
526.50	35445.07
526.67	35164.21
526.84	35608.91
527.01	35115.06
527.18	35505.93
527.36	36030.21
527.53	35424.01
527.70	35452.09
527.87	36140.21
528.04	35814.88
528.21	35840.62
528.38	35910.84
528.55	35810.20
528.72	36350.86
528.89	36355.54
529.07	36425.76
529.24	36240.86
529.41	36615.34
529.58	36280.64
529.75	36594.28
529.92	36472.57
530.09	36367.24
530.26	36577.89
530.43	36783.86
530.60	36786.20
530.77	36825.99
530.94	37064.72
531.11	36737.05
531.28	36907.91
531.46	36730.03
531.63	36928.97
531.80	36793.22
531.97	36870.46
532.14	37097.49
532.31	36931.31
532.48	37127.92
532.65	37336.23
532.82	37289.42
532.99	37783.27
533.16	37170.05
533.33	37560.92
533.50	37434.53
533.67	37818.38
533.84	36914.93
534.01	37755.18
534.18	37322.18
534.35	37944.76
534.52	38181.16
534.69	37823.06
534.86	37949.45
535.03	37490.70
535.20	38511.17
535.37	38211.59
535.54	38700.76
535.71	38115.62
535.88	38394.15
536.05	37970.51
536.22	38747.57
536.38	38469.04
536.55	38565.01
536.72	37947.11
536.89	38003.28
537.06	38382.45
537.23	38403.51
537.40	38319.25
537.57	38483.09
537.74	38401.17
537.91	38808.42
538.08	38433.94
538.25	38813.10
538.42	38660.97
538.59	39180.57
538.75	38841.19
538.92	38609.48
539.09	39255.46
539.26	38794.38
539.43	39000.35
539.60	38691.40
539.77	38925.45
539.94	39089.29
540.11	39136.10
540.28	39192.27
540.44	38981.62
540.61	39512.92
540.78	39166.52
540.95	39138.44
541.12	39047.16
541.29	39370.15
541.46	39234.40
541.62	39470.79
541.79	39859.32
541.96	39592.50
542.13	39821.87
542.30	39711.87
542.47	39683.78
542.63	39625.27
542.80	39737.62
542.97	40243.17
543.14	40287.64
543.31	40009.12
543.48	40622.34
543.64	40666.81
543.81	40224.45
543.98	40435.10
544.15	40212.74
544.32	40397.65
544.48	40851.71
544.65	40762.77
544.82	40615.32
544.99	40421.05
545.16	40498.29
545.32	40336.79
545.49	41088.10
545.66	40910.22
545.83	40676.17
546.00	41099.81
546.16	40821.28
546.33	40341.47
546.50	40268.92
546.67	40996.82
546.83	40364.88
547.00	40886.82
547.17	40919.59
547.34	41029.59
547.50	41317.48
547.67	41745.80
547.84	40954.69
548.00	41235.56
548.17	41478.97
548.34	41287.05
548.51	41301.09
548.67	41488.34
548.84	41689.62
549.01	41340.88
549.18	41193.43
549.34	41996.23
549.51	41628.77
549.68	41694.30
549.84	41783.24
550.01	41808.99
550.18	41172.36
550.34	41514.08
550.51	41497.70
550.68	41591.32
550.84	41228.54
551.01	41956.44
551.18	41736.43
551.34	42092.19
551.51	41553.87
551.68	41790.27
551.84	42143.69
552.01	42127.30
552.18	42309.86
552.34	41509.40
552.51	42349.65
552.68	42094.53
552.84	42241.99
553.01	42251.35
553.18	42422.21
553.34	42176.45
553.51	41741.11
553.67	41975.17
553.84	42494.77
554.01	42726.48
554.17	42581.37
554.34	42843.51
554.51	42815.42
554.67	42607.11
554.84	42408.17
555.00	42426.89
555.17	42263.05
555.33	42452.64
555.50	42052.41
555.67	42801.38
555.83	42658.60
556.00	43002.66
556.16	43070.54
556.33	42768.61
556.50	42682.01
556.66	43115.01
556.83	42693.71
556.99	42794.36
557.16	43217.99
557.32	43299.91
557.49	42997.98
557.65	42948.83
557.82	42511.15
557.98	42710.10
558.15	42890.32
558.32	43178.20
558.48	43140.75
558.65	43147.78
558.81	42972.24
558.98	43014.37
559.14	43028.41
559.31	42822.44
559.47	43093.94
559.64	43742.27
559.80	43772.70
559.97	43887.39
560.13	43297.57
560.30	43292.89
560.46	43290.55
560.63	43367.79
560.79	43213.31
560.96	43349.06
561.12	43257.78
561.29	42937.13
561.45	43440.34
561.61	43426.30
561.78	43398.21
561.94	43288.21
562.11	43398.21
562.27	43262.46
562.44	43662.69
562.60	43732.91
562.77	43634.61
562.93	43681.42
563.10	43798.44
563.26	43463.75
563.42	43508.22
563.59	43742.27
563.75	43583.12
563.92	43620.56
564.08	43964.62
564.24	44009.09
564.41	43721.21
564.57	43908.45
564.74	43693.12
564.90	43915.47
565.07	43297.57
565.23	43700.14
565.39	43173.52
565.56	44030.16
565.72	43817.17
565.88	43487.15
566.05	43679.08
566.21	44353.15
566.38	44065.27
566.54	43831.21
566.70	44018.46
566.87	44259.53
567.03	43569.07
567.19	44268.89
567.36	43917.81
567.52	43903.77
567.68	44048.88
567.85	43903.77
568.01	43620.56
568.17	43826.53
568.34	43936.54
568.50	43959.94
568.66	43861.64
568.83	44194.00
568.99	44245.49
569.15	44093.35
569.32	43707.16
569.48	43658.01
569.64	44296.98
569.81	44189.31
569.97	43957.60
570.13	43929.51
570.30	44280.60
570.46	43475.45
570.62	43889.73
570.78	43992.71
570.95	43632.27
571.11	44102.71
571.27	44240.81
571.43	44072.29
571.60	44076.97
571.76	44397.62
571.92	44135.48
572.09	44259.53
572.25	44079.31
572.41	44172.93
572.57	44315.70
572.74	44634.02
572.90	44460.82
573.06	44568.48
573.22	44350.81
573.38	44491.24
573.55	44112.08
573.71	44147.18
573.87	44051.22
574.03	43920.15
574.20	44170.59
574.36	43941.22
574.52	44832.96
574.68	44313.36
574.84	44336.77
575.01	44236.12
575.17	44147.18
575.33	44474.86
575.49	44177.61
575.65	44472.52
575.82	44889.13
575.98	44470.18
576.14	44832.96
576.30	44266.55
576.46	44165.91
576.62	44060.58
576.79	44189.31
576.95	43660.35
577.11	44198.68
577.27	44559.12
577.43	44311.02
577.59	44524.01
577.75	44229.10
577.92	44105.06
578.08	44208.04
578.24	43988.03
578.40	44715.93
578.56	44184.63
578.72	44083.99
578.88	44760.40
579.04	44411.67
579.21	44339.11
579.37	44268.89
579.53	44376.56
579.69	44512.31
579.85	44641.04
580.01	44804.88
580.17	44624.65
580.33	44987.44
580.49	44495.92
580.65	44095.69
580.82	44652.74
580.98	44416.35
581.14	43878.02
581.30	44374.22
581.46	44636.36
581.62	44542.74
581.78	44535.71
581.94	45013.18
582.10	44210.38
582.26	44589.55
582.42	44556.78
582.58	44816.58
582.74	44240.81
582.90	44470.18
583.06	44519.33
583.22	44453.79
583.38	45064.67
583.54	44788.49
583.70	44458.48
583.86	43934.20
584.02	44130.80
584.18	44449.11
584.34	44437.41
584.50	44905.52
584.66	44526.35
584.82	44311.02
584.98	44531.03
585.14	44526.35
585.30	44130.80
585.46	44524.01
585.62	44676.15
585.78	44348.47
585.94	44428.05
586.10	44528.69
586.26	44451.45
586.42	44343.79
586.58	44397.62
586.74	44758.06
586.90	44357.83
587.06	44189.31
587.22	44264.21
587.38	44299.32
587.54	44807.22
587.70	44919.56
587.86	44685.51
588.02	44568.48
588.18	44875.09
588.34	44491.24
588.49	44116.76
588.65	44512.31
588.81	44388.26
588.97	44753.38
589.13	44432.73
589.29	44502.95
589.45	44533.37
589.61	44601.25
589.77	44622.31
589.93	44729.98
590.08	45048.29
590.24	44596.57
590.40	44605.93
