SpectraSuite Data File
++++++++++++++++++++++++++++++++++++
Date: Fri Oct 25 11:33:19 EDT 2013
User: price-jones
Dark Spectrum Present: No
Reference Spectrum Present: No
Number of Sampled Component Spectra: 1
Spectrometers: USB2+H05261
Integration Time (usec): 100000 (USB2+H05261)
Spectra Averaged: 1 (USB2+H05261)
Boxcar Smoothing: 0 (USB2+H05261)
Correct for Electrical Dark: No (USB2+H05261)
Strobe/Lamp Enabled: No (USB2+H05261)
Correct for Detector Non-linearity: No (USB2+H05261)
Correct for Stray Light: No (USB2+H05261)
Number of Pixels in Processed Spectrum: 2048
>>>>>Begin Processed Spectral Data<<<<<
365.73	278.52
365.92	278.52
366.12	278.52
366.32	161.50
366.52	243.42
366.72	210.65
366.91	119.37
367.11	142.77
367.31	117.03
367.51	201.29
367.70	182.56
367.90	203.63
368.10	252.78
368.30	212.99
368.49	224.69
368.69	175.54
368.89	208.31
369.09	201.29
369.28	142.77
369.48	177.88
369.68	285.55
369.87	327.68
370.07	201.29
370.27	304.27
370.47	304.27
370.66	500.87
370.86	533.64
371.06	505.56
371.25	566.41
371.45	521.94
371.65	550.03
371.84	554.71
372.04	482.15
372.24	503.22
372.44	521.94
372.63	650.67
372.83	596.84
373.03	589.82
373.22	557.05
373.42	622.58
373.62	627.26
373.81	566.41
374.01	725.57
374.21	660.03
374.40	629.60
374.60	674.07
374.79	690.46
374.99	627.26
375.19	575.77
375.38	613.22
375.58	681.10
375.78	662.37
375.97	692.80
376.17	716.20
376.37	730.25
376.56	667.05
376.76	699.82
376.95	678.76
377.15	713.86
377.35	641.31
377.54	688.12
377.74	770.04
377.93	725.57
378.13	767.70
378.33	763.01
378.52	674.07
378.72	678.76
378.91	755.99
379.11	723.23
379.31	753.65
379.50	655.35
379.70	716.20
379.89	739.61
380.09	704.50
380.28	739.61
380.48	734.93
380.68	734.93
380.87	681.10
381.07	734.93
381.26	765.36
381.46	772.38
381.65	791.10
381.85	716.20
382.04	814.51
382.24	784.08
382.43	763.01
382.63	791.10
382.83	793.44
383.02	744.29
383.22	830.89
383.41	826.21
383.61	833.23
383.80	819.19
384.00	795.78
384.19	809.83
384.39	842.59
384.58	802.80
384.78	800.46
384.97	849.61
385.17	856.64
385.36	837.91
385.56	791.10
385.75	791.10
385.95	814.51
386.14	882.38
386.34	856.64
386.53	898.77
386.72	945.58
386.92	954.94
387.11	924.51
387.31	905.79
387.50	887.06
387.70	866.00
387.89	919.83
388.09	945.58
388.28	854.30
388.48	847.27
388.67	950.26
388.86	933.87
389.06	929.19
389.25	947.92
389.45	992.39
389.64	1050.90
389.84	985.37
390.03	903.45
390.22	943.24
390.42	919.83
390.61	964.30
390.81	898.77
391.00	933.87
391.19	938.55
391.39	1071.97
391.58	992.39
391.78	1088.35
391.97	1095.37
392.16	1064.94
392.36	1111.75
392.55	1041.54
392.75	1118.78
392.94	997.07
393.13	1125.80
393.33	992.39
393.52	1064.94
393.71	1048.56
393.91	1170.27
394.10	1076.65
394.29	1064.94
394.49	1083.67
394.68	1158.57
394.88	1090.69
395.07	1100.05
395.26	1179.63
395.46	1104.73
395.65	1210.06
395.84	1137.50
396.04	1287.29
396.23	1170.27
396.42	1130.48
396.62	1263.89
396.81	1153.88
397.00	1181.97
397.19	1228.78
397.39	1313.04
397.58	1294.32
397.77	1214.74
397.97	1205.38
398.16	1245.16
398.35	1294.32
398.55	1256.87
398.74	1219.42
398.93	1362.19
399.12	1334.11
399.32	1270.91
399.51	1371.55
399.70	1380.92
399.90	1420.71
400.09	1324.74
400.28	1418.36
400.47	1444.11
400.67	1455.81
400.86	1439.43
401.05	1404.32
401.24	1455.81
401.44	1481.56
401.63	1411.34
401.82	1497.94
402.01	1493.26
402.21	1434.75
402.40	1490.92
402.59	1483.90
402.78	1558.80
402.97	1516.67
403.17	1591.56
403.36	1579.86
403.55	1617.31
403.74	1598.59
403.93	1556.46
404.13	1563.48
404.32	1561.14
404.51	1565.82
404.70	1633.69
404.89	1614.97
405.09	1703.91
405.28	1661.78
405.47	1619.65
405.66	1640.72
405.85	1692.21
406.05	1750.72
406.24	1717.95
406.43	1659.44
406.62	1785.83
406.81	1797.53
407.00	1729.66
407.20	1755.40
407.39	1825.62
407.58	1792.85
407.77	1935.62
407.96	1844.34
408.15	1909.88
408.34	1879.45
408.54	1888.81
408.73	1977.75
408.92	1998.82
409.11	1856.04
409.30	1947.33
409.49	1919.24
409.68	2029.24
409.87	2078.40
410.07	2005.84
410.26	2010.52
410.45	2087.76
410.64	2005.84
410.83	2045.63
411.02	2141.59
411.21	2162.66
411.40	2129.89
411.59	2165.00
411.78	2204.78
411.98	2129.89
412.17	2230.53
412.36	2272.66
412.55	2310.11
412.74	2368.62
412.93	2338.20
413.12	2335.85
413.31	2511.39
413.50	2331.17
413.69	2438.84
413.88	2513.74
414.07	2387.35
414.26	2525.44
414.45	2525.44
414.64	2614.38
414.83	2502.03
415.02	2602.68
415.22	2609.70
415.41	2649.49
415.60	2637.78
415.79	2684.59
415.98	2825.03
416.17	2747.79
416.36	2658.85
416.55	2743.11
416.74	2815.66
416.93	2761.83
417.12	2874.18
417.31	2843.75
417.50	2869.50
417.69	2932.69
417.88	2991.20
418.07	2979.50
418.26	2951.42
418.45	3068.44
418.64	3082.49
418.83	3047.38
419.02	3030.99
419.21	3133.98
419.39	3077.80
419.58	3084.83
419.77	3012.27
419.96	3138.66
420.15	3241.64
420.34	3141.00
420.53	3234.62
420.72	3351.65
420.91	3239.30
421.10	3211.22
421.29	3309.52
421.48	3330.58
421.67	3279.09
421.86	3351.65
422.05	3419.52
422.24	3176.11
422.43	3286.11
422.61	3379.73
422.80	3421.86
422.99	3482.72
423.18	3391.44
423.37	3501.44
423.56	3445.27
423.75	3358.67
423.94	3368.03
424.13	3337.60
424.32	3304.84
424.50	3461.65
424.69	3634.85
424.88	3609.11
425.07	3398.46
425.26	3358.67
425.45	3382.07
425.64	3454.63
425.83	3527.19
426.01	3660.60
426.20	3463.99
426.39	3438.25
426.58	3417.18
426.77	3543.57
426.96	3641.87
427.15	3531.87
427.33	3740.18
427.52	3536.55
427.71	3625.49
427.90	3557.61
428.09	3751.88
428.28	3805.71
428.46	3742.52
428.65	3723.79
428.84	3794.01
429.03	3850.18
429.22	3691.02
429.40	3824.44
429.59	3768.26
429.78	3688.68
429.97	3552.93
430.16	3768.26
430.34	3962.53
430.53	4011.68
430.72	3953.16
430.91	3833.80
431.10	3808.05
431.28	4044.45
431.47	4035.08
431.66	4219.99
431.85	4074.87
432.03	4042.11
432.22	4100.62
432.41	4109.98
432.60	4128.70
432.79	4128.70
432.97	4107.64
433.16	4154.45
433.35	4063.17
433.54	4276.16
433.72	4264.46
433.91	4236.37
434.10	4308.93
434.28	4152.11
434.47	4189.56
434.66	4308.93
434.85	4425.95
435.03	4451.70
435.22	4311.27
435.41	4517.23
435.59	4383.82
435.78	4395.53
435.97	4367.44
436.16	4369.78
436.34	4372.12
436.53	4442.34
436.72	4475.10
436.90	4461.06
437.09	4725.54
437.28	4400.21
437.46	4503.19
437.65	4660.01
437.84	4645.96
438.02	4645.96
438.21	4709.16
438.40	4645.96
438.58	4891.72
438.77	4805.12
438.96	4793.42
439.14	4821.50
439.33	5008.75
439.52	5022.79
439.70	5104.71
439.89	4945.55
440.08	5114.07
440.26	5109.39
440.45	5020.45
440.63	5095.35
440.82	5097.69
441.01	5156.20
441.19	5327.06
441.38	5305.99
441.57	5322.38
441.75	5284.93
441.94	5509.62
442.12	5493.24
442.31	5497.92
442.50	5511.96
442.68	5448.77
442.87	5636.01
443.05	5507.28
443.24	5561.11
443.43	5535.37
443.61	5561.11
443.80	5898.15
443.98	5481.53
444.17	5397.28
444.35	5509.62
444.54	5734.31
444.73	5685.16
444.91	5701.54
445.10	5769.42
445.28	5788.14
445.47	5586.86
445.65	5898.15
445.84	5781.12
446.02	5806.87
446.21	5799.85
446.39	5921.56
446.58	5849.00
446.77	5720.27
446.95	5706.23
447.14	5678.14
447.32	5621.97
447.51	5860.70
447.69	5893.47
447.88	5834.96
448.06	5696.86
448.25	5926.24
448.43	5851.34
448.62	5806.87
448.80	5870.06
448.99	5863.04
449.17	5956.66
449.36	5886.45
449.54	5944.96
449.73	6155.61
449.91	6136.88
450.10	6190.72
450.28	6127.52
450.46	6249.23
450.65	6181.35
450.83	6284.34
451.02	6171.99
451.20	6410.73
451.39	6202.42
451.57	6291.36
451.76	6150.93
451.94	6085.39
452.13	6375.62
452.31	6190.72
452.49	6286.68
452.68	6274.98
452.86	6406.05
453.05	6459.88
453.23	6478.60
453.42	6377.96
453.60	6211.78
453.78	6740.74
453.97	6443.49
454.15	6436.47
454.34	6434.13
454.52	6459.88
454.70	6537.12
454.89	6513.71
455.07	6623.72
455.26	6707.98
455.44	6583.93
455.62	6684.57
455.81	6780.53
455.99	6789.89
456.17	6906.92
456.36	6881.18
456.54	6810.96
456.73	6918.62
456.91	7112.89
457.09	6984.16
457.28	7173.74
457.46	6993.52
457.64	7030.97
457.83	7162.04
458.01	7016.93
458.19	7339.92
458.38	7157.36
458.56	7258.00
458.74	7269.70
458.93	7318.86
459.11	7283.75
459.29	7487.37
459.48	7293.11
459.66	7358.64
459.84	7335.24
460.03	7571.63
460.21	7531.84
460.39	7419.50
460.57	7559.93
460.76	7503.76
460.94	7508.44
461.12	7639.51
461.31	7522.48
461.49	7571.63
461.67	7597.38
461.85	7765.90
462.04	7721.43
462.22	8234.00
462.40	7793.98
462.59	7630.15
462.77	7829.09
462.95	7728.45
463.13	7950.80
463.32	7864.20
463.50	7943.78
463.68	8058.46
463.86	8212.94
464.05	7997.61
464.23	7885.26
464.41	8121.66
464.59	7740.15
464.78	8124.00
464.96	7962.50
465.14	7985.91
465.32	8016.33
465.50	8152.09
465.69	8334.65
465.87	8217.62
466.05	8175.49
466.23	8365.07
466.41	8266.77
466.60	8416.57
466.78	8234.00
466.96	8234.00
467.14	8255.07
467.32	8390.82
467.51	8369.76
467.69	8362.73
467.87	8166.13
468.05	8409.54
468.23	8535.93
468.41	8407.20
468.60	8451.67
468.78	8718.50
468.96	8428.27
469.14	8629.56
469.32	8741.90
469.50	8624.87
469.69	8807.44
469.87	8727.86
470.05	8690.41
470.23	8851.91
470.41	8863.61
470.59	8910.42
470.77	8875.31
470.95	8898.72
471.14	9320.01
471.32	8755.94
471.50	9151.49
471.68	9217.03
471.86	9228.73
472.04	9392.57
472.22	9427.68
472.40	9160.86
472.58	9163.20
472.77	9525.98
472.95	9631.30
473.13	9708.54
473.31	9425.34
473.49	9406.61
473.67	9488.53
473.85	9689.82
474.03	9937.91
474.21	9951.96
474.39	9745.99
474.57	9830.25
474.75	10127.50
474.93	9991.75
475.12	10012.81
475.30	10005.79
475.48	10214.10
475.66	10265.59
475.84	10157.92
476.02	10188.35
476.20	10427.09
476.38	10321.76
476.56	10483.26
476.74	10457.51
476.92	10623.69
477.10	10729.02
477.28	10937.32
477.46	10813.28
477.64	10874.13
477.82	10892.85
478.00	11398.41
478.18	11215.85
478.36	11309.47
478.54	11309.47
478.72	11442.88
478.90	11492.03
479.08	11618.42
479.26	11740.13
479.44	11758.85
479.62	11754.17
479.80	11929.71
479.98	12081.85
480.16	12308.88
480.34	12194.19
480.52	12416.54
480.70	12449.31
480.88	12131.00
481.06	12685.70
481.24	12451.65
481.41	12589.74
481.59	12617.83
481.77	12882.31
481.95	12851.88
482.13	13163.17
482.31	13336.37
482.49	13434.68
482.67	13394.89
482.85	13495.53
483.03	13752.99
483.21	13699.16
483.39	13855.97
483.57	13703.84
483.74	14155.56
483.92	14295.99
484.10	14291.31
484.28	14551.11
484.46	14607.28
484.64	14841.34
484.82	14775.80
485.00	14817.93
485.18	14993.47
485.35	15176.03
485.53	15220.50
485.71	15094.11
485.89	15569.24
486.07	15557.54
486.25	15564.56
486.43	15562.22
486.61	15616.05
486.78	16088.84
486.96	16095.86
487.14	16339.28
487.32	16269.06
487.50	16531.20
487.68	16587.38
487.85	16758.24
488.03	16751.21
488.21	17240.39
488.39	16910.37
488.57	17352.73
488.75	17422.95
488.92	17577.42
489.10	17797.43
489.28	17752.96
489.46	17865.31
489.64	18038.51
489.81	18061.91
489.99	18508.96
490.17	18410.65
490.35	18490.23
490.53	18560.45
490.70	18728.97
490.88	18714.92
491.06	18946.64
491.24	18956.00
491.41	19297.72
491.59	19344.53
491.77	19503.68
491.95	19896.89
492.13	19768.16
492.30	19995.20
492.48	19646.46
492.66	19976.47
492.84	19885.19
493.01	20510.11
493.19	20315.85
493.37	20460.96
493.54	20690.34
493.72	20891.62
493.90	20830.77
494.08	21135.04
494.25	21013.33
494.43	21387.82
494.61	21263.77
494.79	21259.09
494.96	21441.65
495.14	21607.83
495.32	22068.91
495.49	22068.91
495.67	22101.68
495.85	22111.04
496.02	22436.38
496.20	22258.49
496.38	22703.20
496.55	22785.12
496.73	22998.10
496.91	22684.47
497.09	22827.24
497.26	23264.92
497.44	23316.42
497.62	23295.35
497.79	23805.59
497.97	23552.81
498.14	23887.51
498.32	23747.08
498.50	23967.09
498.67	24056.03
498.85	23927.30
499.03	24243.27
499.20	24034.96
499.38	24112.20
499.56	24624.78
499.73	24624.78
499.91	25130.33
500.08	24907.98
500.26	24713.72
500.44	24886.92
500.61	25170.12
500.79	25078.84
500.97	25371.41
501.14	25612.48
501.32	25415.88
501.49	25633.55
501.67	25357.36
501.84	26054.84
502.02	25685.04
502.20	25996.33
502.37	26129.74
502.55	26089.95
502.72	25991.65
502.90	26576.78
503.07	25886.32
503.25	26155.49
503.43	26288.90
503.60	26761.69
503.78	26665.72
503.95	26551.04
504.13	26745.30
504.30	27007.44
504.48	26906.80
504.65	27047.23
504.83	27597.26
505.01	27426.40
505.18	27447.46
505.36	27805.56
505.53	27543.42
505.71	27803.22
505.88	27592.58
506.06	27419.38
506.23	27826.63
506.41	27812.59
506.58	28194.09
506.76	28048.98
506.93	28266.65
507.11	28254.95
507.28	28505.38
507.46	28257.29
507.63	28610.71
507.81	29060.09
507.98	28400.06
508.16	28807.31
508.33	29127.97
508.50	29069.45
508.68	28947.75
508.85	29329.25
509.03	28975.83
509.20	29434.58
509.38	29703.74
509.55	29645.23
509.73	29502.45
509.90	29958.86
510.08	29766.93
510.25	29612.46
510.42	29792.68
510.60	30223.34
510.77	29919.07
510.95	30228.02
511.12	30052.48
511.30	30321.64
511.47	30279.51
511.64	30471.43
511.82	30822.51
511.99	30632.93
512.17	30801.45
512.34	30829.54
512.51	30965.29
512.69	31276.58
512.86	30808.47
513.04	31358.50
513.21	31599.57
513.38	31498.93
513.56	31686.17
513.73	31208.70
513.90	31538.72
514.08	31501.27
514.25	31367.86
514.43	31800.86
514.60	31721.28
514.77	31777.45
514.95	32198.75
515.12	31983.42
515.29	31812.56
515.47	32107.47
515.64	32362.59
515.81	32374.29
515.99	32580.26
516.16	32753.46
516.33	32430.46
516.51	32732.39
516.68	32708.99
516.85	32854.10
517.03	32779.20
517.20	32957.08
517.37	33081.13
517.54	32706.65
517.72	33528.17
517.89	32994.53
518.06	33249.65
518.24	33479.02
518.41	33399.44
518.58	33123.26
518.75	33773.93
518.93	33881.60
519.10	33469.66
519.27	34335.66
519.45	34106.29
519.62	34075.86
519.79	34171.82
519.96	34232.68
520.14	34143.74
520.31	34300.55
520.48	34195.23
520.65	34417.58
520.83	34958.24
521.00	34740.57
521.17	34616.52
521.34	34682.06
521.52	34677.38
521.69	35133.78
521.86	35154.85
522.03	35243.79
522.20	35585.50
522.38	35302.30
522.55	35435.71
522.72	35206.34
522.89	35564.44
523.07	36060.63
523.24	35447.41
523.41	35866.37
523.58	35555.08
523.75	36023.19
523.92	36072.34
524.10	36311.07
524.27	35859.35
524.44	35721.26
524.61	36369.58
524.78	35894.46
524.96	36631.72
525.13	36598.96
525.30	37057.70
525.47	36776.84
525.64	36481.93
525.81	36830.67
525.98	36978.12
526.16	36701.94
526.33	36528.74
526.50	36685.56
526.67	36823.65
526.84	36910.25
527.01	36552.15
527.18	37310.48
527.36	37102.17
527.53	36596.62
527.70	37179.41
527.87	38040.73
528.04	37378.36
528.21	37649.86
528.38	37289.42
528.55	37397.08
528.72	37834.76
528.89	37532.83
529.07	37383.04
529.24	37549.21
529.41	37965.83
529.58	37780.93
529.75	37677.94
529.92	37909.66
530.09	37776.25
530.26	37776.25
530.43	38316.91
530.60	37904.98
530.77	37813.70
530.94	38513.52
531.11	38185.84
531.28	38447.98
531.46	38494.79
531.63	39009.71
531.80	38323.93
531.97	38726.50
532.14	38707.78
532.31	38401.17
532.48	38789.70
532.65	38939.49
532.82	38714.80
532.99	39313.98
533.16	39126.74
533.33	39105.67
533.50	38787.36
533.67	38525.22
533.84	38857.57
534.01	38595.43
534.18	39253.12
534.35	39356.11
534.52	39461.43
534.69	39791.45
534.86	39643.99
535.03	39704.85
535.20	39309.30
535.37	39744.64
535.54	40023.16
535.71	39950.60
535.88	40041.88
536.05	39868.69
536.22	40175.30
536.38	40034.86
536.55	39777.40
536.72	39674.42
536.89	39639.31
537.06	39842.94
537.23	40428.07
537.40	40074.65
537.57	40292.32
537.74	40257.21
537.91	40545.10
538.08	40889.16
538.25	40009.12
538.42	40275.94
538.59	40964.06
538.75	40414.03
538.92	40837.67
539.09	40727.66
539.26	40996.82
539.43	41010.87
539.60	40657.45
539.77	41008.53
539.94	40823.62
540.11	41113.85
540.28	40807.24
540.44	40772.13
540.61	41048.32
540.78	41013.21
540.95	41179.39
541.12	40861.07
541.29	41195.77
541.46	41188.75
541.62	41053.00
541.79	41757.50
541.96	41085.76
542.13	41345.56
542.30	41392.37
542.47	42014.96
542.63	41493.02
542.80	41682.60
542.97	42043.04
543.14	41998.57
543.31	42169.43
543.48	42139.00
543.64	42684.35
543.81	42064.11
543.98	42440.93
544.15	42646.90
544.32	42897.34
544.48	42946.49
544.65	42377.74
544.82	42525.19
544.99	42361.36
545.16	42665.63
545.32	42396.46
545.49	42969.90
545.66	43328.00
545.83	43098.62
546.00	43482.47
546.16	42803.72
546.33	42588.39
546.50	42782.65
546.67	42958.19
546.83	42794.36
547.00	43105.65
547.17	43079.90
547.34	43124.37
547.50	43639.29
547.67	43597.16
547.84	42967.55
548.00	43477.79
548.17	43725.89
548.34	43391.19
548.51	44238.47
548.67	43796.10
548.84	43688.44
549.01	43306.93
549.18	43618.22
549.34	43456.73
549.51	44067.61
549.68	43768.02
549.84	43847.60
550.01	43742.27
550.18	43852.28
550.34	43971.64
550.51	43758.66
550.68	43971.64
550.84	43690.78
551.01	44161.23
551.18	44051.22
551.34	43805.47
551.51	44334.43
551.68	43943.56
551.84	44252.51
552.01	44179.95
552.18	44767.43
552.34	44332.09
552.51	44435.07
552.68	44182.29
552.84	44636.36
553.01	44535.71
553.18	45006.16
553.34	44566.14
553.51	44442.09
553.67	44371.88
553.84	44502.95
554.01	44282.94
554.17	45015.52
554.34	44690.19
554.51	44467.84
554.67	45177.02
554.84	44818.92
555.00	44875.09
555.17	44685.51
555.33	45422.78
555.50	45343.20
555.67	45214.47
555.83	45067.02
556.00	45397.03
556.16	45560.87
556.33	44900.84
556.50	45301.07
556.66	45469.59
556.83	45132.55
556.99	45581.93
557.16	45361.92
557.32	45375.97
557.49	45815.99
557.65	45422.78
557.82	45397.03
557.98	45617.04
558.15	45961.10
558.32	45792.58
558.48	45294.05
558.65	45284.68
558.81	45628.74
558.98	45766.84
559.14	45247.24
559.31	45401.71
559.47	45647.47
559.64	45600.66
559.80	45815.99
559.97	46033.66
560.13	45579.59
560.30	45865.14
560.46	45897.91
560.63	46206.86
560.79	45881.52
560.96	45897.91
561.12	46195.15
561.29	46220.90
561.45	46319.20
561.61	45755.13
561.78	45705.98
561.94	45808.96
562.11	46157.70
562.27	46241.96
562.44	45881.52
562.60	46047.70
562.77	46450.27
562.93	46057.06
563.10	46326.22
563.26	45883.86
563.42	46689.01
563.59	46197.49
563.75	46010.25
563.92	46136.64
564.08	46279.41
564.24	46368.35
564.41	46244.30
564.57	46527.51
564.74	46780.29
564.90	46564.96
565.07	46014.93
565.23	46241.96
565.39	46803.69
565.56	46440.91
565.72	46225.58
565.88	46604.75
566.05	46646.88
566.21	46630.49
566.38	46527.51
566.54	46408.14
566.70	47016.68
566.87	46752.20
567.03	46543.89
567.19	46841.14
567.36	46827.10
567.52	46499.42
567.68	47065.83
567.85	46686.67
568.01	46995.62
568.17	46981.57
568.34	46962.85
568.50	46529.85
568.66	46770.93
568.83	47138.39
568.99	46712.41
569.15	46958.17
569.32	46607.09
569.48	46979.23
569.64	47407.55
569.81	46904.34
569.97	46946.47
570.13	47297.55
570.30	46651.56
570.46	47217.97
570.62	46724.11
570.78	46864.55
570.95	47407.55
571.11	47278.82
571.27	47255.42
571.43	46791.99
571.60	47480.11
571.76	46841.14
571.92	46939.44
572.09	46904.34
572.25	46756.88
572.41	47012.00
572.57	47285.84
572.74	47281.16
572.90	47477.77
573.06	47056.47
573.22	47171.16
573.38	47412.23
573.55	47278.82
573.71	47625.22
573.87	47292.86
574.03	47437.98
574.20	47620.54
574.36	47454.36
574.52	47674.37
574.68	47428.62
574.84	47847.57
575.01	47309.25
575.17	47344.36
575.33	47723.52
575.49	47178.18
575.65	47627.56
575.82	47639.26
575.98	47028.38
576.14	47519.90
576.30	47728.20
576.46	47718.84
576.62	47302.23
576.79	47304.57
576.95	46810.71
577.11	47110.30
577.27	47339.68
577.43	47337.33
577.59	47697.78
577.75	47283.50
577.92	47019.02
578.08	47107.96
578.24	47246.05
578.40	47643.94
578.56	47784.38
578.72	47505.85
578.88	47758.63
579.04	47578.41
579.21	47262.44
579.37	47590.11
579.53	48018.43
579.69	47533.94
579.85	47330.31
580.01	47367.76
580.17	47746.93
580.33	47828.85
580.49	47435.64
580.65	47707.14
580.82	47433.30
580.98	47463.72
581.14	47311.59
581.30	47786.72
581.46	47484.79
581.62	47079.88
581.78	47540.96
581.94	47489.47
582.10	47463.72
582.26	47655.65
582.42	47634.58
582.58	47878.00
582.74	47952.90
582.90	47594.79
583.06	47798.42
583.22	47466.06
583.38	47845.23
583.54	47716.50
583.70	47798.42
583.86	47742.25
584.02	47608.84
584.18	47913.11
584.34	48098.01
584.50	47894.38
584.66	47730.54
584.82	47999.71
584.98	47938.85
585.14	48090.99
585.30	47952.90
585.46	47819.49
585.62	47697.78
585.78	47934.17
585.94	47681.39
586.10	47833.53
586.26	47363.08
586.42	47772.67
586.58	47861.61
586.74	47674.37
586.90	47805.44
587.06	47791.40
587.22	47992.68
587.38	47894.38
587.54	47796.08
587.70	48376.53
587.86	47838.21
588.02	47992.68
588.18	48133.12
588.34	47730.54
588.49	48011.41
588.65	47957.58
588.81	47442.66
588.97	47988.00
589.13	47641.60
589.29	47643.94
589.45	48303.98
589.61	47817.14
589.77	47964.60
589.93	48334.40
590.08	47709.48
