SpectraSuite Data File
++++++++++++++++++++++++++++++++++++
Date: Fri Oct 25 11:25:08 EDT 2013
User: price-jones
Dark Spectrum Present: No
Reference Spectrum Present: No
Number of Sampled Component Spectra: 1
Spectrometers: USB2+H05261
Integration Time (usec): 100000 (USB2+H05261)
Spectra Averaged: 1 (USB2+H05261)
Boxcar Smoothing: 0 (USB2+H05261)
Correct for Electrical Dark: No (USB2+H05261)
Strobe/Lamp Enabled: No (USB2+H05261)
Correct for Detector Non-linearity: No (USB2+H05261)
Correct for Stray Light: No (USB2+H05261)
Number of Pixels in Processed Spectrum: 2048
>>>>>Begin Processed Spectral Data<<<<<
365.73	264.48
365.92	264.48
366.12	264.48
366.32	173.20
366.52	93.62
366.72	170.86
366.91	135.75
367.11	145.11
367.31	142.77
367.51	114.69
367.70	84.26
367.90	152.13
368.10	114.69
368.30	177.88
368.49	161.50
368.69	156.82
368.89	110.01
369.09	140.43
369.28	79.58
369.48	147.45
369.68	191.92
369.87	187.24
370.07	161.50
370.27	222.35
370.47	290.23
370.66	636.63
370.86	667.05
371.06	669.39
371.25	720.88
371.45	592.16
371.65	723.23
371.84	653.01
372.04	697.48
372.24	692.80
372.44	720.88
372.63	744.29
372.83	732.59
373.03	791.10
373.22	674.07
373.42	730.25
373.62	800.46
373.81	833.23
374.01	788.76
374.21	746.63
374.40	816.85
374.60	779.40
374.79	882.38
374.99	720.88
375.19	847.27
375.38	847.27
375.58	842.59
375.78	809.83
375.97	809.83
376.17	870.68
376.37	837.91
376.56	875.36
376.76	819.19
376.95	877.70
377.15	915.15
377.35	854.30
377.54	882.38
377.74	891.74
377.93	858.98
378.13	868.34
378.33	912.81
378.52	884.72
378.72	959.62
378.91	947.92
379.11	919.83
379.31	952.60
379.50	922.17
379.70	1013.45
379.89	1015.79
380.09	926.85
380.28	964.30
380.48	919.83
380.68	924.51
380.87	978.34
381.07	1025.15
381.26	952.60
381.46	1029.84
381.65	992.39
381.85	1025.15
382.04	1076.65
382.24	1060.26
382.43	980.68
382.63	1029.84
382.83	980.68
383.02	1151.54
383.22	1156.22
383.41	1069.62
383.61	1188.99
383.80	1160.91
384.00	1078.99
384.19	1121.12
384.39	1032.18
384.58	1170.27
384.78	1188.99
384.97	1196.01
385.17	1039.20
385.36	1139.84
385.56	1128.14
385.75	1111.75
385.95	1142.18
386.14	1181.97
386.34	1245.16
386.53	1210.06
386.72	1151.54
386.92	1254.53
387.11	1245.16
387.31	1233.46
387.50	1203.04
387.70	1245.16
387.89	1282.61
388.09	1242.82
388.28	1219.42
388.48	1296.66
388.67	1355.17
388.86	1287.29
389.06	1320.06
389.25	1291.98
389.45	1324.74
389.64	1315.38
389.84	1291.98
390.03	1378.58
390.22	1469.86
390.42	1399.64
390.61	1380.92
390.81	1385.60
391.00	1394.96
391.19	1488.58
391.39	1479.22
391.58	1336.45
391.78	1511.99
391.97	1453.47
392.16	1446.45
392.36	1453.47
392.55	1589.22
392.75	1497.94
392.94	1483.90
393.13	1476.88
393.33	1511.99
393.52	1502.62
393.71	1568.16
393.91	1600.93
394.10	1629.01
394.29	1593.90
394.49	1568.16
394.68	1636.03
394.88	1626.67
395.07	1652.42
395.26	1689.87
395.46	1619.65
395.65	1629.01
395.84	1732.00
396.04	1757.74
396.23	1696.89
396.42	1811.57
396.62	1839.66
396.81	1757.74
397.00	1888.81
397.19	1722.63
397.39	1788.17
397.58	1879.45
397.77	1792.85
397.97	1858.39
398.16	1701.57
398.35	1905.20
398.55	1797.53
398.74	1877.11
398.93	1937.96
399.12	1902.86
399.32	1842.00
399.51	1935.62
399.70	1818.60
399.90	1879.45
400.09	1959.03
400.28	2062.01
400.47	1982.43
400.67	2003.50
400.86	2010.52
401.05	2148.61
401.24	2031.58
401.44	2043.29
401.63	2132.23
401.82	2094.78
402.01	2207.13
402.21	2148.61
402.40	2270.32
402.59	2211.81
402.78	2148.61
402.97	2253.94
403.17	2324.15
403.36	2251.60
403.55	2429.48
403.74	2310.11
403.93	2363.94
404.13	2319.47
404.32	2326.49
404.51	2420.11
404.70	2424.80
404.89	2415.43
405.09	2373.30
405.28	2452.88
405.47	2466.92
405.66	2436.50
405.85	2539.48
406.05	2590.97
406.24	2506.71
406.43	2567.57
406.62	2593.31
406.81	2693.96
407.00	2675.23
407.20	2635.44
407.39	2679.91
407.58	2656.51
407.77	2665.87
407.96	2764.17
408.15	2661.19
408.34	2647.15
408.54	2689.28
408.73	2806.30
408.92	2698.64
409.11	2958.44
409.30	2808.64
409.49	2843.75
409.68	2892.90
409.87	2895.24
410.07	2850.77
410.26	3009.93
410.45	2960.78
410.64	2946.73
410.83	3035.67
411.02	2986.52
411.21	3110.57
411.40	3197.17
411.59	3353.99
411.78	3283.77
411.98	3133.98
412.17	3164.40
412.36	3269.73
412.55	3201.85
412.74	3478.04
412.93	3398.46
413.12	3344.63
413.31	3403.14
413.50	3487.40
413.69	3496.76
413.88	3466.33
414.07	3569.32
414.26	3576.34
414.45	3599.74
414.64	3658.26
414.83	3658.26
415.02	3730.81
415.22	3826.78
415.41	3803.37
415.60	3833.80
415.79	3801.03
415.98	4016.36
416.17	4070.19
416.36	4004.66
416.55	3904.01
416.74	4119.34
416.93	3967.21
417.12	4065.51
417.31	4156.79
417.50	4194.24
417.69	4435.32
417.88	4259.78
418.07	4182.54
418.26	4180.20
418.45	4285.52
418.64	4561.70
418.83	4395.53
419.02	4437.66
419.21	4470.42
419.39	4449.36
419.58	4383.82
419.77	4400.21
419.96	4643.62
420.15	4571.07
420.34	4641.28
420.53	4564.04
420.72	4758.31
420.91	4615.54
421.10	4767.67
421.29	4725.54
421.48	4596.81
421.67	4753.63
421.86	4688.09
422.05	4762.99
422.24	4767.67
422.43	4840.23
422.61	4891.72
422.80	4957.25
422.99	4863.63
423.18	4983.00
423.37	5053.22
423.56	4734.90
423.75	4819.16
423.94	4781.71
424.13	4664.69
424.32	4688.09
424.50	4868.31
424.69	5046.20
424.88	4964.28
425.07	4891.72
425.26	4915.12
425.45	4987.68
425.64	4903.42
425.83	4847.25
426.01	5203.01
426.20	5104.71
426.39	5149.18
426.58	4983.00
426.77	4987.68
426.96	5100.03
427.15	5032.15
427.33	5165.56
427.52	5132.79
427.71	5228.76
427.90	5238.12
428.09	5303.65
428.28	5425.36
428.46	5310.68
428.65	5336.42
428.84	5621.97
429.03	5565.79
429.22	5331.74
429.40	5507.28
429.59	5486.22
429.78	5188.97
429.97	5327.06
430.16	5476.85
430.34	5570.48
430.53	5827.93
430.72	5572.82
430.91	5621.97
431.10	5628.99
431.28	5628.99
431.47	5755.38
431.66	5802.19
431.85	5624.31
432.03	5846.66
432.22	6019.86
432.41	5963.68
432.60	6071.35
432.79	5942.62
432.97	5933.26
433.16	6045.60
433.35	5860.70
433.54	6017.52
433.72	5970.71
433.91	5935.60
434.10	6094.76
434.28	6045.60
434.47	6457.54
434.66	6239.87
434.85	6127.52
435.03	6289.02
435.22	6181.35
435.41	6244.55
435.59	6389.66
435.78	6331.15
435.97	6462.22
436.16	6576.91
436.34	6464.56
436.53	6466.90
436.72	6583.93
436.90	6452.86
437.09	6476.26
437.28	6349.87
437.46	6441.15
437.65	6607.33
437.84	6813.30
438.02	6733.72
438.21	6689.25
438.40	6700.95
438.58	6911.60
438.77	6995.86
438.96	6906.92
439.14	6986.50
439.33	7061.40
439.52	6991.18
439.70	7358.64
439.89	7253.32
440.08	7276.73
440.26	7363.33
440.45	7421.84
440.63	7442.90
440.82	7555.25
441.01	7351.62
441.19	7468.65
441.38	7714.41
441.57	7648.87
441.75	7798.66
441.94	7913.35
442.12	7985.91
442.31	8114.64
442.50	7871.22
442.68	7906.33
442.87	7768.24
443.05	8063.15
443.24	8074.85
443.43	8116.98
443.61	8255.07
443.80	8517.21
443.98	8119.32
444.17	7929.74
444.35	8135.70
444.54	8374.44
444.73	8063.15
444.91	7976.55
445.10	8140.38
445.28	8133.36
445.47	8175.49
445.65	8329.97
445.84	8484.44
446.02	8313.58
446.21	8465.72
446.39	8334.65
446.58	8444.65
446.77	8645.94
446.95	8098.25
447.14	8416.57
447.32	8381.46
447.51	8376.78
447.69	8369.76
447.88	8489.12
448.06	8397.84
448.25	8428.27
448.43	8458.70
448.62	8482.10
448.80	8451.67
448.99	8589.77
449.17	8788.71
449.36	8554.66
449.54	8692.75
449.73	8779.35
449.91	8870.63
450.10	8863.61
450.28	9022.77
450.46	9064.89
450.65	9090.64
450.83	9041.49
451.02	8919.78
451.20	9144.47
451.39	9188.94
451.57	8915.10
451.76	9013.40
451.94	9373.85
452.13	9352.78
452.31	9437.04
452.49	9163.20
452.68	9205.33
452.86	9317.67
453.05	9437.04
453.23	9355.12
453.42	9233.41
453.60	9327.03
453.78	9284.91
453.97	9181.92
454.15	9458.10
454.34	9500.23
454.52	9645.35
454.70	9638.33
454.89	9575.13
455.07	9717.90
455.26	9827.91
455.44	10038.56
455.62	9980.04
455.81	9774.08
455.99	10080.69
456.17	9961.32
456.36	9884.08
456.54	10115.80
456.73	10256.23
456.91	10656.46
457.09	10354.53
457.28	10595.61
457.46	10279.63
457.64	10207.08
457.83	10401.34
458.01	10340.49
458.19	10712.63
458.38	10586.24
458.56	10881.15
458.74	10499.64
458.93	10768.80
459.11	10775.83
459.29	10651.78
459.48	10668.16
459.66	10539.43
459.84	10892.85
460.03	11061.37
460.21	10892.85
460.39	10881.15
460.57	10867.11
460.76	11066.05
460.94	10967.75
461.12	11138.61
461.31	10864.77
461.49	11201.80
461.67	10848.38
461.85	11393.73
462.04	11126.91
462.22	11854.81
462.40	11356.28
462.59	11604.38
462.77	11403.09
462.95	11485.01
463.13	11405.43
463.32	11674.59
463.50	11868.86
463.68	11798.64
463.86	11742.47
464.05	11620.76
464.23	11449.90
464.41	11784.60
464.59	11499.05
464.78	12063.12
464.96	11859.49
465.14	11721.40
465.32	12100.57
465.50	12025.67
465.69	12189.51
465.87	12203.55
466.05	11918.01
466.23	12056.10
466.41	11999.93
466.60	12119.29
466.78	12133.34
466.96	12049.08
467.14	12156.74
467.32	12170.79
467.51	12641.23
467.69	12135.68
467.87	12428.24
468.05	12636.55
468.23	12336.96
468.41	12339.30
468.60	12657.62
468.78	12765.28
468.96	12411.86
469.14	12671.66
469.32	13013.38
469.50	12615.49
469.69	13198.28
469.87	13041.46
470.05	13090.62
470.23	13137.43
470.41	13057.85
470.59	13245.09
470.77	13319.99
470.95	13266.16
471.14	13570.43
471.32	13205.30
471.50	13165.51
471.68	13380.84
471.86	13582.13
472.04	13673.41
472.22	13839.59
472.40	13626.60
472.58	13769.37
472.77	13909.80
472.95	13989.38
473.13	14401.32
473.31	14003.43
473.49	14097.05
473.67	14284.29
473.85	14092.37
474.03	14714.95
474.21	14359.19
474.39	14672.82
474.57	14752.40
474.75	14654.09
474.93	14892.83
475.12	14682.18
475.30	15304.76
475.48	14890.49
475.66	14963.04
475.84	15059.01
476.02	15337.53
476.20	15161.99
476.38	15714.36
476.56	15852.45
476.74	15690.95
476.92	15758.83
477.10	15552.86
477.28	16086.50
477.46	16194.17
477.64	16290.13
477.82	16285.45
478.00	16755.90
478.18	16395.45
478.36	16922.07
478.54	17245.07
478.72	17448.69
478.90	17111.66
479.08	17301.24
479.26	17521.25
479.44	17579.76
479.62	17535.29
479.80	17788.07
479.98	18202.35
480.16	18441.08
480.34	18249.16
480.52	18436.40
480.70	18588.53
480.88	18185.96
481.06	18810.89
481.24	18728.97
481.41	19222.82
481.59	19075.37
481.77	19157.28
481.95	19466.24
482.13	19459.21
482.31	19587.94
482.49	20060.73
482.67	20105.20
482.85	20144.99
483.03	20613.10
483.21	20786.30
483.39	20805.02
483.57	20720.76
483.74	21355.05
483.92	21399.52
484.10	21043.76
484.28	21591.44
484.46	21916.78
484.64	22199.98
484.82	21895.71
485.00	22403.61
485.18	22590.85
485.35	22750.01
485.53	22670.43
485.71	23005.13
485.89	23304.71
486.07	23372.59
486.25	23140.88
486.43	23454.51
486.61	23543.45
486.78	24046.66
486.96	24044.32
487.14	24301.78
487.32	24222.20
487.50	24840.11
487.68	24896.28
487.85	24912.66
488.03	25151.40
488.21	25853.56
488.39	25607.80
488.57	25930.80
488.75	26249.11
488.92	26616.57
489.10	27054.25
489.28	26632.96
489.46	26792.11
489.64	26597.85
489.81	27489.59
489.99	27325.75
490.17	27576.19
490.35	27648.75
490.53	28032.60
490.70	28154.30
490.88	28116.86
491.06	28383.68
491.24	28877.53
491.41	28765.18
491.59	29071.79
491.77	29394.79
491.95	29331.59
492.13	29516.50
492.30	30064.18
492.48	29902.68
492.66	29797.36
492.84	30265.47
493.01	30834.22
493.19	30728.89
493.37	30808.47
493.54	30923.16
493.72	31271.90
493.90	30862.30
494.08	31388.92
494.25	32039.59
494.43	31878.10
494.61	32245.56
494.79	32369.61
494.96	32725.37
495.14	32685.58
495.32	33174.75
495.49	33031.98
495.67	33500.09
495.85	33223.90
496.02	33443.91
496.20	33928.41
496.38	33993.94
496.55	33986.92
496.73	34515.88
496.91	34284.17
497.09	34548.65
497.26	34478.43
497.44	34742.91
497.62	35058.88
497.79	35456.78
497.97	35475.50
498.14	35634.66
498.32	35971.69
498.50	36219.79
498.67	36362.56
498.85	36236.17
499.03	36641.09
499.20	36561.51
499.38	36655.13
499.56	36556.83
499.73	36928.97
499.91	37120.90
500.08	37242.60
500.26	37090.47
500.44	37483.68
500.61	37617.09
500.79	37462.61
500.97	37872.21
501.14	38216.27
501.32	38160.09
501.49	38349.68
501.67	38747.57
501.84	38820.13
502.02	38937.15
502.20	38684.37
502.37	39304.62
502.55	38993.32
502.72	39129.08
502.90	39325.68
503.07	39606.55
503.25	39531.65
503.43	39232.06
503.60	40081.67
503.78	39646.33
503.95	39978.69
504.13	40252.53
504.30	40194.02
504.48	40505.31
504.65	40259.55
504.83	40945.33
505.01	41324.50
505.18	40821.28
505.36	41600.68
505.53	40823.62
505.71	41404.08
505.88	41605.36
506.06	41764.52
506.23	41921.34
506.41	41317.48
506.58	42183.48
506.76	41656.85
506.93	42670.31
507.11	41968.15
507.28	42213.90
507.46	42656.26
507.63	42607.11
507.81	43622.90
507.98	42258.37
508.16	42719.46
508.33	43185.22
508.50	43112.67
508.68	43480.13
508.85	43952.92
509.03	43676.74
509.20	44046.54
509.38	44364.85
509.55	44243.15
509.73	44406.98
509.90	44264.21
510.08	44301.66
510.25	44655.08
510.42	44734.66
510.60	44875.09
510.77	44971.05
510.95	45380.65
511.12	44868.07
511.30	44762.75
511.47	45284.68
511.64	45057.65
511.82	45841.73
511.99	45464.91
512.17	45694.28
512.34	45642.79
512.51	46129.62
512.69	46232.60
512.86	46178.77
513.04	46574.32
513.21	46506.44
513.38	46459.63
513.56	46600.07
513.73	46639.86
513.90	46684.33
514.08	46717.09
514.25	46913.70
514.43	46993.28
514.60	47466.06
514.77	47311.59
514.95	47721.18
515.12	47407.55
515.29	47665.01
515.47	47423.93
515.64	47728.20
515.81	47756.29
515.99	48090.99
516.16	48409.30
516.33	48144.82
516.51	48641.01
516.68	48090.99
516.85	48318.02
517.03	48554.41
517.20	48736.98
517.37	48416.32
517.54	48765.06
517.72	48781.45
517.89	49076.35
518.06	49008.48
518.24	48879.75
518.41	49095.08
518.58	48975.71
518.75	49366.58
518.93	48971.03
519.10	49315.09
519.27	49507.01
519.45	49516.37
519.62	49804.26
519.79	49851.07
519.96	49867.45
520.14	50230.24
520.31	49846.39
520.48	50260.66
520.65	49893.20
520.83	50452.59
521.00	50553.23
521.17	50260.66
521.34	50330.88
521.52	50632.81
521.69	50143.64
521.86	50962.82
522.03	51089.21
522.20	51299.86
522.38	51182.84
522.55	50974.53
522.72	51192.20
522.89	51583.07
523.07	51597.11
523.24	51126.66
523.41	51576.04
523.58	51374.76
523.75	51585.41
523.92	51821.80
524.10	51693.07
524.27	51770.31
524.44	51877.97
524.61	51915.42
524.78	52002.02
524.96	51877.97
525.13	51786.69
525.30	52179.90
525.47	52278.21
525.64	52488.85
525.81	52453.75
525.98	52685.46
526.16	52570.77
526.33	52669.08
526.50	52814.19
526.67	52437.36
526.84	52853.98
527.01	52659.71
527.18	52680.78
527.36	52420.98
527.53	53097.39
527.70	53141.86
527.87	53345.49
528.04	53029.52
528.21	53258.89
528.38	53132.50
528.55	53027.18
528.72	53418.05
528.89	53514.01
529.07	53230.80
529.24	53357.19
529.41	53712.95
529.58	53228.46
529.75	53471.88
529.92	53813.60
530.09	53848.71
530.26	53862.75
530.43	53869.77
530.60	53593.59
530.77	53511.67
530.94	53701.25
531.11	53998.50
531.28	54066.38
531.46	54117.87
531.63	54246.60
531.80	54089.78
531.97	53963.39
532.14	54258.30
532.31	54354.26
532.48	54567.25
532.65	54454.90
532.82	54440.86
532.99	54520.44
533.16	54433.84
533.33	54578.95
533.50	54979.18
533.67	54621.08
533.84	54529.80
534.01	54616.40
534.18	54583.63
534.35	55185.15
534.52	54892.58
534.69	54976.84
534.86	55089.19
535.03	55025.99
535.20	55302.18
535.37	55023.65
535.54	55395.80
535.71	55377.08
535.88	55278.77
536.05	55423.89
536.22	55646.24
536.38	55440.27
536.55	55229.62
536.72	55168.77
536.89	55367.71
537.06	55365.37
537.23	55714.11
537.40	55311.54
537.57	55552.62
537.74	55760.92
537.91	55601.77
538.08	55793.69
538.25	55538.57
538.42	55657.94
538.59	56200.94
538.75	55760.92
538.92	56016.04
539.09	56165.84
539.26	56158.81
539.43	56009.02
539.60	55999.66
539.77	56123.71
539.94	56378.82
540.11	56226.69
540.28	56343.72
540.44	56383.51
540.61	56147.11
540.78	56142.43
540.95	56247.75
541.12	56245.41
541.29	56294.56
541.46	56346.06
541.62	56566.07
541.79	56650.33
541.96	56123.71
542.13	56559.05
542.30	56589.47
542.47	56610.54
542.63	56802.46
542.80	56727.56
542.97	56746.29
543.14	57097.37
543.31	56903.10
543.48	57102.05
543.64	57242.48
543.81	57516.32
543.98	57366.53
544.15	57261.21
544.32	57380.57
544.48	57352.49
544.65	57118.43
544.82	57378.23
544.99	57226.10
545.16	57436.75
545.32	57146.52
545.49	57565.48
545.66	57558.45
545.83	57429.72
546.00	57773.78
546.16	57567.82
546.33	57368.87
546.50	57284.61
546.67	57715.27
546.83	57160.56
547.00	57544.41
547.17	57513.98
547.34	57806.55
547.50	57808.89
547.67	57939.96
547.84	57736.34
548.00	57867.40
548.17	58068.69
548.34	57883.79
548.51	58010.18
548.67	58143.59
548.84	57970.39
549.01	58026.56
549.18	57921.24
549.34	58089.76
549.51	58295.72
549.68	58237.21
549.84	58101.46
550.01	58295.72
550.18	58351.90
550.34	58239.55
550.51	58365.94
550.68	58330.83
550.84	58169.33
551.01	58309.77
551.18	58389.34
551.34	58305.09
551.51	58443.18
551.68	58398.71
551.84	58700.64
552.01	58277.00
552.18	58461.90
552.34	58398.71
552.51	58485.31
552.68	58599.99
552.84	58721.70
553.01	58974.48
553.18	58597.65
553.34	58717.02
553.51	58513.39
553.67	58742.77
553.84	58791.92
554.01	58768.51
554.17	58981.50
554.34	58997.88
554.51	58805.96
554.67	59143.00
554.84	59025.97
555.00	58602.33
555.17	58899.58
555.33	59077.46
555.50	58918.31
555.67	58721.70
555.83	59107.89
556.00	59054.06
556.16	59264.70
556.33	59119.59
556.50	59210.87
556.66	59274.07
556.83	58838.73
556.99	59199.17
557.16	59288.11
557.32	59407.48
557.49	59381.73
557.65	59292.79
557.82	59278.75
557.98	59215.55
558.15	59423.86
558.32	59421.52
558.48	59231.94
558.65	59550.25
558.81	59299.81
558.98	59278.75
559.14	59756.22
559.31	59489.40
559.47	59690.68
559.64	59561.95
559.80	59517.48
559.97	59622.81
560.13	59442.59
560.30	59566.63
560.46	59615.79
560.63	59835.80
560.79	59784.30
560.96	59831.11
561.12	59728.13
561.29	59688.34
561.45	59690.68
561.61	59739.83
561.78	59716.43
561.94	59423.86
562.11	59906.01
562.27	59671.96
562.44	59877.93
562.60	60032.40
562.77	60130.70
562.93	59604.08
563.10	60062.83
563.26	59875.58
563.42	60116.66
563.59	59915.37
563.75	59868.56
563.92	59976.23
564.08	59889.63
564.24	59999.63
564.41	59924.74
564.57	59847.50
564.74	60004.31
564.90	60121.34
565.07	59934.10
565.23	59938.78
565.39	59891.97
565.56	60186.88
565.72	60079.21
565.88	60086.23
566.05	60121.34
566.21	59826.43
566.38	60196.24
566.54	60308.58
566.70	60130.70
566.87	60163.47
567.03	60130.70
567.19	60310.92
567.36	60013.68
567.52	60240.71
567.68	60488.80
567.85	60191.56
568.01	60355.39
568.17	60142.41
568.34	60245.39
568.50	60172.83
568.66	60107.30
568.83	60226.66
568.99	60217.30
569.15	60416.25
569.32	60346.03
569.48	60158.79
569.64	60420.93
569.81	60575.40
569.97	60310.92
570.13	60313.26
570.30	60107.30
570.46	60491.15
570.62	60285.18
570.78	60280.50
570.95	60479.44
571.11	60484.12
571.27	60411.57
571.43	60547.32
571.60	60626.90
571.76	60584.77
571.92	60507.53
572.09	60683.07
572.25	60514.55
572.41	60292.20
572.57	60467.74
572.74	60647.96
572.90	60528.59
573.06	60512.21
573.22	60619.88
573.38	60495.83
573.55	60594.13
573.71	60729.88
573.87	60683.07
574.03	60378.80
574.20	60640.94
574.36	60530.93
574.52	60507.53
574.68	60498.17
574.84	60786.05
575.01	60654.98
575.17	60640.94
575.33	60481.78
575.49	60488.80
575.65	60619.88
575.82	60643.28
575.98	60654.98
576.14	60769.67
576.30	60561.36
576.46	60619.88
576.62	60561.36
576.79	60530.93
576.95	60514.55
577.11	60711.16
577.27	60863.29
577.43	60774.35
577.59	60701.79
577.75	60659.66
577.92	60786.05
578.08	60662.00
578.24	60647.96
578.40	60879.67
578.56	60734.56
578.72	60769.67
578.88	60832.86
579.04	60760.31
579.21	60853.93
579.37	60996.70
579.53	60992.02
579.69	60465.40
579.85	60626.90
580.01	60474.76
580.17	60790.73
580.33	60942.87
580.49	60928.83
580.65	60884.36
580.82	60706.47
580.98	60650.30
581.14	60804.78
581.30	61076.28
581.46	60884.36
581.62	60774.35
581.78	60802.44
581.94	60814.14
582.10	60790.73
582.26	60746.26
582.42	60629.24
582.58	60762.65
582.74	60865.63
582.90	60729.88
583.06	60636.26
583.22	60753.29
583.38	60945.21
583.54	60795.42
583.70	60828.18
583.86	60959.25
584.02	60701.79
584.18	60970.96
584.34	60882.02
584.50	60931.17
584.66	60963.93
584.82	60713.50
584.98	60896.06
585.14	60879.67
585.30	60949.89
585.46	61043.51
585.62	60954.57
585.78	60942.87
585.94	60750.94
586.10	60872.65
586.26	60893.72
586.42	60804.78
586.58	60968.61
586.74	60968.61
586.90	60849.25
587.06	60870.31
587.22	60874.99
587.38	60917.12
587.54	61073.94
587.70	61064.58
587.86	61104.37
588.02	61095.00
588.18	61041.17
588.34	61097.34
588.49	60860.95
