SpectraSuite Data File
++++++++++++++++++++++++++++++++++++
Date: Fri Oct 25 11:24:08 EDT 2013
User: price-jones
Dark Spectrum Present: No
Reference Spectrum Present: No
Number of Sampled Component Spectra: 1
Spectrometers: USB2+H05261
Integration Time (usec): 100000 (USB2+H05261)
Spectra Averaged: 1 (USB2+H05261)
Boxcar Smoothing: 0 (USB2+H05261)
Correct for Electrical Dark: No (USB2+H05261)
Strobe/Lamp Enabled: No (USB2+H05261)
Correct for Detector Non-linearity: No (USB2+H05261)
Correct for Stray Light: No (USB2+H05261)
Number of Pixels in Processed Spectrum: 2048
>>>>>Begin Processed Spectral Data<<<<<
365.73	280.86
365.92	280.86
366.12	280.86
366.32	198.95
366.52	98.30
366.72	203.63
366.91	93.62
367.11	74.90
367.31	175.54
367.51	91.28
367.70	170.86
367.90	156.82
368.10	110.01
368.30	173.20
368.49	117.03
368.69	147.45
368.89	105.32
369.09	117.03
369.28	201.29
369.48	117.03
369.68	152.13
369.87	168.52
370.07	187.24
370.27	177.88
370.47	280.86
370.66	641.31
370.86	655.35
371.06	596.84
371.25	690.46
371.45	711.52
371.65	716.20
371.84	739.61
372.04	692.80
372.24	681.10
372.44	650.67
372.63	692.80
372.83	709.18
373.03	704.50
373.22	774.72
373.42	737.27
373.62	716.20
373.81	870.68
374.01	882.38
374.21	851.96
374.40	812.17
374.60	891.74
374.79	814.51
374.99	856.64
375.19	802.80
375.38	866.00
375.58	770.04
375.78	784.08
375.97	786.42
376.17	990.05
376.37	840.25
376.56	875.36
376.76	786.42
376.95	805.14
377.15	880.04
377.35	901.11
377.54	882.38
377.74	847.27
377.93	929.19
378.13	844.93
378.33	912.81
378.52	856.64
378.72	912.81
378.91	919.83
379.11	915.15
379.31	889.40
379.50	964.30
379.70	947.92
379.89	947.92
380.09	1013.45
380.28	1022.81
380.48	966.64
380.68	947.92
380.87	990.05
381.07	1013.45
381.26	1083.67
381.46	1109.41
381.65	1048.56
381.85	1020.47
382.04	950.26
382.24	1107.07
382.43	1048.56
382.63	1071.97
382.83	1167.93
383.02	1153.88
383.22	1053.24
383.41	1111.75
383.61	1069.62
383.80	1128.14
384.00	1013.45
384.19	1135.16
384.39	1139.84
384.58	1188.99
384.78	1114.10
384.97	1186.65
385.17	1165.59
385.36	1170.27
385.56	1193.67
385.75	1118.78
385.95	1149.20
386.14	1219.42
386.34	1163.25
386.53	1228.78
386.72	1132.82
386.92	1188.99
387.11	1210.06
387.31	1224.10
387.50	1172.61
387.70	1261.55
387.89	1238.14
388.09	1341.13
388.28	1205.38
388.48	1242.82
388.67	1378.58
388.86	1291.98
389.06	1345.81
389.25	1320.06
389.45	1294.32
389.64	1299.00
389.84	1334.11
390.03	1306.02
390.22	1320.06
390.42	1411.34
390.61	1455.81
390.81	1420.71
391.00	1458.15
391.19	1453.47
391.39	1479.22
391.58	1460.49
391.78	1439.43
391.97	1460.49
392.16	1432.41
392.36	1575.18
392.55	1509.65
392.75	1521.35
392.94	1542.41
393.13	1593.90
393.33	1732.00
393.52	1584.54
393.71	1549.43
393.91	1626.67
394.10	1570.50
394.29	1603.27
394.49	1596.25
394.68	1591.56
394.88	1605.61
395.07	1703.91
395.26	1661.78
395.46	1645.40
395.65	1689.87
395.84	1736.68
396.04	1806.89
396.23	1774.13
396.42	1636.03
396.62	1736.68
396.81	1811.57
397.00	1762.42
397.19	1809.23
397.39	1998.82
397.58	1865.41
397.77	1884.13
397.97	1849.02
398.16	1980.09
398.35	1863.07
398.55	1790.51
398.74	1802.21
398.93	1949.67
399.12	1952.01
399.32	1914.56
399.51	1980.09
399.70	2036.27
399.90	1984.77
400.09	2019.88
400.28	2029.24
400.47	2022.22
400.67	2106.48
400.86	2012.86
401.05	2106.48
401.24	2134.57
401.44	2120.53
401.63	2246.91
401.82	2134.57
402.01	2108.82
402.21	2200.10
402.40	2223.51
402.59	2139.25
402.78	2347.56
402.97	2195.42
403.17	2221.17
403.36	2244.57
403.55	2307.77
403.74	2375.64
403.93	2448.20
404.13	2361.60
404.32	2305.43
404.51	2408.41
404.70	2392.03
404.89	2410.75
405.09	2502.03
405.28	2537.14
405.47	2417.77
405.66	2476.29
405.85	2518.42
406.05	2532.46
406.24	2583.95
406.43	2583.95
406.62	2670.55
406.81	2644.81
407.00	2539.48
407.20	2534.80
407.39	2572.25
407.58	2708.00
407.77	2637.78
407.96	2717.36
408.15	2726.72
408.34	2661.19
408.54	2942.05
408.73	2764.17
408.92	2747.79
409.11	2778.22
409.30	2967.80
409.49	2869.50
409.68	2876.52
409.87	2874.18
410.07	3096.53
410.26	3016.95
410.45	3082.49
410.64	3061.42
410.83	3180.79
411.02	3070.78
411.21	3272.07
411.40	3197.17
411.59	3206.53
411.78	3056.74
411.98	3269.73
412.17	3325.90
412.36	3152.70
412.55	3311.86
412.74	3440.59
412.93	3466.33
413.12	3386.76
413.31	3648.90
413.50	3585.70
413.69	3482.72
413.88	3492.08
414.07	3693.37
414.26	3637.19
414.45	3625.49
414.64	3669.96
414.83	3686.34
415.02	3616.13
415.22	3911.04
415.41	3829.12
415.60	3894.65
415.79	4002.32
415.98	4039.76
416.17	4009.34
416.36	3946.14
416.55	3922.74
416.74	3992.95
416.93	4002.32
417.12	4058.49
417.31	4219.99
417.50	4325.31
417.69	4283.18
417.88	4273.82
418.07	4493.83
418.26	4325.31
418.45	4322.97
418.64	4540.64
418.83	4482.13
419.02	4463.40
419.21	4447.02
419.39	4454.04
419.58	4557.02
419.77	4564.04
419.96	4496.17
420.15	4652.98
420.34	4486.81
420.53	4465.74
420.72	4699.80
420.91	4702.14
421.10	4713.84
421.29	4770.01
421.48	4774.69
421.67	4842.57
421.86	4875.34
422.05	4826.18
422.24	4863.63
422.43	4971.30
422.61	4929.17
422.80	4954.91
422.99	4873.00
423.18	4924.49
423.37	4999.38
423.56	4779.37
423.75	4978.32
423.94	5004.07
424.13	4709.16
424.32	4730.22
424.50	5020.45
424.69	5146.84
424.88	5130.45
425.07	4980.66
425.26	4870.65
425.45	4882.36
425.64	4964.28
425.83	4896.40
426.01	5123.43
426.20	5025.13
426.39	5036.83
426.58	5282.59
426.77	5095.35
426.96	5224.08
427.15	5093.01
427.33	5355.15
427.52	5259.18
427.71	5132.79
427.90	5308.34
428.09	5301.31
428.28	5357.49
428.46	5434.72
428.65	5355.15
428.84	5451.11
429.03	5617.29
429.22	5331.74
429.40	5673.46
429.59	5680.48
429.78	5390.25
429.97	5254.50
430.16	5331.74
430.34	5591.54
430.53	5687.50
430.72	5771.76
430.91	5724.95
431.10	5804.53
431.28	5753.04
431.47	5717.93
431.66	5792.83
431.85	5830.27
432.03	6076.03
432.22	5996.45
432.41	5994.11
432.60	5973.05
432.79	6022.20
432.97	6059.65
433.16	6207.10
433.35	6038.58
433.54	6141.57
433.72	6277.32
433.91	6174.33
434.10	6033.90
434.28	6036.24
434.47	6085.39
434.66	6321.79
434.85	6408.39
435.03	6384.98
435.22	6298.38
435.41	6558.18
435.59	6333.49
435.78	6525.41
435.97	6539.46
436.16	6497.33
436.34	6537.12
436.53	6541.80
436.72	6614.35
436.90	6504.35
437.09	6612.01
437.28	6590.95
437.46	6607.33
437.65	6705.63
437.84	6885.86
438.02	6764.15
438.21	6862.45
438.40	6722.02
438.58	7220.55
438.77	7190.13
438.96	7087.14
439.14	7145.66
439.33	7066.08
439.52	7180.76
439.70	7140.97
439.89	7236.94
440.08	7449.93
440.26	7513.12
440.45	7506.10
440.63	7555.25
440.82	7658.23
441.01	7658.23
441.19	7719.09
441.38	7552.91
441.57	7770.58
441.75	7817.39
441.94	8016.33
442.12	7896.97
442.31	8238.69
442.50	8116.98
442.68	7899.31
442.87	8266.77
443.05	8231.66
443.24	8266.77
443.43	8088.89
443.61	8180.17
443.80	8627.21
443.98	7988.25
444.17	7941.44
444.35	8166.13
444.54	8402.52
444.73	8369.76
444.91	8287.84
445.10	8456.36
445.28	8463.38
445.47	8416.57
445.65	8542.96
445.84	8479.76
446.02	8524.23
446.21	8461.04
446.39	8386.14
446.58	8339.33
446.77	8421.25
446.95	8320.60
447.14	8648.28
447.32	8695.09
447.51	8383.80
447.69	8594.45
447.88	8683.39
448.06	8587.43
448.25	8692.75
448.43	8688.07
448.62	8657.64
448.80	8659.98
448.99	8730.20
449.17	8877.65
449.36	8650.62
449.54	8975.95
449.73	9076.60
449.91	8753.60
450.10	9144.47
450.28	9100.00
450.46	9205.33
450.65	9001.70
450.83	8992.34
451.02	9064.89
451.20	9336.40
451.39	9146.81
451.57	9118.73
451.76	9242.78
451.94	9273.20
452.13	9472.15
452.31	9298.95
452.49	9263.84
452.68	9406.61
452.86	9525.98
453.05	9535.34
453.23	9750.67
453.42	9441.72
453.60	9397.25
453.78	9542.36
453.97	9678.12
454.15	9631.30
454.34	9708.54
454.52	10015.15
454.70	9848.97
454.89	9767.06
455.07	9795.14
455.26	9858.34
455.44	10017.49
455.62	10104.09
455.81	9958.98
455.99	10244.52
456.17	10059.62
456.36	10216.44
456.54	10153.24
456.73	10335.81
456.91	10593.26
457.09	10544.11
457.28	10635.39
457.46	10511.35
457.64	10663.48
457.83	10466.88
458.01	10546.45
458.19	10923.28
458.38	10661.14
458.56	10902.22
458.74	10747.74
458.93	10736.04
459.11	10974.77
459.29	10806.25
459.48	10841.36
459.66	10691.57
459.84	10970.09
460.03	11229.89
460.21	11180.74
460.39	10899.87
460.57	10981.79
460.76	11265.00
460.94	11126.91
461.12	11389.05
461.31	11314.15
461.49	11269.68
461.67	11183.08
461.85	11571.61
462.04	11410.11
462.22	11782.26
462.40	11639.48
462.59	11566.93
462.77	11690.98
462.95	11758.85
463.13	11836.09
463.32	11522.46
463.50	11660.55
463.68	12035.03
463.86	11634.80
464.05	11695.66
464.23	11925.03
464.41	11878.22
464.59	11964.82
464.78	12208.23
464.96	12105.25
465.14	11824.39
465.32	12156.74
465.50	12297.17
465.69	12205.89
465.87	12133.34
466.05	12119.29
466.23	12463.35
466.41	12517.18
466.60	12547.61
466.78	12379.09
466.96	12484.42
467.14	12173.13
467.32	12554.63
467.51	12643.57
467.69	12428.24
467.87	12486.76
468.05	12732.51
468.23	12388.46
468.41	12437.61
468.60	12519.53
468.78	13048.49
468.96	12645.91
469.14	12985.29
469.32	12980.61
469.50	12690.38
469.69	13308.29
469.87	13238.07
470.05	13380.84
470.23	13376.16
470.41	13259.13
470.59	13523.62
470.77	13514.25
470.95	13397.23
471.14	13942.57
471.32	13411.27
471.50	13767.03
471.68	13764.69
471.86	13940.23
472.04	13837.25
472.22	14148.54
472.40	13968.32
472.58	13827.88
472.77	14155.56
472.95	14087.68
473.13	14768.78
473.31	14211.73
473.49	14075.98
473.67	14263.22
473.85	14284.29
474.03	14614.30
474.21	14810.91
474.39	14927.94
474.57	14721.97
474.75	14843.68
474.93	15316.47
475.12	15080.07
475.30	15332.85
475.48	15257.95
475.66	15227.53
475.84	15370.30
476.02	15269.66
476.20	15449.88
476.38	15627.76
476.56	16203.53
476.74	16060.76
476.92	16020.97
477.10	15681.59
477.28	16423.54
477.46	16299.49
477.64	16418.86
477.82	16545.25
478.00	17036.76
478.18	17170.17
478.36	17422.95
478.54	17160.81
478.72	17209.96
478.90	17568.06
479.08	17558.70
479.26	17776.37
479.44	17626.57
479.62	18225.75
479.80	18174.26
479.98	18443.42
480.16	18714.92
480.34	18340.44
480.52	18656.41
480.70	18941.96
480.88	18633.00
481.06	18574.49
481.24	19061.32
481.41	19330.48
481.59	19384.32
481.77	19800.93
481.95	19840.72
482.13	19782.21
482.31	19770.51
482.49	20388.41
482.67	20329.89
482.85	20587.35
483.03	20575.65
483.21	20615.44
483.39	21312.92
483.57	20966.52
483.74	21055.46
483.92	21717.83
484.10	21305.90
484.28	22043.17
484.46	22204.66
484.64	22317.01
484.82	21713.15
485.00	22731.28
485.18	22946.61
485.35	23030.87
485.53	23005.13
485.71	23115.13
485.89	23786.86
486.07	23454.51
486.25	23662.82
486.43	24093.47
486.61	23658.14
486.78	24423.49
486.96	24142.63
487.14	25214.59
487.32	24449.24
487.50	25113.95
487.68	24938.41
487.85	25708.44
488.03	25694.40
488.21	26305.28
488.39	25930.80
488.57	26291.24
488.75	26270.17
488.92	26719.56
489.10	26991.06
489.28	26815.52
489.46	27445.12
489.64	27026.17
489.81	28261.97
489.99	27765.78
490.17	27950.68
490.35	28456.23
490.53	28531.13
490.70	28547.51
490.88	28322.82
491.06	29057.75
491.24	28961.79
491.41	29350.32
491.59	29427.56
491.77	29500.11
491.95	29507.13
492.13	29748.21
492.30	30225.68
492.48	30274.83
492.66	30253.76
492.84	30815.49
493.01	30991.03
493.19	30712.51
493.37	31166.57
493.54	31826.60
493.72	31920.23
493.90	31557.44
494.08	32369.61
494.25	32290.03
494.43	32786.22
494.61	32353.23
494.79	32655.15
494.96	32821.33
495.14	32781.54
495.32	33500.09
495.49	33209.86
495.67	33567.96
495.85	33535.20
496.02	33989.26
496.20	34576.73
496.38	34003.30
496.55	34225.65
496.73	34726.53
496.91	34876.32
497.09	34597.80
497.26	35328.05
497.44	35344.43
497.62	35604.23
497.79	36341.50
497.97	35440.39
498.14	36055.95
498.32	36638.75
498.50	36318.09
498.67	36823.65
498.85	36875.14
499.03	37034.30
499.20	37081.11
499.38	37432.19
499.56	37457.93
499.73	37207.50
499.91	37240.26
500.08	38312.23
500.26	37818.38
500.44	37764.54
500.61	37914.34
500.79	37764.54
500.97	37923.70
501.14	38880.98
501.32	38691.40
501.49	39225.04
501.67	38911.41
501.84	39468.45
502.02	39093.97
502.20	39360.79
502.37	39578.46
502.55	39852.30
502.72	39550.37
502.90	39494.20
503.07	39934.22
503.25	40172.96
503.43	39978.69
503.60	40561.48
503.78	40341.47
503.95	40554.46
504.13	40821.28
504.30	40776.81
504.48	40402.33
504.65	41069.38
504.83	41432.16
505.01	41965.81
505.18	41322.16
505.36	41907.29
505.53	41198.11
505.71	41375.99
505.88	42066.45
506.06	41818.35
506.23	41991.55
506.41	42033.68
506.58	42543.92
506.76	42543.92
506.93	43161.82
507.11	42611.79
507.28	42962.87
507.46	42960.53
507.63	43086.92
507.81	43906.11
507.98	43295.23
508.16	43430.98
508.33	43887.39
508.50	44062.93
508.68	43578.43
508.85	44287.62
509.03	44210.38
509.20	44165.91
509.38	44502.95
509.55	44701.89
509.73	44364.85
509.90	44795.51
510.08	44753.38
510.25	44971.05
510.42	45064.67
510.60	45263.62
510.77	45574.91
510.95	45841.73
511.12	45645.13
511.30	45350.22
511.47	45624.06
511.64	45710.66
511.82	45907.27
511.99	45968.12
512.17	46581.34
512.34	46052.38
512.51	46981.57
512.69	46752.20
512.86	46557.94
513.04	47014.34
513.21	46911.36
513.38	46782.63
513.56	46817.74
513.73	47056.47
513.90	47133.71
514.08	47192.22
514.25	47168.82
514.43	47662.67
514.60	47634.58
514.77	47739.91
514.95	47868.64
515.12	47990.34
515.29	47660.33
515.47	48102.69
515.64	48243.12
515.81	48020.77
515.99	48418.66
516.16	48645.69
516.33	48626.97
516.51	48769.74
516.68	48849.32
516.85	48622.29
517.03	48659.74
517.20	49148.91
517.37	49148.91
517.54	49074.01
517.72	49045.93
517.89	49324.45
518.06	49392.33
518.24	49628.72
518.41	49577.23
518.58	49537.44
518.75	49675.53
518.93	49851.07
519.10	49607.65
519.27	49837.03
519.45	50064.06
519.62	50244.28
519.79	50181.09
519.96	50141.30
520.14	50578.98
520.31	50653.87
520.48	50614.08
520.65	50490.04
520.83	51201.56
521.00	50990.91
521.17	50749.84
521.34	50677.28
521.52	51040.06
521.69	51030.70
521.86	51360.72
522.03	51489.45
522.20	51686.05
522.38	51690.73
522.55	51590.09
522.72	51552.64
522.89	51896.70
523.07	51601.79
523.24	51931.81
523.41	51959.89
523.58	51601.79
523.75	52182.24
523.92	51980.96
524.10	52334.38
524.27	52474.81
524.44	52376.51
524.61	52568.43
524.78	52369.49
524.96	52598.86
525.13	52594.18
525.30	52535.66
525.47	52886.74
525.64	52823.55
525.81	52814.19
525.98	52973.34
526.16	52655.03
526.33	52605.88
526.50	53118.46
526.67	53041.22
526.84	53216.76
527.01	52760.36
527.18	53319.74
527.36	52914.83
527.53	53600.61
527.70	53829.98
527.87	53521.03
528.04	53233.14
528.21	53532.73
528.38	53530.39
528.55	53762.11
528.72	53673.16
528.89	53478.90
529.07	53602.95
529.24	53595.93
529.41	53897.86
529.58	54038.29
529.75	53790.19
529.92	54164.68
530.09	54054.67
530.26	54007.86
530.43	54167.02
530.60	54113.19
530.77	54005.52
530.94	54227.87
531.11	54150.63
531.28	54307.45
531.46	54312.13
531.63	54277.02
531.80	54246.60
531.97	54740.45
532.14	54499.37
532.31	54672.57
532.48	54576.61
532.65	54642.15
532.82	55011.95
532.99	54892.58
533.16	54958.12
533.33	55016.63
533.50	55147.70
533.67	55182.81
533.84	54850.45
534.01	55229.62
534.18	55044.72
534.35	55351.33
534.52	55412.18
534.69	55543.25
534.86	55370.05
535.03	55260.05
535.20	55470.70
535.37	55386.44
535.54	55515.17
535.71	55276.43
535.88	55477.72
536.05	55433.25
536.22	55852.20
536.38	55994.98
536.55	55559.64
536.72	55744.54
536.89	55695.39
537.06	55906.04
537.23	55934.12
537.40	55639.22
537.57	55955.19
537.74	55903.70
537.91	56123.71
538.08	56236.05
538.25	56086.26
538.42	56296.91
538.59	56416.27
538.75	56179.88
538.92	56210.31
539.09	56456.06
539.26	56250.09
539.43	56189.24
539.60	56526.28
539.77	56521.60
539.94	56591.81
540.11	56582.45
540.28	56617.56
540.44	56655.01
540.61	56514.58
540.78	56191.58
540.95	56638.62
541.12	56535.64
541.29	56736.93
541.46	56640.96
541.62	56919.49
541.79	56718.20
541.96	56741.61
542.13	56638.62
542.30	56755.65
542.47	57092.69
542.63	56931.19
542.80	57195.67
542.97	57396.96
543.14	57333.76
543.31	57457.81
543.48	57303.34
543.64	57427.38
543.81	57326.74
543.98	57577.18
544.15	57537.39
544.32	57635.69
544.48	57614.63
544.65	57457.81
544.82	57513.98
544.99	57670.80
545.16	57563.14
545.32	57490.58
545.49	58005.50
545.66	57883.79
545.83	58040.60
546.00	57954.00
546.16	57654.42
546.33	57766.76
546.50	57619.31
546.67	57918.90
546.83	57748.04
547.00	57993.79
547.17	57764.42
547.34	57853.36
547.50	57993.79
547.67	58213.80
547.84	58211.46
548.00	58185.72
548.17	58436.16
548.34	58225.51
548.51	58492.33
548.67	58417.43
548.84	58419.77
549.01	58136.57
549.18	58426.79
549.34	58244.23
549.51	58473.60
549.68	58777.87
549.84	58504.03
550.01	58693.61
550.18	58506.37
550.34	58473.60
550.51	58658.51
550.68	58773.19
550.84	58387.00
551.01	58714.68
551.18	58642.12
551.34	58625.74
551.51	58934.69
551.68	58801.28
551.84	58866.81
552.01	58585.95
552.18	58749.79
552.34	58614.04
552.51	59007.25
552.68	58532.12
552.84	58805.96
553.01	59128.95
553.18	58901.92
553.34	59276.41
553.51	59004.91
553.67	59054.06
553.84	59086.82
554.01	59000.22
554.17	59255.34
554.34	59260.02
554.51	59072.78
554.67	59304.49
554.84	59330.24
555.00	59337.26
555.17	59189.81
555.33	59208.53
555.50	59175.76
555.67	59330.24
555.83	59002.56
556.00	59281.09
556.16	59590.04
556.33	59613.44
556.50	59433.22
556.66	59592.38
556.83	59145.34
556.99	59501.10
557.16	59580.68
557.32	59639.19
557.49	59716.43
557.65	59700.04
557.82	59632.17
557.98	59681.32
558.15	59618.13
558.32	59625.15
558.48	59468.33
558.65	59578.34
558.81	59826.43
558.98	59835.80
559.14	59840.48
559.31	59756.22
559.47	59955.16
559.64	59847.50
559.80	59845.16
559.97	59821.75
560.13	59756.22
560.30	59990.27
560.46	60032.40
560.63	60107.30
560.79	60011.34
560.96	60074.53
561.12	60023.04
561.29	60055.81
561.45	59915.37
561.61	59866.22
561.78	60001.97
561.94	60006.65
562.11	59906.01
562.27	60060.49
562.44	60217.30
562.60	60121.34
562.77	60259.43
562.93	60135.38
563.10	60320.29
563.26	60100.28
563.42	60313.26
563.59	60200.92
563.75	60207.94
563.92	60226.66
564.08	60161.13
564.24	60388.16
564.41	60245.39
564.57	60240.71
564.74	60186.88
564.90	60411.57
565.07	60378.80
565.23	60313.26
565.39	60278.16
565.56	60392.84
565.72	60357.74
565.88	60399.86
566.05	60470.08
566.21	60214.96
566.38	60549.66
566.54	60444.33
566.70	60519.23
566.87	60479.44
567.03	60250.07
567.19	60573.06
567.36	60299.22
567.52	60477.10
567.68	60582.43
567.85	60451.36
568.01	60486.46
568.17	60425.61
568.34	60619.88
568.50	60582.43
568.66	60601.15
568.83	60577.75
568.99	60484.12
569.15	60521.57
569.32	60594.13
569.48	60477.10
569.64	60743.92
569.81	60680.73
569.97	60570.72
570.13	60687.75
570.30	60425.61
570.46	60561.36
570.62	60683.07
570.78	60662.00
570.95	60727.54
571.11	60856.27
571.27	60575.40
571.43	60685.41
571.60	60907.76
571.76	60753.29
571.92	61064.58
572.09	60711.16
572.25	60727.54
572.41	60643.28
572.57	60924.14
572.74	60921.80
572.90	60912.44
573.06	61020.11
573.22	60942.87
573.38	60638.60
573.55	60926.49
573.71	61080.96
573.87	61181.60
574.03	60636.26
574.20	60781.37
574.36	60802.44
574.52	61013.08
574.68	61102.03
574.84	61055.21
575.01	61010.74
575.17	60830.52
575.33	60961.59
575.49	60722.86
575.65	61020.11
575.82	60961.59
575.98	60933.51
576.14	61137.13
576.30	60940.53
576.46	61001.38
576.62	60860.95
576.79	60856.27
576.95	60802.44
577.11	60987.34
577.27	60870.31
577.43	60907.76
577.59	60807.12
577.75	61020.11
577.92	60860.95
578.08	61041.17
578.24	60907.76
578.40	61097.34
578.56	61034.15
578.72	61008.40
578.88	61078.62
579.04	61043.51
579.21	60999.04
579.37	61160.54
579.53	61148.84
579.69	60828.18
579.85	61244.80
580.01	60999.04
580.17	60837.54
580.33	60924.14
580.49	61188.63
580.65	61139.47
580.82	61146.50
580.98	60977.98
581.14	60968.61
581.30	61214.37
581.46	61050.53
581.62	61212.03
581.78	61190.97
581.94	61085.64
582.10	61174.58
582.26	61078.62
582.42	60994.36
582.58	61298.63
582.74	61113.73
582.90	60956.91
583.06	60982.66
583.22	60842.23
583.38	61083.30
583.54	61188.63
583.70	61200.33
583.86	61226.07
584.02	60903.08
584.18	61324.38
584.34	61261.18
584.50	61270.54
584.66	61041.17
584.82	61059.90
584.98	61258.84
585.14	61228.41
585.30	61200.33
585.46	61305.65
585.62	61116.07
585.78	61338.42
585.94	60980.32
586.10	61127.77
586.26	61073.94
586.42	61364.17
586.58	61338.42
586.74	61345.44
586.90	61085.64
587.06	61270.54
587.22	61408.64
587.38	61249.48
587.54	61485.87
587.70	61315.01
587.86	61214.37
588.02	61078.62
588.18	61312.67
588.34	61078.62
588.49	61212.03
