SpectraSuite Data File
++++++++++++++++++++++++++++++++++++
Date: Fri Oct 25 11:25:58 EDT 2013
User: price-jones
Dark Spectrum Present: No
Reference Spectrum Present: No
Number of Sampled Component Spectra: 1
Spectrometers: USB2+H05261
Integration Time (usec): 100000 (USB2+H05261)
Spectra Averaged: 1 (USB2+H05261)
Boxcar Smoothing: 0 (USB2+H05261)
Correct for Electrical Dark: No (USB2+H05261)
Strobe/Lamp Enabled: No (USB2+H05261)
Correct for Detector Non-linearity: No (USB2+H05261)
Correct for Stray Light: No (USB2+H05261)
Number of Pixels in Processed Spectrum: 2048
>>>>>Begin Processed Spectral Data<<<<<
365.73	266.82
365.92	266.82
366.12	266.82
366.32	166.18
366.52	110.01
366.72	161.50
366.91	163.84
367.11	70.22
367.31	79.58
367.51	98.30
367.70	131.07
367.90	100.64
368.10	49.15
368.30	173.20
368.49	149.79
368.69	154.48
368.89	81.92
369.09	180.22
369.28	168.52
369.48	175.54
369.68	191.92
369.87	234.05
370.07	271.50
370.27	273.84
370.47	332.36
370.66	650.67
370.86	606.20
371.06	674.07
371.25	699.82
371.45	681.10
371.65	662.37
371.84	629.60
372.04	634.29
372.24	678.76
372.44	706.84
372.63	706.84
372.83	739.61
373.03	793.44
373.22	753.65
373.42	772.38
373.62	777.06
373.81	765.36
374.01	816.85
374.21	849.61
374.40	877.70
374.60	713.86
374.79	819.19
374.99	894.08
375.19	844.93
375.38	868.34
375.58	844.93
375.78	833.23
375.97	903.45
376.17	926.85
376.37	833.23
376.56	971.32
376.76	866.00
376.95	851.96
377.15	931.53
377.35	861.32
377.54	929.19
377.74	826.21
377.93	947.92
378.13	894.08
378.33	940.90
378.52	945.58
378.72	901.11
378.91	931.53
379.11	997.07
379.31	861.32
379.50	919.83
379.70	985.37
379.89	1029.84
380.09	1013.45
380.28	1013.45
380.48	1062.60
380.68	1074.31
380.87	1006.43
381.07	999.41
381.26	971.32
381.46	976.00
381.65	1006.43
381.85	1004.09
382.04	1064.94
382.24	1039.20
382.43	1074.31
382.63	1111.75
382.83	1004.09
383.02	1146.86
383.22	1088.35
383.41	1053.24
383.61	1071.97
383.80	1142.18
384.00	1186.65
384.19	1086.01
384.39	1128.14
384.58	1093.03
384.78	1163.25
384.97	1163.25
385.17	1156.22
385.36	1165.59
385.56	1315.38
385.75	1125.80
385.95	1179.63
386.14	1149.20
386.34	1163.25
386.53	1174.95
386.72	1315.38
386.92	1256.87
387.11	1303.68
387.31	1261.55
387.50	1193.67
387.70	1266.23
387.89	1249.85
388.09	1287.29
388.28	1217.08
388.48	1289.64
388.67	1268.57
388.86	1303.68
389.06	1394.96
389.25	1378.58
389.45	1394.96
389.64	1324.74
389.84	1394.96
390.03	1306.02
390.22	1392.62
390.42	1411.34
390.61	1394.96
390.81	1320.06
391.00	1277.93
391.19	1373.89
391.39	1427.73
391.58	1406.66
391.78	1441.77
391.97	1497.94
392.16	1476.88
392.36	1528.37
392.55	1423.05
392.75	1547.09
392.94	1516.67
393.13	1507.30
393.33	1490.92
393.52	1614.97
393.71	1624.33
393.91	1638.38
394.10	1533.05
394.29	1650.08
394.49	1607.95
394.68	1626.67
394.88	1675.82
395.07	1631.35
395.26	1643.06
395.46	1673.48
395.65	1666.46
395.84	1736.68
396.04	1722.63
396.23	1767.10
396.42	1722.63
396.62	1682.85
396.81	1797.53
397.00	1863.07
397.19	1785.83
397.39	1865.41
397.58	1907.54
397.77	1790.51
397.97	1881.79
398.16	1802.21
398.35	1891.15
398.55	1823.28
398.74	1973.07
398.93	1827.96
399.12	1959.03
399.32	1926.26
399.51	1923.92
399.70	1998.82
399.90	1987.11
400.09	1966.05
400.28	1975.41
400.47	2057.33
400.67	2087.76
400.86	2054.99
401.05	2134.57
401.24	2111.16
401.44	2054.99
401.63	2092.44
401.82	2125.21
402.01	2078.40
402.21	2176.70
402.40	2207.13
402.59	2129.89
402.78	2160.31
402.97	2235.21
403.17	2291.38
403.36	2284.36
403.55	2225.85
403.74	2263.30
403.93	2286.70
404.13	2394.37
404.32	2312.45
404.51	2422.45
404.70	2307.77
404.89	2377.98
405.09	2443.52
405.28	2551.18
405.47	2427.14
405.66	2408.41
405.85	2633.10
406.05	2546.50
406.24	2560.55
406.43	2495.01
406.62	2693.96
406.81	2696.30
407.00	2609.70
407.20	2565.23
407.39	2654.17
407.58	2736.09
407.77	2689.28
407.96	2698.64
408.15	2883.54
408.34	2682.25
408.54	2759.49
408.73	2637.78
408.92	2829.71
409.11	2832.05
409.30	2864.82
409.49	2911.63
409.68	2885.88
409.87	2848.43
410.07	3028.65
410.26	3000.57
410.45	2939.71
410.64	3061.42
410.83	3068.44
411.02	3122.27
411.21	3258.03
411.40	3150.36
411.59	3227.60
411.78	3246.32
411.98	3297.81
412.17	3131.64
412.36	3424.20
412.55	3290.79
412.74	3431.23
412.93	3447.61
413.12	3339.94
413.31	3492.08
413.50	3405.48
413.69	3585.70
413.88	3578.68
414.07	3501.44
414.26	3576.34
414.45	3639.53
414.64	3524.85
414.83	3728.47
415.02	3627.83
415.22	3803.37
415.41	3819.75
415.60	3889.97
415.79	3929.76
415.98	3950.82
416.17	3983.59
416.36	3962.53
416.55	3964.87
416.74	3974.23
416.93	4002.32
417.12	4063.17
417.31	4131.05
417.50	4241.05
417.69	4191.90
417.88	4224.67
418.07	4397.87
418.26	4292.54
418.45	4294.88
418.64	4454.04
418.83	4402.55
419.02	4360.42
419.21	4526.60
419.39	4463.40
419.58	4388.50
419.77	4486.81
419.96	4568.73
420.15	4650.64
420.34	4617.88
420.53	4512.55
420.72	4582.77
420.91	4589.79
421.10	4786.40
421.29	4727.88
421.48	4645.96
421.67	4755.97
421.86	4727.88
422.05	4681.07
422.24	4774.69
422.43	4983.00
422.61	4819.16
422.80	4861.29
422.99	4844.91
423.18	4835.55
423.37	5027.47
423.56	4887.04
423.75	4865.97
423.94	4812.14
424.13	4627.24
424.32	4781.71
424.50	5097.69
424.69	5097.69
424.88	4978.32
425.07	5015.77
425.26	4823.84
425.45	4997.04
425.64	5050.88
425.83	4873.00
426.01	4912.78
426.20	4922.15
426.39	4945.55
426.58	5184.29
426.77	5177.26
426.96	5018.11
427.15	5093.01
427.33	5259.18
427.52	5137.48
427.71	5303.65
427.90	5240.46
428.09	5238.12
428.28	5451.11
428.46	5305.99
428.65	5270.89
428.84	5451.11
429.03	5549.41
429.22	5359.83
429.40	5434.72
429.59	5556.43
429.78	5224.08
429.97	5343.44
430.16	5537.71
430.34	5542.39
430.53	5533.03
430.72	5701.54
430.91	5341.10
431.10	5598.56
431.28	5722.61
431.47	5778.78
431.66	5753.04
431.85	5675.80
432.03	5863.04
432.22	5926.24
432.41	5799.85
432.60	5954.32
432.79	5799.85
432.97	6193.06
433.16	6052.63
433.35	6050.28
433.54	6087.73
433.72	6101.78
433.91	6010.50
434.10	6150.93
434.28	6083.05
434.47	6420.09
434.66	6017.52
434.85	6202.42
435.03	6298.38
435.22	6349.87
435.41	6401.37
435.59	6530.09
435.78	6480.94
435.97	6527.75
436.16	6485.62
436.34	6476.26
436.53	6471.58
436.72	6614.35
436.90	6413.07
437.09	6637.76
437.28	6368.60
437.46	6565.20
437.65	6663.51
437.84	6682.23
438.02	6761.81
438.21	6871.81
438.40	6696.27
438.58	6883.52
438.77	6960.75
438.96	6832.02
439.14	7098.84
439.33	6963.09
439.52	7187.79
439.70	7194.81
439.89	7363.33
440.08	7309.49
440.26	7325.88
440.45	7190.13
440.63	7332.90
440.82	7770.58
441.01	7456.95
441.19	7637.17
441.38	7604.40
441.57	7754.19
441.75	7957.82
441.94	7808.03
442.12	7857.18
442.31	8121.66
442.50	8065.49
442.68	8028.04
442.87	8021.02
443.05	8025.70
443.24	8327.63
443.43	8163.79
443.61	8004.63
443.80	8400.18
443.98	8098.25
444.17	7705.04
444.35	8358.05
444.54	8442.31
444.73	8180.17
444.91	8241.03
445.10	8283.16
445.28	8259.75
445.47	8280.82
445.65	8325.29
445.84	8299.54
446.02	8521.89
446.21	8301.88
446.39	8475.08
446.58	8416.57
446.77	8542.96
446.95	8280.82
447.14	8329.97
447.32	8613.17
447.51	8636.58
447.69	8446.99
447.88	8524.23
448.06	8517.21
448.25	8442.31
448.43	8432.95
448.62	8636.58
448.80	8348.69
448.99	8657.64
449.17	8613.17
449.36	8748.92
449.54	8847.22
449.73	9125.75
449.91	9067.24
450.10	8812.12
450.28	9142.13
450.46	8945.53
450.65	8987.66
450.83	9100.00
451.02	9060.21
451.20	9242.78
451.39	9301.29
451.57	9062.55
451.76	9081.28
451.94	9184.26
452.13	9226.39
452.31	9376.19
452.49	9121.07
452.68	9411.29
452.86	9493.21
453.05	9371.50
453.23	9212.35
453.42	9392.57
453.60	9266.18
453.78	9687.48
453.97	9483.85
454.15	9465.13
454.34	9338.74
454.52	9680.46
454.70	9610.24
454.89	9603.22
455.07	9685.14
455.26	9713.22
455.44	10094.73
455.62	9811.53
455.81	10094.73
455.99	9973.02
456.17	10148.56
456.36	10019.83
456.54	10164.95
456.73	10176.65
456.91	10401.34
457.09	10424.75
457.28	10373.25
457.46	10298.36
457.64	10293.68
457.83	10630.71
458.01	10270.27
458.19	10782.85
458.38	10640.08
458.56	10731.36
458.74	10731.36
458.93	10647.10
459.11	10644.76
459.29	10864.77
459.48	10649.44
459.66	10682.20
459.84	10869.45
460.03	10942.00
460.21	11056.69
460.39	10834.34
460.57	11035.63
460.76	11061.37
460.94	11131.59
461.12	11218.19
461.31	11138.61
461.49	11094.14
461.67	10965.41
461.85	11293.08
462.04	11262.66
462.22	11803.32
462.40	11555.22
462.59	11470.97
462.77	11466.28
462.95	11393.73
463.13	11323.51
463.32	11737.79
463.50	11770.55
463.68	11726.08
463.86	11499.05
464.05	11829.07
464.23	11817.36
464.41	11726.08
464.59	11782.26
464.78	12133.34
464.96	12140.36
465.14	11707.36
465.32	11901.62
465.50	11995.25
465.69	12376.75
465.87	12131.00
466.05	11950.78
466.23	12301.86
466.41	12243.34
466.60	12475.06
466.78	12205.89
466.96	12285.47
467.14	12194.19
467.32	12198.87
467.51	12676.34
467.69	12116.95
467.87	12472.71
468.05	12332.28
468.23	12301.86
468.41	12535.91
468.60	12662.30
468.78	12760.60
468.96	12475.06
469.14	12840.18
469.32	12982.95
469.50	12746.56
469.69	12957.21
469.87	12856.56
470.05	13020.40
470.23	13025.08
470.41	13006.36
470.59	13212.32
470.77	13151.47
470.95	13212.32
471.14	13624.26
471.32	13050.83
471.50	13612.56
471.68	13577.45
471.86	13540.00
472.04	13696.82
472.22	13769.37
472.40	13575.11
472.58	13734.26
472.77	14005.77
472.95	14104.07
473.13	14581.54
473.31	13973.00
473.49	14047.90
473.67	14164.92
473.85	14223.44
474.03	14565.15
474.21	14576.86
474.39	14794.53
474.57	14506.64
474.75	14860.06
474.93	14820.27
475.12	14897.51
475.30	15030.92
475.48	15061.35
475.66	14979.43
475.84	15047.30
476.02	15365.62
476.20	15541.16
476.38	15487.32
476.56	16013.95
476.74	15866.49
476.92	16116.93
477.10	15765.85
477.28	15995.22
477.46	15974.16
477.64	16278.43
477.82	16624.83
478.00	17146.76
478.18	16685.68
478.36	16964.20
478.54	16877.60
478.72	17135.06
478.90	17558.70
479.08	17444.01
479.26	17790.41
479.44	17736.58
479.62	17958.93
479.80	18038.51
479.98	18057.23
480.16	18490.23
480.34	18312.35
480.52	18588.53
480.70	18581.51
480.88	18279.58
481.06	18574.49
481.24	18473.85
481.41	19176.01
481.59	19403.04
481.77	19286.01
481.95	19583.26
482.13	19775.19
482.31	19587.94
482.49	20201.16
482.67	20545.22
482.85	20552.24
483.03	20655.23
483.21	20666.93
483.39	21099.93
483.57	20690.34
483.74	21275.47
483.92	21228.66
484.10	21041.42
484.28	21446.33
484.46	21727.19
484.64	22522.98
484.82	21923.80
485.00	22223.39
485.18	22925.55
485.35	22944.27
485.53	22864.69
485.71	22946.61
485.89	23419.40
486.07	23077.68
486.25	23639.41
486.43	23772.82
486.61	23962.40
486.78	24334.55
486.96	23971.77
487.14	24748.82
487.32	24575.62
487.50	24737.12
487.68	24851.81
487.85	25123.31
488.03	25338.64
488.21	25443.96
488.39	25724.83
488.57	25827.81
488.75	26164.85
488.92	26462.10
489.10	26499.55
489.28	26595.51
489.46	26984.04
489.64	26885.73
489.81	27487.25
489.99	27548.11
490.17	27592.58
490.35	27782.16
490.53	27943.66
490.70	28386.02
490.88	28233.88
491.06	28655.18
491.24	28772.21
491.41	28643.48
491.59	29345.64
491.77	29228.61
491.95	29546.92
492.13	29317.55
492.30	29998.65
492.48	29958.86
492.66	30211.64
492.84	30403.56
493.01	30799.11
493.19	30644.63
493.37	31044.87
493.54	30944.22
493.72	31414.67
493.90	31330.41
494.08	31835.97
494.25	32006.83
494.43	31887.46
494.61	32098.11
494.79	32144.92
494.96	32463.23
495.14	32374.29
495.32	33268.37
495.49	32989.85
495.67	32800.27
495.85	33472.00
496.02	33773.93
496.20	33790.31
496.38	33923.72
496.55	33928.41
496.73	34895.05
496.91	34445.66
497.09	34703.12
497.26	34871.64
497.44	34520.56
497.62	35115.06
497.79	35578.48
497.97	35854.67
498.14	35833.60
498.32	35922.54
498.50	36266.60
498.67	36517.04
498.85	36247.88
499.03	36666.83
499.20	36479.59
499.38	36350.86
499.56	36828.33
499.73	36966.42
499.91	37099.83
500.08	37703.69
500.26	37366.65
500.44	37493.04
500.61	38120.31
500.79	37731.78
500.97	37809.01
501.14	38265.42
501.32	38263.08
501.49	38185.84
501.67	38644.59
501.84	38455.00
502.02	38810.76
502.20	38618.84
502.37	38864.60
502.55	38852.89
502.72	39765.70
502.90	39182.91
503.07	39260.15
503.25	39599.52
503.43	39854.64
503.60	39966.99
503.78	40245.51
503.95	40458.50
504.13	40367.22
504.30	40744.05
504.48	40367.22
504.65	40795.54
504.83	40847.03
505.01	41415.78
505.18	41067.04
505.36	41467.27
505.53	41439.18
505.71	41684.94
505.88	41954.10
506.06	41331.52
506.23	41642.81
506.41	41493.02
506.58	42211.56
506.76	41902.61
506.93	42344.97
507.11	42206.88
507.28	42244.33
507.46	42370.72
507.63	41918.99
507.81	42679.67
507.98	42682.01
508.16	43227.35
508.33	43115.01
508.50	43201.61
508.68	42895.00
508.85	44217.40
509.03	43365.45
509.20	43957.60
509.38	44130.80
509.55	44126.12
509.73	44748.70
509.90	44332.09
510.08	44252.51
510.25	44252.51
510.42	44849.35
510.60	44891.48
510.77	44884.45
510.95	45099.78
511.12	44479.54
511.30	45013.18
511.47	44931.26
511.64	45776.20
511.82	46024.29
511.99	45404.05
512.17	45734.07
512.34	45811.31
512.51	46220.90
512.69	46361.33
512.86	46337.93
513.04	46445.59
513.21	46316.86
513.38	46464.32
513.56	46593.04
513.73	46689.01
513.90	46691.35
514.08	46674.96
514.25	47182.86
514.43	47178.18
514.60	47161.79
514.77	47330.31
514.95	47430.96
515.12	47365.42
515.29	47714.16
515.47	47728.20
515.64	47948.21
515.81	47700.12
515.99	48170.57
516.16	48435.05
516.33	48341.42
516.51	48355.47
516.68	48418.66
516.85	48184.61
517.03	48891.45
517.20	48701.87
517.37	48601.22
517.54	48666.76
517.72	48933.58
517.89	48879.75
518.06	49549.14
518.24	48727.61
518.41	48914.86
518.58	48830.60
518.75	49127.84
518.93	49492.97
519.10	49375.94
519.27	49553.82
519.45	49495.31
519.62	49640.42
519.79	49888.52
519.96	50136.62
520.14	50120.23
520.31	50017.25
520.48	49794.90
520.65	50068.74
520.83	50190.45
521.00	50574.30
521.17	50529.83
521.34	50553.23
521.52	50878.57
521.69	50607.06
521.86	50894.95
522.03	50553.23
522.20	51072.83
522.38	51414.55
522.55	51119.64
522.72	51248.37
522.89	51241.35
523.07	51819.46
523.24	51505.83
523.41	51538.60
523.58	51157.09
523.75	51512.85
523.92	51351.35
524.10	51449.66
524.27	51777.33
524.44	52009.04
524.61	52097.98
524.78	52037.13
524.96	51674.35
525.13	52112.03
525.30	52317.99
525.47	52402.25
525.64	52294.59
525.81	52701.84
525.98	52559.07
526.16	52521.62
526.33	52411.62
526.50	52863.34
526.67	52809.51
526.84	52835.25
527.01	52678.44
527.18	52762.70
527.36	52608.22
527.53	53081.01
527.70	53158.25
527.87	53338.47
528.04	53226.12
528.21	53057.60
528.38	53298.68
528.55	53560.82
528.72	53516.35
528.89	53127.82
529.07	53198.04
529.24	53228.46
529.41	53586.57
529.58	53558.48
529.75	53645.08
529.92	53652.10
530.09	53764.45
530.26	53897.86
530.43	53951.69
530.60	53832.32
530.77	53546.78
530.94	53907.22
531.11	53937.65
531.28	54017.22
531.46	53951.69
531.63	54260.64
531.80	53825.30
531.97	54417.46
532.14	54499.37
532.31	54232.55
532.48	54375.33
532.65	54518.10
532.82	54396.39
532.99	54775.56
533.16	54602.36
533.33	54604.70
533.50	54728.75
533.67	54677.25
533.84	54574.27
534.01	54501.71
534.18	54754.49
534.35	55505.80
534.52	54836.41
534.69	55077.49
534.86	55304.52
535.03	54775.56
535.20	55079.83
535.37	55220.26
535.54	55419.20
535.71	55119.62
535.88	55128.98
536.05	55402.82
536.22	55344.31
536.38	55330.26
536.55	55505.80
536.72	55379.42
536.89	55388.78
537.06	55484.74
537.23	55784.33
537.40	55650.92
537.57	55632.19
537.74	55690.71
537.91	55789.01
538.08	55770.28
538.25	55370.05
538.42	55903.70
538.59	56104.98
538.75	55884.97
538.92	55955.19
539.09	56041.79
539.26	56095.62
539.43	56034.77
539.60	56079.24
539.77	55973.91
539.94	56364.78
540.11	56233.71
540.28	56278.18
540.44	56416.27
540.61	56371.80
540.78	56275.84
540.95	56189.24
541.12	56514.58
541.29	56381.16
541.46	56502.87
541.62	56397.55
541.79	56809.48
541.96	56224.35
542.13	56395.21
542.30	56528.62
542.47	56687.78
542.63	56853.95
542.80	56879.70
542.97	56987.36
543.14	57181.63
543.31	57130.14
543.48	57120.77
543.64	57219.08
543.81	57130.14
543.98	57223.76
544.15	57256.53
544.32	57528.03
544.48	57403.98
544.65	57401.64
544.82	57183.97
544.99	57375.89
545.16	57270.57
545.32	57467.17
545.49	57528.03
545.66	57694.21
545.83	57446.11
546.00	57757.40
546.16	57607.61
546.33	57551.43
546.50	57420.36
546.67	57584.20
546.83	57333.76
547.00	57661.44
547.17	57708.25
547.34	57682.50
547.50	57790.17
547.67	57923.58
547.84	57790.17
548.00	57799.53
548.17	58101.46
548.34	57907.19
548.51	58169.33
548.67	57993.79
548.84	58075.71
549.01	58134.23
549.18	57944.64
549.34	58195.08
549.51	58321.47
549.68	58277.00
549.84	58134.23
550.01	58382.32
550.18	58117.84
550.34	58131.89
550.51	58576.59
550.68	58361.26
550.84	58375.30
551.01	58211.46
551.18	58335.51
551.34	58321.47
551.51	58653.82
551.68	58541.48
551.84	58569.57
552.01	58314.45
552.18	58630.42
552.34	58342.53
552.51	58595.31
552.68	58492.33
552.84	58539.14
553.01	58738.08
553.18	58899.58
553.34	58897.24
553.51	58885.54
553.67	58899.58
553.84	58869.15
554.01	59007.25
554.17	59042.35
554.34	59030.65
554.51	58972.14
554.67	59018.95
554.84	58880.86
555.00	58932.35
555.17	58740.42
555.33	58915.96
555.50	58955.75
555.67	58897.24
555.83	58871.49
556.00	58897.24
556.16	59238.96
556.33	59253.00
556.50	58967.46
556.66	59295.13
556.83	59058.74
556.99	59243.64
557.16	59332.58
557.32	59423.86
557.49	59423.86
557.65	59157.04
557.82	59164.06
557.98	59580.68
558.15	59250.66
558.32	59463.65
558.48	59302.15
558.65	59597.06
558.81	59393.43
558.98	59416.84
559.14	59405.14
559.31	59646.21
559.47	59611.10
559.64	59592.38
559.80	59606.42
559.97	59545.57
560.13	59416.84
560.30	59519.82
560.46	59604.08
560.63	59604.08
560.79	59774.94
560.96	59765.58
561.12	59482.37
561.29	59643.87
561.45	59847.50
561.61	59938.78
561.78	59608.76
561.94	59856.86
562.11	59730.47
562.27	59737.49
562.44	59749.20
562.60	60086.23
562.77	59962.18
562.93	59683.66
563.10	59999.63
563.26	59779.62
563.42	59884.95
563.59	59896.65
563.75	59833.46
563.92	59859.20
564.08	59896.65
564.24	59962.18
564.41	60060.49
564.57	60001.97
564.74	60081.55
564.90	60128.36
565.07	60097.94
565.23	60030.06
565.39	60053.47
565.56	60020.70
565.72	60121.34
565.88	60081.55
566.05	60088.57
566.21	60044.10
566.38	60259.43
566.54	60177.51
566.70	60420.93
566.87	60193.90
567.03	60020.70
567.19	60404.55
567.36	60200.92
567.52	60090.91
567.68	60449.02
567.85	60280.50
568.01	60243.05
568.17	60191.56
568.34	60406.89
568.50	60322.63
568.66	60273.48
568.83	60240.71
568.99	60360.08
569.15	60418.59
569.32	60165.81
569.48	60250.07
569.64	60404.55
569.81	60294.54
569.97	60144.75
570.13	60446.68
570.30	60210.28
570.46	60432.63
570.62	60453.70
570.78	60362.42
570.95	60378.80
571.11	60434.97
571.27	60308.58
571.43	60425.61
571.60	60479.44
571.76	60465.40
571.92	60460.72
572.09	60540.30
572.25	60549.66
572.41	60584.77
572.57	60341.35
572.74	60598.81
572.90	60434.97
573.06	60367.10
573.22	60505.19
573.38	60680.73
573.55	60563.70
573.71	60795.42
573.87	60638.60
574.03	60416.25
574.20	60652.64
574.36	60456.04
574.52	60821.16
574.68	60580.09
574.84	60617.53
575.01	60601.15
575.17	60729.88
575.33	60441.99
575.49	60654.98
575.65	60708.82
575.82	60746.26
575.98	60479.44
576.14	60992.02
576.30	60842.23
576.46	60685.41
576.62	60498.17
576.79	60671.37
576.95	60505.19
577.11	60690.09
577.27	60608.17
577.43	60786.05
577.59	60683.07
577.75	60729.88
577.92	60652.64
578.08	60664.35
578.24	60657.32
578.40	60830.52
578.56	60722.86
578.72	60769.67
578.88	60828.18
579.04	60999.04
579.21	60764.99
579.37	60942.87
579.53	60832.86
579.69	60437.31
579.85	60552.00
580.01	60626.90
580.17	60486.46
580.33	60741.58
580.49	60996.70
580.65	60757.97
580.82	60657.32
580.98	60687.75
581.14	60612.85
581.30	60797.76
581.46	60970.96
581.62	60877.33
581.78	60832.86
581.94	60874.99
582.10	60835.20
582.26	60886.70
582.42	60814.14
582.58	60924.14
582.74	60697.11
582.90	60889.04
583.06	60879.67
583.22	60631.58
583.38	60818.82
583.54	60809.46
583.70	60846.91
583.86	61120.75
584.02	60872.65
584.18	61048.19
584.34	60863.29
584.50	61066.92
584.66	60772.01
584.82	60669.03
584.98	61137.13
585.14	60985.00
585.30	60673.71
585.46	60757.97
585.62	61034.15
585.78	61008.40
585.94	60912.44
586.10	60994.36
586.26	60821.16
586.42	60968.61
586.58	60970.96
586.74	61190.97
586.90	60931.17
587.06	60692.43
587.22	61015.43
587.38	60882.02
587.54	61020.11
587.70	61087.98
587.86	61118.41
588.02	61043.51
588.18	61233.10
588.34	61034.15
588.49	60996.70
