SpectraSuite Data File
++++++++++++++++++++++++++++++++++++
Date: Fri Oct 25 11:34:43 EDT 2013
User: price-jones
Dark Spectrum Present: No
Reference Spectrum Present: No
Number of Sampled Component Spectra: 1
Spectrometers: USB2+H05261
Integration Time (usec): 100000 (USB2+H05261)
Spectra Averaged: 1 (USB2+H05261)
Boxcar Smoothing: 0 (USB2+H05261)
Correct for Electrical Dark: No (USB2+H05261)
Strobe/Lamp Enabled: No (USB2+H05261)
Correct for Detector Non-linearity: No (USB2+H05261)
Correct for Stray Light: No (USB2+H05261)
Number of Pixels in Processed Spectrum: 2048
>>>>>Begin Processed Spectral Data<<<<<
365.73	255.12
365.92	255.12
366.12	255.12
366.32	203.63
366.52	255.12
366.72	210.65
366.91	126.39
367.11	126.39
367.31	212.99
367.51	140.43
367.70	198.95
367.90	163.84
368.10	180.22
368.30	191.92
368.49	112.35
368.69	196.60
368.89	210.65
369.09	191.92
369.28	198.95
369.48	220.01
369.68	273.84
369.87	215.33
370.07	222.35
370.27	294.91
370.47	339.38
370.66	376.83
370.86	514.92
371.06	543.00
371.25	491.51
371.45	592.16
371.65	463.43
371.84	524.28
372.04	585.13
372.24	603.86
372.44	564.07
372.63	535.98
372.83	557.05
373.03	582.79
373.22	606.20
373.42	554.71
373.62	624.92
373.81	631.94
374.01	657.69
374.21	674.07
374.40	676.41
374.60	697.48
374.79	669.39
374.99	624.92
375.19	667.05
375.38	620.24
375.58	660.03
375.78	755.99
375.97	688.12
376.17	688.12
376.37	627.26
376.56	662.37
376.76	662.37
376.95	608.54
377.15	683.44
377.35	650.67
377.54	683.44
377.74	655.35
377.93	617.90
378.13	650.67
378.33	730.25
378.52	692.80
378.72	660.03
378.91	711.52
379.11	648.33
379.31	716.20
379.50	674.07
379.70	734.93
379.89	720.88
380.09	741.95
380.28	727.91
380.48	751.31
380.68	695.14
380.87	655.35
381.07	770.04
381.26	798.12
381.46	660.03
381.65	765.36
381.85	816.85
382.04	645.99
382.24	784.08
382.43	711.52
382.63	645.99
382.83	753.65
383.02	716.20
383.22	753.65
383.41	746.63
383.61	781.74
383.80	896.43
384.00	823.87
384.19	791.10
384.39	805.14
384.58	748.97
384.78	863.66
384.97	826.21
385.17	828.55
385.36	819.19
385.56	868.34
385.75	795.78
385.95	786.42
386.14	805.14
386.34	800.46
386.53	791.10
386.72	765.36
386.92	875.36
387.11	786.42
387.31	908.13
387.50	793.44
387.70	847.27
387.89	814.51
388.09	896.43
388.28	837.91
388.48	908.13
388.67	833.23
388.86	936.21
389.06	835.57
389.25	945.58
389.45	866.00
389.64	880.04
389.84	873.02
390.03	1008.77
390.22	945.58
390.42	947.92
390.61	973.66
390.81	882.38
391.00	919.83
391.19	947.92
391.39	978.34
391.58	933.87
391.78	959.62
391.97	961.96
392.16	990.05
392.36	1116.44
392.55	882.38
392.75	1086.01
392.94	1011.11
393.13	1093.03
393.33	1067.28
393.52	1034.52
393.71	1167.93
393.91	1081.33
394.10	1027.50
394.29	1100.05
394.49	1067.28
394.68	1142.18
394.88	1081.33
395.07	1160.91
395.26	1100.05
395.46	1160.91
395.65	1151.54
395.84	1090.69
396.04	1146.86
396.23	1142.18
396.42	1196.01
396.62	1121.12
396.81	1074.31
397.00	1203.04
397.19	1174.95
397.39	1123.46
397.58	1130.48
397.77	1165.59
397.97	1193.67
398.16	1219.42
398.35	1247.51
398.55	1210.06
398.74	1193.67
398.93	1308.36
399.12	1345.81
399.32	1249.85
399.51	1249.85
399.70	1224.10
399.90	1273.25
400.09	1355.17
400.28	1432.41
400.47	1249.85
400.67	1287.29
400.86	1394.96
401.05	1338.79
401.24	1322.40
401.44	1371.55
401.63	1329.42
401.82	1390.28
402.01	1310.70
402.21	1364.53
402.40	1409.00
402.59	1385.60
402.78	1509.65
402.97	1495.60
403.17	1420.71
403.36	1502.62
403.55	1481.56
403.74	1504.96
403.93	1530.71
404.13	1600.93
404.32	1521.35
404.51	1427.73
404.70	1556.46
404.89	1526.03
405.09	1612.63
405.28	1554.12
405.47	1657.10
405.66	1701.57
405.85	1596.25
406.05	1631.35
406.24	1661.78
406.43	1633.69
406.62	1717.95
406.81	1811.57
407.00	1788.17
407.20	1739.02
407.39	1671.14
407.58	1753.06
407.77	1764.76
407.96	1771.79
408.15	1806.89
408.34	1839.66
408.54	1872.43
408.73	1769.44
408.92	1930.94
409.11	1895.83
409.30	1930.94
409.49	1870.09
409.68	1921.58
409.87	1739.02
410.07	1912.22
410.26	1973.07
410.45	1912.22
410.64	1853.70
410.83	1980.09
411.02	2087.76
411.21	1966.05
411.40	2132.23
411.59	2097.12
411.78	2125.21
411.98	2078.40
412.17	2122.87
412.36	2235.21
412.55	2235.21
412.74	2251.60
412.93	2200.10
413.12	2172.02
413.31	2373.30
413.50	2216.49
413.69	2216.49
413.88	2480.97
414.07	2457.56
414.26	2380.32
414.45	2457.56
414.64	2373.30
414.83	2469.27
415.02	2480.97
415.22	2602.68
415.41	2544.16
415.60	2551.18
415.79	2576.93
415.98	2686.94
416.17	2705.66
416.36	2518.42
416.55	2565.23
416.74	2665.87
416.93	2668.21
417.12	2771.19
417.31	2855.45
417.50	2572.25
417.69	2850.77
417.88	2785.24
418.07	2759.49
418.26	2801.62
418.45	2799.28
418.64	2956.10
418.83	2801.62
419.02	2986.52
419.21	2829.71
419.39	2876.52
419.58	2904.60
419.77	2867.16
419.96	2993.55
420.15	2965.46
420.34	3075.46
420.53	3030.99
420.72	3152.70
420.91	3150.36
421.10	3176.11
421.29	3131.64
421.48	3028.65
421.67	3077.80
421.86	3211.22
422.05	3208.87
422.24	3070.78
422.43	3232.28
422.61	3152.70
422.80	3330.58
422.99	3229.94
423.18	3213.56
423.37	3215.90
423.56	3218.24
423.75	3166.74
423.94	3241.64
424.13	3014.61
424.32	3218.24
424.50	3293.13
424.69	3229.94
424.88	3239.30
425.07	3325.90
425.26	3098.87
425.45	3197.17
425.64	3183.13
425.83	3316.54
426.01	3262.71
426.20	3325.90
426.39	3286.11
426.58	3318.88
426.77	3398.46
426.96	3419.52
427.15	3370.37
427.33	3346.97
427.52	3370.37
427.71	3403.14
427.90	3417.18
428.09	3442.93
428.28	3396.12
428.46	3492.08
428.65	3463.99
428.84	3550.59
429.03	3688.68
429.22	3356.33
429.40	3508.46
429.59	3613.79
429.78	3534.21
429.97	3494.42
430.16	3613.79
430.34	3569.32
430.53	3618.47
430.72	3662.94
430.91	3819.75
431.10	3637.19
431.28	3744.86
431.47	3833.80
431.66	3808.05
431.85	3873.59
432.03	3861.88
432.22	4016.36
432.41	3983.59
432.60	3747.20
432.79	3899.33
432.97	3875.93
433.16	3974.23
433.35	3904.01
433.54	3957.85
433.72	3906.35
433.91	3981.25
434.10	4051.47
434.28	4044.45
434.47	4023.38
434.66	4037.42
434.85	4077.21
435.03	4046.79
435.22	3983.59
435.41	4236.37
435.59	4212.96
435.78	4189.56
435.97	4315.95
436.16	4077.21
436.34	4154.45
436.53	4313.61
436.72	4297.22
436.90	4219.99
437.09	4376.80
437.28	4215.30
437.46	4299.56
437.65	4362.76
437.84	4423.61
438.02	4400.21
438.21	4510.21
438.40	4449.36
438.58	4505.53
438.77	4540.64
438.96	4486.81
439.14	4552.34
439.33	4564.04
439.52	4709.16
439.70	4699.80
439.89	4748.95
440.08	4826.18
440.26	4786.40
440.45	4748.95
440.63	4929.17
440.82	4880.02
441.01	4723.20
441.19	4877.68
441.38	5064.92
441.57	4968.96
441.75	5027.47
441.94	5055.56
442.12	5022.79
442.31	5104.71
442.50	5172.58
442.68	5102.37
442.87	5177.26
443.05	5301.31
443.24	5224.08
443.43	5308.34
443.61	5207.69
443.80	5427.70
443.98	5214.71
444.17	5027.47
444.35	5327.06
444.54	5366.85
444.73	5254.50
444.91	5413.66
445.10	5380.89
445.28	5413.66
445.47	5394.93
445.65	5439.40
445.84	5500.26
446.02	5425.36
446.21	5331.74
446.39	5334.08
446.58	5366.85
446.77	5303.65
446.95	5341.10
447.14	5460.47
447.32	5458.13
447.51	5462.81
447.69	5373.87
447.88	5444.09
448.06	5631.33
448.25	5551.75
448.43	5533.03
448.62	5589.20
448.80	5474.51
448.99	5575.16
449.17	5619.63
449.36	5549.41
449.54	5790.49
449.73	5902.83
449.91	5760.06
450.10	5767.08
450.28	5846.66
450.46	5841.98
450.65	5785.80
450.83	5912.19
451.02	5907.51
451.20	5937.94
451.39	5694.52
451.57	5755.38
451.76	5813.89
451.94	5860.70
452.13	5968.37
452.31	5914.53
452.49	5853.68
452.68	5870.06
452.86	5998.79
453.05	6122.84
453.23	6080.71
453.42	5879.43
453.60	6071.35
453.78	6029.22
453.97	5996.45
454.15	6111.14
454.34	5935.60
454.52	6150.93
454.70	6143.91
454.89	6108.80
455.07	6232.85
455.26	6148.59
455.44	6179.01
455.62	6293.70
455.81	6502.01
455.99	6492.65
456.17	6614.35
456.36	6466.90
456.54	6448.18
456.73	6621.38
456.91	6656.48
457.09	6750.10
457.28	6668.19
457.46	6757.13
457.64	6733.72
457.83	6766.49
458.01	6679.89
458.19	6843.73
458.38	6757.13
458.56	6932.67
458.74	6820.32
458.93	6913.94
459.11	6984.16
459.29	6773.51
459.48	7016.93
459.66	6913.94
459.84	6920.96
460.03	7131.61
460.21	6918.62
460.39	7042.67
460.57	7145.66
460.76	7096.50
460.94	7122.25
461.12	7229.91
461.31	6946.71
461.49	6956.07
461.67	7155.02
461.85	7218.21
462.04	7084.80
462.22	7468.65
462.40	7239.28
462.59	7363.33
462.77	7377.37
462.95	7456.95
463.13	7332.90
463.32	7379.71
463.50	7400.77
463.68	7653.55
463.86	7527.16
464.05	7375.03
464.23	7328.22
464.41	7445.24
464.59	7391.41
464.78	7592.70
464.96	7543.55
465.14	7501.42
465.32	7590.36
465.50	7665.25
465.69	7672.28
465.87	7681.64
466.05	7581.00
466.23	7744.83
466.41	7777.60
466.60	7864.20
466.78	7679.30
466.96	7730.79
467.14	7915.69
467.32	7861.86
467.51	7882.92
467.69	7805.69
467.87	7845.48
468.05	7894.63
468.23	7894.63
468.41	7962.50
468.60	7929.74
468.78	8044.42
468.96	8102.93
469.14	8170.81
469.32	8241.03
469.50	8016.33
469.69	8301.88
469.87	8376.78
470.05	8131.02
470.23	8510.19
470.41	8393.16
470.59	8538.27
470.77	8203.58
470.95	8341.67
471.14	8571.04
471.32	8344.01
471.50	8652.96
471.68	8648.28
471.86	8645.94
472.04	8837.86
472.22	9130.43
472.40	8774.67
472.58	8748.92
472.77	8830.84
472.95	8919.78
473.13	9224.05
473.31	8767.65
473.49	8760.63
473.67	8994.68
473.85	9074.26
474.03	8994.68
474.21	9078.94
474.39	9275.54
474.57	9231.07
474.75	9514.28
474.93	9528.32
475.12	9270.86
475.30	9547.05
475.48	9210.01
475.66	9507.26
475.84	9605.56
476.02	9671.09
476.20	9692.16
476.38	9923.87
476.56	10108.77
476.74	9994.09
476.92	9921.53
477.10	9919.19
477.28	10230.48
477.46	10359.21
477.64	10312.40
477.82	10310.06
478.00	10637.73
478.18	10504.32
478.36	10640.08
478.54	10525.39
478.72	10721.99
478.90	10785.19
479.08	10911.58
479.26	11047.33
479.44	11180.74
479.62	11098.82
479.80	11215.85
479.98	11419.47
480.16	11592.67
480.34	11501.39
480.52	11531.82
480.70	11569.27
480.88	11499.05
481.06	11538.84
481.24	11808.00
481.41	12016.31
481.59	11927.37
481.77	12299.52
481.95	12081.85
482.13	12273.77
482.31	12402.50
482.49	12655.28
482.67	12573.36
482.85	12528.89
483.03	12919.76
483.21	12929.12
483.39	13020.40
483.57	12971.25
483.74	13090.62
483.92	13217.01
484.10	13109.34
484.28	13598.51
484.46	13675.75
484.64	13713.20
484.82	13724.90
485.00	13731.92
485.18	14162.58
485.35	14354.51
485.53	14237.48
485.71	14003.43
485.89	14628.35
486.07	14698.56
486.25	14544.09
486.43	14740.69
486.61	14675.16
486.78	14848.36
486.96	14967.73
487.14	15087.09
487.32	15438.17
487.50	15384.34
487.68	15288.38
487.85	15531.80
488.03	15817.34
488.21	15901.60
488.39	15990.54
488.57	16187.14
488.75	16035.01
488.92	16491.41
489.10	16521.84
489.28	16772.28
489.46	16910.37
489.64	16840.15
489.81	17121.02
489.99	17263.79
490.17	17067.19
490.35	17497.84
490.53	17364.43
490.70	17408.90
490.88	17453.37
491.06	17923.82
491.24	17832.54
491.41	17795.09
491.59	18185.96
491.77	18270.22
491.95	18298.31
492.13	18398.95
492.30	18726.63
492.48	18544.06
492.66	18782.80
492.84	18745.35
493.01	18930.25
493.19	18944.30
493.37	18845.99
493.54	19288.35
493.72	19447.51
493.90	19704.97
494.08	19564.54
494.25	20114.56
494.43	19770.51
494.61	20173.08
494.79	20088.82
494.96	19824.34
495.14	20219.89
495.32	20519.48
495.49	20491.39
495.67	20678.63
495.85	20755.87
496.02	20517.14
496.20	21048.44
496.38	21174.83
496.55	21151.42
496.73	21516.54
496.91	21413.56
497.09	21518.89
497.26	21853.58
497.44	21521.23
497.62	21816.13
497.79	21778.68
497.97	22092.32
498.14	22146.15
498.32	22078.27
498.50	22326.37
498.67	22508.93
498.85	22595.53
499.03	22852.99
499.20	22778.09
499.38	22567.45
499.56	22670.43
499.73	22707.88
499.91	23307.05
500.08	23552.81
500.26	23147.90
500.44	23662.82
500.61	23321.10
500.79	23538.77
500.97	23875.80
501.14	23999.85
501.32	23861.76
501.49	23936.66
501.67	23985.81
501.84	24280.72
502.02	23992.83
502.20	24601.37
502.37	24367.32
502.55	24402.43
502.72	24285.40
502.90	24364.98
503.07	24355.61
503.25	24545.20
503.43	24599.03
503.60	24594.35
503.78	25130.33
503.95	25116.29
504.13	25172.46
504.30	25436.94
504.48	25151.40
504.65	25401.83
504.83	25441.62
505.01	25687.38
505.18	25706.10
505.36	25919.09
505.53	25954.20
505.71	26045.48
505.88	25722.49
506.06	25530.56
506.23	26052.50
506.41	26019.74
506.58	26342.73
506.76	26324.01
506.93	26572.10
507.11	26506.57
507.28	26546.36
507.46	26745.30
507.63	26565.08
507.81	26869.35
507.98	26733.60
508.16	26700.83
508.33	26925.52
508.50	27000.42
508.68	27019.14
508.85	27550.45
509.03	27072.98
509.20	27714.28
509.38	27737.69
509.55	27480.23
509.73	27812.59
509.90	27459.16
510.08	27615.98
510.25	28100.47
510.42	27740.03
510.60	28252.61
510.77	28322.82
510.95	28212.82
511.12	28374.31
511.30	28147.28
511.47	28201.11
511.64	28489.00
511.82	28547.51
511.99	28699.65
512.17	28723.05
512.34	29036.69
512.51	28856.46
512.69	28931.36
512.86	29041.37
513.04	29642.88
513.21	29287.12
513.38	29291.80
513.56	29614.80
513.73	29521.18
513.90	29652.25
514.08	29357.34
514.25	29624.16
514.43	29553.94
514.60	30113.33
514.77	29612.46
514.95	30213.98
515.12	29790.34
515.29	30167.16
515.47	29977.58
515.64	30141.42
515.81	30323.98
515.99	30405.90
516.16	30670.38
516.33	30565.06
516.51	30349.73
516.68	30272.49
516.85	30792.09
517.03	30866.98
517.20	31002.74
517.37	30775.70
517.54	31129.12
517.72	31056.57
517.89	31147.85
518.06	30881.03
518.24	31276.58
518.41	31409.99
518.58	31417.01
518.75	31232.11
518.93	31070.61
519.10	31662.77
519.27	31365.52
519.45	31491.91
519.62	32088.74
519.79	31807.88
519.96	31583.19
520.14	31950.65
520.31	31962.36
520.48	32191.73
520.65	32369.61
520.83	32598.98
521.00	32472.59
521.17	32425.78
521.34	32374.29
521.52	32369.61
521.69	32704.31
521.86	32826.01
522.03	32510.04
522.20	32809.63
522.38	33083.47
522.55	33296.46
522.72	32643.45
522.89	33214.54
523.07	33357.32
523.24	33088.15
523.41	33345.61
523.58	33057.73
523.75	33280.08
523.92	33441.57
524.10	33251.99
524.27	33408.81
524.44	33530.51
524.61	33935.43
524.78	33701.37
524.96	33916.70
525.13	34096.92
525.30	34087.56
525.47	34017.35
525.64	33834.78
525.81	34153.10
525.98	34515.88
526.16	34139.05
526.33	34422.26
526.50	34663.33
526.67	34377.79
526.84	34698.44
527.01	34466.73
527.18	34773.34
527.36	34986.33
527.53	34892.71
527.70	35115.06
527.87	34986.33
528.04	34677.38
528.21	34864.62
528.38	35016.75
528.55	35260.17
528.72	35054.20
528.89	34937.18
529.07	35271.87
529.24	34841.21
529.41	35697.85
529.58	35208.68
529.75	35459.12
529.92	35831.26
530.09	35365.49
530.26	35690.83
530.43	35957.65
530.60	35887.43
530.77	35611.25
530.94	35653.38
531.11	35634.66
531.28	35641.68
531.46	35735.30
531.63	35761.05
531.80	36023.19
531.97	36271.28
532.14	35875.73
532.31	36285.33
532.48	35967.01
532.65	36680.88
532.82	36201.07
532.99	36416.40
533.16	35920.20
533.33	36671.51
533.50	36549.81
533.67	36046.59
533.84	36715.98
534.01	36816.63
534.18	37099.83
534.35	36861.10
534.52	36699.60
534.69	37041.32
534.86	37179.41
535.03	36723.01
535.20	37596.03
535.37	37574.96
535.54	37191.11
535.71	37195.79
535.88	37734.12
536.05	37296.44
536.22	37490.70
536.38	37699.01
536.55	37436.87
536.72	37628.79
536.89	37305.80
537.06	37734.12
537.23	37832.42
537.40	37329.20
537.57	37230.90
537.74	37385.38
537.91	37968.17
538.08	37717.73
538.25	37479.00
538.42	37947.11
538.59	38366.06
538.75	37820.72
538.92	38553.30
539.09	38314.57
539.26	38345.00
539.43	38288.82
539.60	38801.40
539.77	38389.47
539.94	38040.73
540.11	38574.37
540.28	38101.58
540.44	38663.31
540.61	38834.17
540.78	38045.41
540.95	38623.52
541.12	38204.56
541.29	38588.41
541.46	38911.41
541.62	38998.01
541.79	38986.30
541.96	38873.96
542.13	38632.88
542.30	38876.30
542.47	39126.74
542.63	39318.66
542.80	39014.39
542.97	39728.25
543.14	39693.15
543.31	39400.58
543.48	39468.45
543.64	39896.77
543.81	39693.15
543.98	39688.46
544.15	39662.72
544.32	40261.90
544.48	40051.25
544.65	39655.70
544.82	40184.66
544.99	39552.71
545.16	39833.58
545.32	39988.05
545.49	40271.26
545.66	40685.53
545.83	40236.15
546.00	40549.78
546.16	40519.35
546.33	40079.33
546.50	40062.95
546.67	40437.44
546.83	40189.34
547.00	40170.61
547.17	40219.77
547.34	40629.36
547.50	40744.05
547.67	41060.02
547.84	40601.27
548.00	40617.66
548.17	41141.94
548.34	40919.59
548.51	41027.25
548.67	40774.47
548.84	40680.85
549.01	40898.52
549.18	41020.23
549.34	41106.83
549.51	41383.01
549.68	41057.68
549.84	41125.55
550.01	41256.62
550.18	40774.47
550.34	41153.64
550.51	41308.11
550.68	41228.54
550.84	41268.33
551.01	41106.83
551.18	41228.54
551.34	41380.67
551.51	41722.39
551.68	41778.56
551.84	41060.02
552.01	41324.50
552.18	41659.20
552.34	41392.37
552.51	41565.57
552.68	41645.15
552.84	41645.15
553.01	42192.84
553.18	41900.27
553.34	41743.45
553.51	41820.69
553.67	42139.00
553.84	41947.08
554.01	41717.71
554.17	42216.24
554.34	42401.14
554.51	42265.39
554.67	42370.72
554.84	42300.50
555.00	41951.76
555.17	42117.94
555.33	41921.34
555.50	42014.96
555.67	42349.65
555.83	42459.66
556.00	42190.50
556.16	42979.26
556.33	42473.70
556.50	42520.51
556.66	42342.63
556.83	42153.05
556.99	42742.86
557.16	42410.51
557.32	42742.86
557.49	42899.68
557.65	42244.33
557.82	42696.05
557.98	42642.22
558.15	42740.52
558.32	42721.80
558.48	42258.37
558.65	42646.90
558.81	42541.58
558.98	42469.02
559.14	42452.64
559.31	42838.83
559.47	43000.32
559.64	42899.68
559.80	43175.86
559.97	42976.92
560.13	42536.90
560.30	42735.84
560.46	42911.38
560.63	43365.45
560.79	43007.34
560.96	43517.58
561.12	43079.90
561.29	43302.25
561.45	43473.11
561.61	43278.85
561.78	43042.45
561.94	43040.11
562.11	43285.87
562.27	43112.67
562.44	43363.11
562.60	43604.18
562.77	43416.94
562.93	43363.11
563.10	43992.71
563.26	43522.26
563.42	43772.70
563.59	43232.04
563.75	43423.96
563.92	43470.77
564.08	43100.97
564.24	43337.36
564.41	43440.34
564.57	43796.10
564.74	43639.29
564.90	44105.06
565.07	43234.38
565.23	43407.58
565.39	43641.63
565.56	43966.96
565.72	43723.55
565.88	43679.08
566.05	43653.33
566.21	43955.26
566.38	43856.96
566.54	43835.89
566.70	44238.47
566.87	44004.41
567.03	43587.80
567.19	44163.57
567.36	43868.66
567.52	43922.49
567.68	44245.49
567.85	43962.28
568.01	44168.25
568.17	43952.92
568.34	43906.11
568.50	44219.74
568.66	43805.47
568.83	44201.02
568.99	44273.57
569.15	44027.82
569.32	43606.52
569.48	44100.37
569.64	44341.45
569.81	44100.37
569.97	44135.48
570.13	44179.95
570.30	44102.71
570.46	44275.91
570.62	44421.03
570.78	44332.09
570.95	44308.68
571.11	44748.70
571.27	44521.67
571.43	43842.92
571.60	43803.13
571.76	44179.95
571.92	43915.47
572.09	44074.63
572.25	43779.72
572.41	43941.22
572.57	44163.57
572.74	44474.86
572.90	44559.12
573.06	44847.00
573.22	44638.70
573.38	44406.98
573.55	44399.96
573.71	45085.74
573.87	44453.79
574.03	44266.55
574.20	44615.29
574.36	44451.45
574.52	44603.59
574.68	44458.48
574.84	44512.31
575.01	44907.86
575.17	44708.91
575.33	44458.48
575.49	44662.10
575.65	44194.00
575.82	44898.50
575.98	44538.05
576.14	44889.13
576.30	44729.98
576.46	44605.93
576.62	44257.19
576.79	44165.91
576.95	44390.60
577.11	44591.89
577.27	44406.98
577.43	44870.41
577.59	44612.95
577.75	44247.83
577.92	44390.60
578.08	44732.32
578.24	44669.12
578.40	44659.76
578.56	44842.32
578.72	44596.57
578.88	44912.54
579.04	44676.15
579.21	44767.43
579.37	44566.14
579.53	44886.79
579.69	44884.45
579.85	44336.77
580.01	44481.88
580.17	44601.25
580.33	44790.83
580.49	44535.71
580.65	44870.41
580.82	44472.52
580.98	44652.74
581.14	44130.80
581.30	45024.89
581.46	44488.90
581.62	44425.71
581.78	44737.00
581.94	44502.95
582.10	44964.03
582.26	45284.68
582.42	44643.38
582.58	45113.83
582.74	44809.56
582.90	44678.49
583.06	45008.50
583.22	45170.00
583.38	44655.08
583.54	44718.28
583.70	44676.15
583.86	44708.91
584.02	44811.90
584.18	45120.85
584.34	45062.33
584.50	44818.92
584.66	45289.37
584.82	44811.90
584.98	45191.06
585.14	44875.09
585.30	44758.06
585.46	44692.53
585.62	44622.31
585.78	44535.71
585.94	44545.08
586.10	44849.35
586.26	44161.23
586.42	44577.84
586.58	44765.09
586.74	45127.87
586.90	44748.70
587.06	44821.26
587.22	45179.36
587.38	44985.10
587.54	45240.21
587.70	45308.09
587.86	45055.31
588.02	44676.15
588.18	44582.52
588.34	45193.40
588.49	44978.07
588.65	44423.37
588.81	44912.54
588.97	44966.37
589.13	45071.70
589.29	45148.93
589.45	45153.62
589.61	45294.05
589.77	45467.25
589.93	44830.62
590.08	45130.21
