SpectraSuite Data File
++++++++++++++++++++++++++++++++++++
Date: Fri Oct 25 10:47:39 EDT 2013
User: price-jones
Dark Spectrum Present: No
Reference Spectrum Present: No
Number of Sampled Component Spectra: 1
Spectrometers: USB2+H05261
Integration Time (usec): 100000 (USB2+H05261)
Spectra Averaged: 1 (USB2+H05261)
Boxcar Smoothing: 0 (USB2+H05261)
Correct for Electrical Dark: No (USB2+H05261)
Strobe/Lamp Enabled: No (USB2+H05261)
Correct for Detector Non-linearity: No (USB2+H05261)
Correct for Stray Light: No (USB2+H05261)
Number of Pixels in Processed Spectrum: 2048
>>>>>Begin Processed Spectral Data<<<<<
365.73	168.52
365.92	168.52
366.12	168.52
366.32	30.43
366.52	63.19
366.72	63.19
366.91	42.13
367.11	53.83
367.31	42.13
367.51	86.60
367.70	37.45
367.90	35.11
368.10	124.05
368.30	0.00
368.49	18.72
368.69	56.17
368.89	56.17
369.09	53.83
369.28	35.11
369.48	30.43
369.68	93.62
369.87	110.01
370.07	74.90
370.27	166.18
370.47	205.97
370.66	346.40
370.86	496.19
371.06	379.17
371.25	449.38
371.45	500.87
371.65	456.40
371.84	505.56
372.04	456.40
372.24	440.02
372.44	451.72
372.63	465.77
372.83	496.19
373.03	528.96
373.22	458.74
373.42	493.85
373.62	533.64
373.81	601.52
374.01	592.16
374.21	568.75
374.40	517.26
374.60	484.49
374.79	521.94
374.99	582.79
375.19	463.43
375.38	592.16
375.58	566.41
375.78	531.30
375.97	641.31
376.17	641.31
376.37	538.32
376.56	533.64
376.76	582.79
376.95	629.60
377.15	657.69
377.35	695.14
377.54	624.92
377.74	629.60
377.93	608.54
378.13	648.33
378.33	620.24
378.52	573.43
378.72	653.01
378.91	657.69
379.11	664.71
379.31	634.29
379.50	587.47
379.70	711.52
379.89	709.18
380.09	697.48
380.28	678.76
380.48	655.35
380.68	718.54
380.87	676.41
381.07	695.14
381.26	725.57
381.46	723.23
381.65	690.46
381.85	674.07
382.04	716.20
382.24	739.61
382.43	720.88
382.63	657.69
382.83	650.67
383.02	683.44
383.22	774.72
383.41	763.01
383.61	725.57
383.80	739.61
384.00	734.93
384.19	809.83
384.39	746.63
384.58	753.65
384.78	734.93
384.97	751.31
385.17	732.59
385.36	807.48
385.56	732.59
385.75	737.27
385.95	746.63
386.14	718.54
386.34	720.88
386.53	777.06
386.72	748.97
386.92	851.96
387.11	887.06
387.31	767.70
387.50	788.76
387.70	781.74
387.89	807.48
388.09	854.30
388.28	863.66
388.48	802.80
388.67	840.25
388.86	868.34
389.06	849.61
389.25	868.34
389.45	856.64
389.64	833.23
389.84	943.24
390.03	880.04
390.22	922.17
390.42	945.58
390.61	915.15
390.81	959.62
391.00	945.58
391.19	1015.79
391.39	1008.77
391.58	947.92
391.78	980.68
391.97	1078.99
392.16	919.83
392.36	1013.45
392.55	1041.54
392.75	964.30
392.94	978.34
393.13	964.30
393.33	1011.11
393.52	1018.13
393.71	1046.22
393.91	1053.24
394.10	994.73
394.29	1142.18
394.49	1135.16
394.68	1207.72
394.88	1149.20
395.07	1123.46
395.26	1146.86
395.46	1200.69
395.65	1200.69
395.84	1125.80
396.04	1221.76
396.23	1163.25
396.42	1139.84
396.62	1207.72
396.81	1172.61
397.00	1102.39
397.19	1153.88
397.39	1214.74
397.58	1247.51
397.77	1240.48
397.97	1275.59
398.16	1315.38
398.35	1306.02
398.55	1416.02
398.74	1359.85
398.93	1409.00
399.12	1308.36
399.32	1387.94
399.51	1249.85
399.70	1430.07
399.90	1359.85
400.09	1392.62
400.28	1455.81
400.47	1430.07
400.67	1444.11
400.86	1404.32
401.05	1472.20
401.24	1523.69
401.44	1586.88
401.63	1542.41
401.82	1507.30
402.01	1493.26
402.21	1526.03
402.40	1561.14
402.59	1504.96
402.78	1530.71
402.97	1537.73
403.17	1469.86
403.36	1673.48
403.55	1621.99
403.74	1666.46
403.93	1776.47
404.13	1746.04
404.32	1636.03
404.51	1675.82
404.70	1727.32
404.89	1710.93
405.09	1753.06
405.28	1783.49
405.47	1699.23
405.66	1696.89
405.85	1968.39
406.05	1664.12
406.24	1797.53
406.43	1806.89
406.62	1907.54
406.81	1907.54
407.00	1844.34
407.20	1760.08
407.39	1809.23
407.58	1944.99
407.77	1991.80
407.96	2003.50
408.15	1919.24
408.34	2045.63
408.54	1994.14
408.73	2092.44
408.92	2012.86
409.11	2029.24
409.30	1933.28
409.49	2113.50
409.68	1952.01
409.87	2040.95
410.07	2111.16
410.26	2122.87
410.45	2066.69
410.64	2165.00
410.83	2305.43
411.02	2249.25
411.21	2282.02
411.40	2263.30
411.59	2230.53
411.78	2410.75
411.98	2321.81
412.17	2361.60
412.36	2359.26
412.55	2396.71
412.74	2443.52
412.93	2434.16
413.12	2399.05
413.31	2555.86
413.50	2502.03
413.69	2546.50
413.88	2548.84
414.07	2518.42
414.26	2623.74
414.45	2562.89
414.64	2635.44
414.83	2810.98
415.02	2731.41
415.22	2696.30
415.41	2738.43
415.60	2822.69
415.79	2867.16
415.98	2881.20
416.17	2909.29
416.36	2906.95
416.55	3002.91
416.74	2977.16
416.93	2928.01
417.12	2953.76
417.31	2916.31
417.50	2967.80
417.69	3143.34
417.88	3122.27
418.07	3164.40
418.26	3129.30
418.45	3176.11
418.64	3164.40
418.83	3218.24
419.02	3141.00
419.21	3192.49
419.39	3258.03
419.58	3335.26
419.77	3269.73
419.96	3246.32
420.15	3405.48
420.34	3332.92
420.53	3442.93
420.72	3361.01
420.91	3489.74
421.10	3438.25
421.29	3510.80
421.48	3496.76
421.67	3548.25
421.86	3574.00
422.05	3595.06
422.24	3421.86
422.43	3375.05
422.61	3489.74
422.80	3611.45
422.99	3611.45
423.18	3548.25
423.37	3616.13
423.56	3485.06
423.75	3646.55
423.94	3412.50
424.13	3433.57
424.32	3339.94
424.50	3679.32
424.69	3742.52
424.88	3758.90
425.07	3559.95
425.26	3578.68
425.45	3674.64
425.64	3644.21
425.83	3595.06
426.01	3660.60
426.20	3599.74
426.39	3545.91
426.58	3564.64
426.77	3660.60
426.96	3576.34
427.15	3646.55
427.33	3660.60
427.52	3845.50
427.71	3779.97
427.90	3641.87
428.09	3808.05
428.28	3705.07
428.46	3850.18
428.65	3824.44
428.84	3875.93
429.03	3840.82
429.22	3637.19
429.40	3850.18
429.59	3789.33
429.78	3630.17
429.97	3796.35
430.16	3742.52
430.34	3782.31
430.53	3831.46
430.72	3875.93
430.91	3953.16
431.10	3922.74
431.28	4007.00
431.47	4002.32
431.66	4297.22
431.85	4236.37
432.03	4180.20
432.22	4306.59
432.41	4311.27
432.60	4290.20
432.79	4234.03
432.97	4386.16
433.16	4360.42
433.35	4259.78
433.54	4234.03
433.72	4414.25
433.91	4269.14
434.10	4344.03
434.28	4299.56
434.47	4414.25
434.66	4613.20
434.85	4360.42
435.03	4510.21
435.22	4463.40
435.41	4674.05
435.59	4533.62
435.78	4573.41
435.97	4720.86
436.16	4559.36
436.34	4521.92
436.53	4652.98
436.72	4779.37
436.90	4631.92
437.09	4739.58
437.28	4575.75
437.46	4596.81
437.65	4770.01
437.84	4952.57
438.02	4919.81
438.21	4765.33
438.40	4784.06
438.58	4784.06
438.77	5032.15
438.96	4826.18
439.14	5041.51
439.33	5191.31
439.52	5076.62
439.70	5156.20
439.89	5303.65
440.08	5184.29
440.26	5224.08
440.45	5252.16
440.63	5305.99
440.82	5467.49
441.01	5392.59
441.19	5355.15
441.38	5586.86
441.57	5626.65
441.75	5479.19
441.94	5778.78
442.12	5633.67
442.31	5902.83
442.50	5668.78
442.68	5738.99
442.87	5762.40
443.05	5647.71
443.24	5858.36
443.43	5921.56
443.61	5837.30
443.80	5980.07
443.98	5825.59
444.17	5626.65
444.35	5898.15
444.54	6134.54
444.73	5944.96
444.91	5741.33
445.10	5914.53
445.28	5907.51
445.47	5851.34
445.65	5921.56
445.84	5921.56
446.02	6036.24
446.21	6033.90
446.39	6122.84
446.58	6272.64
446.77	6026.88
446.95	5954.32
447.14	6216.46
447.32	6274.98
447.51	6090.07
447.69	5977.73
447.88	6090.07
448.06	5975.39
448.25	6099.44
448.43	6188.38
448.62	5853.68
448.80	6164.97
448.99	6284.34
449.17	6190.72
449.36	6097.10
449.54	6331.15
449.73	6310.08
449.91	6384.98
450.10	6485.62
450.28	6555.84
450.46	6438.81
450.65	6516.05
450.83	6656.48
451.02	6602.65
451.20	6422.43
451.39	6640.10
451.57	6583.93
451.76	6415.41
451.94	6710.32
452.13	6462.22
452.31	6413.07
452.49	6375.62
452.68	6658.82
452.86	6675.21
453.05	6651.80
453.23	6815.64
453.42	6583.93
453.60	6574.56
453.78	6647.12
453.97	6630.74
454.15	6700.95
454.34	6644.78
454.52	6691.59
454.70	6780.53
454.89	6822.66
455.07	6883.52
455.26	6927.99
455.44	7023.95
455.62	7087.14
455.81	7148.00
455.99	7061.40
456.17	6892.88
456.36	7108.21
456.54	7145.66
456.73	7272.04
456.91	7358.64
457.09	7337.58
457.28	7555.25
457.46	7307.15
457.64	7569.29
457.83	7419.50
458.01	7405.46
458.19	7588.02
458.38	7447.58
458.56	7403.11
458.74	7321.20
458.93	7569.29
459.11	7723.77
459.29	7555.25
459.48	7665.25
459.66	7482.69
459.84	7449.93
460.03	7705.04
460.21	7693.34
460.39	7716.75
460.57	7637.17
460.76	7918.03
460.94	7967.18
461.12	7812.71
461.31	7892.29
461.49	7798.66
461.67	7836.11
461.85	8135.70
462.04	7880.58
462.22	8439.97
462.40	8161.45
462.59	8250.39
462.77	8063.15
462.95	8116.98
463.13	8065.49
463.32	8131.02
463.50	8388.48
463.68	8236.35
463.86	8217.62
464.05	8004.63
464.23	8175.49
464.41	8341.67
464.59	7939.10
464.78	8322.94
464.96	8149.75
465.14	8243.37
465.32	8266.77
465.50	8428.27
465.69	8400.18
465.87	8439.97
466.05	8587.43
466.23	8491.46
466.41	8287.84
466.60	8599.13
466.78	8372.10
466.96	8383.80
467.14	8458.70
467.32	8585.08
467.51	8692.75
467.69	8325.29
467.87	8912.76
468.05	8872.97
468.23	8786.37
468.41	8704.45
468.60	8793.39
468.78	8695.09
468.96	8793.39
469.14	8954.89
469.32	8898.72
469.50	8793.39
469.69	8959.57
469.87	8980.64
470.05	9118.73
470.23	9224.05
470.41	8973.61
470.59	9107.02
470.77	9137.45
470.95	9336.40
471.14	9249.80
471.32	8940.85
471.50	9603.22
471.68	9453.42
471.86	9427.68
472.04	9483.85
472.22	9619.60
472.40	9359.80
472.58	9528.32
472.77	9495.55
472.95	9565.77
473.13	10129.84
473.31	9647.69
473.49	9790.46
473.67	9858.34
473.85	9837.27
474.03	9919.19
474.21	9958.98
474.39	9949.62
474.57	10101.75
474.75	10270.27
474.93	10296.02
475.12	10281.97
475.30	10443.47
475.48	10312.40
475.66	10431.77
475.84	10523.05
476.02	10609.65
476.20	10602.63
476.38	10614.33
476.56	10892.85
476.74	10846.04
476.92	10731.36
477.10	10789.87
477.28	11084.78
477.46	11164.36
477.64	11330.53
477.82	11279.04
478.00	11587.99
478.18	11197.12
478.36	11389.05
478.54	11740.13
478.72	11569.27
478.90	12006.95
479.08	11974.18
479.26	12025.67
479.44	12067.80
479.62	12025.67
479.80	12198.87
479.98	12332.28
480.16	12456.33
480.34	12365.05
480.52	12636.55
480.70	12601.44
480.88	12608.47
481.06	12603.78
481.24	12692.73
481.41	12833.16
481.59	13268.50
481.77	13376.16
481.95	13270.84
482.13	13474.46
482.31	13408.93
482.49	13671.07
482.67	13905.12
482.85	13841.93
483.03	13891.08
483.21	13790.44
483.39	14216.41
483.57	13956.61
483.74	14216.41
483.92	14499.62
484.10	14244.50
484.28	14443.45
484.46	15035.60
484.64	15185.40
484.82	14920.92
485.00	14881.13
485.18	15358.60
485.35	15286.04
485.53	15220.50
485.71	15169.01
485.89	15541.16
486.07	15234.55
486.25	15592.65
486.43	15578.61
486.61	15620.74
486.78	15887.56
486.96	16133.31
487.14	16355.66
487.32	16531.20
487.50	16608.44
487.68	16671.64
487.85	16893.99
488.03	16931.44
488.21	17547.00
488.39	17275.49
488.57	17305.92
488.75	17467.42
488.92	17624.23
489.10	17696.79
489.28	17804.46
489.46	17991.70
489.64	18162.56
489.81	18387.25
489.99	18572.15
490.17	18986.43
490.35	18604.92
490.53	18883.44
490.70	19054.30
490.88	19030.90
491.06	19208.78
491.24	19019.19
491.41	19440.49
491.59	19300.06
491.77	19274.31
491.95	19587.94
492.13	19381.98
492.30	19777.53
492.48	19758.80
492.66	20154.35
492.84	20435.22
493.01	20594.37
493.19	20585.01
493.37	20692.68
493.54	20666.93
493.72	20723.10
493.90	21025.03
494.08	21149.08
494.25	21659.32
494.43	21397.18
494.61	21640.59
494.79	21762.30
494.96	21809.11
495.14	21649.96
495.32	21972.95
495.49	22080.61
495.67	21872.31
495.85	22387.22
496.02	22621.28
496.20	22567.45
496.38	22625.96
496.55	22539.36
496.73	23021.51
496.91	22796.82
497.09	23042.57
497.26	23372.59
497.44	23201.73
497.62	23175.98
497.79	23641.75
497.97	23215.77
498.14	23721.33
498.32	23950.70
498.50	23882.83
498.67	23953.04
498.85	24285.40
499.03	24446.90
499.20	24540.52
499.38	24278.38
499.56	24994.58
499.73	24627.12
499.91	24800.32
500.08	24912.66
500.26	25027.35
500.44	25006.28
500.61	24762.87
500.79	24950.11
500.97	25249.70
501.14	25607.80
501.32	25472.05
501.49	25371.41
501.67	25429.92
501.84	25621.84
502.02	25776.32
502.20	25951.86
502.37	25881.64
502.55	26087.61
502.72	25914.41
502.90	26115.70
503.07	26118.04
503.25	26125.06
503.43	26157.83
503.60	26415.29
503.78	26192.94
503.95	26450.39
504.13	26663.38
504.30	26515.93
504.48	26525.29
504.65	26848.29
504.83	27154.90
505.01	27367.88
505.18	27379.59
505.36	27412.35
505.53	27442.78
505.71	27498.95
505.88	27716.62
506.06	27370.22
506.23	27735.35
506.41	27756.41
506.58	27653.43
506.76	27777.48
506.93	28308.78
507.11	28170.69
507.28	28261.97
507.46	28102.81
507.63	28135.58
507.81	28481.98
507.98	28517.09
508.16	28563.90
508.33	28694.97
508.50	28636.45
508.68	28936.04
508.85	29024.98
509.03	29214.57
509.20	28996.90
509.38	29392.45
509.55	29179.46
509.73	29130.31
509.90	29319.89
510.08	29305.85
510.25	29422.87
510.42	29619.48
510.60	29661.61
510.77	30068.86
510.95	30005.67
511.12	30270.15
511.30	29830.13
511.47	30244.40
511.64	30331.00
511.82	30375.47
511.99	30153.12
512.17	30279.51
512.34	30239.72
512.51	30422.28
512.69	30661.02
512.86	30480.80
513.04	30665.70
513.21	30939.54
513.38	30604.84
513.56	31021.46
513.73	30841.24
513.90	31131.47
514.08	30998.06
514.25	31246.15
514.43	31159.55
514.60	31178.28
514.77	31229.77
514.95	31749.37
515.12	31569.15
515.29	31646.38
515.47	32048.96
515.64	32318.12
515.81	31985.76
515.99	31756.39
516.16	32091.09
516.33	31845.33
516.51	32215.13
516.68	31864.05
516.85	31707.24
517.03	31723.62
517.20	32266.63
517.37	32177.68
517.54	32393.01
517.72	32496.00
517.89	32465.57
518.06	32201.09
518.24	32367.27
518.41	32704.31
518.58	32713.67
518.75	32879.85
518.93	33039.00
519.10	32847.08
519.27	33371.36
519.45	33090.49
519.62	33518.81
519.79	33371.36
519.96	33434.55
520.14	33371.36
520.31	33350.29
520.48	33755.21
520.65	33420.51
520.83	34078.20
521.00	33773.93
521.17	33692.01
521.34	33869.89
521.52	34017.35
521.69	34085.22
521.86	34506.52
522.03	34176.50
522.20	34057.14
522.38	34579.07
522.55	34618.86
522.72	34485.45
522.89	34185.86
523.07	34504.18
523.24	34590.78
523.41	34808.45
523.58	34761.64
523.75	35328.05
523.92	35005.05
524.10	35166.55
524.27	35344.43
524.44	35208.68
524.61	35573.80
524.78	35236.77
524.96	35690.83
525.13	35896.80
525.30	35452.09
525.47	35672.10
525.64	35583.16
525.81	35456.78
525.98	35632.32
526.16	35475.50
526.33	35644.02
526.50	35847.64
526.67	35917.86
526.84	35725.94
527.01	36030.21
527.18	36025.53
527.36	35878.07
527.53	36430.44
527.70	36825.99
527.87	36364.90
528.04	36196.38
528.21	36261.92
528.38	35908.50
528.55	36950.04
528.72	36858.76
528.89	36957.06
529.07	36891.52
529.24	36767.48
529.41	37223.88
529.58	36807.26
529.75	36950.04
529.92	36987.49
530.09	37125.58
530.26	37504.74
530.43	37226.22
530.60	37511.77
530.77	37141.96
530.94	37614.75
531.11	37427.51
531.28	37312.82
531.46	37329.20
531.63	37626.45
531.80	37919.02
531.97	37198.13
532.14	37404.10
532.31	37226.22
532.48	37972.85
532.65	37689.65
532.82	37844.12
532.99	37769.22
533.16	37387.72
533.33	37827.74
533.50	38244.35
533.67	37780.93
533.84	38337.98
534.01	38347.34
534.18	38354.36
534.35	38667.99
534.52	38359.04
534.69	38068.81
534.86	38497.13
535.03	38099.24
535.20	38625.86
535.37	38497.13
535.54	39407.60
535.71	38508.83
535.88	38740.55
536.05	38754.59
536.22	38934.81
536.38	38478.41
536.55	38445.64
536.72	38593.09
536.89	38672.67
537.06	38419.89
537.23	38511.17
537.40	38857.57
537.57	39477.82
537.74	38988.64
537.91	39739.96
538.08	39400.58
538.25	39056.52
538.42	39210.99
538.59	39445.05
538.75	39526.97
538.92	39555.05
539.09	39562.08
539.26	39452.07
539.43	40004.44
539.60	39365.47
539.77	39974.01
539.94	39613.57
540.11	39442.71
540.28	40076.99
540.44	39290.57
540.61	39452.07
540.78	39749.32
540.95	39414.62
541.12	40067.63
541.29	39611.23
541.46	39849.96
541.62	40126.14
541.79	40268.92
541.96	40126.14
542.13	40009.12
542.30	40098.06
542.47	39906.13
542.63	40250.19
542.80	40294.66
542.97	40657.45
543.14	41160.66
543.31	40870.43
543.48	40559.14
543.64	41120.87
543.81	41193.43
543.98	41214.49
544.15	40570.85
544.32	40758.09
544.48	41380.67
544.65	40999.16
544.82	41333.86
544.99	40645.74
545.16	41141.94
545.32	41013.21
545.49	41378.33
545.66	41102.15
545.83	41198.11
546.00	41584.30
546.16	41254.28
546.33	41315.14
546.50	40935.97
546.67	41516.42
546.83	41003.85
547.00	41535.15
547.17	41195.77
547.34	41425.14
547.50	41633.45
547.67	42029.00
547.84	41652.17
548.00	42033.68
548.17	41916.65
548.34	41696.64
548.51	41996.23
548.67	42000.91
548.84	41904.95
549.01	42232.63
549.18	41860.48
549.34	41715.37
549.51	42473.70
549.68	42115.60
549.84	42068.79
550.01	42887.98
550.18	42150.71
550.34	42241.99
550.51	42043.04
550.68	41804.31
550.84	42047.72
551.01	41881.55
551.18	42146.03
551.34	42733.50
551.51	42543.92
551.68	42220.92
551.84	42438.59
552.01	42073.47
552.18	42382.42
552.34	42279.44
552.51	42520.51
552.68	42543.92
552.84	42820.10
553.01	43248.42
553.18	42356.67
553.34	42712.44
553.51	42436.25
553.67	43000.32
553.84	42920.74
554.01	43002.66
554.17	43084.58
554.34	43030.75
554.51	42895.00
554.67	43234.38
554.84	43089.26
555.00	42794.36
555.17	42843.51
555.33	43049.47
555.50	43337.36
555.67	43098.62
555.83	42983.94
556.00	43344.38
556.16	43524.60
556.33	43278.85
556.50	43679.08
556.66	43007.34
556.83	42871.59
556.99	43569.07
557.16	43430.98
557.32	43517.58
557.49	43679.08
557.65	42848.19
557.82	43119.69
557.98	43260.12
558.15	43419.28
558.32	43646.31
558.48	43447.36
558.65	43438.00
558.81	43489.49
558.98	43295.23
559.14	43250.76
559.31	43009.68
559.47	43744.61
559.64	43662.69
559.80	44025.48
559.97	44126.12
560.13	44142.50
560.30	43498.86
560.46	43728.23
560.63	43749.29
560.79	44196.34
560.96	44282.94
561.12	43959.94
561.29	43779.72
561.45	43438.00
561.61	43653.33
561.78	43761.00
561.94	43828.87
562.11	43863.98
562.27	43955.26
562.44	44144.84
562.60	44212.72
562.77	43915.47
562.93	44147.18
563.10	44142.50
563.26	43526.94
563.42	44292.30
563.59	43880.36
563.75	43695.46
563.92	44371.88
564.08	44280.60
564.24	44369.54
564.41	44091.01
564.57	43793.76
564.74	44072.29
564.90	44645.72
565.07	44376.56
565.23	43964.62
565.39	43894.41
565.56	44320.38
565.72	43988.03
565.88	44318.04
566.05	44301.66
566.21	44245.49
566.38	44086.33
566.54	43856.96
566.70	44636.36
566.87	44215.06
567.03	44435.07
567.19	44493.58
567.36	44765.09
567.52	44346.13
567.68	44692.53
567.85	44430.39
568.01	44301.66
568.17	44055.90
568.34	44299.32
568.50	44474.86
568.66	44451.45
568.83	44603.59
568.99	44046.54
569.15	44619.97
569.32	44416.35
569.48	44322.72
569.64	44615.29
569.81	44196.34
569.97	44430.39
570.13	44577.84
570.30	44416.35
570.46	44711.25
570.62	44144.84
570.78	44219.74
570.95	44526.35
571.11	44718.28
571.27	44435.07
571.43	44287.62
571.60	45109.14
571.76	44781.47
571.92	44451.45
572.09	44322.72
572.25	44655.08
572.41	44566.14
572.57	45111.49
572.74	45057.65
572.90	44795.51
573.06	44643.38
573.22	44296.98
573.38	45027.23
573.55	44133.14
573.71	44774.45
573.87	44790.83
574.03	44570.82
574.20	44568.48
574.36	44650.40
574.52	45020.20
574.68	44774.45
574.84	44758.06
575.01	44919.56
575.17	44652.74
575.33	44673.81
575.49	44545.08
575.65	44861.05
575.82	45024.89
575.98	44870.41
576.14	45146.59
576.30	44648.06
576.46	44781.47
576.62	44882.11
576.79	44910.20
576.95	44130.80
577.11	44463.16
577.27	44725.30
577.43	44725.30
577.59	44727.64
577.75	44905.52
577.92	44718.28
578.08	44577.84
578.24	44662.10
578.40	44802.53
578.56	45055.31
578.72	44776.79
578.88	44968.71
579.04	44863.39
579.21	44465.50
579.37	44601.25
579.53	44477.20
579.69	44463.16
579.85	44746.36
580.01	44786.15
580.17	44882.11
580.33	44980.42
580.49	45158.30
580.65	45010.84
580.82	45214.47
580.98	44870.41
581.14	44961.69
581.30	45127.87
581.46	44685.51
581.62	44800.19
581.78	44767.43
581.94	45280.00
582.10	44968.71
582.26	45162.98
582.42	45090.42
582.58	44938.29
582.74	44903.18
582.90	44610.61
583.06	44966.37
583.22	45137.23
583.38	45186.38
583.54	45425.12
583.70	44870.41
583.86	45158.30
584.02	45212.13
584.18	45240.21
584.34	44954.67
584.50	45017.86
584.66	44594.23
584.82	45134.89
584.98	45523.42
585.14	45165.32
585.30	44629.34
585.46	44781.47
585.62	44720.62
585.78	45125.53
585.94	44395.28
586.10	44540.39
586.26	44952.33
586.42	44882.11
586.58	45179.36
586.74	45029.57
586.90	44591.89
587.06	44737.00
587.22	45333.84
587.38	44734.66
587.54	45331.50
587.70	45097.44
587.86	45043.61
588.02	45167.66
588.18	45329.16
588.34	45310.43
588.49	44406.98
588.65	44985.10
588.81	44931.26
588.97	44980.42
589.13	44664.44
589.29	44739.34
589.45	45280.00
589.61	45223.83
589.77	45155.96
589.93	45057.65
590.08	45511.72
590.24	45137.23
