SpectraSuite Data File
++++++++++++++++++++++++++++++++++++
Date: Fri Oct 25 11:22:59 EDT 2013
User: price-jones
Dark Spectrum Present: No
Reference Spectrum Present: No
Number of Sampled Component Spectra: 1
Spectrometers: USB2+H05261
Integration Time (usec): 100000 (USB2+H05261)
Spectra Averaged: 1 (USB2+H05261)
Boxcar Smoothing: 0 (USB2+H05261)
Correct for Electrical Dark: No (USB2+H05261)
Strobe/Lamp Enabled: No (USB2+H05261)
Correct for Detector Non-linearity: No (USB2+H05261)
Correct for Stray Light: No (USB2+H05261)
Number of Pixels in Processed Spectrum: 2048
>>>>>Begin Processed Spectral Data<<<<<
365.73	147.45
365.92	147.45
366.12	147.45
366.32	131.07
366.52	95.96
366.72	163.84
366.91	105.32
367.11	142.77
367.31	42.13
367.51	102.98
367.70	84.26
367.90	149.79
368.10	126.39
368.30	142.77
368.49	110.01
368.69	168.52
368.89	208.31
369.09	107.66
369.28	196.60
369.48	208.31
369.68	145.11
369.87	145.11
370.07	173.20
370.27	257.46
370.47	271.50
370.66	589.82
370.86	678.76
371.06	657.69
371.25	669.39
371.45	627.26
371.65	709.18
371.84	692.80
372.04	709.18
372.24	674.07
372.44	636.63
372.63	751.31
372.83	748.97
373.03	718.54
373.22	779.40
373.42	744.29
373.62	734.93
373.81	746.63
374.01	784.08
374.21	812.17
374.40	830.89
374.60	819.19
374.79	940.90
374.99	809.83
375.19	791.10
375.38	835.57
375.58	868.34
375.78	894.08
375.97	812.17
376.17	901.11
376.37	793.44
376.56	821.53
376.76	866.00
376.95	854.30
377.15	910.47
377.35	891.74
377.54	858.98
377.74	849.61
377.93	837.91
378.13	919.83
378.33	898.77
378.52	894.08
378.72	954.94
378.91	929.19
379.11	908.13
379.31	929.19
379.50	880.04
379.70	992.39
379.89	964.30
380.09	894.08
380.28	1004.09
380.48	952.60
380.68	978.34
380.87	957.28
381.07	1074.31
381.26	1086.01
381.46	1006.43
381.65	1055.58
381.85	961.96
382.04	1093.03
382.24	1008.77
382.43	1071.97
382.63	966.64
382.83	1142.18
383.02	1146.86
383.22	1165.59
383.41	1029.84
383.61	1083.67
383.80	1170.27
384.00	1116.44
384.19	1095.37
384.39	1170.27
384.58	1167.93
384.78	1149.20
384.97	1149.20
385.17	1123.46
385.36	1203.04
385.56	1252.19
385.75	1196.01
385.95	1184.31
386.14	1231.12
386.34	1186.65
386.53	1198.35
386.72	1174.95
386.92	1200.69
387.11	1273.25
387.31	1254.53
387.50	1240.48
387.70	1226.44
387.89	1301.34
388.09	1231.12
388.28	1310.70
388.48	1291.98
388.67	1306.02
388.86	1247.51
389.06	1287.29
389.25	1362.19
389.45	1373.89
389.64	1357.51
389.84	1348.15
390.03	1366.87
390.22	1392.62
390.42	1359.85
390.61	1404.32
390.81	1420.71
391.00	1359.85
391.19	1540.07
391.39	1432.41
391.58	1481.56
391.78	1430.07
391.97	1486.24
392.16	1467.52
392.36	1558.80
392.55	1439.43
392.75	1589.22
392.94	1598.59
393.13	1542.41
393.33	1575.18
393.52	1600.93
393.71	1593.90
393.91	1535.39
394.10	1596.25
394.29	1643.06
394.49	1570.50
394.68	1671.14
394.88	1629.01
395.07	1645.40
395.26	1638.38
395.46	1678.16
395.65	1717.95
395.84	1750.72
396.04	1673.48
396.23	1689.87
396.42	1699.23
396.62	1832.64
396.81	1830.30
397.00	1753.06
397.19	1813.92
397.39	1844.34
397.58	1877.11
397.77	1769.44
397.97	1858.39
398.16	1806.89
398.35	1844.34
398.55	1834.98
398.74	1879.45
398.93	2005.84
399.12	1874.77
399.32	1895.83
399.51	1998.82
399.70	2106.48
399.90	2010.52
400.09	1998.82
400.28	2029.24
400.47	2066.69
400.67	1977.75
400.86	2153.29
401.05	2073.71
401.24	2092.44
401.44	2150.95
401.63	2073.71
401.82	2174.36
402.01	2160.31
402.21	2183.72
402.40	2162.66
402.59	2242.23
402.78	2188.40
402.97	2230.53
403.17	2263.30
403.36	2249.25
403.55	2476.29
403.74	2429.48
403.93	2427.14
404.13	2377.98
404.32	2289.04
404.51	2368.62
404.70	2314.79
404.89	2523.10
405.09	2523.10
405.28	2434.16
405.47	2438.84
405.66	2530.12
405.85	2600.34
406.05	2588.63
406.24	2548.84
406.43	2588.63
406.62	2626.08
406.81	2619.06
407.00	2572.25
407.20	2654.17
407.39	2602.68
407.58	2633.10
407.77	2712.68
407.96	2722.04
408.15	2792.26
408.34	2708.00
408.54	2916.31
408.73	2794.60
408.92	2949.08
409.11	2808.64
409.30	2862.48
409.49	2855.45
409.68	2892.90
409.87	2890.56
410.07	2920.99
410.26	3002.91
410.45	2970.14
410.64	3040.36
410.83	3169.09
411.02	3131.64
411.21	3248.66
411.40	3162.06
411.59	3283.77
411.78	3304.84
411.98	3190.15
412.17	3192.49
412.36	3365.69
412.55	3314.20
412.74	3520.17
412.93	3452.29
413.12	3424.20
413.31	3480.38
413.50	3466.33
413.69	3468.67
413.88	3632.51
414.07	3566.98
414.26	3562.30
414.45	3569.32
414.64	3672.30
414.83	3726.13
415.02	3894.65
415.22	3716.77
415.41	3904.01
415.60	3899.33
415.79	3976.57
415.98	4032.74
416.17	3925.08
416.36	4002.32
416.55	4070.19
416.74	4180.20
416.93	4070.19
417.12	4248.07
417.31	4236.37
417.50	4243.39
417.69	4266.80
417.88	4257.43
418.07	4334.67
418.26	4231.69
418.45	4386.16
418.64	4531.28
418.83	4449.36
419.02	4423.61
419.21	4498.51
419.39	4524.26
419.58	4545.32
419.77	4418.93
419.96	4447.02
420.15	4631.92
420.34	4489.15
420.53	4636.60
420.72	4599.15
420.91	4755.97
421.10	4613.20
421.29	4830.87
421.48	4650.64
421.67	4678.73
421.86	4812.14
422.05	4887.04
422.24	4863.63
422.43	4997.04
422.61	4922.15
422.80	4957.25
422.99	5013.43
423.18	5060.24
423.37	5090.67
423.56	4767.67
423.75	4861.29
423.94	4861.29
424.13	4641.28
424.32	4898.74
424.50	4877.68
424.69	5081.30
424.88	5102.37
425.07	4873.00
425.26	5008.75
425.45	5018.11
425.64	4821.50
425.83	5004.07
426.01	5020.45
426.20	5123.43
426.39	5132.79
426.58	5102.37
426.77	5139.82
426.96	5090.67
427.15	5174.92
427.33	5149.18
427.52	5336.42
427.71	5193.65
427.90	5327.06
428.09	5493.24
428.28	5432.38
428.46	5270.89
428.65	5408.98
428.84	5533.03
429.03	5614.95
429.22	5425.36
429.40	5420.68
429.59	5465.15
429.78	5352.81
429.97	5280.25
430.16	5547.07
430.34	5689.84
430.53	5799.85
430.72	5844.32
430.91	5647.71
431.10	5664.10
431.28	5809.21
431.47	5947.30
431.66	5886.45
431.85	5916.87
432.03	5994.11
432.22	5928.58
432.41	5937.94
432.60	6036.24
432.79	6036.24
432.97	6104.12
433.16	6239.87
433.35	6127.52
433.54	6340.51
433.72	6298.38
433.91	6384.98
434.10	6157.95
434.28	6258.59
434.47	6169.65
434.66	6260.93
434.85	6448.18
435.03	6258.59
435.22	6221.14
435.41	6619.04
435.59	6389.66
435.78	6448.18
435.97	6483.28
436.16	6569.88
436.34	6494.99
436.53	6658.82
436.72	6691.59
436.90	6558.18
437.09	6525.41
437.28	6537.12
437.46	6715.00
437.65	6850.75
437.84	6827.34
438.02	6771.17
438.21	6745.42
438.40	6719.68
438.58	7037.99
438.77	7014.59
438.96	7110.55
439.14	7197.15
439.33	7145.66
439.52	7286.09
439.70	7328.22
439.89	7405.46
440.08	7520.14
440.26	7433.54
440.45	7337.58
440.63	7531.84
440.82	7742.49
441.01	7571.63
441.19	7634.83
441.38	7702.70
441.57	7878.24
441.75	7906.33
441.94	7999.95
442.12	7967.18
442.31	7939.10
442.50	8189.53
442.68	8131.02
442.87	8079.53
443.05	8149.75
443.24	8226.98
443.43	8418.91
443.61	8400.18
443.80	8594.45
443.98	8086.55
444.17	7967.18
444.35	8198.90
444.54	8402.52
444.73	8407.20
444.91	8451.67
445.10	8585.08
445.28	8484.44
445.47	8503.17
445.65	8339.33
445.84	8568.70
446.02	8484.44
446.21	8456.36
446.39	8454.02
446.58	8652.96
446.77	8617.85
446.95	8360.39
447.14	8463.38
447.32	8645.94
447.51	8510.19
447.69	8681.05
447.88	8437.63
448.06	8575.72
448.25	8531.25
448.43	8608.49
448.62	8564.02
448.80	8674.03
448.99	8741.90
449.17	8730.20
449.36	8755.94
449.54	8865.95
449.73	9006.38
449.91	9217.03
450.10	9146.81
450.28	8823.82
450.46	9076.60
450.65	9170.22
450.83	9109.36
451.02	9048.51
451.20	9338.74
451.39	9277.88
451.57	9479.17
451.76	9118.73
451.94	9418.32
452.13	9521.30
452.31	9418.32
452.49	9226.39
452.68	9469.81
452.86	9378.53
453.05	9444.06
453.23	9600.88
453.42	9348.10
453.60	9181.92
453.78	9451.08
453.97	9542.36
454.15	9797.48
454.34	9582.15
454.52	9572.79
454.70	9647.69
454.89	9720.24
455.07	9888.76
455.26	9682.80
455.44	10160.27
455.62	9975.36
455.81	9977.70
455.99	9942.60
456.17	10101.75
456.36	10029.20
456.54	10066.64
456.73	10422.41
456.91	10422.41
457.09	10314.74
457.28	10623.69
457.46	10373.25
457.64	10757.10
457.83	10478.58
458.01	10619.01
458.19	10920.94
458.38	10876.47
458.56	10963.07
458.74	10626.03
458.93	10843.70
459.11	10911.58
459.29	10916.26
459.48	10988.82
459.66	10918.60
459.84	10988.82
460.03	11398.41
460.21	10949.03
460.39	11075.42
460.57	11136.27
460.76	10988.82
460.94	11445.22
461.12	11431.18
461.31	11201.80
461.49	11290.74
461.67	11140.95
461.85	11508.41
462.04	11302.45
462.22	11784.60
462.40	11749.49
462.59	11681.61
462.77	11857.15
462.95	11808.00
463.13	11728.42
463.32	11646.51
463.50	11918.01
463.68	11976.52
463.86	12168.45
464.05	11810.34
464.23	11751.83
464.41	12025.67
464.59	11859.49
464.78	12222.28
464.96	12149.72
465.14	12006.95
465.32	12173.13
465.50	12002.27
465.69	12285.47
465.87	12266.75
466.05	12219.94
466.23	12098.23
466.41	12269.09
466.60	12636.55
466.78	12203.55
466.96	12624.85
467.14	12571.02
467.32	12774.64
467.51	12732.51
467.69	12273.77
467.87	12531.23
468.05	12535.91
468.23	12603.78
468.41	12627.19
468.60	12807.41
468.78	12620.17
468.96	12718.47
469.14	12954.87
469.32	13114.02
469.50	12784.01
469.69	13170.19
469.87	13123.38
470.05	13118.70
470.23	13249.77
470.41	13308.29
470.59	13540.00
470.77	13327.01
470.95	13319.99
471.14	13481.49
471.32	12915.08
471.50	13858.31
471.68	13666.39
471.86	14043.21
472.04	13699.16
472.22	14300.67
472.40	13930.87
472.58	13996.40
472.77	14031.51
472.95	14225.78
473.13	14860.06
473.31	14202.37
473.49	14188.33
473.67	14127.47
473.85	14338.12
474.03	14705.59
474.21	14726.65
474.39	14876.44
474.57	14705.59
474.75	14977.09
474.93	15040.28
475.12	15115.18
475.30	15386.68
475.48	15241.57
475.66	15644.14
475.84	15248.59
476.02	15707.34
476.20	15674.57
476.38	15798.62
476.56	16290.13
476.74	16152.04
476.92	15960.11
477.10	16130.97
477.28	16388.43
477.46	16212.89
477.64	16531.20
477.82	16781.64
478.00	16886.97
478.18	16905.69
478.36	17121.02
478.54	17420.61
478.72	17273.15
478.90	17769.35
479.08	17521.25
479.26	17839.56
479.44	18052.55
479.62	17912.12
479.80	18504.28
479.98	18415.34
480.16	18773.44
480.34	18389.59
480.52	18714.92
480.70	18771.10
480.88	18333.42
481.06	18902.17
481.24	19073.03
481.41	19269.63
481.59	19515.39
481.77	19529.43
481.95	19728.38
482.13	20250.32
482.31	19641.78
482.49	20133.29
482.67	20346.28
482.85	20767.57
483.03	20936.09
483.21	20980.56
483.39	21312.92
483.57	21071.84
483.74	21289.51
483.92	21406.54
484.10	21357.39
484.28	21919.12
484.46	22473.82
484.64	22707.88
484.82	22094.66
485.00	22647.02
485.18	22909.16
485.35	23328.12
485.53	23054.28
485.71	23192.37
485.89	23838.36
486.07	23946.02
486.25	23440.47
486.43	23840.70
486.61	23913.25
486.78	24208.16
486.96	24507.75
487.14	25090.54
487.32	24877.55
487.50	25179.48
487.68	25469.71
487.85	25591.42
488.03	25874.62
488.21	26312.30
488.39	26293.58
488.57	26391.88
488.75	26394.22
488.92	26663.38
489.10	26979.36
489.28	27374.91
489.46	27648.75
489.64	27061.27
489.81	27805.56
489.99	27814.93
490.17	28187.07
490.35	28428.15
490.53	28318.14
490.70	28687.95
490.88	28444.53
491.06	29296.49
491.24	29167.76
491.41	29467.34
491.59	29397.13
491.77	29521.18
491.95	29872.26
492.13	30293.55
492.30	30059.50
492.48	30141.42
492.66	30700.81
492.84	30698.47
493.01	31257.85
493.19	30920.82
493.37	31274.24
493.54	31592.55
493.72	31702.56
493.90	31503.61
494.08	32634.09
494.25	32435.14
494.43	32048.96
494.61	32360.25
494.79	32732.39
494.96	32568.55
495.14	33160.71
495.32	33589.03
495.49	33558.60
495.67	33940.11
495.85	34059.48
496.02	33855.85
496.20	34735.89
496.38	34260.76
496.55	34363.75
496.73	35187.61
496.91	34890.37
497.09	34920.79
497.26	35538.69
497.44	35590.19
497.62	35508.27
497.79	36238.51
497.97	35805.52
498.14	36257.24
498.32	36657.47
498.50	36437.46
498.67	37031.96
498.85	36561.51
499.03	37226.22
499.20	37090.47
499.38	37130.26
499.56	37324.52
499.73	37294.10
499.91	37706.03
500.08	37998.60
500.26	38033.71
500.44	38225.63
500.61	38494.79
500.79	38103.92
500.97	38515.86
501.14	39084.61
501.32	38822.47
501.49	38815.44
501.67	39484.84
501.84	39313.98
502.02	39168.87
502.20	39044.82
502.37	39604.20
502.55	39597.18
502.72	40044.23
502.90	39868.69
503.07	39896.77
503.25	40191.68
503.43	40044.23
503.60	40727.66
503.78	40610.64
503.95	40840.01
504.13	40540.42
504.30	41024.91
504.48	40825.96
504.65	41462.59
504.83	41141.94
505.01	41682.60
505.18	41710.69
505.36	41820.69
505.53	41521.10
505.71	41502.38
505.88	42216.24
506.06	42087.51
506.23	42494.77
506.41	42157.73
506.58	42260.71
506.76	42738.18
506.93	42415.19
507.11	42937.13
507.28	42939.47
507.46	42822.44
507.63	43592.48
507.81	43655.67
507.98	43297.57
508.16	43459.07
508.33	43634.61
508.50	44041.86
508.68	43887.39
508.85	44411.67
509.03	44168.25
509.20	44168.25
509.38	44847.00
509.55	44699.55
509.73	45104.46
509.90	45287.03
510.08	44975.73
510.25	44926.58
510.42	45478.95
510.60	45382.99
510.77	45530.44
510.95	45713.00
511.12	45272.98
511.30	45287.03
511.47	45804.28
511.64	45708.32
511.82	46686.67
511.99	45970.46
512.17	46380.06
512.34	46564.96
512.51	46747.52
512.69	47283.50
512.86	46703.05
513.04	47166.48
513.21	47124.35
513.38	47150.09
513.56	47346.70
513.73	47042.43
513.90	47358.40
514.08	47285.84
514.25	47789.06
514.43	47955.24
514.60	47732.89
514.77	47466.06
514.95	47980.98
515.12	48226.74
515.29	47929.49
515.47	48280.57
515.64	48521.65
515.81	48437.39
515.99	48460.79
516.16	48828.26
516.33	48748.68
516.51	49308.07
516.68	48804.85
516.85	48896.13
517.03	49378.28
517.20	49200.40
517.37	49471.90
517.54	49200.40
517.72	49347.86
517.89	49469.56
518.06	49399.35
518.24	49570.21
518.41	49825.32
518.58	49855.75
518.75	49649.78
518.93	49972.78
519.10	49752.77
519.27	50298.11
519.45	50176.40
519.62	50134.28
519.79	50487.70
519.96	50382.37
520.14	50417.48
520.31	50436.20
520.48	50520.46
520.65	50789.62
520.83	50911.33
521.00	51154.75
521.17	50813.03
521.34	50827.07
521.52	51093.89
521.69	51126.66
521.86	51386.46
522.03	51428.59
522.20	51805.42
522.38	51819.46
522.55	51920.10
522.72	51557.32
522.89	51737.54
523.07	52135.43
523.24	51564.34
523.41	52058.20
523.58	51800.74
523.75	52165.86
523.92	51709.46
524.10	52299.27
524.27	52367.15
524.44	52200.97
524.61	52306.29
524.78	52371.83
524.96	52486.51
525.13	52425.66
525.30	52743.97
525.47	52987.39
525.64	52856.32
525.81	52863.34
525.98	53120.80
526.16	52877.38
526.33	52875.04
526.50	53399.32
526.67	53174.63
526.84	53237.83
527.01	52825.89
527.18	53343.15
527.36	53097.39
527.53	53495.28
527.70	53769.13
527.87	53652.10
528.04	53647.42
528.21	53516.35
528.38	53574.86
528.55	53846.36
528.72	53790.19
528.89	53731.68
529.07	53914.24
529.24	53844.02
529.41	54258.30
529.58	53916.58
529.75	54101.48
529.92	54127.23
530.09	54213.83
530.26	54218.51
530.43	54328.52
530.60	54089.78
530.77	54103.82
530.94	54370.64
531.11	54410.43
531.28	54464.27
531.46	54576.61
531.63	54717.04
531.80	54628.10
531.97	54967.48
532.14	54688.96
532.31	54707.68
532.48	54920.67
532.65	54941.74
532.82	54845.77
532.99	54925.35
533.16	54569.59
533.33	55077.49
533.50	55182.81
533.67	55285.79
533.84	54845.77
534.01	55227.28
534.18	55023.65
534.35	55395.80
534.52	55386.44
534.69	55433.25
534.86	55487.08
535.03	55196.85
535.20	55489.42
535.37	55533.89
535.54	55576.02
535.71	55426.23
535.88	55723.47
536.05	55716.45
536.22	55791.35
536.38	55744.54
536.55	55749.22
536.72	56107.32
536.89	55980.93
537.06	56009.02
537.23	55920.08
537.40	55835.82
537.57	55779.65
537.74	56025.40
537.91	56329.67
538.08	56097.96
538.25	55875.61
538.42	56104.98
538.59	56465.42
538.75	56423.29
538.92	56317.97
539.09	56554.36
539.26	56355.42
539.43	56528.62
539.60	56537.98
539.77	56409.25
539.94	56924.17
540.11	56540.32
540.28	56701.82
540.44	56650.33
540.61	56692.46
540.78	56601.18
540.95	56804.80
541.12	56580.11
541.29	56879.70
541.46	56837.57
541.62	56732.25
541.79	57041.20
541.96	56743.95
542.13	56802.46
542.30	56968.64
542.47	57013.11
542.63	57223.76
542.80	57226.10
542.97	57413.34
543.14	57467.17
543.31	57413.34
543.48	57476.54
543.64	57623.99
543.81	57343.12
543.98	57689.52
544.15	57509.30
544.32	57670.80
544.48	57996.13
544.65	57490.58
544.82	57623.99
544.99	57553.77
545.16	57745.70
545.32	57785.49
545.49	57621.65
545.66	58056.99
545.83	57876.77
546.00	57982.09
546.16	58071.03
546.33	57939.96
546.50	57586.54
546.67	57982.09
546.83	57675.48
547.00	58155.29
547.17	57918.90
547.34	58239.55
547.50	58141.25
547.67	58328.49
547.84	58356.58
548.00	58436.16
548.17	58464.24
548.34	58473.60
548.51	58370.62
548.67	58527.44
548.84	58508.71
549.01	58291.04
549.18	58471.26
549.34	58473.60
549.51	58422.11
549.68	58745.11
549.84	58588.29
550.01	58887.88
550.18	58672.55
550.34	58773.19
550.51	58808.30
550.68	58892.56
550.84	58424.45
551.01	58791.92
551.18	58777.87
551.34	58862.13
551.51	58705.32
551.68	58766.17
551.84	58960.44
552.01	58796.60
552.18	58951.07
552.34	58880.86
552.51	59025.97
552.68	58763.83
552.84	58862.13
553.01	59056.40
553.18	59028.31
553.34	59164.06
553.51	59084.48
553.67	58920.65
553.84	59025.97
554.01	59238.96
554.17	59227.26
554.34	59107.89
554.51	59215.55
554.67	59437.90
554.84	59262.36
555.00	59325.56
555.17	58983.84
555.33	59348.96
555.50	58976.82
555.67	59269.39
555.83	59526.84
556.00	59166.40
556.16	59779.62
556.33	59650.89
556.50	59391.09
556.66	59477.69
556.83	59348.96
556.99	59702.38
557.16	59641.53
557.32	59681.32
557.49	59873.24
557.65	59611.10
557.82	59487.06
557.98	59877.93
558.15	59693.02
558.32	59583.02
558.48	59543.23
558.65	59810.05
558.81	59465.99
558.98	59840.48
559.14	59796.01
559.31	59728.13
559.47	59948.14
559.64	60151.77
559.80	59922.40
559.97	59962.18
560.13	59910.69
560.30	60079.21
560.46	59917.71
560.63	60182.19
560.79	59728.13
560.96	60133.04
561.12	59938.78
561.29	60144.75
561.45	60046.44
561.61	59831.11
561.78	60048.78
561.94	60004.31
562.11	60147.09
562.27	60151.77
562.44	60179.85
562.60	60189.22
562.77	60196.24
562.93	60020.70
563.10	60367.10
563.26	60135.38
563.42	60463.06
563.59	60133.04
563.75	60109.64
563.92	60175.17
564.08	60374.12
564.24	60313.26
564.41	60388.16
564.57	60329.65
564.74	60617.53
564.90	60203.26
565.07	60238.37
565.23	60353.05
565.39	60460.72
565.56	60500.51
565.72	60505.19
565.88	60406.89
566.05	60441.99
566.21	60427.95
566.38	60500.51
566.54	60542.64
566.70	60537.96
566.87	60544.98
567.03	60552.00
567.19	60928.83
567.36	60603.49
567.52	60554.34
567.68	60940.53
567.85	60477.10
568.01	60493.49
568.17	60491.15
568.34	60479.44
568.50	60706.47
568.66	60495.83
568.83	60659.66
568.99	60460.72
569.15	60769.67
569.32	60654.98
569.48	60680.73
569.64	60764.99
569.81	60748.60
569.97	60456.04
570.13	60722.86
570.30	60533.28
570.46	60699.45
570.62	60940.53
570.78	60736.90
570.95	60856.27
571.11	60935.85
571.27	60762.65
571.43	60952.23
571.60	60797.76
571.76	60690.09
571.92	60807.12
572.09	60842.23
572.25	60804.78
572.41	60774.35
572.57	60886.70
572.74	61031.81
572.90	60741.58
573.06	61001.38
573.22	60692.43
573.38	60959.25
573.55	61052.87
573.71	61027.13
573.87	60809.46
574.03	60750.94
574.20	60940.53
574.36	60842.23
574.52	60952.23
574.68	60952.23
574.84	61172.24
575.01	61069.26
575.17	61020.11
575.33	60802.44
575.49	60856.27
575.65	60898.40
575.82	60999.04
575.98	61076.28
576.14	61277.57
576.30	60982.66
576.46	60905.42
576.62	60989.68
576.79	61045.85
576.95	60945.21
577.11	61127.77
577.27	61134.79
577.43	60935.85
577.59	60940.53
577.75	61118.41
577.92	60860.95
578.08	60989.68
578.24	61132.45
578.40	61186.28
578.56	61247.14
578.72	61141.81
578.88	61066.92
579.04	61326.72
579.21	61043.51
579.37	61118.41
579.53	61197.99
579.69	60877.33
579.85	61130.11
580.01	61113.73
580.17	61006.06
580.33	61193.31
580.49	61361.82
580.65	61315.01
580.82	61057.56
580.98	61043.51
581.14	60919.46
581.30	61277.57
581.46	61169.90
581.62	61155.86
581.78	60867.97
581.94	61385.23
582.10	61085.64
582.26	61193.31
582.42	61120.75
582.58	61141.81
582.74	60973.30
582.90	61130.11
583.06	61188.63
583.22	61183.94
583.38	61233.10
583.54	61212.03
583.70	61113.73
583.86	61230.75
584.02	61251.82
584.18	61197.99
584.34	61427.36
584.50	61078.62
584.66	61200.33
584.82	61109.05
584.98	61338.42
585.14	61275.22
585.30	61347.78
585.46	61216.71
585.62	61176.92
585.78	61474.17
585.94	61141.81
586.10	61286.93
586.26	61134.79
586.42	61443.74
586.58	61310.33
586.74	61219.05
586.90	61195.65
587.06	61230.75
587.22	61399.27
587.38	61352.46
587.54	61609.92
587.70	61600.56
587.86	61408.64
588.02	61240.12
588.18	61518.64
588.34	61331.40
588.49	61254.16
