SpectraSuite Data File
++++++++++++++++++++++++++++++++++++
Date: Fri Oct 25 10:48:32 EDT 2013
User: price-jones
Dark Spectrum Present: No
Reference Spectrum Present: No
Number of Sampled Component Spectra: 1
Spectrometers: USB2+H05261
Integration Time (usec): 100000 (USB2+H05261)
Spectra Averaged: 1 (USB2+H05261)
Boxcar Smoothing: 0 (USB2+H05261)
Correct for Electrical Dark: No (USB2+H05261)
Strobe/Lamp Enabled: No (USB2+H05261)
Correct for Detector Non-linearity: No (USB2+H05261)
Correct for Stray Light: No (USB2+H05261)
Number of Pixels in Processed Spectrum: 2048
>>>>>Begin Processed Spectral Data<<<<<
365.73	107.66
365.92	107.66
366.12	107.66
366.32	0.00
366.52	70.22
366.72	60.85
366.91	0.00
367.11	74.90
367.31	16.38
367.51	79.58
367.70	60.85
367.90	0.00
368.10	7.02
368.30	117.03
368.49	65.54
368.69	124.05
368.89	91.28
369.09	93.62
369.28	21.06
369.48	58.51
369.68	110.01
369.87	180.22
370.07	37.45
370.27	95.96
370.47	142.77
370.66	435.34
370.86	468.11
371.06	451.72
371.25	503.22
371.45	468.11
371.65	528.96
371.84	465.77
372.04	444.70
372.24	547.69
372.44	533.64
372.63	507.90
372.83	528.96
373.03	587.47
373.22	500.87
373.42	613.22
373.62	592.16
373.81	582.79
374.01	566.41
374.21	636.63
374.40	603.86
374.60	681.10
374.79	608.54
374.99	624.92
375.19	669.39
375.38	622.58
375.58	653.01
375.78	645.99
375.97	629.60
376.17	669.39
376.37	603.86
376.56	564.07
376.76	610.88
376.95	634.29
377.15	699.82
377.35	610.88
377.54	655.35
377.74	657.69
377.93	753.65
378.13	667.05
378.33	751.31
378.52	671.73
378.72	674.07
378.91	725.57
379.11	699.82
379.31	669.39
379.50	645.99
379.70	755.99
379.89	755.99
380.09	702.16
380.28	744.29
380.48	765.36
380.68	638.97
380.87	741.95
381.07	723.23
381.26	755.99
381.46	793.44
381.65	725.57
381.85	713.86
382.04	753.65
382.24	723.23
382.43	741.95
382.63	795.78
382.83	795.78
383.02	746.63
383.22	819.19
383.41	727.91
383.61	760.67
383.80	777.06
384.00	863.66
384.19	830.89
384.39	849.61
384.58	924.51
384.78	807.48
384.97	908.13
385.17	812.17
385.36	915.15
385.56	800.46
385.75	884.72
385.95	912.81
386.14	929.19
386.34	870.68
386.53	931.53
386.72	978.34
386.92	866.00
387.11	861.32
387.31	983.02
387.50	964.30
387.70	830.89
387.89	938.55
388.09	896.43
388.28	856.64
388.48	903.45
388.67	1029.84
388.86	992.39
389.06	1081.33
389.25	992.39
389.45	1036.86
389.64	1020.47
389.84	1050.90
390.03	1008.77
390.22	983.02
390.42	1078.99
390.61	1050.90
390.81	1100.05
391.00	1121.12
391.19	1114.10
391.39	1093.03
391.58	1067.28
391.78	1074.31
391.97	1062.60
392.16	1036.86
392.36	1139.84
392.55	1057.92
392.75	990.05
392.94	1100.05
393.13	1041.54
393.33	1107.07
393.52	1064.94
393.71	1095.37
393.91	1160.91
394.10	1174.95
394.29	1254.53
394.49	1207.72
394.68	1334.11
394.88	1287.29
395.07	1324.74
395.26	1291.98
395.46	1315.38
395.65	1299.00
395.84	1306.02
396.04	1268.57
396.23	1268.57
396.42	1299.00
396.62	1163.25
396.81	1200.69
397.00	1331.76
397.19	1313.04
397.39	1401.98
397.58	1451.13
397.77	1380.92
397.97	1497.94
398.16	1451.13
398.35	1549.43
398.55	1469.86
398.74	1486.24
398.93	1509.65
399.12	1533.05
399.32	1577.52
399.51	1570.50
399.70	1544.75
399.90	1528.37
400.09	1636.03
400.28	1638.38
400.47	1645.40
400.67	1673.48
400.86	1607.95
401.05	1692.21
401.24	1699.23
401.44	1760.08
401.63	1741.36
401.82	1762.42
402.01	1708.59
402.21	1823.28
402.40	1792.85
402.59	1849.02
402.78	1750.72
402.97	1830.30
403.17	1860.73
403.36	1863.07
403.55	1806.89
403.74	1944.99
403.93	1912.22
404.13	1832.64
404.32	1942.64
404.51	1982.43
404.70	1963.71
404.89	1952.01
405.09	1968.39
405.28	1977.75
405.47	2001.16
405.66	1921.58
405.85	1944.99
406.05	2122.87
406.24	2092.44
406.43	2118.18
406.62	2087.76
406.81	2078.40
407.00	2165.00
407.20	2078.40
407.39	2197.76
407.58	2277.34
407.77	2293.72
407.96	2408.41
408.15	2246.91
408.34	2275.00
408.54	2260.96
408.73	2380.32
408.92	2293.72
409.11	2275.00
409.30	2459.90
409.49	2260.96
409.68	2352.24
409.87	2387.35
410.07	2431.82
410.26	2392.03
410.45	2520.76
410.64	2562.89
410.83	2581.61
411.02	2581.61
411.21	2626.08
411.40	2619.06
411.59	2686.94
411.78	2569.91
411.98	2654.17
412.17	2675.23
412.36	2712.68
412.55	2679.91
412.74	2878.86
412.93	2799.28
413.12	2717.36
413.31	2906.95
413.50	2906.95
413.69	2946.73
413.88	2850.77
414.07	2911.63
414.26	3108.23
414.45	3042.70
414.64	2979.50
414.83	3222.92
415.02	3115.25
415.22	3152.70
415.41	3119.93
415.60	3386.76
415.79	3241.64
415.98	3466.33
416.17	3236.96
416.36	3246.32
416.55	3410.16
416.74	3482.72
416.93	3314.20
417.12	3463.99
417.31	3382.07
417.50	3400.80
417.69	3543.57
417.88	3534.21
418.07	3456.97
418.26	3606.77
418.45	3501.44
418.64	3667.62
418.83	3733.15
419.02	3569.32
419.21	3534.21
419.39	3667.62
419.58	3559.95
419.77	3655.92
419.96	3672.30
420.15	3744.86
420.34	3775.28
420.53	3915.72
420.72	3904.01
420.91	4030.40
421.10	3934.44
421.29	3934.44
421.48	3838.48
421.67	3953.16
421.86	3894.65
422.05	3915.72
422.24	3887.63
422.43	3786.99
422.61	4046.79
422.80	3981.25
422.99	4084.23
423.18	4039.76
423.37	4007.00
423.56	4032.74
423.75	4077.21
423.94	3925.08
424.13	3751.88
424.32	3976.57
424.50	4021.04
424.69	4182.54
424.88	4170.83
425.07	4044.45
425.26	3936.78
425.45	4023.38
425.64	4102.96
425.83	3964.87
426.01	4245.73
426.20	4107.64
426.39	4243.39
426.58	4084.23
426.77	4105.30
426.96	3990.61
427.15	4107.64
427.33	4170.83
427.52	4212.96
427.71	4379.14
427.90	4285.52
428.09	4173.18
428.28	4203.60
428.46	4278.50
428.65	4131.05
428.84	4301.90
429.03	4372.12
429.22	4208.28
429.40	4234.03
429.59	4191.90
429.78	4119.34
429.97	4004.66
430.16	4131.05
430.34	4124.02
430.53	4308.93
430.72	4334.67
430.91	4365.10
431.10	4393.19
431.28	4589.79
431.47	4631.92
431.66	4772.35
431.85	4641.28
432.03	4674.05
432.22	4706.82
432.41	4695.11
432.60	4631.92
432.79	4837.89
432.97	4798.10
433.16	4770.01
433.35	4688.09
433.54	4835.55
433.72	4842.57
433.91	4896.40
434.10	4856.61
434.28	4622.56
434.47	5064.92
434.66	4973.64
434.85	5029.81
435.03	5205.35
435.22	5097.69
435.41	5317.70
435.59	5270.89
435.78	5050.88
435.97	5280.25
436.16	5088.32
436.34	5139.82
436.53	5273.23
436.72	5345.78
436.90	5296.63
437.09	5160.88
437.28	5320.04
437.46	5219.39
437.65	5193.65
437.84	5270.89
438.02	5193.65
438.21	5411.32
438.40	5207.69
438.58	5528.35
438.77	5631.33
438.96	5516.64
439.14	5659.42
439.33	5652.39
439.52	5778.78
439.70	5858.36
439.89	5949.64
440.08	5790.49
440.26	5872.40
440.45	5921.56
440.63	5898.15
440.82	6080.71
441.01	6015.18
441.19	6134.54
441.38	6277.32
441.57	6232.85
441.75	6195.40
441.94	6399.02
442.12	6429.45
442.31	6537.12
442.50	6520.73
442.68	6480.94
442.87	6345.19
443.05	6560.52
443.24	6640.10
443.43	6670.53
443.61	6682.23
443.80	6871.81
443.98	6480.94
444.17	6326.47
444.35	6686.91
444.54	6829.68
444.73	6726.70
444.91	6647.12
445.10	6609.67
445.28	6525.41
445.47	6626.06
445.65	6560.52
445.84	6665.85
446.02	6649.46
446.21	6759.47
446.39	6700.95
446.58	6703.29
446.77	6935.01
446.95	6684.57
447.14	6895.22
447.32	6920.96
447.51	6862.45
447.69	6895.22
447.88	6869.47
448.06	7068.42
448.25	6904.58
448.43	7068.42
448.62	6796.92
448.80	6890.54
448.99	6888.20
449.17	7016.93
449.36	6977.14
449.54	7094.16
449.73	7225.23
449.91	7246.30
450.10	7225.23
450.28	7461.63
450.46	7480.35
450.65	7253.32
450.83	7269.70
451.02	7330.56
451.20	7393.75
451.39	7534.18
451.57	7342.26
451.76	7403.11
451.94	7405.46
452.13	7382.05
452.31	7531.84
452.49	7297.79
452.68	7255.66
452.86	7456.95
453.05	7520.14
453.23	7541.21
453.42	7564.61
453.60	7473.33
453.78	7639.51
453.97	7410.14
454.15	7590.36
454.34	7358.64
454.52	7456.95
454.70	8011.65
454.89	7742.49
455.07	7812.71
455.26	7873.56
455.44	7967.18
455.62	7840.79
455.81	7976.55
455.99	7983.57
456.17	7915.69
456.36	8126.34
456.54	8028.04
456.73	8191.88
456.91	8332.31
457.09	8114.64
457.28	8414.23
457.46	8159.11
457.64	8290.18
457.83	8336.99
458.01	8177.83
458.19	8283.16
458.38	8229.32
458.56	8456.36
458.74	8332.31
458.93	8320.60
459.11	8479.76
459.29	8741.90
459.48	8566.36
459.66	8411.89
459.84	8662.32
460.03	8683.39
460.21	8711.47
460.39	8779.35
460.57	8547.64
460.76	8531.25
460.94	8863.61
461.12	8861.27
461.31	8737.22
461.49	8795.73
461.67	8896.38
461.85	9083.62
462.04	8849.57
462.22	9331.72
462.40	9228.73
462.59	9142.13
462.77	9137.45
462.95	9188.94
463.13	9268.52
463.32	9242.78
463.50	9242.78
463.68	9277.88
463.86	9210.01
464.05	9233.41
464.23	9135.11
464.41	9200.65
464.59	9165.54
464.78	9549.39
464.96	9228.73
465.14	9195.96
465.32	9397.25
465.50	9399.59
465.69	9390.23
465.87	9603.22
466.05	9397.25
466.23	9373.85
466.41	9476.83
466.60	9734.29
466.78	9406.61
466.96	9486.19
467.14	9570.45
467.32	9518.96
467.51	9900.47
467.69	9432.36
467.87	9678.12
468.05	9703.86
468.23	9544.70
468.41	9635.99
468.60	9741.31
468.78	9961.32
468.96	9727.27
469.14	10104.09
469.32	9893.44
469.50	9715.56
469.69	9935.57
469.87	9914.51
470.05	10108.77
470.23	10122.82
470.41	9956.64
470.59	10139.20
470.77	10001.11
470.95	10274.95
471.14	10476.24
471.32	10054.94
471.50	10466.88
471.68	10520.71
471.86	10551.14
472.04	10569.86
472.22	10897.53
472.40	10394.32
472.58	10560.50
472.77	10600.29
472.95	10836.68
473.13	11150.31
473.31	10897.53
473.49	10974.77
473.67	11049.67
473.85	10970.09
474.03	11122.23
474.21	11077.76
474.39	11309.47
474.57	11255.64
474.75	11403.09
474.93	11276.70
475.12	11555.22
475.30	11768.21
475.48	11283.72
475.66	11541.18
475.84	11314.15
476.02	11580.97
476.20	11508.41
476.38	11648.85
476.56	12084.19
476.74	12119.29
476.92	12095.89
477.10	11992.90
477.28	12388.46
477.46	12283.13
477.64	12465.69
477.82	12772.30
478.00	12971.25
478.18	12531.23
478.36	12655.28
478.54	12826.14
478.72	13022.74
478.90	13247.43
479.08	13200.62
479.26	13727.24
479.44	13460.42
479.62	13535.32
479.80	13640.64
479.98	13790.44
480.16	14242.16
480.34	13771.71
480.52	13937.89
480.70	14101.73
480.88	13879.38
481.06	14242.16
481.24	14204.71
481.41	14295.99
481.59	14949.00
481.77	14661.12
481.95	14768.78
482.13	14916.23
482.31	14881.13
482.49	15508.39
482.67	15328.17
482.85	15454.56
483.03	15634.78
483.21	15803.30
483.39	16084.16
483.57	15672.23
483.74	15859.47
483.92	16123.95
484.10	15836.06
484.28	16460.99
484.46	16320.56
484.64	16723.13
484.82	16566.31
485.00	16465.67
485.18	16968.88
485.35	16638.87
485.53	16535.88
485.71	16746.53
485.89	16812.07
486.07	16908.03
486.25	17022.72
486.43	17247.41
486.61	17385.50
486.78	17460.40
486.96	17762.33
487.14	18113.41
487.32	18094.68
487.50	18298.31
487.68	18518.32
487.85	18602.58
488.03	18843.65
488.21	18703.22
488.39	18913.87
488.57	19105.79
488.75	19349.21
488.92	19594.96
489.10	19613.69
489.28	19555.18
489.46	20018.60
489.64	20381.38
489.81	20442.24
489.99	20563.95
490.17	20751.19
490.35	20783.96
490.53	20798.00
490.70	21146.74
490.88	21048.44
491.06	21221.64
491.24	21092.91
491.41	21305.90
491.59	21422.92
491.77	21130.36
491.95	21298.88
492.13	22005.72
492.30	22050.19
492.48	22075.93
492.66	22176.58
492.84	22630.64
493.01	22553.40
493.19	22373.18
493.37	22586.17
493.54	22810.86
493.72	23042.57
493.90	23248.54
494.08	23606.64
494.25	23461.53
494.43	23805.59
494.61	24130.92
494.79	24065.39
494.96	23751.76
495.14	23892.19
495.32	23978.79
495.49	24079.43
495.67	24472.64
495.85	24996.92
496.02	24486.68
496.20	24999.26
496.38	25036.71
496.55	25362.04
496.73	25631.21
496.91	25106.93
497.09	25568.01
497.26	25785.68
497.44	25502.48
497.62	25834.83
497.79	25958.88
497.97	25802.07
498.14	26230.38
498.32	26085.27
498.50	25998.67
498.67	26848.29
498.85	26162.51
499.03	26845.94
499.20	26820.20
499.38	26801.47
499.56	27192.34
499.73	27222.77
499.91	26883.39
500.08	27178.30
500.26	27152.55
500.44	27056.59
500.61	27246.18
500.79	26897.44
500.97	27903.87
501.14	27632.36
501.32	27817.27
501.49	28018.55
501.67	27585.55
501.84	28175.37
502.02	28568.58
502.20	28348.57
502.37	28493.68
502.55	28554.54
502.72	28533.47
502.90	29041.37
503.07	28393.04
503.25	28886.89
503.43	28477.30
503.60	28968.81
503.78	28760.50
503.95	28889.23
504.13	28879.87
504.30	29347.98
504.48	29127.97
504.65	30019.71
504.83	29633.52
505.01	29797.36
505.18	29399.47
505.36	30211.64
505.53	30218.66
505.71	30089.93
505.88	30532.29
506.06	30003.33
506.23	30298.23
506.41	30089.93
506.58	30590.80
506.76	30576.76
506.93	30813.15
507.11	31047.21
507.28	30815.49
507.46	30693.79
507.63	30923.16
507.81	31154.87
507.98	30761.66
508.16	30986.35
508.33	31021.46
508.50	31239.13
508.68	31456.80
508.85	31630.00
509.03	31452.12
509.20	31929.59
509.38	31690.85
509.55	31835.97
509.73	31676.81
509.90	32336.84
510.08	31718.94
510.25	32208.11
510.42	32613.02
510.60	32519.40
510.77	32460.89
510.95	32898.57
511.12	32685.58
511.30	33027.30
511.47	33219.22
511.64	33095.18
511.82	33097.52
511.99	33095.18
512.17	33266.03
512.34	32898.57
512.51	33338.59
512.69	33523.49
512.86	33666.27
513.04	33666.27
513.21	33453.28
513.38	33483.70
513.56	33598.39
513.73	33064.75
513.90	33982.24
514.08	33699.03
514.25	34003.30
514.43	33923.72
514.60	33816.06
514.77	34225.65
514.95	34352.04
515.12	33970.54
515.29	34513.54
515.47	34646.95
515.64	34808.45
515.81	34356.72
515.99	34827.17
516.16	34656.31
516.33	34024.37
516.51	34785.04
516.68	34045.43
516.85	34141.39
517.03	34625.89
517.20	35082.29
517.37	34888.03
517.54	35229.74
517.72	35136.12
517.89	34986.33
518.06	35044.84
518.24	34932.50
518.41	34939.52
518.58	35157.19
518.75	35033.14
518.93	35732.96
519.10	35702.53
519.27	35747.00
519.45	36004.46
519.62	36325.11
519.79	36187.02
519.96	35969.35
520.14	36680.88
520.31	36154.26
520.48	36261.92
520.65	36203.41
520.83	36868.12
521.00	36835.35
521.17	36753.43
521.34	36624.70
521.52	37158.34
521.69	37104.51
521.86	37153.66
522.03	37294.10
522.20	36884.50
522.38	37581.98
522.55	37053.02
522.72	37380.70
522.89	37123.24
523.07	37476.66
523.24	37457.93
523.41	37483.68
523.58	37516.45
523.75	37483.68
523.92	38073.49
524.10	38117.96
524.27	37951.79
524.44	37998.60
524.61	38286.48
524.78	38232.65
524.96	38265.42
525.13	38513.52
525.30	38759.27
525.47	38909.07
525.64	38604.80
525.81	38443.30
525.98	38452.66
526.16	38047.75
526.33	38199.88
526.50	38520.54
526.67	38057.11
526.84	38307.55
527.01	38253.72
527.18	38738.21
527.36	38880.98
527.53	39133.76
527.70	39386.54
527.87	39452.07
528.04	39344.41
528.21	39512.92
528.38	39175.89
528.55	39543.35
528.72	39854.64
528.89	39482.50
529.07	39842.94
529.24	39316.32
529.41	39871.03
529.58	39683.78
529.75	39737.62
529.92	39838.26
530.09	40194.02
530.26	40051.25
530.43	40025.50
530.60	39770.38
530.77	40084.01
530.94	40182.32
531.11	40002.10
531.28	40484.25
531.46	40381.26
531.63	40449.14
531.80	40683.19
531.97	40453.82
532.14	40737.02
532.31	39878.05
532.48	40765.11
532.65	40865.75
532.82	40414.03
532.99	40919.59
533.16	40533.40
533.33	41083.42
533.50	40950.01
533.67	41064.70
533.84	40580.21
534.01	41301.09
534.18	40898.52
534.35	41429.82
534.52	41155.98
534.69	41174.70
534.86	41345.56
535.03	41057.68
535.20	42017.30
535.37	41794.95
535.54	41963.46
535.71	42036.02
535.88	42017.30
536.05	41244.92
536.22	41574.94
536.38	41965.81
536.55	41486.00
536.72	41654.51
536.89	41535.15
537.06	41418.12
537.23	42239.65
537.40	41780.90
537.57	41661.54
537.74	42059.43
537.91	42831.80
538.08	42176.45
538.25	41748.14
538.42	42209.22
538.59	42564.98
538.75	41996.23
538.92	42155.39
539.09	42513.49
539.26	42071.13
539.43	42724.14
539.60	42447.96
539.77	42426.89
539.94	42508.81
540.11	42253.69
540.28	42316.89
540.44	42227.95
540.61	42398.80
540.78	42597.75
540.95	42162.41
541.12	42298.16
541.29	42344.97
541.46	42539.24
541.62	43154.80
541.79	42990.96
541.96	42560.30
542.13	42976.92
542.30	43063.52
542.47	43152.46
542.63	42974.58
542.80	43227.35
542.97	43423.96
543.14	43447.36
543.31	43538.65
543.48	43578.43
543.64	43927.17
543.81	44292.30
543.98	43576.09
544.15	43269.48
544.32	43725.89
544.48	44601.25
544.65	43952.92
544.82	44083.99
544.99	43636.95
545.16	43906.11
545.32	44023.14
545.49	44151.87
545.66	44205.70
545.83	44346.13
546.00	44163.57
546.16	44175.27
546.33	44435.07
546.50	43791.42
546.67	44224.42
546.83	43779.72
547.00	43683.76
547.17	44142.50
547.34	44105.06
547.50	44259.53
547.67	44453.79
547.84	44278.25
548.00	44837.64
548.17	44704.23
548.34	44533.37
548.51	44832.96
548.67	44807.22
548.84	44605.93
549.01	44509.97
549.18	44259.53
549.34	44964.03
549.51	44828.28
549.68	45034.25
549.84	44917.22
550.01	45153.62
550.18	44762.75
550.34	45118.51
550.51	44619.97
550.68	44704.23
550.84	44605.93
551.01	44720.62
551.18	45214.47
551.34	44821.26
551.51	44893.82
551.68	45565.55
551.84	45464.91
552.01	45069.36
552.18	45043.61
552.34	45118.51
552.51	45233.19
552.68	45193.40
552.84	45385.33
553.01	45724.71
553.18	45141.91
553.34	45565.55
553.51	45134.89
553.67	45446.18
553.84	45895.56
554.01	45944.72
554.17	45778.54
554.34	45848.75
554.51	45418.10
554.67	45935.35
554.84	45603.00
555.00	45427.46
555.17	45834.71
555.33	45949.40
555.50	45528.10
555.67	45993.87
555.83	45783.22
556.00	45684.92
556.16	45797.26
556.33	45949.40
556.50	46036.00
556.66	45787.90
556.83	45661.51
556.99	46454.95
557.16	46106.21
557.32	45858.12
557.49	45656.83
557.65	45923.65
557.82	45563.21
557.98	46007.91
558.15	45907.27
558.32	46316.86
558.48	45825.35
558.65	46075.79
558.81	45783.22
558.98	45942.38
559.14	46323.88
559.31	46021.95
559.47	45858.12
559.64	46291.12
559.80	46595.38
559.97	46543.89
560.13	46279.41
560.30	46031.32
560.46	46478.36
560.63	46394.10
560.79	46586.02
560.96	46651.56
561.12	46569.64
561.29	46246.65
561.45	46316.86
561.61	46452.61
561.78	46679.64
561.94	46471.34
562.11	46459.63
562.27	46323.88
562.44	46358.99
562.60	47316.27
562.77	46674.96
562.93	46454.95
563.10	46841.14
563.26	46494.74
563.42	47035.41
563.59	46705.39
563.75	46469.00
563.92	46852.84
564.08	46880.93
564.24	46747.52
564.41	47000.30
564.57	46574.32
564.74	46637.51
564.90	46560.28
565.07	46754.54
565.23	46347.29
565.39	47014.34
565.56	46754.54
565.72	46260.69
565.88	46782.63
566.05	46560.28
566.21	46890.29
566.38	46885.61
566.54	46630.49
566.70	46852.84
566.87	47440.32
567.03	46656.24
567.19	47019.02
567.36	46880.93
567.52	46714.75
567.68	46724.11
567.85	46897.31
568.01	46995.62
568.17	46934.76
568.34	46960.51
568.50	46997.96
568.66	46791.99
568.83	46742.84
568.99	46419.84
569.15	46686.67
569.32	46646.88
569.48	46590.70
569.64	46930.08
569.81	47007.32
569.97	46784.97
570.13	47124.35
570.30	46710.07
570.46	46396.44
570.62	46405.80
570.78	46712.41
570.95	46717.09
571.11	47112.64
571.27	47171.16
571.43	46808.37
571.60	47278.82
571.76	46681.98
571.92	47342.02
572.09	46850.50
572.25	47019.02
572.41	46841.14
572.57	47009.66
572.74	47480.11
572.90	47243.71
573.06	46962.85
573.22	47292.86
573.38	47014.34
573.55	46817.74
573.71	47196.90
573.87	46782.63
574.03	46539.21
574.20	47129.03
574.36	47016.68
574.52	46735.82
574.68	47096.26
574.84	47454.36
575.01	46887.95
575.17	47229.67
575.33	46677.30
575.49	46859.87
575.65	47304.57
575.82	47002.64
575.98	47021.36
576.14	47077.54
576.30	46876.25
576.46	46983.91
576.62	47147.75
576.79	46824.76
576.95	46749.86
577.11	47070.51
577.27	47129.03
577.43	47295.21
577.59	47103.28
577.75	46841.14
577.92	46508.79
578.08	47154.77
578.24	46724.11
578.40	46894.97
578.56	47051.79
578.72	46817.74
578.88	47533.94
579.04	47173.50
579.21	47316.27
579.37	47056.47
579.53	47133.71
579.69	47147.75
579.85	47419.25
580.01	47070.51
580.17	47236.69
580.33	47337.33
580.49	47061.15
580.65	47278.82
580.82	47189.88
580.98	47349.04
581.14	47208.61
581.30	46806.03
581.46	47304.57
581.62	47096.26
581.78	47098.60
581.94	47456.70
582.10	47194.56
582.26	47194.56
582.42	46916.04
582.58	47185.20
582.74	47510.53
582.90	47606.50
583.06	47498.83
583.22	47185.20
583.38	47201.58
583.54	47002.64
583.70	46997.96
583.86	47255.42
584.02	46934.76
584.18	47555.00
584.34	47349.04
584.50	47222.65
584.66	47407.55
584.82	46969.87
584.98	47250.74
585.14	47393.51
585.30	47255.42
585.46	47267.12
585.62	46981.57
585.78	46791.99
585.94	46726.46
586.10	47061.15
586.26	46930.08
586.42	47440.32
586.58	47576.07
586.74	47395.85
586.90	46899.65
587.06	47056.47
587.22	47536.28
587.38	46976.89
587.54	47224.99
587.70	47491.81
587.86	46916.04
588.02	47030.72
588.18	47210.95
588.34	47044.77
588.49	46719.43
588.65	46672.62
588.81	46705.39
588.97	46726.46
589.13	46663.26
589.29	46885.61
589.45	47054.13
589.61	46885.61
589.77	47147.75
