SpectraSuite Data File
++++++++++++++++++++++++++++++++++++
Date: Fri Oct 25 11:34:14 EDT 2013
User: price-jones
Dark Spectrum Present: No
Reference Spectrum Present: No
Number of Sampled Component Spectra: 1
Spectrometers: USB2+H05261
Integration Time (usec): 100000 (USB2+H05261)
Spectra Averaged: 1 (USB2+H05261)
Boxcar Smoothing: 0 (USB2+H05261)
Correct for Electrical Dark: No (USB2+H05261)
Strobe/Lamp Enabled: No (USB2+H05261)
Correct for Detector Non-linearity: No (USB2+H05261)
Correct for Stray Light: No (USB2+H05261)
Number of Pixels in Processed Spectrum: 2048
>>>>>Begin Processed Spectral Data<<<<<
365.73	278.52
365.92	278.52
366.12	278.52
366.32	147.45
366.52	208.31
366.72	198.95
366.91	180.22
367.11	170.86
367.31	121.71
367.51	182.56
367.70	133.41
367.90	166.18
368.10	205.97
368.30	152.13
368.49	182.56
368.69	201.29
368.89	163.84
369.09	156.82
369.28	215.33
369.48	180.22
369.68	189.58
369.87	236.39
370.07	227.03
370.27	245.76
370.47	320.65
370.66	463.43
370.86	521.94
371.06	479.81
371.25	498.53
371.45	571.09
371.65	582.79
371.84	561.73
372.04	594.50
372.24	535.98
372.44	620.24
372.63	603.86
372.83	589.82
373.03	620.24
373.22	582.79
373.42	596.84
373.62	662.37
373.81	648.33
374.01	613.22
374.21	692.80
374.40	676.41
374.60	566.41
374.79	603.86
374.99	643.65
375.19	683.44
375.38	669.39
375.58	732.59
375.78	688.12
375.97	643.65
376.17	720.88
376.37	732.59
376.56	697.48
376.76	657.69
376.95	653.01
377.15	648.33
377.35	723.23
377.54	695.14
377.74	678.76
377.93	688.12
378.13	631.94
378.33	657.69
378.52	685.78
378.72	760.67
378.91	657.69
379.11	697.48
379.31	772.38
379.50	690.46
379.70	730.25
379.89	645.99
380.09	744.29
380.28	688.12
380.48	653.01
380.68	741.95
380.87	716.20
381.07	697.48
381.26	788.76
381.46	739.61
381.65	760.67
381.85	718.54
382.04	786.42
382.24	830.89
382.43	741.95
382.63	704.50
382.83	667.05
383.02	737.27
383.22	734.93
383.41	791.10
383.61	676.41
383.80	833.23
384.00	870.68
384.19	800.46
384.39	720.88
384.58	861.32
384.78	798.12
384.97	784.08
385.17	856.64
385.36	816.85
385.56	826.21
385.75	884.72
385.95	868.34
386.14	767.70
386.34	847.27
386.53	870.68
386.72	884.72
386.92	894.08
387.11	870.68
387.31	800.46
387.50	851.96
387.70	903.45
387.89	866.00
388.09	863.66
388.28	931.53
388.48	870.68
388.67	891.74
388.86	924.51
389.06	931.53
389.25	894.08
389.45	922.17
389.64	896.43
389.84	978.34
390.03	971.32
390.22	973.66
390.42	889.40
390.61	950.26
390.81	880.04
391.00	924.51
391.19	1011.11
391.39	887.06
391.58	976.00
391.78	990.05
391.97	1013.45
392.16	1011.11
392.36	1081.33
392.55	1022.81
392.75	1139.84
392.94	947.92
393.13	1139.84
393.33	1069.62
393.52	1048.56
393.71	1074.31
393.91	1029.84
394.10	1128.14
394.29	1039.20
394.49	1046.22
394.68	1086.01
394.88	1116.44
395.07	1191.33
395.26	1097.71
395.46	1132.82
395.65	1231.12
395.84	1095.37
396.04	1217.08
396.23	1139.84
396.42	1109.41
396.62	1188.99
396.81	1188.99
397.00	1184.31
397.19	1217.08
397.39	1196.01
397.58	1343.47
397.77	1228.78
397.97	1200.69
398.16	1191.33
398.35	1212.40
398.55	1287.29
398.74	1228.78
398.93	1231.12
399.12	1284.95
399.32	1268.57
399.51	1273.25
399.70	1289.64
399.90	1233.46
400.09	1299.00
400.28	1409.00
400.47	1268.57
400.67	1390.28
400.86	1299.00
401.05	1376.24
401.24	1378.58
401.44	1364.53
401.63	1352.83
401.82	1378.58
402.01	1348.15
402.21	1472.20
402.40	1448.79
402.59	1516.67
402.78	1441.77
402.97	1474.54
403.17	1596.25
403.36	1423.05
403.55	1540.07
403.74	1526.03
403.93	1619.65
404.13	1603.27
404.32	1476.88
404.51	1610.29
404.70	1636.03
404.89	1596.25
405.09	1624.33
405.28	1605.61
405.47	1621.99
405.66	1661.78
405.85	1703.91
406.05	1650.08
406.24	1621.99
406.43	1717.95
406.62	1736.68
406.81	1739.02
407.00	1706.25
407.20	1720.29
407.39	1748.38
407.58	1870.09
407.77	1767.10
407.96	1762.42
408.15	1818.60
408.34	1877.11
408.54	1856.04
408.73	1867.75
408.92	1867.75
409.11	1893.49
409.30	1963.71
409.49	1942.64
409.68	1933.28
409.87	1928.60
410.07	1954.35
410.26	1973.07
410.45	2029.24
410.64	1991.80
410.83	2115.84
411.02	1998.82
411.21	2064.35
411.40	2111.16
411.59	2066.69
411.78	2181.38
411.98	2104.14
412.17	2190.74
412.36	2139.25
412.55	2225.85
412.74	2134.57
412.93	2221.17
413.12	2282.02
413.31	2345.22
413.50	2284.36
413.69	2300.75
413.88	2406.07
414.07	2289.04
414.26	2476.29
414.45	2448.20
414.64	2539.48
414.83	2525.44
415.02	2537.14
415.22	2539.48
415.41	2497.35
415.60	2602.68
415.79	2691.62
415.98	2672.89
416.17	2689.28
416.36	2628.42
416.55	2672.89
416.74	2782.90
416.93	2803.96
417.12	2759.49
417.31	2693.96
417.50	2810.98
417.69	2794.60
417.88	2829.71
418.07	2792.26
418.26	2953.76
418.45	2942.05
418.64	3075.46
418.83	3059.08
419.02	3063.76
419.21	2979.50
419.39	3005.25
419.58	2979.50
419.77	3012.27
419.96	3007.59
420.15	3061.42
420.34	2991.20
420.53	3138.66
420.72	3096.53
420.91	3267.39
421.10	3262.71
421.29	3119.93
421.48	3159.72
421.67	3119.93
421.86	3272.07
422.05	3234.62
422.24	3368.03
422.43	3365.69
422.61	3185.47
422.80	3316.54
422.99	3496.76
423.18	3456.97
423.37	3290.79
423.56	3307.18
423.75	3314.20
423.94	3314.20
424.13	3087.17
424.32	3239.30
424.50	3323.56
424.69	3426.54
424.88	3330.58
425.07	3295.47
425.26	3304.84
425.45	3290.79
425.64	3290.79
425.83	3318.88
426.01	3337.60
426.20	3405.48
426.39	3318.88
426.58	3225.26
426.77	3330.58
426.96	3382.07
427.15	3447.61
427.33	3536.55
427.52	3389.10
427.71	3674.64
427.90	3471.01
428.09	3510.80
428.28	3590.38
428.46	3590.38
428.65	3517.83
428.84	3772.94
429.03	3770.60
429.22	3585.70
429.40	3602.08
429.59	3751.88
429.78	3609.11
429.97	3541.23
430.16	3801.03
430.34	3599.74
430.53	3836.14
430.72	3756.56
430.91	3847.84
431.10	3770.60
431.28	3775.28
431.47	3960.19
431.66	3918.06
431.85	3894.65
432.03	3974.23
432.22	3932.10
432.41	4098.28
432.60	3908.69
432.79	3983.59
432.97	4105.30
433.16	4002.32
433.35	3976.57
433.54	4140.41
433.72	4067.85
433.91	4145.09
434.10	4088.92
434.28	4109.98
434.47	4124.02
434.66	4084.23
434.85	4203.60
435.03	4147.43
435.22	4138.07
435.41	4470.42
435.59	4119.34
435.78	4147.43
435.97	4297.22
436.16	4470.42
436.34	4435.32
436.53	4234.03
436.72	4315.95
436.90	4416.59
437.09	4285.52
437.28	4334.67
437.46	4418.93
437.65	4449.36
437.84	4585.11
438.02	4542.98
438.21	4531.28
438.40	4442.34
438.58	4695.11
438.77	4671.71
438.96	4596.81
439.14	4662.35
439.33	4870.65
439.52	4631.92
439.70	4830.87
439.89	4959.60
440.08	4884.70
440.26	4786.40
440.45	4746.61
440.63	4912.78
440.82	5006.41
441.01	5018.11
441.19	4905.76
441.38	5095.35
441.57	5132.79
441.75	5273.23
441.94	5184.29
442.12	5273.23
442.31	5336.42
442.50	5153.86
442.68	5282.59
442.87	5296.63
443.05	5441.75
443.24	5488.56
443.43	5369.19
443.61	5362.17
443.80	5490.90
443.98	5420.68
444.17	5158.54
444.35	5315.36
444.54	5607.92
444.73	5327.06
444.91	5600.90
445.10	5432.38
445.28	5359.83
445.47	5518.98
445.65	5380.89
445.84	5556.43
446.02	5483.88
446.21	5657.07
446.39	5680.48
446.58	5720.27
446.77	5481.53
446.95	5404.30
447.14	5598.56
447.32	5633.67
447.51	5537.71
447.69	5589.20
447.88	5570.48
448.06	5652.39
448.25	5624.31
448.43	5547.07
448.62	5727.29
448.80	5858.36
448.99	5643.03
449.17	5720.27
449.36	5813.89
449.54	5893.47
449.73	5933.26
449.91	6061.99
450.10	5720.27
450.28	5982.41
450.46	6153.27
450.65	6024.54
450.83	6047.94
451.02	5998.79
451.20	5989.43
451.39	5968.37
451.57	6090.07
451.76	6094.76
451.94	6125.18
452.13	5963.68
452.31	6176.67
452.49	6031.56
452.68	6244.55
452.86	6171.99
453.05	6174.33
453.23	6141.57
453.42	6120.50
453.60	5975.39
453.78	6080.71
453.97	6207.10
454.15	6204.76
454.34	6136.88
454.52	6340.51
454.70	6546.48
454.89	6359.24
455.07	6314.77
455.26	6354.55
455.44	6590.95
455.62	6375.62
455.81	6476.26
455.99	6494.99
456.17	6527.75
456.36	6499.67
456.54	6668.19
456.73	6810.96
456.91	6963.09
457.09	6876.49
457.28	6958.41
457.46	6738.40
457.64	6892.88
457.83	6876.49
458.01	6829.68
458.19	6953.73
458.38	6918.62
458.56	6937.35
458.74	6981.82
458.93	7028.63
459.11	7117.57
459.29	7094.16
459.48	7201.83
459.66	6984.16
459.84	7138.63
460.03	7330.56
460.21	7300.13
460.39	7197.15
460.57	7356.30
460.76	7169.06
460.94	7258.00
461.12	7211.19
461.31	7480.35
461.49	7075.44
461.67	7316.51
461.85	7489.71
462.04	7503.76
462.22	7709.72
462.40	7604.40
462.59	7742.49
462.77	7499.08
462.95	7543.55
463.13	7576.31
463.32	7499.08
463.50	7751.85
463.68	7597.38
463.86	7552.91
464.05	7566.95
464.23	7651.21
464.41	7693.34
464.59	7606.74
464.78	7981.23
464.96	7822.07
465.14	7857.18
465.32	7850.16
465.50	7943.78
465.69	7850.16
465.87	7786.96
466.05	7967.18
466.23	7894.63
466.41	8016.33
466.60	8149.75
466.78	7946.12
466.96	7925.05
467.14	8016.33
467.32	8006.97
467.51	8154.43
467.69	8102.93
467.87	8102.93
468.05	8173.15
468.23	8105.28
468.41	8231.66
468.60	8126.34
468.78	8414.23
468.96	8226.98
469.14	8428.27
469.32	8404.86
469.50	8234.00
469.69	8545.30
469.87	8575.72
470.05	8435.29
470.23	8552.32
470.41	8592.11
470.59	8587.43
470.77	8355.71
470.95	8505.51
471.14	8842.54
471.32	8711.47
471.50	8777.01
471.68	8905.74
471.86	8596.79
472.04	8891.70
472.22	8835.52
472.40	8769.99
472.58	8788.71
472.77	8985.32
472.95	9076.60
473.13	9488.53
473.31	9095.32
473.49	9249.80
473.67	9184.26
473.85	9151.49
474.03	9476.83
474.21	9530.66
474.39	9415.98
474.57	9568.11
474.75	9657.05
474.93	9624.28
475.12	9907.49
475.30	9687.48
475.48	9647.69
475.66	9937.91
475.84	9951.96
476.02	9940.26
476.20	10029.20
476.38	10232.82
476.56	10244.52
476.74	10125.16
476.92	10174.31
477.10	9996.43
477.28	10293.68
477.46	10228.14
477.64	10441.13
477.82	10597.95
478.00	10916.26
478.18	10913.92
478.36	11033.29
478.54	10946.69
478.72	11014.56
478.90	11157.33
479.08	11389.05
479.26	11091.80
479.44	11304.79
479.62	11426.50
479.80	11499.05
479.98	11777.58
480.16	11733.11
480.34	11850.13
480.52	11936.73
480.70	12002.27
480.88	11676.93
481.06	12175.47
481.24	12168.45
481.41	12273.77
481.59	12264.41
481.77	12634.21
481.95	12325.26
482.13	12641.23
482.31	12685.70
482.49	13088.28
482.67	13008.70
482.85	13179.56
483.03	13231.05
483.21	13373.82
483.39	13160.83
483.57	13500.21
483.74	13490.85
483.92	13540.00
484.10	13575.11
484.28	14099.39
484.46	13902.78
484.64	14387.27
484.82	14094.71
485.00	14113.43
485.18	14572.18
485.35	14513.66
485.53	14391.95
485.71	14572.18
485.89	14806.23
486.07	15171.35
486.25	14979.43
486.43	15227.53
486.61	15033.26
486.78	15419.45
486.96	15510.73
487.14	15580.95
487.32	16051.39
487.50	15962.45
487.68	15871.17
487.85	16173.10
488.03	16252.68
488.21	16524.18
488.39	16727.81
488.57	16589.72
488.75	16830.79
488.92	17048.46
489.10	17090.59
489.28	16732.49
489.46	17188.89
489.64	17303.58
489.81	17680.41
489.99	17633.60
490.17	17797.43
490.35	17853.61
490.53	17877.01
490.70	18038.51
490.88	18148.51
491.06	18377.89
491.24	18094.68
491.41	18422.36
491.59	18764.07
491.77	18764.07
491.95	18796.84
492.13	18827.27
492.30	19295.38
492.48	19068.34
492.66	19164.31
492.84	19283.67
493.01	19655.82
493.19	19419.42
493.37	19730.72
493.54	19948.39
493.72	19793.91
493.90	19995.20
494.08	19929.66
494.25	20245.63
494.43	20475.01
494.61	20601.40
494.79	20601.40
494.96	20482.03
495.14	20737.15
495.32	21010.99
495.49	21104.61
495.67	21041.42
495.85	21427.60
496.02	21383.13
496.20	21626.55
496.38	21825.50
496.55	21717.83
496.73	22352.12
496.91	22136.79
497.09	22256.15
497.26	22335.73
497.44	22113.38
497.62	22356.80
497.79	22717.24
497.97	22703.20
498.14	22661.07
498.32	22920.87
498.50	23285.99
498.67	23307.05
498.85	23246.20
499.03	23351.52
499.20	23194.71
499.38	23442.81
499.56	23761.12
499.73	23814.95
499.91	23814.95
500.08	24184.76
500.26	23688.56
500.44	24107.52
500.61	23950.70
500.79	24430.51
500.97	24102.84
501.14	24430.51
501.32	24734.78
501.49	24514.77
501.67	24287.74
501.84	24926.71
502.02	25123.31
502.20	24802.66
502.37	25202.89
502.55	24802.66
502.72	25095.22
502.90	25678.02
503.07	25069.48
503.25	25411.20
503.43	24851.81
503.60	25848.88
503.78	25663.97
503.95	25867.60
504.13	25652.27
504.30	26115.70
504.48	26045.48
504.65	26099.31
504.83	26555.72
505.01	26345.07
505.18	26232.72
505.36	26529.97
505.53	26242.09
505.71	26532.31
505.88	26443.37
506.06	26251.45
506.23	27070.64
506.41	26705.51
506.58	26712.53
506.76	27143.19
506.93	26991.06
507.11	27126.81
507.28	27641.73
507.46	27316.39
507.63	27365.54
507.81	27805.56
507.98	27489.59
508.16	27749.39
508.33	28016.21
508.50	27894.50
508.68	28002.17
508.85	28137.92
509.03	27899.19
509.20	27882.80
509.38	28453.89
509.55	28524.11
509.73	28563.90
509.90	28325.16
510.08	28613.05
510.25	28814.34
510.42	28964.13
510.60	28589.64
510.77	29125.63
510.95	29198.18
511.12	29214.57
511.30	28961.79
511.47	29252.02
511.64	29305.85
511.82	29069.45
511.99	29535.22
512.17	29862.90
512.34	29582.03
512.51	30106.31
512.69	29830.13
512.86	29600.76
513.04	29851.19
513.21	29708.42
513.38	30466.75
513.56	30258.45
513.73	30335.68
513.90	30075.88
514.08	30263.13
514.25	30796.77
514.43	30525.27
514.60	30586.12
514.77	30691.44
514.95	30321.64
515.12	30820.17
515.29	30719.53
515.47	31227.43
515.64	31367.86
515.81	31335.09
515.99	31220.41
516.16	31299.98
516.33	31405.31
516.51	31302.32
516.68	31178.28
516.85	31349.14
517.03	31517.65
517.20	31964.70
517.37	31681.49
517.54	32240.88
517.72	31501.27
517.89	32170.66
518.06	32208.11
518.24	31847.67
518.41	31997.46
518.58	31885.12
518.75	31747.03
518.93	32371.95
519.10	32245.56
519.27	32474.93
519.45	32374.29
519.62	32734.73
519.79	32919.63
519.96	33001.55
520.14	33287.10
520.31	32708.99
520.48	32863.46
520.65	33380.72
520.83	33179.43
521.00	33844.15
521.17	33331.57
521.34	33516.47
521.52	33687.33
521.69	33961.17
521.86	33961.17
522.03	34022.03
522.20	34244.38
522.38	33780.95
522.55	34015.01
522.72	33715.42
522.89	33673.29
523.07	34487.79
523.24	34059.48
523.41	34534.60
523.58	34227.99
523.75	34668.02
523.92	34581.42
524.10	34787.38
524.27	34675.04
524.44	34787.38
524.61	34558.01
524.78	35042.50
524.96	34742.91
525.13	35377.20
525.30	35456.78
525.47	35519.97
525.64	35150.17
525.81	35316.34
525.98	35466.14
526.16	35061.22
526.33	35023.78
526.50	35459.12
526.67	35250.81
526.84	35452.09
527.01	35494.22
527.18	35531.67
527.36	35419.33
527.53	35569.12
527.70	35892.12
527.87	36006.80
528.04	36060.63
528.21	35967.01
528.38	35936.59
528.55	36018.50
528.72	36451.50
528.89	36123.83
529.07	36142.55
529.24	36304.05
529.41	36479.59
529.58	36292.35
529.75	36280.64
529.92	36694.92
530.09	36720.66
530.26	36715.98
530.43	36776.84
530.60	36882.16
530.77	36575.55
530.94	36781.52
531.11	36671.51
531.28	36783.86
531.46	36811.95
531.63	36910.25
531.80	36818.97
531.97	37088.13
532.14	37415.80
532.31	37301.12
532.48	37553.90
532.65	37743.48
532.82	37390.06
532.99	37830.08
533.16	37317.50
533.33	37649.86
533.50	37549.21
533.67	37865.19
533.84	37570.28
534.01	37406.44
534.18	37514.11
534.35	38174.14
534.52	38478.41
534.69	38459.68
534.86	38382.45
535.03	38127.33
535.20	38169.46
535.37	38408.19
535.54	38497.13
535.71	38314.57
535.88	38438.62
536.05	38518.20
536.22	38848.21
536.38	37902.64
536.55	38543.94
536.72	38462.02
536.89	38316.91
537.06	38438.62
537.23	38607.14
537.40	38630.54
537.57	38679.69
537.74	38792.04
537.91	38738.21
538.08	38813.10
538.25	38295.85
538.42	39023.75
538.59	39524.63
538.75	38806.08
538.92	39828.90
539.09	39339.72
539.26	39281.21
539.43	39225.04
539.60	39718.89
539.77	39194.61
539.94	39885.07
540.11	39562.08
540.28	39697.83
540.44	39728.25
540.61	39423.98
540.78	38981.62
540.95	39672.08
541.12	39608.89
541.29	39910.82
541.46	39372.49
541.62	39772.72
541.79	39981.03
541.96	39749.32
542.13	39765.70
542.30	39842.94
542.47	39927.20
542.63	40161.25
542.80	40238.49
542.97	40598.93
543.14	40849.37
543.31	40779.15
543.48	40954.69
543.64	41111.51
543.81	40713.62
543.98	41022.57
544.15	40699.58
544.32	41181.73
544.48	41359.61
544.65	40961.72
544.82	41097.47
544.99	41282.37
545.16	40624.68
545.32	40919.59
545.49	41380.67
545.66	41848.78
545.83	41216.83
546.00	41467.27
546.16	41308.11
546.33	41656.85
546.50	41289.39
546.67	41514.08
546.83	41111.51
547.00	41450.89
547.17	41336.20
547.34	41457.91
547.50	41972.83
547.67	41397.06
547.84	41851.12
548.00	41816.01
548.17	42106.24
548.34	41820.69
548.51	42342.63
548.67	41750.48
548.84	42377.74
549.01	41942.40
549.18	42237.31
549.34	41907.29
549.51	42323.91
549.68	42508.81
549.84	42244.33
550.01	42604.77
550.18	42040.70
550.34	42309.86
550.51	42602.43
550.68	42490.09
550.84	41926.02
551.01	42515.83
551.18	42637.54
551.34	42387.10
551.51	42691.37
551.68	42501.79
551.84	42850.53
552.01	42206.88
552.18	42990.96
552.34	42583.71
552.51	42831.80
552.68	42955.85
552.84	42621.16
553.01	43040.11
553.18	42595.41
553.34	43065.86
553.51	42986.28
553.67	42813.08
553.84	43002.66
554.01	43229.69
554.17	43253.10
554.34	43555.03
554.51	43061.18
554.67	43227.35
554.84	43332.68
555.00	43033.09
555.17	43035.43
555.33	43700.14
555.50	42979.26
555.67	43714.19
555.83	43117.35
556.00	43697.80
556.16	43929.51
556.33	43962.28
556.50	43807.81
556.66	43639.29
556.83	43672.06
556.99	43793.76
557.16	43835.89
557.32	43840.57
557.49	44041.86
557.65	43388.85
557.82	43728.23
557.98	44194.00
558.15	43828.87
558.32	43943.56
558.48	43950.58
558.65	44102.71
558.81	44322.72
558.98	43803.13
559.14	44112.08
559.31	43983.35
559.47	43903.77
559.64	44304.00
559.80	43922.49
559.97	44215.06
560.13	44332.09
560.30	44011.43
560.46	44626.99
560.63	44865.73
560.79	44502.95
560.96	44392.94
561.12	44622.31
561.29	44491.24
561.45	44278.25
561.61	44091.01
561.78	44158.89
561.94	44528.69
562.11	44650.40
562.27	44502.95
562.44	44638.70
562.60	45006.16
562.77	44760.40
562.93	44268.89
563.10	44767.43
563.26	44587.21
563.42	45160.64
563.59	44315.70
563.75	44549.76
563.92	44332.09
564.08	44514.65
564.24	44828.28
564.41	44542.74
564.57	44624.65
564.74	45020.20
564.90	44343.79
565.07	44664.44
565.23	44364.85
565.39	44631.68
565.56	44741.68
565.72	45200.43
565.88	44715.93
566.05	45415.76
566.21	45160.64
566.38	44858.71
566.54	45193.40
566.70	44783.81
566.87	45113.83
567.03	44662.10
567.19	44935.95
567.36	45017.86
567.52	45254.26
567.68	45209.79
567.85	45172.34
568.01	45275.32
568.17	45261.28
568.34	45160.64
568.50	45287.03
568.66	45071.70
568.83	44891.48
568.99	45317.45
569.15	45233.19
569.32	45333.84
569.48	45462.57
569.64	46075.79
569.81	45170.00
569.97	45834.71
570.13	45808.96
570.30	44952.33
570.46	45603.00
570.62	45387.67
570.78	45270.64
570.95	45528.10
571.11	45628.74
571.27	45471.93
571.43	45549.17
571.60	45698.96
571.76	45841.73
571.92	45464.91
572.09	45745.77
572.25	45020.20
572.41	45673.21
572.57	45652.15
572.74	45890.88
572.90	45670.87
573.06	45736.41
573.22	45724.71
573.38	45764.49
573.55	45621.72
573.71	46312.18
573.87	45518.74
574.03	45940.04
574.20	45834.71
574.36	45516.40
574.52	46054.72
574.68	45436.82
574.84	45703.64
575.01	45928.33
575.17	45839.39
575.33	45799.60
575.49	45834.71
575.65	45755.13
575.82	45808.96
575.98	45647.47
576.14	45729.39
576.30	45860.46
576.46	45933.01
576.62	45743.43
576.79	45741.09
576.95	45006.16
577.11	45668.53
577.27	45797.26
577.43	45867.48
577.59	45888.54
577.75	45710.66
577.92	45741.09
578.08	45528.10
578.24	45640.45
578.40	45986.85
578.56	46050.04
578.72	45804.28
578.88	45982.16
579.04	45666.19
579.21	45923.65
579.37	45752.79
579.53	45883.86
579.69	45755.13
579.85	45921.31
580.01	45350.22
580.17	45394.69
580.33	46010.25
580.49	45933.01
580.65	46024.29
580.82	45883.86
580.98	46183.45
581.14	46096.85
581.30	45900.25
581.46	46330.90
581.62	45708.32
581.78	46010.25
581.94	45839.39
582.10	46075.79
582.26	46337.93
582.42	46082.81
582.58	46017.27
582.74	46096.85
582.90	46012.59
583.06	46026.63
583.22	46328.56
583.38	45766.84
583.54	46110.89
583.70	46031.32
583.86	46178.77
584.02	45928.33
584.18	46415.16
584.34	45963.44
584.50	46363.67
584.66	46321.54
584.82	46213.88
584.98	46028.98
585.14	46401.12
585.30	45680.24
585.46	46330.90
585.62	46085.15
585.78	46256.01
585.94	45879.18
586.10	46103.87
586.26	46122.60
586.42	46234.94
586.58	46087.49
586.74	45720.02
586.90	45799.60
587.06	46377.72
587.22	46033.66
587.38	45851.09
587.54	46513.47
587.70	46354.31
587.86	46328.56
588.02	46197.49
588.18	46031.32
588.34	46174.09
588.49	46227.92
588.65	46270.05
588.81	45911.95
588.97	46471.34
589.13	46541.55
589.29	46213.88
589.45	46454.95
589.61	46443.25
589.77	46609.43
589.93	46316.86
590.08	46452.61
