SpectraSuite Data File
++++++++++++++++++++++++++++++++++++
Date: Fri Oct 25 11:25:12 EDT 2013
User: price-jones
Dark Spectrum Present: No
Reference Spectrum Present: No
Number of Sampled Component Spectra: 1
Spectrometers: USB2+H05261
Integration Time (usec): 100000 (USB2+H05261)
Spectra Averaged: 1 (USB2+H05261)
Boxcar Smoothing: 0 (USB2+H05261)
Correct for Electrical Dark: No (USB2+H05261)
Strobe/Lamp Enabled: No (USB2+H05261)
Correct for Detector Non-linearity: No (USB2+H05261)
Correct for Stray Light: No (USB2+H05261)
Number of Pixels in Processed Spectrum: 2048
>>>>>Begin Processed Spectral Data<<<<<
365.73	138.09
365.92	138.09
366.12	138.09
366.32	166.18
366.52	173.20
366.72	74.90
366.91	154.48
367.11	173.20
367.31	159.16
367.51	126.39
367.70	184.90
367.90	84.26
368.10	67.88
368.30	163.84
368.49	105.32
368.69	110.01
368.89	184.90
369.09	147.45
369.28	117.03
369.48	133.41
369.68	222.35
369.87	140.43
370.07	194.26
370.27	217.67
370.47	283.20
370.66	573.43
370.86	613.22
371.06	648.33
371.25	585.13
371.45	594.50
371.65	667.05
371.84	730.25
372.04	641.31
372.24	748.97
372.44	704.50
372.63	741.95
372.83	751.31
373.03	798.12
373.22	774.72
373.42	704.50
373.62	763.01
373.81	760.67
374.01	821.53
374.21	748.97
374.40	802.80
374.60	807.48
374.79	739.61
374.99	744.29
375.19	847.27
375.38	873.02
375.58	844.93
375.78	894.08
375.97	849.61
376.17	840.25
376.37	870.68
376.56	894.08
376.76	840.25
376.95	877.70
377.15	858.98
377.35	931.53
377.54	873.02
377.74	917.49
377.93	854.30
378.13	910.47
378.33	919.83
378.52	924.51
378.72	966.64
378.91	957.28
379.11	882.38
379.31	887.06
379.50	919.83
379.70	966.64
379.89	957.28
380.09	990.05
380.28	933.87
380.48	973.66
380.68	1020.47
380.87	985.37
381.07	1032.18
381.26	1048.56
381.46	1109.41
381.65	1090.69
381.85	968.98
382.04	978.34
382.24	1001.75
382.43	954.94
382.63	1076.65
382.83	1123.46
383.02	1050.90
383.22	1062.60
383.41	1076.65
383.61	1160.91
383.80	1041.54
384.00	1130.48
384.19	1153.88
384.39	1203.04
384.58	1224.10
384.78	1184.31
384.97	1181.97
385.17	1177.29
385.36	1170.27
385.56	1186.65
385.75	1111.75
385.95	1170.27
386.14	1207.72
386.34	1132.82
386.53	1203.04
386.72	1235.80
386.92	1144.52
387.11	1252.19
387.31	1259.21
387.50	1200.69
387.70	1217.08
387.89	1219.42
388.09	1299.00
388.28	1266.23
388.48	1231.12
388.67	1324.74
388.86	1322.40
389.06	1397.30
389.25	1343.47
389.45	1282.61
389.64	1348.15
389.84	1420.71
390.03	1390.28
390.22	1371.55
390.42	1352.83
390.61	1322.40
390.81	1352.83
391.00	1486.24
391.19	1434.75
391.39	1437.09
391.58	1427.73
391.78	1486.24
391.97	1420.71
392.16	1500.28
392.36	1668.80
392.55	1551.78
392.75	1556.46
392.94	1586.88
393.13	1504.96
393.33	1486.24
393.52	1502.62
393.71	1523.69
393.91	1565.82
394.10	1621.99
394.29	1607.95
394.49	1507.30
394.68	1612.63
394.88	1701.57
395.07	1607.95
395.26	1614.97
395.46	1638.38
395.65	1748.38
395.84	1701.57
396.04	1689.87
396.23	1830.30
396.42	1804.55
396.62	1739.02
396.81	1795.19
397.00	1764.76
397.19	1902.86
397.39	1750.72
397.58	1767.10
397.77	1778.81
397.97	1818.60
398.16	1762.42
398.35	1837.32
398.55	1806.89
398.74	1813.92
398.93	1954.35
399.12	1863.07
399.32	1863.07
399.51	1827.96
399.70	2036.27
399.90	1921.58
400.09	1996.48
400.28	2001.16
400.47	2038.61
400.67	1977.75
400.86	2071.37
401.05	2150.95
401.24	2080.74
401.44	2043.29
401.63	2162.66
401.82	2078.40
402.01	2136.91
402.21	2108.82
402.40	2155.63
402.59	1977.75
402.78	2118.18
402.97	2211.81
403.17	2319.47
403.36	2265.64
403.55	2263.30
403.74	2312.45
403.93	2293.72
404.13	2333.51
404.32	2363.94
404.51	2401.39
404.70	2349.90
404.89	2345.22
405.09	2434.16
405.28	2422.45
405.47	2464.58
405.66	2410.75
405.85	2464.58
406.05	2492.67
406.24	2586.29
406.43	2546.50
406.62	2562.89
406.81	2719.70
407.00	2523.10
407.20	2525.44
407.39	2537.14
407.58	2717.36
407.77	2712.68
407.96	2689.28
408.15	2803.96
408.34	2686.94
408.54	2693.96
408.73	2787.58
408.92	2839.07
409.11	2806.30
409.30	2895.24
409.49	2946.73
409.68	2773.53
409.87	2939.71
410.07	2937.37
410.26	2963.12
410.45	2995.89
410.64	3087.17
410.83	3035.67
411.02	3098.87
411.21	3073.12
411.40	3218.24
411.59	3222.92
411.78	3187.81
411.98	3136.32
412.17	3260.37
412.36	3258.03
412.55	3283.77
412.74	3365.69
412.93	3344.63
413.12	3281.43
413.31	3574.00
413.50	3501.44
413.69	3398.46
413.88	3473.36
414.07	3410.16
414.26	3590.38
414.45	3660.60
414.64	3684.00
414.83	3686.34
415.02	3733.15
415.22	3679.32
415.41	3761.24
415.60	3946.14
415.79	3887.63
415.98	3922.74
416.17	3939.12
416.36	3892.31
416.55	3999.98
416.74	4037.42
416.93	3988.27
417.12	4037.42
417.31	4135.73
417.50	4093.60
417.69	4264.46
417.88	4168.49
418.07	4283.18
418.26	4280.84
418.45	4311.27
418.64	4381.48
418.83	4320.63
419.02	4308.93
419.21	4475.10
419.39	4486.81
419.58	4409.57
419.77	4615.54
419.96	4493.83
420.15	4514.89
420.34	4585.11
420.53	4402.55
420.72	4526.60
420.91	4575.75
421.10	4762.99
421.29	4816.82
421.48	4758.31
421.67	4744.27
421.86	4720.86
422.05	4608.51
422.24	4800.44
422.43	4770.01
422.61	4912.78
422.80	4847.25
422.99	5001.72
423.18	5083.64
423.37	4978.32
423.56	4863.63
423.75	4858.95
423.94	4807.46
424.13	4643.62
424.32	4692.77
424.50	4931.51
424.69	4971.30
424.88	4905.76
425.07	4870.65
425.26	4947.89
425.45	4922.15
425.64	4931.51
425.83	4826.18
426.01	4912.78
426.20	5078.96
426.39	5158.54
426.58	4966.62
426.77	5053.22
426.96	5069.60
427.15	5050.88
427.33	5242.80
427.52	5139.82
427.71	5107.05
427.90	5198.33
428.09	5259.18
428.28	5284.93
428.46	5280.25
428.65	5256.84
428.84	5427.70
429.03	5551.75
429.22	5179.61
429.40	5486.22
429.59	5657.07
429.78	5364.51
429.97	5254.50
430.16	5441.75
430.34	5430.04
430.53	5605.58
430.72	5631.33
430.91	5687.50
431.10	5614.95
431.28	5692.18
431.47	5607.92
431.66	5781.12
431.85	5792.83
432.03	5891.13
432.22	6047.94
432.41	5895.81
432.60	5790.49
432.79	5792.83
432.97	5853.68
433.16	5947.30
433.35	5996.45
433.54	6258.59
433.72	6033.90
433.91	6033.90
434.10	6094.76
434.28	5987.09
434.47	6024.54
434.66	6221.14
434.85	6157.95
435.03	6424.77
435.22	6291.36
435.41	6387.32
435.59	6443.49
435.78	6368.60
435.97	6476.26
436.16	6410.73
436.34	6232.85
436.53	6492.65
436.72	6546.48
436.90	6497.33
437.09	6817.98
437.28	6487.96
437.46	6649.46
437.65	6595.63
437.84	6705.63
438.02	6651.80
438.21	6766.49
438.40	6710.32
438.58	6979.48
438.77	7094.16
438.96	6864.79
439.14	6953.73
439.33	7148.00
439.52	7117.57
439.70	7155.02
439.89	7304.81
440.08	7307.15
440.26	7339.92
440.45	7307.15
440.63	7197.15
440.82	7552.91
441.01	7262.68
441.19	7524.82
441.38	7616.10
441.57	7674.62
441.75	7775.26
441.94	8053.78
442.12	7861.86
442.31	7932.08
442.50	7892.29
442.68	7712.07
442.87	7915.69
443.05	8210.60
443.24	8135.70
443.43	8184.85
443.61	8297.20
443.80	8306.56
443.98	7943.78
444.17	7686.32
444.35	8028.04
444.54	8262.09
444.73	8198.90
444.91	8154.43
445.10	8290.18
445.28	8383.80
445.47	8311.24
445.65	8376.78
445.84	8418.91
446.02	8468.06
446.21	8271.45
446.39	8301.88
446.58	8367.42
446.77	8306.56
446.95	8252.73
447.14	8353.37
447.32	8458.70
447.51	8257.41
447.69	8215.28
447.88	8329.97
448.06	8545.30
448.25	8456.36
448.43	8699.77
448.62	8248.05
448.80	8243.37
448.99	8596.79
449.17	8674.03
449.36	8659.98
449.54	8842.54
449.73	8894.04
449.91	8777.01
450.10	8861.27
450.28	8987.66
450.46	9074.26
450.65	9102.34
450.83	9029.79
451.02	8999.36
451.20	8863.61
451.39	8973.61
451.57	9067.24
451.76	8905.74
451.94	9013.40
452.13	9266.18
452.31	9179.58
452.49	9060.21
452.68	9392.57
452.86	9060.21
453.05	9266.18
453.23	9376.19
453.42	9317.67
453.60	9275.54
453.78	9296.61
453.97	9291.93
454.15	9568.11
454.34	9540.02
454.52	9387.89
454.70	9724.93
454.89	9593.86
455.07	9556.41
455.26	9778.76
455.44	9792.80
455.62	9540.02
455.81	9870.04
455.99	9813.87
456.17	9947.28
456.36	10076.01
456.54	9998.77
456.73	10162.61
456.91	10321.76
457.09	10230.48
457.28	10501.98
457.46	10125.16
457.64	10504.32
457.83	10509.01
458.01	10427.09
458.19	10494.96
458.38	10579.22
458.56	10600.29
458.74	10644.76
458.93	10684.55
459.11	10586.24
459.29	10471.56
459.48	10874.13
459.66	10787.53
459.84	10710.29
460.03	10998.18
460.21	10717.31
460.39	10909.24
460.57	11019.24
460.76	11243.93
460.94	11056.69
461.12	11044.99
461.31	11061.37
461.49	10956.05
461.67	11098.82
461.85	11384.37
462.04	11063.71
462.22	11868.86
462.40	11412.45
462.59	11288.40
462.77	11360.96
462.95	11445.22
463.13	11543.52
463.32	11463.94
463.50	11651.19
463.68	11499.05
463.86	11749.49
464.05	11595.01
464.23	11763.53
464.41	11800.98
464.59	11566.93
464.78	11861.84
464.96	11789.28
465.14	11845.45
465.32	11939.07
465.50	12297.17
465.69	11957.80
465.87	11967.16
466.05	12147.38
466.23	11962.48
466.41	12112.27
466.60	12276.11
466.78	12058.44
466.96	12060.78
467.14	12196.53
467.32	12217.60
467.51	12496.12
467.69	12271.43
467.87	12510.16
468.05	12601.44
468.23	12320.58
468.41	12208.23
468.60	12233.98
468.78	12666.98
468.96	12491.44
469.14	12695.07
469.32	12957.21
469.50	12549.95
469.69	12922.10
469.87	12807.41
470.05	12903.37
470.23	13245.09
470.41	13390.20
470.59	13032.10
470.77	13071.89
470.95	13029.76
471.14	13202.96
471.32	13025.08
471.50	13647.66
471.68	13465.10
471.86	13577.45
472.04	13806.82
472.22	13809.16
472.40	13621.92
472.58	13776.39
472.77	13994.06
472.95	14251.52
473.13	14380.25
473.31	13909.80
473.49	14012.79
473.67	14141.52
473.85	13987.04
474.03	14611.96
474.21	14274.93
474.39	14682.18
474.57	14663.46
474.75	14583.88
474.93	15047.30
475.12	14747.72
475.30	15019.22
475.48	14897.51
475.66	15108.16
475.84	15014.54
476.02	15147.95
476.20	15403.07
476.38	15693.29
476.56	16060.76
476.74	15964.79
476.92	15962.45
477.10	15730.74
477.28	15962.45
477.46	16074.80
477.64	16348.64
477.82	16414.18
478.00	16769.94
478.18	16798.02
478.36	16903.35
478.54	16903.35
478.72	17163.15
478.90	17114.00
479.08	17558.70
479.26	17172.51
479.44	17610.19
479.62	17720.20
479.80	18202.35
479.98	17853.61
480.16	18328.74
480.34	18249.16
480.52	18464.49
480.70	18384.91
480.88	18127.45
481.06	18623.64
481.24	18853.02
481.41	19101.11
481.59	19037.92
481.77	19154.94
481.95	19426.45
482.13	19484.96
482.31	19522.41
482.49	20116.90
482.67	19798.59
482.85	20121.59
483.03	20456.28
483.21	20566.29
483.39	20798.00
483.57	20561.61
483.74	21018.01
483.92	20973.54
484.10	21303.56
484.28	21575.06
484.46	21806.77
484.64	22209.34
484.82	21736.56
485.00	22094.66
485.18	22649.36
485.35	22871.72
485.53	22572.13
485.71	22916.19
485.89	23087.04
486.07	23208.75
486.25	23180.67
486.43	23178.33
486.61	23487.28
486.78	23836.02
486.96	23843.04
487.14	24355.61
487.32	24301.78
487.50	24568.60
487.68	24861.17
487.85	24849.47
488.03	25214.59
488.21	25415.88
488.39	25635.89
488.57	25429.92
488.75	26017.40
488.92	26071.23
489.10	26639.98
489.28	26876.37
489.46	27028.51
489.64	26778.07
489.81	27548.11
489.99	27711.94
490.17	27531.72
490.35	27475.55
490.53	28346.23
490.70	28350.91
490.88	28154.30
491.06	28561.56
491.24	28863.49
491.41	28563.90
491.59	28760.50
491.77	29137.33
491.95	29207.55
492.13	29722.46
492.30	29830.13
492.48	29701.40
492.66	30108.65
492.84	30164.82
493.01	30298.23
493.19	30412.92
493.37	30799.11
493.54	31175.94
493.72	31250.83
493.90	31122.10
494.08	31695.53
494.25	31814.90
494.43	31695.53
494.61	32425.78
494.79	32086.40
494.96	32184.71
495.14	32353.23
495.32	32470.25
495.49	32369.61
495.67	32973.47
495.85	33284.76
496.02	33528.17
496.20	33493.07
496.38	33621.80
496.55	34019.69
496.73	34550.99
496.91	34623.54
497.09	34525.24
497.26	34597.80
497.44	34677.38
497.62	34817.81
497.79	35489.54
497.97	34960.58
498.14	35590.19
498.32	35955.31
498.50	35896.80
498.67	36123.83
498.85	36189.36
499.03	36514.70
499.20	36280.64
499.38	36549.81
499.56	37120.90
499.73	36935.99
499.91	37244.94
500.08	37015.57
500.26	37383.04
500.44	36978.12
500.61	37186.43
500.79	37537.51
500.97	37935.40
501.14	38415.21
501.32	37977.53
501.49	38366.06
501.67	38469.04
501.84	38611.82
502.02	38520.54
502.20	39325.68
502.37	39253.12
502.55	39208.65
502.72	38925.45
502.90	39255.46
503.07	39365.47
503.25	39178.23
503.43	39695.49
503.60	39510.58
503.78	39976.35
503.95	39934.22
504.13	40130.83
504.30	40048.91
504.48	39995.07
504.65	40753.41
504.83	40737.02
505.01	40605.95
505.18	40751.07
505.36	41383.01
505.53	40762.77
505.71	41656.85
505.88	41432.16
506.06	41525.78
506.23	41706.01
506.41	40954.69
506.58	42089.85
506.76	41848.78
506.93	42183.48
507.11	41841.76
507.28	42806.06
507.46	42464.34
507.63	42483.06
507.81	42820.10
507.98	42305.18
508.16	42731.16
508.33	43058.84
508.50	43335.02
508.68	43140.75
508.85	43910.79
509.03	43269.48
509.20	44116.76
509.38	43990.37
509.55	44243.15
509.73	43887.39
509.90	44416.35
510.08	43981.01
510.25	44217.40
510.42	44095.69
510.60	44212.72
510.77	44800.19
510.95	45015.52
511.12	44671.46
511.30	44917.22
511.47	45181.70
511.64	44868.07
511.82	45593.64
511.99	45654.49
512.17	45481.29
512.34	45790.24
512.51	46073.45
512.69	45780.88
512.86	45560.87
513.04	46174.09
513.21	46316.86
513.38	46604.75
513.56	46415.16
513.73	45984.51
513.90	46843.48
514.08	46213.88
514.25	46948.81
514.43	46876.25
514.60	47288.18
514.77	46979.23
514.95	47456.70
515.12	47234.35
515.29	47152.43
515.47	47529.26
515.64	47643.94
515.81	47562.03
515.99	48095.67
516.16	47913.11
516.33	47885.02
516.51	48364.83
516.68	48259.51
516.85	48105.03
517.03	48472.49
517.20	48818.89
517.37	48589.52
517.54	49022.52
517.72	48589.52
517.89	48839.96
518.06	48645.69
518.24	49055.29
518.41	48886.77
518.58	48720.59
518.75	48699.53
518.93	48989.75
519.10	48956.99
519.27	49614.68
519.45	49415.73
519.62	49869.79
519.79	49392.33
519.96	49635.74
520.14	50021.93
520.31	50010.23
520.48	50033.63
520.65	49956.39
520.83	50354.29
521.00	50141.30
521.17	50220.87
521.34	50756.86
521.52	50272.37
521.69	50901.97
521.86	50698.34
522.03	51058.79
522.20	51096.24
522.38	51351.35
522.55	50923.04
522.72	50642.17
522.89	51107.94
523.07	51557.32
523.24	51379.44
523.41	51491.79
523.58	51536.26
523.75	51749.24
523.92	51695.41
524.10	51700.09
524.27	52011.38
524.44	51601.79
524.61	51945.85
524.78	52032.45
524.96	52006.70
525.13	52067.56
525.30	52107.35
525.47	52081.60
525.64	52130.75
525.81	52308.63
525.98	52172.88
526.16	52023.09
526.33	52210.33
526.50	52765.04
526.67	52453.75
526.84	52961.64
527.01	52629.29
527.18	52732.27
527.36	52430.34
527.53	52868.02
527.70	53017.82
527.87	53073.99
528.04	53052.92
528.21	53244.85
528.38	52961.64
528.55	53123.14
528.72	53127.82
528.89	53272.93
529.07	53230.80
529.24	53200.38
529.41	53570.18
529.58	53301.02
529.75	53375.92
529.92	53275.27
530.09	53584.22
530.26	53741.04
530.43	53567.84
530.60	53670.82
530.77	53558.48
530.94	53719.98
531.11	53961.05
531.28	53965.73
531.46	54028.93
531.63	54143.61
531.80	53909.56
531.97	54110.85
532.14	54244.26
532.31	54372.99
532.48	54174.04
532.65	54401.07
532.82	54284.04
532.99	54527.46
533.16	54293.41
533.33	54674.91
533.50	54642.15
533.67	54457.24
533.84	54356.60
534.01	54588.31
534.18	54827.05
534.35	54904.29
534.52	55000.25
534.69	55035.36
534.86	54782.58
535.03	54866.84
535.20	55056.42
535.37	54920.67
535.54	55054.08
535.71	54925.35
535.88	55138.34
536.05	55358.35
536.22	55290.48
536.38	55367.71
536.55	55414.52
536.72	55334.95
536.89	55444.95
537.06	55477.72
537.23	55454.31
537.40	55391.12
537.57	55433.25
537.74	55653.26
537.91	55735.18
538.08	55725.81
538.25	55480.06
538.42	55791.35
538.59	55899.01
538.75	55601.77
538.92	55737.52
539.09	56142.43
539.26	55861.57
539.43	55990.30
539.60	56074.55
539.77	56163.50
539.94	56271.16
540.11	56257.12
540.28	56348.40
540.44	56163.50
540.61	56395.21
540.78	56020.72
540.95	56292.22
541.12	56053.49
541.29	56229.03
541.46	56287.54
541.62	56247.75
541.79	56568.41
541.96	56161.15
542.13	56313.29
542.30	56575.43
542.47	56596.49
542.63	56528.62
542.80	56788.42
542.97	57036.51
543.14	57055.24
543.31	56999.07
543.48	57198.01
543.64	57275.25
543.81	57123.11
543.98	57139.50
544.15	57291.63
544.32	57296.31
544.48	57422.70
544.65	57059.92
544.82	57425.04
544.99	57027.15
545.16	57490.58
545.32	57139.50
545.49	57455.47
545.66	57499.94
545.83	57530.37
546.00	57504.62
546.16	57476.54
546.33	57198.01
546.50	57183.97
546.67	57467.17
546.83	57249.50
547.00	57633.35
547.17	57530.37
547.34	57631.01
547.50	57832.30
547.67	57717.61
547.84	57687.18
548.00	58122.52
548.17	58110.82
548.34	57773.78
548.51	58176.36
548.67	58087.42
548.84	57956.35
549.01	57993.79
549.18	57836.98
549.34	58038.26
549.51	58295.72
549.68	58033.58
549.84	58073.37
550.01	58166.99
550.18	58124.86
550.34	58120.18
550.51	58557.86
550.68	58389.34
550.84	57895.49
551.01	58623.40
551.18	58401.05
551.34	58253.59
551.51	58401.05
551.68	58288.70
551.84	58351.90
552.01	58267.64
552.18	58518.07
552.34	58314.45
552.51	58560.20
552.68	58277.00
552.84	58454.88
553.01	58585.95
553.18	58532.12
553.34	58766.17
553.51	58438.50
553.67	58450.20
553.84	58733.40
554.01	58665.53
554.17	58871.49
554.34	58976.82
554.51	58578.93
554.67	58824.68
554.84	58885.54
555.00	58887.88
555.17	58920.65
555.33	58904.26
555.50	58747.45
555.67	58735.74
555.83	58932.35
556.00	58721.70
556.16	59220.23
556.33	59100.87
556.50	59194.49
556.66	59299.81
556.83	58899.58
556.99	59091.51
557.16	59283.43
557.32	59217.89
557.49	59358.33
557.65	59274.07
557.82	59227.26
557.98	59157.04
558.15	59117.25
558.32	59409.82
558.48	59255.34
558.65	59292.79
558.81	59250.66
558.98	59278.75
559.14	59405.14
559.31	59393.43
559.47	59461.31
559.64	59288.11
559.80	59271.73
559.97	59636.85
560.13	59489.40
560.30	59451.95
560.46	59709.41
560.63	59517.48
560.79	59697.70
560.96	59796.01
561.12	59763.24
561.29	59812.39
561.45	59714.09
561.61	59627.49
561.78	59508.12
561.94	59664.94
562.11	59716.43
562.27	59674.30
562.44	59718.77
562.60	60055.81
562.77	59690.68
562.93	59779.62
563.10	59894.31
563.26	59732.81
563.42	60041.76
563.59	59882.61
563.75	59714.09
563.92	59814.73
564.08	59882.61
564.24	60060.49
564.41	59943.46
564.57	59929.42
564.74	59859.20
564.90	60041.76
565.07	59896.65
565.23	60013.68
565.39	59924.74
565.56	60009.00
565.72	60168.15
565.88	59889.63
566.05	60013.68
566.21	59849.84
566.38	60200.92
566.54	59859.20
566.70	60109.64
566.87	60261.77
567.03	59957.50
567.19	60432.63
567.36	60154.11
567.52	60154.11
567.68	60236.03
567.85	60177.51
568.01	60196.24
568.17	60280.50
568.34	60280.50
568.50	60196.24
568.66	60275.82
568.83	60205.60
568.99	60205.60
569.15	60402.21
569.32	60135.38
569.48	60172.83
569.64	60388.16
569.81	60296.88
569.97	60252.41
570.13	60273.48
570.30	60165.81
570.46	60327.31
570.62	60254.75
570.78	60310.92
570.95	60271.14
571.11	60383.48
571.27	60149.43
571.43	60280.50
571.60	60381.14
571.76	60285.18
571.92	60484.12
572.09	60343.69
572.25	60449.02
572.41	60240.71
572.57	60224.32
572.74	60683.07
572.90	60315.61
573.06	60617.53
573.22	60549.66
573.38	60626.90
573.55	60495.83
573.71	60732.22
573.87	60383.48
574.03	60376.46
574.20	60741.58
574.36	60547.32
574.52	60636.26
574.68	60662.00
574.84	60645.62
575.01	60481.78
575.17	60509.87
575.33	60652.64
575.49	60397.52
575.65	60640.94
575.82	60458.38
575.98	60507.53
576.14	60790.73
576.30	60781.37
576.46	60612.85
576.62	60516.89
576.79	60587.11
576.95	60498.17
577.11	60533.28
577.27	60591.79
577.43	60687.75
577.59	60601.15
577.75	60619.88
577.92	60376.46
578.08	60552.00
578.24	60713.50
578.40	60982.66
578.56	60797.76
578.72	60769.67
578.88	60811.80
579.04	60669.03
579.21	60540.30
579.37	60786.05
579.53	60832.86
579.69	60498.17
579.85	60502.85
580.01	60882.02
580.17	60425.61
580.33	60598.81
580.49	60872.65
580.65	60701.79
580.82	60512.21
580.98	60706.47
581.14	60650.30
581.30	60793.07
581.46	60750.94
581.62	60687.75
581.78	60587.11
581.94	60734.56
582.10	60769.67
582.26	60800.10
582.42	60598.81
582.58	60856.27
582.74	60662.00
582.90	60767.33
583.06	60715.84
583.22	60678.39
583.38	60860.95
583.54	60748.60
583.70	60797.76
583.86	60727.54
584.02	60889.04
584.18	60933.51
584.34	60896.06
584.50	60804.78
584.66	60671.37
584.82	60647.96
584.98	61048.19
585.14	61031.81
585.30	60650.30
585.46	61062.24
585.62	60743.92
585.78	60999.04
585.94	60652.64
586.10	60523.91
586.26	60860.95
586.42	60912.44
586.58	60832.86
586.74	60809.46
586.90	60748.60
587.06	60734.56
587.22	60879.67
587.38	60903.08
587.54	60884.36
587.70	61123.09
587.86	60910.10
588.02	60886.70
588.18	61008.40
588.34	60800.10
588.49	60835.20
