SpectraSuite Data File
++++++++++++++++++++++++++++++++++++
Date: Fri Oct 25 11:26:13 EDT 2013
User: price-jones
Dark Spectrum Present: No
Reference Spectrum Present: No
Number of Sampled Component Spectra: 1
Spectrometers: USB2+H05261
Integration Time (usec): 100000 (USB2+H05261)
Spectra Averaged: 1 (USB2+H05261)
Boxcar Smoothing: 0 (USB2+H05261)
Correct for Electrical Dark: No (USB2+H05261)
Strobe/Lamp Enabled: No (USB2+H05261)
Correct for Detector Non-linearity: No (USB2+H05261)
Correct for Stray Light: No (USB2+H05261)
Number of Pixels in Processed Spectrum: 2048
>>>>>Begin Processed Spectral Data<<<<<
365.73	271.50
365.92	271.50
366.12	271.50
366.32	121.71
366.52	105.32
366.72	117.03
366.91	91.28
367.11	168.52
367.31	121.71
367.51	56.17
367.70	119.37
367.90	117.03
368.10	72.56
368.30	189.58
368.49	126.39
368.69	229.37
368.89	145.11
369.09	166.18
369.28	107.66
369.48	156.82
369.68	191.92
369.87	227.03
370.07	273.84
370.27	208.31
370.47	294.91
370.66	552.37
370.86	603.86
371.06	681.10
371.25	713.86
371.45	723.23
371.65	629.60
371.84	631.94
372.04	727.91
372.24	711.52
372.44	678.76
372.63	727.91
372.83	695.14
373.03	765.36
373.22	770.04
373.42	816.85
373.62	772.38
373.81	741.95
374.01	784.08
374.21	816.85
374.40	814.51
374.60	851.96
374.79	896.43
374.99	851.96
375.19	809.83
375.38	917.49
375.58	819.19
375.78	994.73
375.97	866.00
376.17	884.72
376.37	978.34
376.56	901.11
376.76	933.87
376.95	880.04
377.15	884.72
377.35	842.59
377.54	929.19
377.74	954.94
377.93	856.64
378.13	910.47
378.33	985.37
378.52	891.74
378.72	903.45
378.91	866.00
379.11	898.77
379.31	866.00
379.50	954.94
379.70	1004.09
379.89	976.00
380.09	931.53
380.28	938.55
380.48	985.37
380.68	992.39
380.87	1032.18
381.07	1050.90
381.26	1043.88
381.46	1011.11
381.65	973.66
381.85	1020.47
382.04	1022.81
382.24	1046.22
382.43	1041.54
382.63	940.90
382.83	1078.99
383.02	1083.67
383.22	1088.35
383.41	1011.11
383.61	1076.65
383.80	1163.25
384.00	1181.97
384.19	1200.69
384.39	1196.01
384.58	1188.99
384.78	1174.95
384.97	1111.75
385.17	1205.38
385.36	1219.42
385.56	1207.72
385.75	1111.75
385.95	1191.33
386.14	1158.57
386.34	1181.97
386.53	1139.84
386.72	1228.78
386.92	1240.48
387.11	1247.51
387.31	1231.12
387.50	1196.01
387.70	1390.28
387.89	1308.36
388.09	1294.32
388.28	1203.04
388.48	1327.08
388.67	1409.00
388.86	1322.40
389.06	1362.19
389.25	1277.93
389.45	1390.28
389.64	1334.11
389.84	1439.43
390.03	1397.30
390.22	1418.36
390.42	1355.17
390.61	1369.21
390.81	1411.34
391.00	1392.62
391.19	1371.55
391.39	1556.46
391.58	1371.55
391.78	1497.94
391.97	1432.41
392.16	1453.47
392.36	1537.73
392.55	1530.71
392.75	1516.67
392.94	1561.14
393.13	1533.05
393.33	1547.09
393.52	1582.20
393.71	1614.97
393.91	1558.80
394.10	1490.92
394.29	1624.33
394.49	1593.90
394.68	1528.37
394.88	1638.38
395.07	1633.69
395.26	1654.76
395.46	1682.85
395.65	1790.51
395.84	1621.99
396.04	1820.94
396.23	1694.55
396.42	1778.81
396.62	1795.19
396.81	1823.28
397.00	1834.98
397.19	1767.10
397.39	1846.68
397.58	1886.47
397.77	1736.68
397.97	1881.79
398.16	1811.57
398.35	1888.81
398.55	1837.32
398.74	1858.39
398.93	2036.27
399.12	1977.75
399.32	1900.52
399.51	1844.34
399.70	1989.46
399.90	2008.18
400.09	2076.06
400.28	2085.42
400.47	2064.35
400.67	2050.31
400.86	2071.37
401.05	2087.76
401.24	2054.99
401.44	1926.26
401.63	2143.93
401.82	2190.74
402.01	2162.66
402.21	2097.12
402.40	2179.04
402.59	2113.50
402.78	2211.81
402.97	2190.74
403.17	2284.36
403.36	2190.74
403.55	2326.49
403.74	2349.90
403.93	2328.83
404.13	2492.67
404.32	2389.69
404.51	2361.60
404.70	2492.67
404.89	2349.90
405.09	2511.39
405.28	2497.35
405.47	2399.05
405.66	2366.28
405.85	2417.77
406.05	2469.27
406.24	2537.14
406.43	2581.61
406.62	2459.90
406.81	2609.70
407.00	2548.84
407.20	2569.91
407.39	2605.02
407.58	2740.77
407.77	2658.85
407.96	2654.17
408.15	2689.28
408.34	2717.36
408.54	2782.90
408.73	2752.47
408.92	2953.76
409.11	2825.03
409.30	2981.84
409.49	2897.58
409.68	3014.61
409.87	2895.24
410.07	2890.56
410.26	2906.95
410.45	3038.02
410.64	3019.29
410.83	3005.25
411.02	2958.44
411.21	3274.41
411.40	3089.51
411.59	3236.96
411.78	3220.58
411.98	3143.34
412.17	3255.69
412.36	3213.56
412.55	3339.94
412.74	3325.90
412.93	3330.58
413.12	3344.63
413.31	3564.64
413.50	3447.61
413.69	3454.63
413.88	3552.93
414.07	3592.72
414.26	3557.61
414.45	3524.85
414.64	3723.79
414.83	3639.53
415.02	3763.58
415.22	3669.96
415.41	3927.42
415.60	3817.41
415.79	3836.14
415.98	3941.46
416.17	4002.32
416.36	3894.65
416.55	3920.40
416.74	3985.93
416.93	4119.34
417.12	4163.81
417.31	4149.77
417.50	4128.70
417.69	4224.67
417.88	4224.67
418.07	4266.80
418.26	4257.43
418.45	4119.34
418.64	4486.81
418.83	4367.44
419.02	4337.01
419.21	4428.29
419.39	4538.30
419.58	4409.57
419.77	4594.47
419.96	4489.15
420.15	4526.60
420.34	4568.73
420.53	4599.15
420.72	4718.52
420.91	4657.67
421.10	4620.22
421.29	4819.16
421.48	4620.22
421.67	4828.53
421.86	4739.58
422.05	4847.25
422.24	4753.63
422.43	4931.51
422.61	4800.44
422.80	4947.89
422.99	4856.61
423.18	4971.30
423.37	4947.89
423.56	4905.76
423.75	4938.53
423.94	4671.71
424.13	4641.28
424.32	4805.12
424.50	4994.70
424.69	5102.37
424.88	4905.76
425.07	4833.21
425.26	4884.70
425.45	5149.18
425.64	4905.76
425.83	4915.12
426.01	5139.82
426.20	5048.54
426.39	5233.44
426.58	4908.10
426.77	4903.42
426.96	5118.75
427.15	5060.24
427.33	5341.10
427.52	5219.39
427.71	5242.80
427.90	5212.37
428.09	5125.77
428.28	5350.46
428.46	5444.09
428.65	5181.95
428.84	5366.85
429.03	5486.22
429.22	5357.49
429.40	5423.02
429.59	5628.99
429.78	5273.23
429.97	5273.23
430.16	5572.82
430.34	5416.00
430.53	5598.56
430.72	5652.39
430.91	5617.29
431.10	5605.58
431.28	5678.14
431.47	5809.21
431.66	5774.10
431.85	5614.95
432.03	5893.47
432.22	5940.28
432.41	5830.27
432.60	6012.84
432.79	5968.37
432.97	5921.56
433.16	6146.25
433.35	6038.58
433.54	6104.12
433.72	6162.63
433.91	5935.60
434.10	6249.23
434.28	6031.56
434.47	6113.48
434.66	6052.63
434.85	6356.90
435.03	6338.17
435.22	6340.51
435.41	6523.07
435.59	6228.17
435.78	6457.54
435.97	6349.87
436.16	6497.33
436.34	6370.94
436.53	6328.81
436.72	6675.21
436.90	6516.05
437.09	6698.61
437.28	6450.52
437.46	6513.71
437.65	6654.14
437.84	6707.98
438.02	6684.57
438.21	6759.47
438.40	6436.47
438.58	6965.43
438.77	6902.24
438.96	6897.56
439.14	6986.50
439.33	7091.82
439.52	7194.81
439.70	7304.81
439.89	7412.48
440.08	7330.56
440.26	7435.88
440.45	7311.83
440.63	7482.69
440.82	7620.78
441.01	7606.74
441.19	7592.70
441.38	7588.02
441.57	7681.64
441.75	7709.72
441.94	8011.65
442.12	7948.46
442.31	7955.48
442.50	8046.76
442.68	7826.75
442.87	7866.54
443.05	8018.68
443.24	8114.64
443.43	8142.72
443.61	8248.05
443.80	8458.70
443.98	8250.39
444.17	7756.54
444.35	8135.70
444.54	8367.42
444.73	8339.33
444.91	8210.60
445.10	8327.63
445.28	8238.69
445.47	8212.94
445.65	8276.13
445.84	8348.69
446.02	8531.25
446.21	8351.03
446.39	8418.91
446.58	8376.78
446.77	8505.51
446.95	8306.56
447.14	8498.49
447.32	8365.07
447.51	8664.66
447.69	8454.02
447.88	8397.84
448.06	8362.73
448.25	8578.06
448.43	8662.32
448.62	8461.04
448.80	8479.76
448.99	8512.53
449.17	8643.60
449.36	8542.96
449.54	8748.92
449.73	8816.80
449.91	8851.91
450.10	8835.52
450.28	8987.66
450.46	9055.53
450.65	8877.65
450.83	8844.88
451.02	9107.02
451.20	8990.00
451.39	9029.79
451.57	9130.43
451.76	8968.93
451.94	9153.84
452.13	9334.06
452.31	9074.26
452.49	9165.54
452.68	9259.16
452.86	9280.22
453.05	9329.38
453.23	9390.23
453.42	9320.01
453.60	9453.42
453.78	9305.97
453.97	9247.46
454.15	9380.87
454.34	9565.77
454.52	9596.20
454.70	9507.26
454.89	9886.42
455.07	9657.05
455.26	9795.14
455.44	9785.78
455.62	9949.62
455.81	9844.29
455.99	10015.15
456.17	9984.73
456.36	10129.84
456.54	10218.78
456.73	10256.23
456.91	10403.68
457.09	10373.25
457.28	10314.74
457.46	10284.31
457.64	10511.35
457.83	10579.22
458.01	10448.15
458.19	10637.73
458.38	10574.54
458.56	10747.74
458.74	10609.65
458.93	10527.73
459.11	10677.52
459.29	10792.21
459.48	10766.46
459.66	10810.93
459.84	10691.57
460.03	10904.56
460.21	10867.11
460.39	10930.30
460.57	10937.32
460.76	10944.34
460.94	11225.21
461.12	11021.58
461.31	11239.25
461.49	11049.67
461.67	11412.45
461.85	11293.08
462.04	11159.67
462.22	11812.68
462.40	11316.49
462.59	11618.42
462.77	11559.91
462.95	11599.70
463.13	11494.37
463.32	11550.54
463.50	11873.54
463.68	11609.06
463.86	11740.13
464.05	11482.67
464.23	11740.13
464.41	11730.76
464.59	11688.64
464.78	11885.24
464.96	12011.63
465.14	11826.73
465.32	12063.12
465.50	11943.75
465.69	12081.85
465.87	11948.43
466.05	12252.70
466.23	12194.19
466.41	11936.73
466.60	12311.22
466.78	12051.42
466.96	12107.59
467.14	12025.67
467.32	12318.24
467.51	12376.75
467.69	12009.29
467.87	12432.93
468.05	12465.69
468.23	12477.40
468.41	12327.60
468.60	12648.26
468.78	12573.36
468.96	12512.50
469.14	12564.00
469.32	13130.41
469.50	12655.28
469.69	12786.35
469.87	12971.25
470.05	12830.82
470.23	12971.25
470.41	13135.09
470.59	13163.17
470.77	13125.72
470.95	13324.67
471.14	13348.08
471.32	13198.28
471.50	13474.46
471.68	13350.42
471.86	13729.58
472.04	13650.00
472.22	13989.38
472.40	13605.53
472.58	13610.22
472.77	13561.06
472.95	14054.92
473.13	14455.15
473.31	13933.21
473.49	14019.81
473.67	13989.38
473.85	14239.82
474.03	14597.92
474.21	14607.28
474.39	14590.90
474.57	14471.53
474.75	14717.29
474.93	14953.68
475.12	14974.75
475.30	15009.86
475.48	14906.87
475.66	14981.77
475.84	14993.47
476.02	15445.20
476.20	15393.70
476.38	15683.93
476.56	15992.88
476.74	16093.52
476.92	15859.47
477.10	15613.71
477.28	16070.12
477.46	16137.99
477.64	16163.74
477.82	16519.50
478.00	16753.55
478.18	16716.11
478.36	16893.99
478.54	16968.88
478.72	16964.20
478.90	17516.57
479.08	17516.57
479.26	17568.06
479.44	17488.48
479.62	18075.96
479.80	18050.21
479.98	17867.65
480.16	18258.52
480.34	18118.09
480.52	18523.00
480.70	18375.55
480.88	18005.74
481.06	18794.50
481.24	18944.30
481.41	19281.33
481.59	19206.44
481.77	19515.39
481.95	19426.45
482.13	19875.83
482.31	19618.37
482.49	20229.25
482.67	20304.15
482.85	20194.14
483.03	20255.00
483.21	20659.91
483.39	21088.23
483.57	20765.23
483.74	20856.51
483.92	21247.38
484.10	20912.69
484.28	21832.52
484.46	21785.71
484.64	22129.77
484.82	21624.21
485.00	22293.60
485.18	22604.89
485.35	23105.77
485.53	22822.56
485.71	22925.55
485.89	23063.64
486.07	23662.82
486.25	23400.68
486.43	23616.01
486.61	23807.93
486.78	24060.71
486.96	24170.71
487.14	24533.50
487.32	24652.86
487.50	24685.63
487.68	24868.19
487.85	25081.18
488.03	25528.22
488.21	25687.38
488.39	25792.70
488.57	26239.75
488.75	26043.14
488.92	26087.61
489.10	26237.41
489.28	26532.31
489.46	27037.87
489.64	27054.25
489.81	27473.21
489.99	27433.42
490.17	27744.71
490.35	27791.52
490.53	28053.66
490.70	28011.53
490.88	27981.10
491.06	28383.68
491.24	28697.31
491.41	28767.52
491.59	29067.11
491.77	29219.25
491.95	29511.81
492.13	29434.58
492.30	29575.01
492.48	29776.30
492.66	29795.02
492.84	29993.97
493.01	30712.51
493.19	30892.73
493.37	30897.41
493.54	31019.12
493.72	31063.59
493.90	31639.36
494.08	31510.63
494.25	32039.59
494.43	32002.14
494.61	32109.81
494.79	32442.17
494.96	32425.78
495.14	32673.88
495.32	32882.19
495.49	32877.51
495.67	33205.18
495.85	33542.22
496.02	33628.82
496.20	33830.10
496.38	33750.52
496.55	33757.55
496.73	34436.30
496.91	34288.85
497.09	34581.42
497.26	34698.44
497.44	34621.20
497.62	34668.02
497.79	35817.22
497.97	35019.10
498.14	35906.16
498.32	35534.01
498.50	35847.64
498.67	36392.99
498.85	36318.09
499.03	36641.09
499.20	36392.99
499.38	36650.45
499.56	36849.39
499.73	37010.89
499.91	37177.07
500.08	37603.05
500.26	37113.87
500.44	37324.52
500.61	37546.87
500.79	37638.15
500.97	37813.70
501.14	38415.21
501.32	38426.92
501.49	38373.08
501.67	38644.59
501.84	38557.99
502.02	38581.39
502.20	38806.08
502.37	38735.87
502.55	38824.81
502.72	39667.40
502.90	39585.48
503.07	38824.81
503.25	39847.62
503.43	39267.17
503.60	40109.76
503.78	39838.26
503.95	40367.22
504.13	40301.68
504.30	40760.43
504.48	39721.23
504.65	40004.44
504.83	40266.58
505.01	41120.87
505.18	40835.33
505.36	41181.73
505.53	41092.79
505.71	41614.72
505.88	41720.05
506.06	41132.57
506.23	41986.87
506.41	41563.23
506.58	42026.66
506.76	42153.05
506.93	42539.24
507.11	42534.56
507.28	42101.56
507.46	42284.12
507.63	42440.93
507.81	43051.81
507.98	42658.60
508.16	43049.47
508.33	42925.42
508.50	43250.76
508.68	43297.57
508.85	43840.57
509.03	43887.39
509.20	43459.07
509.38	44006.75
509.55	44100.37
509.73	44044.20
509.90	45001.48
510.08	44275.91
510.25	44456.14
510.42	44514.65
510.60	44535.71
510.77	44868.07
510.95	44802.53
511.12	44999.14
511.30	44767.43
511.47	45081.06
511.64	45448.52
511.82	45858.12
511.99	45261.28
512.17	45858.12
512.34	45507.04
512.51	46539.21
512.69	46127.28
512.86	46391.76
513.04	45965.78
513.21	46719.43
513.38	46838.80
513.56	46305.16
513.73	46230.26
513.90	46681.98
514.08	46986.25
514.25	46852.84
514.43	47049.45
514.60	47044.77
514.77	47131.37
514.95	47679.05
515.12	47086.90
515.29	47227.33
515.47	47533.94
515.64	47274.14
515.81	47775.02
515.99	47695.44
516.16	48172.91
516.33	47845.23
516.51	48425.68
516.68	48381.21
516.85	48465.47
517.03	48495.90
517.20	48421.00
517.37	48556.75
517.54	48783.79
517.72	48573.14
517.89	48975.71
518.06	48870.39
518.24	49102.10
518.41	49228.49
518.58	49263.60
518.75	48879.75
518.93	49223.81
519.10	49397.01
519.27	49471.90
519.45	49598.29
519.62	49614.68
519.79	49776.17
519.96	50113.21
520.14	49935.33
520.31	49785.54
520.48	50178.75
520.65	50145.98
520.83	50265.34
521.00	50707.71
521.17	50000.86
521.34	50468.97
521.52	50700.68
521.69	50567.27
521.86	50632.81
522.03	50908.99
522.20	50728.77
522.38	51533.92
522.55	51138.36
522.72	51098.58
522.89	51131.34
523.07	51543.28
523.24	51510.51
523.41	51365.40
523.58	50967.51
523.75	51899.04
523.92	51426.25
524.10	51695.41
524.27	51922.44
524.44	51711.80
524.61	51753.93
524.78	51737.54
524.96	51938.83
525.13	52013.73
525.30	52266.50
525.47	52336.72
525.64	52322.68
525.81	52472.47
525.98	52612.90
526.16	52573.11
526.33	52561.41
526.50	53027.18
526.67	52626.95
526.84	52879.72
527.01	52743.97
527.18	52470.13
527.36	53169.95
527.53	52706.52
527.70	53312.72
527.87	53095.05
528.04	52954.62
528.21	53214.42
528.38	53577.20
528.55	53539.75
528.72	53256.55
528.89	53380.60
529.07	53277.61
529.24	53130.16
529.41	53404.00
529.58	53411.02
529.75	53396.98
529.92	53820.62
530.09	53731.68
530.26	53738.70
530.43	53811.26
530.60	53790.19
530.77	53862.75
530.94	54094.46
531.11	53808.92
531.28	53790.19
531.46	53951.69
531.63	54220.85
531.80	54059.35
531.97	54157.66
532.14	54171.70
532.31	54143.61
532.48	54347.24
532.65	54557.89
532.82	54298.09
532.99	54284.04
533.16	54508.74
533.33	54775.56
533.50	54663.21
533.67	54710.02
533.84	54820.03
534.01	54651.51
534.18	54745.13
534.35	55103.23
534.52	54761.51
534.69	55178.13
534.86	55196.85
535.03	54988.55
535.20	55018.97
535.37	55384.10
535.54	55196.85
535.71	55121.96
535.88	55224.94
536.05	54981.52
536.22	55426.23
536.38	55456.65
536.55	55550.27
536.72	55451.97
536.89	55386.44
537.06	55421.55
537.23	55688.37
537.40	55365.37
537.57	55707.09
537.74	55461.33
537.91	55810.07
538.08	55789.01
538.25	55222.60
538.42	55824.12
538.59	55931.78
538.75	55781.99
538.92	56044.13
539.09	55810.07
539.26	55952.85
539.43	56058.17
539.60	56294.56
539.77	55943.48
539.94	56264.14
540.11	55966.89
540.28	55828.80
540.44	56535.64
540.61	56200.94
540.78	56203.28
540.95	56219.67
541.12	56247.75
541.29	56378.82
541.46	56360.10
541.62	56427.98
541.79	56329.67
541.96	56343.72
542.13	56573.09
542.30	56676.07
542.47	57015.45
542.63	56898.42
542.80	56694.80
542.97	57132.48
543.14	56926.51
543.31	57198.01
543.48	57139.50
543.64	57293.97
543.81	57190.99
543.98	57301.00
544.15	57088.01
544.32	57296.31
544.48	57389.94
544.65	57137.16
544.82	57361.85
544.99	57254.18
545.16	57513.98
545.32	57336.10
545.49	57656.76
545.66	57593.56
545.83	57623.99
546.00	57680.16
546.16	57724.63
546.33	57354.83
546.50	57209.71
546.67	57654.42
546.83	57291.63
547.00	57485.90
547.17	57687.18
547.34	57478.88
547.50	57780.81
547.67	57696.55
547.84	57773.78
548.00	57862.72
548.17	57932.94
548.34	57792.51
548.51	58185.72
548.67	58042.95
548.84	57836.98
549.01	57691.86
549.18	57921.24
549.34	58068.69
549.51	58150.61
549.68	58251.25
549.84	58269.98
550.01	58237.21
550.18	58174.02
550.34	58375.30
550.51	58370.62
550.68	58351.90
550.84	57986.77
551.01	58277.00
551.18	58335.51
551.34	58408.07
551.51	58361.26
551.68	58487.65
551.84	58508.71
552.01	58351.90
552.18	58347.21
552.34	58492.33
552.51	58616.38
552.68	58335.51
552.84	58555.52
553.01	58829.37
553.18	58663.19
553.34	58665.53
553.51	58471.26
553.67	58707.66
553.84	58644.46
554.01	59018.95
554.17	59040.01
554.34	58848.09
554.51	58796.60
554.67	58745.11
554.84	58925.33
555.00	58932.35
555.17	58780.21
555.33	58887.88
555.50	58845.75
555.67	58878.52
555.83	58834.05
556.00	58960.44
556.16	59269.39
556.33	59072.78
556.50	59091.51
556.66	59182.79
556.83	59086.82
556.99	59304.49
557.16	59564.29
557.32	59346.62
557.49	59552.59
557.65	59042.35
557.82	59077.46
557.98	59121.93
558.15	59367.69
558.32	59370.03
558.48	59150.02
558.65	59505.78
558.81	59304.49
558.98	59370.03
559.14	59456.63
559.31	59454.29
559.47	59515.14
559.64	59594.72
559.80	59627.49
559.97	59690.68
560.13	59463.65
560.30	59599.40
560.46	59735.15
560.63	59547.91
560.79	59632.17
560.96	59594.72
561.12	59688.34
561.29	59578.34
561.45	59798.35
561.61	59723.45
561.78	59636.85
561.94	59552.59
562.11	59810.05
562.27	59728.13
562.44	59994.95
562.60	59725.79
562.77	59674.30
562.93	59725.79
563.10	59901.33
563.26	59721.11
563.42	60020.70
563.59	59849.84
563.75	59732.81
563.92	59821.75
564.08	59693.02
564.24	60102.62
564.41	60072.19
564.57	59950.48
564.74	59999.63
564.90	59962.18
565.07	60072.19
565.23	60111.98
565.39	60097.94
565.56	60121.34
565.72	60023.04
565.88	60200.92
566.05	59906.01
566.21	60069.85
566.38	60114.32
566.54	60058.15
566.70	60402.21
566.87	60303.90
567.03	59962.18
567.19	60350.71
567.36	60072.19
567.52	59936.44
567.68	60399.86
567.85	60046.44
568.01	60128.36
568.17	60123.68
568.34	60488.80
568.50	60135.38
568.66	60271.14
568.83	60416.25
568.99	60437.31
569.15	60196.24
569.32	60093.25
569.48	60280.50
569.64	60301.56
569.81	60266.45
569.97	60163.47
570.13	60076.87
570.30	60231.35
570.46	60135.38
570.62	60285.18
570.78	60243.05
570.95	60376.46
571.11	60406.89
571.27	60268.79
571.43	60320.29
571.60	60292.20
571.76	60156.45
571.92	60488.80
572.09	60540.30
572.25	60736.90
572.41	60498.17
572.57	60327.31
572.74	60786.05
572.90	60509.87
573.06	60362.42
573.22	60376.46
573.38	60608.17
573.55	60392.84
573.71	60755.63
573.87	60444.33
574.03	60214.96
574.20	60678.39
574.36	60472.42
574.52	60453.70
574.68	60638.60
574.84	60633.92
575.01	60706.47
575.17	60552.00
575.33	60449.02
575.49	60369.44
575.65	60339.01
575.82	60865.63
575.98	60776.69
576.14	60760.31
576.30	60500.51
576.46	60566.04
576.62	60608.17
576.79	60664.35
576.95	60374.12
577.11	60706.47
577.27	60910.10
577.43	60650.30
577.59	60622.22
577.75	60509.87
577.92	60486.46
578.08	60594.13
578.24	60542.64
578.40	60793.07
578.56	60896.06
578.72	60882.02
578.88	60734.56
579.04	60811.80
579.21	60636.26
579.37	60844.57
579.53	60870.31
579.69	60643.28
579.85	60697.11
580.01	60449.02
580.17	60631.58
580.33	60767.33
580.49	60903.08
580.65	60762.65
580.82	60797.76
580.98	60786.05
581.14	60872.65
581.30	61043.51
581.46	60949.89
581.62	60865.63
581.78	60718.18
581.94	60633.92
582.10	60818.82
582.26	60781.37
582.42	60764.99
582.58	60671.37
582.74	60779.03
582.90	60666.69
583.06	60959.25
583.22	60530.93
583.38	60760.31
583.54	60755.63
583.70	60882.02
583.86	60905.42
584.02	60865.63
584.18	60994.36
584.34	60945.21
584.50	60858.61
584.66	60874.99
584.82	60615.19
584.98	61034.15
585.14	61006.06
585.30	60673.71
585.46	60982.66
585.62	60947.55
585.78	60734.56
585.94	60779.03
586.10	60699.45
586.26	60844.57
586.42	60949.89
586.58	61057.56
586.74	60715.84
586.90	60821.16
587.06	60903.08
587.22	60940.53
587.38	60867.97
587.54	60931.17
587.70	61174.58
587.86	61048.19
588.02	60877.33
588.18	61043.51
588.34	60893.72
588.49	60973.30
