SpectraSuite Data File
++++++++++++++++++++++++++++++++++++
Date: Fri Oct 25 11:34:37 EDT 2013
User: price-jones
Dark Spectrum Present: No
Reference Spectrum Present: No
Number of Sampled Component Spectra: 1
Spectrometers: USB2+H05261
Integration Time (usec): 100000 (USB2+H05261)
Spectra Averaged: 1 (USB2+H05261)
Boxcar Smoothing: 0 (USB2+H05261)
Correct for Electrical Dark: No (USB2+H05261)
Strobe/Lamp Enabled: No (USB2+H05261)
Correct for Detector Non-linearity: No (USB2+H05261)
Correct for Stray Light: No (USB2+H05261)
Number of Pixels in Processed Spectrum: 2048
>>>>>Begin Processed Spectral Data<<<<<
365.73	266.82
365.92	266.82
366.12	266.82
366.32	191.92
366.52	138.09
366.72	210.65
366.91	168.52
367.11	159.16
367.31	191.92
367.51	182.56
367.70	248.10
367.90	217.67
368.10	210.65
368.30	124.05
368.49	124.05
368.69	212.99
368.89	212.99
369.09	287.89
369.28	241.08
369.48	198.95
369.68	227.03
369.87	241.08
370.07	238.73
370.27	285.55
370.47	292.57
370.66	472.79
370.86	503.22
371.06	500.87
371.25	533.64
371.45	498.53
371.65	554.71
371.84	561.73
372.04	575.77
372.24	561.73
372.44	566.41
372.63	596.84
372.83	589.82
373.03	578.11
373.22	613.22
373.42	636.63
373.62	554.71
373.81	643.65
374.01	692.80
374.21	697.48
374.40	557.05
374.60	653.01
374.79	648.33
374.99	669.39
375.19	641.31
375.38	653.01
375.58	664.71
375.78	585.13
375.97	695.14
376.17	697.48
376.37	578.11
376.56	655.35
376.76	671.73
376.95	706.84
377.15	690.46
377.35	636.63
377.54	688.12
377.74	676.41
377.93	713.86
378.13	772.38
378.33	676.41
378.52	692.80
378.72	723.23
378.91	732.59
379.11	662.37
379.31	685.78
379.50	655.35
379.70	751.31
379.89	709.18
380.09	744.29
380.28	671.73
380.48	690.46
380.68	723.23
380.87	704.50
381.07	711.52
381.26	753.65
381.46	819.19
381.65	777.06
381.85	662.37
382.04	685.78
382.24	763.01
382.43	737.27
382.63	746.63
382.83	772.38
383.02	819.19
383.22	779.40
383.41	706.84
383.61	765.36
383.80	833.23
384.00	746.63
384.19	809.83
384.39	866.00
384.58	786.42
384.78	807.48
384.97	753.65
385.17	800.46
385.36	765.36
385.56	858.98
385.75	800.46
385.95	873.02
386.14	840.25
386.34	772.38
386.53	891.74
386.72	798.12
386.92	861.32
387.11	828.55
387.31	830.89
387.50	851.96
387.70	891.74
387.89	901.11
388.09	866.00
388.28	915.15
388.48	945.58
388.67	882.38
388.86	833.23
389.06	945.58
389.25	861.32
389.45	964.30
389.64	950.26
389.84	894.08
390.03	959.62
390.22	987.71
390.42	940.90
390.61	858.98
390.81	828.55
391.00	961.96
391.19	917.49
391.39	917.49
391.58	1027.50
391.78	896.43
391.97	894.08
392.16	1053.24
392.36	1029.84
392.55	1032.18
392.75	1076.65
392.94	1011.11
393.13	954.94
393.33	1055.58
393.52	1060.26
393.71	1032.18
393.91	1128.14
394.10	1095.37
394.29	1062.60
394.49	1104.73
394.68	1067.28
394.88	1090.69
395.07	1097.71
395.26	1125.80
395.46	1097.71
395.65	1170.27
395.84	1233.46
396.04	1181.97
396.23	1132.82
396.42	1107.07
396.62	1214.74
396.81	1179.63
397.00	1149.20
397.19	1121.12
397.39	1158.57
397.58	1181.97
397.77	1179.63
397.97	1153.88
398.16	1203.04
398.35	1284.95
398.55	1259.21
398.74	1221.76
398.93	1291.98
399.12	1282.61
399.32	1186.65
399.51	1350.49
399.70	1284.95
399.90	1210.06
400.09	1362.19
400.28	1259.21
400.47	1338.79
400.67	1364.53
400.86	1397.30
401.05	1369.21
401.24	1404.32
401.44	1394.96
401.63	1369.21
401.82	1451.13
402.01	1416.02
402.21	1324.74
402.40	1390.28
402.59	1413.68
402.78	1364.53
402.97	1500.28
403.17	1500.28
403.36	1453.47
403.55	1497.94
403.74	1530.71
403.93	1511.99
404.13	1558.80
404.32	1544.75
404.51	1547.09
404.70	1556.46
404.89	1572.84
405.09	1554.12
405.28	1629.01
405.47	1636.03
405.66	1701.57
405.85	1598.59
406.05	1708.59
406.24	1664.12
406.43	1767.10
406.62	1729.66
406.81	1837.32
407.00	1638.38
407.20	1631.35
407.39	1771.79
407.58	1783.49
407.77	1813.92
407.96	1877.11
408.15	1783.49
408.34	1785.83
408.54	1839.66
408.73	1823.28
408.92	1776.47
409.11	1863.07
409.30	1860.73
409.49	1849.02
409.68	1905.20
409.87	1975.41
410.07	1975.41
410.26	1949.67
410.45	2003.50
410.64	2057.33
410.83	2052.65
411.02	2069.03
411.21	2146.27
411.40	2062.01
411.59	2104.14
411.78	2113.50
411.98	2024.56
412.17	2111.16
412.36	2165.00
412.55	2232.87
412.74	2307.77
412.93	2284.36
413.12	2216.49
413.31	2260.96
413.50	2373.30
413.69	2289.04
413.88	2349.90
414.07	2265.64
414.26	2370.96
414.45	2441.18
414.64	2436.50
414.83	2326.49
415.02	2356.92
415.22	2473.95
415.41	2605.02
415.60	2429.48
415.79	2633.10
415.98	2623.74
416.17	2663.53
416.36	2576.93
416.55	2600.34
416.74	2689.28
416.93	2588.63
417.12	2670.55
417.31	2796.94
417.50	2846.09
417.69	2789.92
417.88	2743.11
418.07	2792.26
418.26	2878.86
418.45	2778.22
418.64	2925.67
418.83	2895.24
419.02	2988.86
419.21	2899.92
419.39	2986.52
419.58	2906.95
419.77	2923.33
419.96	3016.95
420.15	2970.14
420.34	2956.10
420.53	2911.63
420.72	3173.77
420.91	2988.86
421.10	3150.36
421.29	3077.80
421.48	3000.57
421.67	3059.08
421.86	3162.06
422.05	3131.64
422.24	3115.25
422.43	3075.46
422.61	3148.02
422.80	3262.71
422.99	3407.82
423.18	3159.72
423.37	3349.31
423.56	3351.65
423.75	3225.26
423.94	3190.15
424.13	3185.47
424.32	3157.38
424.50	3251.00
424.69	3262.71
424.88	3267.39
425.07	3260.37
425.26	3105.89
425.45	3232.28
425.64	3208.87
425.83	3314.20
426.01	3426.54
426.20	3353.99
426.39	3290.79
426.58	3258.03
426.77	3243.98
426.96	3407.82
427.15	3353.99
427.33	3571.66
427.52	3428.88
427.71	3480.38
427.90	3398.46
428.09	3609.11
428.28	3562.30
428.46	3459.31
428.65	3508.46
428.84	3527.19
429.03	3583.36
429.22	3459.31
429.40	3489.74
429.59	3623.15
429.78	3417.18
429.97	3478.04
430.16	3506.12
430.34	3581.02
430.53	3695.71
430.72	3796.35
430.91	3794.01
431.10	3616.13
431.28	3794.01
431.47	3756.56
431.66	3882.95
431.85	3786.99
432.03	3929.76
432.22	4018.70
432.41	3901.67
432.60	3908.69
432.79	3960.19
432.97	3941.46
433.16	3892.31
433.35	3705.07
433.54	3990.61
433.72	3985.93
433.91	3929.76
434.10	3983.59
434.28	3969.55
434.47	4049.13
434.66	4109.98
434.85	3995.29
435.03	4126.36
435.22	4121.68
435.41	4215.30
435.59	4084.23
435.78	4360.42
435.97	4320.63
436.16	4021.04
436.34	4180.20
436.53	4173.18
436.72	4315.95
436.90	4203.60
437.09	4217.65
437.28	4112.32
437.46	4283.18
437.65	4362.76
437.84	4409.57
438.02	4411.91
438.21	4360.42
438.40	4519.57
438.58	4334.67
438.77	4507.87
438.96	4341.69
439.14	4557.02
439.33	4578.09
439.52	4692.77
439.70	4805.12
439.89	4678.73
440.08	4730.22
440.26	4725.54
440.45	4758.31
440.63	4896.40
440.82	4985.34
441.01	4793.42
441.19	4887.04
441.38	4968.96
441.57	4983.00
441.75	5078.96
441.94	5170.24
442.12	5181.95
442.31	5214.71
442.50	5200.67
442.68	5282.59
442.87	5128.11
443.05	5214.71
443.24	5385.57
443.43	5170.24
443.61	5184.29
443.80	5469.83
443.98	5160.88
444.17	4992.36
444.35	5198.33
444.54	5427.70
444.73	5359.83
444.91	5394.93
445.10	5434.72
445.28	5376.21
445.47	5303.65
445.65	5310.68
445.84	5378.55
446.02	5556.43
446.21	5399.62
446.39	5425.36
446.58	5465.15
446.77	5472.17
446.95	5479.19
447.14	5338.76
447.32	5453.45
447.51	5589.20
447.69	5458.13
447.88	5516.64
448.06	5488.56
448.25	5411.32
448.43	5650.05
448.62	5547.07
448.80	5533.03
448.99	5544.73
449.17	5673.46
449.36	5659.42
449.54	5722.61
449.73	5657.07
449.91	5753.04
450.10	5652.39
450.28	5818.57
450.46	5743.67
450.65	5937.94
450.83	5769.42
451.02	5783.46
451.20	5879.43
451.39	5930.92
451.57	5905.17
451.76	5846.66
451.94	5966.03
452.13	5949.64
452.31	6019.86
452.49	5818.57
452.68	6047.94
452.86	5991.77
453.05	5966.03
453.23	6204.76
453.42	5853.68
453.60	6010.50
453.78	6134.54
453.97	6118.16
454.15	6008.16
454.34	6127.52
454.52	6399.02
454.70	6279.66
454.89	6272.64
455.07	6279.66
455.26	6272.64
455.44	6293.70
455.62	6298.38
455.81	6258.59
455.99	6286.68
456.17	6483.28
456.36	6448.18
456.54	6569.88
456.73	6520.73
456.91	6817.98
457.09	6621.38
457.28	6862.45
457.46	6782.87
457.64	6724.36
457.83	6719.68
458.01	6815.64
458.19	6815.64
458.38	6707.98
458.56	6841.39
458.74	6560.52
458.93	6829.68
459.11	6949.05
459.29	6920.96
459.48	7061.40
459.66	6995.86
459.84	6881.18
460.03	6956.07
460.21	6991.18
460.39	6988.84
460.57	7042.67
460.76	7143.32
460.94	6965.43
461.12	7094.16
461.31	7215.87
461.49	7122.25
461.67	7185.44
461.85	7286.09
462.04	7246.30
462.22	7665.25
462.40	7286.09
462.59	7208.85
462.77	7265.02
462.95	7431.20
463.13	7332.90
463.32	7510.78
463.50	7693.34
463.68	7431.20
463.86	7625.47
464.05	7428.86
464.23	7382.05
464.41	7599.72
464.59	7435.88
464.78	7644.19
464.96	7592.70
465.14	7683.98
465.32	7751.85
465.50	7803.35
465.69	7754.19
465.87	7400.77
466.05	7651.21
466.23	7700.36
466.41	7639.51
466.60	7964.84
466.78	7850.16
466.96	7606.74
467.14	7803.35
467.32	7756.54
467.51	8030.38
467.69	7896.97
467.87	7992.93
468.05	8079.53
468.23	7939.10
468.41	7899.31
468.60	8133.36
468.78	8046.76
468.96	8224.64
469.14	8100.59
469.32	8383.80
469.50	7925.05
469.69	8201.24
469.87	8329.97
470.05	8166.13
470.23	8271.45
470.41	8407.20
470.59	8407.20
470.77	8498.49
470.95	8304.22
471.14	8451.67
471.32	8262.09
471.50	8498.49
471.68	8634.24
471.86	8540.61
472.04	8629.56
472.22	8739.56
472.40	8514.87
472.58	8828.50
472.77	8828.50
472.95	8842.54
473.13	8957.23
473.31	8784.03
473.49	8784.03
473.67	8870.63
473.85	9032.13
474.03	9259.16
474.21	9259.16
474.39	9350.44
474.57	9378.53
474.75	9359.80
474.93	9373.85
475.12	9231.07
475.30	9666.41
475.48	9619.60
475.66	9696.84
475.84	9469.81
476.02	9689.82
476.20	9720.24
476.38	9818.55
476.56	10253.89
476.74	9994.09
476.92	9935.57
477.10	10146.22
477.28	10270.27
477.46	10310.06
477.64	10228.14
477.82	10216.44
478.00	10630.71
478.18	10485.60
478.36	10593.26
478.54	10794.55
478.72	10827.32
478.90	10794.55
479.08	11070.73
479.26	11098.82
479.44	11077.76
479.62	11073.07
479.80	11253.30
479.98	11293.08
480.16	11538.84
480.34	11597.35
480.52	11665.23
480.70	11440.54
480.88	11426.50
481.06	11946.09
481.24	11838.43
481.41	12051.42
481.59	12224.62
481.77	12086.53
481.95	12397.82
482.13	12329.94
482.31	12360.37
482.49	12741.88
482.67	12652.94
482.85	12741.88
483.03	12608.47
483.21	12940.82
483.39	12870.61
483.57	12856.56
483.74	13083.59
483.92	13500.21
484.10	13212.32
484.28	13493.19
484.46	13692.13
484.64	13956.61
484.82	13652.34
485.00	13884.06
485.18	14246.84
485.35	14370.89
485.53	14300.67
485.71	14377.91
485.89	14532.39
486.07	14480.89
486.25	14630.69
486.43	14719.63
486.61	14705.59
486.78	14923.26
486.96	15164.33
487.14	15108.16
487.32	15379.66
487.50	15660.52
487.68	15499.03
487.85	15707.34
488.03	15941.39
488.21	16238.64
488.39	16077.14
488.57	16390.77
488.75	16201.19
488.92	16486.73
489.10	16212.89
489.28	16486.73
489.46	16652.91
489.64	16837.81
489.81	17432.31
489.99	17188.89
490.17	17013.35
490.35	17500.19
490.53	17352.73
490.70	17729.56
490.88	17671.04
491.06	18111.07
491.24	17706.15
491.41	18115.75
491.59	18104.04
491.77	18190.64
491.95	18232.77
492.13	18593.22
492.30	18630.66
492.48	18548.75
492.66	18691.52
492.84	18740.67
493.01	19431.13
493.19	19056.64
493.37	19295.38
493.54	19527.09
493.72	19573.90
493.90	19632.41
494.08	19545.81
494.25	19864.13
494.43	19702.63
494.61	20175.42
494.79	20201.16
494.96	20198.82
495.14	20135.63
495.32	20460.96
495.49	20648.21
495.67	20662.25
495.85	20650.55
496.02	20732.47
496.20	21174.83
496.38	20868.22
496.55	21214.62
496.73	21556.33
496.91	21720.17
497.09	21495.48
497.26	21652.30
497.44	21727.19
497.62	21839.54
497.79	22012.74
497.97	21933.16
498.14	22265.52
498.32	22181.26
498.50	22249.13
498.67	22527.66
498.85	22679.79
499.03	22803.84
499.20	22656.39
499.38	22885.76
499.56	23073.00
499.73	23087.04
499.91	23384.29
500.08	23452.17
500.26	23070.66
500.44	23227.48
500.61	23470.89
500.79	23580.90
500.97	23871.12
501.14	23707.29
501.32	23819.63
501.49	23847.72
501.67	24041.98
501.84	24196.46
502.02	24077.09
502.20	24308.80
502.37	24381.36
502.55	24624.78
502.72	24795.64
502.90	24484.34
503.07	24400.08
503.25	24680.95
503.43	24563.92
503.60	24994.58
503.78	25191.19
503.95	24999.26
504.13	25163.10
504.30	25116.29
504.48	24964.15
504.65	25628.87
504.83	25642.91
505.01	25366.73
505.18	25617.16
505.36	25640.57
505.53	25357.36
505.71	25933.14
505.88	26178.89
506.06	25720.15
506.23	25905.05
506.41	26242.09
506.58	25912.07
506.76	26214.00
506.93	26195.28
507.11	26630.62
507.28	26361.45
507.46	26522.95
507.63	26567.42
507.81	27056.59
507.98	26663.38
508.16	26522.95
508.33	26841.26
508.50	27264.90
508.68	27159.58
508.85	27576.19
509.03	27136.17
509.20	27585.55
509.38	27613.64
509.55	27777.48
509.73	27641.73
509.90	28135.58
510.08	27796.20
510.25	27845.35
510.42	27957.70
510.60	28095.79
510.77	28072.39
510.95	28568.58
511.12	28386.02
511.30	28353.25
511.47	28276.01
511.64	28435.17
511.82	28683.27
511.99	28339.21
512.17	28776.89
512.34	29029.66
512.51	28835.40
512.69	29083.50
512.86	28971.15
513.04	29436.92
513.21	29268.40
513.38	29394.79
513.56	29333.93
513.73	29619.48
513.90	29780.98
514.08	29385.43
514.25	29860.55
514.43	29823.11
514.60	30167.16
514.77	30022.05
514.95	29923.75
515.12	29755.23
515.29	30195.25
515.47	30015.03
515.64	30274.83
515.81	30120.35
515.99	30665.70
516.16	31112.74
516.33	30625.91
516.51	30424.62
516.68	30700.81
516.85	30670.38
517.03	30876.35
517.20	30724.21
517.37	30925.50
517.54	31047.21
517.72	30899.75
517.89	31145.51
518.06	31206.36
518.24	31042.53
518.41	30904.43
518.58	31304.67
518.75	31295.30
518.93	31583.19
519.10	31672.13
519.27	31555.10
519.45	31894.48
519.62	31927.25
519.79	31985.76
519.96	32041.93
520.14	32112.15
520.31	31924.91
520.48	32112.15
520.65	32114.49
520.83	32598.98
521.00	32582.60
521.17	32390.67
521.34	32472.59
521.52	32751.12
521.69	32900.91
521.86	32725.37
522.03	33048.36
522.20	32886.87
522.38	33163.05
522.55	32945.38
522.72	33158.37
522.89	33104.54
523.07	33610.09
523.24	33549.24
523.41	33469.66
523.58	33429.87
523.75	33757.55
523.92	33394.76
524.10	33483.70
524.27	33539.88
524.44	33736.48
524.61	33937.77
524.78	33900.32
524.96	33949.47
525.13	34136.71
525.30	34136.71
525.47	34174.16
525.64	34108.63
525.81	34361.40
525.98	34555.67
526.16	34543.97
526.33	34003.30
526.50	34925.47
526.67	34272.46
526.84	34298.21
527.01	34457.37
527.18	34572.05
527.36	34705.46
527.53	34670.36
527.70	35225.06
527.87	35655.72
528.04	34937.18
528.21	35068.25
528.38	35166.55
528.55	35227.40
528.72	34972.28
528.89	35330.39
529.07	35292.94
529.24	35021.44
529.41	35641.68
529.58	35278.89
529.75	35222.72
529.92	35697.85
530.09	35236.77
530.26	35658.06
530.43	35637.00
530.60	35505.93
530.77	35667.42
530.94	35519.97
531.11	36128.51
531.28	35695.51
531.46	36102.76
531.63	36137.87
531.80	35906.16
531.97	36072.34
532.14	36254.90
532.31	36645.77
532.48	36147.23
532.65	36802.58
532.82	36645.77
532.99	36524.06
533.16	36617.68
533.33	37123.24
533.50	36540.44
533.67	37076.43
533.84	36556.83
534.01	37029.62
534.18	36758.11
534.35	37090.47
534.52	37193.45
534.69	37092.81
534.86	37359.63
535.03	37301.12
535.20	37474.32
535.37	37483.68
535.54	37340.91
535.71	37586.66
535.88	37324.52
536.05	37102.17
536.22	37703.69
536.38	37551.56
536.55	37525.81
536.72	37432.19
536.89	37212.18
537.06	37757.52
537.23	38096.90
537.40	37497.72
537.57	37893.27
537.74	37893.27
537.91	38026.68
538.08	38012.64
538.25	37565.60
538.42	38272.44
538.59	38572.03
538.75	37855.82
538.92	38099.24
539.09	38422.23
539.26	38405.85
539.43	38419.89
539.60	38473.73
539.77	38562.67
539.94	38672.67
540.11	38518.20
540.28	38836.51
540.44	38455.00
540.61	38878.64
540.78	38445.64
540.95	38738.21
541.12	38363.72
541.29	38866.94
541.46	38738.21
541.62	39079.92
541.79	39196.95
541.96	38761.61
542.13	38827.15
542.30	38878.64
542.47	39180.57
542.63	39339.72
542.80	39405.26
542.97	39555.05
543.14	39578.46
543.31	39477.82
543.48	39187.59
543.64	40292.32
543.81	39934.22
543.98	39751.66
544.15	39730.59
544.32	40100.40
544.48	40018.48
544.65	39763.36
544.82	40205.72
544.99	40233.81
545.16	39985.71
545.32	39995.07
545.49	40353.18
545.66	40067.63
545.83	40289.98
546.00	40643.40
546.16	40032.52
546.33	40458.50
546.50	40034.86
546.67	40580.21
546.83	39920.18
547.00	40411.69
547.17	40540.42
547.34	40388.28
547.50	40804.90
547.67	40648.08
547.84	40687.87
548.00	40767.45
548.17	41230.88
548.34	41120.87
548.51	41263.64
548.67	40868.09
548.84	40912.56
549.01	41043.63
549.18	40802.56
549.34	41125.55
549.51	41247.26
549.68	41474.29
549.84	41137.26
550.01	40793.20
550.18	41497.70
550.34	41289.39
550.51	41436.84
550.68	41691.96
550.84	41226.20
551.01	41418.12
551.18	41596.00
551.34	41638.13
551.51	41776.22
551.68	41282.37
551.84	41373.65
552.01	41638.13
552.18	41738.77
552.34	41504.72
552.51	41727.07
552.68	41518.76
552.84	41764.52
553.01	41851.12
553.18	41727.07
553.34	41792.61
553.51	42176.45
553.67	42373.06
553.84	41811.33
554.01	41996.23
554.17	42019.64
554.34	42195.18
554.51	42019.64
554.67	42564.98
554.84	42291.14
555.00	41979.85
555.17	42066.45
555.33	42443.27
555.50	42204.54
555.67	42518.17
555.83	42560.30
556.00	42347.31
556.16	43217.99
556.33	42967.55
556.50	42665.63
556.66	42616.47
556.83	42291.14
556.99	43145.44
557.16	43028.41
557.32	42506.47
557.49	42885.64
557.65	42260.71
557.82	43019.05
557.98	42527.53
558.15	43016.71
558.32	43091.60
558.48	42670.31
558.65	42855.21
558.81	42717.12
558.98	42775.63
559.14	42883.30
559.31	42876.27
559.47	42897.34
559.64	43091.60
559.80	42932.45
559.97	42883.30
560.13	42845.85
560.30	43267.14
560.46	43442.68
560.63	43241.40
560.79	43402.89
560.96	43585.46
561.12	42979.26
561.29	43732.91
561.45	43613.54
561.61	43297.57
561.78	43295.23
561.94	43229.69
562.11	43351.40
562.27	43180.54
562.44	43447.36
562.60	43842.92
562.77	43627.59
562.93	43409.92
563.10	43784.40
563.26	43601.84
563.42	44189.31
563.59	43515.24
563.75	43449.70
563.92	43470.77
564.08	43761.00
564.24	44203.36
564.41	43941.22
564.57	43522.26
564.74	43861.64
564.90	43735.25
565.07	43704.82
565.23	43648.65
565.39	43821.85
565.56	43995.05
565.72	44048.88
565.88	43707.16
566.05	43548.01
566.21	43821.85
566.38	43620.56
566.54	43831.21
566.70	43988.03
566.87	43803.13
567.03	43477.79
567.19	44346.13
567.36	43981.01
567.52	43854.62
567.68	44006.75
567.85	43810.15
568.01	44264.21
568.17	43962.28
568.34	44163.57
568.50	44381.24
568.66	44046.54
568.83	43969.30
568.99	43962.28
569.15	44142.50
569.32	44065.27
569.48	44128.46
569.64	44442.09
569.81	44582.52
569.97	44224.42
570.13	44467.84
570.30	44318.04
570.46	44266.55
570.62	44135.48
570.78	44325.07
570.95	44060.58
571.11	44486.56
571.27	44116.76
571.43	44226.76
571.60	44147.18
571.76	44069.95
571.92	44172.93
572.09	44158.89
572.25	44514.65
572.41	44348.47
572.57	44172.93
572.74	44830.62
572.90	44282.94
573.06	44708.91
573.22	44311.02
573.38	44498.26
573.55	44294.64
573.71	44905.52
573.87	44313.36
574.03	44767.43
574.20	44423.37
574.36	44678.49
574.52	44491.24
574.68	44589.55
574.84	44896.16
575.01	44928.92
575.17	44999.14
575.33	44699.55
575.49	44641.04
575.65	44329.75
575.82	44645.72
575.98	44273.57
576.14	44746.36
576.30	44994.46
576.46	44975.73
576.62	44505.29
576.79	44587.21
576.95	44491.24
577.11	44247.83
577.27	44781.47
577.43	44203.36
577.59	44999.14
577.75	44907.86
577.92	44158.89
578.08	44545.08
578.24	45067.02
578.40	44634.02
578.56	44818.92
578.72	44289.96
578.88	44772.11
579.04	44622.31
579.21	44818.92
579.37	44893.82
579.53	44863.39
579.69	44882.11
579.85	44917.22
580.01	44856.37
580.17	44634.02
580.33	44865.73
580.49	44744.02
580.65	44933.60
580.82	44472.52
580.98	44877.43
581.14	44596.57
581.30	44837.64
581.46	44828.28
581.62	44704.23
581.78	44767.43
581.94	44816.58
582.10	45090.42
582.26	44772.11
582.42	44896.16
582.58	44949.99
582.74	45179.36
582.90	45069.36
583.06	45364.26
583.22	44697.21
583.38	44793.17
583.54	44802.53
583.70	44650.40
583.86	44718.28
584.02	44598.91
584.18	44966.37
584.34	44985.10
584.50	45626.40
584.66	44863.39
584.82	45287.03
584.98	44821.26
585.14	44870.41
585.30	44940.63
585.46	44659.76
585.62	45104.46
585.78	44910.20
585.94	44584.86
586.10	45137.23
586.26	44811.90
586.42	44521.67
586.58	45177.02
586.74	44875.09
586.90	45139.57
587.06	44762.75
587.22	45324.47
587.38	45064.67
587.54	44856.37
587.70	45301.07
587.86	45097.44
588.02	45038.93
588.18	44477.20
588.34	45013.18
588.49	45509.38
588.65	45310.43
588.81	44931.26
588.97	44940.63
589.13	44968.71
589.29	45326.81
589.45	44994.46
589.61	45050.63
589.77	45572.57
589.93	44837.64
590.08	45687.26
