SpectraSuite Data File
++++++++++++++++++++++++++++++++++++
Date: Fri Oct 25 11:25:58 EDT 2013
User: price-jones
Dark Spectrum Present: No
Reference Spectrum Present: No
Number of Sampled Component Spectra: 1
Spectrometers: USB2+H05261
Integration Time (usec): 100000 (USB2+H05261)
Spectra Averaged: 1 (USB2+H05261)
Boxcar Smoothing: 0 (USB2+H05261)
Correct for Electrical Dark: No (USB2+H05261)
Strobe/Lamp Enabled: No (USB2+H05261)
Correct for Detector Non-linearity: No (USB2+H05261)
Correct for Stray Light: No (USB2+H05261)
Number of Pixels in Processed Spectrum: 2048
>>>>>Begin Processed Spectral Data<<<<<
365.73	241.08
365.92	241.08
366.12	241.08
366.32	152.13
366.52	208.31
366.72	191.92
366.91	112.35
367.11	74.90
367.31	128.73
367.51	124.05
367.70	135.75
367.90	128.73
368.10	84.26
368.30	145.11
368.49	93.62
368.69	191.92
368.89	63.19
369.09	112.35
369.28	166.18
369.48	175.54
369.68	180.22
369.87	234.05
370.07	187.24
370.27	166.18
370.47	369.80
370.66	538.32
370.86	657.69
371.06	695.14
371.25	683.44
371.45	725.57
371.65	620.24
371.84	664.71
372.04	678.76
372.24	704.50
372.44	681.10
372.63	706.84
372.83	706.84
373.03	791.10
373.22	741.95
373.42	807.48
373.62	777.06
373.81	805.14
374.01	802.80
374.21	758.33
374.40	788.76
374.60	868.34
374.79	699.82
374.99	863.66
375.19	856.64
375.38	868.34
375.58	877.70
375.78	940.90
375.97	828.55
376.17	870.68
376.37	814.51
376.56	847.27
376.76	898.77
376.95	842.59
377.15	868.34
377.35	877.70
377.54	837.91
377.74	931.53
377.93	947.92
378.13	884.72
378.33	891.74
378.52	966.64
378.72	882.38
378.91	952.60
379.11	905.79
379.31	882.38
379.50	922.17
379.70	919.83
379.89	957.28
380.09	973.66
380.28	987.71
380.48	1029.84
380.68	1018.13
380.87	954.94
381.07	964.30
381.26	1001.75
381.46	976.00
381.65	1090.69
381.85	1069.62
382.04	997.07
382.24	1064.94
382.43	1039.20
382.63	1036.86
382.83	1078.99
383.02	1158.57
383.22	1146.86
383.41	1081.33
383.61	1020.47
383.80	1179.63
384.00	1050.90
384.19	1114.10
384.39	1174.95
384.58	1146.86
384.78	1158.57
384.97	1093.03
385.17	1160.91
385.36	1170.27
385.56	1268.57
385.75	1235.80
385.95	1280.27
386.14	1200.69
386.34	1242.82
386.53	1256.87
386.72	1158.57
386.92	1242.82
387.11	1198.35
387.31	1212.40
387.50	1224.10
387.70	1228.78
387.89	1284.95
388.09	1308.36
388.28	1245.16
388.48	1231.12
388.67	1275.59
388.86	1355.17
389.06	1373.89
389.25	1334.11
389.45	1348.15
389.64	1320.06
389.84	1371.55
390.03	1345.81
390.22	1404.32
390.42	1401.98
390.61	1392.62
390.81	1308.36
391.00	1397.30
391.19	1490.92
391.39	1383.26
391.58	1371.55
391.78	1359.85
391.97	1469.86
392.16	1483.90
392.36	1507.30
392.55	1432.41
392.75	1469.86
392.94	1504.96
393.13	1577.52
393.33	1458.15
393.52	1511.99
393.71	1526.03
393.91	1561.14
394.10	1563.48
394.29	1558.80
394.49	1633.69
394.68	1589.22
394.88	1537.73
395.07	1647.74
395.26	1666.46
395.46	1607.95
395.65	1739.02
395.84	1659.44
396.04	1774.13
396.23	1762.42
396.42	1717.95
396.62	1797.53
396.81	1771.79
397.00	1746.04
397.19	1741.36
397.39	1804.55
397.58	1851.36
397.77	1867.75
397.97	1682.85
398.16	1905.20
398.35	1877.11
398.55	1853.70
398.74	2031.58
398.93	1914.56
399.12	1895.83
399.32	1928.60
399.51	1947.33
399.70	2064.35
399.90	1987.11
400.09	1998.82
400.28	2136.91
400.47	1930.94
400.67	2076.06
400.86	2104.14
401.05	1987.11
401.24	2059.67
401.44	2125.21
401.63	1998.82
401.82	2167.34
402.01	2134.57
402.21	2179.04
402.40	2256.28
402.59	2197.76
402.78	2249.25
402.97	2282.02
403.17	2263.30
403.36	2272.66
403.55	2228.19
403.74	2347.56
403.93	2417.77
404.13	2331.17
404.32	2253.94
404.51	2340.54
404.70	2450.54
404.89	2513.74
405.09	2513.74
405.28	2403.73
405.47	2459.90
405.66	2509.05
405.85	2616.72
406.05	2497.35
406.24	2410.75
406.43	2530.12
406.62	2672.89
406.81	2628.42
407.00	2569.91
407.20	2558.21
407.39	2574.59
407.58	2740.77
407.77	2712.68
407.96	2686.94
408.15	2757.15
408.34	2644.81
408.54	2768.85
408.73	2820.35
408.92	2827.37
409.11	2850.77
409.30	2862.48
409.49	2869.50
409.68	2834.39
409.87	2949.08
410.07	2923.33
410.26	2988.86
410.45	2965.46
410.64	3000.57
410.83	3101.21
411.02	3080.14
411.21	3131.64
411.40	3094.19
411.59	3171.43
411.78	3187.81
411.98	3194.83
412.17	3220.58
412.36	3337.60
412.55	3421.86
412.74	3396.12
412.93	3346.97
413.12	3393.78
413.31	3445.27
413.50	3487.40
413.69	3496.76
413.88	3595.06
414.07	3588.04
414.26	3758.90
414.45	3613.79
414.64	3648.90
414.83	3726.13
415.02	3681.66
415.22	3775.28
415.41	3822.09
415.60	3744.86
415.79	3784.65
415.98	3887.63
416.17	3988.27
416.36	3908.69
416.55	4119.34
416.74	4056.15
416.93	3953.16
417.12	4217.65
417.31	4112.32
417.50	4236.37
417.69	4304.25
417.88	4329.99
418.07	4147.43
418.26	4461.06
418.45	4329.99
418.64	4411.91
418.83	4477.44
419.02	4432.97
419.21	4444.68
419.39	4369.78
419.58	4491.49
419.77	4315.95
419.96	4322.97
420.15	4655.33
420.34	4493.83
420.53	4678.73
420.72	4610.86
420.91	4730.22
421.10	4788.74
421.29	4809.80
421.48	4575.75
421.67	4648.30
421.86	4840.23
422.05	4837.89
422.24	4779.37
422.43	4798.10
422.61	4851.93
422.80	4884.70
422.99	4938.53
423.18	5050.88
423.37	4971.30
423.56	4999.38
423.75	4873.00
423.94	4898.74
424.13	4615.54
424.32	4823.84
424.50	5107.05
424.69	4985.34
424.88	4887.04
425.07	4868.31
425.26	4959.60
425.45	4821.50
425.64	4936.19
425.83	4851.93
426.01	5095.35
426.20	4954.91
426.39	5203.01
426.58	5041.51
426.77	5025.13
426.96	5123.43
427.15	5100.03
427.33	5139.82
427.52	5181.95
427.71	5303.65
427.90	5217.05
428.09	5301.31
428.28	5313.02
428.46	5308.34
428.65	5172.58
428.84	5640.69
429.03	5413.66
429.22	5296.63
429.40	5383.23
429.59	5416.00
429.78	5217.05
429.97	5296.63
430.16	5434.72
430.34	5661.76
430.53	5621.97
430.72	5682.82
430.91	5540.05
431.10	5640.69
431.28	5753.04
431.47	5769.42
431.66	5813.89
431.85	5720.27
432.03	5909.85
432.22	5841.98
432.41	5748.36
432.60	5935.60
432.79	5966.03
432.97	5858.36
433.16	6087.73
433.35	5966.03
433.54	6064.33
433.72	6141.57
433.91	6043.26
434.10	6045.60
434.28	6286.68
434.47	6045.60
434.66	6176.67
434.85	6279.66
435.03	6424.77
435.22	6284.34
435.41	6537.12
435.59	6361.58
435.78	6345.19
435.97	6441.15
436.16	6237.53
436.34	6190.72
436.53	6509.03
436.72	6628.40
436.90	6546.48
437.09	6490.31
437.28	6452.86
437.46	6612.01
437.65	6665.85
437.84	6672.87
438.02	6736.06
438.21	6766.49
438.40	6750.10
438.58	6958.41
438.77	7080.12
438.96	6787.55
439.14	7059.06
439.33	7138.63
439.52	7236.94
439.70	7068.42
439.89	7344.60
440.08	7349.28
440.26	7454.61
440.45	7400.77
440.63	7468.65
440.82	7768.24
441.01	7463.97
441.19	7571.63
441.38	7744.83
441.57	7627.81
441.75	7819.73
441.94	7740.15
442.12	7824.41
442.31	8042.08
442.50	7939.10
442.68	7831.43
442.87	8121.66
443.05	7953.14
443.24	8070.17
443.43	8145.06
443.61	8205.92
443.80	8514.87
443.98	7995.27
444.17	7868.88
444.35	8121.66
444.54	8234.00
444.73	8168.47
444.91	8119.32
445.10	8234.00
445.28	8248.05
445.47	8322.94
445.65	8423.59
445.84	8395.50
446.02	8444.65
446.21	8262.09
446.39	8449.33
446.58	8395.50
446.77	8517.21
446.95	8065.49
447.14	8381.46
447.32	8671.68
447.51	8690.41
447.69	8423.59
447.88	8498.49
448.06	8599.13
448.25	8521.89
448.43	8549.98
448.62	8573.38
448.80	8549.98
448.99	8463.38
449.17	8641.26
449.36	8664.66
449.54	8912.76
449.73	8931.48
449.91	8957.23
450.10	8943.19
450.28	8966.59
450.46	9015.74
450.65	8870.63
450.83	9015.74
451.02	8891.70
451.20	9235.75
451.39	9118.73
451.57	9238.09
451.76	8968.93
451.94	9261.50
452.13	9212.35
452.31	9076.60
452.49	9083.62
452.68	9343.42
452.86	9233.41
453.05	9397.25
453.23	9535.34
453.42	9420.66
453.60	9305.97
453.78	9493.21
453.97	9341.08
454.15	9483.85
454.34	9366.82
454.52	9647.69
454.70	9598.54
454.89	9792.80
455.07	9650.03
455.26	9671.09
455.44	9694.50
455.62	9863.02
455.81	9675.77
455.99	10010.47
456.17	9893.44
456.36	10064.30
456.54	9975.36
456.73	10186.01
456.91	10389.64
457.09	10265.59
457.28	10731.36
457.46	10459.85
457.64	10663.48
457.83	10551.14
458.01	10307.72
458.19	10637.73
458.38	10427.09
458.56	10504.32
458.74	10773.49
458.93	10750.08
459.11	10764.12
459.29	10775.83
459.48	10733.70
459.66	10839.02
459.84	10958.39
460.03	10953.71
460.21	11009.88
460.39	10808.59
460.57	10773.49
460.76	11192.44
460.94	11077.76
461.12	11180.74
461.31	10904.56
461.49	11091.80
461.67	11342.24
461.85	11489.69
462.04	11180.74
462.22	11632.46
462.40	11480.33
462.59	11417.13
462.77	11400.75
462.95	11534.16
463.13	11417.13
463.32	11613.74
463.50	11658.21
463.68	11730.76
463.86	11768.21
464.05	11609.06
464.23	11723.74
464.41	11826.73
464.59	11772.89
464.78	12138.02
464.96	11763.53
465.14	11868.86
465.32	11779.92
465.50	12262.07
465.69	11833.75
465.87	12086.53
466.05	11918.01
466.23	12098.23
466.41	12009.29
466.60	12358.03
466.78	12002.27
466.96	12079.50
467.14	12187.17
467.32	12472.71
467.51	12241.00
467.69	12135.68
467.87	12198.87
468.05	12554.63
468.23	12159.08
468.41	12549.95
468.60	12699.75
468.78	12568.68
468.96	12802.73
469.14	12999.34
469.32	12844.86
469.50	12615.49
469.69	12835.50
469.87	13193.60
470.05	13167.85
470.23	12943.16
470.41	13029.76
470.59	13549.36
470.77	13078.91
470.95	13043.81
471.14	13322.33
471.32	13256.79
471.50	13387.86
471.68	13315.31
471.86	13692.13
472.04	13593.83
472.22	13968.32
472.40	13596.17
472.58	13748.31
472.77	14019.81
472.95	14237.48
473.13	14398.98
473.31	14101.73
473.49	14001.08
473.67	14153.22
473.85	14216.41
474.03	14787.50
474.21	14410.68
474.39	14677.50
474.57	14434.08
474.75	14820.27
474.93	14799.21
475.12	14836.66
475.30	15021.56
475.48	14993.47
475.66	15030.92
475.84	14939.64
476.02	15461.58
476.20	15199.44
476.38	15672.23
476.56	15920.32
476.74	15868.83
476.92	15676.91
477.10	15578.61
477.28	15920.32
477.46	15932.03
477.64	16229.27
477.82	16812.07
478.00	16858.88
478.18	16643.55
478.36	16879.94
478.54	16987.61
478.72	16992.29
478.90	17247.41
479.08	17502.53
479.26	17516.57
479.44	17689.77
479.62	17628.92
479.80	18155.54
479.98	17958.93
480.16	18380.23
480.34	18366.18
480.52	18726.63
480.70	18497.25
480.88	18359.16
481.06	18553.43
481.24	18581.51
481.41	19028.56
481.59	19489.64
481.77	19536.45
481.95	19407.72
482.13	19700.29
482.31	19697.95
482.49	20231.59
482.67	20091.16
482.85	20439.90
483.03	20372.02
483.21	20533.52
483.39	21160.78
483.57	21027.37
483.74	20931.41
483.92	21486.12
484.10	20987.58
484.28	21570.38
484.46	21865.28
484.64	22101.68
484.82	21614.85
485.00	22576.81
485.18	22656.39
485.35	22637.66
485.53	22930.23
485.71	22909.16
485.89	23309.40
486.07	23040.23
486.25	23276.63
486.43	23356.21
486.61	23632.39
486.78	24065.39
486.96	24460.94
487.14	24381.36
487.32	24336.89
487.50	24709.04
487.68	25034.37
487.85	25172.46
488.03	25460.35
488.21	25876.96
488.39	25481.41
488.57	25867.60
488.75	26068.89
488.92	26464.44
489.10	26462.10
489.28	27257.88
489.46	27140.85
489.64	26745.30
489.81	27611.30
489.99	27950.68
490.17	27569.17
490.35	27941.32
490.53	27873.44
490.70	28594.32
490.88	27955.36
491.06	28601.35
491.24	28730.08
491.41	28996.90
491.59	28947.75
491.77	28989.88
491.95	29502.45
492.13	29490.75
492.30	29888.64
492.48	30043.12
492.66	29869.92
492.84	30314.62
493.01	30178.87
493.19	30532.29
493.37	30820.17
493.54	30930.18
493.72	31229.77
493.90	31360.84
494.08	31871.07
494.25	31782.13
494.43	31920.23
494.61	32500.68
494.79	32278.33
494.96	32271.31
495.14	32552.17
495.32	33034.32
495.49	33088.15
495.67	33275.40
495.85	33483.70
496.02	33727.12
496.20	34190.55
496.38	33713.08
496.55	33872.23
496.73	34719.51
496.91	34852.92
497.09	34932.50
497.26	34747.59
497.44	34656.31
497.62	35189.95
497.79	35672.10
497.97	35531.67
498.14	35845.30
498.32	36114.47
498.50	36048.93
498.67	36290.01
498.85	36477.25
499.03	36481.93
499.20	36664.49
499.38	36776.84
499.56	36907.91
499.73	37247.29
499.91	37406.44
500.08	37556.24
500.26	37193.45
500.44	37275.37
500.61	37766.88
500.79	37670.92
500.97	38188.18
501.14	38490.11
501.32	38586.07
501.49	38239.67
501.67	39035.45
501.84	39147.80
502.02	38972.26
502.20	39157.16
502.37	38829.49
502.55	39072.90
502.72	39452.07
502.90	39622.93
503.07	39508.24
503.25	39454.41
503.43	39615.91
503.60	39971.67
503.78	39618.25
503.95	40299.34
504.13	40435.10
504.30	40465.52
504.48	40308.71
504.65	40556.80
504.83	40825.96
505.01	41041.29
505.18	41373.65
505.36	41528.13
505.53	41441.53
505.71	41799.63
505.88	41743.45
506.06	41593.66
506.23	41645.15
506.41	41731.75
506.58	42223.26
506.76	41635.79
506.93	42593.07
507.11	41834.74
507.28	42550.94
507.46	42607.11
507.63	42630.52
507.81	43299.91
507.98	42754.57
508.16	43065.86
508.33	43374.81
508.50	43217.99
508.68	43360.76
508.85	43875.68
509.03	43594.82
509.20	43688.44
509.38	44039.52
509.55	44095.69
509.73	44353.15
509.90	44210.38
510.08	43936.54
510.25	44458.48
510.42	44516.99
510.60	44933.60
510.77	45223.83
510.95	45209.79
511.12	45102.12
511.30	45310.43
511.47	45193.40
511.64	45298.73
511.82	46115.58
511.99	45441.50
512.17	45954.08
512.34	45698.96
512.51	46188.13
512.69	46410.48
512.86	46646.88
513.04	46614.11
513.21	46567.30
513.38	46691.35
513.56	46700.71
513.73	46710.07
513.90	46710.07
514.08	46410.48
514.25	46932.42
514.43	47161.79
514.60	47098.60
514.77	47136.05
514.95	47526.92
515.12	47154.77
515.29	47421.59
515.47	47634.58
515.64	48247.80
515.81	47517.56
515.99	48128.44
516.16	48430.36
516.33	48018.43
516.51	48669.10
516.68	48161.20
516.85	48460.79
517.03	48748.68
517.20	48575.48
517.37	48739.32
517.54	48875.07
517.72	48652.72
517.89	48900.81
518.06	48924.22
518.24	48879.75
518.41	49104.44
518.58	49034.22
518.75	49123.16
518.93	49127.84
519.10	49256.57
519.27	49476.58
519.45	49567.87
519.62	49998.52
519.79	49844.05
519.96	49893.20
520.14	50155.34
520.31	49986.82
520.48	50033.63
520.65	50160.02
520.83	50560.25
521.00	50412.80
521.17	50525.14
521.34	50712.39
521.52	50464.29
521.69	50901.97
521.86	51028.36
522.03	51171.13
522.20	50885.59
522.38	51196.88
522.55	51171.13
522.72	50784.94
522.89	51019.00
523.07	51629.88
523.24	51475.40
523.41	51613.49
523.58	51496.47
523.75	51931.81
523.92	51959.89
524.10	51718.82
524.27	52013.73
524.44	51936.49
524.61	51718.82
524.78	52226.71
524.96	51999.68
525.13	52154.16
525.30	52467.79
525.47	52442.04
525.64	52163.52
525.81	52184.58
525.98	52650.35
526.16	52280.55
526.33	52732.27
526.50	52945.26
526.67	52816.53
526.84	52818.87
527.01	52903.13
527.18	52959.30
527.36	52865.68
527.53	52931.22
527.70	53137.18
527.87	53736.36
528.04	52917.17
528.21	53333.79
528.38	53132.50
528.55	53528.05
528.72	53251.87
528.89	53371.24
529.07	53389.96
529.24	53460.18
529.41	53689.55
529.58	53511.67
529.75	53727.00
529.92	53806.58
530.09	53516.35
530.26	53703.59
530.43	53825.30
530.60	53495.28
530.77	53551.46
530.94	54171.70
531.11	53986.80
531.28	54085.10
531.46	54234.89
531.63	54143.61
531.80	54066.38
531.97	54237.23
532.14	54218.51
532.31	54454.90
532.48	54539.16
532.65	54356.60
532.82	54396.39
532.99	54459.58
533.16	54567.25
533.33	54656.19
533.50	55016.63
533.67	54761.51
533.84	54536.82
534.01	54574.27
534.18	55000.25
534.35	55171.11
534.52	55035.36
534.69	55224.94
534.86	55023.65
535.03	54948.76
535.20	55065.78
535.37	55274.09
535.54	55185.15
535.71	55138.34
535.88	55330.26
536.05	55540.91
536.22	55660.28
536.38	55299.84
536.55	55454.31
536.72	55526.87
536.89	55601.77
537.06	55327.92
537.23	55564.32
537.40	55454.31
537.57	55414.52
537.74	55618.15
537.91	55774.97
538.08	55913.06
538.25	55803.05
538.42	55943.48
538.59	56097.96
538.75	55835.82
538.92	55807.73
539.09	55866.25
539.26	56137.75
539.43	56060.51
539.60	56055.83
539.77	56229.03
539.94	56608.20
540.11	56233.71
540.28	56437.34
540.44	56348.40
540.61	56495.85
540.78	56374.14
540.95	56418.61
541.12	56404.57
541.29	56474.79
541.46	56392.87
541.62	56516.92
541.79	56540.32
541.96	56334.35
542.13	56573.09
542.30	56643.30
542.47	56879.70
542.63	56907.79
542.80	56750.97
542.97	56919.49
543.14	57162.90
543.31	57153.54
543.48	56811.82
543.64	57244.82
543.81	57221.42
543.98	57179.29
544.15	57205.03
544.32	57478.88
544.48	57415.68
544.65	57230.78
544.82	57382.91
544.99	57137.16
545.16	57326.74
545.32	57092.69
545.49	57628.67
545.66	57755.06
545.83	57502.28
546.00	57811.23
546.16	57684.84
546.33	57483.56
546.50	57329.08
546.67	57612.29
546.83	57368.87
547.00	57780.81
547.17	57621.65
547.34	57909.53
547.50	57956.35
547.67	57982.09
547.84	58054.65
548.00	57921.24
548.17	58195.08
548.34	57890.81
548.51	57946.98
548.67	58424.45
548.84	58148.27
549.01	57911.88
549.18	58092.10
549.34	58307.43
549.51	58239.55
549.68	58305.09
549.84	58361.26
550.01	58372.96
550.18	58176.36
550.34	58487.65
550.51	58410.41
550.68	58478.28
550.84	58148.27
551.01	58478.28
551.18	58227.85
551.34	58230.19
551.51	58578.93
551.68	58630.42
551.84	58473.60
552.01	58454.88
552.18	58618.72
552.34	58424.45
552.51	58747.45
552.68	58410.41
552.84	58548.50
553.01	58719.36
553.18	58728.72
553.34	58972.14
553.51	58756.81
553.67	58731.06
553.84	58946.39
554.01	58880.86
554.17	59016.61
554.34	58866.81
554.51	58890.22
554.67	59112.57
554.84	59021.29
555.00	58850.43
555.17	58831.71
555.33	58988.52
555.50	58869.15
555.67	58775.53
555.83	59011.93
556.00	59023.63
556.16	59505.78
556.33	59199.17
556.50	59171.08
556.66	59236.62
556.83	59068.10
556.99	59309.18
557.16	59440.24
557.32	59344.28
557.49	59618.13
557.65	59426.20
557.82	59325.56
557.98	59367.69
558.15	59241.30
558.32	59269.39
558.48	59456.63
558.65	59545.57
558.81	59365.35
558.98	59583.02
559.14	59597.06
559.31	59487.06
559.47	59686.00
559.64	59660.26
559.80	59489.40
559.97	59767.92
560.13	59374.71
560.30	59529.19
560.46	59756.22
560.63	59716.43
560.79	59709.41
560.96	59618.13
561.12	59828.77
561.29	59936.44
561.45	60013.68
561.61	59693.02
561.78	59681.32
561.94	59730.47
562.11	59716.43
562.27	59934.10
562.44	59985.59
562.60	59849.84
562.77	59793.67
562.93	59678.98
563.10	60149.43
563.26	59788.98
563.42	60170.49
563.59	59945.80
563.75	59913.03
563.92	59924.74
564.08	59838.14
564.24	60060.49
564.41	59941.12
564.57	59938.78
564.74	60264.11
564.90	59924.74
565.07	60119.00
565.23	60154.11
565.39	59896.65
565.56	60179.85
565.72	60023.04
565.88	60044.10
566.05	60088.57
566.21	60090.91
566.38	60158.79
566.54	60212.62
566.70	60224.32
566.87	60292.20
567.03	60065.17
567.19	60362.42
567.36	60224.32
567.52	60289.86
567.68	60303.90
567.85	60245.39
568.01	60395.18
568.17	60154.11
568.34	60275.82
568.50	60210.28
568.66	60308.58
568.83	60296.88
568.99	60423.27
569.15	60294.54
569.32	60411.57
569.48	60196.24
569.64	60502.85
569.81	60350.71
569.97	60406.89
570.13	60437.31
570.30	60472.42
570.46	60322.63
570.62	60404.55
570.78	60425.61
570.95	60566.04
571.11	60472.42
571.27	60292.20
571.43	60505.19
571.60	60486.46
571.76	60423.27
571.92	60491.15
572.09	60603.49
572.25	60526.25
572.41	60320.29
572.57	60416.25
572.74	60631.58
572.90	60491.15
573.06	60523.91
573.22	60537.96
573.38	60596.47
573.55	60666.69
573.71	60931.17
573.87	60774.35
574.03	60470.08
574.20	60720.52
574.36	60575.40
574.52	60739.24
574.68	60680.73
574.84	60647.96
575.01	60711.16
575.17	60477.10
575.33	60542.64
575.49	60547.32
575.65	60725.20
575.82	60727.54
575.98	60783.71
576.14	61015.43
576.30	60764.99
576.46	60519.23
576.62	60734.56
576.79	60605.83
576.95	60570.72
577.11	60736.90
577.27	60865.63
577.43	60669.03
577.59	60678.39
577.75	60666.69
577.92	60764.99
578.08	60713.50
578.24	60807.12
578.40	60956.91
578.56	60830.52
578.72	60811.80
578.88	60835.20
579.04	60818.82
579.21	60715.84
579.37	60863.29
579.53	60856.27
579.69	60692.43
579.85	60601.15
580.01	60905.42
580.17	60680.73
580.33	60865.63
580.49	60903.08
580.65	60919.46
580.82	60633.92
580.98	60624.56
581.14	60636.26
581.30	60970.96
581.46	60706.47
581.62	60886.70
581.78	60530.93
581.94	60790.73
582.10	60795.42
582.26	60910.10
582.42	60816.48
582.58	60650.30
582.74	60725.20
582.90	60968.61
583.06	60767.33
583.22	60640.94
583.38	60657.32
583.54	60788.39
583.70	60970.96
583.86	60914.78
584.02	60767.33
584.18	60973.30
584.34	60900.74
584.50	60921.80
584.66	60893.72
584.82	60769.67
584.98	61071.60
585.14	60912.44
585.30	60823.50
585.46	61104.37
585.62	60870.31
585.78	61034.15
585.94	60882.02
586.10	60640.94
586.26	61073.94
586.42	61059.90
586.58	60942.87
586.74	61043.51
586.90	61036.49
587.06	60741.58
587.22	61111.39
587.38	61034.15
587.54	60879.67
587.70	61392.25
587.86	61043.51
588.02	60966.27
588.18	60942.87
588.34	60996.70
588.49	60823.50
