SpectraSuite Data File
++++++++++++++++++++++++++++++++++++
Date: Fri Oct 25 10:44:50 EDT 2013
User: price-jones
Dark Spectrum Present: No
Reference Spectrum Present: No
Number of Sampled Component Spectra: 1
Spectrometers: USB2+H05261
Integration Time (usec): 100000 (USB2+H05261)
Spectra Averaged: 1 (USB2+H05261)
Boxcar Smoothing: 0 (USB2+H05261)
Correct for Electrical Dark: No (USB2+H05261)
Strobe/Lamp Enabled: No (USB2+H05261)
Correct for Detector Non-linearity: No (USB2+H05261)
Correct for Stray Light: No (USB2+H05261)
Number of Pixels in Processed Spectrum: 2048
>>>>>Begin Processed Spectral Data<<<<<
365.73	98.30
365.92	98.30
366.12	98.30
366.32	105.32
366.52	0.00
366.72	56.17
366.91	25.75
367.11	67.88
367.31	39.79
367.51	0.00
367.70	0.00
367.90	37.45
368.10	14.04
368.30	21.06
368.49	0.00
368.69	74.90
368.89	44.47
369.09	42.13
369.28	49.15
369.48	65.54
369.68	37.45
369.87	140.43
370.07	117.03
370.27	102.98
370.47	285.55
370.66	334.70
370.86	447.04
371.06	489.17
371.25	461.09
371.45	402.57
371.65	475.13
371.84	416.62
372.04	400.23
372.24	458.74
372.44	442.36
372.63	465.77
372.83	472.79
373.03	575.77
373.22	521.94
373.42	557.05
373.62	507.90
373.81	496.19
374.01	535.98
374.21	561.73
374.40	510.24
374.60	550.03
374.79	526.62
374.99	575.77
375.19	540.66
375.38	547.69
375.58	613.22
375.78	578.11
375.97	524.28
376.17	655.35
376.37	603.86
376.56	554.71
376.76	477.47
376.95	578.11
377.15	578.11
377.35	580.45
377.54	592.16
377.74	573.43
377.93	571.09
378.13	575.77
378.33	671.73
378.52	554.71
378.72	568.75
378.91	592.16
379.11	608.54
379.31	526.62
379.50	599.18
379.70	676.41
379.89	674.07
380.09	638.97
380.28	669.39
380.48	653.01
380.68	624.92
380.87	650.67
381.07	706.84
381.26	741.95
381.46	629.60
381.65	674.07
381.85	629.60
382.04	683.44
382.24	690.46
382.43	690.46
382.63	706.84
382.83	730.25
383.02	774.72
383.22	739.61
383.41	678.76
383.61	660.03
383.80	779.40
384.00	650.67
384.19	730.25
384.39	688.12
384.58	788.76
384.78	716.20
384.97	667.05
385.17	739.61
385.36	706.84
385.56	723.23
385.75	681.10
385.95	746.63
386.14	793.44
386.34	676.41
386.53	751.31
386.72	805.14
386.92	763.01
387.11	798.12
387.31	784.08
387.50	798.12
387.70	816.85
387.89	786.42
388.09	849.61
388.28	767.70
388.48	819.19
388.67	823.87
388.86	814.51
389.06	873.02
389.25	844.93
389.45	929.19
389.64	894.08
389.84	858.98
390.03	961.96
390.22	943.24
390.42	936.21
390.61	931.53
390.81	866.00
391.00	945.58
391.19	959.62
391.39	947.92
391.58	917.49
391.78	915.15
391.97	910.47
392.16	868.34
392.36	968.98
392.55	1027.50
392.75	933.87
392.94	1025.15
393.13	950.26
393.33	985.37
393.52	940.90
393.71	1043.88
393.91	1053.24
394.10	1053.24
394.29	1039.20
394.49	1011.11
394.68	1130.48
394.88	1142.18
395.07	1160.91
395.26	1179.63
395.46	1203.04
395.65	1144.52
395.84	1097.71
396.04	1132.82
396.23	994.73
396.42	1130.48
396.62	1069.62
396.81	1093.03
397.00	1158.57
397.19	1242.82
397.39	1235.80
397.58	1249.85
397.77	1221.76
397.97	1334.11
398.16	1165.59
398.35	1315.38
398.55	1378.58
398.74	1385.60
398.93	1369.21
399.12	1254.53
399.32	1418.36
399.51	1355.17
399.70	1383.26
399.90	1369.21
400.09	1385.60
400.28	1413.68
400.47	1390.28
400.67	1565.82
400.86	1420.71
401.05	1455.81
401.24	1451.13
401.44	1423.05
401.63	1462.83
401.82	1502.62
402.01	1502.62
402.21	1511.99
402.40	1568.16
402.59	1483.90
402.78	1561.14
402.97	1579.86
403.17	1563.48
403.36	1572.84
403.55	1650.08
403.74	1584.54
403.93	1699.23
404.13	1654.76
404.32	1647.74
404.51	1619.65
404.70	1692.21
404.89	1619.65
405.09	1717.95
405.28	1764.76
405.47	1668.80
405.66	1657.10
405.85	1727.32
406.05	1699.23
406.24	1760.08
406.43	1795.19
406.62	1769.44
406.81	1895.83
407.00	1823.28
407.20	1734.34
407.39	1851.36
407.58	1872.43
407.77	1891.15
407.96	2019.88
408.15	1893.49
408.34	1991.80
408.54	1998.82
408.73	1996.48
408.92	2090.10
409.11	2115.84
409.30	2069.03
409.49	1947.33
409.68	1970.73
409.87	2024.56
410.07	2129.89
410.26	2169.68
410.45	2176.70
410.64	2073.71
410.83	2129.89
411.02	2237.55
411.21	2289.04
411.40	2265.64
411.59	2314.79
411.78	2293.72
411.98	2356.92
412.17	2382.67
412.36	2431.82
412.55	2380.32
412.74	2560.55
412.93	2490.33
413.12	2389.69
413.31	2525.44
413.50	2455.22
413.69	2499.69
413.88	2684.59
414.07	2504.37
414.26	2637.78
414.45	2616.72
414.64	2750.13
414.83	2740.77
415.02	2759.49
415.22	2675.23
415.41	2745.45
415.60	2771.19
415.79	2869.50
415.98	2871.84
416.17	2768.85
416.36	2932.69
416.55	2906.95
416.74	2937.37
416.93	2953.76
417.12	2918.65
417.31	2967.80
417.50	3108.23
417.69	3108.23
417.88	2977.16
418.07	2995.89
418.26	3159.72
418.45	3035.67
418.64	3255.69
418.83	3253.34
419.02	3152.70
419.21	3251.00
419.39	3169.09
419.58	3126.96
419.77	3162.06
419.96	3241.64
420.15	3283.77
420.34	3227.60
420.53	3295.47
420.72	3431.23
420.91	3342.28
421.10	3328.24
421.29	3473.36
421.48	3438.25
421.67	3459.31
421.86	3466.33
422.05	3461.65
422.24	3311.86
422.43	3358.67
422.61	3393.78
422.80	3405.48
422.99	3433.57
423.18	3468.67
423.37	3562.30
423.56	3618.47
423.75	3538.89
423.94	3522.51
424.13	3225.26
424.32	3396.12
424.50	3595.06
424.69	3705.07
424.88	3653.58
425.07	3478.04
425.26	3456.97
425.45	3559.95
425.64	3653.58
425.83	3555.27
426.01	3599.74
426.20	3681.66
426.39	3747.20
426.58	3510.80
426.77	3555.27
426.96	3585.70
427.15	3653.58
427.33	3651.24
427.52	3625.49
427.71	3712.09
427.90	3698.05
428.09	3686.34
428.28	3815.07
428.46	3894.65
428.65	3707.41
428.84	3875.93
429.03	3854.86
429.22	3880.61
429.40	3803.37
429.59	3721.45
429.78	3632.51
429.97	3602.08
430.16	3786.99
430.34	3817.41
430.53	3847.84
430.72	3875.93
430.91	3934.44
431.10	3859.54
431.28	4105.30
431.47	4119.34
431.66	4196.58
431.85	4152.11
432.03	4313.61
432.22	4194.24
432.41	4269.14
432.60	4280.84
432.79	4117.00
432.97	4374.46
433.16	4283.18
433.35	4238.71
433.54	4269.14
433.72	4248.07
433.91	4264.46
434.10	4187.22
434.28	4297.22
434.47	4465.74
434.66	4510.21
434.85	4386.16
435.03	4477.44
435.22	4421.27
435.41	4643.62
435.59	4559.36
435.78	4610.86
435.97	4540.64
436.16	4538.30
436.34	4552.34
436.53	4559.36
436.72	4734.90
436.90	4535.96
437.09	4709.16
437.28	4559.36
437.46	4699.80
437.65	4613.20
437.84	4840.23
438.02	4692.77
438.21	4788.74
438.40	4671.71
438.58	4748.95
438.77	4933.85
438.96	4971.30
439.14	5060.24
439.33	4887.04
439.52	5034.49
439.70	4943.21
439.89	5032.15
440.08	5102.37
440.26	5207.69
440.45	5100.03
440.63	5214.71
440.82	5315.36
441.01	5355.15
441.19	5516.64
441.38	5486.22
441.57	5516.64
441.75	5432.38
441.94	5661.76
442.12	5778.78
442.31	5675.80
442.50	5771.76
442.68	5818.57
442.87	5757.72
443.05	5600.90
443.24	5872.40
443.43	5769.42
443.61	5802.19
443.80	5874.74
443.98	5860.70
444.17	5734.31
444.35	5724.95
444.54	5921.56
444.73	5872.40
444.91	5872.40
445.10	5729.63
445.28	5856.02
445.47	5774.10
445.65	5748.36
445.84	5872.40
446.02	5919.21
446.21	5898.15
446.39	5919.21
446.58	5973.05
446.77	5860.70
446.95	5914.53
447.14	5776.44
447.32	6015.18
447.51	6146.25
447.69	6040.92
447.88	6104.12
448.06	5895.81
448.25	6092.41
448.43	6005.81
448.62	6127.52
448.80	6115.82
448.99	6167.31
449.17	6099.44
449.36	6061.99
449.54	6239.87
449.73	6242.21
449.91	6417.75
450.10	6359.24
450.28	6314.77
450.46	6476.26
450.65	6452.86
450.83	6567.54
451.02	6450.52
451.20	6307.74
451.39	6612.01
451.57	6583.93
451.76	6366.26
451.94	6399.02
452.13	6607.33
452.31	6530.09
452.49	6253.91
452.68	6377.96
452.86	6502.01
453.05	6724.36
453.23	6693.93
453.42	6597.97
453.60	6661.16
453.78	6710.32
453.97	6684.57
454.15	6586.27
454.34	6623.72
454.52	6696.27
454.70	6787.55
454.89	6904.58
455.07	6813.30
455.26	6810.96
455.44	6895.22
455.62	6970.12
455.81	6930.33
455.99	7030.97
456.17	7056.72
456.36	7030.97
456.54	7073.10
456.73	7162.04
456.91	7330.56
457.09	7344.60
457.28	7370.35
457.46	7110.55
457.64	7351.62
457.83	7363.33
458.01	7218.21
458.19	7522.48
458.38	7431.20
458.56	7410.14
458.74	7494.40
458.93	7360.98
459.11	7487.37
459.29	7569.29
459.48	7508.44
459.66	7585.68
459.84	7440.56
460.03	7655.89
460.21	7728.45
460.39	7648.87
460.57	7461.63
460.76	7763.56
460.94	7702.70
461.12	7831.43
461.31	7822.07
461.49	7885.26
461.67	7822.07
461.85	7967.18
462.04	7812.71
462.22	8105.28
462.40	7967.18
462.59	8060.80
462.77	8037.40
462.95	7962.50
463.13	8044.42
463.32	8114.64
463.50	8369.76
463.68	8191.88
463.86	8236.35
464.05	8105.28
464.23	7889.95
464.41	8124.00
464.59	8004.63
464.78	8229.32
464.96	8070.17
465.14	8114.64
465.32	8271.45
465.50	8418.91
465.69	8423.59
465.87	8402.52
466.05	8383.80
466.23	8355.71
466.41	8353.37
466.60	8461.04
466.78	8400.18
466.96	8449.33
467.14	8470.40
467.32	8503.17
467.51	8706.79
467.69	8388.48
467.87	8461.04
468.05	8535.93
468.23	8657.64
468.41	8659.98
468.60	8496.14
468.78	8777.01
468.96	8477.42
469.14	8844.88
469.32	8809.78
469.50	8620.19
469.69	8879.99
469.87	8971.27
470.05	9160.86
470.23	8940.85
470.41	8945.53
470.59	9123.41
470.77	9064.89
470.95	9123.41
471.14	9341.08
471.32	9256.82
471.50	9294.27
471.68	9200.65
471.86	9308.31
472.04	9298.95
472.22	9753.01
472.40	9294.27
472.58	9418.32
472.77	9540.02
472.95	9514.28
473.13	9942.60
473.31	9626.62
473.49	9502.58
473.67	9647.69
473.85	9631.30
474.03	9973.02
474.21	10047.92
474.39	10087.71
474.57	10188.35
474.75	10218.78
474.93	10153.24
475.12	10434.11
475.30	10253.89
475.48	10277.29
475.66	10368.57
475.84	10181.33
476.02	10368.57
476.20	10242.18
476.38	10539.43
476.56	10958.39
476.74	10628.37
476.92	10609.65
477.10	10569.86
477.28	10913.92
477.46	10832.00
477.64	11098.82
477.82	11274.36
478.00	11468.62
478.18	11379.68
478.36	11494.37
478.54	11573.95
478.72	11405.43
478.90	11822.05
479.08	11887.58
479.26	11763.53
479.44	12011.63
479.62	12030.35
479.80	12248.02
479.98	12112.27
480.16	12418.88
480.34	12365.05
480.52	12393.14
480.70	12503.14
480.88	12264.41
481.06	12683.36
481.24	12564.00
481.41	13212.32
481.59	12889.33
481.77	12943.16
481.95	13200.62
482.13	13331.69
482.31	13142.11
482.49	13530.64
482.67	13708.52
482.85	13486.17
483.03	13820.86
483.21	14036.19
483.39	14092.37
483.57	13884.06
483.74	14022.15
483.92	14389.61
484.10	14045.55
484.28	14590.90
484.46	14780.48
484.64	14761.76
484.82	14511.32
485.00	14792.19
485.18	15220.50
485.35	15447.54
485.53	14787.50
485.71	15030.92
485.89	15304.76
486.07	15180.71
486.25	15234.55
486.43	15506.05
486.61	15672.23
486.78	15997.56
486.96	16098.20
487.14	16329.92
487.32	16046.71
487.50	16460.99
487.68	16556.95
487.85	16493.76
488.03	16627.17
488.21	17064.85
488.39	17118.68
488.57	17186.55
488.75	17263.79
488.92	17668.70
489.10	17628.92
489.28	17692.11
489.46	17675.73
489.64	17811.48
489.81	18111.07
489.99	18401.29
490.17	18490.23
490.35	18478.53
490.53	18284.26
490.70	18925.57
490.88	18925.57
491.06	19143.24
491.24	18691.52
491.41	18958.34
491.59	19494.32
491.77	19389.00
491.95	19470.92
492.13	19814.98
492.30	19969.45
492.48	19674.54
492.66	19889.87
492.84	20217.55
493.01	20472.67
493.19	20283.08
493.37	20521.82
493.54	20386.07
493.72	20868.22
493.90	20655.23
494.08	20702.04
494.25	21319.94
494.43	21053.12
494.61	21572.72
494.79	21535.27
494.96	21364.41
495.14	21483.78
495.32	21830.18
495.49	21785.71
495.67	22010.40
495.85	22256.15
496.02	22001.04
496.20	22075.93
496.38	22562.76
496.55	22836.61
496.73	22960.66
496.91	22792.14
497.09	22820.22
497.26	22829.59
497.44	22616.60
497.62	22963.00
497.79	23452.17
497.97	23468.55
498.14	22993.42
498.32	23410.04
498.50	23793.89
498.67	23939.00
498.85	24046.66
499.03	23992.83
499.20	24170.71
499.38	24325.19
499.56	24472.64
499.73	24339.23
499.91	24367.32
500.08	24526.47
500.26	24622.44
500.44	24353.27
500.61	24662.22
500.79	24814.36
500.97	24678.61
501.14	25146.72
501.32	25085.86
501.49	25284.81
501.67	25242.68
501.84	25397.15
502.02	25612.48
502.20	25633.55
502.37	25635.89
502.55	25458.01
502.72	25685.04
502.90	25668.66
503.07	25979.95
503.25	26106.34
503.43	25937.82
503.60	26256.13
503.78	26314.64
503.95	26450.39
504.13	26466.78
504.30	26827.22
504.48	26916.16
504.65	26705.51
504.83	27080.00
505.01	26682.11
505.18	27075.32
505.36	27381.93
505.53	27459.16
505.71	27234.47
505.88	27356.18
506.06	27379.59
506.23	27402.99
506.41	27349.16
506.58	27417.04
506.76	27653.43
506.93	28044.30
507.11	27857.06
507.28	28271.33
507.46	28100.47
507.63	27775.14
507.81	27971.74
507.98	28037.28
508.16	28362.61
508.33	28535.81
508.50	28477.30
508.68	28629.43
508.85	29020.30
509.03	28470.28
509.20	28704.33
509.38	29142.01
509.55	29207.55
509.73	29252.02
509.90	29378.40
510.08	29228.61
510.25	29481.39
510.42	29535.22
510.60	29647.57
510.77	29968.22
510.95	29415.85
511.12	29551.60
511.30	29584.37
511.47	30075.88
511.64	29961.20
511.82	30185.89
511.99	29647.57
512.17	30235.04
512.34	29930.77
512.51	30361.43
512.69	30455.05
512.86	30654.00
513.04	30888.05
513.21	30628.25
513.38	30689.10
513.56	30572.08
513.73	30604.84
513.90	30735.92
514.08	30984.01
514.25	31161.89
514.43	31239.13
514.60	31365.52
514.77	31311.69
514.95	31360.84
515.12	31353.82
515.29	31487.23
515.47	31587.87
515.64	31651.06
515.81	31339.77
515.99	31630.00
516.16	31597.23
516.33	31531.70
516.51	31976.40
516.68	31599.57
516.85	31545.74
517.03	31566.81
517.20	31915.54
517.37	32393.01
517.54	32135.56
517.72	32177.68
517.89	32226.84
518.06	31845.33
518.24	31938.95
518.41	32364.93
518.58	32486.64
518.75	32594.30
518.93	32650.47
519.10	32699.62
519.27	32603.66
519.45	32641.11
519.62	32961.76
519.79	32868.14
519.96	33453.28
520.14	33188.80
520.31	32921.98
520.48	32952.40
520.65	33287.10
520.83	33570.30
521.00	33614.77
521.17	33799.68
521.34	33486.04
521.52	33923.72
521.69	33940.11
521.86	34103.95
522.03	34047.77
522.20	34279.49
522.38	33764.57
522.55	34373.11
522.72	33979.90
522.89	34019.69
523.07	34326.30
523.24	33851.17
523.41	34529.92
523.58	34448.00
523.75	35248.47
523.92	34693.76
524.10	35346.77
524.27	34946.54
524.44	34974.63
524.61	35175.91
524.78	35346.77
524.96	35178.25
525.13	35122.08
525.30	35611.25
525.47	35419.33
525.64	35304.64
525.81	35688.49
525.98	35562.10
526.16	35526.99
526.33	35545.72
526.50	35576.14
526.67	35374.86
526.84	35381.88
527.01	35576.14
527.18	35505.93
527.36	36128.51
527.53	36114.47
527.70	35997.44
527.87	36238.51
528.04	36547.47
528.21	36205.75
528.38	36086.38
528.55	36339.16
528.72	36659.81
528.89	36460.87
529.07	36538.10
529.24	36423.42
529.41	36170.64
529.58	36495.97
529.75	36517.04
529.92	37146.64
530.09	36907.91
530.26	36954.72
530.43	36610.66
530.60	36945.36
530.77	36245.54
530.94	37572.62
531.11	37148.98
531.28	37659.22
531.46	37198.13
531.63	37046.00
531.80	37148.98
531.97	37521.13
532.14	37486.02
532.31	37287.07
532.48	37680.28
532.65	37656.88
532.82	37600.71
532.99	37596.03
533.16	37352.61
533.33	37762.20
533.50	37706.03
533.67	37486.02
533.84	37471.98
534.01	37837.10
534.18	37631.13
534.35	38377.76
534.52	38511.17
534.69	37907.32
534.86	37958.81
535.03	38127.33
535.20	38574.37
535.37	38756.93
535.54	38632.88
535.71	38471.39
535.88	38417.55
536.05	38429.26
536.22	38761.61
536.38	38483.09
536.55	38457.34
536.72	38693.74
536.89	38249.03
537.06	38602.46
537.23	38904.38
537.40	38656.29
537.57	38899.70
537.74	38869.28
537.91	39208.65
538.08	39150.14
538.25	39028.43
538.42	38871.62
538.59	39065.88
538.75	39023.75
538.92	39360.79
539.09	39264.83
539.26	39182.91
539.43	39150.14
539.60	39152.48
539.77	39077.58
539.94	39613.57
540.11	39079.92
540.28	39381.85
540.44	39416.96
540.61	39274.19
540.78	39108.01
540.95	39606.55
541.12	39164.18
541.29	39243.76
541.46	39796.13
541.62	39454.41
541.79	39821.87
541.96	39395.90
542.13	39910.82
542.30	39761.02
542.47	40091.04
542.63	40084.01
542.80	40112.10
542.97	40093.38
543.14	40722.98
543.31	40205.72
543.48	40533.40
543.64	41008.53
543.81	40818.94
543.98	40573.19
544.15	40421.05
544.32	40570.85
544.48	40734.68
544.65	40509.99
544.82	41038.95
544.99	40921.93
545.16	40889.16
545.32	40662.13
545.49	41298.75
545.66	41572.60
545.83	41273.01
546.00	41214.49
546.16	41193.43
546.33	40870.43
546.50	40664.47
546.67	41069.38
546.83	41127.89
547.00	41188.75
547.17	41120.87
547.34	41322.16
547.50	41317.48
547.67	41532.81
547.84	41415.78
548.00	41600.68
548.17	41081.08
548.34	41869.84
548.51	41631.11
548.67	41911.97
548.84	41769.20
549.01	41663.88
549.18	41535.15
549.34	41818.35
549.51	41951.76
549.68	41801.97
549.84	41722.39
550.01	41844.10
550.18	42089.85
550.34	42108.58
550.51	42033.68
550.68	41757.50
550.84	41780.90
551.01	42157.73
551.18	42085.17
551.34	42218.58
551.51	41816.01
551.68	41930.70
551.84	42284.12
552.01	42134.32
552.18	41722.39
552.34	42036.02
552.51	42557.96
552.68	41923.68
552.84	42419.87
553.01	42836.48
553.18	42700.73
553.34	43012.02
553.51	42443.27
553.67	42188.16
553.84	42632.86
554.01	42415.19
554.17	42883.30
554.34	42855.21
554.51	42609.45
554.67	42714.78
554.84	42525.19
555.00	42710.10
555.17	42572.00
555.33	42368.38
555.50	42574.34
555.67	42705.41
555.83	42911.38
556.00	42883.30
556.16	43131.39
556.33	43016.71
556.50	42696.05
556.66	43325.66
556.83	42539.24
556.99	42965.21
557.16	43405.23
557.32	43210.97
557.49	43253.10
557.65	43079.90
557.82	42843.51
557.98	43049.47
558.15	42909.04
558.32	43103.31
558.48	43480.13
558.65	42937.13
558.81	43452.05
558.98	42925.42
559.14	43082.24
559.31	43262.46
559.47	43416.94
559.64	43381.83
559.80	43414.60
559.97	43292.89
560.13	43573.75
560.30	43419.28
560.46	43381.83
560.63	43580.78
560.79	43627.59
560.96	43819.51
561.12	43491.83
561.29	43679.08
561.45	43798.44
561.61	43288.21
561.78	43505.88
561.94	43634.61
562.11	43578.43
562.27	43725.89
562.44	43707.16
562.60	43814.83
562.77	43796.10
562.93	43690.78
563.10	43976.33
563.26	43096.28
563.42	44037.18
563.59	43658.01
563.75	43538.65
563.92	43660.35
564.08	43896.75
564.24	44154.21
564.41	43580.78
564.57	43749.29
564.74	43601.84
564.90	43812.49
565.07	43658.01
565.23	43782.06
565.39	43786.74
565.56	43948.24
565.72	43730.57
565.88	44032.50
566.05	43545.67
566.21	44088.67
566.38	44156.55
566.54	44208.04
566.70	43983.35
566.87	44112.08
567.03	44329.75
567.19	44308.68
567.36	44123.78
567.52	43887.39
567.68	44163.57
567.85	44210.38
568.01	44025.48
568.17	44013.77
568.34	44018.46
568.50	44222.08
568.66	43821.85
568.83	44107.40
568.99	43662.69
569.15	44339.11
569.32	44275.91
569.48	43906.11
569.64	44278.25
569.81	44095.69
569.97	44418.69
570.13	43798.44
570.30	43863.98
570.46	43770.36
570.62	43866.32
570.78	44128.46
570.95	44275.91
571.11	43875.68
571.27	43936.54
571.43	43892.07
571.60	43779.72
571.76	43899.09
571.92	44189.31
572.09	43945.90
572.25	44191.65
572.41	44081.65
572.57	44521.67
572.74	44809.56
572.90	44147.18
573.06	44481.88
573.22	43973.98
573.38	44339.11
573.55	43679.08
573.71	44626.99
573.87	44254.85
574.03	43955.26
574.20	44051.22
574.36	44126.12
574.52	44563.80
574.68	44442.09
574.84	44289.96
575.01	44524.01
575.17	44549.76
575.33	44034.84
575.49	44404.64
575.65	44610.61
575.82	44128.46
575.98	44182.29
576.14	44376.56
576.30	44502.95
576.46	44378.90
576.62	44076.97
576.79	43875.68
576.95	44615.29
577.11	44662.10
577.27	44765.09
577.43	44678.49
577.59	44156.55
577.75	44453.79
577.92	43650.99
578.08	44168.25
578.24	44271.23
578.40	44325.07
578.56	44304.00
578.72	44619.97
578.88	44708.91
579.04	44968.71
579.21	44584.86
579.37	44737.00
579.53	44346.13
579.69	44357.83
579.85	44383.58
580.01	44650.40
580.17	44638.70
580.33	44442.09
580.49	44786.15
580.65	44493.58
580.82	44854.03
580.98	44617.63
581.14	44341.45
581.30	44495.92
581.46	44809.56
581.62	44624.65
581.78	44360.17
581.94	44837.64
582.10	44023.14
582.26	45024.89
582.42	44549.76
582.58	44683.17
582.74	44252.51
582.90	44891.48
583.06	44793.17
583.22	44814.24
583.38	44786.15
583.54	44355.49
583.70	44641.04
583.86	44442.09
584.02	44168.25
584.18	44849.35
584.34	44399.96
584.50	44395.28
584.66	44369.54
584.82	44306.34
584.98	44697.21
585.14	44570.82
585.30	44268.89
585.46	44390.60
585.62	44259.53
585.78	44587.21
585.94	44137.82
586.10	44226.76
586.26	44521.67
586.42	44589.55
586.58	44610.61
586.74	44734.66
586.90	44678.49
587.06	44425.71
587.22	44428.05
587.38	44201.02
587.54	44498.26
587.70	44587.21
587.86	44856.37
588.02	44641.04
588.18	44926.58
588.34	44367.20
588.49	44470.18
588.65	44217.40
588.81	44369.54
588.97	44456.14
589.13	44456.14
589.29	44816.58
589.45	44453.79
589.61	44828.28
589.77	44720.62
589.93	44694.87
590.08	44959.35
590.24	45413.41
