SpectraSuite Data File
++++++++++++++++++++++++++++++++++++
Date: Fri Oct 25 10:44:11 EDT 2013
User: price-jones
Dark Spectrum Present: No
Reference Spectrum Present: No
Number of Sampled Component Spectra: 1
Spectrometers: USB2+H05261
Integration Time (usec): 100000 (USB2+H05261)
Spectra Averaged: 1 (USB2+H05261)
Boxcar Smoothing: 0 (USB2+H05261)
Correct for Electrical Dark: No (USB2+H05261)
Strobe/Lamp Enabled: No (USB2+H05261)
Correct for Detector Non-linearity: No (USB2+H05261)
Correct for Stray Light: No (USB2+H05261)
Number of Pixels in Processed Spectrum: 2048
>>>>>Begin Processed Spectral Data<<<<<
365.73	126.39
365.92	126.39
366.12	126.39
366.32	98.30
366.52	2.34
366.72	42.13
366.91	0.00
367.11	0.00
367.31	0.00
367.51	0.00
367.70	0.00
367.90	0.00
368.10	0.00
368.30	0.00
368.49	60.85
368.69	65.54
368.89	2.34
369.09	14.04
369.28	32.77
369.48	42.13
369.68	128.73
369.87	30.43
370.07	114.69
370.27	124.05
370.47	117.03
370.66	381.51
370.86	386.19
371.06	367.46
371.25	465.77
371.45	498.53
371.65	512.58
371.84	447.04
372.04	491.51
372.24	545.34
372.44	503.22
372.63	498.53
372.83	566.41
373.03	505.56
373.22	589.82
373.42	461.09
373.62	587.47
373.81	573.43
374.01	503.22
374.21	587.47
374.40	634.29
374.60	634.29
374.79	526.62
374.99	589.82
375.19	568.75
375.38	592.16
375.58	559.39
375.78	566.41
375.97	596.84
376.17	660.03
376.37	669.39
376.56	601.52
376.76	606.20
376.95	615.56
377.15	613.22
377.35	650.67
377.54	594.50
377.74	547.69
377.93	615.56
378.13	599.18
378.33	648.33
378.52	620.24
378.72	643.65
378.91	664.71
379.11	589.82
379.31	638.97
379.50	725.57
379.70	662.37
379.89	697.48
380.09	730.25
380.28	660.03
380.48	613.22
380.68	655.35
380.87	655.35
381.07	678.76
381.26	702.16
381.46	720.88
381.65	711.52
381.85	718.54
382.04	723.23
382.24	711.52
382.43	718.54
382.63	763.01
382.83	620.24
383.02	706.84
383.22	781.74
383.41	795.78
383.61	809.83
383.80	868.34
384.00	814.51
384.19	807.48
384.39	751.31
384.58	793.44
384.78	772.38
384.97	802.80
385.17	697.48
385.36	737.27
385.56	770.04
385.75	727.91
385.95	744.29
386.14	772.38
386.34	828.55
386.53	786.42
386.72	816.85
386.92	844.93
387.11	938.55
387.31	868.34
387.50	884.72
387.70	854.30
387.89	854.30
388.09	765.36
388.28	891.74
388.48	809.83
388.67	922.17
388.86	849.61
389.06	917.49
389.25	940.90
389.45	966.64
389.64	990.05
389.84	994.73
390.03	961.96
390.22	968.98
390.42	1078.99
390.61	997.07
390.81	1081.33
391.00	994.73
391.19	1100.05
391.39	994.73
391.58	1102.39
391.78	990.05
391.97	1064.94
392.16	1006.43
392.36	1156.22
392.55	1043.88
392.75	1032.18
392.94	1004.09
393.13	1015.79
393.33	1043.88
393.52	1008.77
393.71	1111.75
393.91	1114.10
394.10	1107.07
394.29	1142.18
394.49	1174.95
394.68	1221.76
394.88	1196.01
395.07	1261.55
395.26	1188.99
395.46	1266.23
395.65	1203.04
395.84	1184.31
396.04	1219.42
396.23	1184.31
396.42	1093.03
396.62	1228.78
396.81	1364.53
397.00	1207.72
397.19	1320.06
397.39	1350.49
397.58	1306.02
397.77	1416.02
397.97	1462.83
398.16	1387.94
398.35	1465.18
398.55	1504.96
398.74	1504.96
398.93	1439.43
399.12	1504.96
399.32	1488.58
399.51	1556.46
399.70	1633.69
399.90	1565.82
400.09	1568.16
400.28	1547.09
400.47	1455.81
400.67	1603.27
400.86	1504.96
401.05	1720.29
401.24	1762.42
401.44	1750.72
401.63	1694.55
401.82	1727.32
402.01	1605.61
402.21	1692.21
402.40	1701.57
402.59	1764.76
402.78	1729.66
402.97	1790.51
403.17	1694.55
403.36	1853.70
403.55	1792.85
403.74	1872.43
403.93	1846.68
404.13	1956.69
404.32	1853.70
404.51	1856.04
404.70	1863.07
404.89	1914.56
405.09	1982.43
405.28	1877.11
405.47	1984.77
405.66	2003.50
405.85	1898.17
406.05	1888.81
406.24	1973.07
406.43	1998.82
406.62	2097.12
406.81	2125.21
407.00	1966.05
407.20	1942.64
407.39	2069.03
407.58	2160.31
407.77	2246.91
407.96	2139.25
408.15	2237.55
408.34	2202.44
408.54	2204.78
408.73	2202.44
408.92	2324.15
409.11	2279.68
409.30	2319.47
409.49	2207.13
409.68	2202.44
409.87	2263.30
410.07	2352.24
410.26	2394.37
410.45	2429.48
410.64	2434.16
410.83	2436.50
411.02	2511.39
411.21	2539.48
411.40	2530.12
411.59	2642.46
411.78	2619.06
411.98	2567.57
412.17	2700.98
412.36	2574.59
412.55	2743.11
412.74	2647.15
412.93	2654.17
413.12	2703.32
413.31	2892.90
413.50	2850.77
413.69	2768.85
413.88	2890.56
414.07	2801.62
414.26	2953.76
414.45	2930.35
414.64	2974.82
414.83	3047.38
415.02	3103.55
415.22	3131.64
415.41	3084.83
415.60	3166.74
415.79	3222.92
415.98	3295.47
416.17	3304.84
416.36	3251.00
416.55	3295.47
416.74	3389.10
416.93	3283.77
417.12	3297.81
417.31	3330.58
417.50	3368.03
417.69	3349.31
417.88	3393.78
418.07	3372.71
418.26	3377.39
418.45	3531.87
418.64	3515.48
418.83	3618.47
419.02	3597.40
419.21	3487.40
419.39	3571.66
419.58	3566.98
419.77	3522.51
419.96	3599.74
420.15	3581.02
420.34	3618.47
420.53	3625.49
420.72	3782.31
420.91	3686.34
421.10	3810.39
421.29	3791.67
421.48	3709.75
421.67	3887.63
421.86	3843.16
422.05	3709.75
422.24	3794.01
422.43	3714.43
422.61	3829.12
422.80	3850.18
422.99	3864.22
423.18	3967.21
423.37	3899.33
423.56	3936.78
423.75	3943.80
423.94	3885.29
424.13	3712.09
424.32	3770.60
424.50	3868.91
424.69	4023.38
424.88	4028.06
425.07	3803.37
425.26	3906.35
425.45	3922.74
425.64	3833.80
425.83	3901.67
426.01	4053.81
426.20	4025.72
426.39	3918.06
426.58	3971.89
426.77	3948.48
426.96	3957.85
427.15	3864.22
427.33	4014.02
427.52	4147.43
427.71	4119.34
427.90	4224.67
428.09	4016.36
428.28	4187.22
428.46	4070.19
428.65	4140.41
428.84	4308.93
429.03	4351.06
429.22	4067.85
429.40	4128.70
429.59	4084.23
429.78	3880.61
429.97	4037.42
430.16	4004.66
430.34	4011.68
430.53	4245.73
430.72	4215.30
430.91	4098.28
431.10	4163.81
431.28	4458.72
431.47	4519.57
431.66	4552.34
431.85	4531.28
432.03	4557.02
432.22	4660.01
432.41	4671.71
432.60	4622.56
432.79	4674.05
432.97	4695.11
433.16	4732.56
433.35	4596.81
433.54	4688.09
433.72	4643.62
433.91	4622.56
434.10	4622.56
434.28	4753.63
434.47	4847.25
434.66	4767.67
434.85	4793.42
435.03	5001.72
435.22	4826.18
435.41	4973.64
435.59	5081.30
435.78	5109.39
435.97	5217.05
436.16	5055.56
436.34	5153.86
436.53	5247.48
436.72	5224.08
436.90	5043.85
437.09	5011.09
437.28	4985.34
437.46	5284.93
437.65	5139.82
437.84	5172.58
438.02	5111.73
438.21	5217.05
438.40	5219.39
438.58	5322.38
438.77	5427.70
438.96	5465.15
439.14	5434.72
439.33	5554.09
439.52	5568.13
439.70	5453.45
439.89	5727.29
440.08	5771.76
440.26	5806.87
440.45	5526.00
440.63	5813.89
440.82	5909.85
441.01	5947.30
441.19	5916.87
441.38	6033.90
441.57	6171.99
441.75	6155.61
441.94	6209.44
442.12	6387.32
442.31	6307.74
442.50	6296.04
442.68	6232.85
442.87	6324.13
443.05	6214.12
443.24	6368.60
443.43	6422.43
443.61	6408.39
443.80	6810.96
443.98	6328.81
444.17	6237.53
444.35	6448.18
444.54	6523.07
444.73	6539.46
444.91	6429.45
445.10	6572.22
445.28	6527.75
445.47	6462.22
445.65	6443.49
445.84	6443.49
446.02	6544.14
446.21	6431.79
446.39	6415.41
446.58	6590.95
446.77	6689.25
446.95	6406.05
447.14	6651.80
447.32	6569.88
447.51	6586.27
447.69	6724.36
447.88	6640.10
448.06	6623.72
448.25	6562.86
448.43	6817.98
448.62	6794.58
448.80	6832.02
448.99	6626.06
449.17	6839.05
449.36	6752.45
449.54	7045.01
449.73	6937.35
449.91	6932.67
450.10	7295.45
450.28	7330.56
450.46	7056.72
450.65	7199.49
450.83	7187.79
451.02	7180.76
451.20	7101.19
451.39	7037.99
451.57	7056.72
451.76	7014.59
451.94	7063.74
452.13	7155.02
452.31	7321.20
452.49	7049.69
452.68	7204.17
452.86	7187.79
453.05	7286.09
453.23	7262.68
453.42	7190.13
453.60	7339.92
453.78	7548.23
453.97	7258.00
454.15	7208.85
454.34	7330.56
454.52	7506.10
454.70	7545.89
454.89	7382.05
455.07	7667.60
455.26	7698.02
455.44	7676.96
455.62	7840.79
455.81	7765.90
455.99	7810.37
456.17	7747.17
456.36	7770.58
456.54	7889.95
456.73	7962.50
456.91	8109.96
457.09	8077.19
457.28	8126.34
457.46	7997.61
457.64	8154.43
457.83	7901.65
458.01	7964.84
458.19	8339.33
458.38	8226.98
458.56	8313.58
458.74	8112.30
458.93	8182.51
459.11	8294.86
459.29	8243.37
459.48	8191.88
459.66	8217.62
459.84	8376.78
460.03	8585.08
460.21	8287.84
460.39	8451.67
460.57	8475.08
460.76	8475.08
460.94	8692.75
461.12	8557.00
461.31	8491.46
461.49	8624.87
461.67	8507.85
461.85	8851.91
462.04	8685.73
462.22	8994.68
462.40	8917.44
462.59	8889.35
462.77	8887.01
462.95	8954.89
463.13	8908.08
463.32	8905.74
463.50	9092.98
463.68	8896.38
463.86	8994.68
464.05	8891.70
464.23	8844.88
464.41	8868.29
464.59	8975.95
464.78	9174.90
464.96	9083.62
465.14	8835.52
465.32	9121.07
465.50	8999.36
465.69	9188.94
465.87	9137.45
466.05	9212.35
466.23	9331.72
466.41	9235.75
466.60	9401.93
466.78	9310.65
466.96	9312.99
467.14	9076.60
467.32	9408.95
467.51	9390.23
467.69	9355.12
467.87	9329.38
468.05	9502.58
468.23	9514.28
468.41	9287.25
468.60	9437.04
468.78	9530.66
468.96	9497.89
469.14	9596.20
469.32	9750.67
469.50	9446.40
469.69	9785.78
469.87	9490.87
470.05	9771.74
470.23	9638.33
470.41	9680.46
470.59	10024.51
470.77	9685.14
470.95	9891.10
471.14	10026.86
471.32	9874.72
471.50	10258.57
471.68	10059.62
471.86	10289.00
472.04	10338.15
472.22	10370.91
472.40	10211.76
472.58	10183.67
472.77	10445.81
472.95	10668.16
473.13	10623.69
473.31	10494.96
473.49	10677.52
473.67	10527.73
473.85	10761.78
474.03	10843.70
474.21	10927.96
474.39	11042.65
474.57	10829.66
474.75	10995.84
474.93	11339.90
475.12	11073.07
475.30	11166.70
475.48	11082.44
475.66	11068.39
475.84	10979.45
476.02	11176.06
476.20	11456.92
476.38	11815.02
476.56	11826.73
476.74	11735.45
476.92	11585.65
477.10	11873.54
477.28	12006.95
477.46	11894.60
477.64	12250.36
477.82	12353.35
478.00	12343.99
478.18	12332.28
478.36	12725.49
478.54	12610.81
478.72	12596.76
478.90	12805.07
479.08	12638.89
479.26	12901.03
479.44	12938.48
479.62	13146.79
479.80	13242.75
479.98	13345.73
480.16	13741.29
480.34	13589.15
480.52	13757.67
480.70	13469.78
480.88	13575.11
481.06	13785.76
481.24	13769.37
481.41	14216.41
481.59	14354.51
481.77	14352.16
481.95	14417.70
482.13	14544.09
482.31	14480.89
482.49	14733.67
482.67	14691.54
482.85	14963.04
483.03	15417.11
483.21	15115.18
483.39	15463.92
483.57	15300.08
483.74	15440.51
483.92	15754.15
484.10	15697.97
484.28	15742.44
484.46	15976.50
484.64	16156.72
484.82	16016.29
485.00	16149.70
485.18	16063.10
485.35	16233.96
485.53	16240.98
485.71	16299.49
485.89	16285.45
486.07	16156.72
486.25	16659.93
486.43	16821.43
486.61	16940.80
486.78	17308.26
486.96	17179.53
487.14	17731.90
487.32	17975.31
487.50	17933.18
487.68	18090.00
487.85	18422.36
488.03	18501.93
488.21	18373.21
488.39	18511.30
488.57	18520.66
488.75	19007.49
488.92	19154.94
489.10	19157.28
489.28	19192.39
489.46	19480.28
489.64	19447.51
489.81	19990.52
489.99	20112.22
490.17	19943.70
490.35	20266.70
490.53	20081.80
490.70	20437.56
490.88	20409.47
491.06	20933.75
491.24	20697.36
491.41	20772.25
491.59	20765.23
491.77	20898.64
491.95	21315.26
492.13	21170.15
492.30	21638.25
492.48	21378.45
492.66	21804.43
492.84	21769.32
493.01	21895.71
493.19	21617.19
493.37	22221.05
493.54	22176.58
493.72	22656.39
493.90	22684.47
494.08	23213.43
494.25	23021.51
494.43	23206.41
494.61	23557.49
494.79	23019.17
494.96	23246.20
495.14	23445.15
495.32	23578.56
495.49	23300.03
495.67	23744.73
495.85	23985.81
496.02	23946.02
496.20	23974.11
496.38	24386.04
496.55	24584.99
496.73	24915.00
496.91	24563.92
497.09	24840.11
497.26	25123.31
497.44	24861.17
497.62	25170.12
497.79	25172.46
497.97	25015.65
498.14	25446.30
498.32	25685.04
498.50	25249.70
498.67	25797.38
498.85	25888.67
499.03	26457.42
499.20	26073.57
499.38	26167.19
499.56	26354.43
499.73	26551.04
499.91	26345.07
500.08	26508.91
500.26	26637.64
500.44	26553.38
500.61	26511.25
500.79	26829.56
500.97	26728.92
501.14	27164.26
501.32	27197.02
501.49	26773.39
501.67	26874.03
501.84	27400.65
502.02	27597.26
502.20	27508.32
502.37	27812.59
502.55	27714.28
502.72	28343.89
502.90	28439.85
503.07	28027.92
503.25	28198.77
503.43	27828.97
503.60	28020.89
503.78	28030.26
503.95	28112.17
504.13	28470.28
504.30	28694.97
504.48	28627.09
504.65	29198.18
504.83	29294.14
505.01	29013.28
505.18	29109.24
505.36	29359.68
505.53	29596.07
505.71	29467.34
505.88	29577.35
506.06	29567.99
506.23	29949.50
506.41	29113.92
506.58	29975.24
506.76	29703.74
506.93	30368.45
507.11	29979.92
507.28	29970.56
507.46	29951.84
507.63	29839.49
507.81	30094.61
507.98	30120.35
508.16	30118.01
508.33	30646.97
508.50	30665.70
508.68	30682.08
508.85	30991.03
509.03	31063.59
509.20	31335.09
509.38	31281.26
509.55	31054.23
509.73	30642.29
509.90	31098.70
510.08	31189.98
510.25	31632.34
510.42	30986.35
510.60	31578.51
510.77	31585.53
510.95	32128.53
511.12	32079.38
511.30	31936.61
511.47	32219.81
511.64	32065.34
511.82	32400.04
511.99	32383.65
512.17	32212.79
512.34	32418.76
512.51	32697.28
512.69	33329.23
512.86	32334.50
513.04	32568.55
513.21	32877.51
513.38	32685.58
513.56	32938.36
513.73	32428.12
513.90	33172.41
514.08	33092.83
514.25	33188.80
514.43	33102.20
514.60	33350.29
514.77	33249.65
514.95	33270.72
515.12	33795.00
515.29	33652.22
515.47	33872.23
515.64	34073.52
515.81	33713.08
515.99	33809.04
516.16	33577.33
516.33	33406.47
516.51	33867.55
516.68	32929.00
516.85	33317.53
517.03	33464.98
517.20	33802.02
517.37	33902.66
517.54	34560.35
517.72	34061.82
517.89	34115.65
518.06	34153.10
518.24	34356.72
518.41	34429.28
518.58	34125.01
518.75	34398.85
518.93	34532.26
519.10	34789.72
519.27	34895.05
519.45	34794.40
519.62	35393.58
519.79	35124.42
519.96	35131.44
520.14	35655.72
520.31	35629.98
520.48	35662.74
520.65	35367.84
520.83	35864.03
521.00	35922.54
521.17	35702.53
521.34	36060.63
521.52	35981.06
521.69	36165.96
521.86	36318.09
522.03	36453.84
522.20	36156.60
522.38	36203.41
522.55	36811.95
522.72	36121.49
522.89	36177.66
523.07	36552.15
523.24	36610.66
523.41	36825.99
523.58	36809.61
523.75	37130.26
523.92	37354.95
524.10	37371.33
524.27	37263.67
524.44	37296.44
524.61	37310.48
524.78	37488.36
524.96	37827.74
525.13	37682.62
525.30	37577.30
525.47	38089.88
525.64	37368.99
525.81	37701.35
525.98	37359.63
526.16	37446.23
526.33	36797.90
526.50	37462.61
526.67	36914.93
526.84	37069.40
527.01	37453.25
527.18	37624.11
527.36	37783.27
527.53	38494.79
527.70	38433.94
527.87	38431.60
528.04	38132.01
528.21	38485.43
528.38	38483.09
528.55	38953.54
528.72	38375.42
528.89	38897.36
529.07	38459.68
529.24	38272.44
529.41	38806.08
529.58	38665.65
529.75	39040.14
529.92	38916.09
530.09	39077.58
530.26	39360.79
530.43	39229.72
530.60	38852.89
530.77	38909.07
530.94	39084.61
531.11	39100.99
531.28	39332.70
531.46	39681.44
531.63	39498.88
531.80	39552.71
531.97	39269.51
532.14	39269.51
532.31	39290.57
532.48	39597.18
532.65	39697.83
532.82	39917.84
532.99	39842.94
533.16	39922.52
533.33	40018.48
533.50	40055.93
533.67	39768.04
533.84	39697.83
534.01	40044.23
534.18	40067.63
534.35	39920.18
534.52	40348.50
534.69	40535.74
534.86	40444.46
535.03	40477.22
535.20	40741.71
535.37	40849.37
535.54	41045.97
535.71	40711.28
535.88	40711.28
536.05	40343.81
536.22	40622.34
536.38	40744.05
536.55	40931.29
536.72	40739.36
536.89	40769.79
537.06	40804.90
537.23	41170.02
537.40	41406.42
537.57	40952.35
537.74	41020.23
537.91	41387.69
538.08	41191.09
538.25	41186.41
538.42	41151.30
538.59	41823.03
538.75	40903.20
538.92	41528.13
539.09	41549.19
539.26	41254.28
539.43	41186.41
539.60	41350.24
539.77	40994.48
539.94	41638.13
540.11	41141.94
540.28	41539.83
540.44	41500.04
540.61	41336.20
540.78	41684.94
540.95	41256.62
541.12	41546.85
541.29	41668.56
541.46	42021.98
541.62	41942.40
541.79	42010.28
541.96	41298.75
542.13	41921.34
542.30	42206.88
542.47	41928.36
542.63	42485.40
542.80	42295.82
542.97	42553.28
543.14	42794.36
543.31	42478.38
543.48	42527.53
543.64	43014.37
543.81	43065.86
543.98	42572.00
544.15	42862.23
544.32	43103.31
544.48	43161.82
544.65	42948.83
544.82	43229.69
544.99	42873.93
545.16	42754.57
545.32	42611.79
545.49	43365.45
545.66	43466.09
545.83	43604.18
546.00	43395.87
546.16	42866.91
546.33	43072.88
546.50	42965.21
546.67	43356.08
546.83	43388.85
547.00	43292.89
547.17	42848.19
547.34	43077.56
547.50	43344.38
547.67	43873.34
547.84	43674.40
548.00	44095.69
548.17	44072.29
548.34	43512.90
548.51	43723.55
548.67	43688.44
548.84	43768.02
549.01	43711.84
549.18	43552.69
549.34	43744.61
549.51	44055.90
549.68	44224.42
549.84	43737.59
550.01	43852.28
550.18	44156.55
550.34	44210.38
550.51	44252.51
550.68	44222.08
550.84	43878.02
551.01	44507.63
551.18	44109.74
551.34	44165.91
551.51	44456.14
551.68	44074.63
551.84	44282.94
552.01	44266.55
552.18	43983.35
552.34	43906.11
552.51	44240.81
552.68	44329.75
552.84	44392.94
553.01	44397.62
553.18	44224.42
553.34	44463.16
553.51	44636.36
553.67	44456.14
553.84	44669.12
554.01	44552.10
554.17	44872.75
554.34	44992.12
554.51	44858.71
554.67	44931.26
554.84	45022.54
555.00	44582.52
555.17	44664.44
555.33	44711.25
555.50	44350.81
555.67	44816.58
555.83	44917.22
556.00	44849.35
556.16	45312.77
556.33	44683.17
556.50	44861.05
556.66	44811.90
556.83	44580.18
556.99	44964.03
557.16	45179.36
557.32	45542.14
557.49	45710.66
557.65	45352.56
557.82	44994.46
557.98	45308.09
558.15	45249.58
558.32	45090.42
558.48	44886.79
558.65	45368.94
558.81	44666.78
558.98	45052.97
559.14	45237.87
559.31	45254.26
559.47	45003.82
559.64	45270.64
559.80	45462.57
559.97	45064.67
560.13	45172.34
560.30	45584.27
560.46	45387.67
560.63	45188.72
560.79	45549.17
560.96	45900.25
561.12	45352.56
561.29	45329.16
561.45	45249.58
561.61	45413.41
561.78	45621.72
561.94	45326.81
562.11	45537.46
562.27	45242.56
562.44	45694.28
562.60	45687.26
562.77	45563.21
562.93	45757.47
563.10	45986.85
563.26	45235.53
563.42	45441.50
563.59	45095.10
563.75	45532.78
563.92	45851.09
564.08	45488.31
564.24	46054.72
564.41	46005.57
564.57	45815.99
564.74	45588.95
564.90	45825.35
565.07	45827.69
565.23	45790.24
565.39	45832.37
565.56	45897.91
565.72	45214.47
565.88	45455.54
566.05	45612.36
566.21	45750.45
566.38	45794.92
566.54	45443.84
566.70	46078.13
566.87	46188.13
567.03	45876.84
567.19	45783.22
567.36	46300.48
567.52	45771.52
567.68	46181.11
567.85	45605.34
568.01	46164.73
568.17	45961.10
568.34	45848.75
568.50	45666.19
568.66	45797.26
568.83	46213.88
568.99	45558.53
569.15	45514.06
569.32	46094.51
569.48	46181.11
569.64	46005.57
569.81	45940.04
569.97	46073.45
570.13	45979.82
570.30	45823.01
570.46	45607.68
570.62	45570.23
570.78	45689.60
570.95	45670.87
571.11	46007.91
571.27	45914.29
571.43	45464.91
571.60	45949.40
571.76	45745.77
571.92	46234.94
572.09	46054.72
572.25	45808.96
572.41	46178.77
572.57	46127.28
572.74	46532.19
572.90	46021.95
573.06	46361.33
573.22	46216.22
573.38	46333.24
573.55	46043.02
573.71	46309.84
573.87	46096.85
574.03	45811.31
574.20	45914.29
574.36	45851.09
574.52	46522.83
574.68	46031.32
574.84	46340.27
575.01	45902.59
575.17	46239.62
575.33	45729.39
575.49	45734.07
575.65	46220.90
575.82	46478.36
575.98	45820.67
576.14	46052.38
576.30	46340.27
576.46	46124.94
576.62	46209.20
576.79	46256.01
576.95	45963.44
577.11	45827.69
577.27	46047.70
577.43	45792.58
577.59	46033.66
577.75	45560.87
577.92	46033.66
578.08	45914.29
578.24	45783.22
578.40	46225.58
578.56	46176.43
578.72	45911.95
578.88	46611.77
579.04	46387.08
579.21	46230.26
579.37	46138.98
579.53	46256.01
579.69	46087.49
579.85	46071.10
580.01	46129.62
580.17	46265.37
580.33	46321.54
580.49	46291.12
580.65	45951.74
580.82	46373.03
580.98	46251.33
581.14	46129.62
581.30	46302.82
581.46	46277.07
581.62	46213.88
581.78	46230.26
581.94	45911.95
582.10	46110.89
582.26	46614.11
582.42	45970.46
582.58	46227.92
582.74	45911.95
582.90	46658.58
583.06	46459.63
583.22	46562.62
583.38	46705.39
583.54	46667.94
583.70	46209.20
583.86	46054.72
584.02	46131.96
584.18	46511.13
584.34	46485.38
584.50	46436.23
584.66	46387.08
584.82	45837.05
584.98	46564.96
585.14	46265.37
585.30	46157.70
585.46	46564.96
585.62	45998.55
585.78	46438.57
585.94	45879.18
586.10	46113.23
586.26	46169.41
586.42	46366.01
586.58	46157.70
586.74	46588.36
586.90	46003.23
587.06	46263.03
587.22	46117.92
587.38	46244.30
587.54	46499.42
587.70	46342.61
587.86	46127.28
588.02	46370.69
588.18	46099.19
588.34	46136.64
588.49	45811.31
588.65	45507.04
588.81	45844.07
588.97	45818.33
589.13	45675.55
589.29	45855.78
589.45	46309.84
589.61	46279.41
589.77	46382.40
589.93	46328.56
590.08	46501.76
