SpectraSuite Data File
++++++++++++++++++++++++++++++++++++
Date: Fri Oct 25 10:47:46 EDT 2013
User: price-jones
Dark Spectrum Present: No
Reference Spectrum Present: No
Number of Sampled Component Spectra: 1
Spectrometers: USB2+H05261
Integration Time (usec): 100000 (USB2+H05261)
Spectra Averaged: 1 (USB2+H05261)
Boxcar Smoothing: 0 (USB2+H05261)
Correct for Electrical Dark: No (USB2+H05261)
Strobe/Lamp Enabled: No (USB2+H05261)
Correct for Detector Non-linearity: No (USB2+H05261)
Correct for Stray Light: No (USB2+H05261)
Number of Pixels in Processed Spectrum: 2048
>>>>>Begin Processed Spectral Data<<<<<
365.73	140.43
365.92	140.43
366.12	140.43
366.32	88.94
366.52	98.30
366.72	39.79
366.91	16.38
367.11	44.47
367.31	86.60
367.51	0.00
367.70	56.17
367.90	28.09
368.10	2.34
368.30	88.94
368.49	63.19
368.69	56.17
368.89	0.00
369.09	79.58
369.28	46.81
369.48	56.17
369.68	100.64
369.87	16.38
370.07	142.77
370.27	210.65
370.47	234.05
370.66	379.17
370.86	390.87
371.06	418.96
371.25	484.49
371.45	374.49
371.65	404.91
371.84	369.80
372.04	454.06
372.24	454.06
372.44	472.79
372.63	496.19
372.83	486.83
373.03	517.26
373.22	496.19
373.42	533.64
373.62	535.98
373.81	557.05
374.01	566.41
374.21	573.43
374.40	573.43
374.60	615.56
374.79	557.05
374.99	587.47
375.19	559.39
375.38	531.30
375.58	627.26
375.78	547.69
375.97	578.11
376.17	685.78
376.37	580.45
376.56	559.39
376.76	571.09
376.95	603.86
377.15	655.35
377.35	617.90
377.54	599.18
377.74	589.82
377.93	559.39
378.13	671.73
378.33	669.39
378.52	594.50
378.72	669.39
378.91	578.11
379.11	578.11
379.31	603.86
379.50	620.24
379.70	636.63
379.89	603.86
380.09	606.20
380.28	641.31
380.48	648.33
380.68	667.05
380.87	695.14
381.07	655.35
381.26	699.82
381.46	585.13
381.65	702.16
381.85	638.97
382.04	653.01
382.24	690.46
382.43	631.94
382.63	763.01
382.83	671.73
383.02	814.51
383.22	706.84
383.41	660.03
383.61	798.12
383.80	734.93
384.00	751.31
384.19	692.80
384.39	784.08
384.58	739.61
384.78	812.17
384.97	763.01
385.17	711.52
385.36	711.52
385.56	821.53
385.75	812.17
385.95	791.10
386.14	795.78
386.34	816.85
386.53	847.27
386.72	826.21
386.92	786.42
387.11	868.34
387.31	798.12
387.50	830.89
387.70	805.14
387.89	788.76
388.09	819.19
388.28	866.00
388.48	849.61
388.67	903.45
388.86	858.98
389.06	894.08
389.25	966.64
389.45	842.59
389.64	835.57
389.84	891.74
390.03	891.74
390.22	936.21
390.42	877.70
390.61	947.92
390.81	905.79
391.00	976.00
391.19	898.77
391.39	926.85
391.58	943.24
391.78	884.72
391.97	1025.15
392.16	990.05
392.36	985.37
392.55	1071.97
392.75	933.87
392.94	933.87
393.13	882.38
393.33	1015.79
393.52	959.62
393.71	1006.43
393.91	1048.56
394.10	964.30
394.29	1027.50
394.49	978.34
394.68	1104.73
394.88	1102.39
395.07	1121.12
395.26	1104.73
395.46	1083.67
395.65	1032.18
395.84	1102.39
396.04	1203.04
396.23	1167.93
396.42	1076.65
396.62	1156.22
396.81	1203.04
397.00	1086.01
397.19	1228.78
397.39	1261.55
397.58	1181.97
397.77	1231.12
397.97	1280.27
398.16	1196.01
398.35	1301.34
398.55	1242.82
398.74	1322.40
398.93	1317.72
399.12	1315.38
399.32	1348.15
399.51	1338.79
399.70	1359.85
399.90	1462.83
400.09	1308.36
400.28	1394.96
400.47	1448.79
400.67	1359.85
400.86	1392.62
401.05	1474.54
401.24	1404.32
401.44	1416.02
401.63	1535.39
401.82	1451.13
402.01	1572.84
402.21	1476.88
402.40	1465.18
402.59	1551.78
402.78	1535.39
402.97	1493.26
403.17	1544.75
403.36	1563.48
403.55	1507.30
403.74	1610.29
403.93	1675.82
404.13	1617.31
404.32	1720.29
404.51	1593.90
404.70	1666.46
404.89	1629.01
405.09	1774.13
405.28	1753.06
405.47	1675.82
405.66	1771.79
405.85	1771.79
406.05	1720.29
406.24	1724.97
406.43	1853.70
406.62	1860.73
406.81	1818.60
407.00	1799.87
407.20	1804.55
407.39	1877.11
407.58	1823.28
407.77	2033.93
407.96	1914.56
408.15	1996.48
408.34	1968.39
408.54	1980.09
408.73	1909.88
408.92	1966.05
409.11	2122.87
409.30	2010.52
409.49	1968.39
409.68	2080.74
409.87	2076.06
410.07	2134.57
410.26	2113.50
410.45	2157.97
410.64	2113.50
410.83	2200.10
411.02	2071.37
411.21	2300.75
411.40	2291.38
411.59	2207.13
411.78	2267.98
411.98	2270.32
412.17	2434.16
412.36	2410.75
412.55	2455.22
412.74	2619.06
412.93	2555.86
413.12	2352.24
413.31	2562.89
413.50	2551.18
413.69	2495.01
413.88	2485.65
414.07	2668.21
414.26	2626.08
414.45	2579.27
414.64	2635.44
414.83	2745.45
415.02	2715.02
415.22	2803.96
415.41	2808.64
415.60	2745.45
415.79	2757.15
415.98	2771.19
416.17	2796.94
416.36	2841.41
416.55	2920.99
416.74	2972.48
416.93	2895.24
417.12	2829.71
417.31	2778.22
417.50	2977.16
417.69	3070.78
417.88	2986.52
418.07	2979.50
418.26	3089.51
418.45	3138.66
418.64	3138.66
418.83	3131.64
419.02	3342.28
419.21	3190.15
419.39	3101.21
419.58	3045.04
419.77	3222.92
419.96	3194.83
420.15	3325.90
420.34	3267.39
420.53	3403.14
420.72	3363.35
420.91	3426.54
421.10	3358.67
421.29	3311.86
421.48	3293.13
421.67	3442.93
421.86	3445.27
422.05	3424.20
422.24	3391.44
422.43	3377.39
422.61	3442.93
422.80	3466.33
422.99	3468.67
423.18	3468.67
423.37	3562.30
423.56	3527.19
423.75	3559.95
423.94	3398.46
424.13	3309.52
424.32	3330.58
424.50	3562.30
424.69	3522.51
424.88	3627.83
425.07	3508.46
425.26	3449.95
425.45	3576.34
425.64	3489.74
425.83	3445.27
426.01	3644.21
426.20	3524.85
426.39	3620.81
426.58	3405.48
426.77	3501.44
426.96	3534.21
427.15	3485.06
427.33	3655.92
427.52	3515.48
427.71	3786.99
427.90	3695.71
428.09	3595.06
428.28	3796.35
428.46	3726.13
428.65	3779.97
428.84	3824.44
429.03	3836.14
429.22	3761.24
429.40	3857.20
429.59	3831.46
429.78	3595.06
429.97	3676.98
430.16	3847.84
430.34	3880.61
430.53	3826.78
430.72	3955.51
430.91	3836.14
431.10	3754.22
431.28	4135.73
431.47	4194.24
431.66	4182.54
431.85	4100.62
432.03	4126.36
432.22	4241.05
432.41	4234.03
432.60	4105.30
432.79	4287.86
432.97	4205.94
433.16	4320.63
433.35	4072.53
433.54	4285.52
433.72	4266.80
433.91	4255.09
434.10	4337.01
434.28	4297.22
434.47	4379.14
434.66	4437.66
434.85	4463.40
435.03	4484.47
435.22	4435.32
435.41	4638.94
435.59	4589.79
435.78	4496.17
435.97	4608.51
436.16	4580.43
436.34	4451.70
436.53	4533.62
436.72	4788.74
436.90	4585.11
437.09	4697.46
437.28	4674.05
437.46	4524.26
437.65	4638.94
437.84	4753.63
438.02	4557.02
438.21	4718.52
438.40	4739.58
438.58	4734.90
438.77	5004.07
438.96	4692.77
439.14	4973.64
439.33	5158.54
439.52	5029.81
439.70	5184.29
439.89	5046.20
440.08	5100.03
440.26	5214.71
440.45	5088.32
440.63	5313.02
440.82	5373.87
441.01	5390.25
441.19	5416.00
441.38	5441.75
441.57	5469.83
441.75	5467.49
441.94	5570.48
442.12	5694.52
442.31	5657.07
442.50	5750.70
442.68	5813.89
442.87	5549.41
443.05	5628.99
443.24	5668.78
443.43	5746.02
443.61	5741.33
443.80	5802.19
443.98	5577.50
444.17	5497.92
444.35	5846.66
444.54	5860.70
444.73	5820.91
444.91	5865.38
445.10	5778.78
445.28	5827.93
445.47	5717.93
445.65	5998.79
445.84	5860.70
446.02	5912.19
446.21	5865.38
446.39	5977.73
446.58	6216.46
446.77	6024.54
446.95	5823.25
447.14	6146.25
447.32	5919.21
447.51	5912.19
447.69	5989.43
447.88	6017.52
448.06	6104.12
448.25	5921.56
448.43	6008.16
448.62	6031.56
448.80	6057.31
448.99	6073.69
449.17	6214.12
449.36	6139.23
449.54	6305.40
449.73	6164.97
449.91	6366.26
450.10	6279.66
450.28	6436.47
450.46	6352.21
450.65	6457.54
450.83	6502.01
451.02	6396.68
451.20	6490.31
451.39	6459.88
451.57	6331.15
451.76	6417.75
451.94	6497.33
452.13	6558.18
452.31	6392.00
452.49	6413.07
452.68	6441.15
452.86	6502.01
453.05	6506.69
453.23	6480.94
453.42	6555.84
453.60	6506.69
453.78	6462.22
453.97	6576.91
454.15	6544.14
454.34	6661.16
454.52	6682.23
454.70	6754.79
454.89	6743.08
455.07	6752.45
455.26	6682.23
455.44	6848.41
455.62	6888.20
455.81	6963.09
455.99	6925.65
456.17	7059.06
456.36	7094.16
456.54	7014.59
456.73	7117.57
456.91	7302.47
457.09	7353.96
457.28	7428.86
457.46	7115.23
457.64	7382.05
457.83	7108.21
458.01	7199.49
458.19	7265.02
458.38	7358.64
458.56	7346.94
458.74	7389.07
458.93	7321.20
459.11	7468.65
459.29	7433.54
459.48	7630.15
459.66	7473.33
459.84	7571.63
460.03	7531.84
460.21	7541.21
460.39	7761.22
460.57	7583.34
460.76	7620.78
460.94	7651.21
461.12	7566.95
461.31	7826.75
461.49	7698.02
461.67	7747.17
461.85	7775.26
462.04	7955.48
462.22	8463.38
462.40	8084.21
462.59	8004.63
462.77	7950.80
462.95	8028.04
463.13	8035.06
463.32	8231.66
463.50	8269.11
463.68	8149.75
463.86	8119.32
464.05	8166.13
464.23	8037.40
464.41	8175.49
464.59	7946.12
464.78	8315.92
464.96	8248.05
465.14	8109.96
465.32	8416.57
465.50	8301.88
465.69	8341.67
465.87	8425.93
466.05	8409.54
466.23	8294.86
466.41	8074.85
466.60	8596.79
466.78	8493.80
466.96	8463.38
467.14	8580.40
467.32	8374.44
467.51	8652.96
467.69	8367.42
467.87	8638.92
468.05	8575.72
468.23	8652.96
468.41	8425.93
468.60	8624.87
468.78	8671.68
468.96	8767.65
469.14	8840.20
469.32	8833.18
469.50	8713.81
469.69	8821.48
469.87	8882.33
470.05	9060.21
470.23	8966.59
470.41	8814.46
470.59	8992.34
470.77	8964.25
470.95	8985.32
471.14	9048.51
471.32	8938.51
471.50	9224.05
471.68	9427.68
471.86	9352.78
472.04	9465.13
472.22	9753.01
472.40	9158.52
472.58	9415.98
472.77	9423.00
472.95	9680.46
473.13	9848.97
473.31	9465.13
473.49	9455.76
473.67	9432.36
473.85	9678.12
474.03	9818.55
474.21	9851.31
474.39	9994.09
474.57	9987.07
474.75	9900.47
474.93	10225.80
475.12	9994.09
475.30	10024.51
475.48	10218.78
475.66	10174.31
475.84	10328.78
476.02	10347.51
476.20	10310.06
476.38	10576.88
476.56	10539.43
476.74	10558.16
476.92	10656.46
477.10	10656.46
477.28	10918.60
477.46	11014.56
477.64	11052.01
477.82	11335.21
478.00	11456.92
478.18	11342.24
478.36	11358.62
478.54	11618.42
478.72	11435.86
478.90	11826.73
479.08	11768.21
479.26	11880.56
479.44	11999.93
479.62	11934.39
479.80	11918.01
479.98	12180.15
480.16	12287.81
480.34	12105.25
480.52	12554.63
480.70	12376.75
480.88	12346.33
481.06	12411.86
481.24	12971.25
481.41	12755.92
481.59	13121.04
481.77	13217.01
481.95	12926.78
482.13	13209.98
482.31	13060.19
482.49	13525.96
482.67	13745.97
482.85	13891.08
483.03	13579.79
483.21	14061.94
483.39	14188.33
483.57	14207.05
483.74	14085.34
483.92	14300.67
484.10	14431.74
484.28	14331.10
484.46	14574.52
484.64	14768.78
484.82	14628.35
485.00	14941.98
485.18	14993.47
485.35	15161.99
485.53	14806.23
485.71	14951.34
485.89	15316.47
486.07	14853.04
486.25	15431.15
486.43	15360.94
486.61	15749.46
486.78	15847.77
486.96	15892.24
487.14	16329.92
487.32	16147.36
487.50	16608.44
487.68	16407.16
487.85	16828.45
488.03	17003.99
488.21	16989.95
488.39	16940.80
488.57	17142.08
488.75	17095.27
488.92	17289.54
489.10	17720.20
489.28	17860.63
489.46	18209.37
489.64	17804.46
489.81	18214.05
489.99	18448.10
490.17	18576.83
490.35	18541.72
490.53	18382.57
490.70	18827.27
490.88	18586.19
491.06	19110.47
491.24	18925.57
491.41	19370.27
491.59	19227.50
491.77	19316.44
491.95	19634.75
492.13	19477.94
492.30	19674.54
492.48	19981.15
492.66	19742.42
492.84	20016.26
493.01	20215.21
493.19	20025.62
493.37	20580.33
493.54	20596.71
493.72	20760.55
493.90	20702.04
494.08	21025.03
494.25	21266.11
494.43	21422.92
494.61	21261.43
494.79	21631.23
494.96	21483.78
495.14	21200.57
495.32	21699.11
495.49	21764.64
495.67	21724.85
495.85	22089.98
496.02	22366.16
496.20	22284.24
496.38	22370.84
496.55	22530.00
496.73	22862.35
496.91	22761.71
497.09	22815.54
497.26	22817.88
497.44	23229.82
497.62	23192.37
497.79	23477.91
497.97	23330.46
498.14	23545.79
498.32	23824.31
498.50	23562.17
498.67	23630.05
498.85	24065.39
499.03	23955.38
499.20	24116.88
499.38	24458.60
499.56	24280.72
499.73	24290.08
499.91	24596.69
500.08	24744.14
500.26	24184.76
500.44	24465.62
500.61	24294.76
500.79	24666.91
500.97	24886.92
501.14	25296.51
501.32	25289.49
501.49	24947.77
501.67	25167.78
501.84	25579.71
502.02	25434.60
502.20	25523.54
502.37	25621.84
502.55	25771.64
502.72	25724.83
502.90	26054.84
503.07	25766.96
503.25	26003.35
503.43	25958.88
503.60	25975.27
503.78	26019.74
503.95	26265.49
504.13	26319.32
504.30	26314.64
504.48	26864.67
504.65	26869.35
504.83	26895.10
505.01	27002.76
505.18	27021.48
505.36	27459.16
505.53	27098.72
505.71	26890.41
505.88	27374.91
506.06	26728.92
506.23	27627.68
506.41	27421.72
506.58	27480.23
506.76	27538.74
506.93	27756.41
507.11	27571.51
507.28	27990.47
507.46	27672.15
507.63	27786.84
507.81	27814.93
507.98	28273.67
508.16	28091.11
508.33	28093.45
508.50	28676.24
508.68	28486.66
508.85	28615.39
509.03	28861.15
509.20	29029.66
509.38	28954.77
509.55	29158.39
509.73	28903.28
509.90	28877.53
510.08	29120.95
510.25	29603.10
510.42	29060.09
510.60	29743.53
510.77	29308.19
510.95	29380.74
511.12	29582.03
511.30	29771.61
511.47	30211.64
511.64	30127.38
511.82	30129.72
511.99	30017.37
512.17	30228.02
512.34	30127.38
512.51	30321.64
512.69	30230.36
512.86	30642.29
513.04	30618.89
513.21	30546.33
513.38	30822.51
513.56	30515.90
513.73	30494.84
513.90	30740.60
514.08	30546.33
514.25	30569.74
514.43	31119.76
514.60	30995.71
514.77	31019.12
514.95	31229.77
515.12	31428.71
515.29	31374.88
515.47	31793.84
515.64	31587.87
515.81	31335.09
515.99	31730.64
516.16	31819.58
516.33	31620.64
516.51	31683.83
516.68	31693.19
516.85	31599.57
517.03	31627.66
517.20	31999.80
517.37	32119.17
517.54	32168.32
517.72	32121.51
517.89	32341.52
518.06	32013.85
518.24	32189.39
518.41	31873.42
518.58	32098.11
518.75	32606.00
518.93	32734.73
519.10	32622.39
519.27	33074.11
519.45	32891.55
519.62	33137.30
519.79	33034.32
519.96	33046.02
520.14	33214.54
520.31	33266.03
520.48	33134.96
520.65	33420.51
520.83	33731.80
521.00	33802.02
521.17	33542.22
521.34	33769.25
521.52	33649.88
521.69	33848.83
521.86	34073.52
522.03	33905.00
522.20	34012.66
522.38	34405.88
522.55	34300.55
522.72	34134.37
522.89	34452.69
523.07	34712.49
523.24	34190.55
523.41	34630.57
523.58	34576.73
523.75	34918.45
523.92	34735.89
524.10	34672.70
524.27	35178.25
524.44	34752.27
524.61	34918.45
524.78	35131.44
524.96	35283.58
525.13	35358.47
525.30	35344.43
525.47	35686.15
525.64	35145.48
525.81	35012.07
525.98	35667.42
526.16	35063.57
526.33	35339.75
526.50	34998.03
526.67	35461.46
526.84	35147.82
527.01	35381.88
527.18	35564.44
527.36	36236.17
527.53	36170.64
527.70	36854.08
527.87	36390.65
528.04	36306.39
528.21	36297.03
528.38	36023.19
528.55	36236.17
528.72	36481.93
528.89	36928.97
529.07	36484.27
529.24	36259.58
529.41	36212.77
529.58	36517.04
529.75	36720.66
529.92	36694.92
530.09	36676.19
530.26	36762.79
530.43	36856.42
530.60	36446.82
530.77	36821.31
530.94	37113.87
531.11	36940.68
531.28	36968.76
531.46	37385.38
531.63	37429.85
531.80	37029.62
531.97	37799.65
532.14	37247.29
532.31	37130.26
532.48	37537.51
532.65	37670.92
532.82	37268.35
532.99	37553.90
533.16	37406.44
533.33	37776.25
533.50	38052.43
533.67	37928.38
533.84	37357.29
534.01	37759.86
534.18	37673.26
534.35	37912.00
534.52	37816.04
534.69	38017.32
534.86	37996.26
535.03	38007.96
535.20	38300.53
535.37	38281.80
535.54	38855.23
535.71	38206.90
535.88	38600.12
536.05	38396.49
536.22	38309.89
536.38	38604.80
536.55	38583.73
536.72	38590.75
536.89	38216.27
537.06	38471.39
537.23	38646.93
537.40	39072.90
537.57	38841.19
537.74	39047.16
537.91	39321.00
538.08	38642.24
538.25	39386.54
538.42	38995.67
538.59	39122.05
538.75	39082.27
538.92	39016.73
539.09	39136.10
539.26	39068.22
539.43	39203.97
539.60	39377.17
539.77	39129.08
539.94	39075.24
540.11	39505.90
540.28	39367.81
540.44	39440.37
540.61	39580.80
540.78	39232.06
540.95	39285.89
541.12	39281.21
541.29	39562.08
541.46	39311.64
541.62	39360.79
541.79	39899.11
541.96	39646.33
542.13	39669.74
542.30	39613.57
542.47	40084.01
542.63	40055.93
542.80	40135.51
542.97	40327.43
543.14	40896.18
543.31	40535.74
543.48	40278.28
543.64	40891.50
543.81	40727.66
543.98	40741.71
544.15	39758.68
544.32	40594.25
544.48	40795.54
544.65	40507.65
544.82	40643.40
544.99	40612.98
545.16	40854.05
545.32	40821.28
545.49	40989.80
545.66	40877.46
545.83	41223.86
546.00	41359.61
546.16	41205.13
546.33	40423.39
546.50	41041.29
546.67	41666.22
546.83	40765.11
547.00	40910.22
547.17	41368.97
547.34	41036.61
547.50	41488.34
547.67	41422.80
547.84	41495.36
548.00	41411.10
548.17	41757.50
548.34	41696.64
548.51	41851.12
548.67	41383.01
548.84	41816.01
549.01	41956.44
549.18	41495.36
549.34	41900.27
549.51	41738.77
549.68	42029.00
549.84	41979.85
550.01	42241.99
550.18	41633.45
550.34	41462.59
550.51	41631.11
550.68	41869.84
550.84	41507.06
551.01	41748.14
551.18	41914.31
551.34	42153.05
551.51	42232.63
551.68	41972.83
551.84	42373.06
552.01	42424.55
552.18	42103.90
552.34	41996.23
552.51	42618.81
552.68	41970.49
552.84	42789.67
553.01	42682.01
553.18	42380.08
553.34	42351.99
553.51	41954.10
553.67	42445.62
553.84	42887.98
554.01	42674.99
554.17	42588.39
554.34	42997.98
554.51	42550.94
554.67	42831.80
554.84	42969.90
555.00	42972.24
555.17	42658.60
555.33	42955.85
555.50	42902.02
555.67	42864.57
555.83	43103.31
556.00	43262.46
556.16	43328.00
556.33	43112.67
556.50	43157.14
556.66	43166.50
556.83	42850.53
556.99	43351.40
557.16	43105.65
557.32	43138.41
557.49	43510.56
557.65	42972.24
557.82	42792.01
557.98	43225.01
558.15	43035.43
558.32	43435.66
558.48	43318.64
558.65	43325.66
558.81	43007.34
558.98	43400.55
559.14	43154.80
559.31	43384.17
559.47	44048.88
559.64	43423.96
559.80	43480.13
559.97	43920.15
560.13	43288.21
560.30	43463.75
560.46	43384.17
560.63	43386.51
560.79	43812.49
560.96	43777.38
561.12	43681.42
561.29	43854.62
561.45	43882.70
561.61	43875.68
561.78	43512.90
561.94	43257.78
562.11	43716.53
562.27	43393.53
562.44	43573.75
562.60	43672.06
562.77	43917.81
562.93	44032.50
563.10	43744.61
563.26	43800.79
563.42	43775.04
563.59	43798.44
563.75	43625.25
563.92	43917.81
564.08	43880.36
564.24	44100.37
564.41	44170.59
564.57	43882.70
564.74	44058.24
564.90	44196.34
565.07	44011.43
565.23	43948.24
565.39	43938.88
565.56	44065.27
565.72	44086.33
565.88	43920.15
566.05	44311.02
566.21	44114.42
566.38	43887.39
566.54	44105.06
566.70	44095.69
566.87	44362.51
567.03	44236.12
567.19	44655.08
567.36	43749.29
567.52	44081.65
567.68	44299.32
567.85	44086.33
568.01	44210.38
568.17	44037.18
568.34	44580.18
568.50	43878.02
568.66	43969.30
568.83	44505.29
568.99	43892.07
569.15	43856.96
569.32	43800.79
569.48	43854.62
569.64	44622.31
569.81	44280.60
569.97	43906.11
570.13	44381.24
570.30	44144.84
570.46	44142.50
570.62	44032.50
570.78	44437.41
570.95	44142.50
571.11	44264.21
571.27	44753.38
571.43	44542.74
571.60	44133.14
571.76	44065.27
571.92	44275.91
572.09	44289.96
572.25	44666.78
572.41	44013.77
572.57	44044.20
572.74	44772.11
572.90	44645.72
573.06	44638.70
573.22	44488.90
573.38	44622.31
573.55	43730.57
573.71	44608.27
573.87	44465.50
574.03	44004.41
574.20	44903.18
574.36	43992.71
574.52	44554.44
574.68	44493.58
574.84	44804.88
575.01	44357.83
575.17	44568.48
575.33	44446.77
575.49	44678.49
575.65	44687.85
575.82	44694.87
575.98	44458.48
576.14	44547.42
576.30	44825.94
576.46	44114.42
576.62	44341.45
576.79	44486.56
576.95	44514.65
577.11	44664.44
577.27	44664.44
577.43	44816.58
577.59	44828.28
577.75	44416.35
577.92	44435.07
578.08	44240.81
578.24	44163.57
578.40	44505.29
578.56	44580.18
578.72	44648.06
578.88	44971.05
579.04	44486.56
579.21	44369.54
579.37	44243.15
579.53	44779.13
579.69	44786.15
579.85	44830.62
580.01	44589.55
580.17	44802.53
580.33	44451.45
580.49	45076.38
580.65	44800.19
580.82	44690.19
580.98	44563.80
581.14	44144.84
581.30	44673.81
581.46	44905.52
581.62	44566.14
581.78	44568.48
581.94	44865.73
582.10	44631.68
582.26	45118.51
582.42	44348.47
582.58	44935.95
582.74	44690.19
582.90	44851.69
583.06	45057.65
583.22	44945.31
583.38	44825.94
583.54	44842.32
583.70	44554.44
583.86	44795.51
584.02	44699.55
584.18	44554.44
584.34	44598.91
584.50	44699.55
584.66	44648.06
584.82	44470.18
584.98	45050.63
585.14	45034.25
585.30	44334.43
585.46	44758.06
585.62	44549.76
585.78	44858.71
585.94	44184.63
586.10	44467.84
586.26	44575.50
586.42	45212.13
586.58	44437.41
586.74	44863.39
586.90	44421.03
587.06	44467.84
587.22	44772.11
587.38	44858.71
587.54	45455.54
587.70	45031.91
587.86	45118.51
588.02	45059.99
588.18	44804.88
588.34	44779.13
588.49	44584.86
588.65	44296.98
588.81	44399.96
588.97	44650.40
589.13	44765.09
589.29	44697.21
589.45	44584.86
589.61	44811.90
589.77	45036.59
589.93	44765.09
590.08	44526.35
590.24	45357.24
