SpectraSuite Data File
++++++++++++++++++++++++++++++++++++
Date: Fri Oct 25 11:26:26 EDT 2013
User: price-jones
Dark Spectrum Present: No
Reference Spectrum Present: No
Number of Sampled Component Spectra: 1
Spectrometers: USB2+H05261
Integration Time (usec): 100000 (USB2+H05261)
Spectra Averaged: 1 (USB2+H05261)
Boxcar Smoothing: 0 (USB2+H05261)
Correct for Electrical Dark: No (USB2+H05261)
Strobe/Lamp Enabled: No (USB2+H05261)
Correct for Detector Non-linearity: No (USB2+H05261)
Correct for Stray Light: No (USB2+H05261)
Number of Pixels in Processed Spectrum: 2048
>>>>>Begin Processed Spectral Data<<<<<
365.73	182.56
365.92	182.56
366.12	182.56
366.32	168.52
366.52	131.07
366.72	110.01
366.91	140.43
367.11	140.43
367.31	100.64
367.51	86.60
367.70	119.37
367.90	166.18
368.10	161.50
368.30	182.56
368.49	126.39
368.69	182.56
368.89	168.52
369.09	166.18
369.28	191.92
369.48	166.18
369.68	156.82
369.87	203.63
370.07	215.33
370.27	306.61
370.47	348.74
370.66	557.05
370.86	615.56
371.06	692.80
371.25	669.39
371.45	669.39
371.65	716.20
371.84	669.39
372.04	753.65
372.24	758.33
372.44	744.29
372.63	704.50
372.83	699.82
373.03	734.93
373.22	734.93
373.42	875.36
373.62	833.23
373.81	793.44
374.01	840.25
374.21	861.32
374.40	748.97
374.60	882.38
374.79	851.96
374.99	830.89
375.19	791.10
375.38	938.55
375.58	851.96
375.78	851.96
375.97	884.72
376.17	931.53
376.37	917.49
376.56	891.74
376.76	875.36
376.95	779.40
377.15	861.32
377.35	950.26
377.54	924.51
377.74	961.96
377.93	919.83
378.13	983.02
378.33	997.07
378.52	910.47
378.72	936.21
378.91	1008.77
379.11	896.43
379.31	994.73
379.50	894.08
379.70	1071.97
379.89	947.92
380.09	964.30
380.28	987.71
380.48	1048.56
380.68	980.68
380.87	1029.84
381.07	964.30
381.26	1057.92
381.46	1004.09
381.65	1050.90
381.85	1109.41
382.04	1036.86
382.24	1060.26
382.43	1001.75
382.63	1067.28
382.83	1067.28
383.02	1095.37
383.22	1200.69
383.41	1043.88
383.61	1071.97
383.80	1132.82
384.00	1118.78
384.19	1118.78
384.39	1142.18
384.58	1064.94
384.78	1121.12
384.97	1205.38
385.17	1174.95
385.36	1128.14
385.56	1280.27
385.75	1177.29
385.95	1116.44
386.14	1196.01
386.34	1156.22
386.53	1114.10
386.72	1212.40
386.92	1217.08
387.11	1247.51
387.31	1212.40
387.50	1277.93
387.70	1261.55
387.89	1303.68
388.09	1203.04
388.28	1280.27
388.48	1228.78
388.67	1327.08
388.86	1317.72
389.06	1357.51
389.25	1329.42
389.45	1404.32
389.64	1357.51
389.84	1444.11
390.03	1394.96
390.22	1334.11
390.42	1441.77
390.61	1434.75
390.81	1418.36
391.00	1366.87
391.19	1497.94
391.39	1430.07
391.58	1479.22
391.78	1451.13
391.97	1451.13
392.16	1406.66
392.36	1474.54
392.55	1561.14
392.75	1558.80
392.94	1526.03
393.13	1526.03
393.33	1549.43
393.52	1547.09
393.71	1598.59
393.91	1554.12
394.10	1645.40
394.29	1582.20
394.49	1607.95
394.68	1582.20
394.88	1596.25
395.07	1673.48
395.26	1799.87
395.46	1668.80
395.65	1722.63
395.84	1741.36
396.04	1797.53
396.23	1732.00
396.42	1696.89
396.62	1696.89
396.81	1774.13
397.00	1720.29
397.19	1827.96
397.39	1813.92
397.58	1928.60
397.77	1813.92
397.97	1865.41
398.16	1832.64
398.35	1989.46
398.55	1888.81
398.74	1856.04
398.93	2003.50
399.12	1912.22
399.32	1867.75
399.51	1963.71
399.70	1928.60
399.90	1977.75
400.09	1886.47
400.28	2052.65
400.47	2045.63
400.67	2069.03
400.86	2066.69
401.05	2069.03
401.24	2001.16
401.44	2033.93
401.63	2174.36
401.82	2054.99
402.01	2090.10
402.21	2125.21
402.40	2172.02
402.59	2165.00
402.78	2223.51
402.97	2331.17
403.17	2298.41
403.36	2235.21
403.55	2186.06
403.74	2211.81
403.93	2289.04
404.13	2324.15
404.32	2284.36
404.51	2363.94
404.70	2485.65
404.89	2373.30
405.09	2506.71
405.28	2569.91
405.47	2469.27
405.66	2476.29
405.85	2516.08
406.05	2537.14
406.24	2457.56
406.43	2513.74
406.62	2593.31
406.81	2581.61
407.00	2588.63
407.20	2597.99
407.39	2586.29
407.58	2700.98
407.77	2679.91
407.96	2708.00
408.15	2745.45
408.34	2792.26
408.54	2780.56
408.73	2850.77
408.92	2799.28
409.11	2913.97
409.30	2876.52
409.49	2715.02
409.68	2949.08
409.87	2850.77
410.07	2967.80
410.26	2857.79
410.45	2963.12
410.64	3063.76
410.83	3101.21
411.02	3091.85
411.21	3300.16
411.40	2906.95
411.59	3166.74
411.78	3211.22
411.98	3302.50
412.17	3225.26
412.36	3316.54
412.55	3391.44
412.74	3377.39
412.93	3389.10
413.12	3318.88
413.31	3548.25
413.50	3288.45
413.69	3419.52
413.88	3653.58
414.07	3578.68
414.26	3637.19
414.45	3632.51
414.64	3555.27
414.83	3803.37
415.02	3714.43
415.22	3782.31
415.41	3840.82
415.60	3913.38
415.79	3838.48
415.98	4065.51
416.17	3939.12
416.36	3894.65
416.55	3943.80
416.74	4046.79
416.93	4007.00
417.12	4079.55
417.31	4049.13
417.50	4095.94
417.69	4145.09
417.88	4152.11
418.07	4227.01
418.26	4236.37
418.45	4365.10
418.64	4482.13
418.83	4276.16
419.02	4416.59
419.21	4421.27
419.39	4493.83
419.58	4423.61
419.77	4315.95
419.96	4587.45
420.15	4531.28
420.34	4535.96
420.53	4538.30
420.72	4678.73
420.91	4671.71
421.10	4706.82
421.29	4620.22
421.48	4664.69
421.67	4716.18
421.86	4734.90
422.05	4894.06
422.24	4821.50
422.43	4940.87
422.61	4770.01
422.80	4835.55
422.99	4835.55
423.18	4957.25
423.37	4966.62
423.56	4917.47
423.75	4835.55
423.94	4908.10
424.13	4627.24
424.32	4613.20
424.50	4910.44
424.69	5057.90
424.88	4994.70
425.07	4877.68
425.26	4865.97
425.45	5001.72
425.64	4903.42
425.83	4945.55
426.01	5064.92
426.20	5088.32
426.39	5160.88
426.58	5057.90
426.77	5111.73
426.96	5034.49
427.15	5146.84
427.33	5076.62
427.52	5130.45
427.71	5212.37
427.90	5149.18
428.09	5256.84
428.28	5296.63
428.46	5282.59
428.65	5425.36
428.84	5533.03
429.03	5626.65
429.22	5308.34
429.40	5486.22
429.59	5434.72
429.78	5163.22
429.97	5298.97
430.16	5465.15
430.34	5631.33
430.53	5619.63
430.72	5579.84
430.91	5577.50
431.10	5530.69
431.28	5664.10
431.47	5797.51
431.66	5928.58
431.85	5589.20
432.03	6005.81
432.22	5877.09
432.41	5846.66
432.60	5865.38
432.79	5902.83
432.97	5973.05
433.16	6059.65
433.35	5959.00
433.54	6024.54
433.72	6031.56
433.91	6003.47
434.10	6069.01
434.28	5994.11
434.47	6258.59
434.66	6296.04
434.85	6253.91
435.03	6312.42
435.22	6368.60
435.41	6602.65
435.59	6443.49
435.78	6431.79
435.97	6253.91
436.16	6438.81
436.34	6438.81
436.53	6389.66
436.72	6686.91
436.90	6509.03
437.09	6523.07
437.28	6431.79
437.46	6534.78
437.65	6661.16
437.84	6731.38
438.02	6691.59
438.21	6855.43
438.40	6679.89
438.58	6920.96
438.77	6885.86
438.96	6789.89
439.14	6913.94
439.33	7145.66
439.52	7215.87
439.70	7012.24
439.89	7260.34
440.08	7288.43
440.26	7571.63
440.45	7201.83
440.63	7461.63
440.82	7597.38
441.01	7365.67
441.19	7583.34
441.38	7742.49
441.57	7667.60
441.75	7648.87
441.94	7833.77
442.12	7836.11
442.31	7922.71
442.50	7936.76
442.68	7744.83
442.87	7934.42
443.05	8072.51
443.24	8124.00
443.43	8121.66
443.61	8290.18
443.80	8116.98
443.98	7981.23
444.17	7836.11
444.35	8159.11
444.54	8273.79
444.73	8219.96
444.91	8325.29
445.10	8177.83
445.28	8379.12
445.47	8147.40
445.65	8428.27
445.84	8486.78
446.02	8564.02
446.21	8435.29
446.39	8264.43
446.58	8533.59
446.77	8369.76
446.95	8198.90
447.14	8571.04
447.32	8580.40
447.51	8346.35
447.69	8280.82
447.88	8559.34
448.06	8432.95
448.25	8439.97
448.43	8664.66
448.62	8552.32
448.80	8372.10
448.99	8533.59
449.17	8861.27
449.36	8461.04
449.54	8727.86
449.73	8954.89
449.91	9015.74
450.10	8908.08
450.28	9123.41
450.46	8908.08
450.65	9050.85
450.83	9036.81
451.02	8973.61
451.20	9118.73
451.39	9100.00
451.57	9076.60
451.76	8950.21
451.94	9090.64
452.13	9441.72
452.31	9071.92
452.49	9156.18
452.68	9252.14
452.86	9261.50
453.05	9420.66
453.23	9502.58
453.42	9263.84
453.60	9254.48
453.78	9362.14
453.97	9364.48
454.15	9427.68
454.34	9411.29
454.52	9514.28
454.70	9605.56
454.89	9607.90
455.07	9860.68
455.26	9664.07
455.44	10022.17
455.62	10001.11
455.81	9802.16
455.99	9893.44
456.17	9762.37
456.36	10068.98
456.54	9977.70
456.73	10064.30
456.91	10104.09
457.09	10253.89
457.28	10438.79
457.46	10377.94
457.64	10375.59
457.83	10335.81
458.01	10237.50
458.19	10672.84
458.38	10424.75
458.56	10590.92
458.74	10771.15
458.93	10621.35
459.11	10712.63
459.29	10668.16
459.48	10857.75
459.66	10815.62
459.84	10862.43
460.03	10824.98
460.21	10991.16
460.39	10965.41
460.57	10824.98
460.76	10979.45
460.94	11213.51
461.12	11206.48
461.31	11194.78
461.49	11176.06
461.67	11080.10
461.85	11304.79
462.04	11222.87
462.22	11955.46
462.40	11463.94
462.59	11487.35
462.77	11393.73
462.95	11384.37
463.13	11414.79
463.32	11344.58
463.50	11583.31
463.68	11630.12
463.86	11779.92
464.05	11587.99
464.23	11492.03
464.41	11765.87
464.59	11599.70
464.78	11819.71
464.96	12072.48
465.14	11910.99
465.32	12016.31
465.50	11946.09
465.69	12381.43
465.87	11932.05
466.05	11903.96
466.23	11943.75
466.41	12241.00
466.60	12437.61
466.78	12173.13
466.96	12070.14
467.14	12243.34
467.32	12222.28
467.51	12652.94
467.69	12020.99
467.87	12332.28
468.05	12484.42
468.23	12486.76
468.41	12369.73
468.60	12636.55
468.78	12589.74
468.96	12449.31
469.14	12741.88
469.32	12744.22
469.50	12524.21
469.69	12781.67
469.87	13001.68
470.05	12849.54
470.23	13097.64
470.41	13301.26
470.59	13390.20
470.77	13090.62
470.95	13275.52
471.14	13373.82
471.32	13116.36
471.50	13413.61
471.68	13486.17
471.86	13619.58
472.04	13621.92
472.22	14003.43
472.40	13554.04
472.58	13586.81
472.77	13799.80
472.95	14431.74
473.13	14377.91
473.31	13802.14
473.49	14045.55
473.67	13907.46
473.85	14335.78
474.03	14525.36
474.21	14621.33
474.39	14754.74
474.57	14434.08
474.75	14628.35
474.93	14822.61
475.12	14951.34
475.30	15047.30
475.48	14878.79
475.66	15136.24
475.84	14827.29
476.02	15295.40
476.20	15218.16
476.38	15370.30
476.56	15812.66
476.74	15604.35
476.92	15819.68
477.10	15403.07
477.28	16009.26
477.46	16292.47
477.64	16175.44
477.82	16430.56
478.00	16994.63
478.18	16755.90
478.36	16659.93
478.54	16957.18
478.72	16961.86
478.90	17565.72
479.08	17500.19
479.26	17425.29
479.44	17568.06
479.62	17617.21
479.80	17813.82
479.98	17916.80
480.16	18326.39
480.34	18078.30
480.52	18504.28
480.70	18492.57
480.88	18396.61
481.06	18354.48
481.24	18656.41
481.41	18881.10
481.59	19183.03
481.77	19211.12
481.95	19393.68
482.13	19779.87
482.31	19494.32
482.49	20084.14
482.67	20180.10
482.85	20187.12
483.03	20395.43
483.21	20645.87
483.39	20711.40
483.57	20577.99
483.74	20805.02
483.92	21298.88
484.10	21277.81
484.28	21502.50
484.46	21832.52
484.64	22148.49
484.82	21916.78
485.00	22001.04
485.18	22225.73
485.35	22707.88
485.53	22518.29
485.71	22691.49
485.89	23323.44
486.07	22951.29
486.25	23175.98
486.43	23335.14
486.61	23646.43
486.78	24093.47
486.96	23901.55
487.14	24606.05
487.32	24421.15
487.50	24648.18
487.68	24648.18
487.85	25312.89
488.03	25315.23
488.21	25521.20
488.39	25610.14
488.57	26033.78
488.75	25806.75
488.92	26583.80
489.10	26370.82
489.28	26515.93
489.46	26855.31
489.64	26808.50
489.81	27419.38
489.99	27370.22
490.17	27648.75
490.35	27709.60
490.53	28217.50
490.70	28315.80
490.88	28091.11
491.06	28694.97
491.24	28332.18
491.41	28802.63
491.59	28929.02
491.77	28673.90
491.95	28884.55
492.13	29816.08
492.30	29504.79
492.48	29771.61
492.66	30281.85
492.84	30047.80
493.01	30522.93
493.19	30389.52
493.37	30976.99
493.54	30756.98
493.72	31482.55
493.90	31234.45
494.08	31688.51
494.25	31711.92
494.43	32039.59
494.61	32238.54
494.79	32212.79
494.96	32140.24
495.14	32685.58
495.32	32996.87
495.49	32643.45
495.67	32748.78
495.85	33006.23
496.02	33453.28
496.20	33912.02
496.38	33783.29
496.55	34216.29
496.73	34644.61
496.91	34405.88
497.09	34345.02
497.26	34682.06
497.44	34808.45
497.62	35295.28
497.79	35688.49
497.97	35367.84
498.14	35276.55
498.32	36135.53
498.50	35931.90
498.67	36282.98
498.85	36203.41
499.03	36301.71
499.20	36697.26
499.38	36332.14
499.56	36692.58
499.73	36882.16
499.91	36753.43
500.08	37397.08
500.26	36680.88
500.44	37361.97
500.61	37673.26
500.79	37284.73
500.97	37872.21
501.14	38195.20
501.32	38129.67
501.49	38389.47
501.67	38251.38
501.84	38431.60
502.02	38651.61
502.20	38682.03
502.37	38665.65
502.55	39201.63
502.72	39285.89
502.90	39229.72
503.07	39056.52
503.25	39639.31
503.43	39531.65
503.60	39840.60
503.78	39959.97
503.95	39976.35
504.13	40498.29
504.30	40126.14
504.48	40641.06
504.65	40598.93
504.83	40891.50
505.01	41083.42
505.18	41050.66
505.36	41757.50
505.53	40664.47
505.71	41596.00
505.88	41095.13
506.06	41567.91
506.23	41757.50
506.41	41298.75
506.58	41399.40
506.76	41778.56
506.93	41949.42
507.11	42251.35
507.28	42300.50
507.46	42700.73
507.63	42749.88
507.81	42588.39
507.98	42370.72
508.16	42726.48
508.33	42859.89
508.50	43079.90
508.68	43601.84
508.85	44020.80
509.03	43583.12
509.20	43721.21
509.38	44273.57
509.55	43887.39
509.73	44098.03
509.90	44025.48
510.08	44236.12
510.25	44245.49
510.42	44608.27
510.60	44636.36
510.77	44961.69
510.95	45181.70
511.12	44753.38
511.30	44994.46
511.47	45375.97
511.64	45411.07
511.82	45511.72
511.99	45291.71
512.17	46108.55
512.34	45605.34
512.51	46036.00
512.69	45815.99
512.86	46000.89
513.04	46600.07
513.21	46185.79
513.38	46373.03
513.56	46436.23
513.73	46476.02
513.90	47028.38
514.08	46707.73
514.25	46955.83
514.43	46976.89
514.60	47150.09
514.77	47178.18
514.95	47346.70
515.12	47515.22
515.29	47325.63
515.47	47590.11
515.64	48067.58
515.81	47358.40
515.99	47629.90
516.16	47997.37
516.33	48062.90
516.51	48374.19
516.68	48325.04
516.85	48217.38
517.03	48846.98
517.20	48488.88
517.37	48889.11
517.54	48715.91
517.72	48779.10
517.89	49148.91
518.06	48697.19
518.24	49109.12
518.41	48846.98
518.58	49059.97
518.75	48659.74
518.93	49441.48
519.10	49602.97
519.27	49619.36
519.45	49162.95
519.62	49834.69
519.79	49949.37
519.96	49607.65
520.14	49916.61
520.31	49516.37
520.48	49911.92
520.65	50068.74
520.83	50110.87
521.00	50586.00
521.17	50096.83
521.34	50099.17
521.52	50520.46
521.69	50506.42
521.86	50784.94
522.03	51009.64
522.20	50850.48
522.38	51400.50
522.55	50848.14
522.72	51107.94
522.89	50878.57
523.07	51173.47
523.24	51201.56
523.41	51473.06
523.58	51098.58
523.75	51784.35
523.92	51440.29
524.10	51730.52
524.27	51973.94
524.44	51554.98
524.61	52055.85
524.78	51987.98
524.96	52210.33
525.13	52107.35
525.30	52231.40
525.47	52336.72
525.64	52425.66
525.81	52538.01
525.98	52612.90
526.16	52540.35
526.33	52154.16
526.50	52900.79
526.67	52683.12
526.84	52877.38
527.01	52793.12
527.18	52903.13
527.36	52837.59
527.53	52783.76
527.70	53174.63
527.87	53027.18
528.04	52907.81
528.21	53265.91
528.38	52919.51
528.55	53628.69
528.72	53226.12
528.89	53310.38
529.07	53333.79
529.24	53221.44
529.41	53614.65
529.58	53404.00
529.75	53418.05
529.92	53698.91
530.09	53691.89
530.26	53551.46
530.43	53797.21
530.60	53759.76
530.77	53769.13
530.94	54075.74
531.11	54164.68
531.28	53837.00
531.46	53977.43
531.63	53989.14
531.80	53918.92
531.97	54087.44
532.14	54101.48
532.31	54171.70
532.48	54253.62
532.65	54653.85
532.82	54267.66
532.99	54564.91
533.16	54171.70
533.33	54578.95
533.50	54752.15
533.67	54312.13
533.84	54443.20
534.01	54721.72
534.18	54321.49
534.35	54843.43
534.52	54611.72
534.69	55049.40
534.86	54967.48
535.03	54724.07
535.20	54941.74
535.37	55079.83
535.54	55136.00
535.71	55096.21
535.88	55000.25
536.05	55220.26
536.22	55384.10
536.38	55428.57
536.55	55283.45
536.72	55311.54
536.89	55248.35
537.06	55482.40
537.23	55683.69
537.40	55348.99
537.57	55505.80
537.74	55540.91
537.91	55880.29
538.08	55494.10
538.25	55543.25
538.42	55739.86
538.59	55973.91
538.75	55786.67
538.92	55758.58
539.09	56027.74
539.26	55913.06
539.43	56039.45
539.60	56025.40
539.77	55997.32
539.94	56186.90
540.11	56224.35
540.28	56444.36
540.44	56254.78
540.61	56163.50
540.78	56226.69
540.95	56184.56
541.12	56273.50
541.29	56231.37
541.46	56444.36
541.62	56430.32
541.79	56629.26
541.96	56388.19
542.13	56446.70
542.30	56488.83
542.47	56645.65
542.63	56769.69
542.80	56666.71
542.97	56863.32
543.14	56914.81
543.31	56872.68
543.48	56938.21
543.64	57141.84
543.81	57214.40
543.98	57155.88
544.15	57205.03
544.32	57137.16
544.48	57406.32
544.65	57277.59
544.82	57455.47
544.99	57041.20
545.16	57366.53
545.32	57228.44
545.49	57485.90
545.66	57579.52
545.83	57490.58
546.00	57504.62
546.16	57518.67
546.33	57532.71
546.50	57286.95
546.67	57532.71
546.83	57401.64
547.00	57680.16
547.17	57392.28
547.34	57694.21
547.50	57860.38
547.67	58021.88
547.84	57773.78
548.00	57874.43
548.17	58010.18
548.34	57715.27
548.51	57977.41
548.67	58059.33
548.84	57907.19
549.01	57893.15
549.18	58005.50
549.34	57958.69
549.51	57958.69
549.68	58124.86
549.84	58169.33
550.01	58183.38
550.18	58021.88
550.34	58269.98
550.51	58365.94
550.68	58211.46
550.84	57949.32
551.01	58330.83
551.18	58328.49
551.34	58368.28
551.51	58382.32
551.68	58487.65
551.84	58475.94
552.01	58260.62
552.18	58422.11
552.34	58408.07
552.51	58396.37
552.68	58408.07
552.84	58644.46
553.01	58754.47
553.18	58553.18
553.34	58536.80
553.51	58686.59
553.67	58653.82
553.84	58890.22
554.01	58815.32
554.17	58731.06
554.34	58951.07
554.51	58815.32
554.67	58915.96
554.84	58820.00
555.00	58635.10
555.17	58897.24
555.33	58934.69
555.50	58667.87
555.67	58852.77
555.83	58768.51
556.00	58927.67
556.16	59161.72
556.33	59138.32
556.50	59159.38
556.66	59032.99
556.83	58894.90
556.99	59093.85
557.16	59400.46
557.32	59260.02
557.49	59576.00
557.65	59061.08
557.82	59072.78
557.98	59121.93
558.15	59274.07
558.32	59201.51
558.48	59093.85
558.65	59276.41
558.81	59241.30
558.98	59465.99
559.14	59292.79
559.31	59669.62
559.47	59440.24
559.64	59412.16
559.80	59526.84
559.97	59674.30
560.13	59295.13
560.30	59475.35
560.46	59461.31
560.63	59559.61
560.79	59632.17
560.96	59707.07
561.12	59781.96
561.29	59634.51
561.45	59674.30
561.61	59704.73
561.78	59742.17
561.94	59611.10
562.11	59508.12
562.27	59597.06
562.44	59831.11
562.60	60009.00
562.77	59870.90
562.93	59838.14
563.10	59969.21
563.26	59732.81
563.42	60158.79
563.59	59817.07
563.75	59737.49
563.92	59889.63
564.08	59952.82
564.24	60130.70
564.41	59903.67
564.57	59742.17
564.74	59971.55
564.90	60172.83
565.07	59856.86
565.23	59920.05
565.39	59814.73
565.56	60074.53
565.72	59854.52
565.88	60149.43
566.05	60051.12
566.21	59976.23
566.38	60060.49
566.54	60025.38
566.70	60191.56
566.87	60104.96
567.03	60111.98
567.19	60245.39
567.36	59950.48
567.52	59861.54
567.68	60261.77
567.85	60292.20
568.01	60172.83
568.17	59950.48
568.34	60273.48
568.50	60184.54
568.66	60481.78
568.83	60135.38
568.99	60041.76
569.15	60280.50
569.32	60177.51
569.48	60161.13
569.64	60336.67
569.81	60224.32
569.97	60282.84
570.13	60350.71
570.30	60324.97
570.46	60250.07
570.62	60217.30
570.78	60474.76
570.95	60273.48
571.11	60430.29
571.27	60449.02
571.43	60411.57
571.60	60369.44
571.76	60374.12
571.92	60243.05
572.09	60348.37
572.25	60549.66
572.41	60331.99
572.57	60413.91
572.74	60767.33
572.90	60331.99
573.06	60212.62
573.22	60413.91
573.38	60409.23
573.55	60488.80
573.71	60622.22
573.87	60617.53
574.03	60388.16
574.20	60498.17
574.36	60631.58
574.52	60633.92
574.68	60610.51
574.84	60542.64
575.01	60612.85
575.17	60533.28
575.33	60626.90
575.49	60360.08
575.65	60388.16
575.82	60582.43
575.98	60650.30
576.14	60844.57
576.30	60636.26
576.46	60701.79
576.62	60601.15
576.79	60544.98
576.95	60573.06
577.11	60692.43
577.27	60626.90
577.43	60671.37
577.59	60589.45
577.75	60549.66
577.92	60343.69
578.08	60694.77
578.24	60514.55
578.40	60542.64
578.56	60797.76
578.72	60699.45
578.88	60842.23
579.04	60788.39
579.21	60800.10
579.37	60692.43
579.53	60814.14
579.69	60645.62
579.85	60657.32
580.01	60465.40
580.17	60570.72
580.33	60750.94
580.49	60889.04
580.65	60772.01
580.82	60701.79
580.98	60617.53
581.14	60640.94
581.30	60940.53
581.46	60743.92
581.62	60795.42
581.78	60411.57
581.94	60654.98
582.10	60757.97
582.26	60619.88
582.42	60652.64
582.58	60842.23
582.74	60795.42
582.90	60790.73
583.06	60886.70
583.22	60535.62
583.38	60769.67
583.54	60743.92
583.70	60790.73
583.86	60858.61
584.02	60898.40
584.18	61024.79
584.34	60753.29
584.50	60697.11
584.66	60753.29
584.82	60542.64
584.98	61022.45
585.14	60839.89
585.30	60594.13
585.46	61010.74
585.62	60830.52
585.78	60809.46
585.94	60566.04
586.10	60882.02
586.26	60755.63
586.42	60919.46
586.58	60940.53
586.74	60879.67
586.90	60900.74
587.06	60739.24
587.22	60900.74
587.38	61085.64
587.54	60968.61
587.70	61048.19
587.86	61024.79
588.02	60882.02
588.18	60835.20
588.34	60867.97
588.49	61022.45
