SpectraSuite Data File
++++++++++++++++++++++++++++++++++++
Date: Fri Oct 25 11:34:22 EDT 2013
User: price-jones
Dark Spectrum Present: No
Reference Spectrum Present: No
Number of Sampled Component Spectra: 1
Spectrometers: USB2+H05261
Integration Time (usec): 100000 (USB2+H05261)
Spectra Averaged: 1 (USB2+H05261)
Boxcar Smoothing: 0 (USB2+H05261)
Correct for Electrical Dark: No (USB2+H05261)
Strobe/Lamp Enabled: No (USB2+H05261)
Correct for Detector Non-linearity: No (USB2+H05261)
Correct for Stray Light: No (USB2+H05261)
Number of Pixels in Processed Spectrum: 2048
>>>>>Begin Processed Spectral Data<<<<<
365.73	283.20
365.92	283.20
366.12	283.20
366.32	255.12
366.52	227.03
366.72	166.18
366.91	189.58
367.11	234.05
367.31	168.52
367.51	135.75
367.70	208.31
367.90	173.20
368.10	264.48
368.30	217.67
368.49	175.54
368.69	217.67
368.89	163.84
369.09	220.01
369.28	198.95
369.48	231.71
369.68	278.52
369.87	220.01
370.07	276.18
370.27	273.84
370.47	351.08
370.66	402.57
370.86	519.60
371.06	510.24
371.25	582.79
371.45	507.90
371.65	561.73
371.84	545.34
372.04	540.66
372.24	564.07
372.44	526.62
372.63	634.29
372.83	610.88
373.03	573.43
373.22	585.13
373.42	650.67
373.62	582.79
373.81	667.05
374.01	603.86
374.21	617.90
374.40	674.07
374.60	657.69
374.79	638.97
374.99	566.41
375.19	615.56
375.38	678.76
375.58	667.05
375.78	634.29
375.97	702.16
376.17	660.03
376.37	676.41
376.56	641.31
376.76	653.01
376.95	676.41
377.15	697.48
377.35	641.31
377.54	718.54
377.74	702.16
377.93	631.94
378.13	695.14
378.33	720.88
378.52	690.46
378.72	699.82
378.91	774.72
379.11	678.76
379.31	683.44
379.50	716.20
379.70	746.63
379.89	777.06
380.09	664.71
380.28	748.97
380.48	732.59
380.68	755.99
380.87	723.23
381.07	779.40
381.26	826.21
381.46	786.42
381.65	744.29
381.85	748.97
382.04	622.58
382.24	692.80
382.43	760.67
382.63	723.23
382.83	795.78
383.02	793.44
383.22	751.31
383.41	725.57
383.61	816.85
383.80	884.72
384.00	786.42
384.19	791.10
384.39	826.21
384.58	751.31
384.78	821.53
384.97	770.04
385.17	823.87
385.36	751.31
385.56	812.17
385.75	795.78
385.95	830.89
386.14	887.06
386.34	786.42
386.53	908.13
386.72	847.27
386.92	905.79
387.11	868.34
387.31	868.34
387.50	940.90
387.70	842.59
387.89	908.13
388.09	884.72
388.28	842.59
388.48	896.43
388.67	882.38
388.86	917.49
389.06	931.53
389.25	908.13
389.45	910.47
389.64	903.45
389.84	1013.45
390.03	903.45
390.22	915.15
390.42	985.37
390.61	990.05
390.81	791.10
391.00	1008.77
391.19	1029.84
391.39	1041.54
391.58	908.13
391.78	915.15
391.97	1083.67
392.16	983.02
392.36	1006.43
392.55	1032.18
392.75	1020.47
392.94	1032.18
393.13	985.37
393.33	1015.79
393.52	1013.45
393.71	1043.88
393.91	1123.46
394.10	1060.26
394.29	1074.31
394.49	1093.03
394.68	1036.86
394.88	1067.28
395.07	1144.52
395.26	1125.80
395.46	1163.25
395.65	1125.80
395.84	1109.41
396.04	1259.21
396.23	1320.06
396.42	1158.57
396.62	1184.31
396.81	1226.44
397.00	1177.29
397.19	1245.16
397.39	1224.10
397.58	1219.42
397.77	1198.35
397.97	1181.97
398.16	1277.93
398.35	1252.19
398.55	1261.55
398.74	1231.12
398.93	1188.99
399.12	1294.32
399.32	1240.48
399.51	1226.44
399.70	1324.74
399.90	1331.76
400.09	1366.87
400.28	1467.52
400.47	1392.62
400.67	1420.71
400.86	1317.72
401.05	1348.15
401.24	1376.24
401.44	1437.09
401.63	1373.89
401.82	1432.41
402.01	1409.00
402.21	1399.64
402.40	1378.58
402.59	1479.22
402.78	1530.71
402.97	1521.35
403.17	1497.94
403.36	1479.22
403.55	1528.37
403.74	1575.18
403.93	1631.35
404.13	1572.84
404.32	1561.14
404.51	1540.07
404.70	1563.48
404.89	1472.20
405.09	1647.74
405.28	1565.82
405.47	1591.56
405.66	1638.38
405.85	1617.31
406.05	1633.69
406.24	1746.04
406.43	1612.63
406.62	1701.57
406.81	1774.13
407.00	1682.85
407.20	1535.39
407.39	1750.72
407.58	1760.08
407.77	1849.02
407.96	1860.73
408.15	1795.19
408.34	1790.51
408.54	1879.45
408.73	1797.53
408.92	1877.11
409.11	1909.88
409.30	1921.58
409.49	1921.58
409.68	1937.96
409.87	2052.65
410.07	1937.96
410.26	2019.88
410.45	2104.14
410.64	2090.10
410.83	1968.39
411.02	2078.40
411.21	2045.63
411.40	2064.35
411.59	2033.93
411.78	2129.89
411.98	2167.34
412.17	2179.04
412.36	2256.28
412.55	2270.32
412.74	2157.97
412.93	2368.62
413.12	2211.81
413.31	2370.96
413.50	2296.07
413.69	2260.96
413.88	2326.49
414.07	2382.67
414.26	2413.09
414.45	2370.96
414.64	2434.16
414.83	2504.37
415.02	2443.52
415.22	2530.12
415.41	2572.25
415.60	2569.91
415.79	2595.65
415.98	2612.04
416.17	2572.25
416.36	2736.09
416.55	2586.29
416.74	2700.98
416.93	2761.83
417.12	2820.35
417.31	2818.00
417.50	2785.24
417.69	2871.84
417.88	2946.73
418.07	2871.84
418.26	2862.48
418.45	2829.71
418.64	2984.18
418.83	2911.63
419.02	2937.37
419.21	3096.53
419.39	2981.84
419.58	2942.05
419.77	2925.67
419.96	3091.85
420.15	3042.70
420.34	3045.04
420.53	3187.81
420.72	3101.21
420.91	3206.53
421.10	3145.68
421.29	3260.37
421.48	3143.34
421.67	3243.98
421.86	3180.79
422.05	3215.90
422.24	3110.57
422.43	3133.98
422.61	3180.79
422.80	3227.60
422.99	3328.24
423.18	3246.32
423.37	3337.60
423.56	3325.90
423.75	3206.53
423.94	3157.38
424.13	3171.43
424.32	3201.85
424.50	3456.97
424.69	3379.73
424.88	3386.76
425.07	3150.36
425.26	3346.97
425.45	3302.50
425.64	3279.09
425.83	3199.51
426.01	3297.81
426.20	3353.99
426.39	3433.57
426.58	3384.41
426.77	3302.50
426.96	3407.82
427.15	3293.13
427.33	3510.80
427.52	3377.39
427.71	3442.93
427.90	3494.42
428.09	3648.90
428.28	3393.78
428.46	3524.85
428.65	3513.14
428.84	3618.47
429.03	3627.83
429.22	3618.47
429.40	3679.32
429.59	3672.30
429.78	3559.95
429.97	3353.99
430.16	3742.52
430.34	3646.55
430.53	3712.09
430.72	3669.96
430.91	3843.16
431.10	3698.05
431.28	3810.39
431.47	3803.37
431.66	3899.33
431.85	3850.18
432.03	3840.82
432.22	4011.68
432.41	3889.97
432.60	3880.61
432.79	3871.25
432.97	3955.51
433.16	3962.53
433.35	3868.91
433.54	4098.28
433.72	4173.18
433.91	4147.43
434.10	4105.30
434.28	4149.77
434.47	4081.89
434.66	4051.47
434.85	4095.94
435.03	4145.09
435.22	4126.36
435.41	4360.42
435.59	4294.88
435.78	4306.59
435.97	4229.35
436.16	4203.60
436.34	4327.65
436.53	4187.22
436.72	4397.87
436.90	4290.20
437.09	4208.28
437.28	4292.54
437.46	4353.40
437.65	4475.10
437.84	4449.36
438.02	4512.55
438.21	4517.23
438.40	4236.37
438.58	4575.75
438.77	4650.64
438.96	4440.00
439.14	4716.18
439.33	4718.52
439.52	4695.11
439.70	4788.74
439.89	4819.16
440.08	4709.16
440.26	4887.04
440.45	4863.63
440.63	4971.30
440.82	4999.38
441.01	4973.64
441.19	4971.30
441.38	5158.54
441.57	4957.25
441.75	5128.11
441.94	5060.24
442.12	5088.32
442.31	5160.88
442.50	5214.71
442.68	5261.52
442.87	5160.88
443.05	5341.10
443.24	5343.44
443.43	5401.96
443.61	5446.43
443.80	5584.52
443.98	5151.52
444.17	5132.79
444.35	5277.91
444.54	5401.96
444.73	5324.72
444.91	5364.51
445.10	5486.22
445.28	5284.93
445.47	5359.83
445.65	5451.11
445.84	5224.08
446.02	5458.13
446.21	5502.60
446.39	5488.56
446.58	5582.18
446.77	5425.36
446.95	5448.77
447.14	5476.85
447.32	5514.30
447.51	5458.13
447.69	5621.97
447.88	5490.90
448.06	5537.71
448.25	5540.05
448.43	5453.45
448.62	5523.66
448.80	5624.31
448.99	5731.97
449.17	5799.85
449.36	5710.91
449.54	5860.70
449.73	5907.51
449.91	5774.10
450.10	5872.40
450.28	5980.07
450.46	6015.18
450.65	5865.38
450.83	6059.65
451.02	5804.53
451.20	5832.62
451.39	5937.94
451.57	5881.77
451.76	5961.34
451.94	6167.31
452.13	6132.20
452.31	6066.67
452.49	6101.78
452.68	6085.39
452.86	6092.41
453.05	6230.51
453.23	6300.72
453.42	6204.76
453.60	5994.11
453.78	6111.14
453.97	6132.20
454.15	6340.51
454.34	6260.93
454.52	6193.06
454.70	6399.02
454.89	6445.84
455.07	6335.83
455.26	6420.09
455.44	6537.12
455.62	6494.99
455.81	6492.65
455.99	6431.79
456.17	6548.82
456.36	6616.69
456.54	6558.18
456.73	6733.72
456.91	6752.45
457.09	6698.61
457.28	6881.18
457.46	6576.91
457.64	6813.30
457.83	6834.36
458.01	6682.23
458.19	6937.35
458.38	6918.62
458.56	6965.43
458.74	6958.41
458.93	6848.41
459.11	6998.20
459.29	7000.54
459.48	6951.39
459.66	7037.99
459.84	7009.90
460.03	7126.93
460.21	7075.44
460.39	7232.26
460.57	7253.32
460.76	7290.77
460.94	7225.23
461.12	7197.15
461.31	7386.73
461.49	7211.19
461.67	7349.28
461.85	7227.57
462.04	7140.97
462.22	7658.23
462.40	7566.95
462.59	7424.18
462.77	7346.94
462.95	7545.89
463.13	7517.80
463.32	7449.93
463.50	7714.41
463.68	7534.18
463.86	7566.95
464.05	7599.72
464.23	7456.95
464.41	7576.31
464.59	7632.49
464.78	7854.84
464.96	7655.89
465.14	7487.37
465.32	7768.24
465.50	7932.08
465.69	7740.15
465.87	7770.58
466.05	7892.29
466.23	7939.10
466.41	7941.44
466.60	8030.38
466.78	7927.39
466.96	7829.09
467.14	7922.71
467.32	7955.48
467.51	8156.77
467.69	7854.84
467.87	8086.55
468.05	8205.92
468.23	7988.25
468.41	8037.40
468.60	8114.64
468.78	8278.47
468.96	7941.44
469.14	8339.33
469.32	8119.32
469.50	8355.71
469.69	8219.96
469.87	8432.95
470.05	8456.36
470.23	8344.01
470.41	8514.87
470.59	8573.38
470.77	8589.77
470.95	8285.50
471.14	8493.80
471.32	8561.68
471.50	8704.45
471.68	8800.41
471.86	8690.41
472.04	8533.59
472.22	8966.59
472.40	8884.67
472.58	9027.45
472.77	8933.82
472.95	9195.96
473.13	9296.61
473.31	8990.00
473.49	9104.68
473.67	9067.24
473.85	9046.17
474.03	9345.76
474.21	9280.22
474.39	9565.77
474.57	9525.98
474.75	9607.90
474.93	9617.26
475.12	9568.11
475.30	9619.60
475.48	9593.86
475.66	9713.22
475.84	9666.41
476.02	9844.29
476.20	9816.21
476.38	9902.81
476.56	10045.58
476.74	10115.80
476.92	10132.18
477.10	10129.84
477.28	10190.69
477.46	10244.52
477.64	10714.97
477.82	10303.04
478.00	10771.15
478.18	10487.94
478.36	10710.29
478.54	10972.43
478.72	10808.59
478.90	11012.22
479.08	11236.91
479.26	11218.19
479.44	11211.17
479.62	11375.00
479.80	11431.18
479.98	11587.99
480.16	11672.25
480.34	11534.16
480.52	11669.91
480.70	11737.79
480.88	11761.19
481.06	11892.26
481.24	12095.89
481.41	12313.56
481.59	12430.59
481.77	12205.89
481.95	12479.74
482.13	12521.87
482.31	12353.35
482.49	12482.08
482.67	12912.74
482.85	13074.23
483.03	13130.41
483.21	13144.45
483.39	13233.39
483.57	13181.90
483.74	13296.58
483.92	13383.18
484.10	13200.62
484.28	13586.81
484.46	13862.99
484.64	14260.88
484.82	13844.27
485.00	13977.68
485.18	14473.87
485.35	14593.24
485.53	14146.20
485.71	14539.41
485.89	14689.20
486.07	14658.78
486.25	14920.92
486.43	15110.50
486.61	14977.09
486.78	15360.94
486.96	15152.63
487.14	15421.79
487.32	15585.63
487.50	15824.36
487.68	15899.26
487.85	15943.73
488.03	16044.37
488.21	16231.62
488.39	16198.85
488.57	16435.24
488.75	16407.16
488.92	17060.16
489.10	16950.16
489.28	17003.99
489.46	17099.95
489.64	17043.78
489.81	17322.30
489.99	17298.90
490.17	17755.30
490.35	17750.62
490.53	17514.23
490.70	18043.19
490.88	17947.23
491.06	18015.10
491.24	18169.58
491.41	18391.93
491.59	18504.28
491.77	18286.61
491.95	18415.34
492.13	18899.83
492.30	18689.18
492.48	18808.54
492.66	18703.22
492.84	19269.63
493.01	19246.23
493.19	19337.51
493.37	19747.10
493.54	19711.99
493.72	19569.22
493.90	19777.53
494.08	20011.58
494.25	20056.05
494.43	20093.50
494.61	20203.50
494.79	20283.08
494.96	20601.40
495.14	20556.93
495.32	20798.00
495.49	20601.40
495.67	20929.07
495.85	21198.23
496.02	20999.29
496.20	21483.78
496.38	21467.39
496.55	21537.61
496.73	22136.79
496.91	21446.33
497.09	21717.83
497.26	22015.08
497.44	22089.98
497.62	22225.73
497.79	22630.64
497.97	22118.06
498.14	22637.66
498.32	23012.15
498.50	22845.97
498.67	23026.19
498.85	22780.43
499.03	22869.37
499.20	23414.72
499.38	23304.71
499.56	23283.65
499.73	23620.69
499.91	23611.32
500.08	23651.11
500.26	23733.03
500.44	23557.49
500.61	23679.20
500.79	23854.74
500.97	24084.11
501.14	24266.67
501.32	24542.86
501.49	24353.27
501.67	24182.42
501.84	24606.05
502.02	24458.60
502.20	24259.65
502.37	24772.23
502.55	24769.89
502.72	24699.67
502.90	25069.48
503.07	24769.89
503.25	25247.36
503.43	24961.81
503.60	25088.20
503.78	25479.07
503.95	25336.30
504.13	25685.04
504.30	25624.18
504.48	25469.71
504.65	25783.34
504.83	26174.21
505.01	26232.72
505.18	26155.49
505.36	26419.97
505.53	26134.42
505.71	26733.60
505.88	26340.39
506.06	26541.68
506.23	26583.80
506.41	26181.23
506.58	26583.80
506.76	26948.93
506.93	26588.49
507.11	26923.18
507.28	26749.98
507.46	26932.54
507.63	27037.87
507.81	27395.97
507.98	27454.48
508.16	27543.42
508.33	27374.91
508.50	27454.48
508.68	27683.86
508.85	27775.14
509.03	27817.27
509.20	27770.46
509.38	28091.11
509.55	28180.05
509.73	28250.27
509.90	28009.19
510.08	27964.72
510.25	28357.93
510.42	28500.70
510.60	28528.79
510.77	28451.55
510.95	28779.23
511.12	28526.45
511.30	29053.07
511.47	29123.29
511.64	28865.83
511.82	29305.85
511.99	29291.80
512.17	29146.69
512.34	29549.26
512.51	29490.75
512.69	29827.79
512.86	29872.26
513.04	29607.78
513.21	29776.30
513.38	29710.76
513.56	29907.37
513.73	29626.50
513.90	29701.40
514.08	29788.00
514.25	30260.79
514.43	30108.65
514.60	30281.85
514.77	29998.65
514.95	30672.72
515.12	30216.32
515.29	30279.51
515.47	30794.43
515.64	30663.36
515.81	30604.84
515.99	30752.30
516.16	31559.78
516.33	30972.31
516.51	31152.53
516.68	31035.50
516.85	31276.58
517.03	31391.26
517.20	31445.10
517.37	31459.14
517.54	31768.09
517.72	31791.50
517.89	31536.38
518.06	31824.26
518.24	31915.54
518.41	31653.40
518.58	31622.98
518.75	31814.90
518.93	32144.92
519.10	31976.40
519.27	32346.20
519.45	31903.84
519.62	32280.67
519.79	32409.40
519.96	32463.23
520.14	32339.18
520.31	32378.97
520.48	32418.76
520.65	32559.19
520.83	33076.45
521.00	32854.10
521.17	32952.40
521.34	33275.40
521.52	33177.09
521.69	33020.28
521.86	33834.78
522.03	33249.65
522.20	33268.37
522.38	33462.64
522.55	33748.18
522.72	33820.74
522.89	33518.81
523.07	34295.87
523.24	33928.41
523.41	34274.80
523.58	33565.62
523.75	34022.03
523.92	34007.98
524.10	34199.91
524.27	34368.43
524.44	34410.56
524.61	34352.04
524.78	33881.60
524.96	34506.52
525.13	34272.46
525.30	34967.60
525.47	35173.57
525.64	34637.59
525.81	34710.14
525.98	35386.56
526.16	34658.65
526.33	34948.88
526.50	35466.14
526.67	34752.27
526.84	35271.87
527.01	35372.52
527.18	35550.40
527.36	35391.24
527.53	35456.78
527.70	36133.19
527.87	35857.01
528.04	35768.07
528.21	35456.78
528.38	36215.11
528.55	35370.18
528.72	35611.25
528.89	35644.02
529.07	35669.76
529.24	35952.97
529.41	35866.37
529.58	35995.10
529.75	36311.07
529.92	35950.63
530.09	36261.92
530.26	36278.30
530.43	36086.38
530.60	36105.10
530.77	35992.76
530.94	36535.76
531.11	36336.82
531.28	36481.93
531.46	36706.62
531.63	36456.18
531.80	36594.28
531.97	36708.96
532.14	36886.84
532.31	36706.62
532.48	37385.38
532.65	36999.19
532.82	37116.22
532.99	37165.37
533.16	37207.50
533.33	37205.16
533.50	36961.74
533.67	37057.70
533.84	37446.23
534.01	37619.43
534.18	37247.29
534.35	38019.66
534.52	37153.66
534.69	37874.55
534.86	38050.09
535.03	37827.74
535.20	37315.16
535.37	38363.72
535.54	37708.37
535.71	37628.79
535.88	38337.98
536.05	38068.81
536.22	38139.03
536.38	37689.65
536.55	37844.12
536.72	38047.75
536.89	38050.09
537.06	37991.58
537.23	38735.87
537.40	38040.73
537.57	38188.18
537.74	38356.70
537.91	38684.37
538.08	38349.68
538.25	38349.68
538.42	38628.20
538.59	39037.80
538.75	38686.71
538.92	39005.03
539.09	38923.11
539.26	39105.67
539.43	39002.69
539.60	39344.41
539.77	38885.66
539.94	39295.25
540.11	39276.53
540.28	39152.48
540.44	39194.61
540.61	39496.54
540.78	39342.06
540.95	39356.11
541.12	39447.39
541.29	39395.90
541.46	39182.91
541.62	39388.88
541.79	39529.31
541.96	39061.20
542.13	39423.98
542.30	39302.28
542.47	39866.34
542.63	39742.30
542.80	39985.71
542.97	39966.99
543.14	40252.53
543.31	40041.88
543.48	40062.95
543.64	40584.89
543.81	40500.63
543.98	40282.96
544.15	40318.07
544.32	40203.38
544.48	40680.85
544.65	40376.58
544.82	40493.61
544.99	40500.63
545.16	41001.50
545.32	41003.85
545.49	40624.68
545.66	41242.58
545.83	40933.63
546.00	41621.75
546.16	41322.16
546.33	41088.10
546.50	40830.65
546.67	40975.76
546.83	40439.78
547.00	41060.02
547.17	41120.87
547.34	40933.63
547.50	41563.23
547.67	41294.07
547.84	41457.91
548.00	41544.51
548.17	41890.91
548.34	41612.38
548.51	41722.39
548.67	41537.49
548.84	41350.24
549.01	41656.85
549.18	41780.90
549.34	41390.03
549.51	42066.45
549.68	41741.11
549.84	41441.53
550.01	41993.89
550.18	41797.29
550.34	41839.42
550.51	42206.88
550.68	41883.89
550.84	41867.50
551.01	42464.34
551.18	42061.77
551.34	41883.89
551.51	42071.13
551.68	41830.05
551.84	41956.44
552.01	41954.10
552.18	42181.13
552.34	42167.09
552.51	42087.51
552.68	41930.70
552.84	42651.58
553.01	42738.18
553.18	42312.20
553.34	42415.19
553.51	42679.67
553.67	42632.86
553.84	42511.15
554.01	42806.06
554.17	42380.08
554.34	43220.33
554.51	42611.79
554.67	42911.38
554.84	42866.91
555.00	42761.59
555.17	42920.74
555.33	43056.50
555.50	43168.84
555.67	42600.09
555.83	43079.90
556.00	43203.95
556.16	43388.85
556.33	43107.99
556.50	43618.22
556.66	43210.97
556.83	42937.13
556.99	43255.44
557.16	43201.61
557.32	43220.33
557.49	43681.42
557.65	43126.71
557.82	43253.10
557.98	43267.14
558.15	43391.19
558.32	43306.93
558.48	43096.28
558.65	43636.95
558.81	43529.28
558.98	43283.53
559.14	43288.21
559.31	43662.69
559.47	43585.46
559.64	43665.03
559.80	43665.03
559.97	43573.75
560.13	43749.29
560.30	43908.45
560.46	43856.96
560.63	44020.80
560.79	44542.74
560.96	44137.82
561.12	44062.93
561.29	43966.96
561.45	44296.98
561.61	43728.23
561.78	44002.07
561.94	44205.70
562.11	44259.53
562.27	44191.65
562.44	44371.88
562.60	44086.33
562.77	43571.41
562.93	43817.17
563.10	44175.27
563.26	44594.23
563.42	44739.34
563.59	44109.74
563.75	44385.92
563.92	44121.44
564.08	44126.12
564.24	44116.76
564.41	44376.56
564.57	44238.47
564.74	44802.53
564.90	43992.71
565.07	44306.34
565.23	44369.54
565.39	44177.61
565.56	44435.07
565.72	44119.10
565.88	44229.10
566.05	44587.21
566.21	44334.43
566.38	44619.97
566.54	44856.37
566.70	44760.40
566.87	44884.45
567.03	43952.92
567.19	45167.66
567.36	44694.87
567.52	44308.68
567.68	44982.76
567.85	44626.99
568.01	44844.66
568.17	44184.63
568.34	44643.38
568.50	44926.58
568.66	44524.01
568.83	44748.70
568.99	45008.50
569.15	44947.65
569.32	44793.17
569.48	44552.10
569.64	45076.38
569.81	45076.38
569.97	45265.96
570.13	45022.54
570.30	44479.54
570.46	45216.81
570.62	44926.58
570.78	44783.81
570.95	44961.69
571.11	45612.36
571.27	44952.33
571.43	44905.52
571.60	44957.01
571.76	45045.95
571.92	45036.59
572.09	44729.98
572.25	45153.62
572.41	45511.72
572.57	45162.98
572.74	44978.07
572.90	45083.40
573.06	45469.59
573.22	45305.75
573.38	45312.77
573.55	45104.46
573.71	45462.57
573.87	45488.31
574.03	45340.86
574.20	45820.67
574.36	45427.46
574.52	45357.24
574.68	45654.49
574.84	45408.73
575.01	45301.07
575.17	45162.98
575.33	45682.58
575.49	45216.81
575.65	45703.64
575.82	45455.54
575.98	45324.47
576.14	45560.87
576.30	45673.21
576.46	45326.81
576.62	45097.44
576.79	45457.88
576.95	45146.59
577.11	45500.01
577.27	45495.33
577.43	45165.32
577.59	45205.11
577.75	44975.73
577.92	45088.08
578.08	44987.44
578.24	45579.59
578.40	45453.20
578.56	45553.85
578.72	45457.88
578.88	45518.74
579.04	45177.02
579.21	45392.35
579.37	45275.32
579.53	45193.40
579.69	45048.29
579.85	45478.95
580.01	45532.78
580.17	45535.12
580.33	45364.26
580.49	45808.96
580.65	45560.87
580.82	45542.14
580.98	45240.21
581.14	44748.70
581.30	45834.71
581.46	45242.56
581.62	45745.77
581.78	45429.80
581.94	45617.04
582.10	45553.85
582.26	45092.76
582.42	45495.33
582.58	45539.80
582.74	45668.53
582.90	45736.41
583.06	45680.24
583.22	45085.74
583.38	45645.13
583.54	45794.92
583.70	45801.94
583.86	45595.98
584.02	45525.76
584.18	45710.66
584.34	46085.15
584.50	45820.67
584.66	45839.39
584.82	46171.75
584.98	46131.96
585.14	45549.17
585.30	45422.78
585.46	45713.00
585.62	45397.03
585.78	45914.29
585.94	44938.29
586.10	45649.81
586.26	45436.82
586.42	45411.07
586.58	45876.84
586.74	45607.68
586.90	45769.18
587.06	45668.53
587.22	46092.17
587.38	45839.39
587.54	46160.05
587.70	45855.78
587.86	45661.51
588.02	45717.68
588.18	45469.59
588.34	46246.65
588.49	45621.72
588.65	45603.00
588.81	45797.26
588.97	45654.49
589.13	46045.36
589.29	45661.51
589.45	46028.98
589.61	46169.41
589.77	45853.44
589.93	46321.54
590.08	45869.82
