SpectraSuite Data File
++++++++++++++++++++++++++++++++++++
Date: Fri Oct 25 10:46:55 EDT 2013
User: price-jones
Dark Spectrum Present: No
Reference Spectrum Present: No
Number of Sampled Component Spectra: 1
Spectrometers: USB2+H05261
Integration Time (usec): 100000 (USB2+H05261)
Spectra Averaged: 1 (USB2+H05261)
Boxcar Smoothing: 0 (USB2+H05261)
Correct for Electrical Dark: No (USB2+H05261)
Strobe/Lamp Enabled: No (USB2+H05261)
Correct for Detector Non-linearity: No (USB2+H05261)
Correct for Stray Light: No (USB2+H05261)
Number of Pixels in Processed Spectrum: 2048
>>>>>Begin Processed Spectral Data<<<<<
365.73	142.77
365.92	142.77
366.12	142.77
366.32	0.00
366.52	46.81
366.72	91.28
366.91	14.04
367.11	77.24
367.31	14.04
367.51	0.00
367.70	60.85
367.90	74.90
368.10	18.72
368.30	11.70
368.49	77.24
368.69	44.47
368.89	23.41
369.09	56.17
369.28	117.03
369.48	79.58
369.68	70.22
369.87	88.94
370.07	95.96
370.27	107.66
370.47	152.13
370.66	414.27
370.86	524.28
371.06	470.45
371.25	528.96
371.45	433.00
371.65	491.51
371.84	358.10
372.04	458.74
372.24	510.24
372.44	470.45
372.63	491.51
372.83	599.18
373.03	468.11
373.22	528.96
373.42	519.60
373.62	587.47
373.81	592.16
374.01	573.43
374.21	517.26
374.40	582.79
374.60	610.88
374.79	575.77
374.99	641.31
375.19	667.05
375.38	568.75
375.58	622.58
375.78	643.65
375.97	643.65
376.17	573.43
376.37	585.13
376.56	561.73
376.76	589.82
376.95	653.01
377.15	575.77
377.35	702.16
377.54	709.18
377.74	671.73
377.93	662.37
378.13	732.59
378.33	746.63
378.52	741.95
378.72	622.58
378.91	702.16
379.11	662.37
379.31	674.07
379.50	697.48
379.70	699.82
379.89	730.25
380.09	606.20
380.28	709.18
380.48	779.40
380.68	706.84
380.87	699.82
381.07	709.18
381.26	690.46
381.46	664.71
381.65	711.52
381.85	657.69
382.04	667.05
382.24	671.73
382.43	669.39
382.63	730.25
382.83	711.52
383.02	826.21
383.22	718.54
383.41	741.95
383.61	746.63
383.80	844.93
384.00	786.42
384.19	711.52
384.39	774.72
384.58	861.32
384.78	861.32
384.97	795.78
385.17	786.42
385.36	882.38
385.56	847.27
385.75	849.61
385.95	779.40
386.14	856.64
386.34	842.59
386.53	849.61
386.72	915.15
386.92	954.94
387.11	854.30
387.31	788.76
387.50	837.91
387.70	889.40
387.89	945.58
388.09	835.57
388.28	866.00
388.48	870.68
388.67	968.98
388.86	889.40
389.06	1027.50
389.25	950.26
389.45	1008.77
389.64	1013.45
389.84	1034.52
390.03	976.00
390.22	1041.54
390.42	978.34
390.61	919.83
390.81	1046.22
391.00	1076.65
391.19	1067.28
391.39	1043.88
391.58	994.73
391.78	1104.73
391.97	1057.92
392.16	992.39
392.36	1025.15
392.55	959.62
392.75	985.37
392.94	947.92
393.13	1055.58
393.33	983.02
393.52	1048.56
393.71	1219.42
393.91	1046.22
394.10	1071.97
394.29	1132.82
394.49	1249.85
394.68	1184.31
394.88	1327.08
395.07	1130.48
395.26	1193.67
395.46	1224.10
395.65	1165.59
395.84	1235.80
396.04	1263.89
396.23	1184.31
396.42	1151.54
396.62	1210.06
396.81	1207.72
397.00	1226.44
397.19	1261.55
397.39	1301.34
397.58	1355.17
397.77	1315.38
397.97	1371.55
398.16	1371.55
398.35	1392.62
398.55	1544.75
398.74	1437.09
398.93	1558.80
399.12	1575.18
399.32	1446.45
399.51	1476.88
399.70	1556.46
399.90	1519.01
400.09	1502.62
400.28	1668.80
400.47	1629.01
400.67	1596.25
400.86	1593.90
401.05	1650.08
401.24	1631.35
401.44	1626.67
401.63	1657.10
401.82	1696.89
402.01	1701.57
402.21	1699.23
402.40	1724.97
402.59	1643.06
402.78	1783.49
402.97	1666.46
403.17	1734.34
403.36	1776.47
403.55	1783.49
403.74	1856.04
403.93	1891.15
404.13	1849.02
404.32	1816.26
404.51	1837.32
404.70	1788.17
404.89	1853.70
405.09	1937.96
405.28	1900.52
405.47	2012.86
405.66	1996.48
405.85	2008.18
406.05	1966.05
406.24	1909.88
406.43	1977.75
406.62	1996.48
406.81	2026.90
407.00	2134.57
407.20	1975.41
407.39	2090.10
407.58	2129.89
407.77	2139.25
407.96	2120.53
408.15	2129.89
408.34	2183.72
408.54	2204.78
408.73	2275.00
408.92	2193.08
409.11	2293.72
409.30	2218.83
409.49	2235.21
409.68	2249.25
409.87	2291.38
410.07	2338.20
410.26	2305.43
410.45	2340.54
410.64	2420.11
410.83	2597.99
411.02	2431.82
411.21	2495.01
411.40	2462.24
411.59	2457.56
411.78	2511.39
411.98	2569.91
412.17	2682.25
412.36	2562.89
412.55	2642.46
412.74	2710.34
412.93	2766.51
413.12	2651.83
413.31	2738.43
413.50	2857.79
413.69	2675.23
413.88	2848.43
414.07	2892.90
414.26	2782.90
414.45	2944.39
414.64	2855.45
414.83	2963.12
415.02	3014.61
415.22	2972.48
415.41	2998.23
415.60	3108.23
415.79	3061.42
415.98	3272.07
416.17	3187.81
416.36	3045.04
416.55	3192.49
416.74	3218.24
416.93	3108.23
417.12	3204.19
417.31	3297.81
417.50	3300.16
417.69	3379.73
417.88	3379.73
418.07	3286.11
418.26	3442.93
418.45	3349.31
418.64	3538.89
418.83	3637.19
419.02	3679.32
419.21	3728.47
419.39	3466.33
419.58	3548.25
419.77	3566.98
419.96	3679.32
420.15	3625.49
420.34	3662.94
420.53	3796.35
420.72	3721.45
420.91	3833.80
421.10	3791.67
421.29	3782.31
421.48	3705.07
421.67	3758.90
421.86	3805.71
422.05	3744.86
422.24	3700.39
422.43	3716.77
422.61	3721.45
422.80	3779.97
422.99	3822.09
423.18	3878.27
423.37	3969.55
423.56	3960.19
423.75	3754.22
423.94	3808.05
424.13	3552.93
424.32	3676.98
424.50	4067.85
424.69	4095.94
424.88	4109.98
425.07	3885.29
425.26	3777.62
425.45	3904.01
425.64	3728.47
425.83	3946.14
426.01	3798.69
426.20	4037.42
426.39	4014.02
426.58	3950.82
426.77	3871.25
426.96	3953.16
427.15	3971.89
427.33	3969.55
427.52	4042.11
427.71	4124.02
427.90	4102.96
428.09	4161.47
428.28	4077.21
428.46	4032.74
428.65	4184.88
428.84	4166.15
429.03	4184.88
429.22	4084.23
429.40	4147.43
429.59	4189.56
429.78	3854.86
429.97	3999.98
430.16	3985.93
430.34	4091.26
430.53	4102.96
430.72	4271.48
430.91	4117.00
431.10	4283.18
431.28	4437.66
431.47	4538.30
431.66	4641.28
431.85	4341.69
432.03	4542.98
432.22	4617.88
432.41	4498.51
432.60	4547.66
432.79	4664.69
432.97	4737.24
433.16	4688.09
433.35	4638.94
433.54	4638.94
433.72	4617.88
433.91	4599.15
434.10	4695.11
434.28	4812.14
434.47	4734.90
434.66	4833.21
434.85	4868.31
435.03	4940.87
435.22	4882.36
435.41	5123.43
435.59	4912.78
435.78	5188.97
435.97	5111.73
436.16	5074.28
436.34	4887.04
436.53	5013.43
436.72	4987.68
436.90	5078.96
437.09	5128.11
437.28	5135.14
437.46	5121.09
437.65	5172.58
437.84	5217.05
438.02	5158.54
438.21	5167.90
438.40	5123.43
438.58	5376.21
438.77	5390.25
438.96	5411.32
439.14	5521.32
439.33	5483.88
439.52	5666.44
439.70	5664.10
439.89	5591.54
440.08	5727.29
440.26	5551.75
440.45	5523.66
440.63	5823.25
440.82	5944.96
441.01	5921.56
441.19	5998.79
441.38	5982.41
441.57	6064.33
441.75	6171.99
441.94	6148.59
442.12	6085.39
442.31	6230.51
442.50	6293.70
442.68	6286.68
442.87	6197.74
443.05	6221.14
443.24	6396.68
443.43	6352.21
443.61	6349.87
443.80	6635.42
443.98	6417.75
444.17	6207.10
444.35	6384.98
444.54	6511.37
444.73	6399.02
444.91	6333.49
445.10	6368.60
445.28	6462.22
445.47	6171.99
445.65	6225.82
445.84	6553.50
446.02	6413.07
446.21	6368.60
446.39	6403.71
446.58	6574.56
446.77	6492.65
446.95	6487.96
447.14	6513.71
447.32	6825.00
447.51	6579.25
447.69	6471.58
447.88	6523.07
448.06	6541.80
448.25	6558.18
448.43	6682.23
448.62	6539.46
448.80	6672.87
448.99	6750.10
449.17	6773.51
449.36	6719.68
449.54	6899.90
449.73	6846.07
449.91	7145.66
450.10	6902.24
450.28	7037.99
450.46	7070.76
450.65	7295.45
450.83	7012.24
451.02	7030.97
451.20	7194.81
451.39	7176.08
451.57	6984.16
451.76	7005.22
451.94	7000.54
452.13	7199.49
452.31	6944.37
452.49	6923.30
452.68	7304.81
452.86	7049.69
453.05	7307.15
453.23	7143.32
453.42	7232.26
453.60	7138.63
453.78	7501.42
453.97	7339.92
454.15	7197.15
454.34	7185.44
454.52	7616.10
454.70	7473.33
454.89	7412.48
455.07	7655.89
455.26	7520.14
455.44	7686.32
455.62	7665.25
455.81	7555.25
455.99	7634.83
456.17	7871.22
456.36	7707.38
456.54	7861.86
456.73	7829.09
456.91	7934.42
457.09	7899.31
457.28	7915.69
457.46	8236.35
457.64	8056.12
457.83	7964.84
458.01	7852.50
458.19	8067.83
458.38	7908.67
458.56	8201.24
458.74	8009.31
458.93	7990.59
459.11	8093.57
459.29	8231.66
459.48	8168.47
459.66	8147.40
459.84	8198.90
460.03	8601.47
460.21	8491.46
460.39	8393.16
460.57	8582.74
460.76	8512.53
460.94	8521.89
461.12	8568.70
461.31	8655.30
461.49	8444.65
461.67	8329.97
461.85	8606.15
462.04	8690.41
462.22	9123.41
462.40	8863.61
462.59	8814.46
462.77	8840.20
462.95	8847.22
463.13	8746.58
463.32	8774.67
463.50	8926.80
463.68	8847.22
463.86	9062.55
464.05	8713.81
464.23	8671.68
464.41	8938.51
464.59	8760.63
464.78	8994.68
464.96	8959.57
465.14	8978.30
465.32	9071.92
465.50	9020.42
465.69	9011.06
465.87	9170.22
466.05	9015.74
466.23	9085.96
466.41	9172.56
466.60	9266.18
466.78	9034.47
466.96	9067.24
467.14	9121.07
467.32	9198.31
467.51	9408.95
467.69	8917.44
467.87	9270.86
468.05	9282.56
468.23	9315.33
468.41	9528.32
468.60	9540.02
468.78	9497.89
468.96	9446.40
469.14	9518.96
469.32	9603.22
469.50	9249.80
469.69	9427.68
469.87	9750.67
470.05	9591.52
470.23	9596.20
470.41	9741.31
470.59	9944.94
470.77	9919.19
470.95	9947.28
471.14	9914.51
471.32	9738.97
471.50	10031.54
471.68	10122.82
471.86	10162.61
472.04	10253.89
472.22	10382.62
472.40	10136.86
472.58	10305.38
472.77	10429.43
472.95	10349.85
473.13	10904.56
473.31	10256.23
473.49	10310.06
473.67	10462.19
473.85	10609.65
474.03	10967.75
474.21	10740.72
474.39	11044.99
474.57	10892.85
474.75	11124.57
474.93	11272.02
475.12	11108.18
475.30	11133.93
475.48	11187.76
475.66	11059.03
475.84	10958.39
476.02	11131.59
476.20	11328.19
476.38	11665.23
476.56	11611.40
476.74	11723.74
476.92	11775.24
477.10	11845.45
477.28	11761.19
477.46	11939.07
477.64	11964.82
477.82	12222.28
478.00	12568.68
478.18	12411.86
478.36	12444.63
478.54	12765.28
478.72	12418.88
478.90	12802.73
479.08	13008.70
479.26	12912.74
479.44	13174.88
479.62	13118.70
479.80	13074.23
479.98	13446.38
480.16	13371.48
480.34	13460.42
480.52	13408.93
480.70	13645.32
480.88	13507.23
481.06	13675.75
481.24	13614.90
481.41	14071.30
481.59	14218.75
481.77	14230.46
481.95	14256.20
482.13	14356.85
482.31	14352.16
482.49	14705.59
482.67	14525.36
482.85	15016.88
483.03	14782.82
483.21	15103.48
483.39	15187.74
483.57	15005.17
483.74	15246.25
483.92	15407.75
484.10	15407.75
484.28	15765.85
484.46	15992.88
484.64	16374.39
484.82	15864.15
485.00	16177.78
485.18	16727.81
485.35	16400.13
485.53	15859.47
485.71	16074.80
485.89	16411.84
486.07	16292.47
486.25	16566.31
486.43	16542.91
486.61	16978.25
486.78	17057.82
486.96	17097.61
487.14	17525.93
487.32	17551.68
487.50	17523.59
487.68	17867.65
487.85	18242.14
488.03	18190.64
488.21	18651.73
488.39	18380.23
488.57	18665.77
488.75	18366.18
488.92	18871.74
489.10	19215.80
489.28	19346.87
489.46	19569.22
489.64	19466.24
489.81	20018.60
489.99	20287.76
490.17	20442.24
490.35	20500.75
490.53	19946.05
490.70	20411.81
490.88	20496.07
491.06	21076.52
491.24	20758.21
491.41	20592.03
491.59	20451.60
491.77	20716.08
491.95	21036.74
492.13	21301.22
492.30	21649.96
492.48	21727.19
492.66	21661.66
492.84	21685.06
493.01	22162.53
493.19	21671.02
493.37	21869.97
493.54	22244.45
493.72	22567.45
493.90	22267.86
494.08	22658.73
494.25	22771.07
494.43	22654.05
494.61	23346.84
494.79	23192.37
494.96	23159.60
495.14	23260.24
495.32	23608.98
495.49	23360.89
495.67	23976.45
495.85	24070.07
496.02	24004.53
496.20	24011.56
496.38	24135.60
496.55	24269.01
496.73	24999.26
496.91	24423.49
497.09	24692.65
497.26	24664.57
497.44	25163.10
497.62	24680.95
497.79	25436.94
497.97	24989.90
498.14	25336.30
498.32	25408.86
498.50	25635.89
498.67	25841.85
498.85	25621.84
499.03	25986.97
499.20	26181.23
499.38	25855.90
499.56	26256.13
499.73	26546.36
499.91	26401.24
500.08	26492.52
500.26	25923.77
500.44	26628.27
500.61	26338.05
500.79	26426.99
500.97	26735.94
501.14	27159.58
501.32	26925.52
501.49	27058.93
501.67	27335.12
501.84	27484.91
502.02	27335.12
502.20	27559.81
502.37	27847.69
502.55	27592.58
502.72	27931.95
502.90	28020.89
503.07	27920.25
503.25	28074.73
503.43	28264.31
503.60	28402.40
503.78	27796.20
503.95	28128.56
504.13	27835.99
504.30	28409.42
504.48	28416.44
504.65	28833.06
504.83	28978.17
505.01	29060.09
505.18	28783.91
505.36	28910.30
505.53	29165.42
505.71	29507.13
505.88	29905.02
506.06	29315.21
506.23	29514.16
506.41	29233.29
506.58	29605.44
506.76	29631.18
506.93	29759.91
507.11	29731.83
507.28	29762.25
507.46	29750.55
507.63	30178.87
507.81	29958.86
507.98	29874.60
508.16	30167.16
508.33	30190.57
508.50	30569.74
508.68	30380.15
508.85	31035.50
509.03	30895.07
509.20	31159.55
509.38	30799.11
509.55	31145.51
509.73	31414.67
509.90	31040.18
510.08	31255.51
510.25	31065.93
510.42	31487.23
510.60	31548.08
510.77	31878.10
510.95	31601.91
511.12	31711.92
511.30	32034.91
511.47	31971.72
511.64	32224.50
511.82	32346.20
511.99	32077.04
512.17	32135.56
512.34	32299.39
512.51	32371.95
512.69	32687.92
512.86	32247.90
513.04	32826.01
513.21	32629.41
513.38	32826.01
513.56	32746.44
513.73	32863.46
513.90	32847.08
514.08	32587.28
514.25	32945.38
514.43	33069.43
514.60	33617.11
514.77	33134.96
514.95	33331.57
515.12	33181.77
515.29	33677.97
515.47	34026.71
515.64	33825.42
515.81	33809.04
515.99	33455.62
516.16	33799.68
516.33	33362.00
516.51	33785.63
516.68	33266.03
516.85	33448.60
517.03	33460.30
517.20	33766.91
517.37	33804.36
517.54	34263.10
517.72	34136.71
517.89	33773.93
518.06	34150.76
518.24	33874.57
518.41	34298.21
518.58	34113.31
518.75	34686.74
518.93	34710.14
519.10	34895.05
519.27	34616.52
519.45	34836.53
519.62	35269.53
519.79	35475.50
519.96	35714.23
520.14	35374.86
520.31	35077.61
520.48	35257.83
520.65	35157.19
520.83	35662.74
521.00	36027.87
521.17	35534.01
521.34	35992.76
521.52	36133.19
521.69	36018.50
521.86	36392.99
522.03	36238.51
522.20	36062.97
522.38	36126.17
522.55	36390.65
522.72	36245.54
522.89	36177.66
523.07	35901.48
523.24	36524.06
523.41	36645.77
523.58	36987.49
523.75	36978.12
523.92	37172.39
524.10	37001.53
524.27	37156.00
524.44	37448.57
524.61	37324.52
524.78	37556.24
524.96	37570.28
525.13	37577.30
525.30	37855.82
525.47	38127.33
525.64	37560.92
525.81	37729.44
525.98	36926.63
526.16	37301.12
526.33	37116.22
526.50	37589.00
526.67	37273.03
526.84	37357.29
527.01	37144.30
527.18	37783.27
527.36	38134.35
527.53	38066.47
527.70	38101.58
527.87	38415.21
528.04	38553.30
528.21	38742.89
528.38	38110.94
528.55	38717.14
528.72	38918.43
528.89	38876.30
529.07	38621.18
529.24	38593.09
529.41	38934.81
529.58	38354.36
529.75	38192.86
529.92	38845.87
530.09	38698.42
530.26	39264.83
530.43	39482.50
530.60	39159.50
530.77	39323.34
530.94	39295.25
531.11	38878.64
531.28	38967.58
531.46	39442.71
531.63	39594.84
531.80	39566.76
531.97	39260.15
532.14	39414.62
532.31	39140.78
532.48	39292.91
532.65	39643.99
532.82	39803.15
532.99	39948.26
533.16	39604.20
533.33	39803.15
533.50	39981.03
533.67	39744.64
533.84	39903.79
534.01	40025.50
534.18	39978.69
534.35	40601.27
534.52	40294.66
534.69	40341.47
534.86	40385.94
535.03	40069.97
535.20	40500.63
535.37	40460.84
535.54	40910.22
535.71	40971.08
535.88	40875.12
536.05	40622.34
536.22	40835.33
536.38	40746.39
536.55	40985.12
536.72	40823.62
536.89	40547.44
537.06	40814.26
537.23	40809.58
537.40	40797.88
537.57	41015.55
537.74	41053.00
537.91	41509.40
538.08	41158.32
538.25	41284.71
538.42	41139.60
538.59	41001.50
538.75	41350.24
538.92	41345.56
539.09	41261.30
539.26	41158.32
539.43	41588.98
539.60	41102.15
539.77	41198.11
539.94	41584.30
540.11	41612.38
540.28	41378.33
540.44	41790.27
540.61	41621.75
540.78	41570.25
540.95	41673.24
541.12	41820.69
541.29	41869.84
541.46	41984.53
541.62	41680.26
541.79	42113.26
541.96	41432.16
542.13	41888.57
542.30	42127.30
542.47	41832.39
542.63	41708.35
542.80	42249.01
542.97	42513.49
543.14	42450.30
543.31	42337.95
543.48	42377.74
543.64	43098.62
543.81	43115.01
543.98	43122.03
544.15	42780.31
544.32	42607.11
544.48	43173.52
544.65	42878.61
544.82	43222.67
544.99	43040.11
545.16	43217.99
545.32	42820.10
545.49	43852.28
545.66	43522.26
545.83	43384.17
546.00	43194.59
546.16	42784.99
546.33	43349.06
546.50	42831.80
546.67	43421.62
546.83	42892.66
547.00	43232.04
547.17	43346.72
547.34	43133.73
547.50	43040.11
547.67	43510.56
547.84	43241.40
548.00	43777.38
548.17	43945.90
548.34	44030.16
548.51	43978.67
548.67	43489.49
548.84	43728.23
549.01	43648.65
549.18	43622.90
549.34	43995.05
549.51	44322.72
549.68	44189.31
549.84	44025.48
550.01	44025.48
550.18	43983.35
550.34	44170.59
550.51	43868.66
550.68	43896.75
550.84	43789.08
551.01	43856.96
551.18	44081.65
551.34	43917.81
551.51	44296.98
551.68	44524.01
551.84	44570.82
552.01	44224.42
552.18	44411.67
552.34	44083.99
552.51	44210.38
552.68	44371.88
552.84	44498.26
553.01	44584.86
553.18	44360.17
553.34	44442.09
553.51	44357.83
553.67	45015.52
553.84	45088.08
554.01	44439.75
554.17	44582.52
554.34	44814.24
554.51	44741.68
554.67	44624.65
554.84	44666.78
555.00	44432.73
555.17	44809.56
555.33	45113.83
555.50	44868.07
555.67	44772.11
555.83	44488.90
556.00	45102.12
556.16	45118.51
556.33	45081.06
556.50	45359.58
556.66	45181.70
556.83	44715.93
556.99	45275.32
557.16	45338.52
557.32	44945.31
557.49	45041.27
557.65	44973.39
557.82	45095.10
557.98	45326.81
558.15	45354.90
558.32	45268.30
558.48	45144.25
558.65	45366.60
558.81	44992.12
558.98	45404.05
559.14	45076.38
559.31	44996.80
559.47	45296.39
559.64	45544.48
559.80	45603.00
559.97	45380.65
560.13	45261.28
560.30	45361.92
560.46	45668.53
560.63	45198.09
560.79	45717.68
560.96	45705.98
561.12	45525.76
561.29	45462.57
561.45	45413.41
561.61	45581.93
561.78	45521.08
561.94	45460.23
562.11	45387.67
562.27	45247.24
562.44	45422.78
562.60	45787.90
562.77	45879.18
562.93	45532.78
563.10	45968.12
563.26	45492.99
563.42	46026.63
563.59	45471.93
563.75	45701.30
563.92	46167.07
564.08	45591.30
564.24	45893.22
564.41	45649.81
564.57	45867.48
564.74	45902.59
564.90	46005.57
565.07	45832.37
565.23	45734.07
565.39	45457.88
565.56	46185.79
565.72	45624.06
565.88	45518.74
566.05	45776.20
566.21	45827.69
566.38	45418.10
566.54	45984.51
566.70	45588.95
566.87	45963.44
567.03	46227.92
567.19	46513.47
567.36	46232.60
567.52	45797.26
567.68	46017.27
567.85	45734.07
568.01	45738.75
568.17	45696.62
568.34	46080.47
568.50	46057.06
568.66	45790.24
568.83	46089.83
568.99	45797.26
569.15	45553.85
569.32	46260.69
569.48	45918.97
569.64	46101.53
569.81	45734.07
569.97	45701.30
570.13	46061.74
570.30	45991.53
570.46	45933.01
570.62	45928.33
570.78	45764.49
570.95	45832.37
571.11	46277.07
571.27	46204.52
571.43	45982.16
571.60	46216.22
571.76	46024.29
571.92	46000.89
572.09	46272.39
572.25	46234.94
572.41	46169.41
572.57	46124.94
572.74	46691.35
572.90	46169.41
573.06	46115.58
573.22	45911.95
573.38	46256.01
573.55	46010.25
573.71	46190.47
573.87	46265.37
574.03	46246.65
574.20	46314.52
574.36	45757.47
574.52	46431.55
574.68	46246.65
574.84	45923.65
575.01	46497.08
575.17	46197.49
575.33	45825.35
575.49	45837.05
575.65	46590.70
575.82	46450.27
575.98	45874.50
576.14	46314.52
576.30	46674.96
576.46	46244.30
576.62	46129.62
576.79	46160.05
576.95	45914.29
577.11	46604.75
577.27	46103.87
577.43	46183.45
577.59	46293.46
577.75	46274.73
577.92	45827.69
578.08	45968.12
578.24	46157.70
578.40	46127.28
578.56	45940.04
578.72	46511.13
578.88	46595.38
579.04	46117.92
579.21	46492.40
579.37	46342.61
579.53	46131.96
579.69	45865.14
579.85	46183.45
580.01	46452.61
580.17	46237.28
580.33	46316.86
580.49	46567.30
580.65	46326.22
580.82	46445.59
580.98	46424.53
581.14	46157.70
581.30	46632.83
581.46	46351.97
581.62	46277.07
581.78	46197.49
581.94	46890.29
582.10	46335.59
582.26	46667.94
582.42	46171.75
582.58	46611.77
582.74	46043.02
582.90	46520.49
583.06	46373.03
583.22	46799.01
583.38	46880.93
583.54	46658.58
583.70	46525.17
583.86	46171.75
584.02	46082.81
584.18	46218.56
584.34	46396.44
584.50	46693.69
584.66	46279.41
584.82	46447.93
584.98	46396.44
585.14	46190.47
585.30	46150.68
585.46	46248.99
585.62	46513.47
585.78	46227.92
585.94	46452.61
586.10	46293.46
586.26	46368.35
586.42	46567.30
586.58	46527.51
586.74	46518.15
586.90	46333.24
587.06	45961.10
587.22	46602.41
587.38	46113.23
587.54	46557.94
587.70	46363.67
587.86	46429.21
588.02	46609.43
588.18	46749.86
588.34	46539.21
588.49	46120.26
588.65	45935.35
588.81	46234.94
588.97	46089.83
589.13	46073.45
589.29	46005.57
589.45	46422.19
589.61	46321.54
589.77	46447.93
589.93	46632.83
