SpectraSuite Data File
++++++++++++++++++++++++++++++++++++
Date: Fri Oct 25 11:23:39 EDT 2013
User: price-jones
Dark Spectrum Present: No
Reference Spectrum Present: No
Number of Sampled Component Spectra: 1
Spectrometers: USB2+H05261
Integration Time (usec): 100000 (USB2+H05261)
Spectra Averaged: 1 (USB2+H05261)
Boxcar Smoothing: 0 (USB2+H05261)
Correct for Electrical Dark: No (USB2+H05261)
Strobe/Lamp Enabled: No (USB2+H05261)
Correct for Detector Non-linearity: No (USB2+H05261)
Correct for Stray Light: No (USB2+H05261)
Number of Pixels in Processed Spectrum: 2048
>>>>>Begin Processed Spectral Data<<<<<
365.73	259.80
365.92	259.80
366.12	259.80
366.32	138.09
366.52	128.73
366.72	154.48
366.91	91.28
367.11	77.24
367.31	105.32
367.51	187.24
367.70	135.75
367.90	156.82
368.10	182.56
368.30	72.56
368.49	112.35
368.69	98.30
368.89	88.94
369.09	140.43
369.28	170.86
369.48	220.01
369.68	145.11
369.87	222.35
370.07	182.56
370.27	163.84
370.47	330.02
370.66	601.52
370.86	624.92
371.06	706.84
371.25	741.95
371.45	660.03
371.65	685.78
371.84	678.76
372.04	688.12
372.24	720.88
372.44	674.07
372.63	655.35
372.83	697.48
373.03	755.99
373.22	758.33
373.42	786.42
373.62	734.93
373.81	770.04
374.01	770.04
374.21	774.72
374.40	828.55
374.60	858.98
374.79	814.51
374.99	755.99
375.19	807.48
375.38	753.65
375.58	915.15
375.78	812.17
375.97	777.06
376.17	896.43
376.37	763.01
376.56	800.46
376.76	901.11
376.95	926.85
377.15	873.02
377.35	908.13
377.54	863.66
377.74	837.91
377.93	856.64
378.13	940.90
378.33	943.24
378.52	938.55
378.72	1020.47
378.91	1011.11
379.11	912.81
379.31	889.40
379.50	938.55
379.70	990.05
379.89	889.40
380.09	954.94
380.28	1020.47
380.48	947.92
380.68	952.60
380.87	1001.75
381.07	1004.09
381.26	1036.86
381.46	1025.15
381.65	968.98
381.85	1020.47
382.04	973.66
382.24	1078.99
382.43	1116.44
382.63	1057.92
382.83	1060.26
383.02	1081.33
383.22	1114.10
383.41	1165.59
383.61	1027.50
383.80	1205.38
384.00	1090.69
384.19	1041.54
384.39	1177.29
384.58	1093.03
384.78	1130.48
384.97	1142.18
385.17	1107.07
385.36	1172.61
385.56	1137.50
385.75	1057.92
385.95	1193.67
386.14	1231.12
386.34	1200.69
386.53	1123.46
386.72	1165.59
386.92	1268.57
387.11	1240.48
387.31	1259.21
387.50	1167.93
387.70	1226.44
387.89	1315.38
388.09	1242.82
388.28	1310.70
388.48	1184.31
388.67	1268.57
388.86	1266.23
389.06	1341.13
389.25	1315.38
389.45	1423.05
389.64	1432.41
389.84	1345.81
390.03	1317.72
390.22	1448.79
390.42	1390.28
390.61	1364.53
390.81	1369.21
391.00	1397.30
391.19	1434.75
391.39	1453.47
391.58	1458.15
391.78	1467.52
391.97	1530.71
392.16	1516.67
392.36	1511.99
392.55	1540.07
392.75	1486.24
392.94	1572.84
393.13	1502.62
393.33	1509.65
393.52	1582.20
393.71	1629.01
393.91	1568.16
394.10	1591.56
394.29	1584.54
394.49	1617.31
394.68	1619.65
394.88	1565.82
395.07	1640.72
395.26	1668.80
395.46	1661.78
395.65	1605.61
395.84	1762.42
396.04	1755.40
396.23	1729.66
396.42	1832.64
396.62	1755.40
396.81	1750.72
397.00	1769.44
397.19	1661.78
397.39	1722.63
397.58	1863.07
397.77	1792.85
397.97	1867.75
398.16	1872.43
398.35	1940.30
398.55	1818.60
398.74	1785.83
398.93	1975.41
399.12	1865.41
399.32	1912.22
399.51	1912.22
399.70	2012.86
399.90	2029.24
400.09	2012.86
400.28	1991.80
400.47	2033.93
400.67	2183.72
400.86	2069.03
401.05	2045.63
401.24	2090.10
401.44	2094.78
401.63	2104.14
401.82	2190.74
402.01	2139.25
402.21	2073.71
402.40	2256.28
402.59	2176.70
402.78	2174.36
402.97	2225.85
403.17	2251.60
403.36	2242.23
403.55	2218.83
403.74	2373.30
403.93	2349.90
404.13	2375.64
404.32	2389.69
404.51	2366.28
404.70	2513.74
404.89	2373.30
405.09	2525.44
405.28	2483.31
405.47	2504.37
405.66	2523.10
405.85	2532.46
406.05	2452.88
406.24	2455.22
406.43	2527.78
406.62	2562.89
406.81	2642.46
407.00	2562.89
407.20	2612.04
407.39	2581.61
407.58	2703.32
407.77	2724.38
407.96	2813.32
408.15	2696.30
408.34	2597.99
408.54	2780.56
408.73	2754.81
408.92	2736.09
409.11	2860.13
409.30	2860.13
409.49	2841.41
409.68	2890.56
409.87	2925.67
410.07	3038.02
410.26	2995.89
410.45	3040.36
410.64	3073.12
410.83	3131.64
411.02	3028.65
411.21	3143.34
411.40	3105.89
411.59	3136.32
411.78	3178.45
411.98	3091.85
412.17	3356.33
412.36	3363.35
412.55	3262.71
412.74	3351.65
412.93	3428.88
413.12	3248.66
413.31	3590.38
413.50	3349.31
413.69	3583.36
413.88	3527.19
414.07	3548.25
414.26	3662.94
414.45	3688.68
414.64	3611.45
414.83	3817.41
415.02	3754.22
415.22	3779.97
415.41	3894.65
415.60	3889.97
415.79	3899.33
415.98	3955.51
416.17	3929.76
416.36	3892.31
416.55	3960.19
416.74	4133.39
416.93	4177.86
417.12	4004.66
417.31	4046.79
417.50	4196.58
417.69	4257.43
417.88	4320.63
418.07	4159.13
418.26	4290.20
418.45	4283.18
418.64	4423.61
418.83	4388.50
419.02	4423.61
419.21	4456.38
419.39	4477.44
419.58	4344.03
419.77	4458.72
419.96	4624.90
420.15	4578.09
420.34	4528.94
420.53	4652.98
420.72	4648.30
420.91	4732.56
421.10	4692.77
421.29	4737.24
421.48	4697.46
421.67	4704.48
421.86	4812.14
422.05	4819.16
422.24	4917.47
422.43	4957.25
422.61	4858.95
422.80	4877.68
422.99	4830.87
423.18	4924.49
423.37	4938.53
423.56	4910.44
423.75	4833.21
423.94	4828.53
424.13	4727.88
424.32	4774.69
424.50	4978.32
424.69	4964.28
424.88	5109.39
425.07	4931.51
425.26	4830.87
425.45	4744.27
425.64	4919.81
425.83	5004.07
426.01	5011.09
426.20	5111.73
426.39	5020.45
426.58	4990.02
426.77	5205.35
426.96	5226.42
427.15	5100.03
427.33	5280.25
427.52	5179.61
427.71	5341.10
427.90	5179.61
428.09	5249.82
428.28	5305.99
428.46	5378.55
428.65	5341.10
428.84	5640.69
429.03	5359.83
429.22	5467.49
429.40	5565.79
429.59	5462.81
429.78	5116.41
429.97	5378.55
430.16	5404.30
430.34	5472.17
430.53	5563.45
430.72	5636.01
430.91	5586.86
431.10	5664.10
431.28	5738.99
431.47	5839.64
431.66	5849.00
431.85	5640.69
432.03	5926.24
432.22	6043.26
432.41	5895.81
432.60	5867.72
432.79	5788.14
432.97	5956.66
433.16	6078.37
433.35	6029.22
433.54	6036.24
433.72	6167.31
433.91	6181.35
434.10	6232.85
434.28	6143.91
434.47	6289.02
434.66	6195.40
434.85	6361.58
435.03	6380.30
435.22	6284.34
435.41	6450.52
435.59	6518.39
435.78	6478.60
435.97	6448.18
436.16	6310.08
436.34	6335.83
436.53	6260.93
436.72	6817.98
436.90	6310.08
437.09	6588.61
437.28	6530.09
437.46	6541.80
437.65	6565.20
437.84	6686.91
438.02	6705.63
438.21	6630.74
438.40	6689.25
438.58	7178.42
438.77	7035.65
438.96	6909.26
439.14	7187.79
439.33	7119.91
439.52	7243.96
439.70	7124.59
439.89	7344.60
440.08	7304.81
440.26	7332.90
440.45	7487.37
440.63	7452.27
440.82	7559.93
441.01	7550.57
441.19	7564.61
441.38	7810.37
441.57	7660.57
441.75	7714.41
441.94	7960.16
442.12	7852.50
442.31	8072.51
442.50	8070.17
442.68	7843.14
442.87	7971.86
443.05	8173.15
443.24	8079.53
443.43	8126.34
443.61	8081.87
443.80	8402.52
443.98	8004.63
444.17	8084.21
444.35	8315.92
444.54	8472.74
444.73	8421.25
444.91	8458.70
445.10	8379.12
445.28	8496.14
445.47	8344.01
445.65	8231.66
445.84	8498.49
446.02	8545.30
446.21	8407.20
446.39	8505.51
446.58	8496.14
446.77	8435.29
446.95	8418.91
447.14	8397.84
447.32	8638.92
447.51	8690.41
447.69	8559.34
447.88	8526.57
448.06	8500.83
448.25	8379.12
448.43	8676.37
448.62	8517.21
448.80	8648.28
448.99	8744.24
449.17	8678.71
449.36	8760.63
449.54	8872.97
449.73	8917.44
449.91	9001.70
450.10	8966.59
450.28	9041.49
450.46	9160.86
450.65	9050.85
450.83	9062.55
451.02	8788.71
451.20	9231.07
451.39	9004.04
451.57	9022.77
451.76	8903.40
451.94	9221.71
452.13	9387.89
452.31	9312.99
452.49	9191.28
452.68	9441.72
452.86	9479.17
453.05	9310.65
453.23	9462.79
453.42	9390.23
453.60	9322.35
453.78	9495.55
453.97	9371.50
454.15	9373.85
454.34	9486.19
454.52	9802.16
454.70	9661.73
454.89	9771.74
455.07	9701.52
455.26	9736.63
455.44	9994.09
455.62	9923.87
455.81	9802.16
455.99	9912.17
456.17	9870.04
456.36	10153.24
456.54	10171.97
456.73	10186.01
456.91	10569.86
457.09	10441.13
457.28	10424.75
457.46	10242.18
457.64	10548.79
457.83	10471.56
458.01	10595.61
458.19	10668.16
458.38	10593.26
458.56	10736.04
458.74	10541.77
458.93	10696.25
459.11	10836.68
459.29	10864.77
459.48	10740.72
459.66	10794.55
459.84	11033.29
460.03	11084.78
460.21	10939.66
460.39	11009.88
460.57	11091.80
460.76	11222.87
460.94	11339.90
461.12	11307.13
461.31	11019.24
461.49	11157.33
461.67	11239.25
461.85	11442.88
462.04	11293.08
462.22	11440.54
462.40	11524.80
462.59	11459.26
462.77	11527.14
462.95	11564.59
463.13	11527.14
463.32	11527.14
463.50	11882.90
463.68	11772.89
463.86	11871.20
464.05	11782.26
464.23	11662.89
464.41	11761.19
464.59	11833.75
464.78	12002.27
464.96	11894.60
465.14	11950.78
465.32	12039.72
465.50	11960.14
465.69	12025.67
465.87	12091.21
466.05	12264.41
466.23	12131.00
466.41	12170.79
466.60	12365.05
466.78	12264.41
466.96	12250.36
467.14	12461.01
467.32	12390.80
467.51	12521.87
467.69	12205.89
467.87	12636.55
468.05	12400.16
468.23	12463.35
468.41	12458.67
468.60	12692.73
468.78	12933.80
468.96	12683.36
469.14	12765.28
469.32	12858.90
469.50	12674.00
469.69	13146.79
469.87	13067.21
470.05	13322.33
470.23	13151.47
470.41	13006.36
470.59	13291.90
470.77	13329.35
470.95	13387.86
471.14	13439.36
471.32	13217.01
471.50	13453.40
471.68	13734.26
471.86	13806.82
472.04	13692.13
472.22	14134.50
472.40	13668.73
472.58	13713.20
472.77	14157.90
472.95	14260.88
473.13	14595.58
473.31	14169.60
473.49	14061.94
473.67	14384.93
473.85	14483.24
474.03	14544.09
474.21	14441.11
474.39	14843.68
474.57	14883.47
474.75	14724.31
474.93	15143.27
475.12	15070.71
475.30	15281.36
475.48	15096.46
475.66	15398.38
475.84	15171.35
476.02	15447.54
476.20	15573.92
476.38	15826.70
476.56	15815.00
476.74	15957.77
476.92	15747.12
477.10	15770.53
477.28	16039.69
477.46	16109.91
477.64	16306.51
477.82	16304.17
478.00	16732.49
478.18	16755.90
478.36	17090.59
478.54	16996.97
478.72	17139.74
478.90	17486.14
479.08	17422.95
479.26	17462.74
479.44	17600.83
479.62	17994.04
479.80	18012.76
479.98	18239.79
480.16	18504.28
480.34	18291.29
480.52	18593.22
480.70	18579.17
480.88	18274.90
481.06	18511.30
481.24	18541.72
481.41	19278.99
481.59	19761.14
481.77	19711.99
481.95	19417.08
482.13	19983.49
482.31	19740.08
482.49	20669.27
482.67	20020.94
482.85	20421.17
483.03	20688.00
483.21	20936.09
483.39	20751.19
483.57	20746.51
483.74	20886.94
483.92	21610.17
484.10	21041.42
484.28	21507.18
484.46	21811.45
484.64	22565.10
484.82	22118.06
485.00	22239.77
485.18	22916.19
485.35	22934.91
485.53	22932.57
485.71	23007.47
485.89	23632.39
486.07	23239.18
486.25	23316.42
486.43	23983.47
486.61	23913.25
486.78	24301.78
486.96	24142.63
487.14	24573.28
487.32	24673.93
487.50	25057.78
487.68	25392.47
487.85	25497.80
488.03	25785.68
488.21	25785.68
488.39	25673.34
488.57	26256.13
488.75	26183.57
488.92	26464.44
489.10	27091.70
489.28	26698.49
489.46	27012.12
489.64	26934.88
489.81	27662.79
489.99	27360.86
490.17	27950.68
490.35	28437.51
490.53	28388.36
490.70	28673.90
490.88	28409.42
491.06	28826.04
491.24	28755.82
491.41	28931.36
491.59	29380.74
491.77	29336.27
491.95	29790.34
492.13	29902.68
492.30	30157.80
492.48	29954.18
492.66	30136.74
492.84	30307.60
493.01	31030.82
493.19	30651.66
493.37	30838.90
493.54	31087.00
493.72	31068.27
493.90	31452.12
494.08	32044.27
494.25	31882.78
494.43	32154.28
494.61	32521.74
494.79	32491.32
494.96	32477.27
495.14	32662.18
495.32	33364.34
495.49	33062.41
495.67	33366.68
495.85	33493.07
496.02	33752.87
496.20	34197.57
496.38	34101.61
496.55	34033.73
496.73	34829.51
496.91	34689.08
497.09	34848.24
497.26	34829.51
497.44	34969.94
497.62	35412.31
497.79	35887.43
497.97	35370.18
498.14	35892.12
498.32	36285.33
498.50	36315.75
498.67	36568.53
498.85	36589.59
499.03	36622.36
499.20	36584.91
499.38	37137.28
499.56	37207.50
499.73	37347.93
499.91	37666.24
500.08	37755.18
500.26	37298.78
500.44	37823.06
500.61	38309.89
500.79	37855.82
500.97	38019.66
501.14	38557.99
501.32	38307.55
501.49	38305.21
501.67	38820.13
501.84	38728.84
502.02	38859.91
502.20	39196.95
502.37	39318.66
502.55	39213.34
502.72	39707.19
502.90	39569.10
503.07	39576.12
503.25	39840.60
503.43	39732.93
503.60	40067.63
503.78	40067.63
503.95	40261.90
504.13	40449.14
504.30	40877.46
504.48	40849.37
504.65	41036.61
504.83	41163.00
505.01	41275.35
505.18	41104.49
505.36	41701.32
505.53	41514.08
505.71	41666.22
505.88	41909.63
506.06	41345.56
506.23	42225.60
506.41	42038.36
506.58	42572.00
506.76	42363.70
506.93	42712.44
507.11	42642.22
507.28	42639.88
507.46	42801.38
507.63	42909.04
507.81	43194.59
507.98	42979.26
508.16	43206.29
508.33	43779.72
508.50	43866.32
508.68	43716.53
508.85	44128.46
509.03	43370.13
509.20	44151.87
509.38	44261.87
509.55	44619.97
509.73	44360.17
509.90	44664.44
510.08	44634.02
510.25	44706.57
510.42	44451.45
510.60	44842.32
510.77	45139.57
510.95	45371.28
511.12	45507.04
511.30	45474.27
511.47	45745.77
511.64	45570.23
511.82	45958.76
511.99	45581.93
512.17	45982.16
512.34	45865.14
512.51	46597.73
512.69	46270.05
512.86	46433.89
513.04	46684.33
513.21	46909.02
513.38	46780.29
513.56	47278.82
513.73	46740.50
513.90	47283.50
514.08	47126.69
514.25	47459.04
514.43	47143.07
514.60	47334.99
514.77	47189.88
514.95	47922.47
515.12	47915.45
515.29	47576.07
515.47	47859.27
515.64	48130.78
515.81	47976.30
515.99	48357.81
516.16	48364.83
516.33	48285.25
516.51	48816.55
516.68	48568.46
516.85	48615.27
517.03	49254.23
517.20	48809.53
517.37	49132.53
517.54	48795.49
517.72	48973.37
517.89	49078.69
518.06	49127.84
518.24	49427.43
518.41	49247.21
518.58	49478.92
518.75	49235.51
518.93	49724.68
519.10	49556.16
519.27	49963.42
519.45	49799.58
519.62	49940.01
519.79	50042.99
519.96	50054.70
520.14	50291.09
520.31	50300.45
520.48	50796.65
520.65	50417.48
520.83	50686.64
521.00	50653.87
521.17	50674.94
521.34	50810.69
521.52	50934.74
521.69	50806.01
521.86	51159.43
522.03	51182.84
522.20	51653.28
522.38	51498.81
522.55	51503.49
522.72	51363.06
522.89	51215.60
523.07	51646.26
523.24	51426.25
523.41	51491.79
523.58	51468.38
523.75	51824.14
523.92	51683.71
524.10	51957.55
524.27	52097.98
524.44	52037.13
524.61	52046.49
524.78	52210.33
524.96	52310.97
525.13	52467.79
525.30	52224.37
525.47	52472.47
525.64	52538.01
525.81	52830.57
525.98	52729.93
526.16	52655.03
526.33	52484.17
526.50	53003.77
526.67	52968.66
526.84	53066.97
527.01	52729.93
527.18	53198.04
527.36	52891.43
527.53	52921.85
527.70	53752.74
527.87	53223.78
528.04	53066.97
528.21	53499.97
528.38	53247.19
528.55	53820.62
528.72	53228.46
528.89	53719.98
529.07	53240.17
529.24	53291.66
529.41	53389.96
529.58	53633.38
529.75	53638.06
529.92	53633.38
530.09	54033.61
530.26	54080.42
530.43	54024.25
530.60	53900.20
530.77	53935.30
530.94	54082.76
531.11	54089.78
531.28	54010.20
531.46	54131.91
531.63	54391.71
531.80	54188.08
531.97	54370.64
532.14	54501.71
532.31	54415.11
532.48	54794.28
532.65	54471.29
532.82	54700.66
532.99	54805.98
533.16	54574.27
533.33	55072.81
533.50	55079.83
533.67	54756.83
533.84	54703.00
534.01	54768.54
534.18	55047.06
534.35	55440.27
534.52	55173.45
534.69	55047.06
534.86	55201.53
535.03	55128.98
535.20	55545.59
535.37	55449.63
535.54	55407.50
535.71	55524.53
535.88	55423.89
536.05	55641.56
536.22	55423.89
536.38	55868.59
536.55	55702.41
536.72	55688.37
536.89	55592.40
537.06	55615.81
537.23	55840.50
537.40	55791.35
537.57	55545.59
537.74	55863.91
537.91	55962.21
538.08	55906.04
538.25	55442.61
538.42	55950.51
538.59	56179.88
538.75	56023.06
538.92	55950.51
539.09	56140.09
539.26	56229.03
539.43	56128.39
539.60	56210.31
539.77	56147.11
539.94	56559.05
540.11	56369.46
540.28	56509.89
540.44	56423.29
540.61	56154.13
540.78	56409.25
540.95	56643.30
541.12	56310.95
541.29	56306.27
541.46	56507.55
541.62	56610.54
541.79	56704.16
541.96	56343.72
542.13	56732.25
542.30	56996.73
542.47	56917.15
542.63	57048.22
542.80	56809.48
542.97	57134.82
543.14	57146.52
543.31	57322.06
543.48	57322.06
543.64	57481.22
543.81	57420.36
543.98	57340.78
544.15	57322.06
544.32	57642.71
544.48	57773.78
544.65	57132.48
544.82	57345.47
544.99	57190.99
545.16	57476.54
545.32	57303.34
545.49	57652.08
545.66	57738.68
545.83	57736.34
546.00	57797.19
546.16	57790.17
546.33	57556.11
546.50	57502.28
546.67	57951.66
546.83	57403.98
547.00	57792.51
547.17	57946.98
547.34	57968.05
547.50	58159.97
547.67	58202.10
547.84	58040.60
548.00	58120.18
548.17	58204.44
548.34	58113.16
548.51	58152.95
548.67	58230.19
548.84	58115.50
549.01	58131.89
549.18	58279.34
549.34	58370.62
549.51	58262.96
549.68	58284.02
549.84	58166.99
550.01	58590.63
550.18	58412.75
550.34	58511.05
550.51	58279.34
550.68	58599.99
550.84	58164.65
551.01	58829.37
551.18	58436.16
551.34	58623.40
551.51	58644.46
551.68	58630.42
551.84	58876.18
552.01	58761.49
552.18	58698.30
552.34	58548.50
552.51	58693.61
552.68	58712.34
552.84	58798.94
553.01	58941.71
553.18	58866.81
553.34	58784.90
553.51	58752.13
553.67	58878.52
553.84	59133.63
554.01	59000.22
554.17	59082.14
554.34	58951.07
554.51	59245.98
554.67	59133.63
554.84	58913.62
555.00	58920.65
555.17	59047.04
555.33	59023.63
555.50	58976.82
555.67	58965.12
555.83	58997.88
556.00	59192.15
556.16	59440.24
556.33	59489.40
556.50	59110.23
556.66	59316.20
556.83	59173.42
556.99	59311.52
557.16	59465.99
557.32	59709.41
557.49	59678.98
557.65	59442.59
557.82	59440.24
557.98	59168.74
558.15	59522.16
558.32	59552.59
558.48	59494.08
558.65	59379.39
558.81	59461.31
558.98	59372.37
559.14	59711.75
559.31	59594.72
559.47	59760.90
559.64	59908.35
559.80	59903.67
559.97	59774.94
560.13	59573.66
560.30	59814.73
560.46	59767.92
560.63	59767.92
560.79	59730.47
560.96	59896.65
561.12	60023.04
561.29	59992.61
561.45	59978.57
561.61	59650.89
561.78	59917.71
561.94	59798.35
562.11	59845.16
562.27	59700.04
562.44	60023.04
562.60	60177.51
562.77	60006.65
562.93	59964.52
563.10	60053.47
563.26	59927.08
563.42	60170.49
563.59	60196.24
563.75	60147.09
563.92	59943.46
564.08	60158.79
564.24	60189.22
564.41	60331.99
564.57	60184.54
564.74	60074.53
564.90	60254.75
565.07	60238.37
565.23	60324.97
565.39	60315.61
565.56	60142.41
565.72	60355.39
565.88	60245.39
566.05	60348.37
566.21	60100.28
566.38	60280.50
566.54	60350.71
566.70	60542.64
566.87	60346.03
567.03	60175.17
567.19	60512.21
567.36	60254.75
567.52	60427.95
567.68	60446.68
567.85	60392.84
568.01	60449.02
568.17	60423.27
568.34	60500.51
568.50	60540.30
568.66	60460.72
568.83	60488.80
568.99	60135.38
569.15	60481.78
569.32	60486.46
569.48	60385.82
569.64	60444.33
569.81	60453.70
569.97	60554.34
570.13	60465.40
570.30	60369.44
570.46	60549.66
570.62	60547.32
570.78	60544.98
570.95	60383.48
571.11	60711.16
571.27	60472.42
571.43	60587.11
571.60	60582.43
571.76	60736.90
571.92	60781.37
572.09	60561.36
572.25	60676.05
572.41	60647.96
572.57	60701.79
572.74	60678.39
572.90	60713.50
573.06	60818.82
573.22	60804.78
573.38	60727.54
573.55	60654.98
573.71	60865.63
573.87	60823.50
574.03	60640.94
574.20	60692.43
574.36	60626.90
574.52	60835.20
574.68	60753.29
574.84	60849.25
575.01	60746.26
575.17	60605.83
575.33	60954.57
575.49	60477.10
575.65	60903.08
575.82	60804.78
575.98	60718.18
576.14	61048.19
576.30	61045.85
576.46	60647.96
576.62	60779.03
576.79	60907.76
576.95	60769.67
577.11	60851.59
577.27	60996.70
577.43	60701.79
577.59	60732.22
577.75	60891.38
577.92	60692.43
578.08	60809.46
578.24	60935.85
578.40	60992.02
578.56	61003.72
578.72	60874.99
578.88	61111.39
579.04	61071.60
579.21	60818.82
579.37	61123.09
579.53	61010.74
579.69	60877.33
579.85	61003.72
580.01	60828.18
580.17	60793.07
580.33	60680.73
580.49	60914.78
580.65	60858.61
580.82	60884.36
580.98	60830.52
581.14	60846.91
581.30	61127.77
581.46	61080.96
581.62	60963.93
581.78	60917.12
581.94	61109.05
582.10	61045.85
582.26	60928.83
582.42	61001.38
582.58	61190.97
582.74	60926.49
582.90	61059.90
583.06	61132.45
583.22	60800.10
583.38	60804.78
583.54	60954.57
583.70	60963.93
583.86	61027.13
584.02	60905.42
584.18	61183.94
584.34	60992.02
584.50	61059.90
584.66	60912.44
584.82	60856.27
584.98	61176.92
585.14	61083.30
585.30	60933.51
585.46	60992.02
585.62	61158.20
585.78	61247.14
585.94	60818.82
586.10	61034.15
586.26	61078.62
586.42	61235.44
586.58	61062.24
586.74	61095.00
586.90	60935.85
587.06	61144.16
587.22	61181.60
587.38	60987.34
587.54	61219.05
587.70	61205.01
587.86	61130.11
588.02	60980.32
588.18	61235.44
588.34	61151.18
588.49	61223.73
