SpectraSuite Data File
++++++++++++++++++++++++++++++++++++
Date: Fri Oct 25 10:46:57 EDT 2013
User: price-jones
Dark Spectrum Present: No
Reference Spectrum Present: No
Number of Sampled Component Spectra: 1
Spectrometers: USB2+H05261
Integration Time (usec): 100000 (USB2+H05261)
Spectra Averaged: 1 (USB2+H05261)
Boxcar Smoothing: 0 (USB2+H05261)
Correct for Electrical Dark: No (USB2+H05261)
Strobe/Lamp Enabled: No (USB2+H05261)
Correct for Detector Non-linearity: No (USB2+H05261)
Correct for Stray Light: No (USB2+H05261)
Number of Pixels in Processed Spectrum: 2048
>>>>>Begin Processed Spectral Data<<<<<
365.73	126.39
365.92	126.39
366.12	126.39
366.32	25.75
366.52	56.17
366.72	67.88
366.91	14.04
367.11	0.00
367.31	35.11
367.51	0.00
367.70	56.17
367.90	32.77
368.10	42.13
368.30	0.00
368.49	35.11
368.69	60.85
368.89	100.64
369.09	72.56
369.28	58.51
369.48	42.13
369.68	140.43
369.87	126.39
370.07	114.69
370.27	100.64
370.47	177.88
370.66	428.32
370.86	388.53
371.06	442.36
371.25	477.47
371.45	510.24
371.65	496.19
371.84	491.51
372.04	418.96
372.24	510.24
372.44	500.87
372.63	456.40
372.83	531.30
373.03	496.19
373.22	491.51
373.42	479.81
373.62	566.41
373.81	514.92
374.01	531.30
374.21	592.16
374.40	561.73
374.60	601.52
374.79	685.78
374.99	645.99
375.19	601.52
375.38	582.79
375.58	533.64
375.78	631.94
375.97	648.33
376.17	575.77
376.37	660.03
376.56	695.14
376.76	648.33
376.95	594.50
377.15	620.24
377.35	648.33
377.54	688.12
377.74	624.92
377.93	601.52
378.13	634.29
378.33	692.80
378.52	683.44
378.72	746.63
378.91	702.16
379.11	720.88
379.31	650.67
379.50	631.94
379.70	664.71
379.89	704.50
380.09	807.48
380.28	667.05
380.48	669.39
380.68	664.71
380.87	690.46
381.07	695.14
381.26	720.88
381.46	763.01
381.65	650.67
381.85	690.46
382.04	720.88
382.24	669.39
382.43	660.03
382.63	697.48
382.83	760.67
383.02	847.27
383.22	727.91
383.41	704.50
383.61	758.33
383.80	802.80
384.00	772.38
384.19	781.74
384.39	723.23
384.58	821.53
384.78	814.51
384.97	791.10
385.17	781.74
385.36	809.83
385.56	770.04
385.75	866.00
385.95	805.14
386.14	786.42
386.34	903.45
386.53	807.48
386.72	828.55
386.92	880.04
387.11	858.98
387.31	940.90
387.50	826.21
387.70	858.98
387.89	887.06
388.09	943.24
388.28	905.79
388.48	887.06
388.67	1020.47
388.86	908.13
389.06	940.90
389.25	990.05
389.45	1022.81
389.64	1004.09
389.84	968.98
390.03	938.55
390.22	1046.22
390.42	1064.94
390.61	964.30
390.81	999.41
391.00	1036.86
391.19	1102.39
391.39	1090.69
391.58	994.73
391.78	1015.79
391.97	1043.88
392.16	1018.13
392.36	1118.78
392.55	1039.20
392.75	1006.43
392.94	1057.92
393.13	1006.43
393.33	1050.90
393.52	1057.92
393.71	1174.95
393.91	1121.12
394.10	1069.62
394.29	1181.97
394.49	1088.35
394.68	1149.20
394.88	1284.95
395.07	1242.82
395.26	1270.91
395.46	1261.55
395.65	1205.38
395.84	1224.10
396.04	1294.32
396.23	1280.27
396.42	1057.92
396.62	1165.59
396.81	1256.87
397.00	1188.99
397.19	1240.48
397.39	1308.36
397.58	1303.68
397.77	1355.17
397.97	1427.73
398.16	1380.92
398.35	1366.87
398.55	1420.71
398.74	1533.05
398.93	1418.36
399.12	1359.85
399.32	1364.53
399.51	1472.20
399.70	1511.99
399.90	1472.20
400.09	1502.62
400.28	1575.18
400.47	1565.82
400.67	1666.46
400.86	1633.69
401.05	1589.22
401.24	1673.48
401.44	1671.14
401.63	1739.02
401.82	1708.59
402.01	1577.52
402.21	1589.22
402.40	1736.68
402.59	1607.95
402.78	1664.12
402.97	1724.97
403.17	1748.38
403.36	1760.08
403.55	1776.47
403.74	1830.30
403.93	1825.62
404.13	1888.81
404.32	1884.13
404.51	1802.21
404.70	1839.66
404.89	1865.41
405.09	1898.17
405.28	1849.02
405.47	1877.11
405.66	1954.35
405.85	1975.41
406.05	1959.03
406.24	1949.67
406.43	1884.13
406.62	1996.48
406.81	2197.76
407.00	2092.44
407.20	2043.29
407.39	2024.56
407.58	2153.29
407.77	2019.88
407.96	2211.81
408.15	2169.68
408.34	2045.63
408.54	2122.87
408.73	2312.45
408.92	2232.87
409.11	2230.53
409.30	2251.60
409.49	2359.26
409.68	2256.28
409.87	2319.47
410.07	2251.60
410.26	2305.43
410.45	2286.70
410.64	2448.20
410.83	2387.35
411.02	2497.35
411.21	2499.69
411.40	2389.69
411.59	2438.84
411.78	2605.02
411.98	2469.27
412.17	2473.95
412.36	2558.21
412.55	2586.29
412.74	2609.70
412.93	2586.29
413.12	2705.66
413.31	2808.64
413.50	2757.15
413.69	2869.50
413.88	2731.41
414.07	2815.66
414.26	2930.35
414.45	2913.97
414.64	2902.26
414.83	2892.90
415.02	2925.67
415.22	2878.86
415.41	2995.89
415.60	3026.31
415.79	3169.09
415.98	3192.49
416.17	3150.36
416.36	3073.12
416.55	3171.43
416.74	3243.98
416.93	3061.42
417.12	3145.68
417.31	3197.17
417.50	3251.00
417.69	3339.94
417.88	3529.53
418.07	3255.69
418.26	3534.21
418.45	3447.61
418.64	3552.93
418.83	3344.63
419.02	3452.29
419.21	3569.32
419.39	3513.14
419.58	3442.93
419.77	3475.70
419.96	3583.36
420.15	3496.76
420.34	3616.13
420.53	3709.75
420.72	3866.56
420.91	3733.15
421.10	3803.37
421.29	3789.33
421.48	3623.15
421.67	3730.81
421.86	3749.54
422.05	3681.66
422.24	3779.97
422.43	3749.54
422.61	3763.58
422.80	3749.54
422.99	3939.12
423.18	3969.55
423.37	3861.88
423.56	3929.76
423.75	3796.35
423.94	3779.97
424.13	3602.08
424.32	3705.07
424.50	3866.56
424.69	3911.04
424.88	3864.22
425.07	3829.12
425.26	3850.18
425.45	3749.54
425.64	3772.94
425.83	3911.04
426.01	3880.61
426.20	4011.68
426.39	4014.02
426.58	3927.42
426.77	3716.77
426.96	3887.63
427.15	3836.14
427.33	4025.72
427.52	4025.72
427.71	3939.12
427.90	4138.07
428.09	4009.34
428.28	4088.92
428.46	4065.51
428.65	4128.70
428.84	4250.41
429.03	4224.67
429.22	3995.29
429.40	3981.25
429.59	4086.58
429.78	3995.29
429.97	3955.51
430.16	4049.13
430.34	3985.93
430.53	4135.73
430.72	4042.11
430.91	4189.56
431.10	4257.43
431.28	4484.47
431.47	4470.42
431.66	4503.19
431.85	4442.34
432.03	4533.62
432.22	4688.09
432.41	4648.30
432.60	4582.77
432.79	4638.94
432.97	4692.77
433.16	4624.90
433.35	4472.76
433.54	4650.64
433.72	4564.04
433.91	4587.45
434.10	4760.65
434.28	4510.21
434.47	4821.50
434.66	4847.25
434.85	4732.56
435.03	4891.72
435.22	4877.68
435.41	4983.00
435.59	4826.18
435.78	4901.08
435.97	4961.94
436.16	5064.92
436.34	5071.94
436.53	5121.09
436.72	5266.21
436.90	5116.41
437.09	5114.07
437.28	4973.64
437.46	5111.73
437.65	5160.88
437.84	5111.73
438.02	5022.79
438.21	5055.56
438.40	5090.67
438.58	5235.78
438.77	5275.57
438.96	5303.65
439.14	5439.40
439.33	5359.83
439.52	5427.70
439.70	5511.96
439.89	5760.06
440.08	5511.96
440.26	5720.27
440.45	5762.40
440.63	5643.03
440.82	5792.83
441.01	5748.36
441.19	5905.17
441.38	6036.24
441.57	5888.79
441.75	5921.56
441.94	6104.12
442.12	6279.66
442.31	6319.45
442.50	6209.44
442.68	6162.63
442.87	6232.85
443.05	6413.07
443.24	6401.37
443.43	6296.04
443.61	6317.11
443.80	6459.88
443.98	6361.58
444.17	6176.67
444.35	6307.74
444.54	6518.39
444.73	6410.73
444.91	6326.47
445.10	6399.02
445.28	6384.98
445.47	6242.21
445.65	6359.24
445.84	6406.05
446.02	6373.28
446.21	6452.86
446.39	6462.22
446.58	6459.88
446.77	6661.16
446.95	6693.93
447.14	6619.04
447.32	6604.99
447.51	6665.85
447.69	6436.47
447.88	6541.80
448.06	6604.99
448.25	6494.99
448.43	6518.39
448.62	6441.15
448.80	6558.18
448.99	6663.51
449.17	6729.04
449.36	6712.66
449.54	6775.85
449.73	6881.18
449.91	6991.18
450.10	6916.28
450.28	7005.22
450.46	7056.72
450.65	6965.43
450.83	7019.27
451.02	7005.22
451.20	7143.32
451.39	6956.07
451.57	6965.43
451.76	7124.59
451.94	7070.76
452.13	7236.94
452.31	7033.31
452.49	6979.48
452.68	6991.18
452.86	7033.31
453.05	7140.97
453.23	7112.89
453.42	7108.21
453.60	7176.08
453.78	7316.51
453.97	7082.46
454.15	7091.82
454.34	7187.79
454.52	7351.62
454.70	7281.41
454.89	7426.52
455.07	7297.79
455.26	7438.22
455.44	7557.59
455.62	7398.43
455.81	7728.45
455.99	7784.62
456.17	7744.83
456.36	7723.77
456.54	7763.56
456.73	7772.92
456.91	7969.52
457.09	7911.01
457.28	8063.15
457.46	7887.61
457.64	8098.25
457.83	7936.76
458.01	7847.82
458.19	8191.88
458.38	8116.98
458.56	8210.60
458.74	8051.44
458.93	8093.57
459.11	7939.10
459.29	8049.10
459.48	8252.73
459.66	8159.11
459.84	8353.37
460.03	8493.80
460.21	8383.80
460.39	8423.59
460.57	8322.94
460.76	8575.72
460.94	8402.52
461.12	8533.59
461.31	8468.06
461.49	8535.93
461.67	8273.79
461.85	8599.13
462.04	8528.91
462.22	8973.61
462.40	8854.25
462.59	8702.11
462.77	8641.26
462.95	8697.43
463.13	8638.92
463.32	8767.65
463.50	8699.77
463.68	8802.75
463.86	8737.22
464.05	8732.54
464.23	8840.20
464.41	8798.07
464.59	8629.56
464.78	9041.49
464.96	8840.20
465.14	8772.33
465.32	8936.17
465.50	9032.13
465.69	9104.68
465.87	9128.09
466.05	8999.36
466.23	9064.89
466.41	8947.87
466.60	9235.75
466.78	9048.51
466.96	9081.28
467.14	9128.09
467.32	9226.39
467.51	9301.29
467.69	8861.27
467.87	9242.78
468.05	9231.07
468.23	9331.72
468.41	9584.49
468.60	9273.20
468.78	9444.06
468.96	9320.01
469.14	9179.58
469.32	9551.73
469.50	9219.37
469.69	9476.83
469.87	9455.76
470.05	9516.62
470.23	9760.03
470.41	9753.01
470.59	9666.41
470.77	9675.77
470.95	9905.15
471.14	10015.15
471.32	9813.87
471.50	10101.75
471.68	10146.22
471.86	10040.90
472.04	10064.30
472.22	10328.78
472.40	10010.47
472.58	10120.48
472.77	10157.92
472.95	10260.91
473.13	10658.80
473.31	10373.25
473.49	10445.81
473.67	10499.64
473.85	10331.12
474.03	10572.20
474.21	10930.30
474.39	10747.74
474.57	10853.06
474.75	11115.20
474.93	11204.14
475.12	10927.96
475.30	11222.87
475.48	10923.28
475.66	11208.83
475.84	11222.87
476.02	10991.16
476.20	11208.83
476.38	11367.98
476.56	11606.72
476.74	11492.03
476.92	11470.97
477.10	11906.31
477.28	11658.21
477.46	11840.77
477.64	11885.24
477.82	12056.10
478.00	12425.90
478.18	12346.33
478.36	12468.03
478.54	12575.70
478.72	12573.36
478.90	12638.89
479.08	12917.42
479.26	12744.22
479.44	12826.14
479.62	12905.71
479.80	13123.38
479.98	13090.62
480.16	13390.20
480.34	13366.80
480.52	13591.49
480.70	13682.77
480.88	13380.84
481.06	13612.56
481.24	13659.37
481.41	13989.38
481.59	14104.07
481.77	14090.02
481.95	14359.19
482.13	14541.75
482.31	14218.75
482.49	14658.78
482.67	14743.03
482.85	15066.03
483.03	14752.40
483.21	14930.28
483.39	15192.42
483.57	15477.96
483.74	15309.44
483.92	15356.25
484.10	15335.19
484.28	15667.55
484.46	15789.25
484.64	15871.17
484.82	16212.89
485.00	16159.06
485.18	16264.38
485.35	16224.59
485.53	15976.50
485.71	15873.51
485.89	16102.89
486.07	16184.80
486.25	16730.15
486.43	16517.16
486.61	17022.72
486.78	17289.54
486.96	17249.75
487.14	17518.91
487.32	17343.37
487.50	17664.02
487.68	17799.77
487.85	18347.46
488.03	18164.90
488.21	18375.55
488.39	18246.82
488.57	18349.80
488.75	18721.95
488.92	18787.48
489.10	19070.68
489.28	19281.33
489.46	19213.46
489.64	19316.44
489.81	19473.26
489.99	19562.20
490.17	19903.92
490.35	19857.10
490.53	20032.65
490.70	20233.93
490.88	19974.13
491.06	20437.56
491.24	20664.59
491.41	20292.44
491.59	20753.53
491.77	20542.88
491.95	21043.76
492.13	20580.33
492.30	21046.10
492.48	21294.19
492.66	21427.60
492.84	21399.52
493.01	21872.31
493.19	21523.57
493.37	21907.41
493.54	22036.14
493.72	22185.94
493.90	22333.39
494.08	22602.55
494.25	22703.20
494.43	22810.86
494.61	22951.29
494.79	23173.64
494.96	23054.28
495.14	23400.68
495.32	23477.91
495.49	23241.52
495.67	23473.23
495.85	23616.01
496.02	23772.82
496.20	24020.92
496.38	24212.84
496.55	23946.02
496.73	24659.88
496.91	24360.30
497.09	24884.58
497.26	24723.08
497.44	24549.88
497.62	24629.46
497.79	24865.85
497.97	24900.96
498.14	25195.87
498.32	25198.21
498.50	25678.02
498.67	25467.37
498.85	25638.23
499.03	25783.34
499.20	25795.04
499.38	26057.18
499.56	26307.62
499.73	26148.46
499.91	26115.70
500.08	26415.29
500.26	26052.50
500.44	26375.50
500.61	26462.10
500.79	26848.29
500.97	26391.88
501.14	26675.09
501.32	26831.90
501.49	27115.11
501.67	26988.72
501.84	27175.96
502.02	27133.83
502.20	27316.39
502.37	27564.49
502.55	27702.58
502.72	27950.68
502.90	27817.27
503.07	27264.90
503.25	27571.51
503.43	27936.63
503.60	27875.78
503.78	28149.62
503.95	28009.19
504.13	27843.01
504.30	28091.11
504.48	28552.20
504.65	28517.09
504.83	28807.31
505.01	29008.60
505.18	28727.74
505.36	29401.81
505.53	28957.11
505.71	29504.79
505.88	29165.42
506.06	29165.42
506.23	29132.65
506.41	29369.04
506.58	29521.18
506.76	29689.70
506.93	29701.40
507.11	29495.43
507.28	29949.50
507.46	29322.23
507.63	29818.42
507.81	30286.53
507.98	29989.28
508.16	30089.93
508.33	30415.26
508.50	30349.73
508.68	30569.74
508.85	30838.90
509.03	30686.76
509.20	30834.22
509.38	31248.49
509.55	30918.48
509.73	31056.57
509.90	31117.42
510.08	30768.68
510.25	31569.15
510.42	31257.85
510.60	31484.89
510.77	31278.92
510.95	31634.68
511.12	31585.53
511.30	31608.93
511.47	32339.18
511.64	32201.09
511.82	31999.80
511.99	31765.75
512.17	32149.60
512.34	32315.78
512.51	32404.72
512.69	32187.05
512.86	32566.21
513.04	32842.40
513.21	32357.91
513.38	32369.61
513.56	32465.57
513.73	32587.28
513.90	32664.52
514.08	32718.35
514.25	32828.35
514.43	32910.27
514.60	33104.54
514.77	32994.53
514.95	33186.46
515.12	33244.97
515.29	33710.74
515.47	33617.11
515.64	34192.89
515.81	33584.35
515.99	33596.05
516.16	33600.73
516.33	33191.14
516.51	33479.02
516.68	33514.13
516.85	32975.81
517.03	33563.28
517.20	33708.40
517.37	33883.94
517.54	33872.23
517.72	34082.88
517.89	33825.42
518.06	33837.12
518.24	33940.11
518.41	33907.34
518.58	34068.84
518.75	34225.65
518.93	34483.11
519.10	34824.83
519.27	34314.59
519.45	34712.49
519.62	35168.89
519.79	35388.90
519.96	35360.81
520.14	35138.46
520.31	35232.08
520.48	35536.35
520.65	35475.50
520.83	35508.27
521.00	35363.15
521.17	35655.72
521.34	35690.83
521.52	35943.61
521.69	35910.84
521.86	36222.13
522.03	36311.07
522.20	35791.47
522.38	35819.56
522.55	36385.97
522.72	36151.91
522.89	35943.61
523.07	36577.89
523.24	36268.94
523.41	36545.12
523.58	36730.03
523.75	37184.09
523.92	37071.75
524.10	36547.47
524.27	37090.47
524.44	36856.42
524.61	37483.68
524.78	37298.78
524.96	37731.78
525.13	37661.56
525.30	37336.23
525.47	37813.70
525.64	37275.37
525.81	37312.82
525.98	37139.62
526.16	37666.24
526.33	37490.70
526.50	37624.11
526.67	37390.06
526.84	37612.41
527.01	37535.17
527.18	37673.26
527.36	37841.78
527.53	38014.98
527.70	38281.80
527.87	38043.07
528.04	38075.84
528.21	38272.44
528.38	37893.27
528.55	38483.09
528.72	38670.33
528.89	38806.08
529.07	38717.14
529.24	38307.55
529.41	38808.42
529.58	38354.36
529.75	38785.02
529.92	39112.69
530.09	38944.17
530.26	38782.68
530.43	39180.57
530.60	39000.35
530.77	39096.31
530.94	39480.16
531.11	38948.85
531.28	39313.98
531.46	39086.95
531.63	39098.65
531.80	39416.96
531.97	38944.17
532.14	39442.71
532.31	39299.94
532.48	39512.92
532.65	39894.43
532.82	39786.77
532.99	39924.86
533.16	38763.95
533.33	39573.78
533.50	39955.29
533.67	39651.02
533.84	39786.77
534.01	40100.40
534.18	39536.33
534.35	40275.94
534.52	40034.86
534.69	40325.09
534.86	40334.45
535.03	39887.41
535.20	40650.42
535.37	40694.89
535.54	40608.29
535.71	40123.80
535.88	40287.64
536.05	40399.99
536.22	40484.25
536.38	40854.05
536.55	40334.45
536.72	40598.93
536.89	40346.15
537.06	40746.39
537.23	40615.32
537.40	41151.30
537.57	40896.18
537.74	41137.26
537.91	41273.01
538.08	41134.92
538.25	40910.22
538.42	41439.18
538.59	41497.70
538.75	40898.52
538.92	41090.44
539.09	41537.49
539.26	41406.42
539.43	41677.92
539.60	41265.99
539.77	41118.53
539.94	41219.17
540.11	41294.07
540.28	41350.24
540.44	41284.71
540.61	41315.14
540.78	41357.27
540.95	41457.91
541.12	41291.73
541.29	41457.91
541.46	41698.98
541.62	41848.78
541.79	42256.03
541.96	41483.66
542.13	41518.76
542.30	41631.11
542.47	41771.54
542.63	41911.97
542.80	42071.13
542.97	42770.95
543.14	42827.12
543.31	42515.83
543.48	42527.53
543.64	42953.51
543.81	42689.03
543.98	42710.10
544.15	42602.43
544.32	42700.73
544.48	42742.86
544.65	42796.70
544.82	42777.97
544.99	42293.48
545.16	43297.57
545.32	42726.48
545.49	42997.98
545.66	43131.39
545.83	43143.09
546.00	43262.46
546.16	43168.84
546.33	43012.02
546.50	42710.10
546.67	42983.94
546.83	42988.62
547.00	43091.60
547.17	43295.23
547.34	43246.08
547.50	43384.17
547.67	43772.70
547.84	42920.74
548.00	43583.12
548.17	43487.15
548.34	43339.70
548.51	43606.52
548.67	43730.57
548.84	43779.72
549.01	43702.48
549.18	43203.95
549.34	43746.95
549.51	43552.69
549.68	44184.63
549.84	43538.65
550.01	44229.10
550.18	43948.24
550.34	44240.81
550.51	43695.46
550.68	43620.56
550.84	43821.85
551.01	44212.72
551.18	44161.23
551.34	44044.20
551.51	44051.22
551.68	44444.43
551.84	43847.60
552.01	43688.44
552.18	44304.00
552.34	43695.46
552.51	44252.51
552.68	44004.41
552.84	44091.01
553.01	44500.61
553.18	44493.58
553.34	44149.53
553.51	44289.96
553.67	44451.45
553.84	44854.03
554.01	44788.49
554.17	44528.69
554.34	44470.18
554.51	44739.34
554.67	44921.90
554.84	44540.39
555.00	44975.73
555.17	44664.44
555.33	44839.98
555.50	44577.84
555.67	44837.64
555.83	44278.25
556.00	44329.75
556.16	45127.87
556.33	45539.80
556.50	44968.71
556.66	45272.98
556.83	44659.76
556.99	44809.56
557.16	45223.83
557.32	45034.25
557.49	44889.13
557.65	44528.69
557.82	45457.88
557.98	44849.35
558.15	44849.35
558.32	44844.66
558.48	44828.28
558.65	45387.67
558.81	45361.92
558.98	45017.86
559.14	45015.52
559.31	45287.03
559.47	45059.99
559.64	45654.49
559.80	45123.19
559.97	45277.66
560.13	45050.63
560.30	45043.61
560.46	45567.89
560.63	45635.77
560.79	45792.58
560.96	45638.11
561.12	45574.91
561.29	45691.94
561.45	45713.00
561.61	45249.58
561.78	45364.26
561.94	45167.66
562.11	44982.76
562.27	45251.92
562.44	45177.02
562.60	45811.31
562.77	45818.33
562.93	45940.04
563.10	45907.27
563.26	45464.91
563.42	45832.37
563.59	45177.02
563.75	45691.94
563.92	46094.51
564.08	45420.44
564.24	45345.54
564.41	46106.21
564.57	45872.16
564.74	45574.91
564.90	45808.96
565.07	45975.14
565.23	45525.76
565.39	45647.47
565.56	45972.80
565.72	45741.09
565.88	45464.91
566.05	45448.52
566.21	45776.20
566.38	45794.92
566.54	45722.37
566.70	46110.89
566.87	46017.27
567.03	45928.33
567.19	45968.12
567.36	45790.24
567.52	45764.49
567.68	46092.17
567.85	45600.66
568.01	45638.11
568.17	45432.14
568.34	45851.09
568.50	45738.75
568.66	45893.22
568.83	46005.57
568.99	45811.31
569.15	45972.80
569.32	46031.32
569.48	45614.70
569.64	46244.30
569.81	45975.14
569.97	45970.46
570.13	45808.96
570.30	45780.88
570.46	45610.02
570.62	45654.49
570.78	45359.58
570.95	45954.08
571.11	45467.25
571.27	45298.73
571.43	45729.39
571.60	45977.48
571.76	46251.33
571.92	45476.61
572.09	45839.39
572.25	46101.53
572.41	45951.74
572.57	46199.83
572.74	46382.40
572.90	46396.44
573.06	45684.92
573.22	46017.27
573.38	46094.51
573.55	45893.22
573.71	46230.26
573.87	46288.77
574.03	46146.00
574.20	45998.55
574.36	46251.33
574.52	46588.36
574.68	46040.68
574.84	46085.15
575.01	46061.74
575.17	45947.06
575.33	45790.24
575.49	46298.14
575.65	46274.73
575.82	46174.09
575.98	46302.82
576.14	46635.17
576.30	46316.86
576.46	46241.96
576.62	46174.09
576.79	46131.96
576.95	45937.69
577.11	46155.36
577.27	46256.01
577.43	46248.99
577.59	46064.08
577.75	45928.33
577.92	46000.89
578.08	45495.33
578.24	45502.35
578.40	45888.54
578.56	45839.39
578.72	46045.36
578.88	46766.24
579.04	46096.85
579.21	46267.71
579.37	46281.75
579.53	45879.18
579.69	45928.33
579.85	46398.78
580.01	46258.35
580.17	46160.05
580.33	46387.08
580.49	46518.15
580.65	46653.90
580.82	46473.68
580.98	46134.30
581.14	46005.57
581.30	47068.17
581.46	46476.02
581.62	46553.26
581.78	46499.42
581.94	46862.21
582.10	45876.84
582.26	46153.02
582.42	46131.96
582.58	46300.48
582.74	46225.58
582.90	46284.09
583.06	46335.59
583.22	46136.64
583.38	46705.39
583.54	46279.41
583.70	46375.37
583.86	46773.27
584.02	46061.74
584.18	46593.04
584.34	46401.12
584.50	46429.21
584.66	46471.34
584.82	46436.23
584.98	46504.10
585.14	46113.23
585.30	46068.76
585.46	46131.96
585.62	45851.09
585.78	46377.72
585.94	46045.36
586.10	46618.79
586.26	46550.91
586.42	46777.95
586.58	46555.60
586.74	46553.26
586.90	46501.76
587.06	46129.62
587.22	46829.44
587.38	46110.89
587.54	46593.04
587.70	46494.74
587.86	46260.69
588.02	46543.89
588.18	46541.55
588.34	46300.48
588.49	45848.75
588.65	46216.22
588.81	45904.93
588.97	45752.79
589.13	46153.02
589.29	45977.48
589.45	46377.72
589.61	46410.48
589.77	46445.59
589.93	46293.46
