SpectraSuite Data File
++++++++++++++++++++++++++++++++++++
Date: Fri Oct 25 11:23:41 EDT 2013
User: price-jones
Dark Spectrum Present: No
Reference Spectrum Present: No
Number of Sampled Component Spectra: 1
Spectrometers: USB2+H05261
Integration Time (usec): 100000 (USB2+H05261)
Spectra Averaged: 1 (USB2+H05261)
Boxcar Smoothing: 0 (USB2+H05261)
Correct for Electrical Dark: No (USB2+H05261)
Strobe/Lamp Enabled: No (USB2+H05261)
Correct for Detector Non-linearity: No (USB2+H05261)
Correct for Stray Light: No (USB2+H05261)
Number of Pixels in Processed Spectrum: 2048
>>>>>Begin Processed Spectral Data<<<<<
365.73	215.33
365.92	215.33
366.12	215.33
366.32	154.48
366.52	110.01
366.72	114.69
366.91	156.82
367.11	98.30
367.31	93.62
367.51	175.54
367.70	98.30
367.90	133.41
368.10	173.20
368.30	117.03
368.49	133.41
368.69	152.13
368.89	126.39
369.09	196.60
369.28	100.64
369.48	208.31
369.68	187.24
369.87	217.67
370.07	128.73
370.27	252.78
370.47	320.65
370.66	514.92
370.86	624.92
371.06	596.84
371.25	709.18
371.45	704.50
371.65	657.69
371.84	592.16
372.04	641.31
372.24	692.80
372.44	751.31
372.63	678.76
372.83	723.23
373.03	695.14
373.22	697.48
373.42	725.57
373.62	807.48
373.81	770.04
374.01	835.57
374.21	795.78
374.40	837.91
374.60	821.53
374.79	779.40
374.99	786.42
375.19	837.91
375.38	901.11
375.58	837.91
375.78	873.02
375.97	793.44
376.17	908.13
376.37	842.59
376.56	866.00
376.76	898.77
376.95	912.81
377.15	866.00
377.35	894.08
377.54	978.34
377.74	912.81
377.93	889.40
378.13	905.79
378.33	938.55
378.52	926.85
378.72	1013.45
378.91	994.73
379.11	905.79
379.31	964.30
379.50	1029.84
379.70	1015.79
379.89	1036.86
380.09	933.87
380.28	959.62
380.48	976.00
380.68	1022.81
380.87	1090.69
381.07	961.96
381.26	1181.97
381.46	1039.20
381.65	1050.90
381.85	1034.52
382.04	1020.47
382.24	1053.24
382.43	1097.71
382.63	1013.45
382.83	1128.14
383.02	1057.92
383.22	1109.41
383.41	1125.80
383.61	1036.86
383.80	1114.10
384.00	1123.46
384.19	1135.16
384.39	1235.80
384.58	1121.12
384.78	1125.80
384.97	1139.84
385.17	1107.07
385.36	1188.99
385.56	1153.88
385.75	1149.20
385.95	1174.95
386.14	1139.84
386.34	1186.65
386.53	1174.95
386.72	1212.40
386.92	1217.08
387.11	1242.82
387.31	1188.99
387.50	1224.10
387.70	1261.55
387.89	1254.53
388.09	1256.87
388.28	1296.66
388.48	1299.00
388.67	1336.45
388.86	1245.16
389.06	1322.40
389.25	1378.58
389.45	1282.61
389.64	1268.57
389.84	1263.89
390.03	1348.15
390.22	1423.05
390.42	1397.30
390.61	1364.53
390.81	1401.98
391.00	1336.45
391.19	1500.28
391.39	1413.68
391.58	1425.39
391.78	1423.05
391.97	1507.30
392.16	1394.96
392.36	1469.86
392.55	1509.65
392.75	1575.18
392.94	1511.99
393.13	1549.43
393.33	1483.90
393.52	1523.69
393.71	1537.73
393.91	1626.67
394.10	1636.03
394.29	1547.09
394.49	1570.50
394.68	1624.33
394.88	1666.46
395.07	1584.54
395.26	1657.10
395.46	1668.80
395.65	1708.59
395.84	1734.34
396.04	1834.98
396.23	1732.00
396.42	1724.97
396.62	1739.02
396.81	1853.70
397.00	1809.23
397.19	1842.00
397.39	1776.47
397.58	1809.23
397.77	1879.45
397.97	1830.30
398.16	1865.41
398.35	1895.83
398.55	1781.15
398.74	1820.94
398.93	2001.16
399.12	1856.04
399.32	1998.82
399.51	1898.17
399.70	2038.61
399.90	1961.37
400.09	1998.82
400.28	2085.42
400.47	2064.35
400.67	2127.55
400.86	2118.18
401.05	2087.76
401.24	2134.57
401.44	2122.87
401.63	2066.69
401.82	2277.34
402.01	2073.71
402.21	2132.23
402.40	2169.68
402.59	2087.76
402.78	2188.40
402.97	2335.85
403.17	2221.17
403.36	2312.45
403.55	2289.04
403.74	2422.45
403.93	2399.05
404.13	2382.67
404.32	2363.94
404.51	2408.41
404.70	2518.42
404.89	2441.18
405.09	2504.37
405.28	2459.90
405.47	2415.43
405.66	2597.99
405.85	2495.01
406.05	2471.61
406.24	2427.14
406.43	2497.35
406.62	2567.57
406.81	2663.53
407.00	2637.78
407.20	2562.89
407.39	2506.71
407.58	2696.30
407.77	2752.47
407.96	2806.30
408.15	2752.47
408.34	2771.19
408.54	2801.62
408.73	2766.51
408.92	2820.35
409.11	2925.67
409.30	2768.85
409.49	2895.24
409.68	2897.58
409.87	2937.37
410.07	2916.31
410.26	2977.16
410.45	2965.46
410.64	3014.61
410.83	3016.95
411.02	3068.44
411.21	3122.27
411.40	3164.40
411.59	3239.30
411.78	3293.13
411.98	3131.64
412.17	3218.24
412.36	3276.75
412.55	3403.14
412.74	3440.59
412.93	3286.11
413.12	3428.88
413.31	3506.12
413.50	3471.01
413.69	3421.86
413.88	3630.17
414.07	3536.55
414.26	3597.40
414.45	3581.02
414.64	3609.11
414.83	3714.43
415.02	3782.31
415.22	3882.95
415.41	3913.38
415.60	3770.60
415.79	3889.97
415.98	3868.91
416.17	3840.82
416.36	3852.52
416.55	3992.95
416.74	4114.66
416.93	3988.27
417.12	4135.73
417.31	4196.58
417.50	4128.70
417.69	4327.65
417.88	4222.33
418.07	4308.93
418.26	4273.82
418.45	4339.35
418.64	4631.92
418.83	4627.24
419.02	4601.49
419.21	4587.45
419.39	4568.73
419.58	4517.23
419.77	4397.87
419.96	4575.75
420.15	4685.75
420.34	4486.81
420.53	4503.19
420.72	4788.74
420.91	4557.02
421.10	4774.69
421.29	4784.06
421.48	4681.07
421.67	4634.26
421.86	4638.94
422.05	4898.74
422.24	4999.38
422.43	4912.78
422.61	4807.46
422.80	4861.29
422.99	4802.78
423.18	4910.44
423.37	5095.35
423.56	4987.68
423.75	4999.38
423.94	4877.68
424.13	4596.81
424.32	4837.89
424.50	5060.24
424.69	5205.35
424.88	5015.77
425.07	5004.07
425.26	4823.84
425.45	5004.07
425.64	4837.89
425.83	5015.77
426.01	4990.02
426.20	5090.67
426.39	5114.07
426.58	5048.54
426.77	5181.95
426.96	5041.51
427.15	4957.25
427.33	5256.84
427.52	5111.73
427.71	5261.52
427.90	5219.39
428.09	5406.64
428.28	5256.84
428.46	5331.74
428.65	5348.12
428.84	5598.56
429.03	5542.39
429.22	5408.98
429.40	5373.87
429.59	5455.79
429.78	5394.93
429.97	5401.96
430.16	5495.58
430.34	5591.54
430.53	5643.03
430.72	5720.27
430.91	5678.14
431.10	5526.00
431.28	5549.41
431.47	5823.25
431.66	5809.21
431.85	5738.99
432.03	5895.81
432.22	5834.96
432.41	5846.66
432.60	6038.58
432.79	5877.09
432.97	5858.36
433.16	6193.06
433.35	5998.79
433.54	6078.37
433.72	6256.25
433.91	6143.91
434.10	6036.24
434.28	6010.50
434.47	6258.59
434.66	6122.84
434.85	6396.68
435.03	6380.30
435.22	6195.40
435.41	6604.99
435.59	6310.08
435.78	6497.33
435.97	6417.75
436.16	6443.49
436.34	6396.68
436.53	6401.37
436.72	6511.37
436.90	6511.37
437.09	6707.98
437.28	6506.69
437.46	6576.91
437.65	6637.76
437.84	6700.95
438.02	6759.47
438.21	6710.32
438.40	6670.53
438.58	7026.29
438.77	7077.78
438.96	7021.61
439.14	7246.30
439.33	6960.75
439.52	7243.96
439.70	7250.98
439.89	7407.80
440.08	7293.11
440.26	7485.03
440.45	7236.94
440.63	7447.58
440.82	7592.70
441.01	7482.69
441.19	7620.78
441.38	7789.30
441.57	7644.19
441.75	7829.09
441.94	7866.54
442.12	7974.21
442.31	7903.99
442.50	8126.34
442.68	7899.31
442.87	7871.22
443.05	8102.93
443.24	8283.16
443.43	8116.98
443.61	8177.83
443.80	8510.19
443.98	8021.02
444.17	7864.20
444.35	8430.61
444.54	8388.48
444.73	8290.18
444.91	8252.73
445.10	8269.11
445.28	8454.02
445.47	8224.64
445.65	8264.43
445.84	8542.96
446.02	8568.70
446.21	8362.73
446.39	8475.08
446.58	8411.89
446.77	8451.67
446.95	8393.16
447.14	8430.61
447.32	8765.31
447.51	8479.76
447.69	8395.50
447.88	8383.80
448.06	8538.27
448.25	8573.38
448.43	8512.53
448.62	8568.70
448.80	8730.20
448.99	8674.03
449.17	8659.98
449.36	8613.17
449.54	8802.75
449.73	8943.19
449.91	9259.16
450.10	8767.65
450.28	9109.36
450.46	8971.27
450.65	8961.91
450.83	8987.66
451.02	9090.64
451.20	9109.36
451.39	9118.73
451.57	9132.77
451.76	8940.85
451.94	9139.79
452.13	9469.81
452.31	9186.60
452.49	9165.54
452.68	9277.88
452.86	9535.34
453.05	9411.29
453.23	9418.32
453.42	9380.87
453.60	9336.40
453.78	9425.34
453.97	9413.63
454.15	9624.28
454.34	9523.64
454.52	9713.22
454.70	9762.37
454.89	9872.38
455.07	9867.70
455.26	9762.37
455.44	10045.58
455.62	9762.37
455.81	9895.78
455.99	10146.22
456.17	10064.30
456.36	9973.02
456.54	10345.17
456.73	10296.02
456.91	10455.17
457.09	10331.12
457.28	10588.58
457.46	10300.70
457.64	10396.66
457.83	10466.88
458.01	10328.78
458.19	10778.17
458.38	10441.13
458.56	10736.04
458.74	10794.55
458.93	10682.20
459.11	10768.80
459.29	11012.22
459.48	10724.33
459.66	10686.89
459.84	10773.49
460.03	10981.79
460.21	10970.09
460.39	11103.50
460.57	11234.57
460.76	11059.03
460.94	11080.10
461.12	11274.36
461.31	11215.85
461.49	11126.91
461.67	11307.13
461.85	11541.18
462.04	11178.40
462.22	11442.88
462.40	11609.06
462.59	11414.79
462.77	11529.48
462.95	11749.49
463.13	11618.42
463.32	11585.65
463.50	11861.84
463.68	11765.87
463.86	11864.18
464.05	11606.72
464.23	11817.36
464.41	11892.26
464.59	11646.51
464.78	11880.56
464.96	11662.89
465.14	11946.09
465.32	12226.96
465.50	11971.84
465.69	12313.56
465.87	12100.57
466.05	12205.89
466.23	12336.96
466.41	12212.92
466.60	12519.53
466.78	12145.04
466.96	12123.98
467.14	12479.74
467.32	12367.39
467.51	12418.88
467.69	11857.15
467.87	12397.82
468.05	12491.44
468.23	12571.02
468.41	12458.67
468.60	12725.49
468.78	12882.31
468.96	12418.88
469.14	12784.01
469.32	12917.42
469.50	12697.41
469.69	13174.88
469.87	13018.06
470.05	13219.35
470.23	13149.13
470.41	13242.75
470.59	13149.13
470.77	13336.37
470.95	13490.85
471.14	13465.10
471.32	12875.29
471.50	13760.01
471.68	13731.92
471.86	13710.86
472.04	13668.73
472.22	14075.98
472.40	13853.63
472.58	13659.37
472.77	14029.17
472.95	14094.71
473.13	14813.25
473.31	14193.01
473.49	14104.07
473.67	14190.67
473.85	14345.14
474.03	14562.81
474.21	14345.14
474.39	14731.33
474.57	14970.07
474.75	14909.21
474.93	14930.28
475.12	14958.36
475.30	15222.84
475.48	15288.38
475.66	15112.84
475.84	15286.04
476.02	15573.92
476.20	15517.75
476.38	15592.65
476.56	15831.38
476.74	16128.63
476.92	15721.38
477.10	15999.90
477.28	16341.62
477.46	16102.89
477.64	16135.65
477.82	16634.19
478.00	16987.61
478.18	16517.16
478.36	16856.54
478.54	17043.78
478.72	17062.51
478.90	17799.77
479.08	17628.92
479.26	17804.46
479.44	17797.43
479.62	17923.82
479.80	17951.91
479.98	18242.14
480.16	18565.13
480.34	18398.95
480.52	18766.42
480.70	18778.12
480.88	18544.06
481.06	18813.23
481.24	18899.83
481.41	19293.04
481.59	19246.23
481.77	19323.46
481.95	19880.51
482.13	19653.48
482.31	19763.48
482.49	20458.62
482.67	20255.00
482.85	20428.20
483.03	20547.56
483.21	20910.35
483.39	21177.17
483.57	20556.93
483.74	21167.80
483.92	21387.82
484.10	21383.13
484.28	21516.54
484.46	21774.00
484.64	22679.79
484.82	22019.76
485.00	22429.35
485.18	22647.02
485.35	22864.69
485.53	22988.74
485.71	23065.98
485.89	23587.92
486.07	23449.83
486.25	23447.49
486.43	24027.94
486.61	23676.86
486.78	24198.80
486.96	23953.04
487.14	24751.17
487.32	24634.14
487.50	25142.03
487.68	25195.87
487.85	25249.70
488.03	25689.72
488.21	25905.05
488.39	26029.10
488.57	25942.50
488.75	26136.76
488.92	26412.95
489.10	27023.83
489.28	26843.60
489.46	27323.41
489.64	27358.52
489.81	27714.28
489.99	27466.19
490.17	27824.29
490.35	28203.46
490.53	27850.03
490.70	28570.92
490.88	28493.68
491.06	28701.99
491.24	29048.39
491.41	29291.80
491.59	29106.90
491.77	29394.79
491.95	29699.06
492.13	29792.68
492.30	30108.65
492.48	30291.21
492.66	30169.51
492.84	30450.37
493.01	30979.33
493.19	30698.47
493.37	31412.33
493.54	31208.70
493.72	31828.95
493.90	31262.54
494.08	31515.31
494.25	32121.51
494.43	31920.23
494.61	32378.97
494.79	32620.05
494.96	32425.78
495.14	32961.76
495.32	33160.71
495.49	33219.22
495.67	33436.89
495.85	33266.03
496.02	33977.56
496.20	33886.28
496.38	34167.14
496.55	34052.45
496.73	34866.96
496.91	34539.29
497.09	34742.91
497.26	34995.69
497.44	34801.43
497.62	35201.66
497.79	36025.53
497.97	35800.83
498.14	36184.68
498.32	36460.87
498.50	36294.69
498.67	36301.71
498.85	36444.48
499.03	36477.25
499.20	37148.98
499.38	36858.76
499.56	37022.59
499.73	37439.21
499.91	37502.40
500.08	37525.81
500.26	37610.07
500.44	37944.76
500.61	38181.16
500.79	38038.39
500.97	38340.32
501.14	38616.50
501.32	38675.01
501.49	38766.29
501.67	38447.98
501.84	39180.57
502.02	38731.18
502.20	38974.60
502.37	39522.29
502.55	39023.75
502.72	39550.37
502.90	39786.77
503.07	39927.20
503.25	39835.92
503.43	39250.78
503.60	40224.45
503.78	40339.13
503.95	40470.20
504.13	40397.65
504.30	41060.02
504.48	40397.65
504.65	40933.63
504.83	41233.22
505.01	41390.03
505.18	41720.05
505.36	41551.53
505.53	41160.66
505.71	41794.95
505.88	42124.96
506.06	41586.64
506.23	42298.16
506.41	41752.82
506.58	42256.03
506.76	42199.86
506.93	42614.13
507.11	42691.37
507.28	42459.66
507.46	43213.31
507.63	43126.71
507.81	43239.06
507.98	42841.17
508.16	43241.40
508.33	43510.56
508.50	43545.67
508.68	43826.53
508.85	43882.70
509.03	43819.51
509.20	44191.65
509.38	44645.72
509.55	44751.04
509.73	44392.94
509.90	44657.42
510.08	44479.54
510.25	44458.48
510.42	44938.29
510.60	44734.66
510.77	45116.17
510.95	45329.16
511.12	45137.23
511.30	45404.05
511.47	45422.78
511.64	45631.08
511.82	46183.45
511.99	45691.94
512.17	46003.23
512.34	45818.33
512.51	46387.08
512.69	46492.40
512.86	46394.10
513.04	46813.05
513.21	46389.42
513.38	46813.05
513.56	47037.75
513.73	47112.64
513.90	47313.93
514.08	46911.36
514.25	47470.75
514.43	47508.19
514.60	47381.80
514.77	47796.08
514.95	47842.89
515.12	47304.57
515.29	48027.79
515.47	48236.10
515.64	48254.82
515.81	48044.18
515.99	48016.09
516.16	48549.73
516.33	48292.27
516.51	48676.12
516.68	48444.41
516.85	48633.99
517.03	48528.67
517.20	48774.42
517.37	48666.76
517.54	48814.21
517.72	48786.13
517.89	49095.08
518.06	49656.81
518.24	49177.00
518.41	49371.26
518.58	49052.95
518.75	49577.23
518.93	49696.59
519.10	49228.49
519.27	49911.92
519.45	49698.94
519.62	49914.26
519.79	49918.95
519.96	50035.97
520.14	50473.65
520.31	50068.74
520.48	50578.98
520.65	50595.36
520.83	50485.36
521.00	50913.67
521.17	50798.99
521.34	50583.66
521.52	50878.57
521.69	51049.42
521.86	51285.82
522.03	51393.48
522.20	51494.13
522.38	51826.48
522.55	51650.94
522.72	51838.18
522.89	51419.23
523.07	51763.29
523.24	51578.39
523.41	51702.43
523.58	51576.04
523.75	51906.06
523.92	51866.27
524.10	51880.31
524.27	52109.69
524.44	52182.24
524.61	52055.85
524.78	51997.34
524.96	52114.37
525.13	52325.02
525.30	52580.13
525.47	52566.09
525.64	52631.63
525.81	52648.01
525.98	52624.60
526.16	52575.45
526.33	52926.53
526.50	53116.12
526.67	52907.81
526.84	52865.68
527.01	52818.87
527.18	52910.15
527.36	52940.58
527.53	53123.14
527.70	53333.79
527.87	53425.07
528.04	52975.69
528.21	53375.92
528.38	53415.71
528.55	53488.26
528.72	53595.93
528.89	53310.38
529.07	53223.78
529.24	53605.29
529.41	53975.09
529.58	53703.59
529.75	53858.07
529.92	53689.55
530.09	53783.17
530.26	54066.38
530.43	53911.90
530.60	53731.68
530.77	53851.05
530.94	54326.17
531.11	54078.08
531.28	54127.23
531.46	54298.09
531.63	54609.38
531.80	54017.22
531.97	54674.91
532.14	54614.06
532.31	54747.47
532.48	54424.48
532.65	54604.70
532.82	54700.66
532.99	54822.37
533.16	54433.84
533.33	55117.28
533.50	55058.76
533.67	55023.65
533.84	54796.62
534.01	54946.42
534.18	55047.06
534.35	55236.64
534.52	55203.88
534.69	55140.68
534.86	55114.94
535.03	55042.38
535.20	55313.88
535.37	55451.97
535.54	55356.01
535.71	55215.58
535.88	55543.25
536.05	55416.86
536.22	55676.66
536.38	55835.82
536.55	55721.13
536.72	55746.88
536.89	55779.65
537.06	55639.22
537.23	55756.24
537.40	55749.22
537.57	55884.97
537.74	55669.64
537.91	56016.04
538.08	55987.95
538.25	55732.84
538.42	55758.58
538.59	56126.05
538.75	56041.79
538.92	56287.54
539.09	56198.60
539.26	56371.80
539.43	56247.75
539.60	56191.58
539.77	56193.92
539.94	56594.15
540.11	56474.79
540.28	56406.91
540.44	56598.83
540.61	56631.60
540.78	56442.02
540.95	56502.87
541.12	56603.52
541.29	56488.83
541.46	56523.94
541.62	56582.45
541.79	56500.53
541.96	56549.68
542.13	56673.73
542.30	56645.65
542.47	57076.30
542.63	56760.33
542.80	56931.19
542.97	56839.91
543.14	57132.48
543.31	57357.17
543.48	57176.95
543.64	57483.56
543.81	57593.56
543.98	57411.00
544.15	57455.47
544.32	57560.79
544.48	57411.00
544.65	57284.61
544.82	57336.10
544.99	57382.91
545.16	57448.45
545.32	57408.66
545.49	57701.23
545.66	57820.59
545.83	57865.06
546.00	57712.93
546.16	57752.72
546.33	57663.78
546.50	57361.85
546.67	57862.72
546.83	57347.81
547.00	57970.39
547.17	57668.46
547.34	57851.02
547.50	57867.40
547.67	58056.99
547.84	58152.95
548.00	58047.63
548.17	58049.97
548.34	58199.76
548.51	58298.06
548.67	58534.46
548.84	58433.81
549.01	58246.57
549.18	57937.62
549.34	58487.65
549.51	58396.37
549.68	58440.84
549.84	58396.37
550.01	58487.65
550.18	58396.37
550.34	58592.97
550.51	58429.13
550.68	58403.39
550.84	58309.77
551.01	58632.76
551.18	58363.60
551.34	58480.63
551.51	58691.27
551.68	58679.57
551.84	58658.51
552.01	58621.06
552.18	58583.61
552.34	58553.18
552.51	58768.51
552.68	58424.45
552.84	58553.18
553.01	58908.94
553.18	59009.59
553.34	58808.30
553.51	58773.19
553.67	58740.42
553.84	58967.46
554.01	58927.67
554.17	59061.08
554.34	59147.68
554.51	59068.10
554.67	59044.69
554.84	59030.65
555.00	59180.45
555.17	59018.95
555.33	59143.00
555.50	59208.53
555.67	59051.72
555.83	59011.93
556.00	59358.33
556.16	59533.87
556.33	59519.82
556.50	59199.17
556.66	59533.87
556.83	59154.70
556.99	59402.80
557.16	59503.44
557.32	59498.76
557.49	59648.55
557.65	59391.09
557.82	59583.02
557.98	59473.01
558.15	59473.01
558.32	59465.99
558.48	59449.61
558.65	59318.54
558.81	59473.01
558.98	59671.96
559.14	59650.89
559.31	59840.48
559.47	59615.79
559.64	59964.52
559.80	59573.66
559.97	59730.47
560.13	59430.88
560.30	59786.64
560.46	59920.05
560.63	59922.40
560.79	59966.87
560.96	60046.44
561.12	59868.56
561.29	59976.23
561.45	59721.11
561.61	59707.07
561.78	59756.22
561.94	59688.34
562.11	59924.74
562.27	59924.74
562.44	60144.75
562.60	60165.81
562.77	59941.12
562.93	59831.11
563.10	60058.15
563.26	59856.86
563.42	60207.94
563.59	60203.26
563.75	60313.26
563.92	60083.89
564.08	60121.34
564.24	60133.04
564.41	60100.28
564.57	60179.85
564.74	60161.13
564.90	60177.51
565.07	60306.24
565.23	60196.24
565.39	60133.04
565.56	60254.75
565.72	60292.20
565.88	60275.82
566.05	60221.98
566.21	60151.77
566.38	60250.07
566.54	60289.86
566.70	60467.74
566.87	60144.75
567.03	60128.36
567.19	60477.10
567.36	60514.55
567.52	60254.75
567.68	60535.62
567.85	60395.18
568.01	60465.40
568.17	60257.09
568.34	60413.91
568.50	60502.85
568.66	60399.86
568.83	60404.55
568.99	60456.04
569.15	60378.80
569.32	60334.33
569.48	60378.80
569.64	60537.96
569.81	60320.29
569.97	60411.57
570.13	60289.86
570.30	60289.86
570.46	60636.26
570.62	60652.64
570.78	60619.88
570.95	60598.81
571.11	60706.47
571.27	60526.25
571.43	60552.00
571.60	60779.03
571.76	60516.89
571.92	60624.56
572.09	60645.62
572.25	60605.83
572.41	60743.92
572.57	60605.83
572.74	60928.83
572.90	60580.09
573.06	60694.77
573.22	60514.55
573.38	60617.53
573.55	60608.17
573.71	60764.99
573.87	60685.41
574.03	60477.10
574.20	60617.53
574.36	60598.81
574.52	60772.01
574.68	60715.84
574.84	60729.88
575.01	60605.83
575.17	60748.60
575.33	60662.00
575.49	60907.76
575.65	60676.05
575.82	61001.38
575.98	60802.44
576.14	61064.58
576.30	60802.44
576.46	60734.56
576.62	60687.75
576.79	60814.14
576.95	60949.89
577.11	60968.61
577.27	60727.54
577.43	60870.31
577.59	60891.38
577.75	60802.44
577.92	60956.91
578.08	60734.56
578.24	60931.17
578.40	61048.19
578.56	60952.23
578.72	60842.23
578.88	61223.73
579.04	60931.17
579.21	61141.81
579.37	60942.87
579.53	61165.22
579.69	60772.01
579.85	60823.50
580.01	60851.59
580.17	60694.77
580.33	60999.04
580.49	61099.68
580.65	61027.13
580.82	60764.99
580.98	60853.93
581.14	60772.01
581.30	60952.23
581.46	60825.84
581.62	61036.49
581.78	60832.86
581.94	61059.90
582.10	60870.31
582.26	60898.40
582.42	60779.03
582.58	61111.39
582.74	61029.47
582.90	61045.85
583.06	61010.74
583.22	60811.80
583.38	60994.36
583.54	61020.11
583.70	60975.64
583.86	60980.32
584.02	60917.12
584.18	61034.15
584.34	61071.60
584.50	61015.43
584.66	60846.91
584.82	61092.66
584.98	61125.43
585.14	61130.11
585.30	60933.51
585.46	61125.43
585.62	61027.13
585.78	61172.24
585.94	60985.00
586.10	61043.51
586.26	60907.76
586.42	61167.56
586.58	61240.12
586.74	61151.18
586.90	61083.30
587.06	61172.24
587.22	61174.58
587.38	61200.33
587.54	61249.48
587.70	61284.59
587.86	61219.05
588.02	61083.30
588.18	61237.78
588.34	61038.83
