SpectraSuite Data File
++++++++++++++++++++++++++++++++++++
Date: Fri Oct 25 11:24:08 EDT 2013
User: price-jones
Dark Spectrum Present: No
Reference Spectrum Present: No
Number of Sampled Component Spectra: 1
Spectrometers: USB2+H05261
Integration Time (usec): 100000 (USB2+H05261)
Spectra Averaged: 1 (USB2+H05261)
Boxcar Smoothing: 0 (USB2+H05261)
Correct for Electrical Dark: No (USB2+H05261)
Strobe/Lamp Enabled: No (USB2+H05261)
Correct for Detector Non-linearity: No (USB2+H05261)
Correct for Stray Light: No (USB2+H05261)
Number of Pixels in Processed Spectrum: 2048
>>>>>Begin Processed Spectral Data<<<<<
365.73	205.97
365.92	205.97
366.12	205.97
366.32	161.50
366.52	177.88
366.72	159.16
366.91	159.16
367.11	98.30
367.31	203.63
367.51	112.35
367.70	126.39
367.90	131.07
368.10	86.60
368.30	124.05
368.49	131.07
368.69	133.41
368.89	161.50
369.09	135.75
369.28	159.16
369.48	189.58
369.68	175.54
369.87	201.29
370.07	194.26
370.27	276.18
370.47	341.72
370.66	559.39
370.86	664.71
371.06	641.31
371.25	704.50
371.45	678.76
371.65	655.35
371.84	645.99
372.04	617.90
372.24	692.80
372.44	723.23
372.63	718.54
372.83	755.99
373.03	744.29
373.22	765.36
373.42	725.57
373.62	692.80
373.81	744.29
374.01	746.63
374.21	699.82
374.40	863.66
374.60	873.02
374.79	837.91
374.99	812.17
375.19	896.43
375.38	814.51
375.58	896.43
375.78	926.85
375.97	898.77
376.17	917.49
376.37	887.06
376.56	891.74
376.76	842.59
376.95	917.49
377.15	870.68
377.35	931.53
377.54	896.43
377.74	901.11
377.93	891.74
378.13	880.04
378.33	891.74
378.52	910.47
378.72	968.98
378.91	978.34
379.11	940.90
379.31	929.19
379.50	903.45
379.70	961.96
379.89	952.60
380.09	990.05
380.28	950.26
380.48	954.94
380.68	1022.81
380.87	938.55
381.07	980.68
381.26	1048.56
381.46	1088.35
381.65	985.37
381.85	954.94
382.04	1104.73
382.24	1095.37
382.43	1048.56
382.63	1090.69
382.83	1041.54
383.02	1188.99
383.22	1097.71
383.41	933.87
383.61	1100.05
383.80	1132.82
384.00	1128.14
384.19	1128.14
384.39	1151.54
384.58	1165.59
384.78	1177.29
384.97	1153.88
385.17	1214.74
385.36	1219.42
385.56	1179.63
385.75	1205.38
385.95	1200.69
386.14	1228.78
386.34	1289.64
386.53	1207.72
386.72	1249.85
386.92	1303.68
387.11	1221.76
387.31	1160.91
387.50	1200.69
387.70	1231.12
387.89	1261.55
388.09	1247.51
388.28	1188.99
388.48	1291.98
388.67	1320.06
388.86	1341.13
389.06	1198.35
389.25	1401.98
389.45	1308.36
389.64	1371.55
389.84	1383.26
390.03	1397.30
390.22	1411.34
390.42	1369.21
390.61	1313.04
390.81	1413.68
391.00	1476.88
391.19	1511.99
391.39	1458.15
391.58	1547.09
391.78	1460.49
391.97	1411.34
392.16	1406.66
392.36	1537.73
392.55	1589.22
392.75	1528.37
392.94	1481.56
393.13	1533.05
393.33	1591.56
393.52	1645.40
393.71	1448.79
393.91	1530.71
394.10	1542.41
394.29	1586.88
394.49	1673.48
394.68	1629.01
394.88	1661.78
395.07	1701.57
395.26	1659.44
395.46	1657.10
395.65	1678.16
395.84	1776.47
396.04	1778.81
396.23	1753.06
396.42	1797.53
396.62	1844.34
396.81	1776.47
397.00	1767.10
397.19	1820.94
397.39	1884.13
397.58	1818.60
397.77	1809.23
397.97	1961.37
398.16	1898.17
398.35	1905.20
398.55	1891.15
398.74	1872.43
398.93	1940.30
399.12	1909.88
399.32	1902.86
399.51	1956.69
399.70	1973.07
399.90	2015.20
400.09	2078.40
400.28	2078.40
400.47	1975.41
400.67	2127.55
400.86	2080.74
401.05	2040.95
401.24	2132.23
401.44	2148.61
401.63	2242.23
401.82	2162.66
402.01	2167.34
402.21	2214.15
402.40	2214.15
402.59	2282.02
402.78	2132.23
402.97	2181.38
403.17	2251.60
403.36	2361.60
403.55	2335.85
403.74	2333.51
403.93	2279.68
404.13	2377.98
404.32	2356.92
404.51	2429.48
404.70	2445.86
404.89	2427.14
405.09	2485.65
405.28	2513.74
405.47	2380.32
405.66	2530.12
405.85	2541.82
406.05	2492.67
406.24	2583.95
406.43	2523.10
406.62	2668.21
406.81	2670.55
407.00	2616.72
407.20	2635.44
407.39	2708.00
407.58	2834.39
407.77	2818.00
407.96	2871.84
408.15	2785.24
408.34	2693.96
408.54	2862.48
408.73	2792.26
408.92	2839.07
409.11	2813.32
409.30	2923.33
409.49	2841.41
409.68	2928.01
409.87	2939.71
410.07	2977.16
410.26	2984.18
410.45	2970.14
410.64	3009.93
410.83	3110.57
411.02	3321.22
411.21	3229.94
411.40	3180.79
411.59	3206.53
411.78	3169.09
411.98	3293.13
412.17	3229.94
412.36	3328.24
412.55	3330.58
412.74	3386.76
412.93	3449.95
413.12	3400.80
413.31	3604.42
413.50	3431.23
413.69	3461.65
413.88	3574.00
414.07	3588.04
414.26	3702.73
414.45	3562.30
414.64	3616.13
414.83	3686.34
415.02	3681.66
415.22	3868.91
415.41	3866.56
415.60	3922.74
415.79	3854.86
415.98	4032.74
416.17	3854.86
416.36	3896.99
416.55	3932.10
416.74	3983.59
416.93	4044.45
417.12	4205.94
417.31	4173.18
417.50	4299.56
417.69	4346.37
417.88	4224.67
418.07	4393.19
418.26	4325.31
418.45	4283.18
418.64	4587.45
418.83	4477.44
419.02	4475.10
419.21	4454.04
419.39	4465.74
419.58	4533.62
419.77	4432.97
419.96	4685.75
420.15	4613.20
420.34	4601.49
420.53	4697.46
420.72	4711.50
420.91	4643.62
421.10	4805.12
421.29	4779.37
421.48	4826.18
421.67	4844.91
421.86	4826.18
422.05	4793.42
422.24	4812.14
422.43	4835.55
422.61	4931.51
422.80	5142.16
422.99	4992.36
423.18	5041.51
423.37	5085.98
423.56	4882.36
423.75	4917.47
423.94	4896.40
424.13	4669.37
424.32	4737.24
424.50	5015.77
424.69	5224.08
424.88	5198.33
425.07	4924.49
425.26	5001.72
425.45	5074.28
425.64	4959.60
425.83	4926.83
426.01	5069.60
426.20	5036.83
426.39	5046.20
426.58	5074.28
426.77	5093.01
426.96	5123.43
427.15	5118.75
427.33	5069.60
427.52	5069.60
427.71	5172.58
427.90	5378.55
428.09	5200.67
428.28	5291.95
428.46	5380.89
428.65	5343.44
428.84	5530.69
429.03	5509.62
429.22	5425.36
429.40	5472.17
429.59	5497.92
429.78	5378.55
429.97	5270.89
430.16	5675.80
430.34	5476.85
430.53	5729.63
430.72	5568.13
430.91	5673.46
431.10	5652.39
431.28	5774.10
431.47	5830.27
431.66	5905.17
431.85	5743.67
432.03	5980.07
432.22	5776.44
432.41	5902.83
432.60	6061.99
432.79	6080.71
432.97	5989.43
433.16	6111.14
433.35	5980.07
433.54	6228.17
433.72	6279.66
433.91	6047.94
434.10	6216.46
434.28	6017.52
434.47	6272.64
434.66	6469.24
434.85	6293.70
435.03	6356.90
435.22	6228.17
435.41	6527.75
435.59	6476.26
435.78	6469.24
435.97	6429.45
436.16	6525.41
436.34	6497.33
436.53	6607.33
436.72	6593.29
436.90	6600.31
437.09	6874.15
437.28	6621.38
437.46	6576.91
437.65	6759.47
437.84	6906.92
438.02	6703.29
438.21	6853.09
438.40	6883.52
438.58	7096.50
438.77	6953.73
438.96	6930.33
439.14	7152.68
439.33	7140.97
439.52	7232.26
439.70	7314.17
439.89	7363.33
440.08	7279.07
440.26	7522.48
440.45	7335.24
440.63	7470.99
440.82	7686.32
441.01	7646.53
441.19	7712.07
441.38	7632.49
441.57	7599.72
441.75	7840.79
441.94	8011.65
442.12	7866.54
442.31	7899.31
442.50	8105.28
442.68	7929.74
442.87	8226.98
443.05	8241.03
443.24	8245.71
443.43	8236.35
443.61	8271.45
443.80	8425.93
443.98	8081.87
444.17	8140.38
444.35	8248.05
444.54	8395.50
444.73	8329.97
444.91	8304.22
445.10	8336.99
445.28	8435.29
445.47	8306.56
445.65	8271.45
445.84	8564.02
446.02	8446.99
446.21	8315.92
446.39	8571.04
446.58	8645.94
446.77	8580.40
446.95	8245.71
447.14	8655.30
447.32	8418.91
447.51	8711.47
447.69	8566.36
447.88	8629.56
448.06	8655.30
448.25	8519.55
448.43	8697.43
448.62	8549.98
448.80	8634.24
448.99	8702.11
449.17	8816.80
449.36	8734.88
449.54	8819.14
449.73	9015.74
449.91	9088.30
450.10	8919.78
450.28	9252.14
450.46	9249.80
450.65	8854.25
450.83	9132.77
451.02	9004.04
451.20	9315.33
451.39	9268.52
451.57	9128.09
451.76	9121.07
451.94	9376.19
452.13	9357.46
452.31	9231.07
452.49	9385.55
452.68	9378.53
452.86	9385.55
453.05	9666.41
453.23	9715.56
453.42	9383.21
453.60	9277.88
453.78	9397.25
453.97	9446.40
454.15	9596.20
454.34	9593.86
454.52	9731.95
454.70	9942.60
454.89	9696.84
455.07	10031.54
455.26	9928.55
455.44	10141.54
455.62	10033.88
455.81	9877.06
455.99	9832.59
456.17	9919.19
456.36	10207.08
456.54	10291.34
456.73	10274.95
456.91	10518.37
457.09	10665.82
457.28	10579.22
457.46	10349.85
457.64	10583.90
457.83	10532.41
458.01	10413.04
458.19	10785.19
458.38	10445.81
458.56	10780.51
458.74	10824.98
458.93	10792.21
459.11	10623.69
459.29	10822.64
459.48	10736.04
459.66	10878.81
459.84	11190.10
460.03	11246.27
460.21	11180.74
460.39	11021.58
460.57	10881.15
460.76	11300.11
460.94	11222.87
461.12	11197.12
461.31	11040.31
461.49	11159.67
461.67	11339.90
461.85	11576.29
462.04	11307.13
462.22	11527.14
462.40	11667.57
462.59	11391.39
462.77	11353.94
462.95	11698.00
463.13	11679.27
463.32	11833.75
463.50	11609.06
463.68	11723.74
463.86	11808.00
464.05	11702.68
464.23	11562.25
464.41	11985.88
464.59	11808.00
464.78	12100.57
464.96	12196.53
465.14	11997.59
465.32	11997.59
465.50	12222.28
465.69	12376.75
465.87	12327.60
466.05	12351.01
466.23	12292.49
466.41	12257.39
466.60	12435.27
466.78	12259.73
466.96	12418.88
467.14	12355.69
467.32	12418.88
467.51	12674.00
467.69	12140.36
467.87	12461.01
468.05	12760.60
468.23	12627.19
468.41	12468.03
468.60	12805.07
468.78	12989.97
468.96	12854.22
469.14	12847.20
469.32	12982.95
469.50	12840.18
469.69	13195.94
469.87	13099.98
470.05	13249.77
470.23	13158.49
470.41	13296.58
470.59	13345.73
470.77	13261.48
470.95	13579.79
471.14	13394.89
471.32	13312.97
471.50	13511.91
471.68	13724.90
471.86	13994.06
472.04	13591.49
472.22	14174.28
472.40	13799.80
472.58	14122.79
472.77	14310.04
472.95	14150.88
473.13	14710.27
473.31	14057.26
473.49	14080.66
473.67	14214.07
473.85	14209.39
474.03	14534.73
474.21	14586.22
474.39	14743.03
474.57	14724.31
474.75	14806.23
474.93	14876.44
475.12	15066.03
475.30	14895.17
475.48	15037.94
475.66	15351.57
475.84	15538.82
476.02	15288.38
476.20	15468.60
476.38	15723.72
476.56	16081.82
476.74	16135.65
476.92	15833.72
477.10	15864.15
477.28	16114.59
477.46	16198.85
477.64	16421.20
477.82	16613.12
478.00	17090.59
478.18	16760.58
478.36	17006.33
478.54	17165.49
478.72	17221.66
478.90	17504.87
479.08	17804.46
479.26	17813.82
479.44	17841.90
479.62	17909.78
479.80	18272.56
479.98	18281.92
480.16	18368.52
480.34	18422.36
480.52	18691.52
480.70	18860.04
480.88	18698.54
481.06	18686.84
481.24	18757.05
481.41	19288.35
481.59	19314.10
481.77	19693.27
481.95	19482.62
482.13	20027.96
482.31	19763.48
482.49	20404.79
482.67	20283.08
482.85	20552.24
483.03	20943.11
483.21	20926.73
483.39	20744.17
483.57	21160.78
483.74	21546.97
483.92	21596.12
484.10	21411.22
484.28	21759.96
484.46	22108.70
484.64	22492.55
484.82	21923.80
485.00	22443.40
485.18	22562.76
485.35	23131.51
485.53	23070.66
485.71	23143.22
485.89	23419.40
486.07	23627.71
486.25	23646.43
486.43	23660.48
486.61	24236.25
486.78	24425.83
486.96	24374.34
487.14	24547.54
487.32	24875.21
487.50	24786.27
487.68	24793.29
487.85	25130.33
488.03	25678.02
488.21	26003.35
488.39	26111.02
488.57	25998.67
488.75	26078.25
488.92	26478.48
489.10	27012.12
489.28	27180.64
489.46	27269.58
489.64	27101.06
489.81	27978.76
489.99	27714.28
490.17	27903.87
490.35	28224.52
490.53	28500.70
490.70	28418.78
490.88	28435.17
491.06	28971.15
491.24	28872.85
491.41	29268.40
491.59	29296.49
491.77	29567.99
491.95	29818.42
492.13	29951.84
492.30	30239.72
492.48	30326.32
492.66	30485.48
492.84	30309.94
493.01	30974.65
493.19	30595.48
493.37	31189.98
493.54	31426.37
493.72	31742.35
493.90	31311.69
494.08	32051.30
494.25	32013.85
494.43	32053.64
494.61	32383.65
494.79	32776.86
494.96	32844.74
495.14	32914.95
495.32	33411.15
495.49	33280.08
495.67	33759.89
495.85	33867.55
496.02	33713.08
496.20	33977.56
496.38	34410.56
496.55	34637.59
496.73	34749.93
496.91	34618.86
497.09	35117.40
497.26	35084.63
497.44	34862.28
497.62	35393.58
497.79	36006.80
497.97	35583.16
498.14	35892.12
498.32	36566.19
498.50	36367.24
498.67	36617.68
498.85	36744.07
499.03	37076.43
499.20	36957.06
499.38	36910.25
499.56	37439.21
499.73	37289.42
499.91	37551.56
500.08	37984.55
500.26	37509.43
500.44	38148.39
500.61	38157.75
500.79	38373.08
500.97	38700.76
501.14	38918.43
501.32	38656.29
501.49	38672.67
501.67	38911.41
501.84	38941.83
502.02	39140.78
502.20	39564.42
502.37	39262.49
502.55	39168.87
502.72	39519.95
502.90	39496.54
503.07	39969.33
503.25	39807.83
503.43	40165.93
503.60	40238.49
503.78	40343.81
503.95	40257.21
504.13	40804.90
504.30	41106.83
504.48	40603.61
504.65	40587.23
504.83	41581.96
505.01	40961.72
505.18	41179.39
505.36	41577.28
505.53	41497.70
505.71	42024.32
505.88	42204.54
506.06	41553.87
506.23	42396.46
506.41	42124.96
506.58	41785.58
506.76	42087.51
506.93	42653.92
507.11	42471.36
507.28	42857.55
507.46	43016.71
507.63	43328.00
507.81	43625.25
507.98	43129.05
508.16	43393.53
508.33	43852.28
508.50	43859.30
508.68	43599.50
508.85	44299.32
509.03	44353.15
509.20	44605.93
509.38	44821.26
509.55	44584.86
509.73	44832.96
509.90	44914.88
510.08	44636.36
510.25	45289.37
510.42	45200.43
510.60	45413.41
510.77	45659.17
510.95	46059.40
511.12	45478.95
511.30	45570.23
511.47	45846.41
511.64	45748.11
511.82	46110.89
511.99	46127.28
512.17	46277.07
512.34	46457.29
512.51	46696.03
512.69	46845.82
512.86	46127.28
513.04	46864.55
513.21	46808.37
513.38	46738.16
513.56	47316.27
513.73	47110.30
513.90	47482.45
514.08	47004.98
514.25	47779.70
514.43	47538.62
514.60	47906.08
514.77	47367.76
514.95	48168.22
515.12	48144.82
515.29	47634.58
515.47	48280.57
515.64	48067.58
515.81	48105.03
515.99	48032.47
516.16	48636.33
516.33	48669.10
516.51	48886.77
516.68	48561.44
516.85	48858.68
517.03	48917.20
517.20	49434.45
517.37	48935.92
517.54	49085.72
517.72	49312.75
517.89	49691.91
518.06	49499.99
518.24	49404.03
518.41	49694.25
518.58	49602.97
518.75	49645.10
518.93	49860.43
519.10	49464.88
519.27	49982.14
519.45	50216.19
519.62	50461.95
519.79	49942.35
519.96	50429.18
520.14	50384.71
520.31	50248.96
520.48	50380.03
520.65	50557.91
520.83	51386.46
521.00	51009.64
521.17	50511.10
521.34	50937.08
521.52	51056.45
521.69	51215.60
521.86	51306.88
522.03	51253.05
522.20	51526.89
522.38	51554.98
522.55	51358.38
522.72	51452.00
522.89	51463.70
523.07	51962.23
523.24	51737.54
523.41	51917.76
523.58	51599.45
523.75	52044.15
523.92	51826.48
524.10	52231.40
524.27	52100.32
524.44	52341.40
524.61	52467.79
524.78	52261.82
524.96	52224.37
525.13	52577.79
525.30	52804.83
525.47	52493.54
525.64	52533.32
525.81	52931.22
525.98	52865.68
526.16	52659.71
526.33	52655.03
526.50	53436.77
526.67	52772.06
526.84	53181.65
527.01	53095.05
527.18	52940.58
527.36	53268.25
527.53	53102.07
527.70	53553.80
527.87	53729.34
528.04	53375.92
528.21	53450.81
528.38	53605.29
528.55	53806.58
528.72	53691.89
528.89	53677.85
529.07	53930.62
529.24	53406.34
529.41	53829.98
529.58	53825.30
529.75	53902.54
529.92	54017.22
530.09	54183.40
530.26	54218.51
530.43	54419.80
530.60	54057.01
530.77	53907.22
530.94	54480.65
531.11	54485.33
531.28	54536.82
531.46	54387.03
531.63	54497.03
531.80	54475.97
531.97	54403.41
532.14	54475.97
532.31	54670.23
532.48	54763.85
532.65	54862.16
532.82	54585.97
532.99	54958.12
533.16	54768.54
533.33	54740.45
533.50	55091.53
533.67	54981.52
533.84	54658.53
534.01	55161.75
534.18	55168.77
534.35	55402.82
534.52	55398.14
534.69	55653.26
534.86	55341.97
535.03	55161.75
535.20	55489.42
535.37	55604.11
535.54	55601.77
535.71	55454.31
535.88	55554.96
536.05	55784.33
536.22	55908.38
536.38	56041.79
536.55	55679.00
536.72	56041.79
536.89	55554.96
537.06	55854.54
537.23	56025.40
537.40	55573.68
537.57	55938.80
537.74	55784.33
537.91	56151.79
538.08	56170.52
538.25	55994.98
538.42	56020.72
538.59	56360.10
538.75	56163.50
538.92	56327.33
539.09	56505.21
539.26	56308.61
539.43	56301.59
539.60	56456.06
539.77	56439.68
539.94	56900.76
540.11	56589.47
540.28	56364.78
540.44	56591.81
540.61	56734.59
540.78	56596.49
540.95	56509.89
541.12	56612.88
541.29	56736.93
541.46	56671.39
541.62	56662.03
541.79	56757.99
541.96	56882.04
542.13	56652.67
542.30	56912.47
542.47	57097.37
542.63	56753.31
542.80	57148.86
542.97	57095.03
543.14	57329.08
543.31	57436.75
543.48	57490.58
543.64	57609.95
543.81	57439.09
543.98	57427.38
544.15	57422.70
544.32	57759.74
544.48	57696.55
544.65	57521.01
544.82	57577.18
544.99	57256.53
545.16	57525.69
545.32	57642.71
545.49	57993.79
545.66	57921.24
545.83	57834.64
546.00	57911.88
546.16	58026.56
546.33	57598.24
546.50	57696.55
546.67	57839.32
546.83	57766.76
547.00	57818.25
547.17	57930.60
547.34	57958.69
547.50	57928.26
547.67	58056.99
547.84	58213.80
548.00	58190.40
548.17	58461.90
548.34	58223.17
548.51	58506.37
548.67	58344.87
548.84	58518.07
549.01	58159.97
549.18	58396.37
549.34	58218.49
549.51	58440.84
549.68	58618.72
549.84	58497.01
550.01	58489.99
550.18	58485.31
550.34	58644.46
550.51	58595.31
550.68	58415.09
550.84	58475.94
551.01	58745.11
551.18	58740.42
551.34	58616.38
551.51	58628.08
551.68	58717.02
551.84	58899.58
552.01	58546.16
552.18	58796.60
552.34	58915.96
552.51	59014.27
552.68	58859.79
552.84	59077.46
553.01	59063.42
553.18	59030.65
553.34	58937.03
553.51	58623.40
553.67	59004.91
553.84	59276.41
554.01	59313.86
554.17	58930.01
554.34	59161.72
554.51	59079.80
554.67	59248.32
554.84	59330.24
555.00	59234.28
555.17	59016.61
555.33	59306.83
555.50	59255.34
555.67	59121.93
555.83	59253.00
556.00	59433.22
556.16	59421.52
556.33	59498.76
556.50	59257.68
556.66	59611.10
556.83	59224.92
556.99	59512.80
557.16	59671.96
557.32	59681.32
557.49	59742.17
557.65	59777.28
557.82	59615.79
557.98	59641.53
558.15	59435.56
558.32	59671.96
558.48	59508.12
558.65	59580.68
558.81	59639.19
558.98	59578.34
559.14	59793.67
559.31	59842.82
559.47	59847.50
559.64	59746.86
559.80	59978.57
559.97	60044.10
560.13	59763.24
560.30	59913.03
560.46	60044.10
560.63	60027.72
560.79	60020.70
560.96	60048.78
561.12	60182.19
561.29	60144.75
561.45	60074.53
561.61	59870.90
561.78	59835.80
561.94	59994.95
562.11	60023.04
562.27	59978.57
562.44	60254.75
562.60	60165.81
562.77	60142.41
562.93	59945.80
563.10	60144.75
563.26	60177.51
563.42	60308.58
563.59	60186.88
563.75	60102.62
563.92	60299.22
564.08	60179.85
564.24	60212.62
564.41	60229.01
564.57	60582.43
564.74	60308.58
564.90	60486.46
565.07	60299.22
565.23	60179.85
565.39	60264.11
565.56	60278.16
565.72	60257.09
565.88	60381.14
566.05	60196.24
566.21	60449.02
566.38	60395.18
566.54	60732.22
566.70	60437.31
566.87	60430.29
567.03	60514.55
567.19	60568.38
567.36	60523.91
567.52	60434.97
567.68	60762.65
567.85	60680.73
568.01	60598.81
568.17	60470.08
568.34	60633.92
568.50	60530.93
568.66	60327.31
568.83	60636.26
568.99	60430.29
569.15	60434.97
569.32	60423.27
569.48	60622.22
569.64	60678.39
569.81	60638.60
569.97	60488.80
570.13	60491.15
570.30	60549.66
570.46	60596.47
570.62	60666.69
570.78	60687.75
570.95	60746.26
571.11	60584.77
571.27	60512.21
571.43	60502.85
571.60	60559.02
571.76	60690.09
571.92	60849.25
572.09	60594.13
572.25	60865.63
572.41	60573.06
572.57	60741.58
572.74	61059.90
572.90	60788.39
573.06	60748.60
573.22	60760.31
573.38	60832.86
573.55	60889.04
573.71	60954.57
573.87	60764.99
574.03	60867.97
574.20	60821.16
574.36	60790.73
574.52	60870.31
574.68	60860.95
574.84	60905.42
575.01	60804.78
575.17	60823.50
575.33	60938.19
575.49	60694.77
575.65	60989.68
575.82	60797.76
575.98	60933.51
576.14	61223.73
576.30	61132.45
576.46	60832.86
576.62	60699.45
576.79	60975.64
576.95	60807.12
577.11	60952.23
577.27	61090.32
577.43	61087.98
577.59	60669.03
577.75	60870.31
577.92	60860.95
578.08	60863.29
578.24	60994.36
578.40	61144.16
578.56	60952.23
578.72	61029.47
578.88	61106.71
579.04	61212.03
579.21	61169.90
579.37	61137.13
579.53	61099.68
579.69	60823.50
579.85	61034.15
580.01	60982.66
580.17	60973.30
580.33	60994.36
580.49	61010.74
580.65	61109.05
580.82	61092.66
580.98	61127.77
581.14	60973.30
581.30	61221.39
581.46	61045.85
581.62	61148.84
581.78	60926.49
581.94	60980.32
582.10	61034.15
582.26	61080.96
582.42	60989.68
582.58	61172.24
582.74	61235.44
582.90	60907.76
583.06	60987.34
583.22	60846.91
583.38	61179.26
583.54	60992.02
583.70	61123.09
583.86	60949.89
584.02	61029.47
584.18	61212.03
584.34	61132.45
584.50	61073.94
584.66	60956.91
584.82	61031.81
584.98	61378.21
585.14	61286.93
585.30	60985.00
585.46	61375.87
585.62	61036.49
585.78	61364.17
585.94	61036.49
586.10	61158.20
586.26	61158.20
586.42	61385.23
586.58	61212.03
586.74	61389.91
586.90	61137.13
587.06	60926.49
587.22	61385.23
587.38	61188.63
587.54	61340.76
587.70	61427.36
587.86	61064.58
588.02	61186.28
588.18	61263.52
588.34	61160.54
588.49	61141.81
