SpectraSuite Data File
++++++++++++++++++++++++++++++++++++
Date: Fri Oct 25 11:25:31 EDT 2013
User: price-jones
Dark Spectrum Present: No
Reference Spectrum Present: No
Number of Sampled Component Spectra: 1
Spectrometers: USB2+H05261
Integration Time (usec): 100000 (USB2+H05261)
Spectra Averaged: 1 (USB2+H05261)
Boxcar Smoothing: 0 (USB2+H05261)
Correct for Electrical Dark: No (USB2+H05261)
Strobe/Lamp Enabled: No (USB2+H05261)
Correct for Detector Non-linearity: No (USB2+H05261)
Correct for Stray Light: No (USB2+H05261)
Number of Pixels in Processed Spectrum: 2048
>>>>>Begin Processed Spectral Data<<<<<
365.73	276.18
365.92	276.18
366.12	276.18
366.32	196.60
366.52	121.71
366.72	126.39
366.91	133.41
367.11	194.26
367.31	131.07
367.51	154.48
367.70	95.96
367.90	210.65
368.10	86.60
368.30	245.76
368.49	131.07
368.69	191.92
368.89	140.43
369.09	133.41
369.28	217.67
369.48	224.69
369.68	163.84
369.87	187.24
370.07	177.88
370.27	208.31
370.47	259.80
370.66	592.16
370.86	638.97
371.06	601.52
371.25	711.52
371.45	688.12
371.65	671.73
371.84	653.01
372.04	629.60
372.24	716.20
372.44	741.95
372.63	732.59
372.83	751.31
373.03	737.27
373.22	774.72
373.42	765.36
373.62	809.83
373.81	772.38
374.01	763.01
374.21	802.80
374.40	842.59
374.60	828.55
374.79	812.17
374.99	873.02
375.19	842.59
375.38	802.80
375.58	889.40
375.78	866.00
375.97	772.38
376.17	901.11
376.37	821.53
376.56	851.96
376.76	868.34
376.95	833.23
377.15	912.81
377.35	866.00
377.54	875.36
377.74	978.34
377.93	903.45
378.13	889.40
378.33	964.30
378.52	903.45
378.72	929.19
378.91	976.00
379.11	919.83
379.31	983.02
379.50	936.21
379.70	912.81
379.89	1013.45
380.09	1062.60
380.28	992.39
380.48	980.68
380.68	919.83
380.87	1036.86
381.07	1074.31
381.26	1060.26
381.46	1020.47
381.65	959.62
381.85	992.39
382.04	1057.92
382.24	1060.26
382.43	1076.65
382.63	1078.99
382.83	1027.50
383.02	1069.62
383.22	1046.22
383.41	1055.58
383.61	1163.25
383.80	1151.54
384.00	1160.91
384.19	1130.48
384.39	1210.06
384.58	1078.99
384.78	1064.94
384.97	1188.99
385.17	1210.06
385.36	1123.46
385.56	1135.16
385.75	1062.60
385.95	1158.57
386.14	1203.04
386.34	1214.74
386.53	1158.57
386.72	1181.97
386.92	1362.19
387.11	1214.74
387.31	1231.12
387.50	1242.82
387.70	1207.72
387.89	1219.42
388.09	1259.21
388.28	1219.42
388.48	1282.61
388.67	1322.40
388.86	1324.74
389.06	1219.42
389.25	1352.83
389.45	1404.32
389.64	1327.08
389.84	1371.55
390.03	1345.81
390.22	1401.98
390.42	1289.64
390.61	1392.62
390.81	1460.49
391.00	1350.49
391.19	1378.58
391.39	1399.64
391.58	1439.43
391.78	1472.20
391.97	1416.02
392.16	1437.09
392.36	1465.18
392.55	1483.90
392.75	1572.84
392.94	1507.30
393.13	1486.24
393.33	1509.65
393.52	1519.01
393.71	1586.88
393.91	1561.14
394.10	1556.46
394.29	1577.52
394.49	1643.06
394.68	1647.74
394.88	1528.37
395.07	1708.59
395.26	1671.14
395.46	1600.93
395.65	1727.32
395.84	1760.08
396.04	1771.79
396.23	1753.06
396.42	1720.29
396.62	1741.36
396.81	1781.15
397.00	1825.62
397.19	1795.19
397.39	1703.91
397.58	1877.11
397.77	1853.70
397.97	1806.89
398.16	1813.92
398.35	1923.92
398.55	1746.04
398.74	1874.77
398.93	1959.03
399.12	1937.96
399.32	1872.43
399.51	1919.24
399.70	2087.76
399.90	2022.22
400.09	1968.39
400.28	1975.41
400.47	1980.09
400.67	2052.65
400.86	2080.74
401.05	2076.06
401.24	2001.16
401.44	2087.76
401.63	1987.11
401.82	2026.90
402.01	2134.57
402.21	2033.93
402.40	2153.29
402.59	2104.14
402.78	2228.19
402.97	2235.21
403.17	2165.00
403.36	2296.07
403.55	2284.36
403.74	2366.28
403.93	2331.17
404.13	2305.43
404.32	2209.47
404.51	2312.45
404.70	2382.67
404.89	2328.83
405.09	2506.71
405.28	2490.33
405.47	2415.43
405.66	2431.82
405.85	2513.74
406.05	2539.48
406.24	2506.71
406.43	2490.33
406.62	2633.10
406.81	2677.57
407.00	2478.63
407.20	2621.40
407.39	2562.89
407.58	2738.43
407.77	2815.66
407.96	2792.26
408.15	2792.26
408.34	2759.49
408.54	2841.41
408.73	2785.24
408.92	2677.57
409.11	2729.06
409.30	2818.00
409.49	2857.79
409.68	2860.13
409.87	2810.98
410.07	3005.25
410.26	2939.71
410.45	2939.71
410.64	3045.04
410.83	3063.76
411.02	3054.40
411.21	3073.12
411.40	3049.72
411.59	3265.05
411.78	3206.53
411.98	3269.73
412.17	3297.81
412.36	3180.79
412.55	3281.43
412.74	3225.26
412.93	3407.82
413.12	3304.84
413.31	3531.87
413.50	3452.29
413.69	3358.67
413.88	3623.15
414.07	3559.95
414.26	3578.68
414.45	3571.66
414.64	3733.15
414.83	3674.64
415.02	3616.13
415.22	3712.09
415.41	3882.95
415.60	3719.11
415.79	3805.71
415.98	3955.51
416.17	3948.48
416.36	4002.32
416.55	4091.26
416.74	3955.51
416.93	3847.84
417.12	4121.68
417.31	4072.53
417.50	4117.00
417.69	4238.71
417.88	4203.60
418.07	4306.59
418.26	4149.77
418.45	4400.21
418.64	4470.42
418.83	4400.21
419.02	4332.33
419.21	4477.44
419.39	4465.74
419.58	4447.02
419.77	4430.63
419.96	4676.39
420.15	4596.81
420.34	4601.49
420.53	4503.19
420.72	4638.94
420.91	4561.70
421.10	4711.50
421.29	4730.22
421.48	4638.94
421.67	4849.59
421.86	4615.54
422.05	4730.22
422.24	4868.31
422.43	4870.65
422.61	4922.15
422.80	5015.77
422.99	4943.21
423.18	4748.95
423.37	4966.62
423.56	4746.61
423.75	4908.10
423.94	4877.68
424.13	4507.87
424.32	4748.95
424.50	4873.00
424.69	5093.01
424.88	4837.89
425.07	4980.66
425.26	4793.42
425.45	5046.20
425.64	4805.12
425.83	4849.59
426.01	4992.36
426.20	5060.24
426.39	5043.85
426.58	5076.62
426.77	5006.41
426.96	5067.26
427.15	5048.54
427.33	5102.37
427.52	5352.81
427.71	5156.20
427.90	5212.37
428.09	5289.61
428.28	5203.01
428.46	5320.04
428.65	5268.55
428.84	5444.09
429.03	5558.77
429.22	5462.81
429.40	5432.38
429.59	5591.54
429.78	5334.08
429.97	5298.97
430.16	5345.78
430.34	5528.35
430.53	5462.81
430.72	5556.43
430.91	5661.76
431.10	5455.79
431.28	5617.29
431.47	5731.97
431.66	5738.99
431.85	5633.67
432.03	5724.95
432.22	5893.47
432.41	6019.86
432.60	5982.41
432.79	5834.96
432.97	5966.03
433.16	6024.54
433.35	5987.09
433.54	6015.18
433.72	6097.10
433.91	6050.28
434.10	5944.96
434.28	6249.23
434.47	6019.86
434.66	5973.05
434.85	6305.40
435.03	6143.91
435.22	6321.79
435.41	6452.86
435.59	6370.94
435.78	6324.13
435.97	6286.68
436.16	6490.31
436.34	6509.03
436.53	6366.26
436.72	6532.44
436.90	6459.88
437.09	6722.02
437.28	6565.20
437.46	6569.88
437.65	6569.88
437.84	6612.01
438.02	6698.61
438.21	6782.87
438.40	6693.93
438.58	6773.51
438.77	7009.90
438.96	6874.15
439.14	7082.46
439.33	7073.10
439.52	7199.49
439.70	7265.02
439.89	7258.00
440.08	7396.09
440.26	7442.90
440.45	7339.92
440.63	7349.28
440.82	7393.75
441.01	7346.94
441.19	7541.21
441.38	7616.10
441.57	7672.28
441.75	7698.02
441.94	7801.01
442.12	7873.56
442.31	8077.19
442.50	8011.65
442.68	7899.31
442.87	7981.23
443.05	8156.77
443.24	8210.60
443.43	8079.53
443.61	8074.85
443.80	8173.15
443.98	7925.05
444.17	7896.97
444.35	8505.51
444.54	8372.10
444.73	8318.26
444.91	8341.67
445.10	8259.75
445.28	8219.96
445.47	8269.11
445.65	8215.28
445.84	8533.59
446.02	8388.48
446.21	8418.91
446.39	8311.24
446.58	8402.52
446.77	8278.47
446.95	8175.49
447.14	8510.19
447.32	8505.51
447.51	8336.99
447.69	8194.22
447.88	8587.43
448.06	8505.51
448.25	8432.95
448.43	8465.72
448.62	8332.31
448.80	8521.89
448.99	8615.51
449.17	8828.50
449.36	8709.13
449.54	8741.90
449.73	8875.31
449.91	9111.71
450.10	8851.91
450.28	8936.17
450.46	9132.77
450.65	8933.82
450.83	8966.59
451.02	9144.47
451.20	9217.03
451.39	9142.13
451.57	9011.06
451.76	9078.94
451.94	9149.15
452.13	9336.40
452.31	9224.05
452.49	9097.66
452.68	9315.33
452.86	9287.25
453.05	9193.62
453.23	9497.89
453.42	9217.03
453.60	9270.86
453.78	9628.96
453.97	9413.63
454.15	9462.79
454.34	9507.26
454.52	9437.04
454.70	9638.33
454.89	9500.23
455.07	9664.07
455.26	9652.37
455.44	9675.77
455.62	9968.34
455.81	9827.91
455.99	9823.23
456.17	10097.07
456.36	10036.22
456.54	9975.36
456.73	10207.08
456.91	10399.00
457.09	10265.59
457.28	10356.87
457.46	10347.51
457.64	10490.28
457.83	10403.68
458.01	10359.21
458.19	10534.75
458.38	10525.39
458.56	10700.93
458.74	10574.54
458.93	10792.21
459.11	10747.74
459.29	10586.24
459.48	10707.95
459.66	10883.49
459.84	10824.98
460.03	10988.82
460.21	10904.56
460.39	10813.28
460.57	10684.55
460.76	11075.42
460.94	11070.73
461.12	11014.56
461.31	11059.03
461.49	11138.61
461.67	11218.19
461.85	11459.26
462.04	11037.97
462.22	11616.08
462.40	11566.93
462.59	11477.99
462.77	11438.20
462.95	11506.07
463.13	11576.29
463.32	11534.16
463.50	11620.76
463.68	11770.55
463.86	11768.21
464.05	11618.42
464.23	11693.32
464.41	11810.34
464.59	11737.79
464.78	11948.43
464.96	12079.50
465.14	11969.50
465.32	11999.93
465.50	12044.40
465.69	11927.37
465.87	12056.10
466.05	11918.01
466.23	12126.32
466.41	12123.98
466.60	12470.37
466.78	11997.59
466.96	12166.10
467.14	12063.12
467.32	12386.12
467.51	12348.67
467.69	12280.79
467.87	12297.17
468.05	12498.46
468.23	12444.63
468.41	12505.48
468.60	12542.93
468.78	12383.77
468.96	12718.47
469.14	12725.49
469.32	12844.86
469.50	12624.85
469.69	12961.89
469.87	13034.44
470.05	12968.91
470.23	13090.62
470.41	13128.06
470.59	13041.46
470.77	13060.19
470.95	13282.54
471.14	13373.82
471.32	13022.74
471.50	13390.20
471.68	13582.13
471.86	13638.30
472.04	13551.70
472.22	14071.30
472.40	13724.90
472.58	13626.60
472.77	13902.78
472.95	14061.94
473.13	14511.32
473.31	14005.77
473.49	14225.78
473.67	13963.64
473.85	14244.50
474.03	14724.31
474.21	14565.15
474.39	14689.20
474.57	14855.38
474.75	14616.65
474.93	14691.54
475.12	14946.66
475.30	15176.03
475.48	15002.83
475.66	15054.33
475.84	15080.07
476.02	15204.12
476.20	15290.72
476.38	15585.63
476.56	15974.16
476.74	15868.83
476.92	15850.11
477.10	15452.22
477.28	16088.84
477.46	16070.12
477.64	16088.84
477.82	16599.08
478.00	16779.30
478.18	16549.93
478.36	16989.95
478.54	17088.25
478.72	16978.25
478.90	17364.43
479.08	17324.65
479.26	17664.02
479.44	17809.14
479.62	17752.96
479.80	17989.36
479.98	17989.36
480.16	18352.14
480.34	18518.32
480.52	18450.44
480.70	18640.03
480.88	18132.13
481.06	18499.59
481.24	18651.73
481.41	18941.96
481.59	19190.05
481.77	19325.80
481.95	19487.30
482.13	19576.24
482.31	19573.90
482.49	20407.13
482.67	20133.29
482.85	20175.42
483.03	20688.00
483.21	20657.57
483.39	20877.58
483.57	20683.31
483.74	21266.11
483.92	20884.60
484.10	21132.70
484.28	21586.76
484.46	21362.07
484.64	21867.63
484.82	21731.87
485.00	22146.15
485.18	22487.87
485.35	22867.03
485.53	22705.54
485.71	23014.49
485.89	23108.11
486.07	23239.18
486.25	23367.91
486.43	23452.17
486.61	23613.66
486.78	23791.55
486.96	23974.11
487.14	24409.45
487.32	24348.59
487.50	24547.54
487.68	24886.92
487.85	24856.49
488.03	25088.20
488.21	25645.25
488.39	25310.55
488.57	25792.70
488.75	25944.84
488.92	26298.26
489.10	26508.91
489.28	26469.12
489.46	27204.05
489.64	26881.05
489.81	27452.14
489.99	27494.27
490.17	27910.89
490.35	27828.97
490.53	28383.68
490.70	27929.61
490.88	28067.70
491.06	28587.30
491.24	28500.70
491.41	28898.59
491.59	29188.82
491.77	28996.90
491.95	29399.47
492.13	29607.78
492.30	29834.81
492.48	29818.42
492.66	30422.28
492.84	29900.34
493.01	30300.58
493.19	30925.50
493.37	30902.09
493.54	31033.16
493.72	31007.42
493.90	31215.72
494.08	31171.25
494.25	31789.16
494.43	32023.21
494.61	31821.92
494.79	32388.33
494.96	32198.75
495.14	32388.33
495.32	32685.58
495.49	32821.33
495.67	33289.44
495.85	33369.02
496.02	33979.90
496.20	34015.01
496.38	34050.11
496.55	33818.40
496.73	34822.49
496.91	34274.80
497.09	34745.25
497.26	34803.77
497.44	34691.42
497.62	35185.27
497.79	35419.33
497.97	35505.93
498.14	35826.58
498.32	36161.28
498.50	36140.21
498.67	36657.47
498.85	36287.67
499.03	36608.32
499.20	36472.57
499.38	36364.90
499.56	36825.99
499.73	36790.88
499.91	37003.87
500.08	37235.58
500.26	37212.18
500.44	37366.65
500.61	37663.90
500.79	37497.72
500.97	38227.97
501.14	38234.99
501.32	38396.49
501.49	38513.52
501.67	38267.76
501.84	38871.62
502.02	38866.94
502.20	38918.43
502.37	39208.65
502.55	38719.48
502.72	39292.91
502.90	39222.70
503.07	39023.75
503.25	39737.62
503.43	39604.20
503.60	40144.87
503.78	39676.76
503.95	39892.09
504.13	40247.85
504.30	40404.67
504.48	39964.65
504.65	40734.68
504.83	40945.33
505.01	41275.35
505.18	40889.16
505.36	41603.02
505.53	40854.05
505.71	41111.51
505.88	41708.35
506.06	41216.83
506.23	41684.94
506.41	41675.58
506.58	41837.08
506.76	42307.52
506.93	42195.18
507.11	41933.04
507.28	42162.41
507.46	42579.03
507.63	42918.40
507.81	43381.83
507.98	42405.83
508.16	42946.49
508.33	43150.12
508.50	42616.47
508.68	43515.24
508.85	43892.07
509.03	43498.86
509.20	43597.16
509.38	43494.18
509.55	44137.82
509.73	44250.17
509.90	44151.87
510.08	44165.91
510.25	44451.45
510.42	44744.02
510.60	44748.70
510.77	44809.56
510.95	45155.96
511.12	45205.11
511.30	44460.82
511.47	45155.96
511.64	45193.40
511.82	45492.99
511.99	45684.92
512.17	45584.27
512.34	45787.90
512.51	45890.88
512.69	46047.70
512.86	46307.50
513.04	45928.33
513.21	46389.42
513.38	46447.93
513.56	46499.42
513.73	46532.19
513.90	46866.89
514.08	46651.56
514.25	47468.40
514.43	47044.77
514.60	47182.86
514.77	47079.88
514.95	47037.75
515.12	47356.06
515.29	47229.67
515.47	48002.05
515.64	47672.03
515.81	47646.29
515.99	47997.37
516.16	48149.50
516.33	47985.66
516.51	48151.84
516.68	48357.81
516.85	48301.64
517.03	48486.54
517.20	48617.61
517.37	48619.95
517.54	48765.06
517.72	48643.35
517.89	49095.08
518.06	48807.19
518.24	48837.62
518.41	49102.10
518.58	49001.46
518.75	48975.71
518.93	49628.72
519.10	49144.23
519.27	49404.03
519.45	49572.55
519.62	49490.63
519.79	49883.84
519.96	49780.85
520.14	50316.84
520.31	50052.36
520.48	50560.25
520.65	50092.15
520.83	50525.14
521.00	50543.87
521.17	50160.02
521.34	50344.92
521.52	50438.54
521.69	50639.83
521.86	50981.55
522.03	50742.81
522.20	51098.58
522.38	51110.28
522.55	50845.80
522.72	50932.40
522.89	50649.19
523.07	51262.41
523.24	51426.25
523.41	51655.62
523.58	51182.84
523.75	51782.01
523.92	51522.21
524.10	51573.70
524.27	51880.31
524.44	51934.15
524.61	52151.82
524.78	51763.29
524.96	51962.23
525.13	52320.34
525.30	52243.10
525.47	52437.36
525.64	52357.78
525.81	52456.09
525.98	52561.41
526.16	52336.72
526.33	52570.77
526.50	52809.51
526.67	52652.69
526.84	52765.04
527.01	52711.20
527.18	52802.49
527.36	52612.90
527.53	52570.77
527.70	53146.54
527.87	53322.08
528.04	53006.11
528.21	52996.75
528.38	53085.69
528.55	53429.75
528.72	53188.67
528.89	53036.54
529.07	53455.50
529.24	53137.18
529.41	53532.73
529.58	53518.69
529.75	53392.30
529.92	53602.95
530.09	53418.05
530.26	53698.91
530.43	53837.00
530.60	53432.09
530.77	53457.84
530.94	54052.33
531.11	53731.68
531.28	54052.33
531.46	53984.46
531.63	53925.94
531.80	54052.33
531.97	54307.45
532.14	54160.00
532.31	54234.89
532.48	54232.55
532.65	54443.20
532.82	54134.25
532.99	54691.30
533.16	54251.28
533.33	54801.30
533.50	54930.03
533.67	54536.82
533.84	54417.46
534.01	54745.13
534.18	54756.83
534.35	55049.40
534.52	54981.52
534.69	54859.82
534.86	54953.44
535.03	54822.37
535.20	54583.63
535.37	55189.83
535.54	55201.53
535.71	54859.82
535.88	55400.48
536.05	55194.51
536.22	55374.73
536.38	55337.29
536.55	55412.18
536.72	55274.09
536.89	55348.99
537.06	55339.63
537.23	55709.43
537.40	55297.50
537.57	55538.57
537.74	55854.54
537.91	55917.74
538.08	55569.00
538.25	55643.90
538.42	55620.49
538.59	56205.62
538.75	55641.56
538.92	56048.81
539.09	56095.62
539.26	55831.14
539.43	56030.08
539.60	56074.55
539.77	56062.85
539.94	56053.49
540.11	56112.00
540.28	56266.48
540.44	56217.33
540.61	56285.20
540.78	56048.81
540.95	56310.95
541.12	56095.62
541.29	56437.34
541.46	56423.29
541.62	56360.10
541.79	56507.55
541.96	56301.59
542.13	56383.51
542.30	56523.94
542.47	56676.07
542.63	56846.93
542.80	56633.94
542.97	56795.44
543.14	57024.81
543.31	57069.28
543.48	57106.73
543.64	57172.27
543.81	57387.60
543.98	57090.35
544.15	57137.16
544.32	57233.12
544.48	57457.81
544.65	57198.01
544.82	57408.66
544.99	56992.04
545.16	57286.95
545.32	57200.35
545.49	57581.86
545.66	57528.03
545.83	57436.75
546.00	57478.88
546.16	57366.53
546.33	57392.28
546.50	57183.97
546.67	57656.76
546.83	57331.42
547.00	57537.39
547.17	57481.22
547.34	57598.24
547.50	57900.17
547.67	57806.55
547.84	57984.43
548.00	57958.69
548.17	58178.70
548.34	57794.85
548.51	57986.77
548.67	58188.06
548.84	58110.82
549.01	57827.62
549.18	57841.66
549.34	58099.12
549.51	58035.92
549.68	58265.30
549.84	58298.06
550.01	58269.98
550.18	57876.77
550.34	58089.76
550.51	58197.42
550.68	58312.11
550.84	57923.58
551.01	58419.77
551.18	58440.84
551.34	58328.49
551.51	58267.64
551.68	58415.09
551.84	58461.90
552.01	58527.44
552.18	58527.44
552.34	58354.24
552.51	58585.95
552.68	58277.00
552.84	58464.24
553.01	58749.79
553.18	58567.23
553.34	58663.19
553.51	58639.78
553.67	58548.50
553.84	58922.99
554.01	58801.28
554.17	58812.98
554.34	58738.08
554.51	59054.06
554.67	58941.71
554.84	58866.81
555.00	58649.14
555.17	58993.20
555.33	58855.11
555.50	58843.41
555.67	58866.81
555.83	58953.41
556.00	58880.86
556.16	59346.62
556.33	59222.58
556.50	58843.41
556.66	59084.48
556.83	58899.58
556.99	59334.92
557.16	59206.19
557.32	59355.99
557.49	59395.77
557.65	59028.31
557.82	59313.86
557.98	59037.67
558.15	59421.52
558.32	59337.26
558.48	59238.96
558.65	59374.71
558.81	59283.43
558.98	59285.77
559.14	59512.80
559.31	59358.33
559.47	59522.16
559.64	59505.78
559.80	59547.91
559.97	59426.20
560.13	59639.19
560.30	59629.83
560.46	59615.79
560.63	59599.40
560.79	59524.50
560.96	59786.64
561.12	59620.47
561.29	59737.49
561.45	59781.96
561.61	59554.93
561.78	59522.16
561.94	59678.98
562.11	59517.48
562.27	59774.94
562.44	59545.57
562.60	59695.36
562.77	59730.47
562.93	59646.21
563.10	60006.65
563.26	59728.13
563.42	60090.91
563.59	59749.20
563.75	59707.07
563.92	59884.95
564.08	59845.16
564.24	60011.34
564.41	60184.54
564.57	60053.47
564.74	59917.71
564.90	60154.11
565.07	60004.31
565.23	59856.86
565.39	59863.88
565.56	60121.34
565.72	59955.16
565.88	59908.35
566.05	59889.63
566.21	60060.49
566.38	59978.57
566.54	60013.68
566.70	60264.11
566.87	60399.86
567.03	60039.42
567.19	60097.94
567.36	60034.74
567.52	60224.32
567.68	60390.50
567.85	60315.61
568.01	60161.13
568.17	60236.03
568.34	60214.96
568.50	60104.96
568.66	60303.90
568.83	60505.19
568.99	60402.21
569.15	60355.39
569.32	60294.54
569.48	60189.22
569.64	60423.27
569.81	60261.77
569.97	60238.37
570.13	60322.63
570.30	60149.43
570.46	60399.86
570.62	60416.25
570.78	60420.93
570.95	60409.23
571.11	60264.11
571.27	60374.12
571.43	60217.30
571.60	60362.42
571.76	60383.48
571.92	60334.33
572.09	60413.91
572.25	60437.31
572.41	60289.86
572.57	60350.71
572.74	60470.08
572.90	60472.42
573.06	60633.92
573.22	60523.91
573.38	60549.66
573.55	60521.57
573.71	60662.00
573.87	60697.11
574.03	60252.41
574.20	60486.46
574.36	60605.83
574.52	60570.72
574.68	60507.53
574.84	60741.58
575.01	60629.24
575.17	60552.00
575.33	60495.83
575.49	60505.19
575.65	60704.13
575.82	60650.30
575.98	60608.17
576.14	60533.28
576.30	60537.96
576.46	60467.74
576.62	60554.34
576.79	60633.92
576.95	60554.34
577.11	60491.15
577.27	60842.23
577.43	60933.51
577.59	60474.76
577.75	60718.18
577.92	60666.69
578.08	60509.87
578.24	60629.24
578.40	60924.14
578.56	60708.82
578.72	60832.86
578.88	60851.59
579.04	60896.06
579.21	60945.21
579.37	60970.96
579.53	60722.86
579.69	60622.22
579.85	60612.85
580.01	60657.32
580.17	60573.06
580.33	61080.96
580.49	60846.91
580.65	60739.24
580.82	60608.17
580.98	60612.85
581.14	60750.94
581.30	60715.84
581.46	60807.12
581.62	60830.52
581.78	60629.24
581.94	60608.17
582.10	60769.67
582.26	60664.35
582.42	60715.84
582.58	60795.42
582.74	60741.58
582.90	60851.59
583.06	60853.93
583.22	60732.22
583.38	60898.40
583.54	60701.79
583.70	60750.94
583.86	60842.23
584.02	60772.01
584.18	61076.28
584.34	60746.26
584.50	60837.54
584.66	60725.20
584.82	60697.11
584.98	61034.15
585.14	60844.57
585.30	60790.73
585.46	61045.85
585.62	60910.10
585.78	61146.50
585.94	60680.73
586.10	60828.18
586.26	60893.72
586.42	61048.19
586.58	61022.45
586.74	60999.04
586.90	60884.36
587.06	60760.31
587.22	61020.11
587.38	60898.40
587.54	61038.83
587.70	61080.96
587.86	61024.79
588.02	60853.93
588.18	61137.13
588.34	60776.69
588.49	60907.76
