SpectraSuite Data File
++++++++++++++++++++++++++++++++++++
Date: Fri Oct 25 11:25:13 EDT 2013
User: price-jones
Dark Spectrum Present: No
Reference Spectrum Present: No
Number of Sampled Component Spectra: 1
Spectrometers: USB2+H05261
Integration Time (usec): 100000 (USB2+H05261)
Spectra Averaged: 1 (USB2+H05261)
Boxcar Smoothing: 0 (USB2+H05261)
Correct for Electrical Dark: No (USB2+H05261)
Strobe/Lamp Enabled: No (USB2+H05261)
Correct for Detector Non-linearity: No (USB2+H05261)
Correct for Stray Light: No (USB2+H05261)
Number of Pixels in Processed Spectrum: 2048
>>>>>Begin Processed Spectral Data<<<<<
365.73	245.76
365.92	245.76
366.12	245.76
366.32	166.18
366.52	98.30
366.72	145.11
366.91	117.03
367.11	191.92
367.31	124.05
367.51	166.18
367.70	65.54
367.90	72.56
368.10	126.39
368.30	88.94
368.49	117.03
368.69	126.39
368.89	145.11
369.09	163.84
369.28	196.60
369.48	163.84
369.68	177.88
369.87	203.63
370.07	177.88
370.27	262.14
370.47	337.04
370.66	681.10
370.86	617.90
371.06	613.22
371.25	655.35
371.45	695.14
371.65	711.52
371.84	624.92
372.04	660.03
372.24	723.23
372.44	734.93
372.63	667.05
372.83	660.03
373.03	685.78
373.22	816.85
373.42	777.06
373.62	737.27
373.81	791.10
374.01	826.21
374.21	772.38
374.40	802.80
374.60	840.25
374.79	814.51
374.99	826.21
375.19	826.21
375.38	898.77
375.58	861.32
375.78	814.51
375.97	854.30
376.17	945.58
376.37	835.57
376.56	863.66
376.76	873.02
376.95	821.53
377.15	866.00
377.35	784.08
377.54	858.98
377.74	837.91
377.93	856.64
378.13	912.81
378.33	877.70
378.52	873.02
378.72	901.11
378.91	964.30
379.11	915.15
379.31	947.92
379.50	931.53
379.70	926.85
379.89	973.66
380.09	954.94
380.28	1039.20
380.48	976.00
380.68	933.87
380.87	978.34
381.07	1018.13
381.26	1036.86
381.46	1062.60
381.65	1008.77
381.85	999.41
382.04	1025.15
382.24	994.73
382.43	1062.60
382.63	1015.79
382.83	1109.41
383.02	1078.99
383.22	1130.48
383.41	1081.33
383.61	1048.56
383.80	1163.25
384.00	1181.97
384.19	1062.60
384.39	1053.24
384.58	1151.54
384.78	1083.67
384.97	1205.38
385.17	1081.33
385.36	1172.61
385.56	1156.22
385.75	1111.75
385.95	1207.72
386.14	1212.40
386.34	1160.91
386.53	1184.31
386.72	1116.44
386.92	1212.40
387.11	1240.48
387.31	1207.72
387.50	1193.67
387.70	1313.04
387.89	1308.36
388.09	1210.06
388.28	1301.34
388.48	1352.83
388.67	1378.58
388.86	1343.47
389.06	1348.15
389.25	1322.40
389.45	1392.62
389.64	1315.38
389.84	1362.19
390.03	1322.40
390.22	1399.64
390.42	1399.64
390.61	1420.71
390.81	1383.26
391.00	1362.19
391.19	1348.15
391.39	1490.92
391.58	1493.26
391.78	1493.26
391.97	1493.26
392.16	1472.20
392.36	1568.16
392.55	1409.00
392.75	1511.99
392.94	1453.47
393.13	1490.92
393.33	1511.99
393.52	1493.26
393.71	1593.90
393.91	1570.50
394.10	1556.46
394.29	1682.85
394.49	1617.31
394.68	1570.50
394.88	1584.54
395.07	1661.78
395.26	1673.48
395.46	1607.95
395.65	1713.27
395.84	1668.80
396.04	1729.66
396.23	1799.87
396.42	1724.97
396.62	1682.85
396.81	1732.00
397.00	1699.23
397.19	1755.40
397.39	1788.17
397.58	1952.01
397.77	1703.91
397.97	1804.55
398.16	1853.70
398.35	1867.75
398.55	1940.30
398.74	1778.81
398.93	1991.80
399.12	1963.71
399.32	1776.47
399.51	1905.20
399.70	1987.11
399.90	1998.82
400.09	2022.22
400.28	2043.29
400.47	2010.52
400.67	1977.75
400.86	2085.42
401.05	1994.14
401.24	1977.75
401.44	2040.95
401.63	2143.93
401.82	2134.57
402.01	2167.34
402.21	2188.40
402.40	2097.12
402.59	2141.59
402.78	2193.08
402.97	2270.32
403.17	2172.02
403.36	2155.63
403.55	2328.83
403.74	2394.37
403.93	2361.60
404.13	2347.56
404.32	2448.20
404.51	2267.98
404.70	2443.52
404.89	2401.39
405.09	2495.01
405.28	2459.90
405.47	2462.24
405.66	2492.67
405.85	2462.24
406.05	2513.74
406.24	2448.20
406.43	2602.68
406.62	2647.15
406.81	2553.52
407.00	2581.61
407.20	2595.65
407.39	2499.69
407.58	2670.55
407.77	2668.21
407.96	2768.85
408.15	2764.17
408.34	2579.27
408.54	2719.70
408.73	2717.36
408.92	2693.96
409.11	2801.62
409.30	2888.22
409.49	2792.26
409.68	2827.37
409.87	2930.35
410.07	2953.76
410.26	3002.91
410.45	2902.26
410.64	2944.39
410.83	3080.14
411.02	3042.70
411.21	3101.21
411.40	3075.46
411.59	3148.02
411.78	3173.77
411.98	3279.09
412.17	3176.11
412.36	3286.11
412.55	3396.12
412.74	3375.05
412.93	3405.48
413.12	3433.57
413.31	3510.80
413.50	3398.46
413.69	3389.10
413.88	3581.02
414.07	3552.93
414.26	3454.63
414.45	3524.85
414.64	3431.23
414.83	3700.39
415.02	3747.20
415.22	3908.69
415.41	3772.94
415.60	3815.07
415.79	3943.80
415.98	3899.33
416.17	3990.61
416.36	3948.48
416.55	4002.32
416.74	4149.77
416.93	3995.29
417.12	4077.21
417.31	3936.78
417.50	4196.58
417.69	4194.24
417.88	4205.94
418.07	4257.43
418.26	4325.31
418.45	4407.23
418.64	4561.70
418.83	4435.32
419.02	4524.26
419.21	4564.04
419.39	4503.19
419.58	4402.55
419.77	4542.98
419.96	4315.95
420.15	4519.57
420.34	4528.94
420.53	4606.17
420.72	4671.71
420.91	4748.95
421.10	4627.24
421.29	4657.67
421.48	4608.51
421.67	4758.31
421.86	4851.93
422.05	4931.51
422.24	4692.77
422.43	4669.37
422.61	4877.68
422.80	4896.40
422.99	4854.27
423.18	5015.77
423.37	5022.79
423.56	4915.12
423.75	4912.78
423.94	4720.86
424.13	4526.60
424.32	4704.48
424.50	4961.94
424.69	4980.66
424.88	5006.41
425.07	4915.12
425.26	4894.06
425.45	4870.65
425.64	4980.66
425.83	4997.04
426.01	5102.37
426.20	5011.09
426.39	5156.20
426.58	5011.09
426.77	4847.25
426.96	5125.77
427.15	5053.22
427.33	5144.50
427.52	5107.05
427.71	5254.50
427.90	5144.50
428.09	5378.55
428.28	5275.57
428.46	5284.93
428.65	5247.48
428.84	5378.55
429.03	5458.13
429.22	5317.70
429.40	5502.60
429.59	5554.09
429.78	5273.23
429.97	5284.93
430.16	5320.04
430.34	5406.64
430.53	5593.88
430.72	5530.69
430.91	5493.24
431.10	5490.90
431.28	5605.58
431.47	5746.02
431.66	5837.30
431.85	5738.99
432.03	5781.12
432.22	5792.83
432.41	5771.76
432.60	5771.76
432.79	5839.64
432.97	5947.30
433.16	6008.16
433.35	5947.30
433.54	6010.50
433.72	6040.92
433.91	5923.90
434.10	6054.97
434.28	6080.71
434.47	6150.93
434.66	6127.52
434.85	6186.04
435.03	6188.38
435.22	6296.04
435.41	6349.87
435.59	6293.70
435.78	6408.39
435.97	6279.66
436.16	6361.58
436.34	6356.90
436.53	6284.34
436.72	6504.35
436.90	6356.90
437.09	6434.13
437.28	6553.50
437.46	6494.99
437.65	6574.56
437.84	6771.17
438.02	6693.93
438.21	6707.98
438.40	6647.12
438.58	6920.96
438.77	6944.37
438.96	6885.86
439.14	7232.26
439.33	7117.57
439.52	6895.22
439.70	7005.22
439.89	7208.85
440.08	7382.05
440.26	7351.62
440.45	7260.34
440.63	7360.98
440.82	7447.58
441.01	7531.84
441.19	7435.88
441.38	7644.19
441.57	7592.70
441.75	7815.05
441.94	7686.32
442.12	7786.96
442.31	7932.08
442.50	7903.99
442.68	7911.01
442.87	7901.65
443.05	7927.39
443.24	8351.03
443.43	8126.34
443.61	8161.45
443.80	8287.84
443.98	7983.57
444.17	7744.83
444.35	8226.98
444.54	8236.35
444.73	8280.82
444.91	8175.49
445.10	8386.14
445.28	8308.90
445.47	8287.84
445.65	8266.77
445.84	8449.33
446.02	8461.04
446.21	8304.22
446.39	8336.99
446.58	8351.03
446.77	8358.05
446.95	8205.92
447.14	8271.45
447.32	8393.16
447.51	8489.12
447.69	8320.60
447.88	8496.14
448.06	8358.05
448.25	8580.40
448.43	8500.83
448.62	8739.56
448.80	8601.47
448.99	8521.89
449.17	8617.85
449.36	8472.74
449.54	8762.97
449.73	8777.01
449.91	8875.31
450.10	8819.14
450.28	8751.26
450.46	9128.09
450.65	8945.53
450.83	8872.97
451.02	8938.51
451.20	9125.75
451.39	9036.81
451.57	9256.82
451.76	9001.70
451.94	9109.36
452.13	9479.17
452.31	9233.41
452.49	9104.68
452.68	9088.30
452.86	9123.41
453.05	9401.93
453.23	9444.06
453.42	9322.35
453.60	9118.73
453.78	9502.58
453.97	9214.69
454.15	9418.32
454.34	9263.84
454.52	9366.82
454.70	9483.85
454.89	9685.14
455.07	9631.30
455.26	9795.14
455.44	9706.20
455.62	9790.46
455.81	9675.77
455.99	9823.23
456.17	9956.64
456.36	9837.27
456.54	10066.64
456.73	9987.07
456.91	10178.99
457.09	10415.38
457.28	10410.70
457.46	10174.31
457.64	10574.54
457.83	10462.19
458.01	10429.43
458.19	10462.19
458.38	10436.45
458.56	10686.89
458.74	10583.90
458.93	10558.16
459.11	10555.82
459.29	10642.42
459.48	10824.98
459.66	10729.02
459.84	10761.78
460.03	10951.37
460.21	10885.83
460.39	10963.07
460.57	10991.16
460.76	11049.67
460.94	11126.91
461.12	11157.33
461.31	10850.72
461.49	10951.37
461.67	10930.30
461.85	11417.13
462.04	11052.01
462.22	11634.80
462.40	11452.24
462.59	11442.88
462.77	11260.32
462.95	11503.73
463.13	11461.60
463.32	11599.70
463.50	11468.62
463.68	11838.43
463.86	11796.30
464.05	11515.44
464.23	11573.95
464.41	11737.79
464.59	11534.16
464.78	11932.05
464.96	11985.88
465.14	11826.73
465.32	11889.92
465.50	11861.84
465.69	12074.82
465.87	11939.07
466.05	11906.31
466.23	11925.03
466.41	11913.33
466.60	12542.93
466.78	11957.80
466.96	12168.45
467.14	12229.30
467.32	12177.81
467.51	12645.91
467.69	11882.90
467.87	12315.90
468.05	12606.13
468.23	12241.00
468.41	12503.14
468.60	12582.72
468.78	12716.13
468.96	12355.69
469.14	12898.69
469.32	12788.69
469.50	12519.53
469.69	12776.98
469.87	12994.65
470.05	13018.06
470.23	13135.09
470.41	12936.14
470.59	13067.21
470.77	13011.04
470.95	13352.76
471.14	13624.26
471.32	12971.25
471.50	13231.05
471.68	13671.07
471.86	13544.68
472.04	13378.50
472.22	14078.32
472.40	13713.20
472.58	13640.64
472.77	13989.38
472.95	14127.47
473.13	14354.51
473.31	13778.73
473.49	13893.42
473.67	14005.77
473.85	14286.63
474.03	14408.34
474.21	14616.65
474.39	14429.40
474.57	14565.15
474.75	14579.20
474.93	14892.83
475.12	14661.12
475.30	14876.44
475.48	14792.19
475.66	15157.31
475.84	15122.20
476.02	15192.42
476.20	15302.42
476.38	15578.61
476.56	15807.98
476.74	15962.45
476.92	15845.43
477.10	15618.39
477.28	16093.52
477.46	16142.67
477.64	16016.29
477.82	16315.87
478.00	16603.76
478.18	16549.93
478.36	16814.41
478.54	16697.38
478.72	16772.28
478.90	17355.07
479.08	17385.50
479.26	17469.76
479.44	17762.33
479.62	17635.94
479.80	17825.52
479.98	18031.49
480.16	18267.88
480.34	18043.19
480.52	18176.60
480.70	18298.31
480.88	18295.97
481.06	18663.43
481.24	18420.02
481.41	18663.43
481.59	19056.64
481.77	19351.55
481.95	19058.98
482.13	19391.34
482.31	19749.44
482.49	20128.61
482.67	20095.84
482.85	20449.26
483.03	20500.75
483.21	20666.93
483.39	20613.10
483.57	20418.83
483.74	20900.98
483.92	21188.87
484.10	21062.48
484.28	21294.19
484.46	21823.16
484.64	22270.20
484.82	21652.30
485.00	22207.00
485.18	22473.82
485.35	22647.02
485.53	22513.61
485.71	22817.88
485.89	23073.00
486.07	22717.24
486.25	23351.52
486.43	23199.39
486.61	23637.07
486.78	23833.68
486.96	23943.68
487.14	24465.62
487.32	24315.83
487.50	24772.23
487.68	24648.18
487.85	24793.29
488.03	25385.45
488.21	25591.42
488.39	25504.82
488.57	25834.83
488.75	25846.54
488.92	26068.89
489.10	26106.34
489.28	26480.82
489.46	26579.12
489.64	26539.33
489.81	27292.99
489.99	27218.09
490.17	27587.89
490.35	27501.29
490.53	28126.22
490.70	28311.12
490.88	28130.90
491.06	28547.51
491.24	28643.48
491.41	28650.50
491.59	29254.36
491.77	29191.16
491.95	29212.23
492.13	29598.41
492.30	29450.96
492.48	29642.88
492.66	29806.72
492.84	30043.12
493.01	30534.63
493.19	30178.87
493.37	30625.91
493.54	31005.08
493.72	31063.59
493.90	31318.71
494.08	31763.41
494.25	31559.78
494.43	31620.64
494.61	31941.29
494.79	32231.52
494.96	31885.12
495.14	32376.63
495.32	32938.36
495.49	33191.14
495.67	32959.42
495.85	33406.47
496.02	32954.74
496.20	33743.50
496.38	33720.10
496.55	33968.19
496.73	34614.18
496.91	34178.84
497.09	34735.89
497.26	34721.85
497.44	34705.46
497.62	35337.41
497.79	35529.33
497.97	35154.85
498.14	35316.34
498.32	35721.26
498.50	35938.93
498.67	36364.90
498.85	35950.63
499.03	36116.81
499.20	36301.71
499.38	36435.12
499.56	36605.98
499.73	36680.88
499.91	36943.02
500.08	37626.45
500.26	37256.65
500.44	36935.99
500.61	37785.61
500.79	37734.12
500.97	37766.88
501.14	38391.81
501.32	38827.15
501.49	37963.49
501.67	38223.29
501.84	38316.91
502.02	38738.21
502.20	38990.98
502.37	38822.47
502.55	38974.60
502.72	39297.59
502.90	39569.10
503.07	39171.21
503.25	39335.04
503.43	39196.95
503.60	39789.11
503.78	39859.32
503.95	39723.57
504.13	39845.28
504.30	40505.31
504.48	40105.08
504.65	40313.39
504.83	40594.25
505.01	40847.03
505.18	40837.67
505.36	41322.16
505.53	40973.42
505.71	41415.78
505.88	41282.37
506.06	41209.81
506.23	41858.14
506.41	41553.87
506.58	41497.70
506.76	41830.05
506.93	42277.10
507.11	41792.61
507.28	41956.44
507.46	42410.51
507.63	42784.99
507.81	42686.69
507.98	42347.31
508.16	42852.87
508.33	43213.31
508.50	43058.84
508.68	43225.01
508.85	43761.00
509.03	43438.00
509.20	43688.44
509.38	43707.16
509.55	44278.25
509.73	43999.73
509.90	44360.17
510.08	44079.31
510.25	44116.76
510.42	44498.26
510.60	44243.15
510.77	45212.13
510.95	45521.08
511.12	44605.93
511.30	44680.83
511.47	45090.42
511.64	45081.06
511.82	45382.99
511.99	45364.26
512.17	45542.14
512.34	45134.89
512.51	46045.36
512.69	46038.34
512.86	45811.31
513.04	46085.15
513.21	46220.90
513.38	46422.19
513.56	46471.34
513.73	46211.54
513.90	46843.48
514.08	46710.07
514.25	47065.83
514.43	46897.31
514.60	46880.93
514.77	46951.15
514.95	47098.60
515.12	47508.19
515.29	47297.55
515.47	47643.94
515.64	48023.11
515.81	47683.73
515.99	47711.82
516.16	47936.51
516.33	48130.78
516.51	48140.14
516.68	47901.40
516.85	48086.31
517.03	48191.63
517.20	48303.98
517.37	48371.85
517.54	48306.32
517.72	48519.31
517.89	48949.96
518.06	48989.75
518.24	48772.08
518.41	48638.67
518.58	48772.08
518.75	48804.85
518.93	49085.72
519.10	48846.98
519.27	49380.62
519.45	49694.25
519.62	49542.12
519.79	49680.21
519.96	49436.80
520.14	49902.56
520.31	49996.18
520.48	49818.30
520.65	49979.80
520.83	50246.62
521.00	50387.05
521.17	50225.56
521.34	50241.94
521.52	50515.78
521.69	50452.59
521.86	50160.02
522.03	50969.85
522.20	51016.66
522.38	51267.09
522.55	51028.36
522.72	50796.65
522.89	51124.32
523.07	51517.53
523.24	51164.11
523.41	51660.30
523.58	51358.38
523.75	51292.84
523.92	51309.22
524.10	51686.05
524.27	51529.23
524.44	51892.02
524.61	52105.01
524.78	51812.44
524.96	51906.06
525.13	51875.63
525.30	52137.77
525.47	52226.71
525.64	52041.81
525.81	52254.80
525.98	52339.06
526.16	52425.66
526.33	52509.92
526.50	52692.48
526.67	52554.39
526.84	52650.35
527.01	52516.94
527.18	52659.71
527.36	52449.06
527.53	52640.99
527.70	52769.72
527.87	52956.96
528.04	53003.77
528.21	53066.97
528.38	53092.71
528.55	53286.98
528.72	53003.77
528.89	53312.72
529.07	53301.02
529.24	53038.88
529.41	53446.13
529.58	53375.92
529.75	53602.95
529.92	53605.29
530.09	53174.63
530.26	53762.11
530.43	53682.53
530.60	53490.60
530.77	53787.85
530.94	53705.93
531.11	53748.06
531.28	53881.47
531.46	53839.34
531.63	53923.60
531.80	53841.68
531.97	54017.22
532.14	54145.95
532.31	54309.79
532.48	54248.94
532.65	54244.26
532.82	54253.62
532.99	54585.97
533.16	54258.30
533.33	54284.04
533.50	54576.61
533.67	54468.95
533.84	54585.97
534.01	54396.39
534.18	54735.77
534.35	55065.78
534.52	54681.94
534.69	54831.73
534.86	54899.61
535.03	54695.98
535.20	54986.21
535.37	55229.62
535.54	55112.59
535.71	55152.38
535.88	55281.11
536.05	55138.34
536.22	55112.59
536.38	55540.91
536.55	55681.34
536.72	55405.16
536.89	55222.60
537.06	55458.99
537.23	55395.80
537.40	55269.41
537.57	55079.83
537.74	55744.54
537.91	55845.18
538.08	55737.52
538.25	55510.49
538.42	55594.74
538.59	55772.63
538.75	55789.01
538.92	55957.53
539.09	55945.83
539.26	55952.85
539.43	55826.46
539.60	55838.16
539.77	56034.77
539.94	56051.15
540.11	56112.00
540.28	56275.84
540.44	56037.11
540.61	56315.63
540.78	56161.15
540.95	56203.28
541.12	56004.34
541.29	56266.48
541.46	56423.29
541.62	56252.44
541.79	56451.38
541.96	56324.99
542.13	56278.18
542.30	56376.48
542.47	56437.34
542.63	56804.80
542.80	56608.20
542.97	56781.40
543.14	56980.34
543.31	56961.62
543.48	56715.86
543.64	57385.25
543.81	57146.52
543.98	56992.04
544.15	57123.11
544.32	57228.44
544.48	57235.46
544.65	57106.73
544.82	57333.76
544.99	56999.07
545.16	57375.89
545.32	57258.87
545.49	57385.25
545.66	57481.22
545.83	57453.13
546.00	57542.07
546.16	57434.41
546.33	57317.38
546.50	57525.69
546.67	57532.71
546.83	57272.91
547.00	57441.43
547.17	57420.36
547.34	57691.86
547.50	57741.02
547.67	57759.74
547.84	57808.89
548.00	57808.89
548.17	57825.28
548.34	57972.73
548.51	58094.44
548.67	58059.33
548.84	57815.91
549.01	58003.16
549.18	57998.48
549.34	58033.58
549.51	58078.05
549.68	58190.40
549.84	58136.57
550.01	58169.33
550.18	58192.74
550.34	58319.13
550.51	58253.59
550.68	58192.74
550.84	57904.85
551.01	58262.96
551.18	58075.71
551.34	58227.85
551.51	58365.94
551.68	58258.27
551.84	58356.58
552.01	58148.27
552.18	58356.58
552.34	58138.91
552.51	58344.87
552.68	58389.34
552.84	58431.47
553.01	58553.18
553.18	58726.38
553.34	58834.05
553.51	58534.46
553.67	58597.65
553.84	58752.13
554.01	58801.28
554.17	58738.08
554.34	58763.83
554.51	58810.64
554.67	58885.54
554.84	58585.95
555.00	58653.82
555.17	58827.02
555.33	58976.82
555.50	58794.26
555.67	58562.54
555.83	58698.30
556.00	58897.24
556.16	59152.36
556.33	59210.87
556.50	59110.23
556.66	58962.78
556.83	58857.45
556.99	59398.12
557.16	59355.99
557.32	59283.43
557.49	59302.15
557.65	58878.52
557.82	59281.09
557.98	59131.29
558.15	59278.75
558.32	59253.00
558.48	59302.15
558.65	59458.97
558.81	59238.96
558.98	59391.09
559.14	59299.81
559.31	59517.48
559.47	59334.92
559.64	59437.90
559.80	59150.02
559.97	59501.10
560.13	59370.03
560.30	59505.78
560.46	59409.82
560.63	59576.00
560.79	59536.21
560.96	59765.58
561.12	59803.03
561.29	59730.47
561.45	59744.51
561.61	59700.04
561.78	59618.13
561.94	59648.55
562.11	59526.84
562.27	59650.89
562.44	59798.35
562.60	59777.28
562.77	59629.83
562.93	59807.71
563.10	59929.42
563.26	59636.85
563.42	60030.06
563.59	59800.69
563.75	59653.23
563.92	59814.73
564.08	59594.72
564.24	59997.29
564.41	60226.66
564.57	59978.57
564.74	59875.58
564.90	59941.12
565.07	59849.84
565.23	59938.78
565.39	59922.40
565.56	59861.54
565.72	59831.11
565.88	59941.12
566.05	59873.24
566.21	59786.64
566.38	59889.63
566.54	60104.96
566.70	60247.73
566.87	60196.24
567.03	59952.82
567.19	60320.29
567.36	59969.21
567.52	60126.02
567.68	60310.92
567.85	60303.90
568.01	60350.71
568.17	60254.75
568.34	60500.51
568.50	60074.53
568.66	60030.06
568.83	60409.23
568.99	60135.38
569.15	60107.30
569.32	60133.04
569.48	60266.45
569.64	60231.35
569.81	60236.03
569.97	60044.10
570.13	60198.58
570.30	60163.47
570.46	60292.20
570.62	60296.88
570.78	60308.58
570.95	60275.82
571.11	60322.63
571.27	60357.74
571.43	60172.83
571.60	60229.01
571.76	60430.29
571.92	60369.44
572.09	60514.55
572.25	60449.02
572.41	60261.77
572.57	60273.48
572.74	60624.56
572.90	60282.84
573.06	60278.16
573.22	60449.02
573.38	60334.33
573.55	60324.97
573.71	60547.32
573.87	60495.83
574.03	60535.62
574.20	60566.04
574.36	60289.86
574.52	60554.34
574.68	60458.38
574.84	60654.98
575.01	60608.17
575.17	60320.29
575.33	60516.89
575.49	60491.15
575.65	60502.85
575.82	60690.09
575.98	60484.12
576.14	60718.18
576.30	60509.87
576.46	60544.98
576.62	60566.04
576.79	60587.11
576.95	60495.83
577.11	60530.93
577.27	60669.03
577.43	60917.12
577.59	60507.53
577.75	60530.93
577.92	60610.51
578.08	60341.35
578.24	60444.33
578.40	60640.94
578.56	60734.56
578.72	60650.30
578.88	60814.14
579.04	60633.92
579.21	60725.20
579.37	60739.24
579.53	60736.90
579.69	60451.36
579.85	60556.68
580.01	60587.11
580.17	60413.91
580.33	60612.85
580.49	60821.16
580.65	60952.23
580.82	60589.45
580.98	60617.53
581.14	60516.89
581.30	60851.59
581.46	60809.46
581.62	60807.12
581.78	60608.17
581.94	60664.35
582.10	60713.50
582.26	60650.30
582.42	60734.56
582.58	60715.84
582.74	60685.41
582.90	60790.73
583.06	60772.01
583.22	60734.56
583.38	60629.24
583.54	60493.49
583.70	60673.71
583.86	60821.16
584.02	60706.47
584.18	61059.90
584.34	60769.67
584.50	60633.92
584.66	60591.79
584.82	60626.90
584.98	60835.20
585.14	60889.04
585.30	60736.90
585.46	60783.71
585.62	60823.50
585.78	60809.46
585.94	60718.18
586.10	60828.18
586.26	60949.89
586.42	60825.84
586.58	60893.72
586.74	60966.27
586.90	60645.62
587.06	60727.54
587.22	61003.72
587.38	60788.39
587.54	60809.46
587.70	60835.20
587.86	60753.29
588.02	61010.74
588.18	61095.00
588.34	60853.93
588.49	60903.08
