SpectraSuite Data File
++++++++++++++++++++++++++++++++++++
Date: Fri Oct 25 10:43:25 EDT 2013
User: price-jones
Dark Spectrum Present: No
Reference Spectrum Present: No
Number of Sampled Component Spectra: 1
Spectrometers: USB2+H05261
Integration Time (usec): 100000 (USB2+H05261)
Spectra Averaged: 1 (USB2+H05261)
Boxcar Smoothing: 0 (USB2+H05261)
Correct for Electrical Dark: No (USB2+H05261)
Strobe/Lamp Enabled: No (USB2+H05261)
Correct for Detector Non-linearity: No (USB2+H05261)
Correct for Stray Light: No (USB2+H05261)
Number of Pixels in Processed Spectrum: 2048
>>>>>Begin Processed Spectral Data<<<<<
365.73	84.26
365.92	84.26
366.12	84.26
366.32	0.00
366.52	0.00
366.72	7.02
366.91	9.36
367.11	0.00
367.31	0.00
367.51	0.00
367.70	0.00
367.90	67.88
368.10	93.62
368.30	0.00
368.49	65.54
368.69	25.75
368.89	0.00
369.09	35.11
369.28	93.62
369.48	86.60
369.68	84.26
369.87	81.92
370.07	124.05
370.27	128.73
370.47	128.73
370.66	365.12
370.86	456.40
371.06	451.72
371.25	531.30
371.45	437.68
371.65	428.32
371.84	470.45
372.04	477.47
372.24	491.51
372.44	477.47
372.63	512.58
372.83	507.90
373.03	486.83
373.22	594.50
373.42	533.64
373.62	526.62
373.81	498.53
374.01	528.96
374.21	535.98
374.40	507.90
374.60	547.69
374.79	547.69
374.99	573.43
375.19	589.82
375.38	571.09
375.58	585.13
375.78	587.47
375.97	437.68
376.17	601.52
376.37	545.34
376.56	634.29
376.76	709.18
376.95	557.05
377.15	622.58
377.35	702.16
377.54	650.67
377.74	674.07
377.93	631.94
378.13	648.33
378.33	627.26
378.52	613.22
378.72	671.73
378.91	629.60
379.11	645.99
379.31	622.58
379.50	688.12
379.70	667.05
379.89	741.95
380.09	692.80
380.28	603.86
380.48	613.22
380.68	606.20
380.87	655.35
381.07	662.37
381.26	753.65
381.46	720.88
381.65	699.82
381.85	592.16
382.04	751.31
382.24	615.56
382.43	671.73
382.63	730.25
382.83	758.33
383.02	777.06
383.22	753.65
383.41	725.57
383.61	655.35
383.80	802.80
384.00	718.54
384.19	812.17
384.39	770.04
384.58	767.70
384.78	807.48
384.97	835.57
385.17	744.29
385.36	833.23
385.56	744.29
385.75	826.21
385.95	819.19
386.14	765.36
386.34	770.04
386.53	842.59
386.72	807.48
386.92	863.66
387.11	763.01
387.31	819.19
387.50	856.64
387.70	880.04
387.89	835.57
388.09	866.00
388.28	814.51
388.48	938.55
388.67	884.72
388.86	926.85
389.06	973.66
389.25	959.62
389.45	924.51
389.64	917.49
389.84	968.98
390.03	994.73
390.22	1018.13
390.42	973.66
390.61	978.34
390.81	997.07
391.00	968.98
391.19	1008.77
391.39	940.90
391.58	992.39
391.78	973.66
391.97	994.73
392.16	1064.94
392.36	968.98
392.55	976.00
392.75	1004.09
392.94	943.24
393.13	926.85
393.33	950.26
393.52	1078.99
393.71	1015.79
393.91	1076.65
394.10	1149.20
394.29	1128.14
394.49	1137.50
394.68	1188.99
394.88	1135.16
395.07	1259.21
395.26	1188.99
395.46	1240.48
395.65	1231.12
395.84	1179.63
396.04	1212.40
396.23	1128.14
396.42	1196.01
396.62	1144.52
396.81	1160.91
397.00	1263.89
397.19	1306.02
397.39	1217.08
397.58	1282.61
397.77	1366.87
397.97	1486.24
398.16	1364.53
398.35	1413.68
398.55	1427.73
398.74	1385.60
398.93	1533.05
399.12	1423.05
399.32	1416.02
399.51	1469.86
399.70	1549.43
399.90	1572.84
400.09	1519.01
400.28	1568.16
400.47	1490.92
400.67	1598.59
400.86	1617.31
401.05	1547.09
401.24	1600.93
401.44	1563.48
401.63	1664.12
401.82	1696.89
402.01	1633.69
402.21	1640.72
402.40	1603.27
402.59	1724.97
402.78	1706.25
402.97	1774.13
403.17	1781.15
403.36	1783.49
403.55	1790.51
403.74	1858.39
403.93	1764.76
404.13	1849.02
404.32	1762.42
404.51	1832.64
404.70	1792.85
404.89	1912.22
405.09	1898.17
405.28	1898.17
405.47	1891.15
405.66	1886.47
405.85	1923.92
406.05	1825.62
406.24	2085.42
406.43	1933.28
406.62	2062.01
406.81	1947.33
407.00	2054.99
407.20	1982.43
407.39	2080.74
407.58	2057.33
407.77	2054.99
407.96	2106.48
408.15	2115.84
408.34	2221.17
408.54	2291.38
408.73	2165.00
408.92	2246.91
409.11	2300.75
409.30	2251.60
409.49	2265.64
409.68	2291.38
409.87	2272.66
410.07	2328.83
410.26	2232.87
410.45	2338.20
410.64	2380.32
410.83	2464.58
411.02	2415.43
411.21	2483.31
411.40	2462.24
411.59	2452.88
411.78	2518.42
411.98	2513.74
412.17	2640.12
412.36	2633.10
412.55	2640.12
412.74	2647.15
412.93	2637.78
413.12	2607.36
413.31	2808.64
413.50	2780.56
413.69	2773.53
413.88	2892.90
414.07	2892.90
414.26	2759.49
414.45	2796.94
414.64	2825.03
414.83	2902.26
415.02	2895.24
415.22	3061.42
415.41	3101.21
415.60	3026.31
415.79	3155.04
415.98	3234.62
416.17	3028.65
416.36	3222.92
416.55	3234.62
416.74	3176.11
416.93	3131.64
417.12	3215.90
417.31	3274.41
417.50	3279.09
417.69	3438.25
417.88	3412.50
418.07	3314.20
418.26	3309.52
418.45	3421.86
418.64	3506.12
418.83	3442.93
419.02	3482.72
419.21	3501.44
419.39	3501.44
419.58	3501.44
419.77	3438.25
419.96	3569.32
420.15	3623.15
420.34	3487.40
420.53	3733.15
420.72	3733.15
420.91	3630.17
421.10	3761.24
421.29	3754.22
421.48	3679.32
421.67	3866.56
421.86	3866.56
422.05	3744.86
422.24	3784.65
422.43	3726.13
422.61	3686.34
422.80	3786.99
422.99	3749.54
423.18	3737.84
423.37	3920.40
423.56	3819.75
423.75	3985.93
423.94	3782.31
424.13	3597.40
424.32	3691.02
424.50	3847.84
424.69	3871.25
424.88	3950.82
425.07	3789.33
425.26	3826.78
425.45	3815.07
425.64	3875.93
425.83	3751.88
426.01	4058.49
426.20	3981.25
426.39	3796.35
426.58	3889.97
426.77	3810.39
426.96	3822.09
427.15	3866.56
427.33	4133.39
427.52	3976.57
427.71	4124.02
427.90	4002.32
428.09	3911.04
428.28	3997.64
428.46	4210.62
428.65	4063.17
428.84	4088.92
429.03	4236.37
429.22	4063.17
429.40	4126.36
429.59	4145.09
429.78	3955.51
429.97	3812.73
430.16	3962.53
430.34	4030.40
430.53	4065.51
430.72	4208.28
430.91	4210.62
431.10	4234.03
431.28	4568.73
431.47	4461.06
431.66	4383.82
431.85	4512.55
432.03	4631.92
432.22	4465.74
432.41	4648.30
432.60	4538.30
432.79	4599.15
432.97	4713.84
433.16	4695.11
433.35	4484.47
433.54	4542.98
433.72	4521.92
433.91	4652.98
434.10	4594.47
434.28	4557.02
434.47	4760.65
434.66	4676.39
434.85	4669.37
435.03	4938.53
435.22	4695.11
435.41	5018.11
435.59	4851.93
435.78	4931.51
435.97	5107.05
436.16	5060.24
436.34	5013.43
436.53	4994.70
436.72	5170.24
436.90	4837.89
437.09	5085.98
437.28	4954.91
437.46	5055.56
437.65	5139.82
437.84	5111.73
438.02	5025.13
438.21	5076.62
438.40	4966.62
438.58	5357.49
438.77	5268.55
438.96	5109.39
439.14	5380.89
439.33	5626.65
439.52	5418.34
439.70	5626.65
439.89	5427.70
440.08	5671.12
440.26	5518.98
440.45	5750.70
440.63	5888.79
440.82	5802.19
441.01	5930.92
441.19	5863.04
441.38	5944.96
441.57	6092.41
441.75	5935.60
441.94	5977.73
442.12	6108.80
442.31	6270.30
442.50	6214.12
442.68	6274.98
442.87	6162.63
443.05	6274.98
443.24	6464.56
443.43	6408.39
443.61	6494.99
443.80	6286.68
443.98	6195.40
444.17	6064.33
444.35	6356.90
444.54	6422.43
444.73	6363.92
444.91	6415.41
445.10	6408.39
445.28	6422.43
445.47	6305.40
445.65	6387.32
445.84	6232.85
446.02	6576.91
446.21	6403.71
446.39	6546.48
446.58	6614.35
446.77	6478.60
446.95	6480.94
447.14	6480.94
447.32	6572.22
447.51	6490.31
447.69	6572.22
447.88	6619.04
448.06	6597.97
448.25	6597.97
448.43	6668.19
448.62	6679.89
448.80	6689.25
448.99	6672.87
449.17	6796.92
449.36	6665.85
449.54	6817.98
449.73	6998.20
449.91	6853.09
450.10	7091.82
450.28	6960.75
450.46	7138.63
450.65	6956.07
450.83	7033.31
451.02	6963.09
451.20	6958.41
451.39	6974.80
451.57	6843.73
451.76	7033.31
451.94	7112.89
452.13	7103.53
452.31	7035.65
452.49	6932.67
452.68	7162.04
452.86	6986.50
453.05	7302.47
453.23	7201.83
453.42	7178.42
453.60	7047.35
453.78	7297.79
453.97	7094.16
454.15	7382.05
454.34	7152.68
454.52	7672.28
454.70	7351.62
454.89	7328.22
455.07	7424.18
455.26	7323.54
455.44	7548.23
455.62	7473.33
455.81	7578.65
455.99	7487.37
456.17	7480.35
456.36	7665.25
456.54	7896.97
456.73	7920.37
456.91	7850.16
457.09	8049.10
457.28	8084.21
457.46	7749.51
457.64	8009.31
457.83	7751.85
458.01	7786.96
458.19	8091.23
458.38	8018.68
458.56	7999.95
458.74	8006.97
458.93	8170.81
459.11	8013.99
459.29	8046.76
459.48	8030.38
459.66	8180.17
459.84	8114.64
460.03	8519.55
460.21	8348.69
460.39	8514.87
460.57	8332.31
460.76	8344.01
460.94	8517.21
461.12	8386.14
461.31	8292.52
461.49	8512.53
461.67	8404.86
461.85	8456.36
462.04	8538.27
462.22	8999.36
462.40	8683.39
462.59	8716.16
462.77	8718.50
462.95	8772.33
463.13	8879.99
463.32	8615.51
463.50	8655.30
463.68	8732.54
463.86	8903.40
464.05	8777.01
464.23	8823.82
464.41	8674.03
464.59	8746.58
464.78	9284.91
464.96	9036.81
465.14	8865.95
465.32	8947.87
465.50	9064.89
465.69	9125.75
465.87	9048.51
466.05	9123.41
466.23	8959.57
466.41	9018.08
466.60	9263.84
466.78	8711.47
466.96	9217.03
467.14	9081.28
467.32	9076.60
467.51	9427.68
467.69	9015.74
467.87	9219.37
468.05	9142.13
468.23	9284.91
468.41	9118.73
468.60	9301.29
468.78	9397.25
468.96	9371.50
469.14	9430.02
469.32	9518.96
469.50	9240.44
469.69	9563.43
469.87	9418.32
470.05	9696.84
470.23	9387.89
470.41	9584.49
470.59	9645.35
470.77	9664.07
470.95	9820.89
471.14	9991.75
471.32	9846.63
471.50	9982.38
471.68	9989.41
471.86	10211.76
472.04	10296.02
472.22	10459.85
472.40	10038.56
472.58	10104.09
472.77	10218.78
472.95	10300.70
473.13	10796.89
473.31	10253.89
473.49	10298.36
473.67	10441.13
473.85	10569.86
474.03	10757.10
474.21	10576.88
474.39	10703.27
474.57	11033.29
474.75	10881.15
474.93	11016.90
475.12	10832.00
475.30	11044.99
475.48	11056.69
475.66	11183.08
475.84	11115.20
476.02	11133.93
476.20	11077.76
476.38	11419.47
476.56	11665.23
476.74	11665.23
476.92	11646.51
477.10	11550.54
477.28	11793.96
477.46	11803.32
477.64	12042.06
477.82	12177.81
478.00	12231.64
478.18	12327.60
478.36	12252.70
478.54	12409.52
478.72	12493.78
478.90	12568.68
479.08	12830.82
479.26	13055.51
479.44	12903.37
479.62	13011.04
479.80	13191.26
479.98	13057.85
480.16	13446.38
480.34	13432.33
480.52	13355.10
480.70	13551.70
480.88	13413.61
481.06	13951.93
481.24	13444.04
481.41	14017.47
481.59	13928.53
481.77	14303.01
481.95	14064.28
482.13	14057.26
482.31	14408.34
482.49	14487.92
482.67	14326.42
482.85	14607.28
483.03	15070.71
483.21	14965.39
483.39	15122.20
483.57	14906.87
483.74	15243.91
483.92	15524.77
484.10	14843.68
484.28	15562.22
484.46	15922.66
484.64	15929.69
484.82	16137.99
485.00	15889.90
485.18	16002.24
485.35	16217.57
485.53	15917.98
485.71	16018.63
485.89	16285.45
486.07	16154.38
486.25	16655.25
486.43	16709.08
486.61	16673.98
486.78	16727.81
486.96	17252.09
487.14	17296.56
487.32	17514.23
487.50	17820.84
487.68	17827.86
487.85	17977.65
488.03	17958.93
488.21	18045.53
488.39	18031.49
488.57	18017.44
488.75	18740.67
488.92	18845.99
489.10	18754.71
489.28	19066.00
489.46	19686.25
489.64	19248.57
489.81	19768.16
489.99	19826.68
490.17	19817.32
490.35	20044.35
490.53	19775.19
490.70	19754.12
490.88	19969.45
491.06	20467.98
491.24	20182.44
491.41	20570.97
491.59	20482.03
491.77	20465.64
491.95	20566.29
492.13	20821.41
492.30	21254.40
492.48	21156.10
492.66	21219.30
492.84	21465.05
493.01	21844.22
493.19	21486.12
493.37	21951.88
493.54	22005.72
493.72	21994.01
493.90	22068.91
494.08	22644.68
494.25	22492.55
494.43	22867.03
494.61	22988.74
494.79	23363.23
494.96	22857.67
495.14	23356.21
495.32	22881.08
495.49	23718.99
495.67	23651.11
495.85	23569.19
496.02	23620.69
496.20	23559.83
496.38	23793.89
496.55	23960.06
496.73	24592.01
496.91	24247.95
497.09	24229.23
497.26	24828.40
497.44	24641.16
497.62	24996.92
497.79	25172.46
497.97	24615.41
498.14	25097.56
498.32	25254.38
498.50	25198.21
498.67	25610.14
498.85	25544.61
499.03	25715.47
499.20	25659.29
499.38	25748.23
499.56	25937.82
499.73	26160.17
499.91	25776.32
500.08	26143.78
500.26	25872.28
500.44	25928.45
500.61	26242.09
500.79	26335.71
500.97	26628.27
501.14	26820.20
501.32	26766.37
501.49	26497.20
501.67	26384.86
501.84	26923.18
502.02	27323.41
502.20	27278.94
502.37	27510.66
502.55	27660.45
502.72	27513.00
502.90	27044.89
503.07	27459.16
503.25	27564.49
503.43	27339.80
503.60	27686.20
503.78	27590.24
503.95	27791.52
504.13	27730.67
504.30	28030.26
504.48	28170.69
504.65	28222.18
504.83	28254.95
505.01	28676.24
505.18	28671.56
505.36	28828.38
505.53	28711.35
505.71	28989.88
505.88	29340.96
506.06	28947.75
506.23	29259.04
506.41	28954.77
506.58	29240.31
506.76	29336.27
506.93	29291.80
507.11	29413.51
507.28	29729.48
507.46	29209.89
507.63	29317.55
507.81	29865.24
507.98	29930.77
508.16	29986.94
508.33	29961.20
508.50	30026.73
508.68	30326.32
508.85	31037.84
509.03	30569.74
509.20	30726.55
509.38	30422.28
509.55	30672.72
509.73	30543.99
509.90	30944.22
510.08	30974.65
510.25	30749.96
510.42	30998.06
510.60	31229.77
510.77	31307.01
510.95	31754.05
511.12	31543.40
511.30	31192.32
511.47	31552.76
511.64	31615.96
511.82	31253.17
511.99	31634.68
512.17	32020.87
512.34	31463.82
512.51	32121.51
512.69	32364.93
512.86	32091.09
513.04	32165.98
513.21	32128.53
513.38	31941.29
513.56	31978.74
513.73	32151.94
513.90	32477.27
514.08	32643.45
514.25	32575.58
514.43	32519.40
514.60	32652.81
514.77	32449.19
514.95	33057.73
515.12	32868.14
515.29	32837.72
515.47	33216.88
515.64	33385.40
515.81	33130.28
515.99	32961.76
516.16	33134.96
516.33	32884.53
516.51	33429.87
516.68	32725.37
516.85	32985.17
517.03	33397.10
517.20	33659.24
517.37	33748.18
517.54	34195.23
517.72	33553.92
517.89	33366.68
518.06	33673.29
518.24	34080.54
518.41	33996.28
518.58	34068.84
518.75	34073.52
518.93	34508.86
519.10	34164.80
519.27	34438.64
519.45	34490.13
519.62	34625.89
519.79	34789.72
519.96	34817.81
520.14	34852.92
520.31	34834.19
520.48	34986.33
520.65	34930.16
520.83	35239.11
521.00	35526.99
521.17	35330.39
521.34	35597.21
521.52	35594.87
521.69	35608.91
521.86	35700.19
522.03	35564.44
522.20	35747.00
522.38	35676.79
522.55	36098.08
522.72	35669.76
522.89	35859.35
523.07	36409.37
523.24	36442.14
523.41	36463.21
523.58	35835.94
523.75	36746.41
523.92	36428.10
524.10	36811.95
524.27	36552.15
524.44	36407.03
524.61	36594.28
524.78	36751.09
524.96	37160.69
525.13	37160.69
525.30	37294.10
525.47	37446.23
525.64	37067.06
525.81	37371.33
525.98	36797.90
526.16	37083.45
526.33	36865.78
526.50	36931.31
526.67	36872.80
526.84	37130.26
527.01	37160.69
527.18	37041.32
527.36	37656.88
527.53	37647.52
527.70	37703.69
527.87	37591.34
528.04	37769.22
528.21	37851.14
528.38	38244.35
528.55	37888.59
528.72	38653.95
528.89	38639.90
529.07	38447.98
529.24	37886.25
529.41	38345.00
529.58	38408.19
529.75	38457.34
529.92	38492.45
530.09	38286.48
530.26	38873.96
530.43	38307.55
530.60	38808.42
530.77	38462.02
530.94	38792.04
531.11	38403.51
531.28	38731.18
531.46	38892.68
531.63	38735.87
531.80	38955.88
531.97	38967.58
532.14	38806.08
532.31	38792.04
532.48	38986.30
532.65	39351.43
532.82	39042.48
532.99	39311.64
533.16	39199.29
533.33	39386.54
533.50	39730.59
533.67	39360.79
533.84	39636.97
534.01	39613.57
534.18	39100.99
534.35	39854.64
534.52	39725.91
534.69	39995.07
534.86	39985.71
535.03	39505.90
535.20	39903.79
535.37	40704.26
535.54	40116.78
535.71	39618.25
535.88	40460.84
536.05	40177.64
536.22	40339.13
536.38	40065.29
536.55	40250.19
536.72	40367.22
536.89	40327.43
537.06	40465.52
537.23	40531.06
537.40	40065.29
537.57	40739.36
537.74	40575.53
537.91	40856.39
538.08	40720.64
538.25	40500.63
538.42	40411.69
538.59	40662.13
538.75	40615.32
538.92	40718.30
539.09	40968.74
539.26	40711.28
539.43	40992.14
539.60	41027.25
539.77	40772.13
539.94	40458.50
540.11	40879.80
540.28	41188.75
540.44	40835.33
540.61	41195.77
540.78	40952.35
540.95	41212.15
541.12	40828.30
541.29	41193.43
541.46	41368.97
541.62	41340.88
541.79	41242.58
541.96	41160.66
542.13	41474.29
542.30	41329.18
542.47	41738.77
542.63	41525.78
542.80	41631.11
542.97	41645.15
543.14	42195.18
543.31	41954.10
543.48	42054.75
543.64	42459.66
543.81	42291.14
543.98	42131.98
544.15	42057.09
544.32	42110.92
544.48	42836.48
544.65	42651.58
544.82	42176.45
544.99	42064.11
545.16	42387.10
545.32	41792.61
545.49	42534.56
545.66	42829.46
545.83	42464.34
546.00	42518.17
546.16	42417.53
546.33	42274.76
546.50	42309.86
546.67	42691.37
546.83	42321.57
547.00	42623.50
547.17	42660.94
547.34	42541.58
547.50	43023.73
547.67	43295.23
547.84	42974.58
548.00	43131.39
548.17	43079.90
548.34	42546.26
548.51	43641.63
548.67	43028.41
548.84	43335.02
549.01	43608.86
549.18	42803.72
549.34	43215.65
549.51	43330.34
549.68	43084.58
549.84	43564.39
550.01	43164.16
550.18	42724.14
550.34	43646.31
550.51	43423.96
550.68	43229.69
550.84	43234.38
551.01	43718.87
551.18	43428.64
551.34	43201.61
551.51	43433.32
551.68	43847.60
551.84	43400.55
552.01	43611.20
552.18	43545.67
552.34	43332.68
552.51	43313.95
552.68	43704.82
552.84	44149.53
553.01	43906.11
553.18	43739.93
553.34	43981.01
553.51	43796.10
553.67	43840.57
553.84	44392.94
554.01	44259.53
554.17	44360.17
554.34	44346.13
554.51	44259.53
554.67	44240.81
554.84	43948.24
555.00	44271.23
555.17	44058.24
555.33	44053.56
555.50	44406.98
555.67	44753.38
555.83	44385.92
556.00	44233.78
556.16	44868.07
556.33	44320.38
556.50	44254.85
556.66	44254.85
556.83	43880.36
556.99	44727.64
557.16	44271.23
557.32	44531.03
557.49	44631.68
557.65	44367.20
557.82	44451.45
557.98	44659.76
558.15	44664.44
558.32	44671.46
558.48	43948.24
558.65	44842.32
558.81	44313.36
558.98	44500.61
559.14	44425.71
559.31	44315.70
559.47	44587.21
559.64	44451.45
559.80	44715.93
559.97	44985.10
560.13	44055.90
560.30	44463.16
560.46	45031.91
560.63	45127.87
560.79	45027.23
560.96	45345.54
561.12	44924.24
561.29	44861.05
561.45	44924.24
561.61	45261.28
561.78	44643.38
561.94	44636.36
562.11	44865.73
562.27	44755.72
562.44	45134.89
562.60	45038.93
562.77	45195.74
562.93	45371.28
563.10	45118.51
563.26	44959.35
563.42	45209.79
563.59	45097.44
563.75	45247.24
563.92	45343.20
564.08	44856.37
564.24	45415.76
564.41	44928.92
564.57	45144.25
564.74	45240.21
564.90	45137.23
565.07	45216.81
565.23	45179.36
565.39	45132.55
565.56	44825.94
565.72	44898.50
565.88	44891.48
566.05	44783.81
566.21	45106.80
566.38	44996.80
566.54	45242.56
566.70	45373.63
566.87	45432.14
567.03	45530.44
567.19	45469.59
567.36	45064.67
567.52	45518.74
567.68	45289.37
567.85	45188.72
568.01	45230.85
568.17	45600.66
568.34	45359.58
568.50	45109.14
568.66	45263.62
568.83	45411.07
568.99	44774.45
569.15	44905.52
569.32	45104.46
569.48	45050.63
569.64	45844.07
569.81	45968.12
569.97	45490.65
570.13	45453.20
570.30	45247.24
570.46	45478.95
570.62	44919.56
570.78	44851.69
570.95	44959.35
571.11	45691.94
571.27	45338.52
571.43	45340.86
571.60	45663.85
571.76	45233.19
571.92	45404.05
572.09	45343.20
572.25	45413.41
572.41	45916.63
572.57	45640.45
572.74	45902.59
572.90	45322.13
573.06	45705.98
573.22	45361.92
573.38	45488.31
573.55	45155.96
573.71	45827.69
573.87	46012.59
574.03	45385.33
574.20	45467.25
574.36	45483.63
574.52	45628.74
574.68	45361.92
574.84	45308.09
575.01	45305.75
575.17	45345.54
575.33	44940.63
575.49	45371.28
575.65	45443.84
575.82	45331.50
575.98	45385.33
576.14	45628.74
576.30	45696.62
576.46	45191.06
576.62	44975.73
576.79	45333.84
576.95	45170.00
577.11	45687.26
577.27	45815.99
577.43	45429.80
577.59	45254.26
577.75	45340.86
577.92	45008.50
578.08	45155.96
578.24	44905.52
578.40	45485.97
578.56	45422.78
578.72	45099.78
578.88	45689.60
579.04	45720.02
579.21	45448.52
579.37	45270.64
579.53	45195.74
579.69	45511.72
579.85	45560.87
580.01	45598.32
580.17	45450.86
580.33	46122.60
580.49	45502.35
580.65	45202.77
580.82	45666.19
580.98	45750.45
581.14	45448.52
581.30	45628.74
581.46	45146.59
581.62	45490.65
581.78	45895.56
581.94	45862.80
582.10	45745.77
582.26	45600.66
582.42	45429.80
582.58	45656.83
582.74	45549.17
582.90	45343.20
583.06	45741.09
583.22	46129.62
583.38	45879.18
583.54	45942.38
583.70	45745.77
583.86	45961.10
584.02	45790.24
584.18	45366.60
584.34	45354.90
584.50	45921.31
584.66	45846.41
584.82	45256.60
584.98	45471.93
585.14	45460.23
585.30	45514.06
585.46	45521.08
585.62	45303.41
585.78	45612.36
585.94	45219.15
586.10	45413.41
586.26	45563.21
586.42	45785.56
586.58	46082.81
586.74	45226.17
586.90	45460.23
587.06	45230.85
587.22	45883.86
587.38	45956.42
587.54	45347.88
587.70	46183.45
587.86	45603.00
588.02	45415.76
588.18	45647.47
588.34	45361.92
588.49	45237.87
588.65	45095.10
588.81	45179.36
588.97	45162.98
589.13	45270.64
589.29	45088.08
589.45	45441.50
589.61	45741.09
589.77	45841.73
589.93	45879.18
590.08	46057.06
590.24	46021.95
