SpectraSuite Data File
++++++++++++++++++++++++++++++++++++
Date: Fri Oct 25 11:22:38 EDT 2013
User: price-jones
Dark Spectrum Present: No
Reference Spectrum Present: No
Number of Sampled Component Spectra: 1
Spectrometers: USB2+H05261
Integration Time (usec): 100000 (USB2+H05261)
Spectra Averaged: 1 (USB2+H05261)
Boxcar Smoothing: 0 (USB2+H05261)
Correct for Electrical Dark: No (USB2+H05261)
Strobe/Lamp Enabled: No (USB2+H05261)
Correct for Detector Non-linearity: No (USB2+H05261)
Correct for Stray Light: No (USB2+H05261)
Number of Pixels in Processed Spectrum: 2048
>>>>>Begin Processed Spectral Data<<<<<
365.73	241.08
365.92	241.08
366.12	241.08
366.32	217.67
366.52	154.48
366.72	86.60
366.91	173.20
367.11	119.37
367.31	37.45
367.51	154.48
367.70	51.49
367.90	135.75
368.10	79.58
368.30	37.45
368.49	119.37
368.69	149.79
368.89	168.52
369.09	168.52
369.28	191.92
369.48	135.75
369.68	196.60
369.87	208.31
370.07	215.33
370.27	224.69
370.47	355.76
370.66	617.90
370.86	650.67
371.06	688.12
371.25	641.31
371.45	610.88
371.65	751.31
371.84	748.97
372.04	744.29
372.24	685.78
372.44	734.93
372.63	781.74
372.83	692.80
373.03	688.12
373.22	758.33
373.42	681.10
373.62	697.48
373.81	791.10
374.01	772.38
374.21	777.06
374.40	863.66
374.60	821.53
374.79	875.36
374.99	746.63
375.19	737.27
375.38	901.11
375.58	791.10
375.78	873.02
375.97	844.93
376.17	947.92
376.37	887.06
376.56	903.45
376.76	919.83
376.95	901.11
377.15	896.43
377.35	943.24
377.54	894.08
377.74	842.59
377.93	903.45
378.13	976.00
378.33	877.70
378.52	922.17
378.72	1006.43
378.91	882.38
379.11	868.34
379.31	950.26
379.50	1020.47
379.70	940.90
379.89	973.66
380.09	922.17
380.28	1015.79
380.48	1008.77
380.68	959.62
380.87	945.58
381.07	1039.20
381.26	954.94
381.46	1053.24
381.65	1013.45
381.85	1069.62
382.04	1139.84
382.24	1071.97
382.43	1074.31
382.63	1011.11
382.83	1074.31
383.02	1123.46
383.22	1090.69
383.41	1139.84
383.61	1144.52
383.80	1125.80
384.00	1093.03
384.19	1074.31
384.39	1132.82
384.58	1188.99
384.78	1076.65
384.97	1064.94
385.17	1235.80
385.36	1102.39
385.56	1160.91
385.75	1121.12
385.95	1181.97
386.14	1240.48
386.34	1200.69
386.53	1284.95
386.72	1238.14
386.92	1259.21
387.11	1163.25
387.31	1259.21
387.50	1245.16
387.70	1270.91
387.89	1256.87
388.09	1240.48
388.28	1228.78
388.48	1371.55
388.67	1270.91
388.86	1343.47
389.06	1291.98
389.25	1352.83
389.45	1383.26
389.64	1345.81
389.84	1390.28
390.03	1418.36
390.22	1282.61
390.42	1343.47
390.61	1423.05
390.81	1448.79
391.00	1448.79
391.19	1451.13
391.39	1465.18
391.58	1448.79
391.78	1516.67
391.97	1472.20
392.16	1437.09
392.36	1497.94
392.55	1544.75
392.75	1575.18
392.94	1439.43
393.13	1563.48
393.33	1577.52
393.52	1610.29
393.71	1631.35
393.91	1547.09
394.10	1558.80
394.29	1610.29
394.49	1584.54
394.68	1558.80
394.88	1741.36
395.07	1631.35
395.26	1682.85
395.46	1778.81
395.65	1708.59
395.84	1689.87
396.04	1701.57
396.23	1743.70
396.42	1771.79
396.62	1776.47
396.81	1748.38
397.00	1753.06
397.19	1732.00
397.39	1811.57
397.58	1907.54
397.77	1811.57
397.97	1771.79
398.16	1788.17
398.35	1877.11
398.55	1930.94
398.74	1909.88
398.93	1891.15
399.12	1977.75
399.32	2031.58
399.51	1872.43
399.70	2022.22
399.90	1879.45
400.09	2062.01
400.28	2101.80
400.47	2085.42
400.67	2108.82
400.86	1975.41
401.05	2090.10
401.24	2108.82
401.44	2092.44
401.63	2160.31
401.82	2115.84
402.01	2139.25
402.21	2277.34
402.40	2188.40
402.59	2195.42
402.78	2246.91
402.97	2197.76
403.17	2230.53
403.36	2218.83
403.55	2296.07
403.74	2317.13
403.93	2450.54
404.13	2363.94
404.32	2441.18
404.51	2387.35
404.70	2462.24
404.89	2415.43
405.09	2537.14
405.28	2518.42
405.47	2487.99
405.66	2434.16
405.85	2506.71
406.05	2483.31
406.24	2581.61
406.43	2619.06
406.62	2651.83
406.81	2609.70
407.00	2558.21
407.20	2445.86
407.39	2766.51
407.58	2724.38
407.77	2691.62
407.96	2773.53
408.15	2693.96
408.34	2616.72
408.54	2895.24
408.73	2698.64
408.92	2768.85
409.11	2904.60
409.30	2892.90
409.49	2995.89
409.68	2946.73
409.87	2965.46
410.07	3023.97
410.26	2944.39
410.45	3005.25
410.64	3000.57
410.83	3045.04
411.02	3155.04
411.21	3236.96
411.40	3187.81
411.59	3234.62
411.78	3148.02
411.98	3236.96
412.17	3344.63
412.36	3215.90
412.55	3361.01
412.74	3417.18
412.93	3417.18
413.12	3314.20
413.31	3634.85
413.50	3499.10
413.69	3410.16
413.88	3613.79
414.07	3648.90
414.26	3620.81
414.45	3611.45
414.64	3721.45
414.83	3822.09
415.02	3847.84
415.22	3833.80
415.41	4058.49
415.60	3899.33
415.79	3833.80
415.98	4051.47
416.17	3967.21
416.36	4009.34
416.55	4002.32
416.74	4081.89
416.93	4161.47
417.12	4191.90
417.31	4217.65
417.50	4278.50
417.69	4278.50
417.88	4348.72
418.07	4285.52
418.26	4301.90
418.45	4456.38
418.64	4645.96
418.83	4437.66
419.02	4337.01
419.21	4662.35
419.39	4699.80
419.58	4681.07
419.77	4503.19
419.96	4545.32
420.15	4503.19
420.34	4631.92
420.53	4702.14
420.72	4629.58
420.91	4697.46
421.10	4858.95
421.29	4755.97
421.48	4631.92
421.67	4779.37
421.86	4833.21
422.05	4858.95
422.24	4767.67
422.43	4894.06
422.61	4856.61
422.80	4847.25
422.99	4943.21
423.18	4842.57
423.37	5048.54
423.56	4887.04
423.75	4835.55
423.94	4812.14
424.13	4741.93
424.32	4807.46
424.50	4961.94
424.69	5165.56
424.88	5114.07
425.07	4784.06
425.26	5050.88
425.45	5034.49
425.64	4968.96
425.83	5191.31
426.01	5039.17
426.20	5018.11
426.39	5198.33
426.58	5142.16
426.77	5158.54
426.96	5233.44
427.15	5149.18
427.33	5226.42
427.52	5074.28
427.71	5280.25
427.90	5289.61
428.09	5282.59
428.28	5305.99
428.46	5458.13
428.65	5413.66
428.84	5493.24
429.03	5554.09
429.22	5460.47
429.40	5413.66
429.59	5397.28
429.78	5341.10
429.97	5242.80
430.16	5542.39
430.34	5708.57
430.53	5724.95
430.72	5687.50
430.91	5661.76
431.10	5776.44
431.28	5870.06
431.47	5762.40
431.66	5884.11
431.85	5858.36
432.03	5966.03
432.22	6043.26
432.41	6024.54
432.60	6045.60
432.79	5951.98
432.97	6143.91
433.16	6256.25
433.35	5989.43
433.54	6146.25
433.72	6174.33
433.91	6078.37
434.10	6204.76
434.28	6230.51
434.47	6179.01
434.66	6408.39
434.85	6345.19
435.03	6436.47
435.22	6263.27
435.41	6602.65
435.59	6368.60
435.78	6476.26
435.97	6597.97
436.16	6459.88
436.34	6443.49
436.53	6513.71
436.72	6796.92
436.90	6551.16
437.09	6864.79
437.28	6410.73
437.46	6551.16
437.65	6722.02
437.84	6899.90
438.02	6740.74
438.21	6885.86
438.40	6850.75
438.58	7007.56
438.77	7101.19
438.96	6991.18
439.14	7126.93
439.33	7096.50
439.52	7068.42
439.70	7222.89
439.89	7573.97
440.08	7269.70
440.26	7456.95
440.45	7630.15
440.63	7499.08
440.82	7719.09
441.01	7508.44
441.19	7555.25
441.38	7791.64
441.57	7791.64
441.75	7868.88
441.94	7948.46
442.12	7896.97
442.31	7922.71
442.50	7985.91
442.68	7971.86
442.87	7971.86
443.05	8210.60
443.24	8173.15
443.43	8245.71
443.61	8273.79
443.80	8507.85
443.98	8116.98
444.17	7840.79
444.35	8250.39
444.54	8535.93
444.73	8355.71
444.91	8372.10
445.10	8360.39
445.28	8463.38
445.47	8234.00
445.65	8346.35
445.84	8521.89
446.02	8547.64
446.21	8444.65
446.39	8465.72
446.58	8559.34
446.77	8472.74
446.95	8299.54
447.14	8353.37
447.32	8500.83
447.51	8634.24
447.69	8730.20
447.88	8559.34
448.06	8674.03
448.25	8538.27
448.43	8538.27
448.62	8505.51
448.80	8638.92
448.99	8781.69
449.17	8835.52
449.36	8805.10
449.54	8968.93
449.73	8854.25
449.91	9025.11
450.10	9036.81
450.28	9174.90
450.46	9071.92
450.65	9219.37
450.83	9221.71
451.02	9142.13
451.20	9387.89
451.39	9163.20
451.57	9334.06
451.76	9212.35
451.94	9259.16
452.13	9366.82
452.31	9301.29
452.49	9104.68
452.68	9509.60
452.86	9369.16
453.05	9547.05
453.23	9624.28
453.42	9355.12
453.60	9408.95
453.78	9591.52
453.97	9544.70
454.15	9736.63
454.34	9640.67
454.52	9844.29
454.70	9668.75
454.89	9823.23
455.07	9575.13
455.26	9973.02
455.44	10228.14
455.62	10064.30
455.81	10026.86
455.99	10078.35
456.17	10101.75
456.36	10195.37
456.54	10312.40
456.73	10305.38
456.91	10436.45
457.09	10544.11
457.28	10457.51
457.46	10326.44
457.64	10525.39
457.83	10590.92
458.01	10356.87
458.19	10942.00
458.38	10609.65
458.56	10750.08
458.74	10670.50
458.93	10707.95
459.11	10752.42
459.29	10698.59
459.48	10778.17
459.66	10813.28
459.84	11176.06
460.03	11101.16
460.21	11049.67
460.39	11124.57
460.57	11246.27
460.76	11185.42
460.94	11590.33
461.12	11185.42
461.31	11183.08
461.49	11056.69
461.67	11318.83
461.85	11667.57
462.04	11391.39
462.22	11852.47
462.40	11803.32
462.59	11569.27
462.77	11674.59
462.95	11892.26
463.13	11751.83
463.32	11646.51
463.50	11740.13
463.68	11747.15
463.86	12091.21
464.05	11592.67
464.23	11817.36
464.41	12037.38
464.59	11637.14
464.78	12138.02
464.96	12079.50
465.14	11978.86
465.32	11901.62
465.50	12224.62
465.69	12255.04
465.87	12250.36
466.05	12077.16
466.23	12341.64
466.41	12248.02
466.60	12500.80
466.78	12177.81
466.96	12416.54
467.14	12493.78
467.32	12475.06
467.51	12608.47
467.69	12486.76
467.87	12610.81
468.05	12610.81
468.23	12404.84
468.41	12585.06
468.60	12704.43
468.78	12863.58
468.96	12629.53
469.14	12788.69
469.32	12847.20
469.50	12809.75
469.69	13006.36
469.87	13195.94
470.05	13041.46
470.23	13221.69
470.41	13137.43
470.59	13542.34
470.77	13245.09
470.95	13329.35
471.14	13748.31
471.32	13577.45
471.50	13561.06
471.68	13757.67
471.86	13628.94
472.04	13832.57
472.22	13987.04
472.40	13771.71
472.58	14019.81
472.77	14141.52
472.95	14221.10
473.13	14572.18
473.31	14003.43
473.49	14340.46
473.67	14415.36
473.85	14202.37
474.03	14600.26
474.21	14637.71
474.39	14815.59
474.57	14745.38
474.75	14862.40
474.93	15161.99
475.12	15140.93
475.30	15421.79
475.48	15021.56
475.66	15260.29
475.84	15459.24
476.02	15529.45
476.20	15496.69
476.38	15894.58
476.56	16219.91
476.74	16152.04
476.92	16100.55
477.10	16105.23
477.28	16659.93
477.46	16315.87
477.64	16531.20
477.82	16556.95
478.00	17165.49
478.18	16940.80
478.36	17144.42
478.54	17729.56
478.72	17322.30
478.90	17666.36
479.08	17905.10
479.26	18080.64
479.44	17738.92
479.62	18197.67
479.80	18178.94
479.98	18317.03
480.16	18817.91
480.34	18567.47
480.52	18457.46
480.70	18850.67
480.88	18735.99
481.06	18984.09
481.24	19136.22
481.41	19339.85
481.59	19014.51
481.77	19683.91
481.95	19864.13
482.13	20086.48
482.31	19880.51
482.49	20240.95
482.67	20477.35
482.85	20482.03
483.03	20727.78
483.21	21010.99
483.39	20896.30
483.57	21053.12
483.74	21212.28
483.92	21451.01
484.10	21238.02
484.28	21720.17
484.46	21935.50
484.64	22338.07
484.82	22052.53
485.00	22705.54
485.18	22581.49
485.35	23159.60
485.53	22916.19
485.71	23051.94
485.89	23592.60
486.07	23623.03
486.25	23634.73
486.43	23611.32
486.61	24016.24
486.78	24102.84
486.96	24512.43
487.14	24514.77
487.32	25081.18
487.50	25270.76
487.68	25376.09
487.85	26075.91
488.03	25696.74
488.21	25993.99
488.39	25865.26
488.57	26522.95
488.75	26134.42
488.92	26979.36
489.10	26700.83
489.28	26871.69
489.46	27239.15
489.64	27229.79
489.81	27718.96
489.99	27828.97
490.17	27943.66
490.35	28341.55
490.53	28587.30
490.70	28594.32
490.88	28589.64
491.06	29113.92
491.24	29069.45
491.41	29277.76
491.59	29469.69
491.77	29687.36
491.95	30066.52
492.13	30012.69
492.30	30284.19
492.48	30354.41
492.66	30448.03
492.84	30415.26
493.01	31131.47
493.19	31021.46
493.37	30899.75
493.54	31459.14
493.72	31716.60
493.90	31428.71
494.08	31892.14
494.25	32091.09
494.43	32362.59
494.61	32322.80
494.79	32545.15
494.96	32655.15
495.14	32884.53
495.32	33841.81
495.49	33448.60
495.67	33413.49
495.85	33549.24
496.02	33825.42
496.20	34022.03
496.38	34284.17
496.55	34696.10
496.73	35086.97
496.91	34841.21
497.09	34883.34
497.26	35299.96
497.44	35150.17
497.62	35569.12
497.79	35803.17
497.97	35711.89
498.14	36006.80
498.32	36175.32
498.50	36652.79
498.67	36694.92
498.85	36678.54
499.03	36849.39
499.20	37249.63
499.38	37083.45
499.56	37266.01
499.73	37504.74
499.91	37462.61
500.08	37633.47
500.26	37392.40
500.44	37940.08
500.61	38630.54
500.79	38387.13
500.97	38328.61
501.14	38962.90
501.32	39030.77
501.49	38684.37
501.67	38953.54
501.84	39192.27
502.02	38822.47
502.20	38948.85
502.37	39229.72
502.55	39440.37
502.72	39583.14
502.90	40088.70
503.07	39655.70
503.25	39775.06
503.43	40032.52
503.60	40238.49
503.78	40753.41
503.95	40414.03
504.13	40601.27
504.30	40657.45
504.48	40664.47
504.65	41233.22
504.83	41270.67
505.01	41308.11
505.18	41413.44
505.36	41841.76
505.53	41958.78
505.71	41907.29
505.88	42110.92
506.06	42029.00
506.23	42766.27
506.41	42216.24
506.58	42515.83
506.76	42263.05
506.93	42941.81
507.11	42731.16
507.28	42710.10
507.46	43070.54
507.63	43515.24
507.81	43386.51
507.98	43508.22
508.16	43749.29
508.33	43732.91
508.50	43739.93
508.68	43999.73
508.85	43658.01
509.03	43901.43
509.20	44332.09
509.38	44879.77
509.55	44760.40
509.73	45062.33
509.90	44832.96
510.08	44615.29
510.25	45001.48
510.42	44891.48
510.60	45167.66
510.77	45598.32
510.95	45504.70
511.12	45237.87
511.30	45455.54
511.47	45794.92
511.64	45830.03
511.82	46335.59
511.99	46148.34
512.17	46043.02
512.34	45881.52
512.51	46974.55
512.69	46850.50
512.86	46700.71
513.04	47107.96
513.21	46789.65
513.38	47547.98
513.56	47423.93
513.73	47201.58
513.90	47334.99
514.08	47000.30
514.25	47789.06
514.43	47791.40
514.60	47819.49
514.77	47824.17
514.95	48002.05
515.12	47945.87
515.29	48076.94
515.47	48502.92
515.64	48369.51
515.81	48266.53
515.99	48559.09
516.16	48502.92
516.33	48865.70
516.51	48987.41
516.68	48893.79
516.85	48423.34
517.03	49020.18
517.20	48964.01
517.37	48961.67
517.54	48966.35
517.72	49329.13
517.89	48973.37
518.06	49488.29
518.24	49457.86
518.41	49750.43
518.58	49811.28
518.75	49483.61
518.93	50117.89
519.10	49792.56
519.27	50246.62
519.45	50181.09
519.62	50117.89
519.79	50513.44
519.96	50230.24
520.14	50471.31
520.31	50724.09
520.48	50679.62
520.65	50625.79
520.83	51194.54
521.00	50806.01
521.17	50387.05
521.34	50726.43
521.52	51180.49
521.69	51325.61
521.86	51138.36
522.03	51290.50
522.20	51323.27
522.38	51681.37
522.55	51510.51
522.72	51257.73
522.89	51494.13
523.07	51767.97
523.24	51688.39
523.41	51880.31
523.58	51772.65
523.75	52341.40
523.92	51950.53
524.10	51842.87
524.27	52252.46
524.44	52250.12
524.61	52196.29
524.78	52402.25
524.96	52062.88
525.13	52446.72
525.30	52383.53
525.47	52954.62
525.64	52645.67
525.81	52811.85
525.98	53146.54
526.16	52767.38
526.33	52921.85
526.50	53310.38
526.67	53183.99
526.84	53354.85
527.01	53036.54
527.18	53174.63
527.36	53429.75
527.53	53387.62
527.70	53471.88
527.87	53357.19
528.04	53165.27
528.21	53942.33
528.38	53570.18
528.55	53911.90
528.72	53532.73
528.89	53811.26
529.07	53605.29
529.24	53881.47
529.41	53794.87
529.58	54066.38
529.75	53862.75
529.92	53914.24
530.09	54188.08
530.26	54459.58
530.43	54101.48
530.60	54155.32
530.77	54155.32
530.94	54305.11
531.11	54213.83
531.28	54335.54
531.46	54471.29
531.63	54426.82
531.80	54501.71
531.97	54639.81
532.14	55042.38
532.31	54670.23
532.48	54899.61
532.65	54733.43
532.82	54630.44
532.99	55021.31
533.16	54780.24
533.33	54813.01
533.50	54974.50
533.67	55248.35
533.84	54941.74
534.01	54932.37
534.18	55246.00
534.35	55346.65
534.52	55430.91
534.69	55379.42
534.86	55325.58
535.03	55297.50
535.20	55501.12
535.37	55789.01
535.54	55697.73
535.71	55384.10
535.88	55643.90
536.05	55468.36
536.22	55887.31
536.38	55884.97
536.55	55576.02
536.72	55884.97
536.89	55927.10
537.06	55966.89
537.23	56011.36
537.40	55835.82
537.57	56039.45
537.74	56083.92
537.91	56128.39
538.08	56200.94
538.25	55800.71
538.42	56076.90
538.59	56315.63
538.75	55849.86
538.92	56257.12
539.09	56444.36
539.26	56243.07
539.43	56376.48
539.60	56509.89
539.77	56587.13
539.94	56853.95
540.11	56598.83
540.28	56685.43
540.44	56512.23
540.61	56570.75
540.78	56697.14
540.95	56647.99
541.12	56411.59
541.29	56427.98
541.46	56659.69
541.62	56931.19
541.79	56921.83
541.96	56664.37
542.13	56629.26
542.30	56872.68
542.47	57095.03
542.63	57169.93
542.80	57261.21
542.97	57111.41
543.14	57385.25
543.31	57333.76
543.48	57441.43
543.64	57640.37
543.81	57558.45
543.98	57652.08
544.15	57371.21
544.32	57574.84
544.48	57682.50
544.65	57392.28
544.82	57382.91
544.99	57464.83
545.16	57764.42
545.32	57633.35
545.49	57799.53
545.66	58150.61
545.83	57834.64
546.00	57923.58
546.16	58099.12
546.33	57738.68
546.50	57588.88
546.67	57806.55
546.83	57808.89
547.00	58071.03
547.17	57904.85
547.34	57996.13
547.50	58052.31
547.67	58190.40
547.84	58101.46
548.00	58447.86
548.17	58347.21
548.34	58475.94
548.51	58342.53
548.67	58323.81
548.84	58403.39
549.01	58136.57
549.18	58487.65
549.34	58478.28
549.51	58450.20
549.68	58529.78
549.84	58574.25
550.01	58532.12
550.18	58555.52
550.34	58604.67
550.51	58555.52
550.68	58560.20
550.84	58653.82
551.01	58815.32
551.18	58922.99
551.34	58885.54
551.51	58812.98
551.68	58782.55
551.84	58663.19
552.01	58801.28
552.18	59002.56
552.34	58894.90
552.51	58993.20
552.68	58700.64
552.84	58862.13
553.01	59145.34
553.18	59018.95
553.34	59007.25
553.51	58920.65
553.67	58986.18
553.84	59213.21
554.01	59054.06
554.17	59260.02
554.34	59236.62
554.51	59203.85
554.67	59243.64
554.84	59236.62
555.00	59262.36
555.17	59203.85
555.33	59168.74
555.50	58983.84
555.67	59269.39
555.83	59194.49
556.00	59189.81
556.16	59554.93
556.33	59515.14
556.50	59461.31
556.66	59611.10
556.83	59384.07
556.99	59480.03
557.16	59714.09
557.32	59826.43
557.49	59606.42
557.65	59515.14
557.82	59515.14
557.98	59515.14
558.15	59487.06
558.32	59693.02
558.48	59676.64
558.65	59604.08
558.81	59674.30
558.98	59812.39
559.14	59966.87
559.31	59824.09
559.47	59962.18
559.64	59880.27
559.80	59774.94
559.97	59920.05
560.13	59922.40
560.30	60013.68
560.46	59812.39
560.63	60062.83
560.79	60154.11
560.96	60067.51
561.12	59962.18
561.29	59924.74
561.45	60114.32
561.61	59962.18
561.78	59889.63
561.94	60034.74
562.11	60123.68
562.27	60102.62
562.44	59985.59
562.60	60151.77
562.77	60158.79
562.93	59966.87
563.10	60221.98
563.26	60109.64
563.42	60182.19
563.59	60266.45
563.75	60264.11
563.92	60245.39
564.08	59966.87
564.24	60420.93
564.41	60240.71
564.57	60315.61
564.74	60289.86
564.90	60390.50
565.07	60446.68
565.23	60355.39
565.39	60212.62
565.56	60481.78
565.72	60247.73
565.88	60404.55
566.05	60285.18
566.21	60243.05
566.38	60315.61
566.54	60427.95
566.70	60493.49
566.87	60540.30
567.03	60163.47
567.19	60591.79
567.36	60500.51
567.52	60563.70
567.68	60779.03
567.85	60629.24
568.01	60711.16
568.17	60353.05
568.34	60713.50
568.50	60453.70
568.66	60364.76
568.83	60554.34
568.99	60694.77
569.15	60472.42
569.32	60626.90
569.48	60449.02
569.64	60608.17
569.81	60605.83
569.97	60631.58
570.13	60694.77
570.30	60704.13
570.46	60563.70
570.62	60753.29
570.78	60931.17
570.95	60753.29
571.11	60893.72
571.27	60870.31
571.43	60617.53
571.60	60772.01
571.76	60708.82
571.92	60708.82
572.09	60570.72
572.25	60626.90
572.41	60818.82
572.57	60762.65
572.74	61055.21
572.90	61141.81
573.06	60676.05
573.22	60872.65
573.38	60940.53
573.55	60849.25
573.71	61076.28
573.87	60919.46
574.03	60760.31
574.20	60809.46
574.36	60910.10
574.52	60963.93
574.68	60678.39
574.84	61050.53
575.01	61048.19
575.17	60786.05
575.33	60790.73
575.49	60734.56
575.65	60903.08
575.82	60877.33
575.98	60921.80
576.14	61123.09
576.30	60919.46
576.46	60968.61
576.62	60846.91
576.79	60989.68
576.95	60743.92
577.11	60926.49
577.27	60959.25
577.43	61073.94
577.59	61022.45
577.75	60924.14
577.92	61027.13
578.08	60947.55
578.24	60992.02
578.40	61045.85
578.56	61134.79
578.72	60933.51
578.88	60935.85
579.04	61169.90
579.21	60933.51
579.37	61272.88
579.53	61258.84
579.69	61034.15
579.85	60996.70
580.01	61132.45
580.17	61059.90
580.33	61139.47
580.49	61125.43
580.65	61083.30
580.82	61043.51
580.98	61097.34
581.14	60975.64
581.30	61125.43
581.46	60924.14
581.62	60907.76
581.78	61059.90
581.94	61125.43
582.10	61272.88
582.26	61303.31
582.42	61020.11
582.58	60954.57
582.74	61118.41
582.90	61031.81
583.06	61050.53
583.22	61027.13
583.38	61130.11
583.54	61265.86
583.70	61216.71
583.86	61029.47
584.02	60999.04
584.18	61080.96
584.34	61167.56
584.50	61008.40
584.66	60975.64
584.82	60987.34
584.98	61352.46
585.14	61113.73
585.30	61045.85
585.46	61258.84
585.62	61160.54
585.78	61263.52
585.94	61151.18
586.10	61165.22
586.26	61212.03
586.42	61322.04
586.58	61247.14
586.74	61137.13
586.90	61270.54
587.06	61076.28
587.22	61214.37
587.38	61261.18
587.54	61366.51
587.70	61333.74
587.86	61174.58
588.02	61233.10
588.18	61469.49
588.34	61300.97
588.49	61293.95
