SpectraSuite Data File
++++++++++++++++++++++++++++++++++++
Date: Fri Oct 25 11:23:41 EDT 2013
User: price-jones
Dark Spectrum Present: No
Reference Spectrum Present: No
Number of Sampled Component Spectra: 1
Spectrometers: USB2+H05261
Integration Time (usec): 100000 (USB2+H05261)
Spectra Averaged: 1 (USB2+H05261)
Boxcar Smoothing: 0 (USB2+H05261)
Correct for Electrical Dark: No (USB2+H05261)
Strobe/Lamp Enabled: No (USB2+H05261)
Correct for Detector Non-linearity: No (USB2+H05261)
Correct for Stray Light: No (USB2+H05261)
Number of Pixels in Processed Spectrum: 2048
>>>>>Begin Processed Spectral Data<<<<<
365.73	196.60
365.92	196.60
366.12	196.60
366.32	119.37
366.52	37.45
366.72	124.05
366.91	53.83
367.11	84.26
367.31	131.07
367.51	154.48
367.70	100.64
367.90	154.48
368.10	46.81
368.30	100.64
368.49	84.26
368.69	152.13
368.89	128.73
369.09	198.95
369.28	149.79
369.48	149.79
369.68	154.48
369.87	170.86
370.07	140.43
370.27	191.92
370.47	362.78
370.66	596.84
370.86	653.01
371.06	648.33
371.25	711.52
371.45	634.29
371.65	678.76
371.84	624.92
372.04	739.61
372.24	744.29
372.44	737.27
372.63	753.65
372.83	671.73
373.03	758.33
373.22	784.08
373.42	788.76
373.62	709.18
373.81	770.04
374.01	851.96
374.21	844.93
374.40	826.21
374.60	837.91
374.79	816.85
374.99	826.21
375.19	786.42
375.38	863.66
375.58	802.80
375.78	929.19
375.97	917.49
376.17	943.24
376.37	868.34
376.56	901.11
376.76	744.29
376.95	861.32
377.15	884.72
377.35	917.49
377.54	898.77
377.74	929.19
377.93	826.21
378.13	968.98
378.33	926.85
378.52	957.28
378.72	926.85
378.91	985.37
379.11	891.74
379.31	924.51
379.50	990.05
379.70	903.45
379.89	966.64
380.09	978.34
380.28	990.05
380.48	952.60
380.68	966.64
380.87	987.71
381.07	938.55
381.26	1076.65
381.46	971.32
381.65	922.17
381.85	1018.13
382.04	933.87
382.24	1067.28
382.43	1043.88
382.63	1050.90
382.83	980.68
383.02	1043.88
383.22	1090.69
383.41	1036.86
383.61	1001.75
383.80	1149.20
384.00	1109.41
384.19	1062.60
384.39	1139.84
384.58	1090.69
384.78	1100.05
384.97	1203.04
385.17	1116.44
385.36	1177.29
385.56	1207.72
385.75	1273.25
385.95	1224.10
386.14	1181.97
386.34	1212.40
386.53	1207.72
386.72	1151.54
386.92	1249.85
387.11	1235.80
387.31	1184.31
387.50	1313.04
387.70	1238.14
387.89	1315.38
388.09	1259.21
388.28	1282.61
388.48	1214.74
388.67	1308.36
388.86	1348.15
389.06	1313.04
389.25	1385.60
389.45	1315.38
389.64	1317.72
389.84	1371.55
390.03	1392.62
390.22	1411.34
390.42	1453.47
390.61	1306.02
390.81	1390.28
391.00	1453.47
391.19	1441.77
391.39	1451.13
391.58	1472.20
391.78	1495.60
391.97	1549.43
392.16	1462.83
392.36	1453.47
392.55	1521.35
392.75	1577.52
392.94	1432.41
393.13	1479.22
393.33	1554.12
393.52	1579.86
393.71	1633.69
393.91	1713.27
394.10	1603.27
394.29	1544.75
394.49	1638.38
394.68	1717.95
394.88	1523.69
395.07	1533.05
395.26	1675.82
395.46	1598.59
395.65	1713.27
395.84	1774.13
396.04	1736.68
396.23	1689.87
396.42	1722.63
396.62	1717.95
396.81	1727.32
397.00	1764.76
397.19	1799.87
397.39	1832.64
397.58	1870.09
397.77	1762.42
397.97	1879.45
398.16	1865.41
398.35	1844.34
398.55	1837.32
398.74	1944.99
398.93	1844.34
399.12	1975.41
399.32	1907.54
399.51	1994.14
399.70	1970.73
399.90	1980.09
400.09	2010.52
400.28	2066.69
400.47	2054.99
400.67	2094.78
400.86	2127.55
401.05	2054.99
401.24	2064.35
401.44	2160.31
401.63	2167.34
401.82	2193.08
402.01	2141.59
402.21	2228.19
402.40	2270.32
402.59	2129.89
402.78	2125.21
402.97	2253.94
403.17	2155.63
403.36	2275.00
403.55	2333.51
403.74	2286.70
403.93	2326.49
404.13	2429.48
404.32	2312.45
404.51	2349.90
404.70	2399.05
404.89	2312.45
405.09	2406.07
405.28	2471.61
405.47	2450.54
405.66	2502.03
405.85	2506.71
406.05	2546.50
406.24	2614.38
406.43	2583.95
406.62	2586.29
406.81	2726.72
407.00	2583.95
407.20	2637.78
407.39	2513.74
407.58	2700.98
407.77	2768.85
407.96	2717.36
408.15	2757.15
408.34	2731.41
408.54	2759.49
408.73	2853.11
408.92	2792.26
409.11	2925.67
409.30	2857.79
409.49	2899.92
409.68	2773.53
409.87	2864.82
410.07	2913.97
410.26	3026.31
410.45	2930.35
410.64	3070.78
410.83	3124.62
411.02	3143.34
411.21	3035.67
411.40	3014.61
411.59	3220.58
411.78	3143.34
411.98	3204.19
412.17	3323.56
412.36	3300.16
412.55	3431.23
412.74	3393.78
412.93	3471.01
413.12	3368.03
413.31	3548.25
413.50	3452.29
413.69	3281.43
413.88	3543.57
414.07	3681.66
414.26	3646.55
414.45	3562.30
414.64	3674.64
414.83	3723.79
415.02	3765.92
415.22	3892.31
415.41	3908.69
415.60	3983.59
415.79	4042.11
415.98	3957.85
416.17	3878.27
416.36	3833.80
416.55	3922.74
416.74	4149.77
416.93	4259.78
417.12	4175.52
417.31	4184.88
417.50	4196.58
417.69	4180.20
417.88	4238.71
418.07	4187.22
418.26	4187.22
418.45	4318.29
418.64	4503.19
418.83	4475.10
419.02	4383.82
419.21	4470.42
419.39	4545.32
419.58	4454.04
419.77	4461.06
419.96	4482.13
420.15	4524.26
420.34	4550.00
420.53	4432.97
420.72	4519.57
420.91	4690.43
421.10	4634.26
421.29	4767.67
421.48	4608.51
421.67	4730.22
421.86	4868.31
422.05	4933.85
422.24	4784.06
422.43	4842.57
422.61	4786.40
422.80	4978.32
422.99	4863.63
423.18	4966.62
423.37	5081.30
423.56	4905.76
423.75	4908.10
423.94	4826.18
424.13	4566.39
424.32	4725.54
424.50	5041.51
424.69	5032.15
424.88	5046.20
425.07	5036.83
425.26	4926.83
425.45	4919.81
425.64	4873.00
425.83	5006.41
426.01	4987.68
426.20	4940.87
426.39	5074.28
426.58	4975.98
426.77	5123.43
426.96	5156.20
427.15	5186.63
427.33	5074.28
427.52	5242.80
427.71	5207.69
427.90	5128.11
428.09	5439.40
428.28	5322.38
428.46	5315.36
428.65	5277.91
428.84	5378.55
429.03	5504.94
429.22	5376.21
429.40	5322.38
429.59	5437.06
429.78	5313.02
429.97	5366.85
430.16	5263.86
430.34	5530.69
430.53	5823.25
430.72	5788.14
430.91	5720.27
431.10	5593.88
431.28	5636.01
431.47	5839.64
431.66	5830.27
431.85	5738.99
432.03	5966.03
432.22	6080.71
432.41	5844.32
432.60	5973.05
432.79	5928.58
432.97	5996.45
433.16	6127.52
433.35	6150.93
433.54	6174.33
433.72	6026.88
433.91	6146.25
434.10	5970.71
434.28	6080.71
434.47	6150.93
434.66	6207.10
434.85	6270.30
435.03	6230.51
435.22	6312.42
435.41	6431.79
435.59	6612.01
435.78	6462.22
435.97	6345.19
436.16	6382.64
436.34	6424.77
436.53	6574.56
436.72	6492.65
436.90	6333.49
437.09	6562.86
437.28	6569.88
437.46	6616.69
437.65	6602.65
437.84	6782.87
438.02	6684.57
438.21	6832.02
438.40	6752.45
438.58	6867.13
438.77	7150.34
438.96	6892.88
439.14	6932.67
439.33	7218.21
439.52	7309.49
439.70	7304.81
439.89	7386.73
440.08	7325.88
440.26	7325.88
440.45	7382.05
440.63	7438.22
440.82	7531.84
441.01	7630.15
441.19	7740.15
441.38	7805.69
441.57	7786.96
441.75	7878.24
441.94	7922.71
442.12	7803.35
442.31	8194.22
442.50	8009.31
442.68	7925.05
442.87	8046.76
443.05	8009.31
443.24	8147.40
443.43	7941.44
443.61	8088.89
443.80	8475.08
443.98	8060.80
444.17	7941.44
444.35	8229.32
444.54	8294.86
444.73	8210.60
444.91	8301.88
445.10	8463.38
445.28	8215.28
445.47	8334.65
445.65	8358.05
445.84	8528.91
446.02	8458.70
446.21	8259.75
446.39	8486.78
446.58	8362.73
446.77	8238.69
446.95	8283.16
447.14	8404.86
447.32	8624.87
447.51	8524.23
447.69	8430.61
447.88	8500.83
448.06	8250.39
448.25	8622.53
448.43	8416.57
448.62	8638.92
448.80	8489.12
448.99	8758.28
449.17	8683.39
449.36	8580.40
449.54	8910.42
449.73	8975.95
449.91	9100.00
450.10	9039.15
450.28	8999.36
450.46	9149.15
450.65	9090.64
450.83	9107.02
451.02	9153.84
451.20	9114.05
451.39	9188.94
451.57	9207.67
451.76	9142.13
451.94	9004.04
452.13	9467.47
452.31	9179.58
452.49	9076.60
452.68	9303.63
452.86	9500.23
453.05	9350.44
453.23	9348.10
453.42	9336.40
453.60	9643.01
453.78	9357.46
453.97	9511.94
454.15	9434.70
454.34	9406.61
454.52	9689.82
454.70	9806.84
454.89	9736.63
455.07	9804.50
455.26	9867.70
455.44	9963.66
455.62	9858.34
455.81	9966.00
455.99	9956.64
456.17	10040.90
456.36	9788.12
456.54	10087.71
456.73	10080.69
456.91	10471.56
457.09	10270.27
457.28	10281.97
457.46	10359.21
457.64	10424.75
457.83	10483.26
458.01	10307.72
458.19	10640.08
458.38	10413.04
458.56	10822.64
458.74	10530.07
458.93	10754.76
459.11	10899.87
459.29	10619.01
459.48	10740.72
459.66	10689.23
459.84	10862.43
460.03	11101.16
460.21	10958.39
460.39	10881.15
460.57	11108.18
460.76	11211.17
460.94	10888.17
461.12	11276.70
461.31	11162.01
461.49	11314.15
461.67	11279.04
461.85	11398.41
462.04	11335.21
462.22	11655.87
462.40	11681.61
462.59	11330.53
462.77	11529.48
462.95	11786.94
463.13	11714.38
463.32	11686.29
463.50	11655.87
463.68	11707.36
463.86	11800.98
464.05	11571.61
464.23	11833.75
464.41	11981.20
464.59	11719.06
464.78	12105.25
464.96	12042.06
465.14	11634.80
465.32	12065.46
465.50	12217.60
465.69	12257.39
465.87	12278.45
466.05	11978.86
466.23	12121.63
466.41	12126.32
466.60	12472.71
466.78	12219.94
466.96	12381.43
467.14	12262.07
467.32	12531.23
467.51	12578.04
467.69	11934.39
467.87	12627.19
468.05	12681.02
468.23	12627.19
468.41	12360.37
468.60	12603.78
468.78	12835.50
468.96	12489.10
469.14	13018.06
469.32	13116.36
469.50	12624.85
469.69	13179.56
469.87	12987.63
470.05	13099.98
470.23	13004.02
470.41	13137.43
470.59	13429.99
470.77	13289.56
470.95	13074.23
471.14	13437.02
471.32	13074.23
471.50	13516.59
471.68	13743.63
471.86	13502.55
472.04	13692.13
472.22	13984.70
472.40	13635.96
472.58	14026.83
472.77	13905.12
472.95	14087.68
473.13	14574.52
473.31	13942.57
473.49	14232.80
473.67	13991.72
473.85	14239.82
474.03	14719.63
474.21	14562.81
474.39	14703.25
474.57	14815.59
474.75	14890.49
474.93	14843.68
475.12	15016.88
475.30	15213.48
475.48	15250.93
475.66	14986.45
475.84	15129.22
476.02	15377.32
476.20	15417.11
476.38	15840.75
476.56	15815.00
476.74	15852.45
476.92	16189.49
477.10	15857.13
477.28	16074.80
477.46	16107.57
477.64	16510.14
477.82	16322.90
478.00	16968.88
478.18	16842.50
478.36	16655.25
478.54	17357.41
478.72	17085.91
478.90	17296.56
479.08	17261.45
479.26	17476.78
479.44	17563.38
479.62	17535.29
479.80	18209.37
479.98	18073.62
480.16	18459.81
480.34	18293.63
480.52	18714.92
480.70	18850.67
480.88	18436.40
481.06	18850.67
481.24	18705.56
481.41	19157.28
481.59	19133.88
481.77	19506.02
481.95	19468.58
482.13	19599.65
482.31	19887.53
482.49	20119.24
482.67	20372.02
482.85	20636.50
483.03	20795.66
483.21	20849.49
483.39	20868.22
483.57	20912.69
483.74	21235.68
483.92	21553.99
484.10	21207.59
484.28	21418.24
484.46	22045.51
484.64	22389.56
484.82	21970.61
485.00	22525.32
485.18	22817.88
485.35	22878.74
485.53	22817.88
485.71	23077.68
485.89	23592.60
486.07	23229.82
486.25	23468.55
486.43	23812.61
486.61	23915.59
486.78	23784.52
486.96	24060.71
487.14	24404.77
487.32	24439.87
487.50	24666.91
487.68	25247.36
487.85	25406.52
488.03	25706.10
488.21	25692.06
488.39	25963.56
488.57	25944.84
488.75	26169.53
488.92	26700.83
489.10	26759.34
489.28	26616.57
489.46	27342.14
489.64	27424.06
489.81	27543.42
489.99	27655.77
490.17	28290.06
490.35	28226.86
490.53	28648.16
490.70	28371.97
490.88	28458.57
491.06	28730.08
491.24	28840.08
491.41	29184.14
491.59	29420.53
491.77	29626.50
491.95	29638.20
492.13	29577.35
492.30	30228.02
492.48	30387.18
492.66	30103.97
492.84	30611.87
493.01	30799.11
493.19	30445.69
493.37	31098.70
493.54	30869.33
493.72	31599.57
493.90	31337.43
494.08	31625.32
494.25	32149.60
494.43	32250.24
494.61	32404.72
494.79	32783.88
494.96	32425.78
495.14	32765.16
495.32	33151.35
495.49	33048.36
495.67	33212.20
495.85	33631.16
496.02	33619.46
496.20	33876.91
496.38	34307.57
496.55	34403.53
496.73	34546.31
496.91	34445.66
497.09	35035.48
497.26	35166.55
497.44	34602.48
497.62	35196.98
497.79	36105.10
497.97	35885.09
498.14	35519.97
498.32	36055.95
498.50	36098.08
498.67	36357.88
498.85	36877.48
499.03	36849.39
499.20	36856.42
499.38	36980.46
499.56	37207.50
499.73	37558.58
499.91	37186.43
500.08	37825.40
500.26	37312.82
500.44	37546.87
500.61	37640.50
500.79	37734.12
500.97	38026.68
501.14	38628.20
501.32	38368.40
501.49	38588.41
501.67	38511.17
501.84	38911.41
502.02	39033.11
502.20	39044.82
502.37	39538.67
502.55	39161.84
502.72	39629.95
502.90	39643.99
503.07	39555.05
503.25	40018.48
503.43	39826.56
503.60	40032.52
503.78	40304.02
503.95	40123.80
504.13	40746.39
504.30	40491.27
504.48	40556.80
504.65	40706.60
504.83	40891.50
505.01	41247.26
505.18	41462.59
505.36	41759.84
505.53	41457.91
505.71	41635.79
505.88	42124.96
506.06	41773.88
506.23	42160.07
506.41	41954.10
506.58	42094.53
506.76	42213.90
506.93	42698.39
507.11	42462.00
507.28	42590.73
507.46	42452.64
507.63	42792.01
507.81	42869.25
507.98	42754.57
508.16	43093.94
508.33	43016.71
508.50	43611.20
508.68	43714.19
508.85	43997.39
509.03	43540.99
509.20	44339.11
509.38	44355.49
509.55	44390.60
509.73	44383.58
509.90	44559.12
510.08	44474.86
510.25	44456.14
510.42	44945.31
510.60	45177.02
510.77	45607.68
510.95	45701.30
511.12	45127.87
511.30	45240.21
511.47	45567.89
511.64	45195.74
511.82	45846.41
511.99	45621.72
512.17	46265.37
512.34	45808.96
512.51	46579.00
512.69	46387.08
512.86	46195.15
513.04	46700.71
513.21	46726.46
513.38	46876.25
513.56	46735.82
513.73	46890.29
513.90	47210.95
514.08	46803.69
514.25	47145.41
514.43	47526.92
514.60	47601.82
514.77	47384.15
514.95	47936.51
515.12	47576.07
515.29	47604.16
515.47	48275.89
515.64	48247.80
515.81	47615.86
515.99	47948.21
516.16	48575.48
516.33	48519.31
516.51	48928.90
516.68	48704.21
516.85	48683.14
517.03	48961.67
517.20	49162.95
517.37	49074.01
517.54	49057.63
517.72	48889.11
517.89	49389.98
518.06	49343.17
518.24	48938.26
518.41	49024.86
518.58	49301.04
518.75	49226.15
518.93	49677.87
519.10	49525.74
519.27	49748.09
519.45	49907.24
519.62	49759.79
519.79	50066.40
519.96	49865.11
520.14	50038.31
520.31	50131.93
520.48	50188.11
520.65	50342.58
520.83	50504.08
521.00	50791.97
521.17	50696.00
521.34	50686.64
521.52	50688.98
521.69	51447.32
521.86	51016.66
522.03	51264.75
522.20	51341.99
522.38	51452.00
522.55	51440.29
522.72	51302.20
522.89	51601.79
523.07	51606.47
523.24	51629.88
523.41	51849.89
523.58	51157.09
523.75	52219.69
523.92	51468.38
524.10	51950.53
524.27	52261.82
524.44	52399.91
524.61	52364.81
524.78	52107.35
524.96	52119.05
525.13	52477.15
525.30	52463.11
525.47	52545.03
525.64	52807.17
525.81	52493.54
525.98	52856.32
526.16	52559.07
526.33	53017.82
526.50	52940.58
526.67	52907.81
526.84	53008.45
527.01	52994.41
527.18	52797.80
527.36	53020.16
527.53	53202.72
527.70	53621.67
527.87	53535.07
528.04	53373.58
528.21	53286.98
528.38	53406.34
528.55	53811.26
528.72	53719.98
528.89	53521.03
529.07	53450.81
529.24	53364.21
529.41	53794.87
529.58	53834.66
529.75	53937.65
529.92	53759.76
530.09	54026.59
530.26	54028.93
530.43	54061.69
530.60	53909.56
530.77	53977.43
530.94	54000.84
531.11	54410.43
531.28	54223.19
531.46	54302.77
531.63	54129.57
531.80	54468.95
531.97	54429.16
532.14	54585.97
532.31	54368.30
532.48	54571.93
532.65	54768.54
532.82	54419.80
532.99	54754.49
533.16	54719.38
533.33	54836.41
533.50	54747.47
533.67	54995.57
533.84	54653.85
534.01	54761.51
534.18	54887.90
534.35	55323.24
534.52	55112.59
534.69	55283.45
534.86	55517.51
535.03	55140.68
535.20	55309.20
535.37	55229.62
535.54	55583.04
535.71	55302.18
535.88	55323.24
536.05	55487.08
536.22	55679.00
536.38	55529.21
536.55	55681.34
536.72	55819.44
536.89	55456.65
537.06	55585.38
537.23	55674.32
537.40	55690.71
537.57	55742.20
537.74	55854.54
537.91	55838.16
538.08	56189.24
538.25	56046.47
538.42	55856.88
538.59	56210.31
538.75	55938.80
538.92	56011.36
539.09	56545.00
539.26	56273.50
539.43	55992.64
539.60	56257.12
539.77	56390.53
539.94	56329.67
540.11	56313.29
540.28	56470.11
540.44	56332.01
540.61	56371.80
540.78	56320.31
540.95	56507.55
541.12	56460.74
541.29	56650.33
541.46	56694.80
541.62	56640.96
541.79	56383.51
541.96	56383.51
542.13	56226.69
542.30	56860.97
542.47	56954.60
542.63	56989.70
542.80	56903.10
542.97	57020.13
543.14	57338.44
543.31	57186.31
543.48	57258.87
543.64	57499.94
543.81	57382.91
543.98	57427.38
544.15	57361.85
544.32	57453.13
544.48	57771.44
544.65	57415.68
544.82	57455.47
544.99	57249.50
545.16	57261.21
545.32	57378.23
545.49	57656.76
545.66	57949.32
545.83	57815.91
546.00	57909.53
546.16	57762.08
546.33	57579.52
546.50	57553.77
546.67	57785.49
546.83	57771.44
547.00	57946.98
547.17	57701.23
547.34	58035.92
547.50	58195.08
547.67	58005.50
547.84	58089.76
548.00	58244.23
548.17	58234.87
548.34	58024.22
548.51	58040.60
548.67	58525.10
548.84	58080.39
549.01	58099.12
549.18	58230.19
549.34	58305.09
549.51	58279.34
549.68	58225.51
549.84	58384.66
550.01	58590.63
550.18	58337.85
550.34	58295.72
550.51	58618.72
550.68	58499.35
550.84	58337.85
551.01	58735.74
551.18	58576.59
551.34	58646.80
551.51	58721.70
551.68	58555.52
551.84	58628.08
552.01	58468.92
552.18	58794.26
552.34	58588.29
552.51	58719.36
552.68	58607.01
552.84	58775.53
553.01	58986.18
553.18	58904.26
553.34	58922.99
553.51	58780.21
553.67	59124.27
553.84	59086.82
554.01	58885.54
554.17	59065.76
554.34	59035.33
554.51	58951.07
554.67	59140.66
554.84	59147.68
555.00	58796.60
555.17	58885.54
555.33	58988.52
555.50	58983.84
555.67	59047.04
555.83	58934.69
556.00	59185.13
556.16	59604.08
556.33	59381.73
556.50	59297.47
556.66	59339.60
556.83	59135.98
556.99	59524.50
557.16	59540.89
557.32	59742.17
557.49	59648.55
557.65	59370.03
557.82	59482.37
557.98	59433.22
558.15	59629.83
558.32	59604.08
558.48	59468.33
558.65	59599.40
558.81	59613.44
558.98	59648.55
559.14	59503.44
559.31	59667.28
559.47	59625.15
559.64	59966.87
559.80	59831.11
559.97	59758.56
560.13	59718.77
560.30	59700.04
560.46	59512.80
560.63	59910.69
560.79	59700.04
560.96	59849.84
561.12	59887.29
561.29	59856.86
561.45	59662.60
561.61	59774.94
561.78	59922.40
561.94	59772.60
562.11	59877.93
562.27	59765.58
562.44	59730.47
562.60	60048.78
562.77	60182.19
562.93	60027.72
563.10	59941.12
563.26	60081.55
563.42	60144.75
563.59	60058.15
563.75	60090.91
563.92	59997.29
564.08	59913.03
564.24	60168.15
564.41	59962.18
564.57	60154.11
564.74	60093.25
564.90	60144.75
565.07	60257.09
565.23	60086.23
565.39	60133.04
565.56	60390.50
565.72	60224.32
565.88	60320.29
566.05	59999.63
566.21	60243.05
566.38	60247.73
566.54	60470.08
566.70	60463.06
566.87	60378.80
567.03	60245.39
567.19	60526.25
567.36	60348.37
567.52	60243.05
567.68	60444.33
567.85	60327.31
568.01	60713.50
568.17	60395.18
568.34	60509.87
568.50	60441.99
568.66	60310.92
568.83	60544.98
568.99	60369.44
569.15	60486.46
569.32	60362.42
569.48	60486.46
569.64	60711.16
569.81	60549.66
569.97	60348.37
570.13	60643.28
570.30	60329.65
570.46	60526.25
570.62	60678.39
570.78	60631.58
570.95	60554.34
571.11	60437.31
571.27	60327.31
571.43	60559.02
571.60	60842.23
571.76	60647.96
571.92	60556.68
572.09	60512.21
572.25	60514.55
572.41	60456.04
572.57	60741.58
572.74	60814.14
572.90	60858.61
573.06	60874.99
573.22	60669.03
573.38	60732.22
573.55	60757.97
573.71	60701.79
573.87	60669.03
574.03	60570.72
574.20	60832.86
574.36	60706.47
574.52	60694.77
574.68	60886.70
574.84	60980.32
575.01	60921.80
575.17	60788.39
575.33	60746.26
575.49	60762.65
575.65	61015.43
575.82	60938.19
575.98	60816.48
576.14	61055.21
576.30	60781.37
576.46	60821.16
576.62	60760.31
576.79	60690.09
576.95	60547.32
577.11	60748.60
577.27	60999.04
577.43	60741.58
577.59	60739.24
577.75	60699.45
577.92	60879.67
578.08	60809.46
578.24	60781.37
578.40	60865.63
578.56	61017.77
578.72	60914.78
578.88	60891.38
579.04	61024.79
579.21	60989.68
579.37	61160.54
579.53	60980.32
579.69	60699.45
579.85	60856.27
580.01	60807.12
580.17	60788.39
580.33	61130.11
580.49	61020.11
580.65	60977.98
580.82	60793.07
580.98	60835.20
581.14	60713.50
581.30	61062.24
581.46	60872.65
581.62	60877.33
581.78	60867.97
581.94	61167.56
582.10	60931.17
582.26	61078.62
582.42	61228.41
582.58	61015.43
582.74	61069.26
582.90	61036.49
583.06	61001.38
583.22	60865.63
583.38	60828.18
583.54	60879.67
583.70	60860.95
583.86	61123.09
584.02	60860.95
584.18	61113.73
584.34	60963.93
584.50	60987.34
584.66	60832.86
584.82	60736.90
584.98	61125.43
585.14	61350.12
585.30	60959.25
585.46	60781.37
585.62	61139.47
585.78	61043.51
585.94	60985.00
586.10	61193.31
586.26	61216.71
586.42	61109.05
586.58	61116.07
586.74	61076.28
586.90	60977.98
587.06	61001.38
587.22	61235.44
587.38	61048.19
587.54	61127.77
587.70	61518.64
587.86	61242.46
588.02	61120.75
588.18	61202.67
588.34	61165.22
588.49	61045.85
