SpectraSuite Data File
++++++++++++++++++++++++++++++++++++
Date: Fri Oct 25 10:47:03 EDT 2013
User: price-jones
Dark Spectrum Present: No
Reference Spectrum Present: No
Number of Sampled Component Spectra: 1
Spectrometers: USB2+H05261
Integration Time (usec): 100000 (USB2+H05261)
Spectra Averaged: 1 (USB2+H05261)
Boxcar Smoothing: 0 (USB2+H05261)
Correct for Electrical Dark: No (USB2+H05261)
Strobe/Lamp Enabled: No (USB2+H05261)
Correct for Detector Non-linearity: No (USB2+H05261)
Correct for Stray Light: No (USB2+H05261)
Number of Pixels in Processed Spectrum: 2048
>>>>>Begin Processed Spectral Data<<<<<
365.73	126.39
365.92	126.39
366.12	126.39
366.32	110.01
366.52	39.79
366.72	67.88
366.91	46.81
367.11	58.51
367.31	42.13
367.51	4.68
367.70	93.62
367.90	16.38
368.10	67.88
368.30	51.49
368.49	46.81
368.69	0.00
368.89	86.60
369.09	102.98
369.28	88.94
369.48	93.62
369.68	65.54
369.87	49.15
370.07	70.22
370.27	112.35
370.47	142.77
370.66	381.51
370.86	430.66
371.06	437.68
371.25	486.83
371.45	475.13
371.65	465.77
371.84	428.32
372.04	400.23
372.24	514.92
372.44	458.74
372.63	545.34
372.83	521.94
373.03	489.17
373.22	444.70
373.42	543.00
373.62	521.94
373.81	566.41
374.01	559.39
374.21	554.71
374.40	524.28
374.60	540.66
374.79	580.45
374.99	505.56
375.19	599.18
375.38	543.00
375.58	543.00
375.78	606.20
375.97	622.58
376.17	606.20
376.37	545.34
376.56	554.71
376.76	573.43
376.95	554.71
377.15	631.94
377.35	617.90
377.54	615.56
377.74	587.47
377.93	594.50
378.13	638.97
378.33	615.56
378.52	641.31
378.72	638.97
378.91	641.31
379.11	557.05
379.31	662.37
379.50	627.26
379.70	674.07
379.89	725.57
380.09	650.67
380.28	613.22
380.48	683.44
380.68	674.07
380.87	620.24
381.07	718.54
381.26	702.16
381.46	704.50
381.65	667.05
381.85	603.86
382.04	685.78
382.24	706.84
382.43	702.16
382.63	662.37
382.83	664.71
383.02	760.67
383.22	751.31
383.41	730.25
383.61	763.01
383.80	755.99
384.00	774.72
384.19	699.82
384.39	784.08
384.58	713.86
384.78	720.88
384.97	737.27
385.17	765.36
385.36	833.23
385.56	758.33
385.75	737.27
385.95	791.10
386.14	847.27
386.34	774.72
386.53	683.44
386.72	800.46
386.92	809.83
387.11	816.85
387.31	889.40
387.50	844.93
387.70	730.25
387.89	809.83
388.09	812.17
388.28	814.51
388.48	840.25
388.67	884.72
388.86	858.98
389.06	812.17
389.25	959.62
389.45	945.58
389.64	887.06
389.84	947.92
390.03	896.43
390.22	905.79
390.42	926.85
390.61	912.81
390.81	952.60
391.00	929.19
391.19	1039.20
391.39	1015.79
391.58	1041.54
391.78	994.73
391.97	1090.69
392.16	1050.90
392.36	987.71
392.55	924.51
392.75	1027.50
392.94	973.66
393.13	947.92
393.33	1013.45
393.52	912.81
393.71	1062.60
393.91	1151.54
394.10	1064.94
394.29	1039.20
394.49	1088.35
394.68	1149.20
394.88	1074.31
395.07	1172.61
395.26	1153.88
395.46	1081.33
395.65	1104.73
395.84	1100.05
396.04	1184.31
396.23	1188.99
396.42	1095.37
396.62	1212.40
396.81	1198.35
397.00	1125.80
397.19	1254.53
397.39	1181.97
397.58	1240.48
397.77	1256.87
397.97	1336.45
398.16	1294.32
398.35	1383.26
398.55	1310.70
398.74	1420.71
398.93	1317.72
399.12	1364.53
399.32	1282.61
399.51	1306.02
399.70	1413.68
399.90	1423.05
400.09	1392.62
400.28	1549.43
400.47	1439.43
400.67	1444.11
400.86	1474.54
401.05	1462.83
401.24	1446.45
401.44	1558.80
401.63	1591.56
401.82	1523.69
402.01	1390.28
402.21	1621.99
402.40	1474.54
402.59	1617.31
402.78	1633.69
402.97	1657.10
403.17	1703.91
403.36	1610.29
403.55	1739.02
403.74	1671.14
403.93	1696.89
404.13	1746.04
404.32	1659.44
404.51	1678.16
404.70	1842.00
404.89	1769.44
405.09	1825.62
405.28	1851.36
405.47	1842.00
405.66	1767.10
405.85	1757.74
406.05	1827.96
406.24	1959.03
406.43	1881.79
406.62	1893.49
406.81	1863.07
407.00	1881.79
407.20	1879.45
407.39	1923.92
407.58	1944.99
407.77	1954.35
407.96	1961.37
408.15	2022.22
408.34	1975.41
408.54	2076.06
408.73	2094.78
408.92	2064.35
409.11	2106.48
409.30	2200.10
409.49	1987.11
409.68	2069.03
409.87	2085.42
410.07	2183.72
410.26	2106.48
410.45	2237.55
410.64	2244.57
410.83	2300.75
411.02	2260.96
411.21	2307.77
411.40	2317.13
411.59	2417.77
411.78	2340.54
411.98	2370.96
412.17	2359.26
412.36	2443.52
412.55	2431.82
412.74	2537.14
412.93	2548.84
413.12	2483.31
413.31	2684.59
413.50	2572.25
413.69	2593.31
413.88	2668.21
414.07	2623.74
414.26	2621.40
414.45	2782.90
414.64	2780.56
414.83	2689.28
415.02	2750.13
415.22	2855.45
415.41	2892.90
415.60	2773.53
415.79	2862.48
415.98	2993.55
416.17	2949.08
416.36	2881.20
416.55	2888.22
416.74	3005.25
416.93	2909.29
417.12	3014.61
417.31	2977.16
417.50	3059.08
417.69	3110.57
417.88	3145.68
418.07	3098.87
418.26	3112.91
418.45	3082.49
418.64	3253.34
418.83	3304.84
419.02	3239.30
419.21	3248.66
419.39	3321.22
419.58	3241.64
419.77	3253.34
419.96	3335.26
420.15	3435.91
420.34	3323.56
420.53	3482.72
420.72	3515.48
420.91	3550.59
421.10	3517.83
421.29	3651.24
421.48	3419.52
421.67	3405.48
421.86	3475.70
422.05	3557.61
422.24	3513.14
422.43	3566.98
422.61	3559.95
422.80	3466.33
422.99	3637.19
423.18	3623.15
423.37	3763.58
423.56	3585.70
423.75	3660.60
423.94	3658.26
424.13	3309.52
424.32	3468.67
424.50	3632.51
424.69	3847.84
424.88	3632.51
425.07	3604.42
425.26	3625.49
425.45	3543.57
425.64	3716.77
425.83	3674.64
426.01	3688.68
426.20	3620.81
426.39	3726.13
426.58	3581.02
426.77	3716.77
426.96	3758.90
427.15	3681.66
427.33	3819.75
427.52	3730.81
427.71	3826.78
427.90	3794.01
428.09	3852.52
428.28	3810.39
428.46	3765.92
428.65	3789.33
428.84	3899.33
429.03	3957.85
429.22	3927.42
429.40	3911.04
429.59	3918.06
429.78	3761.24
429.97	3742.52
430.16	3667.62
430.34	3871.25
430.53	3852.52
430.72	3985.93
430.91	4079.55
431.10	4117.00
431.28	4107.64
431.47	4257.43
431.66	4215.30
431.85	4166.15
432.03	4325.31
432.22	4313.61
432.41	4234.03
432.60	4198.92
432.79	4255.09
432.97	4241.05
433.16	4425.95
433.35	4292.54
433.54	4315.95
433.72	4381.48
433.91	4369.78
434.10	4475.10
434.28	4388.50
434.47	4517.23
434.66	4465.74
434.85	4678.73
435.03	4636.60
435.22	4552.34
435.41	4683.41
435.59	4688.09
435.78	4706.82
435.97	4786.40
436.16	4706.82
436.34	4641.28
436.53	4692.77
436.72	4931.51
436.90	4664.69
437.09	4744.27
437.28	4791.08
437.46	4786.40
437.65	4648.30
437.84	4678.73
438.02	4739.58
438.21	4929.17
438.40	4800.44
438.58	5001.72
438.77	5057.90
438.96	4966.62
439.14	4940.87
439.33	5022.79
439.52	5275.57
439.70	5130.45
439.89	5242.80
440.08	5294.29
440.26	5247.48
440.45	5132.79
440.63	5366.85
440.82	5401.96
441.01	5345.78
441.19	5357.49
441.38	5612.60
441.57	5628.99
441.75	5579.84
441.94	5638.35
442.12	5837.30
442.31	5832.62
442.50	5973.05
442.68	5767.08
442.87	5757.72
443.05	5778.78
443.24	5966.03
443.43	5973.05
443.61	5959.00
443.80	5944.96
443.98	5776.44
444.17	5591.54
444.35	5872.40
444.54	6080.71
444.73	6057.31
444.91	6003.47
445.10	6015.18
445.28	6071.35
445.47	5856.02
445.65	6038.58
445.84	6111.14
446.02	6045.60
446.21	5944.96
446.39	5989.43
446.58	6155.61
446.77	6125.18
446.95	6066.67
447.14	6120.50
447.32	6331.15
447.51	6036.24
447.69	5998.79
447.88	6097.10
448.06	6204.76
448.25	6317.11
448.43	6162.63
448.62	6162.63
448.80	6179.01
448.99	6291.36
449.17	6221.14
449.36	6382.64
449.54	6487.96
449.73	6459.88
449.91	6480.94
450.10	6469.24
450.28	6382.64
450.46	6544.14
450.65	6729.04
450.83	6485.62
451.02	6565.20
451.20	6651.80
451.39	6724.36
451.57	6555.84
451.76	6672.87
451.94	6621.38
452.13	6677.55
452.31	6623.72
452.49	6424.77
452.68	6602.65
452.86	6370.94
453.05	6834.36
453.23	6883.52
453.42	6761.81
453.60	6595.63
453.78	6979.48
453.97	6614.35
454.15	6850.75
454.34	6909.26
454.52	6972.46
454.70	6993.52
454.89	6874.15
455.07	6967.77
455.26	7199.49
455.44	7166.72
455.62	7084.80
455.81	6988.84
455.99	7066.08
456.17	7070.76
456.36	7321.20
456.54	7206.51
456.73	7328.22
456.91	7391.41
457.09	7463.97
457.28	7655.89
457.46	7445.24
457.64	7534.18
457.83	7456.95
458.01	7531.84
458.19	7620.78
458.38	7506.10
458.56	7700.36
458.74	7604.40
458.93	7571.63
459.11	7716.75
459.29	7576.31
459.48	7646.53
459.66	7508.44
459.84	7634.83
460.03	7957.82
460.21	7801.01
460.39	7616.10
460.57	7723.77
460.76	7836.11
460.94	8074.85
461.12	8044.42
461.31	7927.39
461.49	7967.18
461.67	8002.29
461.85	8135.70
462.04	8161.45
462.22	8575.72
462.40	8386.14
462.59	8360.39
462.77	8093.57
462.95	8297.20
463.13	8203.58
463.32	8208.26
463.50	8439.97
463.68	8255.07
463.86	8435.29
464.05	8299.54
464.23	8243.37
464.41	8273.79
464.59	8135.70
464.78	8517.21
464.96	8454.02
465.14	8219.96
465.32	8482.10
465.50	8582.74
465.69	8526.57
465.87	8388.48
466.05	8449.33
466.23	8418.91
466.41	8704.45
466.60	9015.74
466.78	8503.17
466.96	8557.00
467.14	8601.47
467.32	8641.26
467.51	8772.33
467.69	8526.57
467.87	8840.20
468.05	8847.22
468.23	8585.08
468.41	8706.79
468.60	8809.78
468.78	8973.61
468.96	8769.99
469.14	8999.36
469.32	9067.24
469.50	8718.50
469.69	9027.45
469.87	9076.60
470.05	9006.38
470.23	9249.80
470.41	9263.84
470.59	9125.75
470.77	9195.96
470.95	9252.14
471.14	9451.08
471.32	9336.40
471.50	9596.20
471.68	9703.86
471.86	9441.72
472.04	9671.09
472.22	9731.95
472.40	9540.02
472.58	9638.33
472.77	9689.82
472.95	9781.10
473.13	10040.90
473.31	9923.87
473.49	9734.29
473.67	9790.46
473.85	9991.75
474.03	10321.76
474.21	10139.20
474.39	10267.93
474.57	10391.98
474.75	10239.84
474.93	10352.19
475.12	10296.02
475.30	10410.70
475.48	10628.37
475.66	10321.76
475.84	10651.78
476.02	10509.01
476.20	10490.28
476.38	10930.30
476.56	10932.64
476.74	11077.76
476.92	11098.82
477.10	10892.85
477.28	11070.73
477.46	11328.19
477.64	11377.34
477.82	11552.88
478.00	11494.37
478.18	11566.93
478.36	11918.01
478.54	11889.92
478.72	11716.72
478.90	11873.54
479.08	11985.88
479.26	12018.65
479.44	12292.49
479.62	12126.32
479.80	12308.88
479.98	12683.36
480.16	12688.04
480.34	12734.85
480.52	12791.03
480.70	12779.32
480.88	12617.83
481.06	12849.54
481.24	13006.36
481.41	13238.07
481.59	13453.40
481.77	13149.13
481.95	13444.04
482.13	13556.38
482.31	13701.50
482.49	13781.07
482.67	13872.36
482.85	13715.54
483.03	14380.25
483.21	14326.42
483.39	14312.38
483.57	14427.06
483.74	14520.68
483.92	14651.75
484.10	14501.96
484.28	14743.03
484.46	15173.69
484.64	15407.75
484.82	14930.28
485.00	14986.45
485.18	15325.83
485.35	15461.58
485.53	15241.57
485.71	15449.88
485.89	15658.18
486.07	15609.03
486.25	15843.09
486.43	15765.85
486.61	15793.94
486.78	16152.04
486.96	16510.14
487.14	16716.11
487.32	16774.62
487.50	16582.70
487.68	17135.06
487.85	17081.23
488.03	17238.05
488.21	17806.80
488.39	17596.15
488.57	17544.66
488.75	18066.60
488.92	17771.69
489.10	17745.94
489.28	18204.69
489.46	18490.23
489.64	18317.03
489.81	18698.54
489.99	18752.37
490.17	18733.65
490.35	19082.39
490.53	19152.60
490.70	19117.50
490.88	19075.37
491.06	19431.13
491.24	19550.49
491.41	19571.56
491.59	19353.89
491.77	19543.47
491.95	20119.24
492.13	20116.90
492.30	20093.50
492.48	20414.15
492.66	20332.23
492.84	20278.40
493.01	20971.20
493.19	20713.74
493.37	21034.39
493.54	20952.48
493.72	20959.50
493.90	21118.65
494.08	21610.17
494.25	21486.12
494.43	21710.81
494.61	21532.93
494.79	21933.16
494.96	21858.26
495.14	21905.07
495.32	21963.59
495.49	22188.28
495.67	22497.23
495.85	22698.52
496.02	22588.51
496.20	22948.95
496.38	22766.39
496.55	23037.89
496.73	23735.37
496.91	23304.71
497.09	23161.94
497.26	23608.98
497.44	23555.15
497.62	23557.49
497.79	23878.15
497.97	23943.68
498.14	23807.93
498.32	24154.33
498.50	24439.87
498.67	24489.03
498.85	24025.60
499.03	24875.21
499.20	24685.63
499.38	24439.87
499.56	24706.70
499.73	24980.54
499.91	24905.64
500.08	24807.34
500.26	25099.90
500.44	25006.28
500.61	24996.92
500.79	25322.26
500.97	25436.94
501.14	25701.42
501.32	25434.60
501.49	25486.09
501.67	25771.64
501.84	25490.77
502.02	25811.43
502.20	26026.76
502.37	26096.97
502.55	26157.83
502.72	26057.18
502.90	26319.32
503.07	26342.73
503.25	26628.27
503.43	26232.72
503.60	26492.52
503.78	26551.04
503.95	26677.43
504.13	26707.85
504.30	27070.64
504.48	26888.07
504.65	27049.57
504.83	27503.64
505.01	27171.28
505.18	27398.31
505.36	27723.65
505.53	27630.02
505.71	27758.75
505.88	27728.33
506.06	27569.17
506.23	27878.12
506.41	27814.93
506.58	27985.79
506.76	28149.62
506.93	28421.13
507.11	28254.95
507.28	28285.37
507.46	28837.74
507.63	28491.34
507.81	28966.47
507.98	28290.06
508.16	29165.42
508.33	28987.53
508.50	29102.22
508.68	29455.64
508.85	29378.40
509.03	29427.56
509.20	29472.03
509.38	29259.04
509.55	29626.50
509.73	29729.48
509.90	29511.81
510.08	29539.90
510.25	29823.11
510.42	30029.07
510.60	30113.33
510.77	30143.76
510.95	30368.45
511.12	30026.73
511.30	30155.46
511.47	30380.15
511.64	30508.88
511.82	30443.35
511.99	30642.29
512.17	30719.53
512.34	30532.29
512.51	30815.49
512.69	31105.72
512.86	30857.62
513.04	30960.61
513.21	31147.85
513.38	31164.23
513.56	31388.92
513.73	31091.68
513.90	31960.02
514.08	31232.11
514.25	31828.95
514.43	31356.16
514.60	31611.28
514.77	31648.72
514.95	31894.48
515.12	31990.44
515.29	32283.01
515.47	32465.57
515.64	32545.15
515.81	31784.48
515.99	32058.32
516.16	32294.71
516.33	32261.94
516.51	32161.30
516.68	32357.91
516.85	31936.61
517.03	32535.79
517.20	32397.70
517.37	32795.59
517.54	33092.83
517.72	32517.06
517.89	32765.16
518.06	32500.68
518.24	32994.53
518.41	32708.99
518.58	33139.65
518.75	32933.68
518.93	33287.10
519.10	33223.90
519.27	33359.66
519.45	33429.87
519.62	33759.89
519.79	33738.82
519.96	33570.30
520.14	33778.61
520.31	33905.00
520.48	34071.18
520.65	34153.10
520.83	34192.89
521.00	34270.12
521.17	34185.86
521.34	34136.71
521.52	34342.68
521.69	34443.32
521.86	34864.62
522.03	34679.72
522.20	34738.23
522.38	34864.62
522.55	34775.68
522.72	34558.01
522.89	34965.26
523.07	34567.37
523.24	34881.00
523.41	34642.27
523.58	34944.20
523.75	35585.50
523.92	35187.61
524.10	35819.56
524.27	35585.50
524.44	35611.25
524.61	35655.72
524.78	35639.34
524.96	35775.09
525.13	35700.19
525.30	35845.30
525.47	36158.94
525.64	36013.82
525.81	36119.15
525.98	35875.73
526.16	36002.12
526.33	36044.25
526.50	36210.43
526.67	35941.27
526.84	36163.62
527.01	35981.06
527.18	36158.94
527.36	36807.26
527.53	36680.88
527.70	36608.32
527.87	36910.25
528.04	37212.18
528.21	36701.94
528.38	36811.95
528.55	36842.37
528.72	36926.63
528.89	37387.72
529.07	37209.84
529.24	36835.35
529.41	37242.60
529.58	37378.36
529.75	37123.24
529.92	37280.05
530.09	37270.69
530.26	37160.69
530.43	37280.05
530.60	37102.17
530.77	37270.69
530.94	37509.43
531.11	37766.88
531.28	37373.67
531.46	37736.46
531.63	37624.11
531.80	37912.00
531.97	37830.08
532.14	37343.25
532.31	37741.14
532.48	38071.15
532.65	38293.50
532.82	37858.17
532.99	38447.98
533.16	37883.91
533.33	38277.12
533.50	38651.61
533.67	37907.32
533.84	38064.13
534.01	38642.24
534.18	38167.12
534.35	38782.68
534.52	38836.51
534.69	38686.71
534.86	38904.38
535.03	38513.52
535.20	39096.31
535.37	38845.87
535.54	38960.56
535.71	39037.80
535.88	39178.23
536.05	38682.03
536.22	39131.42
536.38	39152.48
536.55	39129.08
536.72	39115.03
536.89	38995.67
537.06	39021.41
537.23	39288.23
537.40	39152.48
537.57	39283.55
537.74	39562.08
537.91	39550.37
538.08	40009.12
538.25	39091.63
538.42	39154.82
538.59	39941.24
538.75	39503.56
538.92	39491.86
539.09	40142.53
539.26	39756.34
539.43	39737.62
539.60	39770.38
539.77	39599.52
539.94	39948.26
540.11	39770.38
540.28	39924.86
540.44	40289.98
540.61	40161.25
540.78	39985.71
540.95	40165.93
541.12	40294.66
541.29	40491.27
541.46	40313.39
541.62	40271.26
541.79	40713.62
541.96	40067.63
542.13	40187.00
542.30	40367.22
542.47	40783.83
542.63	40247.85
542.80	40655.11
542.97	41076.40
543.14	41652.17
543.31	41024.91
543.48	41050.66
543.64	41490.68
543.81	41361.95
543.98	41254.28
544.15	40950.01
544.32	41310.46
544.48	41687.28
544.65	41359.61
544.82	41605.36
544.99	41151.30
545.16	41598.34
545.32	41001.50
545.49	41413.44
545.66	41677.92
545.83	41462.59
546.00	41752.82
546.16	41808.99
546.33	41579.62
546.50	41301.09
546.67	41446.21
546.83	41408.76
547.00	41825.37
547.17	41956.44
547.34	41652.17
547.50	41975.17
547.67	41958.78
547.84	42129.64
548.00	42024.32
548.17	42059.43
548.34	41879.21
548.51	42057.09
548.67	42014.96
548.84	42272.42
549.01	42403.49
549.18	42164.75
549.34	42504.13
549.51	42504.13
549.68	42532.22
549.84	42087.51
550.01	42880.95
550.18	42270.08
550.34	42724.14
550.51	42237.31
550.68	42579.03
550.84	42164.75
551.01	42660.94
551.18	42391.78
551.34	42656.26
551.51	42557.96
551.68	42738.18
551.84	42866.91
552.01	42405.83
552.18	42756.91
552.34	42466.68
552.51	42944.15
552.68	42843.51
552.84	43168.84
553.01	43182.88
553.18	42988.62
553.34	42876.27
553.51	42656.26
553.67	42976.92
553.84	43395.87
554.01	43143.09
554.17	43512.90
554.34	43658.01
554.51	43578.43
554.67	43484.81
554.84	43290.55
555.00	43107.99
555.17	43302.25
555.33	43271.82
555.50	43667.37
555.67	43229.69
555.83	43091.60
556.00	43585.46
556.16	43697.80
556.33	43419.28
556.50	43433.32
556.66	43697.80
556.83	43407.58
556.99	43885.04
557.16	43927.17
557.32	43824.19
557.49	43861.64
557.65	43409.92
557.82	43342.04
557.98	43744.61
558.15	43611.20
558.32	43793.76
558.48	43606.52
558.65	43819.51
558.81	43508.22
558.98	44179.95
559.14	43618.22
559.31	43882.70
559.47	43856.96
559.64	44067.61
559.80	43964.62
559.97	43957.60
560.13	43861.64
560.30	43873.34
560.46	43971.64
560.63	43714.19
560.79	44201.02
560.96	44308.68
561.12	44222.08
561.29	44346.13
561.45	43878.02
561.61	43789.08
561.78	43941.22
561.94	43852.28
562.11	44498.26
562.27	44177.61
562.44	43934.20
562.60	43995.05
562.77	44313.36
562.93	44257.19
563.10	44540.39
563.26	43973.98
563.42	44624.65
563.59	44165.91
563.75	44081.65
563.92	44917.22
564.08	44402.30
564.24	44598.91
564.41	44570.82
564.57	44657.42
564.74	44573.16
564.90	44416.35
565.07	44744.02
565.23	44563.80
565.39	44369.54
565.56	44886.79
565.72	44179.95
565.88	44582.52
566.05	44521.67
566.21	44116.76
566.38	44428.05
566.54	44591.89
566.70	44919.56
566.87	45312.77
567.03	44807.22
567.19	45118.51
567.36	44720.62
567.52	44076.97
567.68	44711.25
567.85	44191.65
568.01	44596.57
568.17	44582.52
568.34	44865.73
568.50	44879.77
568.66	44921.90
568.83	44875.09
568.99	44842.32
569.15	44563.80
569.32	44519.33
569.48	44650.40
569.64	45137.23
569.81	44863.39
569.97	45029.57
570.13	44900.84
570.30	44615.29
570.46	43999.73
570.62	44788.49
570.78	44584.86
570.95	44514.65
571.11	45083.40
571.27	44528.69
571.43	44554.44
571.60	44835.30
571.76	44732.32
571.92	45022.54
572.09	45003.82
572.25	44666.78
572.41	44725.30
572.57	45090.42
572.74	45528.10
572.90	45116.17
573.06	44676.15
573.22	44498.26
573.38	44582.52
573.55	44886.79
573.71	44982.76
573.87	44912.54
574.03	45064.67
574.20	44816.58
574.36	44828.28
574.52	45291.71
574.68	44957.01
574.84	44891.48
575.01	44889.13
575.17	44882.11
575.33	44692.53
575.49	45205.11
575.65	45507.04
575.82	45249.58
575.98	45074.04
576.14	45455.54
576.30	45256.60
576.46	45043.61
576.62	44882.11
576.79	45193.40
576.95	44816.58
577.11	45504.70
577.27	44926.58
577.43	45652.15
577.59	45174.68
577.75	44966.37
577.92	44931.26
578.08	45059.99
578.24	45099.78
578.40	45043.61
578.56	45050.63
578.72	45188.72
578.88	45448.52
579.04	45067.02
579.21	45301.07
579.37	44811.90
579.53	44973.39
579.69	44755.72
579.85	44762.75
580.01	45322.13
580.17	45099.78
580.33	45490.65
580.49	45289.37
580.65	44914.88
580.82	45240.21
580.98	45375.97
581.14	44652.74
581.30	45216.81
581.46	45507.04
581.62	45160.64
581.78	45439.16
581.94	45303.41
582.10	45607.68
582.26	45303.41
582.42	45640.45
582.58	45055.31
582.74	44849.35
582.90	45090.42
583.06	45359.58
583.22	45162.98
583.38	45258.94
583.54	44980.42
583.70	45198.09
583.86	44968.71
584.02	45184.04
584.18	45209.79
584.34	45256.60
584.50	45326.81
584.66	45223.83
584.82	45160.64
584.98	45120.85
585.14	45226.17
585.30	45240.21
585.46	44683.17
585.62	45226.17
585.78	45043.61
585.94	44645.72
586.10	45038.93
586.26	44835.30
586.42	45034.25
586.58	45340.86
586.74	44989.78
586.90	45340.86
587.06	45146.59
587.22	45261.28
587.38	44608.27
587.54	45221.49
587.70	45525.76
587.86	45268.30
588.02	45478.95
588.18	45045.95
588.34	45027.23
588.49	45523.42
588.65	44905.52
588.81	45120.85
588.97	45312.77
589.13	45261.28
589.29	45237.87
589.45	45118.51
589.61	44914.88
589.77	45380.65
589.93	45675.55
590.08	45092.76
590.24	45411.07
