SpectraSuite Data File
++++++++++++++++++++++++++++++++++++
Date: Fri Oct 25 10:48:32 EDT 2013
User: price-jones
Dark Spectrum Present: No
Reference Spectrum Present: No
Number of Sampled Component Spectra: 1
Spectrometers: USB2+H05261
Integration Time (usec): 100000 (USB2+H05261)
Spectra Averaged: 1 (USB2+H05261)
Boxcar Smoothing: 0 (USB2+H05261)
Correct for Electrical Dark: No (USB2+H05261)
Strobe/Lamp Enabled: No (USB2+H05261)
Correct for Detector Non-linearity: No (USB2+H05261)
Correct for Stray Light: No (USB2+H05261)
Number of Pixels in Processed Spectrum: 2048
>>>>>Begin Processed Spectral Data<<<<<
365.73	60.85
365.92	60.85
366.12	60.85
366.32	25.75
366.52	107.66
366.72	53.83
366.91	84.26
367.11	121.71
367.31	93.62
367.51	0.00
367.70	112.35
367.90	128.73
368.10	84.26
368.30	91.28
368.49	39.79
368.69	100.64
368.89	53.83
369.09	56.17
369.28	107.66
369.48	42.13
369.68	44.47
369.87	79.58
370.07	86.60
370.27	140.43
370.47	215.33
370.66	477.47
370.86	423.64
371.06	550.03
371.25	493.85
371.45	482.15
371.65	454.06
371.84	475.13
372.04	428.32
372.24	531.30
372.44	496.19
372.63	552.37
372.83	503.22
373.03	557.05
373.22	582.79
373.42	526.62
373.62	482.15
373.81	592.16
374.01	573.43
374.21	587.47
374.40	531.30
374.60	657.69
374.79	634.29
374.99	592.16
375.19	669.39
375.38	620.24
375.58	681.10
375.78	678.76
375.97	578.11
376.17	671.73
376.37	606.20
376.56	669.39
376.76	645.99
376.95	601.52
377.15	638.97
377.35	650.67
377.54	641.31
377.74	674.07
377.93	718.54
378.13	692.80
378.33	692.80
378.52	660.03
378.72	732.59
378.91	669.39
379.11	674.07
379.31	674.07
379.50	662.37
379.70	758.33
379.89	798.12
380.09	767.70
380.28	664.71
380.48	699.82
380.68	711.52
380.87	697.48
381.07	716.20
381.26	767.70
381.46	777.06
381.65	732.59
381.85	720.88
382.04	667.05
382.24	767.70
382.43	723.23
382.63	774.72
382.83	774.72
383.02	781.74
383.22	819.19
383.41	720.88
383.61	835.57
383.80	826.21
384.00	763.01
384.19	802.80
384.39	798.12
384.58	894.08
384.78	908.13
384.97	830.89
385.17	833.23
385.36	858.98
385.56	840.25
385.75	924.51
385.95	835.57
386.14	936.21
386.34	889.40
386.53	849.61
386.72	861.32
386.92	870.68
387.11	847.27
387.31	877.70
387.50	880.04
387.70	901.11
387.89	926.85
388.09	954.94
388.28	915.15
388.48	917.49
388.67	1015.79
388.86	954.94
389.06	1011.11
389.25	1039.20
389.45	978.34
389.64	994.73
389.84	1083.67
390.03	987.71
390.22	1071.97
390.42	1039.20
390.61	1102.39
390.81	1076.65
391.00	1116.44
391.19	1121.12
391.39	1057.92
391.58	1062.60
391.78	1069.62
391.97	1088.35
392.16	1081.33
392.36	1055.58
392.55	1015.79
392.75	1053.24
392.94	980.68
393.13	1032.18
393.33	985.37
393.52	997.07
393.71	1130.48
393.91	1249.85
394.10	1116.44
394.29	1261.55
394.49	1172.61
394.68	1200.69
394.88	1294.32
395.07	1235.80
395.26	1224.10
395.46	1287.29
395.65	1329.42
395.84	1289.64
396.04	1336.45
396.23	1310.70
396.42	1156.22
396.62	1198.35
396.81	1306.02
397.00	1338.79
397.19	1259.21
397.39	1413.68
397.58	1357.51
397.77	1406.66
397.97	1455.81
398.16	1537.73
398.35	1561.14
398.55	1495.60
398.74	1474.54
398.93	1621.99
399.12	1556.46
399.32	1549.43
399.51	1591.56
399.70	1792.85
399.90	1591.56
400.09	1535.39
400.28	1671.14
400.47	1694.55
400.67	1781.15
400.86	1774.13
401.05	1750.72
401.24	1748.38
401.44	1792.85
401.63	1785.83
401.82	1696.89
402.01	1706.25
402.21	1727.32
402.40	1813.92
402.59	1739.02
402.78	1816.26
402.97	1811.57
403.17	1923.92
403.36	1844.34
403.55	1834.98
403.74	1909.88
403.93	1937.96
404.13	1923.92
404.32	1898.17
404.51	1891.15
404.70	1942.64
404.89	1996.48
405.09	2024.56
405.28	2064.35
405.47	2083.08
405.66	1982.43
405.85	2076.06
406.05	2132.23
406.24	2080.74
406.43	2022.22
406.62	2064.35
406.81	2134.57
407.00	2127.55
407.20	2127.55
407.39	2146.27
407.58	2242.23
407.77	2237.55
407.96	2239.89
408.15	2267.98
408.34	2232.87
408.54	2354.58
408.73	2282.02
408.92	2279.68
409.11	2429.48
409.30	2370.96
409.49	2326.49
409.68	2225.85
409.87	2363.94
410.07	2464.58
410.26	2377.98
410.45	2392.03
410.64	2530.12
410.83	2609.70
411.02	2565.23
411.21	2700.98
411.40	2675.23
411.59	2597.99
411.78	2644.81
411.98	2565.23
412.17	2663.53
412.36	2672.89
412.55	2829.71
412.74	2771.19
412.93	2752.47
413.12	2792.26
413.31	3009.93
413.50	2794.60
413.69	2986.52
413.88	3009.93
414.07	2883.54
414.26	2970.14
414.45	3089.51
414.64	2920.99
414.83	3129.30
415.02	3103.55
415.22	3073.12
415.41	3180.79
415.60	3234.62
415.79	3368.03
415.98	3262.71
416.17	3276.75
416.36	3304.84
416.55	3314.20
416.74	3468.67
416.93	3304.84
417.12	3370.37
417.31	3382.07
417.50	3393.78
417.69	3602.08
417.88	3459.31
418.07	3438.25
418.26	3538.89
418.45	3578.68
418.64	3714.43
418.83	3541.23
419.02	3492.08
419.21	3695.71
419.39	3592.72
419.58	3620.81
419.77	3609.11
419.96	3712.09
420.15	3744.86
420.34	3852.52
420.53	3779.97
420.72	3906.35
420.91	3962.53
421.10	3950.82
421.29	3920.40
421.48	3756.56
421.67	3929.76
421.86	3946.14
422.05	3873.59
422.24	3929.76
422.43	3801.03
422.61	4007.00
422.80	3983.59
422.99	3999.98
423.18	3999.98
423.37	4079.55
423.56	4042.11
423.75	3990.61
423.94	4112.32
424.13	3726.13
424.32	3861.88
424.50	4135.73
424.69	3999.98
424.88	4180.20
425.07	3957.85
425.26	4046.79
425.45	3932.10
425.64	4032.74
425.83	3988.27
426.01	4133.39
426.20	4044.45
426.39	4107.64
426.58	4044.45
426.77	3955.51
426.96	4079.55
427.15	4025.72
427.33	4112.32
427.52	4290.20
427.71	4229.35
427.90	4191.90
428.09	4271.48
428.28	4243.39
428.46	4142.75
428.65	4315.95
428.84	4334.67
429.03	4304.25
429.22	4107.64
429.40	4161.47
429.59	4070.19
429.78	4025.72
429.97	3936.78
430.16	4163.81
430.34	4114.66
430.53	4147.43
430.72	4180.20
430.91	4418.93
431.10	4526.60
431.28	4610.86
431.47	4601.49
431.66	4851.93
431.85	4645.96
432.03	4561.70
432.22	4770.01
432.41	4608.51
432.60	4814.48
432.79	4840.23
432.97	4880.02
433.16	4880.02
433.35	4751.29
433.54	4713.84
433.72	4760.65
433.91	4828.53
434.10	4828.53
434.28	4971.30
434.47	4947.89
434.66	5062.58
434.85	5034.49
435.03	5013.43
435.22	5153.86
435.41	5193.65
435.59	5184.29
435.78	5114.07
435.97	5273.23
436.16	5261.52
436.34	5301.31
436.53	5247.48
436.72	5540.05
436.90	5317.70
437.09	5181.95
437.28	5238.12
437.46	5387.91
437.65	5118.75
437.84	5406.64
438.02	5380.89
438.21	5256.84
438.40	5174.92
438.58	5408.98
438.77	5673.46
438.96	5579.84
439.14	5757.72
439.33	5731.97
439.52	5785.80
439.70	5753.04
439.89	5664.10
440.08	5633.67
440.26	5755.38
440.45	5905.17
440.63	5916.87
440.82	6022.20
441.01	6104.12
441.19	6094.76
441.38	6139.23
441.57	6396.68
441.75	6399.02
441.94	6471.58
442.12	6282.00
442.31	6469.24
442.50	6429.45
442.68	6396.68
442.87	6457.54
443.05	6590.95
443.24	6754.79
443.43	6665.85
443.61	6487.96
443.80	6810.96
443.98	6455.20
444.17	6469.24
444.35	6698.61
444.54	6668.19
444.73	6764.15
444.91	6628.40
445.10	6630.74
445.28	6740.74
445.47	6502.01
445.65	6448.18
445.84	6731.38
446.02	6785.21
446.21	6597.97
446.39	6607.33
446.58	6855.43
446.77	6853.09
446.95	6724.36
447.14	6862.45
447.32	6897.56
447.51	6794.58
447.69	6731.38
447.88	6717.34
448.06	6825.00
448.25	6881.18
448.43	6953.73
448.62	6813.30
448.80	6862.45
448.99	6832.02
449.17	7000.54
449.36	7070.76
449.54	7028.63
449.73	7047.35
449.91	7112.89
450.10	7283.75
450.28	7346.94
450.46	7391.41
450.65	7463.97
450.83	7201.83
451.02	7314.17
451.20	7344.60
451.39	7482.69
451.57	7557.59
451.76	7323.54
451.94	7274.38
452.13	7384.39
452.31	7335.24
452.49	7136.29
452.68	7398.43
452.86	7538.87
453.05	7581.00
453.23	7660.57
453.42	7470.99
453.60	7396.09
453.78	7548.23
453.97	7779.94
454.15	7585.68
454.34	7599.72
454.52	7768.24
454.70	7602.06
454.89	7801.01
455.07	7831.43
455.26	7644.19
455.44	7873.56
455.62	7887.61
455.81	7878.24
455.99	8079.53
456.17	8032.72
456.36	7992.93
456.54	8159.11
456.73	8280.82
456.91	8205.92
457.09	8386.14
457.28	8573.38
457.46	8245.71
457.64	8421.25
457.83	8358.05
458.01	8156.77
458.19	8308.90
458.38	8243.37
458.56	8489.12
458.74	8346.35
458.93	8325.29
459.11	8393.16
459.29	8561.68
459.48	8690.41
459.66	8667.00
459.84	8409.54
460.03	8795.73
460.21	8603.81
460.39	8732.54
460.57	8613.17
460.76	8697.43
460.94	8910.42
461.12	8954.89
461.31	8751.26
461.49	8795.73
461.67	8875.31
461.85	8849.57
462.04	8849.57
462.22	9558.75
462.40	9202.99
462.59	9083.62
462.77	9027.45
462.95	9114.05
463.13	9050.85
463.32	9228.73
463.50	9277.88
463.68	9020.42
463.86	9413.63
464.05	9107.02
464.23	9121.07
464.41	9280.22
464.59	9305.97
464.78	9310.65
464.96	9242.78
465.14	9172.56
465.32	9448.74
465.50	9338.74
465.69	9469.81
465.87	9383.21
466.05	9397.25
466.23	9383.21
466.41	9397.25
466.60	9565.77
466.78	9249.80
466.96	9296.61
467.14	9411.29
467.32	9638.33
467.51	9755.35
467.69	9469.81
467.87	9577.47
468.05	9568.11
468.23	9783.44
468.41	9507.26
468.60	9687.48
468.78	9989.41
468.96	9631.30
469.14	9785.78
469.32	9935.57
469.50	9708.54
469.69	10113.45
469.87	9923.87
470.05	10127.50
470.23	9968.34
470.41	10010.47
470.59	10218.78
470.77	10132.18
470.95	10281.97
471.14	10167.29
471.32	10375.59
471.50	10422.41
471.68	10319.42
471.86	10548.79
472.04	10607.31
472.22	10668.16
472.40	10403.68
472.58	10562.84
472.77	10607.31
472.95	10883.49
473.13	11115.20
473.31	10607.31
473.49	10822.64
473.67	10832.00
473.85	10911.58
474.03	11272.02
474.21	11080.10
474.39	11297.77
474.57	11222.87
474.75	11236.91
474.93	11515.44
475.12	11335.21
475.30	11494.37
475.48	11609.06
475.66	11777.58
475.84	11440.54
476.02	11730.76
476.20	11728.42
476.38	11871.20
476.56	12374.41
476.74	12161.42
476.92	11971.84
477.10	11974.18
477.28	12301.86
477.46	12238.66
477.64	12587.40
477.82	12496.12
478.00	12699.75
478.18	12774.64
478.36	12922.10
478.54	13083.59
478.72	12912.74
478.90	13488.51
479.08	13390.20
479.26	13516.59
479.44	13394.89
479.62	13350.42
479.80	13731.92
479.98	13610.22
480.16	13954.27
480.34	13909.80
480.52	13792.78
480.70	13984.70
480.88	13675.75
481.06	14321.74
481.24	14272.59
481.41	14553.45
481.59	14817.93
481.77	14466.85
481.95	14630.69
482.13	14588.56
482.31	14841.34
482.49	15330.51
482.67	15161.99
482.85	15201.78
483.03	15592.65
483.21	15606.69
483.39	15957.77
483.57	15733.08
483.74	15695.63
483.92	15840.75
484.10	16137.99
484.28	16203.53
484.46	16482.05
484.64	16629.51
484.82	16496.10
485.00	16304.17
485.18	16587.38
485.35	16807.39
485.53	16381.41
485.71	16578.01
485.89	17029.74
486.07	16685.68
486.25	17069.53
486.43	17067.19
486.61	17493.16
486.78	17598.49
486.96	17722.54
487.14	18136.81
487.32	18071.28
487.50	18286.61
487.68	18581.51
487.85	18820.25
488.03	19040.26
488.21	18871.74
488.39	18827.27
488.57	18834.29
488.75	19105.79
488.92	19433.47
489.10	19634.75
489.28	19850.08
489.46	19964.77
489.64	20006.90
489.81	20493.73
489.99	20688.00
490.17	20294.79
490.35	20755.87
490.53	20856.51
490.70	20856.51
490.88	20732.47
491.06	21172.49
491.24	21317.60
491.41	20985.24
491.59	21060.14
491.77	21275.47
491.95	21593.78
492.13	21839.54
492.30	21537.61
492.48	22008.06
492.66	22483.19
492.84	22230.41
493.01	22462.12
493.19	22721.92
493.37	22576.81
493.54	22595.53
493.72	23075.34
493.90	22955.97
494.08	23330.46
494.25	23335.14
494.43	24121.56
494.61	23868.78
494.79	24030.28
494.96	23955.38
495.14	24004.53
495.32	23997.51
495.49	24226.89
495.67	24229.23
495.85	24554.56
496.02	24631.80
496.20	24840.11
496.38	24978.20
496.55	25071.82
496.73	25514.18
496.91	25474.39
497.09	25350.34
497.26	25741.21
497.44	25455.67
497.62	25446.30
497.79	25888.67
497.97	25706.10
498.14	25837.17
498.32	26347.41
498.50	26108.68
498.67	26476.14
498.85	26434.01
499.03	26857.65
499.20	26583.80
499.38	27199.37
499.56	27168.94
499.73	27283.62
499.91	26937.23
500.08	27241.50
500.26	26595.51
500.44	26974.67
500.61	27456.82
500.79	27033.19
500.97	27211.07
501.14	27651.09
501.32	27730.67
501.49	27969.40
501.67	27557.47
501.84	27915.57
502.02	28072.39
502.20	28306.44
502.37	28706.67
502.55	28400.06
502.72	28250.27
502.90	28416.44
503.07	28376.66
503.25	28982.85
503.43	28741.78
503.60	28945.41
503.78	28933.70
503.95	28821.36
504.13	28968.81
504.30	29081.16
504.48	29158.39
504.65	29392.45
504.83	29869.92
505.01	29603.10
505.18	29607.78
505.36	29912.05
505.53	30253.76
505.71	30384.83
505.88	30253.76
506.06	30071.20
506.23	30508.88
506.41	30141.42
506.58	30396.54
506.76	30326.32
506.93	30778.04
507.11	30511.22
507.28	30717.19
507.46	30501.86
507.63	30644.63
507.81	30883.37
507.98	30913.80
508.16	31040.18
508.33	31215.72
508.50	31267.22
508.68	31171.25
508.85	31618.30
509.03	31679.15
509.20	31503.61
509.38	31653.40
509.55	31779.79
509.73	31936.61
509.90	31988.10
510.08	32044.27
510.25	32006.83
510.42	32252.58
510.60	32734.73
510.77	32275.99
510.95	32914.95
511.12	32177.68
511.30	32680.90
511.47	33134.96
511.64	33067.09
511.82	32905.59
511.99	32706.65
512.17	32786.22
512.34	32545.15
512.51	33532.86
512.69	33708.40
512.86	33745.84
513.04	33694.35
513.21	33343.27
513.38	33511.79
513.56	33507.11
513.73	32980.49
513.90	33752.87
514.08	33579.67
514.25	33846.49
514.43	33954.15
514.60	33745.84
514.77	33982.24
514.95	34316.93
515.12	34307.57
515.29	34403.53
515.47	34567.37
515.64	34705.46
515.81	34394.17
515.99	34754.61
516.16	34455.03
516.33	33979.90
516.51	34169.48
516.68	33947.13
516.85	33675.63
517.03	34377.79
517.20	34529.92
517.37	34742.91
517.54	34925.47
517.72	35321.02
517.89	34691.42
518.06	34684.40
518.24	34789.72
518.41	34918.45
518.58	35257.83
518.75	35234.42
518.93	35526.99
519.10	35473.16
519.27	35990.42
519.45	35964.67
519.62	35824.24
519.79	36004.46
519.96	36006.80
520.14	36435.12
520.31	35941.27
520.48	36526.40
520.65	36350.86
520.83	36636.41
521.00	36804.92
521.17	36266.60
521.34	36545.12
521.52	36879.82
521.69	36886.84
521.86	37256.65
522.03	36760.45
522.20	37097.49
522.38	37134.94
522.55	37280.05
522.72	37151.32
522.89	37060.04
523.07	37462.61
523.24	37090.47
523.41	37654.54
523.58	37741.14
523.75	37816.04
523.92	38064.13
524.10	37762.20
524.27	37645.18
524.44	38143.71
524.61	38237.33
524.78	38305.21
524.96	37984.55
525.13	38387.13
525.30	38995.67
525.47	38546.28
525.64	38391.81
525.81	38651.61
525.98	38665.65
526.16	37860.51
526.33	38068.81
526.50	38478.41
526.67	38532.24
526.84	38267.76
527.01	38384.79
527.18	38293.50
527.36	38693.74
527.53	39131.42
527.70	39360.79
527.87	39051.84
528.04	39201.63
528.21	39576.12
528.38	38955.88
528.55	39768.04
528.72	39672.08
528.89	39868.69
529.07	39592.50
529.24	39126.74
529.41	39536.33
529.58	39641.65
529.75	39578.46
529.92	40060.61
530.09	39985.71
530.26	40126.14
530.43	40163.59
530.60	40168.27
530.77	40444.46
530.94	40612.98
531.11	40187.00
531.28	39983.37
531.46	40196.36
531.63	40170.61
531.80	40144.87
531.97	40189.34
532.14	40439.78
532.31	39922.52
532.48	40371.90
532.65	40580.21
532.82	40357.86
532.99	40685.53
533.16	40631.70
533.33	40788.52
533.50	41064.70
533.67	41141.94
533.84	40683.19
534.01	41368.97
534.18	40708.94
534.35	41375.99
534.52	41116.19
534.69	41120.87
534.86	41298.75
535.03	41081.08
535.20	41198.11
535.37	41497.70
535.54	41677.92
535.71	41443.87
535.88	42005.59
536.05	41507.06
536.22	41677.92
536.38	41607.70
536.55	41457.91
536.72	41542.17
536.89	41626.43
537.06	42019.64
537.23	41778.56
537.40	41752.82
537.57	41560.89
537.74	42117.94
537.91	42506.47
538.08	41984.53
538.25	41565.57
538.42	42462.00
538.59	42567.32
538.75	41670.90
538.92	42337.95
539.09	42333.27
539.26	42534.56
539.43	42108.58
539.60	42625.84
539.77	42064.11
539.94	42712.44
540.11	41834.74
540.28	42241.99
540.44	41996.23
540.61	42272.42
540.78	42178.79
540.95	42438.59
541.12	42504.13
541.29	42733.50
541.46	42649.24
541.62	42684.35
541.79	42850.53
541.96	42391.78
542.13	42593.07
542.30	43129.05
542.47	43194.59
542.63	42939.47
542.80	43014.37
542.97	43636.95
543.14	43435.66
543.31	43592.48
543.48	43510.56
543.64	44275.91
543.81	43739.93
543.98	43969.30
544.15	43452.05
544.32	43529.28
544.48	44083.99
544.65	43800.79
544.82	43540.99
544.99	43388.85
545.16	43775.04
545.32	43618.22
545.49	44081.65
545.66	44259.53
545.83	44196.34
546.00	44318.04
546.16	44531.03
546.33	44048.88
546.50	43814.83
546.67	44189.31
546.83	43086.92
547.00	44046.54
547.17	43950.58
547.34	44062.93
547.50	44062.93
547.67	44451.45
547.84	44435.07
548.00	44603.59
548.17	44531.03
548.34	44385.92
548.51	44493.58
548.67	44568.48
548.84	44591.89
549.01	44809.56
549.18	44769.77
549.34	44729.98
549.51	44559.12
549.68	44996.80
549.84	44779.13
550.01	45146.59
550.18	44493.58
550.34	44605.93
550.51	44889.13
550.68	44942.97
550.84	44554.44
551.01	44903.18
551.18	45270.64
551.34	44868.07
551.51	45090.42
551.68	45186.38
551.84	45237.87
552.01	45301.07
552.18	45111.49
552.34	44734.66
552.51	45212.13
552.68	45015.52
552.84	45570.23
553.01	45542.14
553.18	45130.21
553.34	45015.52
553.51	45067.02
553.67	45598.32
553.84	45708.32
554.01	45755.13
554.17	45869.82
554.34	45881.52
554.51	45897.91
554.67	45729.39
554.84	45832.37
555.00	45017.86
555.17	45317.45
555.33	45495.33
555.50	45656.83
555.67	46160.05
555.83	45588.95
556.00	45727.05
556.16	46115.58
556.33	45710.66
556.50	45577.25
556.66	45684.92
556.83	45631.08
556.99	45820.67
557.16	45776.20
557.32	46075.79
557.49	45897.91
557.65	45539.80
557.82	45364.26
557.98	46096.85
558.15	46136.64
558.32	45832.37
558.48	45626.40
558.65	45888.54
558.81	45846.41
558.98	46328.56
559.14	45914.29
559.31	46005.57
559.47	46351.97
559.64	46412.82
559.80	46363.67
559.97	45991.53
560.13	45968.12
560.30	45860.46
560.46	46272.39
560.63	46108.55
560.79	46330.90
560.96	46976.89
561.12	46197.49
561.29	46096.85
561.45	46110.89
561.61	46586.02
561.78	46307.50
561.94	45965.78
562.11	46260.69
562.27	46527.51
562.44	46361.33
562.60	46225.58
562.77	46319.20
562.93	46349.63
563.10	46667.94
563.26	46471.34
563.42	46375.37
563.59	46239.62
563.75	46501.76
563.92	46644.54
564.08	47461.38
564.24	46504.10
564.41	46642.20
564.57	46412.82
564.74	47000.30
564.90	46784.97
565.07	46429.21
565.23	46480.70
565.39	46569.64
565.56	46738.16
565.72	46782.63
565.88	46527.51
566.05	46602.41
566.21	46696.03
566.38	46291.12
566.54	46436.23
566.70	46869.23
566.87	47028.38
567.03	46941.78
567.19	47037.75
567.36	47026.04
567.52	46265.37
567.68	46815.40
567.85	46632.83
568.01	46843.48
568.17	46796.67
568.34	46878.59
568.50	46745.18
568.66	46808.37
568.83	46934.76
568.99	46658.58
569.15	46630.49
569.32	46742.84
569.48	46646.88
569.64	47131.37
569.81	46784.97
569.97	47082.22
570.13	46522.83
570.30	46454.95
570.46	46824.76
570.62	46546.23
570.78	46497.08
570.95	46394.10
571.11	47049.45
571.27	46831.78
571.43	46576.66
571.60	47449.68
571.76	46937.10
571.92	46780.29
572.09	46993.28
572.25	46951.15
572.41	46862.21
572.57	47054.13
572.74	47100.94
572.90	47311.59
573.06	46660.92
573.22	46738.16
573.38	47065.83
573.55	46714.75
573.71	46995.62
573.87	46787.31
574.03	47173.50
574.20	47037.75
574.36	46974.55
574.52	46836.46
574.68	47047.11
574.84	47201.58
575.01	47028.38
575.17	46623.47
575.33	46967.53
575.49	46738.16
575.65	47084.56
575.82	47515.22
575.98	46927.74
576.14	47096.26
576.30	46960.51
576.46	47026.04
576.62	46754.54
576.79	47107.96
576.95	46330.90
577.11	47445.00
577.27	47332.65
577.43	46983.91
577.59	46948.81
577.75	46948.81
577.92	46913.70
578.08	46541.55
578.24	46485.38
578.40	46993.28
578.56	46735.82
578.72	46953.49
578.88	47061.15
579.04	47103.28
579.21	47000.30
579.37	46696.03
579.53	46911.36
579.69	46864.55
579.85	47290.52
580.01	47192.22
580.17	47044.77
580.33	47332.65
580.49	47143.07
580.65	47112.64
580.82	47306.91
580.98	47320.95
581.14	46909.02
581.30	47262.44
581.46	47173.50
581.62	47447.34
581.78	47061.15
581.94	47716.50
582.10	47065.83
582.26	47449.68
582.42	47480.11
582.58	47210.95
582.74	47133.71
582.90	47433.30
583.06	47143.07
583.22	47445.00
583.38	47278.82
583.54	46972.21
583.70	47281.16
583.86	47086.90
584.02	47192.22
584.18	46827.10
584.34	47253.08
584.50	47271.80
584.66	47173.50
584.82	47213.29
584.98	47620.54
585.14	47442.66
585.30	47140.73
585.46	47028.38
585.62	46815.40
585.78	47091.58
585.94	46499.42
586.10	46827.10
586.26	46939.44
586.42	47138.39
586.58	47047.11
586.74	47026.04
586.90	47007.32
587.06	47079.88
587.22	47440.32
587.38	46630.49
587.54	47360.74
587.70	47070.51
587.86	47019.02
588.02	47342.02
588.18	47103.28
588.34	47089.24
588.49	47178.18
588.65	46639.86
588.81	46557.94
588.97	46866.89
589.13	46733.48
589.29	46642.20
589.45	47065.83
589.61	47082.22
589.77	47136.05
