SpectraSuite Data File
++++++++++++++++++++++++++++++++++++
Date: Fri Oct 25 11:22:39 EDT 2013
User: price-jones
Dark Spectrum Present: No
Reference Spectrum Present: No
Number of Sampled Component Spectra: 1
Spectrometers: USB2+H05261
Integration Time (usec): 100000 (USB2+H05261)
Spectra Averaged: 1 (USB2+H05261)
Boxcar Smoothing: 0 (USB2+H05261)
Correct for Electrical Dark: No (USB2+H05261)
Strobe/Lamp Enabled: No (USB2+H05261)
Correct for Detector Non-linearity: No (USB2+H05261)
Correct for Stray Light: No (USB2+H05261)
Number of Pixels in Processed Spectrum: 2048
>>>>>Begin Processed Spectral Data<<<<<
365.73	147.45
365.92	147.45
366.12	147.45
366.32	210.65
366.52	128.73
366.72	170.86
366.91	159.16
367.11	117.03
367.31	86.60
367.51	60.85
367.70	93.62
367.90	124.05
368.10	117.03
368.30	88.94
368.49	100.64
368.69	142.77
368.89	110.01
369.09	117.03
369.28	91.28
369.48	93.62
369.68	227.03
369.87	210.65
370.07	114.69
370.27	243.42
370.47	269.16
370.66	526.62
370.86	695.14
371.06	660.03
371.25	713.86
371.45	727.91
371.65	669.39
371.84	718.54
372.04	690.46
372.24	725.57
372.44	720.88
372.63	636.63
372.83	748.97
373.03	674.07
373.22	688.12
373.42	753.65
373.62	711.52
373.81	800.46
374.01	791.10
374.21	709.18
374.40	746.63
374.60	755.99
374.79	791.10
374.99	903.45
375.19	793.44
375.38	802.80
375.58	809.83
375.78	947.92
375.97	842.59
376.17	868.34
376.37	842.59
376.56	842.59
376.76	833.23
376.95	870.68
377.15	910.47
377.35	889.40
377.54	908.13
377.74	887.06
377.93	873.02
378.13	929.19
378.33	926.85
378.52	844.93
378.72	849.61
378.91	952.60
379.11	917.49
379.31	950.26
379.50	908.13
379.70	1036.86
379.89	1034.52
380.09	968.98
380.28	929.19
380.48	971.32
380.68	933.87
380.87	950.26
381.07	894.08
381.26	1025.15
381.46	1027.50
381.65	1008.77
381.85	1029.84
382.04	1015.79
382.24	1074.31
382.43	1048.56
382.63	1174.95
382.83	1081.33
383.02	1034.52
383.22	1146.86
383.41	1064.94
383.61	1156.22
383.80	1135.16
384.00	1067.28
384.19	1170.27
384.39	1114.10
384.58	1142.18
384.78	1181.97
384.97	1167.93
385.17	1121.12
385.36	1174.95
385.56	1121.12
385.75	1144.52
385.95	1252.19
386.14	1146.86
386.34	1170.27
386.53	1188.99
386.72	1188.99
386.92	1296.66
387.11	1310.70
387.31	1212.40
387.50	1132.82
387.70	1245.16
387.89	1268.57
388.09	1327.08
388.28	1320.06
388.48	1294.32
388.67	1263.89
388.86	1320.06
389.06	1313.04
389.25	1249.85
389.45	1385.60
389.64	1322.40
389.84	1369.21
390.03	1303.68
390.22	1371.55
390.42	1387.94
390.61	1341.13
390.81	1397.30
391.00	1439.43
391.19	1385.60
391.39	1364.53
391.58	1430.07
391.78	1460.49
391.97	1409.00
392.16	1533.05
392.36	1607.95
392.55	1490.92
392.75	1493.26
392.94	1533.05
393.13	1535.39
393.33	1533.05
393.52	1544.75
393.71	1694.55
393.91	1659.44
394.10	1434.75
394.29	1617.31
394.49	1561.14
394.68	1624.33
394.88	1645.40
395.07	1631.35
395.26	1603.27
395.46	1633.69
395.65	1748.38
395.84	1673.48
396.04	1842.00
396.23	1746.04
396.42	1846.68
396.62	1799.87
396.81	1795.19
397.00	1799.87
397.19	1769.44
397.39	1769.44
397.58	1823.28
397.77	1776.47
397.97	1795.19
398.16	1863.07
398.35	1923.92
398.55	1930.94
398.74	1788.17
398.93	1900.52
399.12	1919.24
399.32	2003.50
399.51	1937.96
399.70	1980.09
399.90	1977.75
400.09	2047.97
400.28	2031.58
400.47	2080.74
400.67	2031.58
400.86	2122.87
401.05	2092.44
401.24	2108.82
401.44	2076.06
401.63	2202.44
401.82	2251.60
402.01	2195.42
402.21	2214.15
402.40	2162.66
402.59	2125.21
402.78	2258.62
402.97	2317.13
403.17	2232.87
403.36	2307.77
403.55	2190.74
403.74	2246.91
403.93	2361.60
404.13	2321.81
404.32	2431.82
404.51	2359.26
404.70	2469.27
404.89	2408.41
405.09	2452.88
405.28	2487.99
405.47	2513.74
405.66	2459.90
405.85	2532.46
406.05	2485.65
406.24	2609.70
406.43	2583.95
406.62	2616.72
406.81	2689.28
407.00	2637.78
407.20	2586.29
407.39	2567.57
407.58	2757.15
407.77	2722.04
407.96	2841.41
408.15	2874.18
408.34	2778.22
408.54	2822.69
408.73	2799.28
408.92	2874.18
409.11	2911.63
409.30	3005.25
409.49	2963.12
409.68	2874.18
409.87	2956.10
410.07	3005.25
410.26	3016.95
410.45	3084.83
410.64	3110.57
410.83	3061.42
411.02	3148.02
411.21	3101.21
411.40	3187.81
411.59	3323.56
411.78	3229.94
411.98	3225.26
412.17	3166.74
412.36	3255.69
412.55	3351.65
412.74	3365.69
412.93	3463.99
413.12	3478.04
413.31	3559.95
413.50	3515.48
413.69	3527.19
413.88	3733.15
414.07	3669.96
414.26	3646.55
414.45	3620.81
414.64	3712.09
414.83	3723.79
415.02	3705.07
415.22	3784.65
415.41	3955.51
415.60	3880.61
415.79	3992.95
415.98	4025.72
416.17	4067.85
416.36	3880.61
416.55	3957.85
416.74	4098.28
416.93	3941.46
417.12	4182.54
417.31	4248.07
417.50	4231.69
417.69	4315.95
417.88	4337.01
418.07	4351.06
418.26	4285.52
418.45	4327.65
418.64	4458.72
418.83	4292.54
419.02	4440.00
419.21	4533.62
419.39	4449.36
419.58	4507.87
419.77	4463.40
419.96	4730.22
420.15	4643.62
420.34	4601.49
420.53	4594.47
420.72	4678.73
420.91	4624.90
421.10	4671.71
421.29	4922.15
421.48	4498.51
421.67	4800.44
421.86	4833.21
422.05	4833.21
422.24	4762.99
422.43	4891.72
422.61	5064.92
422.80	4983.00
422.99	5041.51
423.18	5111.73
423.37	5050.88
423.56	5130.45
423.75	4990.02
423.94	4912.78
424.13	4702.14
424.32	4720.86
424.50	5137.48
424.69	5039.17
424.88	5128.11
425.07	4938.53
425.26	4889.38
425.45	4887.04
425.64	5008.75
425.83	4837.89
426.01	5214.71
426.20	4891.72
426.39	5036.83
426.58	5156.20
426.77	5057.90
426.96	5259.18
427.15	5336.42
427.33	5195.99
427.52	5259.18
427.71	5294.29
427.90	5336.42
428.09	5205.35
428.28	5469.83
428.46	5406.64
428.65	5383.23
428.84	5589.20
429.03	5612.60
429.22	5518.98
429.40	5631.33
429.59	5423.02
429.78	5329.40
429.97	5238.12
430.16	5460.47
430.34	5612.60
430.53	5778.78
430.72	5678.14
430.91	5692.18
431.10	5628.99
431.28	6003.47
431.47	5867.72
431.66	5865.38
431.85	5689.84
432.03	5949.64
432.22	6057.31
432.41	6003.47
432.60	5837.30
432.79	5874.74
432.97	5961.34
433.16	5935.60
433.35	6083.05
433.54	6012.84
433.72	6286.68
433.91	6232.85
434.10	6221.14
434.28	6052.63
434.47	6377.96
434.66	6197.74
434.85	6312.42
435.03	6537.12
435.22	6317.11
435.41	6497.33
435.59	6597.97
435.78	6406.05
435.97	6459.88
436.16	6511.37
436.34	6448.18
436.53	6520.73
436.72	6750.10
436.90	6581.59
437.09	6754.79
437.28	6401.37
437.46	6619.04
437.65	6731.38
437.84	6787.55
438.02	6773.51
438.21	6771.17
438.40	6679.89
438.58	7005.22
438.77	7159.70
438.96	6977.14
439.14	7342.26
439.33	7197.15
439.52	7321.20
439.70	7206.51
439.89	7283.75
440.08	7269.70
440.26	7410.14
440.45	7330.56
440.63	7503.76
440.82	7712.07
441.01	7442.90
441.19	7529.50
441.38	7531.84
441.57	7810.37
441.75	7737.81
441.94	8152.09
442.12	7911.01
442.31	8168.47
442.50	8056.12
442.68	8011.65
442.87	8224.64
443.05	8407.20
443.24	8128.68
443.43	8187.19
443.61	8278.47
443.80	8585.08
443.98	8177.83
444.17	7922.71
444.35	8184.85
444.54	8344.01
444.73	8327.63
444.91	8285.50
445.10	8369.76
445.28	8283.16
445.47	8301.88
445.65	8444.65
445.84	8381.46
446.02	8601.47
446.21	8446.99
446.39	8367.42
446.58	8519.55
446.77	8477.42
446.95	8152.09
447.14	8451.67
447.32	8706.79
447.51	8512.53
447.69	8578.06
447.88	8713.81
448.06	8716.16
448.25	8753.60
448.43	8582.74
448.62	8627.21
448.80	8650.62
448.99	8786.37
449.17	9050.85
449.36	8659.98
449.54	9053.19
449.73	8992.34
449.91	9043.83
450.10	9029.79
450.28	9092.98
450.46	9132.77
450.65	9226.39
450.83	9118.73
451.02	8990.00
451.20	9163.20
451.39	9401.93
451.57	9177.24
451.76	8980.64
451.94	9151.49
452.13	9289.59
452.31	9179.58
452.49	9167.88
452.68	9392.57
452.86	9455.76
453.05	9542.36
453.23	9586.83
453.42	9427.68
453.60	9692.16
453.78	9682.80
453.97	9565.77
454.15	9666.41
454.34	9488.53
454.52	9832.59
454.70	9689.82
454.89	9797.48
455.07	9727.27
455.26	9900.47
455.44	9937.91
455.62	10064.30
455.81	10115.80
455.99	10094.73
456.17	10176.65
456.36	9951.96
456.54	10125.16
456.73	10375.59
456.91	10541.77
457.09	10413.04
457.28	10569.86
457.46	10408.36
457.64	10593.26
457.83	10672.84
458.01	10490.28
458.19	10817.96
458.38	10724.33
458.56	10768.80
458.74	10778.17
458.93	10799.23
459.11	10803.91
459.29	10899.87
459.48	10951.37
459.66	10836.68
459.84	11091.80
460.03	11304.79
460.21	11068.39
460.39	11066.05
460.57	10944.34
460.76	10958.39
460.94	11417.13
461.12	11180.74
461.31	11173.72
461.49	11246.27
461.67	11332.87
461.85	11367.98
462.04	11393.73
462.22	11836.09
462.40	11705.02
462.59	11510.75
462.77	11311.81
462.95	11737.79
463.13	11756.51
463.32	11756.51
463.50	11791.62
463.68	11939.07
463.86	11796.30
464.05	11791.62
464.23	11749.49
464.41	12138.02
464.59	11999.93
464.78	12140.36
464.96	12042.06
465.14	11836.09
465.32	11784.60
465.50	12222.28
465.69	12362.71
465.87	12304.20
466.05	12009.29
466.23	12383.77
466.41	12376.75
466.60	12526.55
466.78	12301.86
466.96	12306.54
467.14	12379.09
467.32	12631.87
467.51	12573.36
467.69	12091.21
467.87	12641.23
468.05	12659.96
468.23	12755.92
468.41	12524.21
468.60	12690.38
468.78	12844.86
468.96	12587.40
469.14	12901.03
469.32	13053.17
469.50	12905.71
469.69	12833.16
469.87	13158.49
470.05	13455.74
470.23	13394.89
470.41	13422.97
470.59	13334.03
470.77	13345.73
470.95	13621.92
471.14	13497.87
471.32	13245.09
471.50	13996.40
471.68	13647.66
471.86	13797.46
472.04	13556.38
472.22	14059.60
472.40	13855.97
472.58	13748.31
472.77	14274.93
472.95	14073.64
473.13	14518.34
473.31	14202.37
473.49	14389.61
473.67	14200.03
473.85	14415.36
474.03	14693.88
474.21	14478.55
474.39	14897.51
474.57	14944.32
474.75	15169.01
474.93	14927.94
475.12	14986.45
475.30	15133.90
475.48	15147.95
475.66	15351.57
475.84	15199.44
476.02	15435.83
476.20	15414.77
476.38	15941.39
476.56	16196.51
476.74	16084.16
476.92	16077.14
477.10	16210.55
477.28	16250.34
477.46	16327.58
477.64	16599.08
477.82	16732.49
478.00	16917.39
478.18	17006.33
478.36	17214.64
478.54	17160.81
478.72	17083.57
478.90	17369.12
479.08	17722.54
479.26	17802.11
479.44	17895.74
479.62	17926.16
479.80	18331.08
479.98	18263.20
480.16	18909.19
480.34	18398.95
480.52	18953.66
480.70	19005.15
480.88	18661.09
481.06	19056.64
481.24	19070.68
481.41	19066.00
481.59	19742.42
481.77	19721.35
481.95	19534.11
482.13	19964.77
482.31	19974.13
482.49	20552.24
482.67	20503.09
482.85	20470.33
483.03	20615.44
483.21	20896.30
483.39	21081.21
483.57	21003.97
483.74	21483.78
483.92	21348.03
484.10	21343.35
484.28	21649.96
484.46	22075.93
484.64	22263.18
484.82	22127.42
485.00	22597.87
485.18	22782.77
485.35	23381.95
485.53	22850.65
485.71	23152.58
485.89	23529.41
486.07	23616.01
486.25	23733.03
486.43	23878.15
486.61	24084.11
486.78	24381.36
486.96	24243.27
487.14	24772.23
487.32	24479.66
487.50	24685.63
487.68	25008.62
487.85	25273.10
488.03	25549.29
488.21	25886.32
488.39	26064.21
488.57	26684.45
488.75	26649.34
488.92	26637.64
489.10	26691.47
489.28	26759.34
489.46	27241.50
489.64	27388.95
489.81	27840.67
489.99	27924.93
490.17	27955.36
490.35	28400.06
490.53	28432.83
490.70	29064.77
490.88	28844.76
491.06	29352.66
491.24	28844.76
491.41	29198.18
491.59	29830.13
491.77	29481.39
491.95	29900.34
492.13	30195.25
492.30	29823.11
492.48	30424.62
492.66	30118.01
492.84	30441.01
493.01	30857.62
493.19	30724.21
493.37	31166.57
493.54	31360.84
493.72	31683.83
493.90	31592.55
494.08	32154.28
494.25	32170.66
494.43	32290.03
494.61	32219.81
494.79	32884.53
494.96	32854.10
495.14	33310.50
495.32	33359.66
495.49	33420.51
495.67	33429.87
495.85	33607.75
496.02	34029.05
496.20	34235.02
496.38	34345.02
496.55	34532.26
496.73	35005.05
496.91	34824.83
497.09	35065.91
497.26	35201.66
497.44	35559.76
497.62	35681.47
497.79	35835.94
497.97	35681.47
498.14	36236.17
498.32	36643.43
498.50	36458.52
498.67	36573.21
498.85	36493.63
499.03	37120.90
499.20	37455.59
499.38	37130.26
499.56	37500.06
499.73	37661.56
499.91	37127.92
500.08	37963.49
500.26	37427.51
500.44	38333.29
500.61	37771.57
500.79	37942.42
500.97	38686.71
501.14	39136.10
501.32	38693.74
501.49	39257.81
501.67	38946.51
501.84	39309.30
502.02	39271.85
502.20	39634.63
502.37	39662.72
502.55	39548.03
502.72	39449.73
502.90	39800.81
503.07	39894.43
503.25	39814.85
503.43	40147.21
503.60	40189.34
503.78	40605.95
503.95	40517.01
504.13	40662.13
504.30	40938.31
504.48	40491.27
504.65	41144.28
504.83	41394.71
505.01	41890.91
505.18	41460.25
505.36	42029.00
505.53	41378.33
505.71	41584.30
505.88	42202.20
506.06	41656.85
506.23	41907.29
506.41	42347.31
506.58	42424.55
506.76	42326.25
506.93	42958.19
507.11	42754.57
507.28	43058.84
507.46	43070.54
507.63	43283.53
507.81	43225.01
507.98	43400.55
508.16	43545.67
508.33	43660.35
508.50	43592.48
508.68	43962.28
508.85	44369.54
509.03	44266.55
509.20	44219.74
509.38	44704.23
509.55	44580.18
509.73	44669.12
509.90	44854.03
510.08	44701.89
510.25	45205.11
510.42	45261.28
510.60	45357.24
510.77	45464.91
510.95	45661.51
511.12	45619.38
511.30	45652.15
511.47	45614.70
511.64	45965.78
511.82	46253.67
511.99	46134.30
512.17	46623.47
512.34	46286.43
512.51	46756.88
512.69	46321.54
512.86	46803.69
513.04	46745.18
513.21	46625.81
513.38	47026.04
513.56	47117.32
513.73	46726.46
513.90	47227.33
514.08	47583.09
514.25	47597.13
514.43	47578.41
514.60	47650.97
514.77	48016.09
514.95	47842.89
515.12	47875.66
515.29	47873.32
515.47	48582.50
515.64	48388.24
515.81	48603.56
515.99	48392.92
516.16	48533.35
516.33	48516.96
516.51	49272.96
516.68	48629.31
516.85	48725.27
517.03	49008.48
517.20	49116.14
517.37	49504.67
517.54	49179.34
517.72	49052.95
517.89	49443.82
518.06	49745.75
518.24	49584.25
518.41	49670.85
518.58	49310.41
518.75	49890.86
518.93	49937.67
519.10	49886.18
519.27	49911.92
519.45	50251.30
519.62	50136.62
519.79	50089.80
519.96	50520.46
520.14	50426.84
520.31	50508.76
520.48	50511.10
520.65	50705.37
520.83	51035.38
521.00	50871.54
521.17	50827.07
521.34	51234.33
521.52	50908.99
521.69	51255.39
521.86	51356.03
522.03	51412.21
522.20	51819.46
522.38	51540.94
522.55	51744.56
522.72	51564.34
522.89	51718.82
523.07	52105.01
523.24	51774.99
523.41	51966.91
523.58	51767.97
523.75	52310.97
523.92	51833.50
524.10	52486.51
524.27	52254.80
524.44	52413.96
524.61	52271.18
524.78	52322.68
524.96	52552.05
525.13	52549.71
525.30	52676.10
525.47	52666.73
525.64	52701.84
525.81	52662.05
525.98	52982.71
526.16	52795.46
526.33	52924.19
526.50	53319.74
526.67	53158.25
526.84	52884.40
527.01	53146.54
527.18	53179.31
527.36	53563.16
527.53	53207.40
527.70	53609.97
527.87	53490.60
528.04	53294.00
528.21	53457.84
528.38	53638.06
528.55	53811.26
528.72	53420.39
528.89	53837.00
529.07	53666.14
529.24	53670.82
529.41	53860.41
529.58	53792.53
529.75	54129.57
529.92	53921.26
530.09	53993.82
530.26	54087.44
530.43	54141.27
530.60	54138.93
530.77	54181.06
530.94	54293.41
531.11	54103.82
531.28	54248.94
531.46	54597.68
531.63	54466.61
531.80	54508.74
531.97	54623.42
532.14	54901.95
532.31	54686.62
532.48	54646.83
532.65	54876.20
532.82	54883.22
532.99	54843.43
533.16	54976.84
533.33	55002.59
533.50	55178.13
533.67	54925.35
533.84	55047.06
534.01	55187.49
534.18	55161.75
534.35	55554.96
534.52	55250.69
534.69	55489.42
534.86	55501.12
535.03	55320.90
535.20	55599.43
535.37	55487.08
535.54	55739.86
535.71	55168.77
535.88	55531.55
536.05	55688.37
536.22	55819.44
536.38	55842.84
536.55	55875.61
536.72	55835.82
536.89	55845.18
537.06	55973.91
537.23	56198.60
537.40	55877.95
537.57	55781.99
537.74	56079.24
537.91	56198.60
538.08	55987.95
538.25	56048.81
538.42	56147.11
538.59	56130.73
538.75	56179.88
538.92	56128.39
539.09	56699.48
539.26	56126.05
539.43	56271.16
539.60	56280.52
539.77	56261.80
539.94	56678.41
540.11	56615.22
540.28	56495.85
540.44	56563.73
540.61	56903.10
540.78	56673.73
540.95	56598.83
541.12	56605.86
541.29	56601.18
541.46	56940.55
541.62	56917.15
541.79	56811.82
541.96	56720.54
542.13	56933.53
542.30	56872.68
542.47	57240.14
542.63	56963.96
542.80	56999.07
542.97	57340.78
543.14	57551.43
543.31	57354.83
543.48	57476.54
543.64	57860.38
543.81	57490.58
543.98	57446.11
544.15	57560.79
544.32	57902.51
544.48	57822.93
544.65	57296.31
544.82	57523.35
544.99	57443.77
545.16	57696.55
545.32	57638.03
545.49	57949.32
545.66	58134.23
545.83	57860.38
546.00	57701.23
546.16	57797.19
546.33	57881.45
546.50	57595.90
546.67	57956.35
546.83	57567.82
547.00	57848.68
547.17	57963.37
547.34	57855.70
547.50	58169.33
547.67	58333.17
547.84	58277.00
548.00	58192.74
548.17	58403.39
548.34	58298.06
548.51	58443.18
548.67	58110.82
548.84	58316.79
549.01	58174.02
549.18	58358.92
549.34	58485.31
549.51	58447.86
549.68	58468.92
549.84	58529.78
550.01	58635.10
550.18	58564.88
550.34	58595.31
550.51	58660.85
550.68	58812.98
550.84	58541.48
551.01	58679.57
551.18	58759.15
551.34	58539.14
551.51	58775.53
551.68	58901.92
551.84	58719.36
552.01	58637.44
552.18	58927.67
552.34	58604.67
552.51	59075.12
552.68	58752.13
552.84	58927.67
553.01	59166.40
553.18	58993.20
553.34	59147.68
553.51	58805.96
553.67	58885.54
553.84	59121.93
554.01	59023.63
554.17	59243.64
554.34	59199.17
554.51	59077.46
554.67	59075.12
554.84	59222.58
555.00	59297.47
555.17	59213.21
555.33	59103.21
555.50	59269.39
555.67	59161.72
555.83	59175.76
556.00	59458.97
556.16	59650.89
556.33	59489.40
556.50	59475.35
556.66	59662.60
556.83	59484.72
556.99	59618.13
557.16	59590.04
557.32	59608.76
557.49	59681.32
557.65	59281.09
557.82	59409.82
557.98	59547.91
558.15	59583.02
558.32	59725.79
558.48	59498.76
558.65	59512.80
558.81	59606.42
558.98	59788.98
559.14	59821.75
559.31	59994.95
559.47	60081.55
559.64	60137.72
559.80	59875.58
559.97	60062.83
560.13	59714.09
560.30	59936.44
560.46	59798.35
560.63	59866.22
560.79	59906.01
560.96	60051.12
561.12	60041.76
561.29	60053.47
561.45	60126.02
561.61	60111.98
561.78	60074.53
561.94	59955.16
562.11	60013.68
562.27	60044.10
562.44	60271.14
562.60	60364.76
562.77	60275.82
562.93	59938.78
563.10	60250.07
563.26	60055.81
563.42	60495.83
563.59	60231.35
563.75	60275.82
563.92	60221.98
564.08	60236.03
564.24	60308.58
564.41	60254.75
564.57	60301.56
564.74	60303.90
564.90	60315.61
565.07	60395.18
565.23	60189.22
565.39	60374.12
565.56	60376.46
565.72	60350.71
565.88	60416.25
566.05	60493.49
566.21	60622.22
566.38	60615.19
566.54	60540.30
566.70	60392.84
566.87	60608.17
567.03	60292.20
567.19	60432.63
567.36	60481.78
567.52	60643.28
567.68	60720.52
567.85	60650.30
568.01	60711.16
568.17	60622.22
568.34	60657.32
568.50	60603.49
568.66	60210.28
568.83	60491.15
568.99	60552.00
569.15	60570.72
569.32	60711.16
569.48	60652.64
569.64	60692.43
569.81	60706.47
569.97	60781.37
570.13	60626.90
570.30	60753.29
570.46	60734.56
570.62	60727.54
570.78	60802.44
570.95	60767.33
571.11	60643.28
571.27	60893.72
571.43	60683.07
571.60	60816.48
571.76	60945.21
571.92	60619.88
572.09	60683.07
572.25	60729.88
572.41	60554.34
572.57	60781.37
572.74	60989.68
572.90	60865.63
573.06	60851.59
573.22	60858.61
573.38	60732.22
573.55	60938.19
573.71	61052.87
573.87	60938.19
574.03	60666.69
574.20	61116.07
574.36	60858.61
574.52	60865.63
574.68	60823.50
574.84	60968.61
575.01	60942.87
575.17	60783.71
575.33	60973.30
575.49	60790.73
575.65	61038.83
575.82	61251.82
575.98	60814.14
576.14	61181.60
576.30	60851.59
576.46	60945.21
576.62	60931.17
576.79	60921.80
576.95	60877.33
577.11	61078.62
577.27	60977.98
577.43	60919.46
577.59	60917.12
577.75	60762.65
577.92	60802.44
578.08	61153.52
578.24	60924.14
578.40	61006.06
578.56	61212.03
578.72	61235.44
578.88	61106.71
579.04	61181.60
579.21	61188.63
579.37	61186.28
579.53	61027.13
579.69	60842.23
579.85	61052.87
580.01	61020.11
580.17	61083.30
580.33	61364.17
580.49	61265.86
580.65	61144.16
580.82	60931.17
580.98	61095.00
581.14	60999.04
581.30	61240.12
581.46	61123.09
581.62	61083.30
581.78	61106.71
581.94	61118.41
582.10	60903.08
582.26	61141.81
582.42	61127.77
582.58	61240.12
582.74	61080.96
582.90	61258.84
583.06	61172.24
583.22	61153.52
583.38	61148.84
583.54	61116.07
583.70	61265.86
583.86	61137.13
584.02	61087.98
584.18	61305.65
584.34	61256.50
584.50	61102.03
584.66	61013.08
584.82	61125.43
584.98	61275.22
585.14	61212.03
585.30	61202.67
585.46	61167.56
585.62	61216.71
585.78	61176.92
585.94	61041.17
586.10	61181.60
586.26	61095.00
586.42	61432.04
586.58	61085.64
586.74	61249.48
586.90	61188.63
587.06	61242.46
587.22	61307.99
587.38	61195.65
587.54	61368.85
587.70	61406.30
587.86	61151.18
588.02	61286.93
588.18	61403.95
588.34	61312.67
588.49	61413.32
