SpectraSuite Data File
++++++++++++++++++++++++++++++++++++
Date: Fri Oct 25 10:47:09 EDT 2013
User: price-jones
Dark Spectrum Present: No
Reference Spectrum Present: No
Number of Sampled Component Spectra: 1
Spectrometers: USB2+H05261
Integration Time (usec): 100000 (USB2+H05261)
Spectra Averaged: 1 (USB2+H05261)
Boxcar Smoothing: 0 (USB2+H05261)
Correct for Electrical Dark: No (USB2+H05261)
Strobe/Lamp Enabled: No (USB2+H05261)
Correct for Detector Non-linearity: No (USB2+H05261)
Correct for Stray Light: No (USB2+H05261)
Number of Pixels in Processed Spectrum: 2048
>>>>>Begin Processed Spectral Data<<<<<
365.73	67.88
365.92	67.88
366.12	67.88
366.32	100.64
366.52	37.45
366.72	88.94
366.91	0.00
367.11	79.58
367.31	0.00
367.51	63.19
367.70	79.58
367.90	100.64
368.10	35.11
368.30	49.15
368.49	131.07
368.69	44.47
368.89	49.15
369.09	105.32
369.28	112.35
369.48	81.92
369.68	93.62
369.87	126.39
370.07	110.01
370.27	184.90
370.47	205.97
370.66	411.93
370.86	428.32
371.06	425.98
371.25	514.92
371.45	348.74
371.65	477.47
371.84	367.46
372.04	400.23
372.24	440.02
372.44	498.53
372.63	528.96
372.83	550.03
373.03	477.47
373.22	496.19
373.42	491.51
373.62	465.77
373.81	559.39
374.01	552.37
374.21	526.62
374.40	500.87
374.60	535.98
374.79	500.87
374.99	538.32
375.19	601.52
375.38	475.13
375.58	526.62
375.78	561.73
375.97	589.82
376.17	594.50
376.37	580.45
376.56	554.71
376.76	585.13
376.95	627.26
377.15	629.60
377.35	531.30
377.54	617.90
377.74	601.52
377.93	620.24
378.13	552.37
378.33	650.67
378.52	601.52
378.72	608.54
378.91	641.31
379.11	606.20
379.31	589.82
379.50	599.18
379.70	617.90
379.89	650.67
380.09	601.52
380.28	641.31
380.48	645.99
380.68	603.86
380.87	585.13
381.07	653.01
381.26	739.61
381.46	704.50
381.65	699.82
381.85	685.78
382.04	734.93
382.24	664.71
382.43	685.78
382.63	716.20
382.83	674.07
383.02	657.69
383.22	751.31
383.41	697.48
383.61	730.25
383.80	723.23
384.00	739.61
384.19	699.82
384.39	748.97
384.58	748.97
384.78	805.14
384.97	786.42
385.17	858.98
385.36	765.36
385.56	725.57
385.75	734.93
385.95	716.20
386.14	760.67
386.34	751.31
386.53	812.17
386.72	812.17
386.92	861.32
387.11	770.04
387.31	744.29
387.50	807.48
387.70	809.83
387.89	868.34
388.09	753.65
388.28	793.44
388.48	884.72
388.67	795.78
388.86	882.38
389.06	894.08
389.25	842.59
389.45	964.30
389.64	933.87
389.84	856.64
390.03	870.68
390.22	985.37
390.42	847.27
390.61	875.36
390.81	917.49
391.00	894.08
391.19	987.71
391.39	1018.13
391.58	968.98
391.78	889.40
391.97	966.64
392.16	1025.15
392.36	961.96
392.55	929.19
392.75	1006.43
392.94	992.39
393.13	952.60
393.33	947.92
393.52	980.68
393.71	1069.62
393.91	1039.20
394.10	1025.15
394.29	987.71
394.49	1036.86
394.68	1081.33
394.88	1163.25
395.07	1130.48
395.26	1163.25
395.46	1163.25
395.65	1156.22
395.84	1093.03
396.04	1212.40
396.23	1086.01
396.42	1001.75
396.62	1205.38
396.81	1186.65
397.00	1029.84
397.19	1165.59
397.39	1160.91
397.58	1196.01
397.77	1249.85
397.97	1254.53
398.16	1205.38
398.35	1259.21
398.55	1224.10
398.74	1291.98
398.93	1324.74
399.12	1322.40
399.32	1212.40
399.51	1249.85
399.70	1362.19
399.90	1336.45
400.09	1289.64
400.28	1378.58
400.47	1387.94
400.67	1376.24
400.86	1392.62
401.05	1434.75
401.24	1455.81
401.44	1481.56
401.63	1427.73
401.82	1345.81
402.01	1444.11
402.21	1437.09
402.40	1441.77
402.59	1528.37
402.78	1462.83
402.97	1523.69
403.17	1680.50
403.36	1481.56
403.55	1458.15
403.74	1556.46
403.93	1607.95
404.13	1540.07
404.32	1657.10
404.51	1647.74
404.70	1692.21
404.89	1572.84
405.09	1650.08
405.28	1708.59
405.47	1624.33
405.66	1736.68
405.85	1703.91
406.05	1769.44
406.24	1830.30
406.43	1776.47
406.62	1668.80
406.81	1888.81
407.00	1746.04
407.20	1783.49
407.39	1788.17
407.58	1778.81
407.77	1923.92
407.96	1930.94
408.15	1907.54
408.34	1762.42
408.54	1902.86
408.73	1980.09
408.92	2045.63
409.11	2134.57
409.30	1975.41
409.49	1905.20
409.68	1977.75
409.87	2003.50
410.07	2026.90
410.26	2003.50
410.45	2001.16
410.64	2122.87
410.83	2064.35
411.02	2139.25
411.21	2246.91
411.40	2120.53
411.59	2223.51
411.78	2169.68
411.98	2204.78
412.17	2366.28
412.36	2307.77
412.55	2436.50
412.74	2422.45
412.93	2377.98
413.12	2424.80
413.31	2490.33
413.50	2406.07
413.69	2511.39
413.88	2490.33
414.07	2553.52
414.26	2551.18
414.45	2499.69
414.64	2700.98
414.83	2661.19
415.02	2612.04
415.22	2677.57
415.41	2794.60
415.60	2754.81
415.79	2691.62
415.98	2771.19
416.17	2836.73
416.36	2871.84
416.55	2984.18
416.74	2909.29
416.93	2825.03
417.12	2754.81
417.31	2977.16
417.50	2850.77
417.69	2988.86
417.88	2998.23
418.07	2897.58
418.26	3000.57
418.45	3087.17
418.64	3033.33
418.83	3166.74
419.02	3068.44
419.21	3220.58
419.39	3115.25
419.58	3159.72
419.77	3014.61
419.96	3225.26
420.15	3302.50
420.34	3208.87
420.53	3337.60
420.72	3335.26
420.91	3269.73
421.10	3199.51
421.29	3386.76
421.48	3222.92
421.67	3424.20
421.86	3321.22
422.05	3283.77
422.24	3389.10
422.43	3328.24
422.61	3480.38
422.80	3461.65
422.99	3372.71
423.18	3461.65
423.37	3559.95
423.56	3403.14
423.75	3424.20
423.94	3346.97
424.13	3234.62
424.32	3309.52
424.50	3515.48
424.69	3562.30
424.88	3527.19
425.07	3461.65
425.26	3375.05
425.45	3330.58
425.64	3627.83
425.83	3478.04
426.01	3475.70
426.20	3552.93
426.39	3527.19
426.58	3581.02
426.77	3510.80
426.96	3602.08
427.15	3463.99
427.33	3648.90
427.52	3473.36
427.71	3702.73
427.90	3658.26
428.09	3602.08
428.28	3770.60
428.46	3728.47
428.65	3721.45
428.84	3782.31
429.03	3840.82
429.22	3669.96
429.40	3749.54
429.59	3751.88
429.78	3424.20
429.97	3552.93
430.16	3761.24
430.34	3782.31
430.53	3908.69
430.72	3885.29
430.91	3831.46
431.10	3922.74
431.28	3997.64
431.47	4124.02
431.66	4030.40
431.85	3943.80
432.03	4147.43
432.22	3983.59
432.41	4095.94
432.60	4100.62
432.79	4086.58
432.97	4056.15
433.16	4163.81
433.35	4063.17
433.54	4121.68
433.72	4337.01
433.91	4063.17
434.10	4196.58
434.28	4290.20
434.47	4306.59
434.66	4278.50
434.85	4421.27
435.03	4388.50
435.22	4386.16
435.41	4500.85
435.59	4374.46
435.78	4503.19
435.97	4512.55
436.16	4601.49
436.34	4322.97
436.53	4493.83
436.72	4685.75
436.90	4409.57
437.09	4400.21
437.28	4418.93
437.46	4533.62
437.65	4601.49
437.84	4641.28
438.02	4709.16
438.21	4610.86
438.40	4629.58
438.58	4695.11
438.77	4847.25
438.96	4770.01
439.14	4880.02
439.33	4971.30
439.52	4990.02
439.70	5008.75
439.89	5011.09
440.08	5125.77
440.26	5004.07
440.45	5114.07
440.63	5181.95
440.82	5296.63
441.01	5219.39
441.19	5385.57
441.38	5217.05
441.57	5420.68
441.75	5305.99
441.94	5523.66
442.12	5451.11
442.31	5448.77
442.50	5680.48
442.68	5654.73
442.87	5589.20
443.05	5643.03
443.24	5724.95
443.43	5603.24
443.61	5650.05
443.80	5809.21
443.98	5668.78
444.17	5404.30
444.35	5722.61
444.54	5895.81
444.73	5701.54
444.91	5741.33
445.10	5811.55
445.28	5731.97
445.47	5731.97
445.65	5699.20
445.84	5832.62
446.02	5750.70
446.21	5809.21
446.39	5764.74
446.58	5806.87
446.77	5916.87
446.95	5636.01
447.14	5856.02
447.32	5902.83
447.51	5895.81
447.69	5792.83
447.88	5921.56
448.06	5942.62
448.25	5820.91
448.43	5874.74
448.62	5982.41
448.80	5771.76
448.99	6057.31
449.17	5998.79
449.36	6120.50
449.54	6197.74
449.73	6260.93
449.91	6338.17
450.10	6267.95
450.28	6181.35
450.46	6324.13
450.65	6232.85
450.83	6317.11
451.02	6298.38
451.20	6347.53
451.39	6305.40
451.57	6436.47
451.76	6499.67
451.94	6389.66
452.13	6539.46
452.31	6370.94
452.49	6305.40
452.68	6469.24
452.86	6450.52
453.05	6539.46
453.23	6473.92
453.42	6464.56
453.60	6422.43
453.78	6628.40
453.97	6438.81
454.15	6480.94
454.34	6544.14
454.52	6436.47
454.70	6649.46
454.89	6663.51
455.07	6665.85
455.26	6801.60
455.44	6773.51
455.62	6979.48
455.81	7014.59
455.99	6867.13
456.17	7007.56
456.36	6897.56
456.54	7105.87
456.73	6963.09
456.91	7124.59
457.09	7122.25
457.28	7295.45
457.46	7035.65
457.64	7040.33
457.83	6930.33
458.01	7110.55
458.19	7293.11
458.38	7176.08
458.56	7375.03
458.74	7274.38
458.93	7234.60
459.11	7419.50
459.29	7398.43
459.48	7314.17
459.66	7515.46
459.84	7344.60
460.03	7602.06
460.21	7492.05
460.39	7492.05
460.57	7559.93
460.76	7620.78
460.94	7679.30
461.12	7524.82
461.31	7623.12
461.49	7653.55
461.67	7590.36
461.85	7672.28
462.04	7681.64
462.22	8292.52
462.40	7838.45
462.59	7868.88
462.77	7911.01
462.95	7873.56
463.13	7873.56
463.32	7929.74
463.50	7875.90
463.68	7988.25
463.86	7826.75
464.05	7978.89
464.23	7826.75
464.41	8149.75
464.59	8042.08
464.78	8173.15
464.96	7934.42
465.14	7906.33
465.32	8208.26
465.50	8229.32
465.69	8114.64
465.87	8219.96
466.05	8098.25
466.23	8376.78
466.41	8159.11
466.60	8472.74
466.78	8285.50
466.96	8250.39
467.14	8294.86
467.32	8449.33
467.51	8442.31
467.69	8304.22
467.87	8454.02
468.05	8681.05
468.23	8446.99
468.41	8348.69
468.60	8372.10
468.78	8765.31
468.96	8393.16
469.14	8650.62
469.32	8739.56
469.50	8425.93
469.69	8685.73
469.87	8814.46
470.05	8917.44
470.23	8816.80
470.41	8723.18
470.59	8903.40
470.77	8858.93
470.95	8861.27
471.14	8847.22
471.32	8924.46
471.50	9022.77
471.68	9055.53
471.86	9053.19
472.04	9249.80
472.22	9514.28
472.40	9282.56
472.58	9170.22
472.77	9128.09
472.95	9451.08
473.13	9727.27
473.31	9558.75
473.49	9364.48
473.67	9387.89
473.85	9392.57
474.03	9813.87
474.21	9804.50
474.39	9753.01
474.57	9823.23
474.75	9912.17
474.93	9996.43
475.12	9811.53
475.30	10148.56
475.48	9958.98
475.66	10204.74
475.84	10038.56
476.02	10312.40
476.20	10038.56
476.38	10396.66
476.56	10628.37
476.74	10607.31
476.92	10583.90
477.10	10527.73
477.28	10712.63
477.46	10803.91
477.64	10799.23
477.82	10801.57
478.00	11162.01
478.18	11253.30
478.36	11389.05
478.54	11218.19
478.72	11243.93
478.90	11499.05
479.08	11779.92
479.26	11562.25
479.44	11786.94
479.62	12018.65
479.80	11960.14
479.98	12028.01
480.16	12372.07
480.34	12081.85
480.52	12554.63
480.70	12325.26
480.88	12248.02
481.06	12561.66
481.24	12542.93
481.41	12812.09
481.59	12688.04
481.77	12704.43
481.95	12709.11
482.13	13029.76
482.31	13231.05
482.49	13387.86
482.67	13390.20
482.85	13584.47
483.03	13432.33
483.21	13872.36
483.39	13874.70
483.57	13806.82
483.74	13930.87
483.92	13973.00
484.10	13956.61
484.28	14443.45
484.46	14487.92
484.64	14434.08
484.82	14434.08
485.00	14562.81
485.18	14731.33
485.35	15061.35
485.53	14691.54
485.71	14949.00
485.89	15302.42
486.07	15105.82
486.25	15023.90
486.43	15449.88
486.61	15644.14
486.78	15550.52
486.96	15934.37
487.14	15941.39
487.32	16121.61
487.50	16503.12
487.68	16212.89
487.85	16386.09
488.03	16638.87
488.21	16741.85
488.39	16973.56
488.57	17006.33
488.75	17280.18
488.92	17366.78
489.10	17231.02
489.28	17406.56
489.46	17788.07
489.64	17685.09
489.81	18141.49
489.99	18111.07
490.17	18321.71
490.35	18651.73
490.53	18347.46
490.70	18490.23
490.88	18541.72
491.06	18565.13
491.24	18743.01
491.41	18853.02
491.59	18993.45
491.77	19028.56
491.95	19150.26
492.13	19386.66
492.30	19510.71
492.48	19981.15
492.66	19805.61
492.84	19845.40
493.01	20013.92
493.19	20196.48
493.37	20119.24
493.54	20147.33
493.72	20582.67
493.90	20631.82
494.08	20517.14
494.25	20978.22
494.43	20709.06
494.61	20964.18
494.79	21341.00
494.96	21287.17
495.14	21319.94
495.32	21252.06
495.49	21362.07
495.67	21694.43
495.85	21998.70
496.02	21860.60
496.20	22359.14
496.38	22188.28
496.55	22190.62
496.73	22813.20
496.91	22452.76
497.09	22441.06
497.26	22810.86
497.44	22548.72
497.62	22750.01
497.79	23131.51
497.97	23028.53
498.14	23285.99
498.32	23075.34
498.50	23339.82
498.67	23606.64
498.85	23709.63
499.03	23901.55
499.20	23786.86
499.38	23906.23
499.56	24149.65
499.73	24107.52
499.91	24348.59
500.08	24219.86
500.26	24194.12
500.44	24334.55
500.61	24505.41
500.79	24229.23
500.97	24816.70
501.14	24797.98
501.32	24903.30
501.49	25008.62
501.67	25172.46
501.84	25202.89
502.02	25483.75
502.20	25296.51
502.37	25369.07
502.55	25310.55
502.72	25446.30
502.90	25764.62
503.07	25099.90
503.25	25982.29
503.43	25582.06
503.60	25848.88
503.78	26221.02
503.95	26080.59
504.13	26359.11
504.30	26197.62
504.48	26040.80
504.65	26668.06
504.83	26686.79
505.01	26511.25
505.18	26345.07
505.36	26867.01
505.53	26876.37
505.71	27016.80
505.88	26925.52
506.06	26909.14
506.23	27173.62
506.41	27161.92
506.58	27157.24
506.76	27168.94
506.93	27363.20
507.11	27435.76
507.28	27473.21
507.46	27751.73
507.63	27475.55
507.81	28343.89
507.98	27812.59
508.16	27882.80
508.33	28039.62
508.50	28112.17
508.68	28383.68
508.85	28542.83
509.03	28641.14
509.20	28631.77
509.38	28858.81
509.55	28552.20
509.73	28814.34
509.90	28879.87
510.08	28730.08
510.25	29015.62
510.42	28985.19
510.60	28924.34
510.77	29205.20
510.95	29460.32
511.12	29429.90
511.30	29235.63
511.47	29448.62
511.64	29930.77
511.82	29937.79
511.99	29675.65
512.17	29605.44
512.34	29677.99
512.51	30089.93
512.69	30312.28
512.86	30323.98
513.04	30197.59
513.21	30110.99
513.38	30195.25
513.56	30543.99
513.73	30272.49
513.90	30415.26
514.08	30543.99
514.25	30658.68
514.43	30646.97
514.60	30756.98
514.77	30878.69
514.95	31197.00
515.12	30988.69
515.29	31138.49
515.47	31384.24
515.64	31344.45
515.81	31234.45
515.99	31353.82
516.16	31494.25
516.33	31482.55
516.51	31819.58
516.68	31075.29
516.85	31229.77
517.03	31356.16
517.20	31531.70
517.37	31515.31
517.54	32004.49
517.72	32126.19
517.89	32187.05
518.06	32048.96
518.24	31728.30
518.41	32173.00
518.58	31882.78
518.75	32093.43
518.93	32238.54
519.10	32753.46
519.27	32692.60
519.45	32542.81
519.62	33071.77
519.79	32444.51
519.96	32889.21
520.14	33064.75
520.31	32814.31
520.48	33031.98
520.65	33273.06
520.83	33167.73
521.00	33280.08
521.17	33631.16
521.34	33425.19
521.52	33411.15
521.69	33493.07
521.86	33883.94
522.03	33790.31
522.20	33802.02
522.38	33881.60
522.55	33926.07
522.72	34164.80
522.89	33736.48
523.07	34188.21
523.24	33930.75
523.41	34174.16
523.58	33668.61
523.75	34462.05
523.92	34506.52
524.10	34534.60
524.27	34637.59
524.44	34686.74
524.61	34733.55
524.78	34824.83
524.96	35012.07
525.13	34906.75
525.30	35129.10
525.47	35044.84
525.64	34892.71
525.81	34768.66
525.98	35112.72
526.16	35239.11
526.33	34822.49
526.50	35400.60
526.67	34869.30
526.84	35098.67
527.01	34991.01
527.18	35585.50
527.36	35840.62
527.53	35749.34
527.70	35849.99
527.87	36077.02
528.04	35435.71
528.21	36297.03
528.38	36275.96
528.55	36268.94
528.72	35964.67
528.89	35920.20
529.07	36091.06
529.24	35768.07
529.41	36641.09
529.58	36154.26
529.75	35812.54
529.92	36114.47
530.09	36329.80
530.26	36505.34
530.43	36673.85
530.60	36135.53
530.77	36662.15
530.94	36769.82
531.11	37010.89
531.28	36786.20
531.46	36669.17
531.63	37268.35
531.80	37266.01
531.97	37034.30
532.14	36999.19
532.31	36877.48
532.48	36870.46
532.65	37282.39
532.82	36891.52
532.99	37373.67
533.16	37221.54
533.33	37350.27
533.50	37773.91
533.67	37701.35
533.84	37804.33
534.01	37706.03
534.18	37546.87
534.35	37640.50
534.52	37425.17
534.69	38014.98
534.86	37579.64
535.03	37806.67
535.20	37825.40
535.37	38202.22
535.54	38291.16
535.71	37729.44
535.88	38312.23
536.05	38017.32
536.22	38258.40
536.38	38223.29
536.55	38227.97
536.72	37921.36
536.89	38204.56
537.06	37865.19
537.23	38174.14
537.40	38347.34
537.57	38429.26
537.74	38253.72
537.91	38981.62
538.08	39321.00
538.25	38286.48
538.42	38738.21
538.59	39014.39
538.75	38330.95
538.92	38740.55
539.09	38803.74
539.26	39065.88
539.43	38902.04
539.60	39143.12
539.77	39044.82
539.94	39115.03
540.11	38871.62
540.28	39264.83
540.44	39084.61
540.61	39246.10
540.78	38976.94
540.95	39063.54
541.12	39297.59
541.29	39445.05
541.46	39002.69
541.62	39232.06
541.79	39627.61
541.96	38895.02
542.13	39672.08
542.30	39742.30
542.47	39552.71
542.63	39271.85
542.80	40154.23
542.97	40236.15
543.14	40282.96
543.31	40297.00
543.48	40098.06
543.64	40378.92
543.81	40566.16
543.98	40610.64
544.15	40524.04
544.32	40538.08
544.48	40713.62
544.65	40954.69
544.82	40411.69
544.99	40109.76
545.16	40650.42
545.32	40341.47
545.49	40851.71
545.66	40491.27
545.83	40694.89
546.00	40837.67
546.16	40699.58
546.33	40790.86
546.50	40498.29
546.67	41036.61
546.83	40875.12
547.00	40685.53
547.17	40907.88
547.34	40678.51
547.50	40942.99
547.67	41177.04
547.84	40807.24
548.00	41163.00
548.17	41715.37
548.34	41270.67
548.51	41453.23
548.67	41249.60
548.84	41289.39
549.01	41345.56
549.18	41336.20
549.34	41528.13
549.51	41146.62
549.68	41851.12
549.84	41366.63
550.01	41792.61
550.18	41373.65
550.34	41502.38
550.51	41535.15
550.68	41542.17
550.84	41298.75
551.01	42019.64
551.18	41794.95
551.34	41766.86
551.51	41986.87
551.68	41837.08
551.84	41736.43
552.01	41860.48
552.18	42066.45
552.34	41703.67
552.51	41947.08
552.68	42131.98
552.84	42483.06
553.01	42141.35
553.18	41935.38
553.34	42440.93
553.51	42429.23
553.67	42213.90
553.84	42305.18
554.01	42373.06
554.17	42616.47
554.34	42529.87
554.51	42469.02
554.67	42480.72
554.84	42340.29
555.00	42698.39
555.17	42422.21
555.33	42553.28
555.50	42499.45
555.67	42382.42
555.83	42553.28
556.00	42738.18
556.16	43206.29
556.33	42749.88
556.50	43084.58
556.66	42962.87
556.83	42480.72
556.99	42983.94
557.16	42911.38
557.32	43058.84
557.49	43115.01
557.65	42726.48
557.82	42855.21
557.98	42857.55
558.15	43035.43
558.32	42822.44
558.48	42742.86
558.65	42782.65
558.81	43047.13
558.98	43061.18
559.14	43276.51
559.31	43098.62
559.47	43042.45
559.64	43250.76
559.80	43475.45
559.97	43629.93
560.13	43229.69
560.30	43269.48
560.46	43178.20
560.63	43475.45
560.79	43049.47
560.96	43810.15
561.12	43175.86
561.29	43398.21
561.45	43679.08
561.61	43576.09
561.78	43210.97
561.94	43210.97
562.11	43196.93
562.27	43540.99
562.44	43335.02
562.60	43552.69
562.77	43737.59
562.93	43548.01
563.10	44144.84
563.26	43559.71
563.42	43674.40
563.59	43496.52
563.75	43463.75
563.92	44315.70
564.08	43709.50
564.24	43777.38
564.41	43662.69
564.57	43833.55
564.74	43765.68
564.90	43971.64
565.07	44179.95
565.23	43690.78
565.39	43454.39
565.56	43899.09
565.72	44062.93
565.88	43646.31
566.05	43763.34
566.21	43688.44
566.38	43917.81
566.54	43564.39
566.70	44116.76
566.87	44411.67
567.03	43482.47
567.19	44011.43
567.36	43849.94
567.52	43943.56
567.68	44360.17
567.85	43821.85
568.01	44013.77
568.17	43849.94
568.34	44224.42
568.50	43679.08
568.66	43548.01
568.83	44072.29
568.99	43952.92
569.15	44088.67
569.32	43863.98
569.48	43494.18
569.64	44435.07
569.81	44296.98
569.97	44318.04
570.13	44247.83
570.30	43943.56
570.46	43779.72
570.62	43737.59
570.78	43985.69
570.95	43845.26
571.11	44395.28
571.27	43917.81
571.43	44067.61
571.60	44048.88
571.76	43742.27
571.92	43936.54
572.09	44076.97
572.25	44444.43
572.41	44470.18
572.57	44360.17
572.74	44507.63
572.90	44318.04
573.06	43840.57
573.22	44652.74
573.38	44268.89
573.55	43873.34
573.71	44280.60
573.87	43749.29
574.03	44184.63
574.20	44664.44
574.36	44027.82
574.52	44741.68
574.68	44458.48
574.84	44481.88
575.01	44224.42
575.17	44243.15
575.33	44336.77
575.49	43833.55
575.65	44570.82
575.82	44353.15
575.98	44458.48
576.14	44879.77
576.30	44175.27
576.46	43959.94
576.62	44182.29
576.79	44130.80
576.95	44383.58
577.11	44030.16
577.27	44142.50
577.43	44336.77
577.59	44722.96
577.75	44374.22
577.92	44406.98
578.08	44053.56
578.24	44189.31
578.40	43896.75
578.56	44388.26
578.72	44367.20
578.88	44598.91
579.04	44612.95
579.21	44418.69
579.37	44547.42
579.53	44357.83
579.69	43847.60
579.85	43899.09
580.01	44495.92
580.17	44758.06
580.33	45027.23
580.49	44191.65
580.65	44044.20
580.82	44406.98
580.98	44524.01
581.14	44299.32
581.30	44524.01
581.46	44133.14
581.62	44870.41
581.78	44538.05
581.94	44882.11
582.10	44580.18
582.26	44718.28
582.42	44683.17
582.58	44107.40
582.74	44102.71
582.90	44662.10
583.06	44390.60
583.22	44760.40
583.38	44760.40
583.54	44191.65
583.70	44652.74
583.86	44296.98
584.02	44191.65
584.18	44484.22
584.34	44177.61
584.50	44385.92
584.66	44849.35
584.82	44294.64
584.98	44992.12
585.14	44151.87
585.30	44528.69
585.46	44533.37
585.62	44083.99
585.78	44549.76
585.94	44151.87
586.10	44144.84
586.26	44257.19
586.42	44587.21
586.58	44304.00
586.74	44624.65
586.90	44552.10
587.06	44339.11
587.22	44526.35
587.38	44208.04
587.54	44652.74
587.70	44603.59
587.86	44641.04
588.02	44451.45
588.18	44917.22
588.34	44657.42
588.49	44376.56
588.65	44046.54
588.81	44383.58
588.97	44432.73
589.13	44357.83
589.29	44587.21
589.45	44472.52
589.61	44322.72
589.77	44966.37
589.93	44692.53
590.08	44421.03
590.24	44961.69
