SpectraSuite Data File
++++++++++++++++++++++++++++++++++++
Date: Fri Oct 25 11:22:36 EDT 2013
User: price-jones
Dark Spectrum Present: No
Reference Spectrum Present: No
Number of Sampled Component Spectra: 1
Spectrometers: USB2+H05261
Integration Time (usec): 100000 (USB2+H05261)
Spectra Averaged: 1 (USB2+H05261)
Boxcar Smoothing: 0 (USB2+H05261)
Correct for Electrical Dark: No (USB2+H05261)
Strobe/Lamp Enabled: No (USB2+H05261)
Correct for Detector Non-linearity: No (USB2+H05261)
Correct for Stray Light: No (USB2+H05261)
Number of Pixels in Processed Spectrum: 2048
>>>>>Begin Processed Spectral Data<<<<<
365.73	215.33
365.92	215.33
366.12	215.33
366.32	154.48
366.52	187.24
366.72	166.18
366.91	100.64
367.11	128.73
367.31	72.56
367.51	142.77
367.70	112.35
367.90	98.30
368.10	112.35
368.30	138.09
368.49	173.20
368.69	133.41
368.89	194.26
369.09	159.16
369.28	156.82
369.48	198.95
369.68	149.79
369.87	119.37
370.07	227.03
370.27	189.58
370.47	348.74
370.66	528.96
370.86	573.43
371.06	580.45
371.25	671.73
371.45	671.73
371.65	648.33
371.84	638.97
372.04	662.37
372.24	695.14
372.44	660.03
372.63	690.46
372.83	772.38
373.03	669.39
373.22	695.14
373.42	823.87
373.62	763.01
373.81	755.99
374.01	882.38
374.21	830.89
374.40	809.83
374.60	809.83
374.79	744.29
374.99	840.25
375.19	842.59
375.38	760.67
375.58	894.08
375.78	905.79
375.97	961.96
376.17	905.79
376.37	791.10
376.56	798.12
376.76	880.04
376.95	809.83
377.15	870.68
377.35	901.11
377.54	903.45
377.74	901.11
377.93	880.04
378.13	915.15
378.33	924.51
378.52	964.30
378.72	994.73
378.91	1036.86
379.11	936.21
379.31	910.47
379.50	917.49
379.70	957.28
379.89	983.02
380.09	990.05
380.28	1001.75
380.48	1050.90
380.68	933.87
380.87	959.62
381.07	1076.65
381.26	964.30
381.46	997.07
381.65	1018.13
381.85	997.07
382.04	971.32
382.24	985.37
382.43	1111.75
382.63	1046.22
382.83	1015.79
383.02	1137.50
383.22	1043.88
383.41	1102.39
383.61	1057.92
383.80	1081.33
384.00	1060.26
384.19	1125.80
384.39	1139.84
384.58	1156.22
384.78	1177.29
384.97	1053.24
385.17	1212.40
385.36	1174.95
385.56	1170.27
385.75	1242.82
385.95	1226.44
386.14	1170.27
386.34	1214.74
386.53	1205.38
386.72	1245.16
386.92	1245.16
387.11	1303.68
387.31	1177.29
387.50	1188.99
387.70	1306.02
387.89	1181.97
388.09	1310.70
388.28	1224.10
388.48	1261.55
388.67	1439.43
388.86	1170.27
389.06	1371.55
389.25	1352.83
389.45	1306.02
389.64	1350.49
389.84	1357.51
390.03	1380.92
390.22	1376.24
390.42	1366.87
390.61	1366.87
390.81	1432.41
391.00	1453.47
391.19	1357.51
391.39	1434.75
391.58	1479.22
391.78	1409.00
391.97	1451.13
392.16	1476.88
392.36	1610.29
392.55	1577.52
392.75	1497.94
392.94	1577.52
393.13	1554.12
393.33	1495.60
393.52	1619.65
393.71	1636.03
393.91	1596.25
394.10	1596.25
394.29	1516.67
394.49	1582.20
394.68	1589.22
394.88	1598.59
395.07	1724.97
395.26	1671.14
395.46	1678.16
395.65	1643.06
395.84	1654.76
396.04	1743.70
396.23	1834.98
396.42	1804.55
396.62	1788.17
396.81	1778.81
397.00	1717.95
397.19	1792.85
397.39	1813.92
397.58	1788.17
397.77	1853.70
397.97	1811.57
398.16	1921.58
398.35	1806.89
398.55	1849.02
398.74	1849.02
398.93	1926.26
399.12	1914.56
399.32	1867.75
399.51	2064.35
399.70	2031.58
399.90	1865.41
400.09	1898.17
400.28	2092.44
400.47	2003.50
400.67	2092.44
400.86	2099.46
401.05	1989.46
401.24	2132.23
401.44	2094.78
401.63	2064.35
401.82	2083.08
402.01	2265.64
402.21	2197.76
402.40	2216.49
402.59	2239.89
402.78	2136.91
402.97	2223.51
403.17	2225.85
403.36	2289.04
403.55	2312.45
403.74	2307.77
403.93	2345.22
404.13	2424.80
404.32	2483.31
404.51	2424.80
404.70	2434.16
404.89	2356.92
405.09	2469.27
405.28	2537.14
405.47	2431.82
405.66	2520.76
405.85	2504.37
406.05	2553.52
406.24	2630.76
406.43	2670.55
406.62	2658.85
406.81	2614.38
407.00	2583.95
407.20	2546.50
407.39	2644.81
407.58	2740.77
407.77	2803.96
407.96	2827.37
408.15	2869.50
408.34	2738.43
408.54	2808.64
408.73	2729.06
408.92	2708.00
409.11	2862.48
409.30	3016.95
409.49	3030.99
409.68	2937.37
409.87	2949.08
410.07	2981.84
410.26	3005.25
410.45	3019.29
410.64	3035.67
410.83	2986.52
411.02	3213.56
411.21	3155.04
411.40	3239.30
411.59	3054.40
411.78	3218.24
411.98	3255.69
412.17	3220.58
412.36	3330.58
412.55	3445.27
412.74	3424.20
412.93	3403.14
413.12	3440.59
413.31	3510.80
413.50	3412.50
413.69	3456.97
413.88	3569.32
414.07	3588.04
414.26	3698.05
414.45	3768.26
414.64	3651.24
414.83	3847.84
415.02	3815.07
415.22	3892.31
415.41	3899.33
415.60	3803.37
415.79	3969.55
415.98	4007.00
416.17	4098.28
416.36	3896.99
416.55	3859.54
416.74	4028.06
416.93	4004.66
417.12	4138.07
417.31	4035.08
417.50	4154.45
417.69	4320.63
417.88	4348.72
418.07	4322.97
418.26	4196.58
418.45	4262.12
418.64	4624.90
418.83	4493.83
419.02	4482.13
419.21	4723.20
419.39	4578.09
419.58	4472.76
419.77	4463.40
419.96	4615.54
420.15	4685.75
420.34	4706.82
420.53	4643.62
420.72	4727.88
420.91	4683.41
421.10	4905.76
421.29	4943.21
421.48	4894.06
421.67	4784.06
421.86	4844.91
422.05	4887.04
422.24	4767.67
422.43	4833.21
422.61	4929.17
422.80	4994.70
422.99	4826.18
423.18	4964.28
423.37	4891.72
423.56	5057.90
423.75	4968.96
423.94	4770.01
424.13	4706.82
424.32	4772.35
424.50	5046.20
424.69	5172.58
424.88	5069.60
425.07	4908.10
425.26	5046.20
425.45	5013.43
425.64	5081.30
425.83	4891.72
426.01	5020.45
426.20	5207.69
426.39	5034.49
426.58	5156.20
426.77	5109.39
426.96	5195.99
427.15	5100.03
427.33	5242.80
427.52	5303.65
427.71	5174.92
427.90	5193.65
428.09	5343.44
428.28	5446.43
428.46	5434.72
428.65	5313.02
428.84	5631.33
429.03	5633.67
429.22	5472.17
429.40	5516.64
429.59	5593.88
429.78	5397.28
429.97	5247.48
430.16	5451.11
430.34	5600.90
430.53	5710.91
430.72	5666.44
430.91	5668.78
431.10	5603.24
431.28	5881.77
431.47	5802.19
431.66	5996.45
431.85	5724.95
432.03	6078.37
432.22	6069.01
432.41	5937.94
432.60	5895.81
432.79	5834.96
432.97	6085.39
433.16	6061.99
433.35	6076.03
433.54	5909.85
433.72	6064.33
433.91	6113.48
434.10	6132.20
434.28	6242.21
434.47	6267.95
434.66	6296.04
434.85	6324.13
435.03	6443.49
435.22	6207.10
435.41	6492.65
435.59	6502.01
435.78	6473.92
435.97	6417.75
436.16	6466.90
436.34	6382.64
436.53	6574.56
436.72	6789.89
436.90	6595.63
437.09	6665.85
437.28	6586.27
437.46	6523.07
437.65	6684.57
437.84	6705.63
438.02	6745.42
438.21	6789.89
438.40	6686.91
438.58	6991.18
438.77	7215.87
438.96	7052.03
439.14	7309.49
439.33	7250.98
439.52	7199.49
439.70	7246.30
439.89	7485.03
440.08	7391.41
440.26	7569.29
440.45	7316.51
440.63	7585.68
440.82	7683.98
441.01	7485.03
441.19	7772.92
441.38	7676.96
441.57	7770.58
441.75	7934.42
441.94	8098.25
442.12	7847.82
442.31	8248.05
442.50	8039.74
442.68	8011.65
442.87	8184.85
443.05	8065.49
443.24	8322.94
443.43	8173.15
443.61	8306.56
443.80	8582.74
443.98	8201.24
444.17	7997.61
444.35	8152.09
444.54	8365.07
444.73	8210.60
444.91	8320.60
445.10	8266.77
445.28	8367.42
445.47	8299.54
445.65	8322.94
445.84	8383.80
446.02	8294.86
446.21	8549.98
446.39	8533.59
446.58	8461.04
446.77	8355.71
446.95	8456.36
447.14	8468.06
447.32	8540.61
447.51	8388.48
447.69	8470.40
447.88	8531.25
448.06	8486.78
448.25	8739.56
448.43	8774.67
448.62	8521.89
448.80	8702.11
448.99	8734.88
449.17	9090.64
449.36	8760.63
449.54	8952.55
449.73	8947.87
449.91	9018.08
450.10	8973.61
450.28	9100.00
450.46	9167.88
450.65	9130.43
450.83	9004.04
451.02	9179.58
451.20	9430.02
451.39	9231.07
451.57	9198.31
451.76	9284.91
451.94	9387.89
452.13	9362.14
452.31	9170.22
452.49	9277.88
452.68	9603.22
452.86	9317.67
453.05	9668.75
453.23	9474.49
453.42	9467.47
453.60	9631.30
453.78	9650.03
453.97	9383.21
454.15	9596.20
454.34	9741.31
454.52	9874.72
454.70	9863.02
454.89	9886.42
455.07	9860.68
455.26	9795.14
455.44	10157.92
455.62	9771.74
455.81	9940.26
455.99	10122.82
456.17	10031.54
456.36	10403.68
456.54	10094.73
456.73	10520.71
456.91	10539.43
457.09	10476.24
457.28	10658.80
457.46	10359.21
457.64	10663.48
457.83	10539.43
458.01	10518.37
458.19	10813.28
458.38	10665.82
458.56	10740.72
458.74	10619.01
458.93	10780.51
459.11	10939.66
459.29	10778.17
459.48	11005.20
459.66	11005.20
459.84	10920.94
460.03	11295.43
460.21	11073.07
460.39	11197.12
460.57	11026.26
460.76	11052.01
460.94	11494.37
461.12	11344.58
461.31	11173.72
461.49	11274.36
461.67	11382.03
461.85	11545.86
462.04	11248.61
462.22	11910.99
462.40	11606.72
462.59	11531.82
462.77	11800.98
462.95	11786.94
463.13	11892.26
463.32	11805.66
463.50	11941.41
463.68	12020.99
463.86	11836.09
464.05	11545.86
464.23	11578.63
464.41	11887.58
464.59	11908.65
464.78	12320.58
464.96	12063.12
465.14	11932.05
465.32	12243.34
465.50	12208.23
465.69	12301.86
465.87	12343.99
466.05	12325.26
466.23	12554.63
466.41	12418.88
466.60	12538.25
466.78	12248.02
466.96	12311.22
467.14	12421.22
467.32	12592.08
467.51	12924.44
467.69	12093.55
467.87	12393.14
468.05	12685.70
468.23	12451.65
468.41	12372.07
468.60	12861.24
468.78	12905.71
468.96	12737.20
469.14	12765.28
469.32	12786.35
469.50	12837.84
469.69	13034.44
469.87	13273.18
470.05	13160.83
470.23	13366.80
470.41	13322.33
470.59	13490.85
470.77	13235.73
470.95	13322.33
471.14	13734.26
471.32	13245.09
471.50	13638.30
471.68	13956.61
471.86	13624.26
472.04	13757.67
472.22	13884.06
472.40	14171.94
472.58	13736.60
472.77	14057.26
472.95	14370.89
473.13	14817.93
473.31	14263.22
473.49	14483.24
473.67	14391.95
473.85	14197.69
474.03	14808.57
474.21	14743.03
474.39	14792.19
474.57	14785.16
474.75	14815.59
474.93	15166.67
475.12	15269.66
475.30	15330.51
475.48	14932.62
475.66	15358.60
475.84	15332.85
476.02	15501.37
476.20	15545.84
476.38	15707.34
476.56	16383.75
476.74	16257.36
476.92	16189.49
477.10	16018.63
477.28	15957.77
477.46	16545.25
477.64	16255.02
477.82	16716.11
478.00	16980.59
478.18	17128.04
478.36	17006.33
478.54	17247.41
478.72	17549.34
478.90	17551.68
479.08	17596.15
479.26	17860.63
479.44	17865.31
479.62	17666.36
479.80	18197.67
479.98	18169.58
480.16	18558.11
480.34	18391.93
480.52	18698.54
480.70	18883.44
480.88	18328.74
481.06	18998.13
481.24	19014.51
481.41	19307.08
481.59	19630.07
481.77	19616.03
481.95	19690.93
482.13	20070.09
482.31	19950.73
482.49	20533.52
482.67	20435.22
482.85	20416.49
483.03	21106.95
483.21	20926.73
483.39	21109.29
483.57	20912.69
483.74	21511.86
483.92	21525.91
484.10	21202.91
484.28	21628.89
484.46	22377.86
484.64	22682.13
484.82	22197.64
485.00	22637.66
485.18	22902.14
485.35	23124.49
485.53	23248.54
485.71	23089.38
485.89	23931.98
486.07	23557.49
486.25	23618.35
486.43	23831.33
486.61	24254.97
486.78	24149.65
486.96	24725.42
487.14	24713.72
487.32	24973.52
487.50	25275.45
487.68	25081.18
487.85	25399.49
488.03	25678.02
488.21	26066.55
488.39	25956.54
488.57	26546.36
488.75	26583.80
488.92	26595.51
489.10	26775.73
489.28	27225.11
489.46	27351.50
489.64	27124.47
489.81	28203.46
489.99	27903.87
490.17	27960.04
490.35	28638.80
490.53	28407.08
490.70	28582.62
490.88	28308.78
491.06	29549.26
491.24	29134.99
491.41	29263.72
491.59	29315.21
491.77	29378.40
491.95	30258.45
492.13	30019.71
492.30	30260.79
492.48	30054.82
492.66	30609.53
492.84	30590.80
493.01	30855.28
493.19	31014.44
493.37	31159.55
493.54	31660.43
493.72	31608.93
493.90	32093.43
494.08	31824.26
494.25	32222.16
494.43	32273.65
494.61	32540.47
494.79	32797.93
494.96	32732.39
495.14	33031.98
495.32	33605.41
495.49	33722.44
495.67	33532.86
495.85	33993.94
496.02	33947.13
496.20	34438.64
496.38	34370.77
496.55	34944.20
496.73	34941.86
496.91	34960.58
497.09	35145.48
497.26	35248.47
497.44	35182.93
497.62	35416.99
497.79	36460.87
497.97	35793.81
498.14	36645.77
498.32	36760.45
498.50	36306.39
498.67	36730.03
498.85	36666.83
499.03	37137.28
499.20	37104.51
499.38	37254.31
499.56	37516.45
499.73	37839.44
499.91	37481.34
500.08	38005.62
500.26	37448.57
500.44	38007.96
500.61	38162.43
500.79	37661.56
500.97	38738.21
501.14	38752.25
501.32	38700.76
501.49	38426.92
501.67	38696.08
501.84	39526.97
502.02	39559.73
502.20	39360.79
502.37	39505.90
502.55	39702.51
502.72	39950.60
502.90	40011.46
503.07	39784.43
503.25	40189.34
503.43	40041.88
503.60	40559.14
503.78	40418.71
503.95	40430.41
504.13	40821.28
504.30	40704.26
504.48	40554.46
504.65	41350.24
504.83	41425.14
505.01	41736.43
505.18	41654.51
505.36	41956.44
505.53	41457.91
505.71	42185.82
505.88	42265.39
506.06	41783.24
506.23	42309.86
506.41	41883.89
506.58	42476.04
506.76	42377.74
506.93	42588.39
507.11	42911.38
507.28	43178.20
507.46	42883.30
507.63	43475.45
507.81	43381.83
507.98	43138.41
508.16	43309.27
508.33	43931.86
508.50	43718.87
508.68	44198.68
508.85	44402.30
509.03	44364.85
509.20	44327.41
509.38	44456.14
509.55	44542.74
509.73	44830.62
509.90	45071.70
510.08	44854.03
510.25	45038.93
510.42	44999.14
510.60	45298.73
510.77	45729.39
510.95	45750.45
511.12	45113.83
511.30	45352.56
511.47	45890.88
511.64	46078.13
511.82	46333.24
511.99	45982.16
512.17	46770.93
512.34	46270.05
512.51	46649.22
512.69	46890.29
512.86	46885.61
513.04	47107.96
513.21	47028.38
513.38	47360.74
513.56	47028.38
513.73	47491.81
513.90	47466.06
514.08	47290.52
514.25	47887.36
514.43	47835.87
514.60	47723.52
514.77	47775.02
514.95	47988.00
515.12	48041.84
515.29	48034.81
515.47	48392.92
515.64	48444.41
515.81	48231.42
515.99	48594.20
516.16	48783.79
516.33	49043.59
516.51	49141.89
516.68	48563.78
516.85	48907.83
517.03	49336.15
517.20	49272.96
517.37	49130.19
517.54	49097.42
517.72	48844.64
517.89	49537.44
518.06	49511.69
518.24	49715.32
518.41	49312.75
518.58	49588.93
518.75	49308.07
518.93	49949.37
519.10	49474.24
519.27	49940.01
519.45	50092.15
519.62	50473.65
519.79	50403.44
519.96	50403.44
520.14	50536.85
520.31	50616.43
520.48	50461.95
520.65	50454.93
520.83	51388.80
521.00	51147.73
521.17	50885.59
521.34	50700.68
521.52	51302.20
521.69	51016.66
521.86	51358.38
522.03	51444.98
522.20	51494.13
522.38	51639.24
522.55	51475.40
522.72	51475.40
522.89	51906.06
523.07	51870.95
523.24	52114.37
523.41	51753.93
523.58	51681.37
523.75	52097.98
523.92	51950.53
524.10	52123.73
524.27	52383.53
524.44	52278.21
524.61	52215.01
524.78	52346.08
524.96	52575.45
525.13	52390.55
525.30	52652.69
525.47	52980.37
525.64	52832.91
525.81	52608.22
525.98	53125.48
526.16	52633.97
526.33	53015.47
526.50	53371.24
526.67	53202.72
526.84	53085.69
527.01	53106.76
527.18	53059.94
527.36	53193.36
527.53	53305.70
527.70	53523.37
527.87	53649.76
528.04	53495.28
528.21	53834.66
528.38	53464.86
528.55	53769.13
528.72	53663.80
528.89	53469.54
529.07	53759.76
529.24	53731.68
529.41	54157.66
529.58	53972.75
529.75	54047.65
529.92	54049.99
530.09	53984.46
530.26	54211.49
530.43	54319.15
530.60	53820.62
530.77	54000.84
530.94	54457.24
531.11	54337.88
531.28	54422.14
531.46	54543.84
531.63	54660.87
531.80	54497.03
531.97	54581.29
532.14	54766.20
532.31	54649.17
532.48	54843.43
532.65	54880.88
532.82	54691.30
532.99	54824.71
533.16	54894.92
533.33	55201.53
533.50	55138.34
533.67	55309.20
533.84	54930.03
534.01	55267.07
534.18	55096.21
534.35	55671.98
534.52	55430.91
534.69	55372.39
534.86	55407.50
535.03	55440.27
535.20	55564.32
535.37	55334.95
535.54	55723.47
535.71	55517.51
535.88	55910.72
536.05	55716.45
536.22	55604.11
536.38	55592.40
536.55	55508.14
536.72	55927.10
536.89	55779.65
537.06	55856.88
537.23	56032.42
537.40	55994.98
537.57	55938.80
537.74	56182.22
537.91	56144.77
538.08	56254.78
538.25	55763.26
538.42	56025.40
538.59	56343.72
538.75	56100.30
538.92	56266.48
539.09	56369.46
539.26	56133.07
539.43	56259.46
539.60	56530.96
539.77	56350.74
539.94	56652.67
540.11	56481.81
540.28	56610.54
540.44	56587.13
540.61	56605.86
540.78	56666.71
540.95	56509.89
541.12	56432.66
541.29	56673.73
541.46	56743.95
541.62	56706.50
541.79	56865.66
541.96	56573.09
542.13	56989.70
542.30	56987.36
542.47	57111.41
542.63	57212.06
542.80	57165.24
542.97	57240.14
543.14	57319.72
543.31	57366.53
543.48	57460.15
543.64	57497.60
543.81	57516.32
543.98	57593.56
544.15	57497.60
544.32	57572.50
544.48	57752.72
544.65	57352.49
544.82	57616.97
544.99	57506.96
545.16	57659.10
545.32	57619.31
545.49	57954.00
545.66	58096.78
545.83	57949.32
546.00	57799.53
546.16	58047.63
546.33	57733.99
546.50	57743.36
546.67	57881.45
546.83	57762.08
547.00	57836.98
547.17	57972.73
547.34	58103.80
547.50	58106.14
547.67	58166.99
547.84	58075.71
548.00	58429.13
548.17	58422.11
548.34	58199.76
548.51	58246.57
548.67	58564.88
548.84	58541.48
549.01	58085.07
549.18	58436.16
549.34	58408.07
549.51	58557.86
549.68	58607.01
549.84	58557.86
550.01	58625.74
550.18	58330.83
550.34	58717.02
550.51	58791.92
550.68	58599.99
550.84	58518.07
551.01	58801.28
551.18	58848.09
551.34	58770.85
551.51	58836.39
551.68	58869.15
551.84	58812.98
552.01	58691.27
552.18	59288.11
552.34	58915.96
552.51	59072.78
552.68	58714.68
552.84	58918.31
553.01	59196.83
553.18	59173.42
553.34	58958.09
553.51	58972.14
553.67	59086.82
553.84	59119.59
554.01	59025.97
554.17	59035.33
554.34	59398.12
554.51	59208.53
554.67	59210.87
554.84	59124.27
555.00	59213.21
555.17	59283.43
555.33	59171.08
555.50	59243.64
555.67	59093.85
555.83	59194.49
556.00	59264.70
556.16	59774.94
556.33	59372.37
556.50	59622.81
556.66	59536.21
556.83	59458.97
556.99	59594.72
557.16	59690.68
557.32	59742.17
557.49	59718.77
557.65	59517.48
557.82	59545.57
557.98	59861.54
558.15	59660.26
558.32	59711.75
558.48	59554.93
558.65	59758.56
558.81	59913.03
558.98	59744.51
559.14	59728.13
559.31	59913.03
559.47	60053.47
559.64	59955.16
559.80	59784.30
559.97	59945.80
560.13	59756.22
560.30	60030.06
560.46	59999.63
560.63	59831.11
560.79	59898.99
560.96	60200.92
561.12	60079.21
561.29	60018.36
561.45	60161.13
561.61	59856.86
561.78	60004.31
561.94	59906.01
562.11	59934.10
562.27	60156.45
562.44	60243.05
562.60	60217.30
562.77	60303.90
562.93	60079.21
563.10	60259.43
563.26	60135.38
563.42	60456.04
563.59	60308.58
563.75	60278.16
563.92	60360.08
564.08	60233.69
564.24	60254.75
564.41	60385.82
564.57	60395.18
564.74	60374.12
564.90	60313.26
565.07	60287.52
565.23	60247.73
565.39	60168.15
565.56	60362.42
565.72	60530.93
565.88	60168.15
566.05	60163.47
566.21	60500.51
566.38	60514.55
566.54	60334.33
566.70	60402.21
566.87	60474.76
567.03	60477.10
567.19	60577.75
567.36	60491.15
567.52	60465.40
567.68	60601.15
567.85	60526.25
568.01	60589.45
568.17	60416.25
568.34	60687.75
568.50	60430.29
568.66	60463.06
568.83	60484.12
568.99	60603.49
569.15	60584.77
569.32	60589.45
569.48	60760.31
569.64	60680.73
569.81	60631.58
569.97	60704.13
570.13	60683.07
570.30	60622.22
570.46	60715.84
570.62	60917.12
570.78	60685.41
570.95	60458.38
571.11	60683.07
571.27	60743.92
571.43	60701.79
571.60	60910.10
571.76	60860.95
571.92	60750.94
572.09	60914.78
572.25	60835.20
572.41	60830.52
572.57	60830.52
572.74	61083.30
572.90	60757.97
573.06	60821.16
573.22	60835.20
573.38	60867.97
573.55	60903.08
573.71	60739.24
573.87	60809.46
574.03	60860.95
574.20	60781.37
574.36	60659.66
574.52	60867.97
574.68	60863.29
574.84	60966.27
575.01	60989.68
575.17	61013.08
575.33	60954.57
575.49	60959.25
575.65	61013.08
575.82	61095.00
575.98	60757.97
576.14	61010.74
576.30	60933.51
576.46	60797.76
576.62	60882.02
576.79	60828.18
576.95	60896.06
577.11	60896.06
577.27	60982.66
577.43	61001.38
577.59	60903.08
577.75	60872.65
577.92	60755.63
578.08	61057.56
578.24	60849.25
578.40	61249.48
578.56	61212.03
578.72	61169.90
578.88	61216.71
579.04	61158.20
579.21	61139.47
579.37	61162.88
579.53	61174.58
579.69	61073.94
579.85	61031.81
580.01	61118.41
580.17	60954.57
580.33	60912.44
580.49	61022.45
580.65	61008.40
580.82	61020.11
580.98	61209.69
581.14	60882.02
581.30	61183.94
581.46	61050.53
581.62	61207.35
581.78	60867.97
581.94	61078.62
582.10	61179.26
582.26	61148.84
582.42	61169.90
582.58	61188.63
582.74	60905.42
582.90	61038.83
583.06	61399.27
583.22	60889.04
583.38	61322.04
583.54	61174.58
583.70	61155.86
583.86	61176.92
584.02	60942.87
584.18	61174.58
584.34	61167.56
584.50	61155.86
584.66	61059.90
584.82	60872.65
584.98	61099.68
585.14	61268.20
585.30	61221.39
585.46	61148.84
585.62	61324.38
585.78	61197.99
585.94	60994.36
586.10	61212.03
586.26	61139.47
586.42	61251.82
586.58	61347.78
586.74	61340.76
586.90	61200.33
587.06	60992.02
587.22	61102.03
587.38	61090.32
587.54	61401.61
587.70	61497.58
587.86	61415.66
588.02	61265.86
588.18	61359.48
588.34	61137.13
588.49	61261.18
