SpectraSuite Data File
++++++++++++++++++++++++++++++++++++
Date: Fri Oct 25 10:48:32 EDT 2013
User: price-jones
Dark Spectrum Present: No
Reference Spectrum Present: No
Number of Sampled Component Spectra: 1
Spectrometers: USB2+H05261
Integration Time (usec): 100000 (USB2+H05261)
Spectra Averaged: 1 (USB2+H05261)
Boxcar Smoothing: 0 (USB2+H05261)
Correct for Electrical Dark: No (USB2+H05261)
Strobe/Lamp Enabled: No (USB2+H05261)
Correct for Detector Non-linearity: No (USB2+H05261)
Correct for Stray Light: No (USB2+H05261)
Number of Pixels in Processed Spectrum: 2048
>>>>>Begin Processed Spectral Data<<<<<
365.73	173.20
365.92	173.20
366.12	173.20
366.32	93.62
366.52	49.15
366.72	133.41
366.91	56.17
367.11	124.05
367.31	117.03
367.51	9.36
367.70	63.19
367.90	74.90
368.10	86.60
368.30	86.60
368.49	149.79
368.69	56.17
368.89	0.00
369.09	81.92
369.28	42.13
369.48	84.26
369.68	84.26
369.87	119.37
370.07	124.05
370.27	145.11
370.47	180.22
370.66	402.57
370.86	491.51
371.06	507.90
371.25	465.77
371.45	524.28
371.65	578.11
371.84	409.59
372.04	416.62
372.24	571.09
372.44	475.13
372.63	510.24
372.83	575.77
373.03	507.90
373.22	503.22
373.42	533.64
373.62	561.73
373.81	622.58
374.01	667.05
374.21	575.77
374.40	575.77
374.60	596.84
374.79	617.90
374.99	606.20
375.19	496.19
375.38	573.43
375.58	599.18
375.78	660.03
375.97	575.77
376.17	589.82
376.37	681.10
376.56	648.33
376.76	603.86
376.95	587.47
377.15	554.71
377.35	657.69
377.54	655.35
377.74	692.80
377.93	669.39
378.13	732.59
378.33	688.12
378.52	699.82
378.72	702.16
378.91	657.69
379.11	629.60
379.31	641.31
379.50	727.91
379.70	763.01
379.89	739.61
380.09	697.48
380.28	704.50
380.48	695.14
380.68	650.67
380.87	727.91
381.07	695.14
381.26	716.20
381.46	770.04
381.65	779.40
381.85	720.88
382.04	765.36
382.24	713.86
382.43	692.80
382.63	688.12
382.83	725.57
383.02	760.67
383.22	760.67
383.41	863.66
383.61	692.80
383.80	802.80
384.00	791.10
384.19	798.12
384.39	788.76
384.58	702.16
384.78	744.29
384.97	866.00
385.17	765.36
385.36	854.30
385.56	837.91
385.75	849.61
385.95	903.45
386.14	844.93
386.34	774.72
386.53	828.55
386.72	903.45
386.92	961.96
387.11	866.00
387.31	957.28
387.50	903.45
387.70	854.30
387.89	936.21
388.09	961.96
388.28	912.81
388.48	954.94
388.67	940.90
388.86	1027.50
389.06	1008.77
389.25	1027.50
389.45	1048.56
389.64	954.94
389.84	1001.75
390.03	926.85
390.22	1034.52
390.42	1043.88
390.61	1076.65
390.81	1015.79
391.00	1071.97
391.19	1146.86
391.39	1074.31
391.58	1043.88
391.78	1095.37
391.97	1097.71
392.16	1048.56
392.36	1069.62
392.55	1034.52
392.75	1083.67
392.94	997.07
393.13	1104.73
393.33	1083.67
393.52	1046.22
393.71	1135.16
393.91	1163.25
394.10	1128.14
394.29	1188.99
394.49	1170.27
394.68	1210.06
394.88	1261.55
395.07	1233.46
395.26	1289.64
395.46	1320.06
395.65	1313.04
395.84	1261.55
396.04	1268.57
396.23	1336.45
396.42	1200.69
396.62	1170.27
396.81	1235.80
397.00	1254.53
397.19	1313.04
397.39	1317.72
397.58	1387.94
397.77	1345.81
397.97	1460.49
398.16	1490.92
398.35	1469.86
398.55	1500.28
398.74	1502.62
398.93	1652.42
399.12	1483.90
399.32	1558.80
399.51	1561.14
399.70	1741.36
399.90	1551.78
400.09	1626.67
400.28	1612.63
400.47	1657.10
400.67	1755.40
400.86	1673.48
401.05	1781.15
401.24	1818.60
401.44	1652.42
401.63	1790.51
401.82	1771.79
402.01	1827.96
402.21	1748.38
402.40	1795.19
402.59	1776.47
402.78	1858.39
402.97	1760.08
403.17	1870.09
403.36	1783.49
403.55	1804.55
403.74	1952.01
403.93	1884.13
404.13	1937.96
404.32	1912.22
404.51	1886.47
404.70	1959.03
404.89	1947.33
405.09	2012.86
405.28	1996.48
405.47	2029.24
405.66	1998.82
405.85	2010.52
406.05	1994.14
406.24	2122.87
406.43	2057.33
406.62	2071.37
406.81	2242.23
407.00	2069.03
407.20	1973.07
407.39	2113.50
407.58	2202.44
407.77	2181.38
407.96	2314.79
408.15	2237.55
408.34	2256.28
408.54	2340.54
408.73	2380.32
408.92	2305.43
409.11	2370.96
409.30	2298.41
409.49	2368.62
409.68	2275.00
409.87	2272.66
410.07	2410.75
410.26	2291.38
410.45	2406.07
410.64	2539.48
410.83	2504.37
411.02	2712.68
411.21	2663.53
411.40	2602.68
411.59	2605.02
411.78	2626.08
411.98	2661.19
412.17	2722.04
412.36	2759.49
412.55	2715.02
412.74	2827.37
412.93	2867.16
413.12	2747.79
413.31	2944.39
413.50	2827.37
413.69	3124.62
413.88	2897.58
414.07	2974.82
414.26	2951.42
414.45	2963.12
414.64	2984.18
414.83	2928.01
415.02	3112.91
415.22	3274.41
415.41	3297.81
415.60	3178.45
415.79	3164.40
415.98	3335.26
416.17	3318.88
416.36	3246.32
416.55	3222.92
416.74	3440.59
416.93	3190.15
417.12	3372.71
417.31	3400.80
417.50	3330.58
417.69	3555.27
417.88	3578.68
418.07	3480.38
418.26	3517.83
418.45	3616.13
418.64	3625.49
418.83	3641.87
419.02	3714.43
419.21	3653.58
419.39	3716.77
419.58	3597.40
419.77	3644.21
419.96	3597.40
420.15	3819.75
420.34	3756.56
420.53	3719.11
420.72	3887.63
420.91	3934.44
421.10	3920.40
421.29	4007.00
421.48	3885.29
421.67	4032.74
421.86	3896.99
422.05	3852.52
422.24	3796.35
422.43	3946.14
422.61	3805.71
422.80	4205.94
422.99	4126.36
423.18	4004.66
423.37	4049.13
423.56	4072.53
423.75	4070.19
423.94	3871.25
424.13	3775.28
424.32	4098.28
424.50	4060.83
424.69	4098.28
424.88	4063.17
425.07	4084.23
425.26	3978.91
425.45	4023.38
425.64	3894.65
425.83	4056.15
426.01	4098.28
426.20	4117.00
426.39	4205.94
426.58	3988.27
426.77	3995.29
426.96	4009.34
427.15	4030.40
427.33	4212.96
427.52	4257.43
427.71	4241.05
427.90	4140.41
428.09	4191.90
428.28	4234.03
428.46	4383.82
428.65	4327.65
428.84	4374.46
429.03	4374.46
429.22	4114.66
429.40	4142.75
429.59	4208.28
429.78	4023.38
429.97	4121.68
430.16	4070.19
430.34	4175.52
430.53	4248.07
430.72	4285.52
430.91	4315.95
431.10	4510.21
431.28	4636.60
431.47	4524.26
431.66	4634.26
431.85	4603.83
432.03	4798.10
432.22	4915.12
432.41	4617.88
432.60	4709.16
432.79	4915.12
432.97	4823.84
433.16	4940.87
433.35	4704.48
433.54	4774.69
433.72	4786.40
433.91	4671.71
434.10	4779.37
434.28	4924.49
434.47	4968.96
434.66	4985.34
434.85	5027.47
435.03	4968.96
435.22	5018.11
435.41	5289.61
435.59	5247.48
435.78	5355.15
435.97	5221.74
436.16	5181.95
436.34	5177.26
436.53	5303.65
436.72	5371.53
436.90	5268.55
437.09	5310.68
437.28	5188.97
437.46	5378.55
437.65	5345.78
437.84	5320.04
438.02	5378.55
438.21	5399.62
438.40	5174.92
438.58	5425.36
438.77	5465.15
438.96	5643.03
439.14	5802.19
439.33	5767.08
439.52	5837.30
439.70	5767.08
439.89	5790.49
440.08	5708.57
440.26	5818.57
440.45	5884.11
440.63	6005.81
440.82	6167.31
441.01	5944.96
441.19	6279.66
441.38	6291.36
441.57	6263.27
441.75	6235.19
441.94	6321.79
442.12	6532.44
442.31	6525.41
442.50	6415.41
442.68	6417.75
442.87	6595.63
443.05	6799.26
443.24	6675.21
443.43	6621.38
443.61	6635.42
443.80	6782.87
443.98	6370.94
444.17	6303.06
444.35	6478.60
444.54	6736.06
444.73	6733.72
444.91	6616.69
445.10	6616.69
445.28	6626.06
445.47	6668.19
445.65	6562.86
445.84	6715.00
446.02	6764.15
446.21	6696.27
446.39	6551.16
446.58	6651.80
446.77	6822.66
446.95	6771.17
447.14	6965.43
447.32	6869.47
447.51	6841.39
447.69	6754.79
447.88	6817.98
448.06	7021.61
448.25	6920.96
448.43	6974.80
448.62	6942.03
448.80	7082.46
448.99	6918.62
449.17	7045.01
449.36	6920.96
449.54	7059.06
449.73	7269.70
449.91	7290.77
450.10	7309.49
450.28	7297.79
450.46	7220.55
450.65	7356.30
450.83	7323.54
451.02	7382.05
451.20	7375.03
451.39	7412.48
451.57	7365.67
451.76	7431.20
451.94	7435.88
452.13	7440.56
452.31	7513.12
452.49	7162.04
452.68	7412.48
452.86	7290.77
453.05	7396.09
453.23	7431.20
453.42	7492.05
453.60	7475.67
453.78	7618.44
453.97	7440.56
454.15	7510.78
454.34	7478.01
454.52	7632.49
454.70	7578.65
454.89	7808.03
455.07	7737.81
455.26	7920.37
455.44	7875.90
455.62	7793.98
455.81	7885.26
455.99	8011.65
456.17	7892.29
456.36	8053.78
456.54	7948.46
456.73	8180.17
456.91	8374.44
457.09	8166.13
457.28	8386.14
457.46	8248.05
457.64	8484.44
457.83	8238.69
458.01	8306.56
458.19	8484.44
458.38	8351.03
458.56	8465.72
458.74	8315.92
458.93	8292.52
459.11	8388.48
459.29	8540.61
459.48	8669.34
459.66	8336.99
459.84	8503.17
460.03	8549.98
460.21	9027.45
460.39	8650.62
460.57	8702.11
460.76	8734.88
460.94	8908.08
461.12	8821.48
461.31	8882.33
461.49	8664.66
461.67	9018.08
461.85	9235.75
462.04	8961.91
462.22	9423.00
462.40	9114.05
462.59	9083.62
462.77	9022.77
462.95	9153.84
463.13	9092.98
463.32	9254.48
463.50	9369.16
463.68	9247.46
463.86	9238.09
464.05	9004.04
464.23	9212.35
464.41	9357.46
464.59	9128.09
464.78	9537.68
464.96	9308.31
465.14	9394.91
465.32	9296.61
465.50	9413.63
465.69	9565.77
465.87	9327.03
466.05	9561.09
466.23	9446.40
466.41	9303.63
466.60	9624.28
466.78	9327.03
466.96	9521.30
467.14	9408.95
467.32	9432.36
467.51	9654.71
467.69	9437.04
467.87	9703.86
468.05	9884.08
468.23	9591.52
468.41	9713.22
468.60	9987.07
468.78	9870.04
468.96	9923.87
469.14	9991.75
469.32	9991.75
469.50	9858.34
469.69	9958.98
469.87	10036.22
470.05	10256.23
470.23	10064.30
470.41	10033.88
470.59	10164.95
470.77	10104.09
470.95	10384.96
471.14	10506.66
471.32	10113.45
471.50	10333.47
471.68	10506.66
471.86	10785.19
472.04	10480.92
472.22	10888.17
472.40	10600.29
472.58	10548.79
472.77	10794.55
472.95	10642.42
473.13	11030.94
473.31	10934.98
473.49	10780.51
473.67	10726.68
473.85	10993.50
474.03	11243.93
474.21	11346.92
474.39	11304.79
474.57	11269.68
474.75	11314.15
474.93	11396.07
475.12	11398.41
475.30	11695.66
475.48	11412.45
475.66	11716.72
475.84	11690.98
476.02	11648.85
476.20	11564.59
476.38	11742.47
476.56	12154.40
476.74	12301.86
476.92	12063.12
477.10	12100.57
477.28	12194.19
477.46	12451.65
477.64	12519.53
477.82	12603.78
478.00	13055.51
478.18	12821.45
478.36	12847.20
478.54	12954.87
478.72	13011.04
478.90	13319.99
479.08	13228.71
479.26	13387.86
479.44	13612.56
479.62	13720.22
479.80	13654.69
479.98	13642.98
480.16	14038.53
480.34	13982.36
480.52	13853.63
480.70	14211.73
480.88	13844.27
481.06	14277.27
481.24	14459.83
481.41	14497.28
481.59	14480.89
481.77	14867.08
481.95	14792.19
482.13	14944.32
482.31	14953.68
482.49	15229.87
482.67	15122.20
482.85	15468.60
483.03	15630.10
483.21	15857.13
483.39	15850.11
483.57	16004.58
483.74	16049.05
483.92	16163.74
484.10	16098.20
484.28	16095.86
484.46	16395.45
484.64	16688.02
484.82	16601.42
485.00	16439.92
485.18	16851.86
485.35	16783.98
485.53	16805.05
485.71	16582.70
485.89	17011.01
486.07	16891.65
486.25	17116.34
486.43	17062.51
486.61	17434.65
486.78	17692.11
486.96	17334.01
487.14	18160.22
487.32	18260.86
487.50	18104.04
487.68	18317.03
487.85	18759.39
488.03	18883.44
488.21	19370.27
488.39	18869.40
488.57	19061.32
488.75	19168.99
488.92	19449.85
489.10	20049.03
489.28	19758.80
489.46	20308.83
489.64	20135.63
489.81	20552.24
489.99	20599.05
490.17	20411.81
490.35	20865.88
490.53	20910.35
490.70	20994.61
490.88	21252.06
491.06	21673.36
491.24	21231.00
491.41	21411.22
491.59	21317.60
491.77	21443.99
491.95	21813.79
492.13	21635.91
492.30	22230.41
492.48	21970.61
492.66	22195.30
492.84	22274.88
493.01	22792.14
493.19	22611.92
493.37	22658.73
493.54	22885.76
493.72	23138.54
493.90	23145.56
494.08	23379.61
494.25	23676.86
494.43	23599.62
494.61	23878.15
494.79	23779.84
494.96	24292.42
495.14	23997.51
495.32	23988.15
495.49	24407.11
495.67	24409.45
495.85	24725.42
496.02	25020.33
496.20	25015.65
496.38	24842.45
496.55	25357.36
496.73	25490.77
496.91	25186.50
497.09	25516.52
497.26	25900.37
497.44	25654.61
497.62	25839.51
497.79	25827.81
497.97	25610.14
498.14	26080.59
498.32	26480.82
498.50	26361.45
498.67	26469.12
498.85	26405.92
499.03	26904.46
499.20	26778.07
499.38	26614.23
499.56	27145.53
499.73	27124.47
499.91	27227.45
500.08	27372.57
500.26	27222.77
500.44	27255.54
500.61	27349.16
500.79	27089.36
500.97	27246.18
501.14	27917.91
501.32	28002.17
501.49	27938.97
501.67	27812.59
501.84	28130.90
502.02	28034.94
502.20	28173.03
502.37	28615.39
502.55	28538.15
502.72	28613.05
502.90	28741.78
503.07	28680.92
503.25	28795.61
503.43	28800.29
503.60	29425.22
503.78	29034.35
503.95	28900.94
504.13	29146.69
504.30	29256.70
504.48	29605.44
504.65	29638.20
504.83	29420.53
505.01	29790.34
505.18	29549.26
505.36	30118.01
505.53	30178.87
505.71	30639.95
505.88	30195.25
506.06	30024.39
506.23	30352.07
506.41	30113.33
506.58	30455.05
506.76	30609.53
506.93	30831.88
507.11	30796.77
507.28	31108.06
507.46	30698.47
507.63	30953.58
507.81	31175.94
507.98	30668.04
508.16	30834.22
508.33	30939.54
508.50	31747.03
508.68	31498.93
508.85	32142.58
509.03	31796.18
509.20	31206.36
509.38	31833.63
509.55	32177.68
509.73	31789.16
509.90	31828.95
510.08	32086.40
510.25	32222.16
510.42	32545.15
510.60	32603.66
510.77	32591.96
510.95	32797.93
511.12	32683.24
511.30	32851.76
511.47	33422.85
511.64	33287.10
511.82	33329.23
511.99	33242.63
512.17	32992.19
512.34	33074.11
512.51	33195.82
512.69	33631.16
512.86	33582.01
513.04	33820.74
513.21	33469.66
513.38	33780.95
513.56	33528.17
513.73	33984.58
513.90	33900.32
514.08	33937.77
514.25	34066.50
514.43	33757.55
514.60	34022.03
514.77	33912.02
514.95	34469.07
515.12	34448.00
515.29	34504.18
515.47	34815.47
515.64	34873.98
515.81	34183.52
515.99	34778.02
516.16	34513.54
516.33	34256.08
516.51	34515.88
516.68	33982.24
516.85	33937.77
517.03	34272.46
517.20	34993.35
517.37	35086.97
517.54	35098.67
517.72	34845.90
517.89	35082.29
518.06	35044.84
518.24	34939.52
518.41	35161.87
518.58	35290.60
518.75	35201.66
518.93	35555.08
519.10	35784.45
519.27	36018.50
519.45	35988.08
519.62	35735.30
519.79	36077.02
519.96	36505.34
520.14	36299.37
520.31	36254.90
520.48	36510.02
520.65	35779.77
520.83	36837.69
521.00	37031.96
521.17	36605.98
521.34	36825.99
521.52	36498.31
521.69	37202.82
521.86	37352.61
522.03	37331.54
522.20	37013.23
522.38	37212.18
522.55	37298.78
522.72	37027.28
522.89	37497.72
523.07	37490.70
523.24	37277.71
523.41	37528.15
523.58	37418.14
523.75	38190.52
523.92	38068.81
524.10	37984.55
524.27	38216.27
524.44	38115.62
524.61	38522.88
524.78	38403.51
524.96	38232.65
525.13	38438.62
525.30	38536.92
525.47	38581.39
525.64	38522.88
525.81	38157.75
525.98	38387.13
526.16	38506.49
526.33	38033.71
526.50	38218.61
526.67	38286.48
526.84	38019.66
527.01	38366.06
527.18	38813.10
527.36	39269.51
527.53	38948.85
527.70	39498.88
527.87	39271.85
528.04	39187.59
528.21	39351.43
528.38	39218.02
528.55	40072.31
528.72	39983.37
528.89	39779.74
529.07	40144.87
529.24	39475.48
529.41	39545.69
529.58	39571.44
529.75	39054.18
529.92	39686.12
530.09	39672.08
530.26	40149.55
530.43	40320.41
530.60	40116.78
530.77	40149.55
530.94	40587.23
531.11	40135.51
531.28	40591.91
531.46	40421.05
531.63	40776.81
531.80	40163.59
531.97	40126.14
532.14	40840.01
532.31	39999.76
532.48	40257.21
532.65	40367.22
532.82	40500.63
532.99	41076.40
533.16	40521.69
533.33	41010.87
533.50	41240.24
533.67	41151.30
533.84	41083.42
534.01	41167.68
534.18	40994.48
534.35	41448.55
534.52	41078.74
534.69	41340.88
534.86	41614.72
535.03	41193.43
535.20	41769.20
535.37	41808.99
535.54	41731.75
535.71	42066.45
535.88	41425.14
536.05	41876.86
536.22	41977.51
536.38	41720.05
536.55	41689.62
536.72	41226.20
536.89	41404.08
537.06	42099.22
537.23	42127.30
537.40	42237.31
537.57	42225.60
537.74	42064.11
537.91	42106.24
538.08	42337.95
538.25	41956.44
538.42	42094.53
538.59	42557.96
538.75	41956.44
538.92	42190.50
539.09	42749.88
539.26	42300.50
539.43	42564.98
539.60	42595.41
539.77	42497.11
539.94	42492.43
540.11	42110.92
540.28	42146.03
540.44	42483.06
540.61	42391.78
540.78	42344.97
540.95	42749.88
541.12	42408.17
541.29	42356.67
541.46	42864.57
541.62	42878.61
541.79	42941.81
541.96	42749.88
542.13	42890.32
542.30	43103.31
542.47	43227.35
542.63	43093.94
542.80	43412.26
542.97	43601.84
543.14	43318.64
543.31	43641.63
543.48	43302.25
543.64	43913.13
543.81	44062.93
543.98	43969.30
544.15	43636.95
544.32	44107.40
544.48	44025.48
544.65	44165.91
544.82	43707.16
544.99	43810.15
545.16	43789.08
545.32	43676.74
545.49	44301.66
545.66	44308.68
545.83	44114.42
546.00	44376.56
546.16	44240.81
546.33	43913.13
546.50	43332.68
546.67	44184.63
546.83	44006.75
547.00	44467.84
547.17	44348.47
547.34	44170.59
547.50	44374.22
547.67	44484.22
547.84	44184.63
548.00	44561.46
548.17	45050.63
548.34	44224.42
548.51	45329.16
548.67	44882.11
548.84	44797.85
549.01	44676.15
549.18	44699.55
549.34	45045.95
549.51	44980.42
549.68	45036.59
549.84	45153.62
550.01	45474.27
550.18	45235.53
550.34	44720.62
550.51	44809.56
550.68	44996.80
550.84	44734.66
551.01	45031.91
551.18	45235.53
551.34	45088.08
551.51	45684.92
551.68	45233.19
551.84	45518.74
552.01	44844.66
552.18	45113.83
552.34	45338.52
552.51	45385.33
552.68	45139.57
552.84	45256.60
553.01	45860.46
553.18	45095.10
553.34	45813.65
553.51	45177.02
553.67	45511.72
553.84	45958.76
554.01	45488.31
554.17	45837.05
554.34	46176.43
554.51	46043.02
554.67	45848.75
554.84	45705.98
555.00	45853.44
555.17	45310.43
555.33	45722.37
555.50	45738.75
555.67	46019.61
555.83	45549.17
556.00	45851.09
556.16	46199.83
556.33	45717.68
556.50	45933.01
556.66	45724.71
556.83	45982.16
556.99	46258.35
557.16	46199.83
557.32	46211.54
557.49	45839.39
557.65	45954.08
557.82	45757.47
557.98	45827.69
558.15	45818.33
558.32	46188.13
558.48	45890.88
558.65	46082.81
558.81	46174.09
558.98	46192.81
559.14	46078.13
559.31	45935.35
559.47	46155.36
559.64	46742.84
559.80	46452.61
559.97	46461.97
560.13	46124.94
560.30	46677.30
560.46	46101.53
560.63	45996.21
560.79	46995.62
560.96	46649.22
561.12	46356.65
561.29	46576.66
561.45	45825.35
561.61	46541.55
561.78	46450.27
561.94	46279.41
562.11	46134.30
562.27	46265.37
562.44	46696.03
562.60	46677.30
562.77	46880.93
562.93	46534.53
563.10	46497.08
563.26	46480.70
563.42	46979.23
563.59	46553.26
563.75	46330.90
563.92	46714.75
564.08	46897.31
564.24	46759.22
564.41	46452.61
564.57	46784.97
564.74	46852.84
564.90	46857.52
565.07	46909.02
565.23	46443.25
565.39	46948.81
565.56	46663.26
565.72	46700.71
565.88	46555.60
566.05	46485.38
566.21	46979.23
566.38	46761.56
566.54	46829.44
566.70	46623.47
566.87	47070.51
567.03	47105.62
567.19	47199.24
567.36	47119.66
567.52	46958.17
567.68	47222.65
567.85	46644.54
568.01	46918.38
568.17	46270.05
568.34	46513.47
568.50	47035.41
568.66	46672.62
568.83	46876.25
568.99	46871.57
569.15	46899.65
569.32	46717.09
569.48	46548.57
569.64	47316.27
569.81	46810.71
569.97	46894.97
570.13	46967.53
570.30	46532.19
570.46	46529.85
570.62	46707.73
570.78	46691.35
570.95	46644.54
571.11	47096.26
571.27	47122.01
571.43	46972.21
571.60	47384.15
571.76	46204.52
571.92	46787.31
572.09	47014.34
572.25	46902.00
572.41	46630.49
572.57	47107.96
572.74	47517.56
572.90	47311.59
573.06	47063.49
573.22	47098.60
573.38	47243.71
573.55	46745.18
573.71	46843.48
573.87	46937.10
574.03	46522.83
574.20	47377.12
574.36	47278.82
574.52	47222.65
574.68	47281.16
574.84	47140.73
575.01	47061.15
575.17	47166.48
575.33	46803.69
575.49	46988.60
575.65	47463.72
575.82	47276.48
575.98	47206.26
576.14	47449.68
576.30	47002.64
576.46	47019.02
576.62	47363.08
576.79	46918.38
576.95	46548.57
577.11	46995.62
577.27	47154.77
577.43	47290.52
577.59	47072.85
577.75	46993.28
577.92	47009.66
578.08	46438.57
578.24	46731.14
578.40	46820.08
578.56	47044.77
578.72	46852.84
578.88	47299.89
579.04	47248.39
579.21	47084.56
579.37	46946.47
579.53	47091.58
579.69	46887.95
579.85	46995.62
580.01	47117.32
580.17	47047.11
580.33	47037.75
580.49	47260.10
580.65	47672.03
580.82	47512.88
580.98	47014.34
581.14	46909.02
581.30	47447.34
581.46	47559.69
581.62	47164.14
581.78	47632.24
581.94	48191.63
582.10	47030.72
582.26	47267.12
582.42	47164.14
582.58	47562.03
582.74	46754.54
582.90	47379.46
583.06	47580.75
583.22	47377.12
583.38	47742.25
583.54	47365.42
583.70	47473.09
583.86	47290.52
584.02	47187.54
584.18	47012.00
584.34	47180.52
584.50	47299.89
584.66	46979.23
584.82	46946.47
584.98	47398.19
585.14	47508.19
585.30	47189.88
585.46	47449.68
585.62	47126.69
585.78	47407.55
585.94	46707.73
586.10	47136.05
586.26	46855.18
586.42	47405.21
586.58	47653.31
586.74	46990.94
586.90	47601.82
587.06	46916.04
587.22	47414.57
587.38	46967.53
587.54	47421.59
587.70	47311.59
587.86	47096.26
588.02	47227.33
588.18	47346.70
588.34	46742.84
588.49	46576.66
588.65	46574.32
588.81	46300.48
588.97	46878.59
589.13	46740.50
589.29	46749.86
589.45	46909.02
589.61	47157.11
589.77	47213.29
