SpectraSuite Data File
++++++++++++++++++++++++++++++++++++
Date: Fri Oct 25 11:23:00 EDT 2013
User: price-jones
Dark Spectrum Present: No
Reference Spectrum Present: No
Number of Sampled Component Spectra: 1
Spectrometers: USB2+H05261
Integration Time (usec): 100000 (USB2+H05261)
Spectra Averaged: 1 (USB2+H05261)
Boxcar Smoothing: 0 (USB2+H05261)
Correct for Electrical Dark: No (USB2+H05261)
Strobe/Lamp Enabled: No (USB2+H05261)
Correct for Detector Non-linearity: No (USB2+H05261)
Correct for Stray Light: No (USB2+H05261)
Number of Pixels in Processed Spectrum: 2048
>>>>>Begin Processed Spectral Data<<<<<
365.73	271.50
365.92	271.50
366.12	271.50
366.32	168.52
366.52	46.81
366.72	91.28
366.91	98.30
367.11	161.50
367.31	124.05
367.51	117.03
367.70	138.09
367.90	138.09
368.10	100.64
368.30	72.56
368.49	117.03
368.69	203.63
368.89	152.13
369.09	72.56
369.28	212.99
369.48	147.45
369.68	198.95
369.87	217.67
370.07	180.22
370.27	236.39
370.47	290.23
370.66	592.16
370.86	568.75
371.06	704.50
371.25	690.46
371.45	669.39
371.65	662.37
371.84	800.46
372.04	727.91
372.24	716.20
372.44	704.50
372.63	758.33
372.83	681.10
373.03	753.65
373.22	777.06
373.42	788.76
373.62	744.29
373.81	716.20
374.01	798.12
374.21	837.91
374.40	758.33
374.60	795.78
374.79	702.16
374.99	807.48
375.19	802.80
375.38	908.13
375.58	835.57
375.78	870.68
375.97	870.68
376.17	891.74
376.37	819.19
376.56	880.04
376.76	828.55
376.95	786.42
377.15	826.21
377.35	823.87
377.54	868.34
377.74	856.64
377.93	901.11
378.13	938.55
378.33	978.34
378.52	968.98
378.72	931.53
378.91	947.92
379.11	891.74
379.31	926.85
379.50	973.66
379.70	1006.43
379.89	1034.52
380.09	971.32
380.28	940.90
380.48	980.68
380.68	905.79
380.87	1001.75
381.07	964.30
381.26	1071.97
381.46	997.07
381.65	910.47
381.85	985.37
382.04	1078.99
382.24	1060.26
382.43	1132.82
382.63	1048.56
382.83	1109.41
383.02	1198.35
383.22	1064.94
383.41	1100.05
383.61	1050.90
383.80	1198.35
384.00	1109.41
384.19	1165.59
384.39	1179.63
384.58	1132.82
384.78	1114.10
384.97	1245.16
385.17	1184.31
385.36	1090.69
385.56	1179.63
385.75	1139.84
385.95	1193.67
386.14	1181.97
386.34	1228.78
386.53	1245.16
386.72	1207.72
386.92	1329.42
387.11	1256.87
387.31	1203.04
387.50	1224.10
387.70	1238.14
387.89	1299.00
388.09	1322.40
388.28	1256.87
388.48	1270.91
388.67	1331.76
388.86	1401.98
389.06	1287.29
389.25	1373.89
389.45	1411.34
389.64	1329.42
389.84	1343.47
390.03	1343.47
390.22	1352.83
390.42	1345.81
390.61	1383.26
390.81	1334.11
391.00	1444.11
391.19	1432.41
391.39	1418.36
391.58	1437.09
391.78	1444.11
391.97	1486.24
392.16	1418.36
392.36	1521.35
392.55	1490.92
392.75	1540.07
392.94	1603.27
393.13	1568.16
393.33	1551.78
393.52	1633.69
393.71	1551.78
393.91	1584.54
394.10	1645.40
394.29	1530.71
394.49	1605.61
394.68	1734.34
394.88	1645.40
395.07	1589.22
395.26	1685.19
395.46	1659.44
395.65	1682.85
395.84	1689.87
396.04	1797.53
396.23	1802.21
396.42	1720.29
396.62	1797.53
396.81	1724.97
397.00	1743.70
397.19	1778.81
397.39	1799.87
397.58	1804.55
397.77	1785.83
397.97	1806.89
398.16	1905.20
398.35	1881.79
398.55	1799.87
398.74	1893.49
398.93	1912.22
399.12	1994.14
399.32	1930.94
399.51	1952.01
399.70	1989.46
399.90	1944.99
400.09	2052.65
400.28	2040.95
400.47	2001.16
400.67	2108.82
400.86	2047.97
401.05	2143.93
401.24	2197.76
401.44	2125.21
401.63	2244.57
401.82	2129.89
402.01	2099.46
402.21	2129.89
402.40	2267.98
402.59	2181.38
402.78	2214.15
402.97	2354.58
403.17	2249.25
403.36	2331.17
403.55	2373.30
403.74	2363.94
403.93	2291.38
404.13	2401.39
404.32	2333.51
404.51	2396.71
404.70	2513.74
404.89	2476.29
405.09	2471.61
405.28	2492.67
405.47	2579.27
405.66	2602.68
405.85	2562.89
406.05	2473.95
406.24	2555.86
406.43	2445.86
406.62	2726.72
406.81	2710.34
407.00	2560.55
407.20	2635.44
407.39	2597.99
407.58	2679.91
407.77	2677.57
407.96	2766.51
408.15	2834.39
408.34	2731.41
408.54	2862.48
408.73	2850.77
408.92	2913.97
409.11	2846.09
409.30	2883.54
409.49	2857.79
409.68	2883.54
409.87	3021.63
410.07	2956.10
410.26	3021.63
410.45	3108.23
410.64	3112.91
410.83	3119.93
411.02	3248.66
411.21	3143.34
411.40	3194.83
411.59	3124.62
411.78	3232.28
411.98	3178.45
412.17	3372.71
412.36	3314.20
412.55	3281.43
412.74	3311.86
412.93	3522.51
413.12	3438.25
413.31	3396.12
413.50	3503.78
413.69	3487.40
413.88	3625.49
414.07	3688.68
414.26	3777.62
414.45	3737.84
414.64	3660.60
414.83	3716.77
415.02	3815.07
415.22	3901.67
415.41	3829.12
415.60	3920.40
415.79	3805.71
415.98	3974.23
416.17	3925.08
416.36	3936.78
416.55	4030.40
416.74	4065.51
416.93	3997.64
417.12	4084.23
417.31	4156.79
417.50	4215.30
417.69	4362.76
417.88	4353.40
418.07	4238.71
418.26	4280.84
418.45	4320.63
418.64	4489.15
418.83	4498.51
419.02	4493.83
419.21	4447.02
419.39	4451.70
419.58	4489.15
419.77	4547.66
419.96	4540.64
420.15	4503.19
420.34	4470.42
420.53	4877.68
420.72	4755.97
420.91	4702.14
421.10	4858.95
421.29	4779.37
421.48	4713.84
421.67	4772.35
421.86	4819.16
422.05	4908.10
422.24	4877.68
422.43	5013.43
422.61	5083.64
422.80	5083.64
422.99	4887.04
423.18	5013.43
423.37	5158.54
423.56	4966.62
423.75	4973.64
423.94	4770.01
424.13	4723.20
424.32	4662.35
424.50	5107.05
424.69	5025.13
424.88	5282.59
425.07	4978.32
425.26	5050.88
425.45	4917.47
425.64	4980.66
425.83	5100.03
426.01	5055.56
426.20	5125.77
426.39	4992.36
426.58	5041.51
426.77	5029.81
426.96	5064.92
427.15	5259.18
427.33	5284.93
427.52	5137.48
427.71	5277.91
427.90	5142.16
428.09	5355.15
428.28	5355.15
428.46	5352.81
428.65	5350.46
428.84	5490.90
429.03	5565.79
429.22	5406.64
429.40	5476.85
429.59	5682.82
429.78	5359.83
429.97	5324.72
430.16	5523.66
430.34	5589.20
430.53	5783.46
430.72	5577.50
430.91	5668.78
431.10	5682.82
431.28	5654.73
431.47	5863.04
431.66	6001.13
431.85	6008.16
432.03	6022.20
432.22	6090.07
432.41	5954.32
432.60	5902.83
432.79	6026.88
432.97	6052.63
433.16	6174.33
433.35	5914.53
433.54	6204.76
433.72	6118.16
433.91	6167.31
434.10	6143.91
434.28	6162.63
434.47	6232.85
434.66	6324.13
434.85	6399.02
435.03	6349.87
435.22	6399.02
435.41	6609.67
435.59	6413.07
435.78	6511.37
435.97	6422.43
436.16	6382.64
436.34	6480.94
436.53	6480.94
436.72	6663.51
436.90	6408.39
437.09	6757.13
437.28	6616.69
437.46	6537.12
437.65	6565.20
437.84	6848.41
438.02	6792.23
438.21	6935.01
438.40	6738.40
438.58	7061.40
438.77	7056.72
438.96	6977.14
439.14	7166.72
439.33	7311.83
439.52	7246.30
439.70	7382.05
439.89	7400.77
440.08	7382.05
440.26	7337.58
440.45	7527.16
440.63	7719.09
440.82	7693.34
441.01	7485.03
441.19	7658.23
441.38	7782.28
441.57	7824.41
441.75	7971.86
441.94	8065.49
442.12	7981.23
442.31	8002.29
442.50	8262.09
442.68	7929.74
442.87	8065.49
443.05	8301.88
443.24	8292.52
443.43	8320.60
443.61	8439.97
443.80	8617.85
443.98	8236.35
444.17	7779.94
444.35	8255.07
444.54	8416.57
444.73	8437.63
444.91	8362.73
445.10	8538.27
445.28	8280.82
445.47	8496.14
445.65	8557.00
445.84	8636.58
446.02	8346.35
446.21	8589.77
446.39	8432.95
446.58	8517.21
446.77	8564.02
446.95	8262.09
447.14	8484.44
447.32	8613.17
447.51	8531.25
447.69	8432.95
447.88	8587.43
448.06	8711.47
448.25	8533.59
448.43	8699.77
448.62	8835.52
448.80	8575.72
448.99	8622.53
449.17	8821.48
449.36	8706.79
449.54	8772.33
449.73	9078.94
449.91	9205.33
450.10	8929.14
450.28	9121.07
450.46	9179.58
450.65	9214.69
450.83	9085.96
451.02	9102.34
451.20	9362.14
451.39	9324.69
451.57	9205.33
451.76	9259.16
451.94	9462.79
452.13	9497.89
452.31	9181.92
452.49	9226.39
452.68	9345.76
452.86	9334.06
453.05	9610.24
453.23	9741.31
453.42	9432.36
453.60	9558.75
453.78	9614.92
453.97	9727.27
454.15	9598.54
454.34	9525.98
454.52	9638.33
454.70	9708.54
454.89	9802.16
455.07	9778.76
455.26	9944.94
455.44	10256.23
455.62	9900.47
455.81	10143.88
455.99	10076.01
456.17	10064.30
456.36	10164.95
456.54	10214.10
456.73	10281.97
456.91	10480.92
457.09	10516.03
457.28	10560.50
457.46	10307.72
457.64	10619.01
457.83	10780.51
458.01	10604.97
458.19	10925.62
458.38	10853.06
458.56	10817.96
458.74	10785.19
458.93	10665.82
459.11	10857.75
459.29	10958.39
459.48	10860.09
459.66	10799.23
459.84	10874.13
460.03	11007.54
460.21	11026.26
460.39	10939.66
460.57	11164.36
460.76	11028.60
460.94	11105.84
461.12	11246.27
461.31	11297.77
461.49	11283.72
461.67	11157.33
461.85	11445.22
462.04	11236.91
462.22	11569.27
462.40	11705.02
462.59	11576.29
462.77	11660.55
462.95	11662.89
463.13	11737.79
463.32	11861.84
463.50	11843.11
463.68	11721.40
463.86	11913.33
464.05	11578.63
464.23	11925.03
464.41	12011.63
464.59	11485.01
464.78	12205.89
464.96	12182.49
465.14	11700.34
465.32	12131.00
465.50	12086.53
465.69	12175.47
465.87	12264.41
466.05	12329.94
466.23	12233.98
466.41	12278.45
466.60	12769.96
466.78	12264.41
466.96	12245.68
467.14	12617.83
467.32	12379.09
467.51	12542.93
467.69	12245.68
467.87	12547.61
468.05	12622.51
468.23	12573.36
468.41	12564.00
468.60	12870.61
468.78	12950.18
468.96	12861.24
469.14	13001.68
469.32	13317.65
469.50	12795.71
469.69	13107.00
469.87	13011.04
470.05	13235.73
470.23	13334.03
470.41	13247.43
470.59	13399.57
470.77	13345.73
470.95	13418.29
471.14	13982.36
471.32	13174.88
471.50	13795.12
471.68	13657.03
471.86	13720.22
472.04	13813.84
472.22	14052.58
472.40	13942.57
472.58	13710.86
472.77	13994.06
472.95	14389.61
473.13	14707.93
473.31	13989.38
473.49	14214.07
473.67	14335.78
473.85	14476.21
474.03	14991.13
474.21	14317.06
474.39	14654.09
474.57	14920.92
474.75	14904.53
474.93	15019.22
475.12	14839.00
475.30	15288.38
475.48	15220.50
475.66	15398.38
475.84	15138.58
476.02	15501.37
476.20	15276.68
476.38	15784.57
476.56	16037.35
476.74	15770.53
476.92	15967.13
477.10	15908.62
477.28	16444.60
477.46	16416.52
477.64	16666.95
477.82	16791.00
478.00	16823.77
478.18	17083.57
478.36	16985.27
478.54	17420.61
478.72	17502.53
478.90	17734.24
479.08	17642.96
479.26	17741.26
479.44	17797.43
479.62	17977.65
479.80	18253.84
479.98	18230.43
480.16	18937.27
480.34	18239.79
480.52	19136.22
480.70	18595.56
480.88	18523.00
481.06	19152.60
481.24	18923.23
481.41	19618.37
481.59	19829.02
481.77	19400.70
481.95	19730.72
482.13	19711.99
482.31	19924.98
482.49	20332.23
482.67	20540.54
482.85	20643.52
483.03	20723.10
483.21	20739.49
483.39	21509.52
483.57	21092.91
483.74	21090.57
483.92	21652.30
484.10	21362.07
484.28	21799.75
484.46	22115.72
484.64	22473.82
484.82	22134.45
485.00	22745.33
485.18	22902.14
485.35	23168.96
485.53	22827.24
485.71	23555.15
485.89	23538.77
486.07	23665.16
486.25	23367.91
486.43	23861.76
486.61	24128.58
486.78	24039.64
486.96	24276.04
487.14	24627.12
487.32	24627.12
487.50	25186.50
487.68	24879.89
487.85	25521.20
488.03	25736.53
488.21	26073.57
488.39	26106.34
488.57	26375.50
488.75	26480.82
488.92	26565.08
489.10	26937.23
489.28	27147.87
489.46	27723.65
489.64	27264.90
489.81	28217.50
489.99	27466.19
490.17	27833.65
490.35	28130.90
490.53	28524.11
490.70	28636.45
490.88	28308.78
491.06	29041.37
491.24	28994.56
491.41	29247.33
491.59	29556.28
491.77	29474.37
491.95	29713.10
492.13	30190.57
492.30	30223.34
492.48	30125.04
492.66	30401.22
492.84	31002.74
493.01	30939.54
493.19	30895.07
493.37	31442.76
493.54	31618.30
493.72	31922.57
493.90	31770.43
494.08	32016.19
494.25	32383.65
494.43	32065.34
494.61	32517.06
494.79	32594.30
494.96	32828.35
495.14	33003.89
495.32	32987.51
495.49	33364.34
495.67	33305.82
495.85	33823.08
496.02	33914.36
496.20	34438.64
496.38	34363.75
496.55	34256.08
496.73	34944.20
496.91	34546.31
497.09	35065.91
497.26	35498.91
497.44	35136.12
497.62	35711.89
497.79	36023.19
497.97	35648.70
498.14	36617.68
498.32	36292.35
498.50	36531.08
498.67	37043.66
498.85	37219.20
499.03	37097.49
499.20	36961.74
499.38	36980.46
499.56	37296.44
499.73	37432.19
499.91	37209.84
500.08	37933.06
500.26	37773.91
500.44	38103.92
500.61	38242.01
500.79	38326.27
500.97	38408.19
501.14	39358.45
501.32	38892.68
501.49	38789.70
501.67	38586.07
501.84	39257.81
502.02	38976.94
502.20	39192.27
502.37	39625.27
502.55	39473.13
502.72	39683.78
502.90	39700.17
503.07	39559.73
503.25	40261.90
503.43	40261.90
503.60	40374.24
503.78	40720.64
503.95	40371.90
504.13	40580.21
504.30	40898.52
504.48	40767.45
504.65	41310.46
504.83	41645.15
505.01	41518.76
505.18	41598.34
505.36	41738.77
505.53	41670.90
505.71	41757.50
505.88	42284.12
506.06	41832.39
506.23	42314.55
506.41	42038.36
506.58	42515.83
506.76	42478.38
506.93	42780.31
507.11	42487.74
507.28	43168.84
507.46	43086.92
507.63	43129.05
507.81	43302.25
507.98	43035.43
508.16	43917.81
508.33	43803.13
508.50	43931.86
508.68	43889.73
508.85	44289.96
509.03	44222.08
509.20	44486.56
509.38	44971.05
509.55	44577.84
509.73	44835.30
509.90	45062.33
510.08	44774.45
510.25	44978.07
510.42	44896.16
510.60	45427.46
510.77	45441.50
510.95	46061.74
511.12	45397.03
511.30	45661.51
511.47	45446.18
511.64	46143.66
511.82	46314.52
511.99	45900.25
512.17	46012.59
512.34	46525.17
512.51	46696.03
512.69	46862.21
512.86	47002.64
513.04	47232.01
513.21	46902.00
513.38	46808.37
513.56	46763.90
513.73	46784.97
513.90	47421.59
514.08	47058.81
514.25	47503.51
514.43	47620.54
514.60	47873.32
514.77	47501.17
514.95	47924.81
515.12	47800.76
515.29	48095.67
515.47	48245.46
515.64	48554.41
515.81	48332.06
515.99	48631.65
516.16	48795.49
516.33	48823.58
516.51	49179.34
516.68	48996.77
516.85	48608.25
517.03	49165.29
517.20	49268.28
517.37	49071.67
517.54	49308.07
517.72	49422.75
517.89	49691.91
518.06	49258.91
518.24	49436.80
518.41	49907.24
518.58	49928.31
518.75	49420.41
518.93	50471.31
519.10	49947.03
519.27	50272.37
519.45	50169.38
519.62	50501.74
519.79	49886.18
519.96	50251.30
520.14	50452.59
520.31	50738.13
520.48	50789.62
520.65	50593.02
520.83	51166.45
521.00	51105.60
521.17	50625.79
521.34	50569.61
521.52	51295.18
521.69	51171.13
521.86	51662.64
522.03	51227.31
522.20	51791.37
522.38	52004.36
522.55	51569.02
522.72	51992.66
522.89	51735.20
523.07	52275.87
523.24	51798.40
523.41	52130.75
523.58	51938.83
523.75	51821.80
523.92	52011.38
524.10	52142.45
524.27	52086.28
524.44	52514.60
524.61	52313.31
524.78	52392.89
524.96	52278.21
525.13	52456.09
525.30	52498.22
525.47	52786.10
525.64	52765.04
525.81	52814.19
525.98	52959.30
526.16	52790.78
526.33	52765.04
526.50	53361.87
526.67	53153.57
526.84	53270.59
527.01	53113.78
527.18	53144.20
527.36	53132.50
527.53	53291.66
527.70	53741.04
527.87	53652.10
528.04	53497.62
528.21	53591.25
528.38	53371.24
528.55	54010.20
528.72	53425.07
528.89	53696.57
529.07	53600.61
529.24	53827.64
529.41	54007.86
529.58	53888.49
529.75	53961.05
529.92	53956.37
530.09	54127.23
530.26	54157.66
530.43	54010.20
530.60	54216.17
530.77	54145.95
530.94	54279.36
531.11	54094.46
531.28	54408.09
531.46	54562.57
531.63	54480.65
531.80	54564.91
531.97	54831.73
532.14	54829.39
532.31	54656.19
532.48	54777.90
532.65	54934.71
532.82	54600.02
532.99	55016.63
533.16	55028.34
533.33	54941.74
533.50	55199.19
533.67	55267.07
533.84	55201.53
534.01	55292.82
534.18	54979.18
534.35	55398.14
534.52	55278.77
534.69	55339.63
534.86	55522.19
535.03	55173.45
535.20	55484.74
535.37	55430.91
535.54	55693.05
535.71	55346.65
535.88	55732.84
536.05	55693.05
536.22	55959.87
536.38	55742.20
536.55	55976.25
536.72	55655.60
536.89	55955.19
537.06	55746.88
537.23	56072.21
537.40	55929.44
537.57	55786.67
537.74	55842.84
537.91	56467.76
538.08	56046.47
538.25	56231.37
538.42	55952.85
538.59	56435.00
538.75	55959.87
538.92	56240.73
539.09	56505.21
539.26	56140.09
539.43	56278.18
539.60	56413.93
539.77	56165.84
539.94	56324.99
540.11	56671.39
540.28	56788.42
540.44	56456.06
540.61	56739.27
540.78	56715.86
540.95	56650.33
541.12	56484.15
541.29	56678.41
541.46	56732.25
541.62	56823.53
541.79	56837.57
541.96	56875.02
542.13	56711.18
542.30	56973.32
542.47	57106.73
542.63	57050.56
542.80	56942.89
542.97	57078.64
543.14	57270.57
543.31	57235.46
543.48	57418.02
543.64	57691.86
543.81	57462.49
543.98	57570.16
544.15	57361.85
544.32	57741.02
544.48	57860.38
544.65	57645.05
544.82	57738.68
544.99	57511.64
545.16	57839.32
545.32	57492.92
545.49	57902.51
545.66	57914.22
545.83	57752.72
546.00	58024.22
546.16	57914.22
546.33	57895.49
546.50	57916.56
546.67	58232.53
546.83	57577.18
547.00	57846.34
547.17	58031.24
547.34	57954.00
547.50	58155.29
547.67	58471.26
547.84	58176.36
548.00	58375.30
548.17	58534.46
548.34	58487.65
548.51	58415.09
548.67	58251.25
548.84	58379.98
549.01	58365.94
549.18	58452.54
549.34	58464.24
549.51	58511.05
549.68	58417.43
549.84	58607.01
550.01	58445.52
550.18	58543.82
550.34	58717.02
550.51	58810.64
550.68	58475.94
550.84	58555.52
551.01	58590.63
551.18	58679.57
551.34	58876.18
551.51	58773.19
551.68	58883.20
551.84	58752.13
552.01	58728.72
552.18	59058.74
552.34	58738.08
552.51	59044.69
552.68	58969.80
552.84	58969.80
553.01	59072.78
553.18	59147.68
553.34	59018.95
553.51	58990.86
553.67	58962.78
553.84	59152.36
554.01	59178.10
554.17	59175.76
554.34	59107.89
554.51	59150.02
554.67	59461.31
554.84	59419.18
555.00	59337.26
555.17	59091.51
555.33	59264.70
555.50	59077.46
555.67	59358.33
555.83	59124.27
556.00	59440.24
556.16	59709.41
556.33	59522.16
556.50	59304.49
556.66	59568.97
556.83	59451.95
556.99	59678.98
557.16	59700.04
557.32	59653.23
557.49	59924.74
557.65	59426.20
557.82	59601.74
557.98	59697.70
558.15	59536.21
558.32	59608.76
558.48	59643.87
558.65	59608.76
558.81	59683.66
558.98	59681.32
559.14	59702.38
559.31	59936.44
559.47	59742.17
559.64	60006.65
559.80	59760.90
559.97	60030.06
560.13	59735.15
560.30	59969.21
560.46	59763.24
560.63	60100.28
560.79	59725.79
560.96	60179.85
561.12	60004.31
561.29	60060.49
561.45	60130.70
561.61	60097.94
561.78	59891.97
561.94	59941.12
562.11	60044.10
562.27	60025.38
562.44	60140.07
562.60	60252.41
562.77	60175.17
562.93	59992.61
563.10	60299.22
563.26	60079.21
563.42	60268.79
563.59	60088.57
563.75	60296.88
563.92	60142.41
564.08	60044.10
564.24	60502.85
564.41	60226.66
564.57	60498.17
564.74	60322.63
564.90	60191.56
565.07	60355.39
565.23	60275.82
565.39	60236.03
565.56	60441.99
565.72	60285.18
565.88	60425.61
566.05	60212.62
566.21	60261.77
566.38	60472.42
566.54	60708.82
566.70	60580.09
566.87	60631.58
567.03	60388.16
567.19	60678.39
567.36	60587.11
567.52	60472.42
567.68	60825.84
567.85	60568.38
568.01	60633.92
568.17	60530.93
568.34	60605.83
568.50	60584.77
568.66	60495.83
568.83	60664.35
568.99	60619.88
569.15	60645.62
569.32	60547.32
569.48	60537.96
569.64	60933.51
569.81	60807.12
569.97	60523.91
570.13	60795.42
570.30	60612.85
570.46	60764.99
570.62	60732.22
570.78	60779.03
570.95	60552.00
571.11	60837.54
571.27	60601.15
571.43	60706.47
571.60	60823.50
571.76	60772.01
571.92	60896.06
572.09	60811.80
572.25	60767.33
572.41	60783.71
572.57	60835.20
572.74	61052.87
572.90	60706.47
573.06	60823.50
573.22	60694.77
573.38	60732.22
573.55	60760.31
573.71	60977.98
573.87	60942.87
574.03	60725.20
574.20	60877.33
574.36	60779.03
574.52	60795.42
574.68	60970.96
574.84	60867.97
575.01	61020.11
575.17	60842.23
575.33	60924.14
575.49	60884.36
575.65	61141.81
575.82	60912.44
575.98	61043.51
576.14	61165.22
576.30	61001.38
576.46	61020.11
576.62	60748.60
576.79	60846.91
576.95	60907.76
577.11	61001.38
577.27	60872.65
577.43	60839.89
577.59	60900.74
577.75	60767.33
577.92	60865.63
578.08	61078.62
578.24	60966.27
578.40	61052.87
578.56	61247.14
578.72	61003.72
578.88	61282.25
579.04	61038.83
579.21	61134.79
579.37	61183.94
579.53	60992.02
579.69	60942.87
579.85	60947.55
580.01	61134.79
580.17	60973.30
580.33	61296.29
580.49	61083.30
580.65	61195.65
580.82	61024.79
580.98	61038.83
581.14	61116.07
581.30	61319.70
581.46	61155.86
581.62	61055.21
581.78	61001.38
581.94	61226.07
582.10	61305.65
582.26	61216.71
582.42	61144.16
582.58	61153.52
582.74	61090.32
582.90	61092.66
583.06	61038.83
583.22	61038.83
583.38	61223.73
583.54	61118.41
583.70	61254.16
583.86	61022.45
584.02	61055.21
584.18	61293.95
584.34	61200.33
584.50	61132.45
584.66	61069.26
584.82	60931.17
584.98	61364.17
585.14	61212.03
585.30	61024.79
585.46	61247.14
585.62	61195.65
585.78	61291.61
585.94	60921.80
586.10	61345.44
586.26	61097.34
586.42	61403.95
586.58	61343.10
586.74	61371.19
586.90	61127.77
587.06	61212.03
587.22	61389.91
587.38	61062.24
587.54	61446.08
587.70	61439.06
587.86	61366.51
588.02	61286.93
588.18	61282.25
588.34	61151.18
588.49	61186.28
