SpectraSuite Data File
++++++++++++++++++++++++++++++++++++
Date: Fri Oct 25 10:43:52 EDT 2013
User: price-jones
Dark Spectrum Present: No
Reference Spectrum Present: No
Number of Sampled Component Spectra: 1
Spectrometers: USB2+H05261
Integration Time (usec): 100000 (USB2+H05261)
Spectra Averaged: 1 (USB2+H05261)
Boxcar Smoothing: 0 (USB2+H05261)
Correct for Electrical Dark: No (USB2+H05261)
Strobe/Lamp Enabled: No (USB2+H05261)
Correct for Detector Non-linearity: No (USB2+H05261)
Correct for Stray Light: No (USB2+H05261)
Number of Pixels in Processed Spectrum: 2048
>>>>>Begin Processed Spectral Data<<<<<
365.73	98.30
365.92	98.30
366.12	98.30
366.32	79.58
366.52	42.13
366.72	79.58
366.91	25.75
367.11	42.13
367.31	42.13
367.51	7.02
367.70	0.00
367.90	0.00
368.10	0.00
368.30	7.02
368.49	0.00
368.69	37.45
368.89	51.49
369.09	9.36
369.28	32.77
369.48	100.64
369.68	121.71
369.87	30.43
370.07	77.24
370.27	44.47
370.47	145.11
370.66	425.98
370.86	425.98
371.06	456.40
371.25	533.64
371.45	437.68
371.65	514.92
371.84	400.23
372.04	423.64
372.24	545.34
372.44	489.17
372.63	461.09
372.83	505.56
373.03	533.64
373.22	482.15
373.42	491.51
373.62	547.69
373.81	564.07
374.01	589.82
374.21	498.53
374.40	550.03
374.60	653.01
374.79	521.94
374.99	557.05
375.19	664.71
375.38	594.50
375.58	629.60
375.78	601.52
375.97	638.97
376.17	636.63
376.37	631.94
376.56	617.90
376.76	594.50
376.95	554.71
377.15	648.33
377.35	657.69
377.54	730.25
377.74	634.29
377.93	709.18
378.13	713.86
378.33	695.14
378.52	699.82
378.72	664.71
378.91	699.82
379.11	641.31
379.31	678.76
379.50	561.73
379.70	676.41
379.89	638.97
380.09	695.14
380.28	788.76
380.48	648.33
380.68	695.14
380.87	699.82
381.07	699.82
381.26	709.18
381.46	709.18
381.65	760.67
381.85	669.39
382.04	695.14
382.24	718.54
382.43	758.33
382.63	645.99
382.83	758.33
383.02	739.61
383.22	711.52
383.41	737.27
383.61	674.07
383.80	755.99
384.00	807.48
384.19	851.96
384.39	798.12
384.58	828.55
384.78	837.91
384.97	863.66
385.17	777.06
385.36	826.21
385.56	814.51
385.75	851.96
385.95	828.55
386.14	882.38
386.34	844.93
386.53	898.77
386.72	868.34
386.92	854.30
387.11	954.94
387.31	903.45
387.50	842.59
387.70	964.30
387.89	861.32
388.09	884.72
388.28	938.55
388.48	875.36
388.67	980.68
388.86	1025.15
389.06	968.98
389.25	994.73
389.45	915.15
389.64	912.81
389.84	1032.18
390.03	1057.92
390.22	1004.09
390.42	1027.50
390.61	1008.77
390.81	1060.26
391.00	1050.90
391.19	1057.92
391.39	1090.69
391.58	1081.33
391.78	1135.16
391.97	1102.39
392.16	1032.18
392.36	1114.10
392.55	1034.52
392.75	1095.37
392.94	973.66
393.13	1034.52
393.33	1114.10
393.52	1027.50
393.71	1111.75
393.91	1184.31
394.10	1177.29
394.29	1238.14
394.49	1132.82
394.68	1263.89
394.88	1088.35
395.07	1310.70
395.26	1385.60
395.46	1315.38
395.65	1256.87
395.84	1313.04
396.04	1310.70
396.23	1174.95
396.42	1142.18
396.62	1275.59
396.81	1263.89
397.00	1299.00
397.19	1263.89
397.39	1364.53
397.58	1399.64
397.77	1460.49
397.97	1401.98
398.16	1397.30
398.35	1526.03
398.55	1570.50
398.74	1530.71
398.93	1497.94
399.12	1533.05
399.32	1600.93
399.51	1537.73
399.70	1614.97
399.90	1715.61
400.09	1699.23
400.28	1673.48
400.47	1666.46
400.67	1727.32
400.86	1631.35
401.05	1694.55
401.24	1708.59
401.44	1699.23
401.63	1790.51
401.82	1846.68
402.01	1760.08
402.21	1788.17
402.40	1834.98
402.59	1757.74
402.78	1905.20
402.97	1788.17
403.17	1717.95
403.36	1888.81
403.55	1944.99
403.74	1916.90
403.93	1961.37
404.13	1935.62
404.32	1919.24
404.51	1916.90
404.70	2120.53
404.89	2031.58
405.09	2040.95
405.28	1895.83
405.47	2050.31
405.66	2064.35
405.85	1940.30
406.05	2010.52
406.24	2108.82
406.43	2097.12
406.62	2085.42
406.81	2115.84
407.00	2200.10
407.20	2085.42
407.39	2139.25
407.58	2237.55
407.77	2310.11
407.96	2377.98
408.15	2265.64
408.34	2289.04
408.54	2427.14
408.73	2373.30
408.92	2380.32
409.11	2377.98
409.30	2417.77
409.49	2279.68
409.68	2326.49
409.87	2394.37
410.07	2303.09
410.26	2441.18
410.45	2520.76
410.64	2478.63
410.83	2593.31
411.02	2644.81
411.21	2527.78
411.40	2595.65
411.59	2684.59
411.78	2623.74
411.98	2661.19
412.17	2757.15
412.36	2822.69
412.55	2761.83
412.74	2792.26
412.93	2757.15
413.12	2862.48
413.31	2923.33
413.50	2874.18
413.69	2930.35
413.88	3002.91
414.07	3007.59
414.26	3047.38
414.45	3021.63
414.64	3070.78
414.83	3061.42
415.02	3143.34
415.22	3194.83
415.41	3190.15
415.60	3241.64
415.79	3251.00
415.98	3339.94
416.17	3227.60
416.36	3276.75
416.55	3342.28
416.74	3258.03
416.93	3426.54
417.12	3496.76
417.31	3403.14
417.50	3417.18
417.69	3550.59
417.88	3660.60
418.07	3424.20
418.26	3653.58
418.45	3576.34
418.64	3644.21
418.83	3583.36
419.02	3693.37
419.21	3747.20
419.39	3754.22
419.58	3648.90
419.77	3625.49
419.96	3620.81
420.15	3749.54
420.34	3737.84
420.53	3770.60
420.72	3948.48
420.91	3765.92
421.10	4046.79
421.29	3906.35
421.48	3861.88
421.67	4042.11
421.86	3789.33
422.05	3939.12
422.24	3992.95
422.43	3932.10
422.61	4025.72
422.80	4070.19
422.99	4030.40
423.18	4039.76
423.37	4046.79
423.56	4035.08
423.75	4037.42
423.94	4056.15
424.13	3880.61
424.32	3904.01
424.50	4147.43
424.69	4152.11
424.88	4154.45
425.07	4044.45
425.26	4163.81
425.45	3950.82
425.64	4053.81
425.83	4159.13
426.01	4117.00
426.20	4126.36
426.39	4170.83
426.58	4035.08
426.77	4021.04
426.96	4086.58
427.15	4093.60
427.33	4210.62
427.52	4081.89
427.71	4205.94
427.90	4250.41
428.09	4222.33
428.28	4341.69
428.46	4278.50
428.65	4170.83
428.84	4414.25
429.03	4435.32
429.22	4126.36
429.40	4170.83
429.59	4215.30
429.78	4095.94
429.97	4025.72
430.16	4166.15
430.34	4081.89
430.53	4360.42
430.72	4243.39
430.91	4276.16
431.10	4374.46
431.28	4521.92
431.47	4739.58
431.66	4870.65
431.85	4622.56
432.03	4706.82
432.22	4793.42
432.41	4713.84
432.60	4807.46
432.79	4812.14
432.97	4880.02
433.16	4882.36
433.35	5011.09
433.54	4704.48
433.72	4800.44
433.91	4858.95
434.10	4908.10
434.28	4805.12
434.47	4856.61
434.66	5043.85
434.85	5069.60
435.03	5160.88
435.22	5006.41
435.41	5137.48
435.59	5217.05
435.78	5308.34
435.97	5462.81
436.16	5226.42
436.34	5390.25
436.53	5195.99
436.72	5310.68
436.90	5334.08
437.09	5479.19
437.28	5130.45
437.46	5301.31
437.65	5310.68
437.84	5303.65
438.02	5441.75
438.21	5303.65
438.40	5273.23
438.58	5408.98
438.77	5556.43
438.96	5542.39
439.14	5806.87
439.33	5767.08
439.52	5755.38
439.70	5741.33
439.89	5827.93
440.08	5888.79
440.26	5804.53
440.45	5792.83
440.63	6045.60
440.82	6001.13
441.01	6015.18
441.19	5956.66
441.38	6303.06
441.57	6263.27
441.75	6324.13
441.94	6579.25
442.12	6539.46
442.31	6544.14
442.50	6429.45
442.68	6345.19
442.87	6576.91
443.05	6640.10
443.24	6750.10
443.43	6661.16
443.61	6616.69
443.80	6944.37
443.98	6574.56
444.17	6368.60
444.35	6602.65
444.54	6698.61
444.73	6623.72
444.91	6626.06
445.10	6729.04
445.28	6623.72
445.47	6424.77
445.65	6450.52
445.84	6682.23
446.02	6820.32
446.21	6698.61
446.39	6822.66
446.58	6960.75
446.77	6825.00
446.95	6747.76
447.14	6867.13
447.32	6860.11
447.51	6883.52
447.69	6738.40
447.88	6799.26
448.06	7030.97
448.25	6963.09
448.43	6874.15
448.62	6832.02
448.80	6993.52
448.99	7009.90
449.17	6897.56
449.36	6923.30
449.54	7183.10
449.73	7150.34
449.91	7424.18
450.10	7300.13
450.28	7295.45
450.46	7393.75
450.65	7389.07
450.83	7431.20
451.02	7389.07
451.20	7424.18
451.39	7566.95
451.57	7709.72
451.76	7487.37
451.94	7478.01
452.13	7431.20
452.31	7335.24
452.49	7227.57
452.68	7403.11
452.86	7295.45
453.05	7506.10
453.23	7529.50
453.42	7459.29
453.60	7419.50
453.78	7637.17
453.97	7564.61
454.15	7618.44
454.34	7573.97
454.52	7637.17
454.70	7857.18
454.89	7688.66
455.07	7896.97
455.26	7714.41
455.44	7840.79
455.62	7777.60
455.81	7964.84
455.99	8124.00
456.17	8114.64
456.36	8124.00
456.54	8149.75
456.73	8271.45
456.91	8409.54
457.09	8362.73
457.28	8524.23
457.46	8182.51
457.64	8355.71
457.83	8362.73
458.01	8386.14
458.19	8444.65
458.38	8454.02
458.56	8397.84
458.74	8416.57
458.93	8498.49
459.11	8592.11
459.29	8355.71
459.48	8493.80
459.66	8498.49
459.84	8638.92
460.03	8648.28
460.21	8716.16
460.39	8814.46
460.57	8741.90
460.76	8807.44
460.94	8959.57
461.12	8807.44
461.31	8830.84
461.49	8875.31
461.67	8877.65
461.85	9109.36
462.04	9085.96
462.22	9303.63
462.40	9160.86
462.59	9156.18
462.77	9259.16
462.95	9139.79
463.13	9170.22
463.32	9048.51
463.50	9167.88
463.68	9165.54
463.86	9156.18
464.05	9226.39
464.23	9163.20
464.41	9266.18
464.59	9177.24
464.78	9437.04
464.96	9317.67
465.14	9446.40
465.32	9387.89
465.50	9682.80
465.69	9612.58
465.87	9355.12
466.05	9446.40
466.23	9404.27
466.41	9589.17
466.60	9818.55
466.78	9479.17
466.96	9678.12
467.14	9460.45
467.32	9652.37
467.51	9741.31
467.69	9296.61
467.87	9650.03
468.05	9696.84
468.23	9586.83
468.41	9687.48
468.60	9727.27
468.78	9951.96
468.96	9614.92
469.14	10029.20
469.32	10127.50
469.50	9942.60
469.69	10010.47
469.87	9907.49
470.05	10073.67
470.23	10300.70
470.41	9998.77
470.59	10258.57
470.77	10139.20
470.95	10345.17
471.14	10441.13
471.32	10120.48
471.50	10637.73
471.68	10363.89
471.86	10707.95
472.04	10623.69
472.22	10651.78
472.40	10663.48
472.58	10651.78
472.77	10743.06
472.95	10733.70
473.13	11138.61
473.31	10757.10
473.49	10841.36
473.67	11040.31
473.85	11192.44
474.03	11279.04
474.21	10942.00
474.39	11583.31
474.57	11367.98
474.75	11281.38
474.93	11309.47
475.12	11234.57
475.30	11791.62
475.48	11527.14
475.66	11744.81
475.84	11543.52
476.02	11592.67
476.20	11646.51
476.38	11866.52
476.56	12290.15
476.74	12042.06
476.92	12173.13
477.10	11992.90
477.28	12126.32
477.46	12559.31
477.64	12596.76
477.82	12805.07
478.00	12755.92
478.18	13069.55
478.36	12833.16
478.54	13048.49
478.72	13135.09
478.90	13317.65
479.08	13516.59
479.26	13556.38
479.44	13612.56
479.62	13408.93
479.80	13675.75
479.98	13682.77
480.16	14083.00
480.34	13862.99
480.52	14204.71
480.70	13954.27
480.88	14122.79
481.06	14303.01
481.24	14232.80
481.41	14618.99
481.59	14668.14
481.77	14775.80
481.95	14782.82
482.13	15115.18
482.31	14850.70
482.49	15377.32
482.67	15016.88
482.85	15318.81
483.03	15566.90
483.21	15812.66
483.39	15770.53
483.57	15812.66
483.74	16088.84
483.92	16255.02
484.10	15857.13
484.28	16599.08
484.46	16695.04
484.64	16865.90
484.82	16482.05
485.00	16774.62
485.18	16835.47
485.35	16910.37
485.53	16498.44
485.71	16437.58
485.89	16692.70
486.07	16734.83
486.25	17200.60
486.43	17343.37
486.61	17399.54
486.78	17610.19
486.96	17649.98
487.14	18022.12
487.32	18157.88
487.50	18380.23
487.68	18539.38
487.85	18705.56
488.03	18981.74
488.21	19138.56
488.39	19183.03
488.57	18794.50
488.75	19033.24
488.92	19403.04
489.10	19658.16
489.28	19653.48
489.46	20072.43
489.64	20308.83
489.81	20692.68
489.99	20753.53
490.17	20475.01
490.35	20725.44
490.53	20585.01
490.70	20814.38
490.88	20968.86
491.06	21303.56
491.24	21160.78
491.41	21287.17
491.59	21333.98
491.77	20886.94
491.95	21504.84
492.13	21750.60
492.30	22052.53
492.48	22085.30
492.66	22436.38
492.84	22286.58
493.01	22860.01
493.19	22576.81
493.37	22817.88
493.54	23068.32
493.72	22941.93
493.90	23480.25
494.08	23716.65
494.25	23962.40
494.43	23683.88
494.61	24037.30
494.79	23655.79
494.96	24025.60
495.14	24360.30
495.32	24313.48
495.49	24088.79
495.67	24526.47
495.85	24608.39
496.02	24800.32
496.20	24915.00
496.38	24573.28
496.55	25027.35
496.73	25324.60
496.91	25600.78
497.09	25532.90
497.26	25542.27
497.44	25383.11
497.62	25713.13
497.79	26183.57
497.97	25605.46
498.14	26010.37
498.32	26415.29
498.50	26237.41
498.67	26927.86
498.85	26553.38
499.03	27173.62
499.20	26906.80
499.38	26988.72
499.56	27171.28
499.73	27290.65
499.91	26939.57
500.08	27360.86
500.26	27080.00
500.44	27225.11
500.61	27452.14
500.79	26859.99
500.97	27356.18
501.14	27541.08
501.32	27850.03
501.49	27475.55
501.67	27948.34
501.84	28322.82
502.02	28023.23
502.20	28451.55
502.37	28505.38
502.55	28484.32
502.72	28432.83
502.90	28535.81
503.07	28783.91
503.25	28861.15
503.43	28807.31
503.60	29036.69
503.78	28533.47
503.95	28709.01
504.13	29359.68
504.30	29134.99
504.48	29401.81
504.65	29675.65
504.83	29631.18
505.01	30015.03
505.18	29923.75
505.36	30469.09
505.53	30209.29
505.71	30443.35
505.88	30457.39
506.06	30213.98
506.23	30256.11
506.41	30183.55
506.58	30419.94
506.76	30717.19
506.93	30902.09
507.11	30764.00
507.28	30738.26
507.46	30478.46
507.63	30562.72
507.81	31119.76
507.98	30724.21
508.16	30958.27
508.33	31435.74
508.50	31527.02
508.68	31426.37
508.85	31885.12
509.03	31503.61
509.20	31634.68
509.38	32079.38
509.55	32013.85
509.73	31751.71
509.90	32156.62
510.08	32226.84
510.25	32208.11
510.42	32460.89
510.60	32362.59
510.77	32320.46
510.95	32697.28
511.12	32460.89
511.30	32676.22
511.47	32734.73
511.64	33406.47
511.82	33369.02
511.99	33027.30
512.17	32676.22
512.34	32931.34
512.51	33205.18
512.69	33347.95
512.86	33146.67
513.04	33713.08
513.21	33380.72
513.38	33043.68
513.56	33261.35
513.73	33668.61
513.90	33876.91
514.08	33596.05
514.25	33916.70
514.43	33881.60
514.60	33862.87
514.77	33785.63
514.95	34567.37
515.12	34117.99
515.29	34433.96
515.47	34890.37
515.64	34850.58
515.81	34462.05
515.99	34525.24
516.16	34588.44
516.33	34244.38
516.51	34125.01
516.68	34129.69
516.85	34284.17
517.03	34239.70
517.20	34572.05
517.37	34728.87
517.54	35653.38
517.72	35002.71
517.89	34553.33
518.06	34733.55
518.24	34904.41
518.41	35035.48
518.58	35564.44
518.75	34934.84
518.93	35248.47
519.10	35653.38
519.27	35959.99
519.45	35405.28
519.62	35842.96
519.79	35938.93
519.96	36215.11
520.14	36456.18
520.31	35981.06
520.48	35913.18
520.65	36238.51
520.83	36254.90
521.00	36470.23
521.17	36367.24
521.34	36498.31
521.52	36816.63
521.69	37130.26
521.86	37034.30
522.03	36870.46
522.20	37090.47
522.38	37095.15
522.55	37280.05
522.72	37109.19
522.89	36994.51
523.07	37401.76
523.24	37219.20
523.41	37228.56
523.58	37818.38
523.75	38092.22
523.92	37699.01
524.10	37961.15
524.27	37947.11
524.44	38134.35
524.61	37998.60
524.78	37844.12
524.96	38293.50
525.13	38359.04
525.30	38541.60
525.47	38579.05
525.64	38160.09
525.81	38401.17
525.98	38176.48
526.16	38174.14
526.33	38003.28
526.50	37937.74
526.67	37816.04
526.84	37839.44
527.01	37731.78
527.18	38689.06
527.36	38857.57
527.53	38733.53
527.70	39072.90
527.87	39344.41
528.04	38876.30
528.21	39262.49
528.38	39541.01
528.55	39571.44
528.72	39807.83
528.89	39667.40
529.07	39433.35
529.24	38990.98
529.41	39515.26
529.58	39517.60
529.75	39218.02
529.92	40224.45
530.09	39988.05
530.26	39838.26
530.43	39959.97
530.60	40004.44
530.77	39838.26
530.94	40020.82
531.11	39842.94
531.28	40477.22
531.46	39981.03
531.63	40091.04
531.80	40591.91
531.97	39976.35
532.14	40222.11
532.31	39763.36
532.48	40184.66
532.65	40353.18
532.82	40128.48
532.99	40238.49
533.16	40179.98
533.33	40835.33
533.50	40605.95
533.67	40933.63
533.84	40739.36
534.01	41015.55
534.18	40664.47
534.35	41043.63
534.52	41031.93
534.69	41214.49
534.86	41380.67
535.03	41469.61
535.20	41546.85
535.37	41652.17
535.54	42134.32
535.71	41247.26
535.88	41427.48
536.05	41265.99
536.22	41125.55
536.38	41734.09
536.55	41151.30
536.72	41626.43
536.89	41200.45
537.06	41820.69
537.23	42054.75
537.40	41523.44
537.57	41755.16
537.74	41930.70
537.91	42206.88
538.08	42122.62
538.25	41790.27
538.42	41886.23
538.59	42206.88
538.75	41357.27
538.92	42185.82
539.09	42356.67
539.26	42256.03
539.43	42092.19
539.60	42286.46
539.77	42078.15
539.94	42405.83
540.11	42014.96
540.28	42560.30
540.44	42281.78
540.61	42082.83
540.78	41834.74
540.95	42211.56
541.12	42218.58
541.29	42359.02
541.46	42286.46
541.62	42429.23
541.79	43077.56
541.96	42099.22
542.13	42911.38
542.30	42433.91
542.47	42351.99
542.63	42728.82
542.80	43030.75
542.97	42848.19
543.14	43454.39
543.31	43337.36
543.48	43171.18
543.64	43761.00
543.81	43746.95
543.98	43117.35
544.15	43496.52
544.32	43098.62
544.48	43770.36
544.65	43826.53
544.82	43742.27
544.99	43592.48
545.16	43716.53
545.32	43604.18
545.49	44224.42
545.66	44154.21
545.83	43913.13
546.00	44142.50
546.16	43878.02
546.33	43564.39
546.50	43430.98
546.67	43775.04
546.83	43749.29
547.00	43826.53
547.17	43688.44
547.34	43882.70
547.50	43894.41
547.67	44563.80
547.84	43901.43
548.00	44271.23
548.17	44128.46
548.34	44711.25
548.51	44594.23
548.67	44697.21
548.84	44809.56
549.01	44645.72
549.18	44163.57
549.34	44762.75
549.51	44694.87
549.68	44334.43
549.84	44713.59
550.01	44949.99
550.18	44488.90
550.34	44538.05
550.51	44868.07
550.68	44650.40
550.84	44259.53
551.01	44858.71
551.18	44385.92
551.34	44507.63
551.51	45041.27
551.68	44898.50
551.84	45081.06
552.01	44416.35
552.18	44917.22
552.34	44353.15
552.51	44779.13
552.68	45059.99
552.84	44872.75
553.01	44797.85
553.18	45481.29
553.34	44788.49
553.51	44573.16
553.67	45432.14
553.84	45352.56
554.01	45219.15
554.17	45593.64
554.34	45656.83
554.51	45038.93
554.67	45516.40
554.84	45521.08
555.00	45364.26
555.17	45151.27
555.33	45303.41
555.50	45223.83
555.67	45031.91
555.83	45453.20
556.00	45923.65
556.16	45940.04
556.33	45542.14
556.50	45610.02
556.66	45701.30
556.83	45289.37
556.99	45645.13
557.16	45624.06
557.32	45869.82
557.49	45628.74
557.65	45645.13
557.82	45638.11
557.98	45823.01
558.15	45769.18
558.32	45841.73
558.48	45521.08
558.65	45406.39
558.81	45462.57
558.98	45251.92
559.14	45530.44
559.31	45904.93
559.47	45818.33
559.64	46197.49
559.80	45851.09
559.97	45682.58
560.13	45509.38
560.30	45851.09
560.46	45752.79
560.63	46134.30
560.79	45839.39
560.96	46291.12
561.12	46150.68
561.29	45839.39
561.45	46064.08
561.61	46066.42
561.78	45940.04
561.94	45652.15
562.11	45680.24
562.27	45951.74
562.44	46401.12
562.60	46270.05
562.77	46370.69
562.93	46220.90
563.10	46438.57
563.26	45855.78
563.42	46206.86
563.59	46174.09
563.75	46043.02
563.92	46351.97
564.08	46115.58
564.24	46571.98
564.41	46368.35
564.57	46232.60
564.74	45935.35
564.90	46490.06
565.07	46539.21
565.23	46155.36
565.39	46562.62
565.56	45975.14
565.72	45832.37
565.88	46277.07
566.05	45958.76
566.21	46438.57
566.38	46286.43
566.54	46375.37
566.70	46689.01
566.87	46525.17
567.03	46667.94
567.19	46677.30
567.36	46286.43
567.52	46356.65
567.68	46548.57
567.85	46679.64
568.01	46260.69
568.17	46541.55
568.34	46209.20
568.50	46595.38
568.66	46412.82
568.83	46216.22
568.99	46024.29
569.15	46457.29
569.32	46220.90
569.48	46181.11
569.64	46663.26
569.81	46534.53
569.97	46689.01
570.13	46328.56
570.30	46256.01
570.46	46349.63
570.62	45963.44
570.78	46241.96
570.95	46064.08
571.11	46389.42
571.27	45984.51
571.43	46263.03
571.60	47007.32
571.76	46351.97
571.92	46667.94
572.09	46476.02
572.25	46794.33
572.41	46815.40
572.57	46492.40
572.74	46960.51
572.90	46784.97
573.06	46529.85
573.22	46693.69
573.38	46614.11
573.55	46674.96
573.71	46665.60
573.87	47061.15
574.03	46539.21
574.20	46387.08
574.36	46349.63
574.52	46707.73
574.68	46443.25
574.84	46602.41
575.01	46389.42
575.17	46710.07
575.33	46323.88
575.49	46047.70
575.65	46990.94
575.82	46579.00
575.98	46307.50
576.14	46993.28
576.30	46618.79
576.46	46543.89
576.62	46450.27
576.79	46656.24
576.95	46321.54
577.11	46602.41
577.27	46850.50
577.43	46389.42
577.59	46342.61
577.75	46674.96
577.92	46314.52
578.08	46450.27
578.24	46534.53
578.40	46412.82
578.56	46422.19
578.72	46588.36
578.88	46831.78
579.04	46862.21
579.21	46562.62
579.37	46670.28
579.53	46712.41
579.69	46232.60
579.85	46557.94
580.01	47084.56
580.17	46424.53
580.33	46295.80
580.49	46756.88
580.65	46904.34
580.82	46588.36
580.98	46340.27
581.14	46518.15
581.30	46801.35
581.46	46693.69
581.62	46752.20
581.78	46433.89
581.94	47089.24
582.10	46681.98
582.26	46756.88
582.42	46967.53
582.58	47180.52
582.74	46810.71
582.90	46628.15
583.06	47004.98
583.22	46595.38
583.38	46958.17
583.54	46911.36
583.70	46892.63
583.86	46831.78
584.02	47133.71
584.18	46822.42
584.34	46597.73
584.50	46768.58
584.66	46588.36
584.82	46440.91
584.98	46866.89
585.14	47058.81
585.30	46183.45
585.46	46899.65
585.62	46099.19
585.78	46452.61
585.94	46248.99
586.10	46731.14
586.26	46363.67
586.42	46909.02
586.58	46820.08
586.74	47040.09
586.90	46267.71
587.06	47002.64
587.22	46836.46
587.38	46513.47
587.54	47026.04
587.70	46890.29
587.86	46897.31
588.02	46981.57
588.18	46878.59
588.34	46799.01
588.49	46174.09
588.65	46279.41
588.81	46288.77
588.97	46927.74
589.13	46258.35
589.29	46494.74
589.45	46728.80
589.61	46459.63
589.77	46628.15
589.93	46939.44
