SpectraSuite Data File
++++++++++++++++++++++++++++++++++++
Date: Fri Oct 25 11:26:17 EDT 2013
User: price-jones
Dark Spectrum Present: No
Reference Spectrum Present: No
Number of Sampled Component Spectra: 1
Spectrometers: USB2+H05261
Integration Time (usec): 100000 (USB2+H05261)
Spectra Averaged: 1 (USB2+H05261)
Boxcar Smoothing: 0 (USB2+H05261)
Correct for Electrical Dark: No (USB2+H05261)
Strobe/Lamp Enabled: No (USB2+H05261)
Correct for Detector Non-linearity: No (USB2+H05261)
Correct for Stray Light: No (USB2+H05261)
Number of Pixels in Processed Spectrum: 2048
>>>>>Begin Processed Spectral Data<<<<<
365.73	283.20
365.92	283.20
366.12	283.20
366.32	126.39
366.52	168.52
366.72	152.13
366.91	156.82
367.11	133.41
367.31	163.84
367.51	128.73
367.70	86.60
367.90	152.13
368.10	112.35
368.30	110.01
368.49	135.75
368.69	196.60
368.89	156.82
369.09	135.75
369.28	131.07
369.48	250.44
369.68	198.95
369.87	224.69
370.07	173.20
370.27	241.08
370.47	393.21
370.66	589.82
370.86	702.16
371.06	660.03
371.25	732.59
371.45	655.35
371.65	667.05
371.84	727.91
372.04	713.86
372.24	692.80
372.44	741.95
372.63	751.31
372.83	716.20
373.03	718.54
373.22	821.53
373.42	786.42
373.62	784.08
373.81	854.30
374.01	800.46
374.21	739.61
374.40	798.12
374.60	809.83
374.79	854.30
374.99	828.55
375.19	814.51
375.38	884.72
375.58	863.66
375.78	873.02
375.97	851.96
376.17	901.11
376.37	889.40
376.56	835.57
376.76	828.55
376.95	940.90
377.15	877.70
377.35	919.83
377.54	891.74
377.74	842.59
377.93	896.43
378.13	877.70
378.33	1001.75
378.52	929.19
378.72	1029.84
378.91	894.08
379.11	922.17
379.31	943.24
379.50	894.08
379.70	961.96
379.89	912.81
380.09	929.19
380.28	1006.43
380.48	1004.09
380.68	978.34
380.87	1025.15
381.07	1004.09
381.26	978.34
381.46	1048.56
381.65	1069.62
381.85	1081.33
382.04	1116.44
382.24	1090.69
382.43	1008.77
382.63	994.73
382.83	1095.37
383.02	1032.18
383.22	1123.46
383.41	1053.24
383.61	1095.37
383.80	1135.16
384.00	1125.80
384.19	1156.22
384.39	1027.50
384.58	1149.20
384.78	1142.18
384.97	1114.10
385.17	1128.14
385.36	1109.41
385.56	1160.91
385.75	1181.97
385.95	1167.93
386.14	1181.97
386.34	1193.67
386.53	1217.08
386.72	1226.44
386.92	1331.76
387.11	1231.12
387.31	1343.47
387.50	1261.55
387.70	1263.89
387.89	1296.66
388.09	1299.00
388.28	1299.00
388.48	1296.66
388.67	1336.45
388.86	1406.66
389.06	1334.11
389.25	1315.38
389.45	1345.81
389.64	1390.28
389.84	1441.77
390.03	1401.98
390.22	1357.51
390.42	1380.92
390.61	1378.58
390.81	1451.13
391.00	1383.26
391.19	1497.94
391.39	1373.89
391.58	1430.07
391.78	1455.81
391.97	1507.30
392.16	1497.94
392.36	1603.27
392.55	1523.69
392.75	1519.01
392.94	1537.73
393.13	1556.46
393.33	1467.52
393.52	1547.09
393.71	1533.05
393.91	1519.01
394.10	1542.41
394.29	1614.97
394.49	1659.44
394.68	1647.74
394.88	1696.89
395.07	1706.25
395.26	1727.32
395.46	1640.72
395.65	1692.21
395.84	1626.67
396.04	1741.36
396.23	1694.55
396.42	1710.93
396.62	1783.49
396.81	1776.47
397.00	1760.08
397.19	1825.62
397.39	1811.57
397.58	1820.94
397.77	1743.70
397.97	1888.81
398.16	1912.22
398.35	1863.07
398.55	1811.57
398.74	1961.37
398.93	1984.77
399.12	1921.58
399.32	1851.36
399.51	1858.39
399.70	1994.14
399.90	1998.82
400.09	1902.86
400.28	2087.76
400.47	1998.82
400.67	2118.18
400.86	2036.27
401.05	2169.68
401.24	2073.71
401.44	2118.18
401.63	2190.74
401.82	2223.51
402.01	2073.71
402.21	2111.16
402.40	2186.06
402.59	2195.42
402.78	2225.85
402.97	2108.82
403.17	2197.76
403.36	2223.51
403.55	2249.25
403.74	2228.19
403.93	2340.54
404.13	2312.45
404.32	2333.51
404.51	2455.22
404.70	2495.01
404.89	2361.60
405.09	2513.74
405.28	2509.05
405.47	2443.52
405.66	2502.03
405.85	2499.69
406.05	2509.05
406.24	2518.42
406.43	2567.57
406.62	2520.76
406.81	2628.42
407.00	2525.44
407.20	2602.68
407.39	2462.24
407.58	2710.34
407.77	2647.15
407.96	2612.04
408.15	2759.49
408.34	2689.28
408.54	2715.02
408.73	2738.43
408.92	2771.19
409.11	2892.90
409.30	2935.03
409.49	2794.60
409.68	2981.84
409.87	2984.18
410.07	3038.02
410.26	2956.10
410.45	3021.63
410.64	3096.53
410.83	2958.44
411.02	2991.20
411.21	3225.26
411.40	3169.09
411.59	3152.70
411.78	3255.69
411.98	3215.90
412.17	3225.26
412.36	3321.22
412.55	3255.69
412.74	3274.41
412.93	3375.05
413.12	3417.18
413.31	3529.53
413.50	3342.28
413.69	3330.58
413.88	3555.27
414.07	3658.26
414.26	3578.68
414.45	3672.30
414.64	3653.58
414.83	3754.22
415.02	3761.24
415.22	3882.95
415.41	3777.62
415.60	3845.50
415.79	3868.91
415.98	3950.82
416.17	3826.78
416.36	3852.52
416.55	4042.11
416.74	4067.85
416.93	3988.27
417.12	4060.83
417.31	4180.20
417.50	4184.88
417.69	4280.84
417.88	4250.41
418.07	4140.41
418.26	4133.39
418.45	4224.67
418.64	4589.79
418.83	4374.46
419.02	4376.80
419.21	4528.94
419.39	4407.23
419.58	4482.13
419.77	4538.30
419.96	4542.98
420.15	4505.53
420.34	4538.30
420.53	4498.51
420.72	4657.67
420.91	4561.70
421.10	4732.56
421.29	4704.48
421.48	4638.94
421.67	4725.54
421.86	4840.23
422.05	4784.06
422.24	4807.46
422.43	4933.85
422.61	4919.81
422.80	4760.65
422.99	4858.95
423.18	4807.46
423.37	4985.34
423.56	4961.94
423.75	4889.38
423.94	4706.82
424.13	4554.68
424.32	4732.56
424.50	4849.59
424.69	4983.00
424.88	5041.51
425.07	4882.36
425.26	4961.94
425.45	4978.32
425.64	4975.98
425.83	4896.40
426.01	5076.62
426.20	5001.72
426.39	5013.43
426.58	5093.01
426.77	4910.44
426.96	5100.03
427.15	5123.43
427.33	5191.31
427.52	5062.58
427.71	5341.10
427.90	5181.95
428.09	5294.29
428.28	5399.62
428.46	5509.62
428.65	5289.61
428.84	5369.19
429.03	5526.00
429.22	5338.76
429.40	5352.81
429.59	5390.25
429.78	5324.72
429.97	5184.29
430.16	5540.05
430.34	5561.11
430.53	5640.69
430.72	5715.59
430.91	5640.69
431.10	5540.05
431.28	5734.31
431.47	5724.95
431.66	5762.40
431.85	5797.51
432.03	5865.38
432.22	6038.58
432.41	5792.83
432.60	5797.51
432.79	5888.79
432.97	5783.46
433.16	5785.80
433.35	5956.66
433.54	6270.30
433.72	6101.78
433.91	6052.63
434.10	6127.52
434.28	6113.48
434.47	6148.59
434.66	6171.99
434.85	6312.42
435.03	6272.64
435.22	6155.61
435.41	6359.24
435.59	6349.87
435.78	6424.77
435.97	6434.13
436.16	6457.54
436.34	6464.56
436.53	6392.00
436.72	6705.63
436.90	6448.18
437.09	6581.59
437.28	6443.49
437.46	6621.38
437.65	6752.45
437.84	6642.44
438.02	6817.98
438.21	6642.44
438.40	6724.36
438.58	6885.86
438.77	6972.46
438.96	6927.99
439.14	7063.74
439.33	7258.00
439.52	7124.59
439.70	7215.87
439.89	7211.19
440.08	7419.50
440.26	7452.27
440.45	7260.34
440.63	7480.35
440.82	7503.76
441.01	7463.97
441.19	7599.72
441.38	7606.74
441.57	7513.12
441.75	7648.87
441.94	7955.48
442.12	7824.41
442.31	8086.55
442.50	8046.76
442.68	7948.46
442.87	8063.15
443.05	8170.81
443.24	8149.75
443.43	7899.31
443.61	8025.70
443.80	8442.31
443.98	8102.93
444.17	7840.79
444.35	8154.43
444.54	8351.03
444.73	8390.82
444.91	8116.98
445.10	8369.76
445.28	8390.82
445.47	8226.98
445.65	8196.56
445.84	8374.44
446.02	8189.53
446.21	8435.29
446.39	8276.13
446.58	8477.42
446.77	8421.25
446.95	8301.88
447.14	8400.18
447.32	8454.02
447.51	8456.36
447.69	8353.37
447.88	8320.60
448.06	8437.63
448.25	8360.39
448.43	8585.08
448.62	8470.40
448.80	8578.06
448.99	8620.19
449.17	8531.25
449.36	8538.27
449.54	8706.79
449.73	8992.34
449.91	8842.54
450.10	8875.31
450.28	8837.86
450.46	9219.37
450.65	8905.74
450.83	9004.04
451.02	9060.21
451.20	9085.96
451.39	9029.79
451.57	9067.24
451.76	9029.79
451.94	9214.69
452.13	9160.86
452.31	9392.57
452.49	9067.24
452.68	9434.70
452.86	9174.90
453.05	9425.34
453.23	9289.59
453.42	9280.22
453.60	9266.18
453.78	9467.47
453.97	9277.88
454.15	9359.80
454.34	9589.17
454.52	9764.72
454.70	9710.88
454.89	9748.33
455.07	9853.66
455.26	9785.78
455.44	9851.31
455.62	9865.36
455.81	9614.92
455.99	9806.84
456.17	10143.88
456.36	9905.15
456.54	10265.59
456.73	10190.69
456.91	10389.64
457.09	10410.70
457.28	10607.31
457.46	10204.74
457.64	10202.40
457.83	10457.51
458.01	10195.37
458.19	10579.22
458.38	10558.16
458.56	10796.89
458.74	10532.41
458.93	10754.76
459.11	10693.91
459.29	10698.59
459.48	10647.10
459.66	10738.38
459.84	11014.56
460.03	10979.45
460.21	10988.82
460.39	10839.02
460.57	10855.40
460.76	11084.78
460.94	11236.91
461.12	11389.05
461.31	11094.14
461.49	11293.08
461.67	11059.03
461.85	11400.75
462.04	11344.58
462.22	11552.88
462.40	11740.13
462.59	11541.18
462.77	11407.77
462.95	11770.55
463.13	11524.80
463.32	11623.10
463.50	11583.31
463.68	11653.53
463.86	11618.42
464.05	11613.74
464.23	11499.05
464.41	11866.52
464.59	11463.94
464.78	12152.06
464.96	12088.87
465.14	11714.38
465.32	12285.47
465.50	12065.46
465.69	11957.80
465.87	11962.48
466.05	12037.38
466.23	12119.29
466.41	12175.47
466.60	12063.12
466.78	12229.30
466.96	12046.74
467.14	12393.14
467.32	12334.62
467.51	12353.35
467.69	11995.25
467.87	12390.80
468.05	12833.16
468.23	12259.73
468.41	12362.71
468.60	12573.36
468.78	12643.57
468.96	12631.87
469.14	12877.63
469.32	12950.18
469.50	12613.15
469.69	12931.46
469.87	12793.37
470.05	12973.59
470.23	13039.12
470.41	13055.51
470.59	13219.35
470.77	13310.63
470.95	13144.45
471.14	13240.41
471.32	12999.34
471.50	13500.21
471.68	13614.90
471.86	13591.49
472.04	13774.05
472.22	13816.18
472.40	13696.82
472.58	13905.12
472.77	13799.80
472.95	14066.62
473.13	14586.22
473.31	14204.71
473.49	13846.61
473.67	14003.43
473.85	14239.82
474.03	14532.39
474.21	14478.55
474.39	14670.48
474.57	14630.69
474.75	14789.85
474.93	14719.63
475.12	14700.90
475.30	15075.39
475.48	15033.26
475.66	15199.44
475.84	14977.09
476.02	15398.38
476.20	15295.40
476.38	15653.50
476.56	15775.21
476.74	16128.63
476.92	15840.75
477.10	15688.61
477.28	16205.87
477.46	15967.13
477.64	16163.74
477.82	16388.43
478.00	16905.69
478.18	16718.45
478.36	16313.53
478.54	17123.36
478.72	17301.24
478.90	17453.37
479.08	17436.99
479.26	17460.40
479.44	17640.62
479.62	17724.88
479.80	18015.10
479.98	17926.16
480.16	18471.51
480.34	18253.84
480.52	18504.28
480.70	18520.66
480.88	18436.40
481.06	18452.78
481.24	18747.69
481.41	18874.08
481.59	18803.86
481.77	19084.73
481.95	19286.01
482.13	19529.43
482.31	19442.83
482.49	20107.54
482.67	20231.59
482.85	20271.38
483.03	20776.94
483.21	20666.93
483.39	20905.66
483.57	20718.42
483.74	21010.99
483.92	21184.19
484.10	21055.46
484.28	21696.77
484.46	22104.02
484.64	22101.68
484.82	21853.58
485.00	22544.04
485.18	22452.76
485.35	22642.34
485.53	22724.26
485.71	23168.96
485.89	23400.68
486.07	23147.90
486.25	23213.43
486.43	23576.22
486.61	23711.97
486.78	24077.09
486.96	24177.73
487.14	24608.39
487.32	24519.45
487.50	24835.42
487.68	24919.68
487.85	25207.57
488.03	25362.04
488.21	25762.28
488.39	25626.53
488.57	26256.13
488.75	26235.06
488.92	26129.74
489.10	26347.41
489.28	26848.29
489.46	26810.84
489.64	26796.79
489.81	27683.86
489.99	27527.04
490.17	27543.42
490.35	27964.72
490.53	28158.99
490.70	28320.48
490.88	28182.39
491.06	28634.11
491.24	28432.83
491.41	29359.68
491.59	28903.28
491.77	29507.13
491.95	28999.24
492.13	29755.23
492.30	29696.72
492.48	29797.36
492.66	30047.80
492.84	30036.09
493.01	30677.40
493.19	30345.05
493.37	30579.10
493.54	30834.22
493.72	31087.00
493.90	31339.77
494.08	31658.09
494.25	32006.83
494.43	32072.36
494.61	32170.66
494.79	32437.48
494.96	32194.07
495.14	32776.86
495.32	32968.79
495.49	32989.85
495.67	33001.55
495.85	33310.50
496.02	33467.32
496.20	33567.96
496.38	33949.47
496.55	34103.95
496.73	34218.63
496.91	34597.80
497.09	34934.84
497.26	34646.95
497.44	34752.27
497.62	35306.98
497.79	35512.95
497.97	35115.06
498.14	35969.35
498.32	35971.69
498.50	36184.68
498.67	36383.63
498.85	36327.45
499.03	36638.75
499.20	36624.70
499.38	36966.42
499.56	36938.33
499.73	36552.15
499.91	37322.18
500.08	37551.56
500.26	37242.60
500.44	37425.17
500.61	37820.72
500.79	37752.84
500.97	37975.19
501.14	38410.53
501.32	38611.82
501.49	38249.03
501.67	38693.74
501.84	38796.72
502.02	38438.62
502.20	39248.44
502.37	39096.31
502.55	39002.69
502.72	39218.02
502.90	39271.85
503.07	39194.61
503.25	39484.84
503.43	39512.92
503.60	39927.20
503.78	40320.41
503.95	40163.59
504.13	40456.16
504.30	40423.39
504.48	40624.68
504.65	40748.73
504.83	40919.59
505.01	41060.02
505.18	40552.12
505.36	41357.27
505.53	41399.40
505.71	41457.91
505.88	41799.63
506.06	41570.25
506.23	41471.95
506.41	41593.66
506.58	41556.21
506.76	41982.19
506.93	42253.69
507.11	41745.80
507.28	42375.40
507.46	43110.33
507.63	42389.44
507.81	43281.19
507.98	42986.28
508.16	43070.54
508.33	43702.48
508.50	43459.07
508.68	43302.25
508.85	43805.47
509.03	43629.93
509.20	43910.79
509.38	44383.58
509.55	44105.06
509.73	44109.74
509.90	44257.19
510.08	44414.01
510.25	44732.32
510.42	44505.29
510.60	44842.32
510.77	45170.00
510.95	44973.39
511.12	45034.25
511.30	44985.10
511.47	45118.51
511.64	45212.13
511.82	45900.25
511.99	45507.04
512.17	45794.92
512.34	45769.18
512.51	46270.05
512.69	46340.27
512.86	46164.73
513.04	46115.58
513.21	46256.01
513.38	46218.56
513.56	46667.94
513.73	46564.96
513.90	46782.63
514.08	46890.29
514.25	46602.41
514.43	46972.21
514.60	47356.06
514.77	47206.26
514.95	47519.90
515.12	47313.93
515.29	47313.93
515.47	47711.82
515.64	48065.24
515.81	47466.06
515.99	48072.26
516.16	48212.70
516.33	48236.10
516.51	48500.58
516.68	48196.31
516.85	48493.56
517.03	48711.23
517.20	48767.40
517.37	48186.95
517.54	48877.41
517.72	48758.04
517.89	49144.23
518.06	49216.78
518.24	48966.35
518.41	49277.64
518.58	48708.89
518.75	48772.08
518.93	49579.57
519.10	49167.63
519.27	49930.65
519.45	49263.60
519.62	49483.61
519.79	49514.03
519.96	50024.27
520.14	50085.12
520.31	49708.30
520.48	50403.44
520.65	50045.33
520.83	50485.36
521.00	50475.99
521.17	50609.40
521.34	50546.21
521.52	50483.01
521.69	50356.63
521.86	50859.84
522.03	51227.31
522.20	51021.34
522.38	51409.87
522.55	51278.80
522.72	50684.30
522.89	51194.54
523.07	51393.48
523.24	51578.39
523.41	51554.98
523.58	51044.74
523.75	51557.32
523.92	51433.27
524.10	51791.37
524.27	51653.28
524.44	51709.46
524.61	51948.19
524.78	51999.68
524.96	51945.85
525.13	51906.06
525.30	52367.15
525.47	52161.18
525.64	52226.71
525.81	52463.11
525.98	52296.93
526.16	52261.82
526.33	52591.84
526.50	52905.47
526.67	52708.86
526.84	52779.08
527.01	52872.70
527.18	52638.65
527.36	52711.20
527.53	52711.20
527.70	53167.61
527.87	53279.96
528.04	53078.67
528.21	53113.78
528.38	52919.51
528.55	53605.29
528.72	53315.06
528.89	53172.29
529.07	53247.19
529.24	53532.73
529.41	53340.81
529.58	53399.32
529.75	53677.85
529.92	53771.47
530.09	53673.16
530.26	53841.68
530.43	54108.50
530.60	53712.95
530.77	53621.67
530.94	53741.04
531.11	53773.81
531.28	53694.23
531.46	54064.03
531.63	54323.83
531.80	54031.27
531.97	54148.29
532.14	54143.61
532.31	54190.42
532.48	54424.48
532.65	54515.76
532.82	54602.36
532.99	54735.77
533.16	54218.51
533.33	54646.83
533.50	54768.54
533.67	54859.82
533.84	54485.33
534.01	54560.23
534.18	54993.23
534.35	54932.37
534.52	54824.71
534.69	54885.56
534.86	55173.45
535.03	54808.32
535.20	55016.63
535.37	55117.28
535.54	55437.93
535.71	55203.88
535.88	55217.92
536.05	55437.93
536.22	55421.55
536.38	55482.40
536.55	55295.16
536.72	55468.36
536.89	55435.59
537.06	55407.50
537.23	55620.49
537.40	55391.12
537.57	55676.66
537.74	55454.31
537.91	55763.26
538.08	55756.24
538.25	55744.54
538.42	55845.18
538.59	56074.55
538.75	55653.26
538.92	56065.19
539.09	55938.80
539.26	55943.48
539.43	55955.19
539.60	56109.66
539.77	56196.26
539.94	56250.09
540.11	56133.07
540.28	56165.84
540.44	56308.61
540.61	56294.56
540.78	56212.65
540.95	56224.35
541.12	56495.85
541.29	56034.77
541.46	56355.42
541.62	56367.12
541.79	56570.75
541.96	56317.97
542.13	56559.05
542.30	56442.02
542.47	56704.16
542.63	56818.84
542.80	56832.89
542.97	57078.64
543.14	56961.62
543.31	56926.51
543.48	56928.85
543.64	57212.06
543.81	57371.21
543.98	57284.61
544.15	57155.88
544.32	57088.01
544.48	57432.07
544.65	57378.23
544.82	57167.58
544.99	57209.71
545.16	57322.06
545.32	57158.22
545.49	57394.62
545.66	57631.01
545.83	57614.63
546.00	57605.26
546.16	57570.16
546.33	57312.70
546.50	57366.53
546.67	57581.86
546.83	57483.56
547.00	57769.10
547.17	57722.29
547.34	57565.48
547.50	57965.71
547.67	57904.85
547.84	57806.55
548.00	58066.35
548.17	58150.61
548.34	57925.92
548.51	57982.09
548.67	58330.83
548.84	58068.69
549.01	57825.28
549.18	58064.01
549.34	58003.16
549.51	58258.27
549.68	58239.55
549.84	58096.78
550.01	58326.15
550.18	57972.73
550.34	58330.83
550.51	58307.43
550.68	58042.95
550.84	58066.35
551.01	58295.72
551.18	58045.29
551.34	58365.94
551.51	58265.30
551.68	58574.25
551.84	58473.60
552.01	58209.12
552.18	58417.43
552.34	58504.03
552.51	58850.43
552.68	58293.38
552.84	58452.54
553.01	58688.93
553.18	58747.45
553.34	58717.02
553.51	58536.80
553.67	58845.75
553.84	58946.39
554.01	58820.00
554.17	58714.68
554.34	59065.76
554.51	58752.13
554.67	59035.33
554.84	58925.33
555.00	58845.75
555.17	58862.13
555.33	59028.31
555.50	58665.53
555.67	58817.66
555.83	58784.90
556.00	59065.76
556.16	59208.53
556.33	59175.76
556.50	59040.01
556.66	59192.15
556.83	59002.56
556.99	59355.99
557.16	59566.63
557.32	59381.73
557.49	59517.48
557.65	59194.49
557.82	59271.73
557.98	59290.45
558.15	59449.61
558.32	59421.52
558.48	59339.60
558.65	59323.22
558.81	59444.93
558.98	59330.24
559.14	59213.21
559.31	59386.41
559.47	59557.27
559.64	59627.49
559.80	59320.88
559.97	59545.57
560.13	59419.18
560.30	59671.96
560.46	59737.49
560.63	59611.10
560.79	59599.40
560.96	59650.89
561.12	59688.34
561.29	59660.26
561.45	59796.01
561.61	59681.32
561.78	59473.01
561.94	59611.10
562.11	59758.56
562.27	59826.43
562.44	60009.00
562.60	59976.23
562.77	59999.63
562.93	59718.77
563.10	59840.48
563.26	59601.74
563.42	60051.12
563.59	59891.97
563.75	59985.59
563.92	59877.93
564.08	59735.15
564.24	60065.17
564.41	59903.67
564.57	59798.35
564.74	59973.89
564.90	59948.14
565.07	59976.23
565.23	59973.89
565.39	60016.02
565.56	60214.96
565.72	60013.68
565.88	60198.58
566.05	59884.95
566.21	59866.22
566.38	60062.83
566.54	60196.24
566.70	60245.39
566.87	60217.30
567.03	59845.16
567.19	60076.87
567.36	59915.37
567.52	60444.33
567.68	60467.74
567.85	60074.53
568.01	60203.26
568.17	60236.03
568.34	60346.03
568.50	60231.35
568.66	60156.45
568.83	60147.09
568.99	60313.26
569.15	60406.89
569.32	60282.84
569.48	60287.52
569.64	60331.99
569.81	60203.26
569.97	60179.85
570.13	60460.72
570.30	60165.81
570.46	60233.69
570.62	60273.48
570.78	60287.52
570.95	60306.24
571.11	60292.20
571.27	60207.94
571.43	60313.26
571.60	60322.63
571.76	60425.61
571.92	60481.78
572.09	60547.32
572.25	60360.08
572.41	60257.09
572.57	60514.55
572.74	60556.68
572.90	60402.21
573.06	60505.19
573.22	60327.31
573.38	60486.46
573.55	60498.17
573.71	60739.24
573.87	60680.73
574.03	60416.25
574.20	60523.91
574.36	60470.08
574.52	60533.28
574.68	60711.16
574.84	60715.84
575.01	60582.43
575.17	60584.77
575.33	60566.04
575.49	60434.97
575.65	60612.85
575.82	60795.42
575.98	60757.97
576.14	60605.83
576.30	60781.37
576.46	60544.98
576.62	60739.24
576.79	60598.81
576.95	60542.64
577.11	60720.52
577.27	60823.50
577.43	60516.89
577.59	60659.66
577.75	60488.80
577.92	60566.04
578.08	60566.04
578.24	60757.97
578.40	60783.71
578.56	60980.32
578.72	60729.88
578.88	61010.74
579.04	60907.76
579.21	60774.35
579.37	60985.00
579.53	60746.26
579.69	60605.83
579.85	60645.62
580.01	60692.43
580.17	60706.47
580.33	60694.77
580.49	60865.63
580.65	60809.46
580.82	60626.90
580.98	60596.47
581.14	60603.49
581.30	61083.30
581.46	60704.13
581.62	60870.31
581.78	60566.04
581.94	60867.97
582.10	60804.78
582.26	60746.26
582.42	60748.60
582.58	60828.18
582.74	60741.58
582.90	60851.59
583.06	60896.06
583.22	60589.45
583.38	60699.45
583.54	60858.61
583.70	60910.10
583.86	60989.68
584.02	60708.82
584.18	61013.08
584.34	60764.99
584.50	60734.56
584.66	60786.05
584.82	60767.33
584.98	60928.83
585.14	60736.90
585.30	60781.37
585.46	60961.59
585.62	60928.83
585.78	60940.53
585.94	60547.32
586.10	60994.36
586.26	60846.91
586.42	60882.02
586.58	60928.83
586.74	60931.17
586.90	60746.26
587.06	60893.72
587.22	60954.57
587.38	60769.67
587.54	61179.26
587.70	61268.20
587.86	61139.47
588.02	60762.65
588.18	60989.68
588.34	60865.63
588.49	60797.76
