SpectraSuite Data File
++++++++++++++++++++++++++++++++++++
Date: Fri Oct 25 11:25:18 EDT 2013
User: price-jones
Dark Spectrum Present: No
Reference Spectrum Present: No
Number of Sampled Component Spectra: 1
Spectrometers: USB2+H05261
Integration Time (usec): 100000 (USB2+H05261)
Spectra Averaged: 1 (USB2+H05261)
Boxcar Smoothing: 0 (USB2+H05261)
Correct for Electrical Dark: No (USB2+H05261)
Strobe/Lamp Enabled: No (USB2+H05261)
Correct for Detector Non-linearity: No (USB2+H05261)
Correct for Stray Light: No (USB2+H05261)
Number of Pixels in Processed Spectrum: 2048
>>>>>Begin Processed Spectral Data<<<<<
365.73	255.12
365.92	255.12
366.12	255.12
366.32	182.56
366.52	142.77
366.72	112.35
366.91	145.11
367.11	154.48
367.31	180.22
367.51	112.35
367.70	44.47
367.90	126.39
368.10	65.54
368.30	220.01
368.49	121.71
368.69	159.16
368.89	110.01
369.09	149.79
369.28	142.77
369.48	180.22
369.68	191.92
369.87	252.78
370.07	177.88
370.27	224.69
370.47	369.80
370.66	557.05
370.86	624.92
371.06	671.73
371.25	674.07
371.45	690.46
371.65	688.12
371.84	655.35
372.04	734.93
372.24	667.05
372.44	671.73
372.63	706.84
372.83	779.40
373.03	753.65
373.22	758.33
373.42	746.63
373.62	788.76
373.81	821.53
374.01	798.12
374.21	856.64
374.40	767.70
374.60	844.93
374.79	863.66
374.99	755.99
375.19	741.95
375.38	751.31
375.58	744.29
375.78	940.90
375.97	844.93
376.17	812.17
376.37	856.64
376.56	856.64
376.76	880.04
376.95	823.87
377.15	807.48
377.35	844.93
377.54	868.34
377.74	861.32
377.93	858.98
378.13	922.17
378.33	952.60
378.52	952.60
378.72	936.21
378.91	938.55
379.11	938.55
379.31	980.68
379.50	880.04
379.70	1008.77
379.89	940.90
380.09	908.13
380.28	964.30
380.48	980.68
380.68	990.05
380.87	994.73
381.07	1039.20
381.26	987.71
381.46	971.32
381.65	1013.45
381.85	1022.81
382.04	976.00
382.24	1130.48
382.43	1029.84
382.63	1097.71
382.83	1025.15
383.02	1004.09
383.22	1139.84
383.41	1093.03
383.61	1100.05
383.80	1174.95
384.00	1090.69
384.19	1060.26
384.39	1144.52
384.58	1231.12
384.78	1163.25
384.97	1179.63
385.17	1057.92
385.36	1207.72
385.56	1151.54
385.75	1097.71
385.95	1107.07
386.14	1207.72
386.34	1158.57
386.53	1165.59
386.72	1132.82
386.92	1289.64
387.11	1291.98
387.31	1259.21
387.50	1247.51
387.70	1289.64
387.89	1266.23
388.09	1268.57
388.28	1165.59
388.48	1252.19
388.67	1261.55
388.86	1268.57
389.06	1184.31
389.25	1411.34
389.45	1401.98
389.64	1277.93
389.84	1338.79
390.03	1306.02
390.22	1369.21
390.42	1362.19
390.61	1343.47
390.81	1378.58
391.00	1327.08
391.19	1500.28
391.39	1334.11
391.58	1495.60
391.78	1399.64
391.97	1551.78
392.16	1526.03
392.36	1551.78
392.55	1465.18
392.75	1479.22
392.94	1462.83
393.13	1565.82
393.33	1488.58
393.52	1535.39
393.71	1563.48
393.91	1610.29
394.10	1533.05
394.29	1570.50
394.49	1664.12
394.68	1631.35
394.88	1600.93
395.07	1680.50
395.26	1661.78
395.46	1568.16
395.65	1734.34
395.84	1666.46
396.04	1802.21
396.23	1764.76
396.42	1734.34
396.62	1715.61
396.81	1692.21
397.00	1706.25
397.19	1790.51
397.39	1818.60
397.58	1912.22
397.77	1778.81
397.97	1949.67
398.16	1781.15
398.35	1893.49
398.55	1856.04
398.74	1834.98
398.93	2064.35
399.12	1921.58
399.32	1877.11
399.51	1935.62
399.70	1956.69
399.90	1928.60
400.09	1989.46
400.28	1994.14
400.47	2047.97
400.67	2062.01
400.86	1975.41
401.05	2052.65
401.24	2125.21
401.44	2076.06
401.63	2111.16
401.82	2115.84
402.01	2064.35
402.21	2050.31
402.40	2214.15
402.59	2303.09
402.78	2153.29
402.97	2209.47
403.17	2293.72
403.36	2300.75
403.55	2230.53
403.74	2324.15
403.93	2291.38
404.13	2394.37
404.32	2335.85
404.51	2335.85
404.70	2385.01
404.89	2342.88
405.09	2466.92
405.28	2464.58
405.47	2455.22
405.66	2469.27
405.85	2579.27
406.05	2560.55
406.24	2483.31
406.43	2422.45
406.62	2455.22
406.81	2539.48
407.00	2623.74
407.20	2600.34
407.39	2649.49
407.58	2572.25
407.77	2745.45
407.96	2693.96
408.15	2677.57
408.34	2740.77
408.54	2818.00
408.73	2768.85
408.92	2813.32
409.11	2993.55
409.30	2815.66
409.49	2897.58
409.68	2946.73
409.87	2984.18
410.07	3028.65
410.26	2836.73
410.45	2951.42
410.64	2946.73
410.83	2970.14
411.02	3009.93
411.21	3199.51
411.40	3162.06
411.59	3222.92
411.78	3166.74
411.98	3213.56
412.17	3190.15
412.36	3265.05
412.55	3318.88
412.74	3344.63
412.93	3391.44
413.12	3346.97
413.31	3510.80
413.50	3417.18
413.69	3426.54
413.88	3480.38
414.07	3595.06
414.26	3576.34
414.45	3517.83
414.64	3576.34
414.83	3691.02
415.02	3686.34
415.22	3896.99
415.41	3911.04
415.60	3786.99
415.79	3854.86
415.98	4021.04
416.17	3882.95
416.36	3857.20
416.55	4004.66
416.74	4086.58
416.93	4023.38
417.12	4180.20
417.31	4205.94
417.50	4294.88
417.69	4395.53
417.88	4311.27
418.07	4065.51
418.26	4358.08
418.45	4189.56
418.64	4533.62
418.83	4372.12
419.02	4362.76
419.21	4573.41
419.39	4540.64
419.58	4533.62
419.77	4449.36
419.96	4442.34
420.15	4484.47
420.34	4498.51
420.53	4430.63
420.72	4538.30
420.91	4704.48
421.10	4564.04
421.29	4617.88
421.48	4664.69
421.67	4737.24
421.86	4748.95
422.05	4746.61
422.24	4737.24
422.43	4830.87
422.61	4933.85
422.80	4889.38
422.99	4861.29
423.18	4966.62
423.37	4971.30
423.56	4940.87
423.75	4828.53
423.94	4741.93
424.13	4521.92
424.32	4617.88
424.50	5062.58
424.69	5100.03
424.88	5008.75
425.07	4933.85
425.26	4851.93
425.45	4835.55
425.64	4929.17
425.83	4830.87
426.01	4926.83
426.20	5128.11
426.39	4959.60
426.58	4985.34
426.77	5011.09
426.96	5048.54
427.15	5048.54
427.33	5174.92
427.52	5074.28
427.71	5275.57
427.90	5200.67
428.09	5357.49
428.28	5418.34
428.46	5423.02
428.65	5383.23
428.84	5404.30
429.03	5334.08
429.22	5404.30
429.40	5458.13
429.59	5408.98
429.78	5275.57
429.97	5317.70
430.16	5521.32
430.34	5458.13
430.53	5598.56
430.72	5434.72
430.91	5598.56
431.10	5614.95
431.28	5652.39
431.47	5837.30
431.66	5755.38
431.85	5650.05
432.03	5867.72
432.22	5823.25
432.41	5788.14
432.60	5973.05
432.79	5891.13
432.97	5935.60
433.16	5940.28
433.35	5970.71
433.54	6162.63
433.72	6204.76
433.91	5919.21
434.10	6143.91
434.28	6120.50
434.47	6183.70
434.66	6045.60
434.85	6150.93
435.03	6249.23
435.22	6080.71
435.41	6155.61
435.59	6235.19
435.78	6490.31
435.97	6487.96
436.16	6368.60
436.34	6394.34
436.53	6375.62
436.72	6565.20
436.90	6420.09
437.09	6616.69
437.28	6469.24
437.46	6583.93
437.65	6614.35
437.84	6523.07
438.02	6665.85
438.21	6850.75
438.40	6544.14
438.58	6895.22
438.77	6970.12
438.96	6759.47
439.14	7185.44
439.33	7026.29
439.52	7122.25
439.70	7119.91
439.89	7337.58
440.08	7220.55
440.26	7339.92
440.45	7138.63
440.63	7316.51
440.82	7688.66
441.01	7569.29
441.19	7538.87
441.38	7627.81
441.57	7611.42
441.75	7599.72
441.94	7840.79
442.12	7840.79
442.31	7934.42
442.50	7955.48
442.68	7927.39
442.87	7992.93
443.05	8131.02
443.24	8241.03
443.43	8004.63
443.61	8018.68
443.80	8418.91
443.98	7918.03
444.17	7889.95
444.35	7960.16
444.54	8421.25
444.73	8346.35
444.91	8271.45
445.10	8226.98
445.28	8100.59
445.47	8133.36
445.65	8379.12
445.84	8531.25
446.02	8280.82
446.21	8271.45
446.39	8276.13
446.58	8437.63
446.77	8446.99
446.95	8039.74
447.14	8290.18
447.32	8353.37
447.51	8535.93
447.69	8320.60
447.88	8561.68
448.06	8468.06
448.25	8589.77
448.43	8454.02
448.62	8678.71
448.80	8381.46
448.99	8461.04
449.17	8706.79
449.36	8374.44
449.54	8662.32
449.73	8730.20
449.91	9053.19
450.10	8856.59
450.28	9097.66
450.46	8936.17
450.65	9018.08
450.83	9055.53
451.02	9008.72
451.20	9160.86
451.39	9142.13
451.57	9100.00
451.76	9011.06
451.94	9158.52
452.13	9334.06
452.31	9327.03
452.49	8887.01
452.68	9287.25
452.86	9310.65
453.05	9465.13
453.23	9605.56
453.42	9263.84
453.60	9263.84
453.78	9661.73
453.97	9301.29
454.15	9507.26
454.34	9268.52
454.52	9479.17
454.70	9792.80
454.89	9525.98
455.07	9558.75
455.26	9729.61
455.44	9881.74
455.62	9884.08
455.81	9921.53
455.99	9900.47
456.17	9963.66
456.36	10078.35
456.54	10186.01
456.73	10132.18
456.91	10258.57
457.09	10260.91
457.28	10471.56
457.46	10387.30
457.64	10455.17
457.83	10251.55
458.01	10242.18
458.19	10729.02
458.38	10523.05
458.56	10850.72
458.74	10553.48
458.93	10506.66
459.11	10626.03
459.29	10630.71
459.48	10846.04
459.66	10895.19
459.84	10906.90
460.03	11215.85
460.21	10920.94
460.39	11028.60
460.57	11012.22
460.76	11014.56
460.94	11143.29
461.12	10993.50
461.31	11143.29
461.49	11066.05
461.67	10942.00
461.85	11487.35
462.04	11353.94
462.22	11655.87
462.40	11428.84
462.59	11365.64
462.77	11431.18
462.95	11456.92
463.13	11410.11
463.32	11576.29
463.50	11756.51
463.68	11758.85
463.86	11885.24
464.05	11627.78
464.23	11590.33
464.41	12079.50
464.59	11538.84
464.78	11936.73
464.96	11655.87
465.14	11595.01
465.32	11798.64
465.50	12203.55
465.69	12198.87
465.87	11957.80
466.05	11967.16
466.23	12269.09
466.41	12222.28
466.60	12498.46
466.78	12123.98
466.96	12182.49
467.14	12152.06
467.32	12250.36
467.51	12308.88
467.69	12123.98
467.87	12432.93
468.05	12458.67
468.23	12163.76
468.41	12290.15
468.60	12573.36
468.78	12533.57
468.96	12432.93
469.14	12578.04
469.32	12805.07
469.50	12395.48
469.69	12856.56
469.87	12826.14
470.05	13081.25
470.23	12957.21
470.41	13160.83
470.59	13376.16
470.77	12905.71
470.95	13151.47
471.14	13446.38
471.32	13004.02
471.50	13465.10
471.68	13565.74
471.86	13338.71
472.04	13612.56
472.22	13970.66
472.40	13476.80
472.58	13661.71
472.77	14005.77
472.95	14155.56
473.13	14480.89
473.31	14169.60
473.49	13951.93
473.67	13881.72
473.85	13928.53
474.03	14427.06
474.21	14520.68
474.39	14670.48
474.57	14469.19
474.75	14778.14
474.93	14743.03
475.12	15110.50
475.30	14986.45
475.48	15042.62
475.66	15133.90
475.84	14984.11
476.02	15225.18
476.20	15372.64
476.38	15538.82
476.56	16032.67
476.74	15962.45
476.92	15653.50
477.10	15735.42
477.28	16177.78
477.46	16035.01
477.64	16173.10
477.82	16334.60
478.00	16971.22
478.18	16418.86
478.36	16774.62
478.54	16996.97
478.72	16863.56
478.90	16961.86
479.08	17242.73
479.26	17432.31
479.44	17385.50
479.62	17633.60
479.80	17806.80
479.98	17872.33
480.16	18391.93
480.34	18195.32
480.52	18427.04
480.70	18466.83
480.88	18038.51
481.06	18441.08
481.24	18705.56
481.41	18838.97
481.59	19260.27
481.77	19442.83
481.95	19332.82
482.13	19374.95
482.31	19442.83
482.49	20042.01
482.67	19878.17
482.85	20294.79
483.03	20676.29
483.21	20816.72
483.39	20671.61
483.57	20673.95
483.74	21043.76
483.92	20922.05
484.10	20980.56
484.28	21619.53
484.46	21792.73
484.64	21743.58
484.82	21785.71
485.00	21963.59
485.18	22490.21
485.35	22895.12
485.53	22572.13
485.71	22593.19
485.89	23190.03
486.07	23145.56
486.25	22822.56
486.43	23564.51
486.61	23693.24
486.78	23810.27
486.96	23847.72
487.14	24615.41
487.32	24280.72
487.50	24592.01
487.68	24423.49
487.85	24886.92
488.03	25261.40
488.21	25436.94
488.39	25759.94
488.57	25493.12
488.75	26225.70
488.92	26494.86
489.10	26363.79
489.28	26726.58
489.46	26920.84
489.64	26611.89
489.81	27304.69
489.99	27218.09
490.17	27552.79
490.35	27428.74
490.53	28072.39
490.70	28013.87
490.88	28084.09
491.06	28510.07
491.24	28692.63
491.41	28840.08
491.59	28987.53
491.77	29301.17
491.95	29544.58
492.13	29577.35
492.30	29715.44
492.48	29802.04
492.66	29591.39
492.84	29923.75
493.01	30433.99
493.19	30316.96
493.37	30852.94
493.54	31049.55
493.72	30998.06
493.90	31150.19
494.08	31218.07
494.25	31639.36
494.43	31768.09
494.61	32395.35
494.79	32437.48
494.96	32135.56
495.14	32638.77
495.32	32840.06
495.49	32929.00
495.67	32921.98
495.85	33118.58
496.02	33163.05
496.20	33947.13
496.38	33741.16
496.55	34232.68
496.73	34562.69
496.91	34169.48
497.09	34464.39
497.26	34794.40
497.44	34665.67
497.62	35150.17
497.79	35269.53
497.97	35304.64
498.14	35587.85
498.32	35662.74
498.50	35887.43
498.67	36037.23
498.85	36062.97
499.03	36615.34
499.20	36423.42
499.38	36816.63
499.56	36882.16
499.73	36687.90
499.91	37027.28
500.08	37319.84
500.26	36926.63
500.44	37476.66
500.61	37612.41
500.79	37331.54
500.97	37668.58
501.14	38342.66
501.32	38565.01
501.49	37956.47
501.67	38176.48
501.84	38534.58
502.02	38506.49
502.20	38440.96
502.37	38824.81
502.55	38576.71
502.72	38934.81
502.90	39218.02
503.07	39519.95
503.25	39234.40
503.43	39515.26
503.60	39653.36
503.78	39622.93
503.95	40025.50
504.13	40278.28
504.30	40472.54
504.48	40088.70
504.65	40102.74
504.83	40737.02
505.01	41144.28
505.18	40924.27
505.36	41137.26
505.53	41017.89
505.71	41291.73
505.88	41317.48
506.06	41460.25
506.23	41633.45
506.41	41509.40
506.58	42089.85
506.76	41764.52
506.93	42057.09
507.11	41940.06
507.28	42567.32
507.46	42071.13
507.63	42557.96
507.81	43217.99
507.98	42433.91
508.16	42302.84
508.33	43189.91
508.50	43173.52
508.68	42777.97
508.85	43833.55
509.03	43608.86
509.20	43320.98
509.38	43819.51
509.55	44067.61
509.73	44083.99
509.90	43901.43
510.08	43871.00
510.25	44156.55
510.42	44456.14
510.60	45134.89
510.77	45144.25
510.95	45050.63
511.12	44355.49
511.30	45174.68
511.47	45172.34
511.64	45539.80
511.82	45750.45
511.99	45340.86
512.17	45694.28
512.34	45467.25
512.51	45652.15
512.69	46328.56
512.86	45993.87
513.04	46616.45
513.21	46567.30
513.38	46410.48
513.56	46529.85
513.73	46148.34
513.90	46583.68
514.08	46316.86
514.25	46822.42
514.43	47030.72
514.60	46773.27
514.77	46902.00
514.95	47412.23
515.12	47065.83
515.29	47028.38
515.47	47445.00
515.64	47545.64
515.81	47576.07
515.99	47880.34
516.16	47880.34
516.33	47903.74
516.51	48311.00
516.68	48378.87
516.85	48353.13
517.03	48273.55
517.20	48540.37
517.37	48231.42
517.54	48168.22
517.72	48758.04
517.89	48903.15
518.06	48865.70
518.24	49027.20
518.41	48947.62
518.58	48797.83
518.75	48987.41
518.93	49256.57
519.10	49392.33
519.27	49731.70
519.45	49270.62
519.62	49610.00
519.79	49507.01
519.96	49687.23
520.14	50270.03
520.31	49771.49
520.48	50089.80
520.65	50021.93
520.83	50646.85
521.00	50370.67
521.17	50094.49
521.34	49991.50
521.52	50358.97
521.69	50600.04
521.86	50527.48
522.03	50862.18
522.20	51145.39
522.38	51250.71
522.55	51082.19
522.72	50798.99
522.89	51386.46
523.07	51306.88
523.24	51426.25
523.41	51515.19
523.58	50960.48
523.75	51606.47
523.92	51360.72
524.10	51758.61
524.27	52072.24
524.44	51819.46
524.61	51784.35
524.78	52069.90
524.96	51948.19
525.13	52360.12
525.30	52177.56
525.47	52189.27
525.64	52086.28
525.81	51969.26
525.98	52446.72
526.16	52116.71
526.33	52264.16
526.50	52521.62
526.67	52547.37
526.84	52776.74
527.01	52622.26
527.18	52739.29
527.36	52680.78
527.53	52587.16
527.70	52835.25
527.87	52989.73
528.04	53022.50
528.21	53010.79
528.38	53083.35
528.55	53404.00
528.72	53008.45
528.89	53265.91
529.07	53240.17
529.24	53247.19
529.41	53235.48
529.58	53504.65
529.75	53230.80
529.92	53464.86
530.09	53675.51
530.26	53556.14
530.43	53675.51
530.60	53495.28
530.77	53778.49
530.94	54000.84
531.11	53640.40
531.28	53928.28
531.46	53965.73
531.63	54082.76
531.80	54148.29
531.97	54021.90
532.14	54281.70
532.31	54234.89
532.48	54185.74
532.65	54602.36
532.82	54026.59
532.99	54616.40
533.16	54258.30
533.33	54607.04
533.50	54876.20
533.67	54569.59
533.84	54487.67
534.01	54468.95
534.18	54482.99
534.35	55192.17
534.52	54731.09
534.69	54967.48
534.86	55098.55
535.03	54628.10
535.20	55058.76
535.37	55236.64
535.54	55025.99
535.71	55018.97
535.88	55391.12
536.05	55267.07
536.22	55421.55
536.38	55161.75
536.55	55421.55
536.72	55309.20
536.89	55086.85
537.06	55723.47
537.23	55615.81
537.40	55150.04
537.57	55550.27
537.74	55781.99
537.91	55760.92
538.08	55906.04
538.25	55585.38
538.42	55889.65
538.59	55760.92
538.75	55786.67
538.92	55772.63
539.09	56020.72
539.26	56041.79
539.43	55674.32
539.60	56013.70
539.77	55899.01
539.94	56409.25
540.11	55903.70
540.28	56229.03
540.44	56093.28
540.61	56121.37
540.78	56130.73
540.95	56467.76
541.12	56268.82
541.29	56413.93
541.46	56044.13
541.62	56416.27
541.79	56605.86
541.96	56310.95
542.13	56275.84
542.30	56381.16
542.47	56376.48
542.63	56697.14
542.80	56896.08
542.97	56875.02
543.14	57158.22
543.31	56987.36
543.48	57062.26
543.64	57308.02
543.81	57319.72
543.98	57090.35
544.15	57158.22
544.32	57162.90
544.48	57214.40
544.65	57324.40
544.82	57230.78
544.99	57064.60
545.16	57336.10
545.32	57357.17
545.49	57497.60
545.66	57457.81
545.83	57326.74
546.00	57277.59
546.16	57399.30
546.33	57474.20
546.50	57209.71
546.67	57385.25
546.83	57216.74
547.00	57694.21
547.17	57567.82
547.34	57602.92
547.50	57780.81
547.67	57904.85
547.84	57642.71
548.00	58080.39
548.17	57975.07
548.34	57808.89
548.51	57954.00
548.67	58066.35
548.84	57794.85
549.01	57883.79
549.18	57654.42
549.34	58073.37
549.51	58131.89
549.68	58089.76
549.84	58059.33
550.01	58354.24
550.18	58066.35
550.34	58211.46
550.51	58340.19
550.68	58403.39
550.84	58166.99
551.01	58457.22
551.18	58223.17
551.34	58272.32
551.51	58412.75
551.68	58333.17
551.84	58384.66
552.01	58223.17
552.18	58396.37
552.34	58417.43
552.51	58515.73
552.68	58288.70
552.84	58590.63
553.01	58761.49
553.18	58745.11
553.34	58784.90
553.51	58667.87
553.67	58553.18
553.84	58567.23
554.01	58728.72
554.17	58761.49
554.34	58831.71
554.51	58700.64
554.67	58775.53
554.84	58625.74
555.00	58721.70
555.17	58710.00
555.33	58754.47
555.50	58822.34
555.67	58717.02
555.83	58726.38
556.00	58885.54
556.16	59173.42
556.33	59100.87
556.50	59068.10
556.66	59117.25
556.83	58845.75
556.99	59068.10
557.16	59381.73
557.32	59454.29
557.49	59510.46
557.65	58972.14
557.82	59276.41
557.98	59152.36
558.15	59395.77
558.32	59393.43
558.48	59182.79
558.65	59264.70
558.81	59325.56
558.98	59323.22
559.14	59611.10
559.31	59372.37
559.47	59339.60
559.64	59540.89
559.80	59292.79
559.97	59606.42
560.13	59636.85
560.30	59564.29
560.46	59526.84
560.63	59559.61
560.79	59559.61
560.96	59697.70
561.12	59524.50
561.29	59678.98
561.45	59620.47
561.61	59320.88
561.78	59524.50
561.94	59547.91
562.11	59622.81
562.27	59606.42
562.44	59934.10
562.60	59924.74
562.77	59966.87
562.93	59599.40
563.10	59700.04
563.26	59585.36
563.42	59842.82
563.59	59714.09
563.75	59863.88
563.92	59702.38
564.08	59653.23
564.24	59896.65
564.41	59910.69
564.57	59861.54
564.74	59917.71
564.90	59994.95
565.07	59817.07
565.23	59887.29
565.39	60135.38
565.56	60016.02
565.72	59994.95
565.88	60154.11
566.05	60027.72
566.21	59929.42
566.38	60011.34
566.54	59887.29
566.70	60271.14
566.87	60280.50
567.03	60018.36
567.19	60313.26
567.36	59922.40
567.52	59976.23
567.68	60198.58
567.85	60259.43
568.01	60231.35
568.17	60163.47
568.34	60236.03
568.50	59992.61
568.66	60198.58
568.83	60376.46
568.99	60144.75
569.15	60214.96
569.32	60348.37
569.48	60193.90
569.64	60243.05
569.81	60257.09
569.97	60172.83
570.13	60247.73
570.30	60060.49
570.46	60287.52
570.62	60418.59
570.78	60231.35
570.95	60243.05
571.11	60357.74
571.27	60299.22
571.43	60343.69
571.60	60498.17
571.76	60315.61
571.92	60458.38
572.09	60451.36
572.25	60441.99
572.41	60507.53
572.57	60399.86
572.74	60460.72
572.90	60486.46
573.06	60472.42
573.22	60418.59
573.38	60495.83
573.55	60479.44
573.71	60500.51
573.87	60441.99
574.03	60336.67
574.20	60449.02
574.36	60516.89
574.52	60727.54
574.68	60488.80
574.84	60690.09
575.01	60526.25
575.17	60509.87
575.33	60582.43
575.49	60481.78
575.65	60591.79
575.82	60739.24
575.98	60530.93
576.14	60669.03
576.30	60638.60
576.46	60772.01
576.62	60636.26
576.79	60509.87
576.95	60392.84
577.11	60793.07
577.27	60542.64
577.43	60575.40
577.59	60481.78
577.75	60570.72
577.92	60542.64
578.08	60631.58
578.24	60718.18
578.40	60760.31
578.56	60711.16
578.72	60509.87
578.88	60715.84
579.04	60835.20
579.21	60537.96
579.37	60860.95
579.53	60673.71
579.69	60463.06
579.85	60685.41
580.01	60617.53
580.17	60488.80
580.33	60809.46
580.49	60851.59
580.65	60769.67
580.82	60683.07
580.98	60374.12
581.14	60554.34
581.30	60762.65
581.46	60690.09
581.62	60767.33
581.78	60814.14
581.94	60769.67
582.10	60652.64
582.26	60734.56
582.42	60575.40
582.58	60753.29
582.74	60825.84
582.90	60713.50
583.06	60662.00
583.22	60486.46
583.38	60786.05
583.54	60708.82
583.70	60846.91
583.86	60612.85
584.02	60704.13
584.18	60825.84
584.34	60940.53
584.50	60823.50
584.66	60783.71
584.82	60685.41
584.98	60996.70
585.14	61095.00
585.30	60825.84
585.46	60797.76
585.62	60825.84
585.78	61146.50
585.94	60685.41
586.10	60949.89
586.26	60924.14
586.42	60947.55
586.58	60921.80
586.74	60825.84
586.90	60889.04
587.06	60851.59
587.22	60907.76
587.38	60842.23
587.54	61048.19
587.70	60910.10
587.86	60835.20
588.02	60933.51
588.18	61006.06
588.34	60818.82
588.49	61015.43
