SpectraSuite Data File
++++++++++++++++++++++++++++++++++++
Date: Fri Oct 25 11:25:40 EDT 2013
User: price-jones
Dark Spectrum Present: No
Reference Spectrum Present: No
Number of Sampled Component Spectra: 1
Spectrometers: USB2+H05261
Integration Time (usec): 100000 (USB2+H05261)
Spectra Averaged: 1 (USB2+H05261)
Boxcar Smoothing: 0 (USB2+H05261)
Correct for Electrical Dark: No (USB2+H05261)
Strobe/Lamp Enabled: No (USB2+H05261)
Correct for Detector Non-linearity: No (USB2+H05261)
Correct for Stray Light: No (USB2+H05261)
Number of Pixels in Processed Spectrum: 2048
>>>>>Begin Processed Spectral Data<<<<<
365.73	241.08
365.92	241.08
366.12	241.08
366.32	156.82
366.52	161.50
366.72	140.43
366.91	203.63
367.11	152.13
367.31	166.18
367.51	79.58
367.70	121.71
367.90	126.39
368.10	133.41
368.30	88.94
368.49	198.95
368.69	168.52
368.89	163.84
369.09	170.86
369.28	156.82
369.48	93.62
369.68	110.01
369.87	266.82
370.07	198.95
370.27	208.31
370.47	259.80
370.66	564.07
370.86	636.63
371.06	678.76
371.25	692.80
371.45	667.05
371.65	699.82
371.84	603.86
372.04	685.78
372.24	765.36
372.44	634.29
372.63	685.78
372.83	744.29
373.03	777.06
373.22	706.84
373.42	765.36
373.62	788.76
373.81	772.38
374.01	760.67
374.21	777.06
374.40	802.80
374.60	896.43
374.79	795.78
374.99	837.91
375.19	837.91
375.38	849.61
375.58	842.59
375.78	875.36
375.97	858.98
376.17	901.11
376.37	880.04
376.56	884.72
376.76	842.59
376.95	933.87
377.15	844.93
377.35	933.87
377.54	943.24
377.74	931.53
377.93	798.12
378.13	814.51
378.33	826.21
378.52	903.45
378.72	887.06
378.91	908.13
379.11	922.17
379.31	922.17
379.50	968.98
379.70	990.05
379.89	1034.52
380.09	966.64
380.28	952.60
380.48	992.39
380.68	987.71
380.87	950.26
381.07	1046.22
381.26	971.32
381.46	1018.13
381.65	987.71
381.85	1090.69
382.04	1064.94
382.24	1011.11
382.43	945.58
382.63	1043.88
382.83	1123.46
383.02	1083.67
383.22	1083.67
383.41	1076.65
383.61	1149.20
383.80	1125.80
384.00	1043.88
384.19	1083.67
384.39	1069.62
384.58	1144.52
384.78	1203.04
384.97	1235.80
385.17	1165.59
385.36	1191.33
385.56	1064.94
385.75	1153.88
385.95	1212.40
386.14	1118.78
386.34	1165.59
386.53	1275.59
386.72	1188.99
386.92	1259.21
387.11	1219.42
387.31	1174.95
387.50	1118.78
387.70	1259.21
387.89	1299.00
388.09	1259.21
388.28	1282.61
388.48	1373.89
388.67	1322.40
388.86	1359.85
389.06	1299.00
389.25	1291.98
389.45	1320.06
389.64	1327.08
389.84	1413.68
390.03	1359.85
390.22	1430.07
390.42	1336.45
390.61	1345.81
390.81	1348.15
391.00	1329.42
391.19	1439.43
391.39	1441.77
391.58	1460.49
391.78	1425.39
391.97	1540.07
392.16	1390.28
392.36	1540.07
392.55	1526.03
392.75	1619.65
392.94	1542.41
393.13	1547.09
393.33	1481.56
393.52	1507.30
393.71	1572.84
393.91	1579.86
394.10	1636.03
394.29	1556.46
394.49	1542.41
394.68	1547.09
394.88	1558.80
395.07	1629.01
395.26	1586.88
395.46	1708.59
395.65	1732.00
395.84	1645.40
396.04	1874.77
396.23	1750.72
396.42	1809.23
396.62	1827.96
396.81	1741.36
397.00	1755.40
397.19	1788.17
397.39	1832.64
397.58	1762.42
397.77	1799.87
397.97	1790.51
398.16	1797.53
398.35	1916.90
398.55	1757.74
398.74	1739.02
398.93	2045.63
399.12	1996.48
399.32	2003.50
399.51	1881.79
399.70	1977.75
399.90	1996.48
400.09	2050.31
400.28	2005.84
400.47	2029.24
400.67	1912.22
400.86	2076.06
401.05	2115.84
401.24	2129.89
401.44	2036.27
401.63	2022.22
401.82	2008.18
402.01	2244.57
402.21	2005.84
402.40	2090.10
402.59	2209.47
402.78	2148.61
402.97	2186.06
403.17	2190.74
403.36	2225.85
403.55	2256.28
403.74	2462.24
403.93	2202.44
404.13	2335.85
404.32	2340.54
404.51	2356.92
404.70	2373.30
404.89	2370.96
405.09	2497.35
405.28	2403.73
405.47	2462.24
405.66	2525.44
405.85	2471.61
406.05	2537.14
406.24	2553.52
406.43	2537.14
406.62	2715.02
406.81	2649.49
407.00	2640.12
407.20	2668.21
407.39	2607.36
407.58	2635.44
407.77	2722.04
407.96	2693.96
408.15	2668.21
408.34	2722.04
408.54	2722.04
408.73	2860.13
408.92	2888.22
409.11	2733.75
409.30	2930.35
409.49	2878.86
409.68	2897.58
409.87	2839.07
410.07	2970.14
410.26	3112.91
410.45	2874.18
410.64	3021.63
410.83	2995.89
411.02	2988.86
411.21	3136.32
411.40	3033.33
411.59	3190.15
411.78	3363.35
411.98	3162.06
412.17	3091.85
412.36	3197.17
412.55	3403.14
412.74	3325.90
412.93	3309.52
413.12	3290.79
413.31	3466.33
413.50	3400.80
413.69	3506.12
413.88	3599.74
414.07	3578.68
414.26	3653.58
414.45	3548.25
414.64	3625.49
414.83	3538.89
415.02	3772.94
415.22	3765.92
415.41	3838.48
415.60	3803.37
415.79	3880.61
415.98	3892.31
416.17	3911.04
416.36	3796.35
416.55	3974.23
416.74	4007.00
416.93	3981.25
417.12	4070.19
417.31	4142.75
417.50	4084.23
417.69	4238.71
417.88	4147.43
418.07	4264.46
418.26	4252.75
418.45	4294.88
418.64	4365.10
418.83	4334.67
419.02	4369.78
419.21	4503.19
419.39	4386.16
419.58	4514.89
419.77	4339.35
419.96	4585.11
420.15	4498.51
420.34	4606.17
420.53	4645.96
420.72	4645.96
420.91	4784.06
421.10	4734.90
421.29	4807.46
421.48	4582.77
421.67	4835.55
421.86	4753.63
422.05	4821.50
422.24	4697.46
422.43	4849.59
422.61	4788.74
422.80	4894.06
422.99	4826.18
423.18	4994.70
423.37	5039.17
423.56	4896.40
423.75	4812.14
423.94	4819.16
424.13	4484.47
424.32	4748.95
424.50	5029.81
424.69	5050.88
424.88	5100.03
425.07	4926.83
425.26	4968.96
425.45	4910.44
425.64	4847.25
425.83	4947.89
426.01	5114.07
426.20	5069.60
426.39	5109.39
426.58	4966.62
426.77	4987.68
426.96	5057.90
427.15	4997.04
427.33	5116.41
427.52	5174.92
427.71	5298.97
427.90	5198.33
428.09	5280.25
428.28	5376.21
428.46	5324.72
428.65	5303.65
428.84	5430.04
429.03	5500.26
429.22	5362.17
429.40	5476.85
429.59	5444.09
429.78	5310.68
429.97	5219.39
430.16	5530.69
430.34	5572.82
430.53	5802.19
430.72	5692.18
430.91	5612.60
431.10	5544.73
431.28	5804.53
431.47	5605.58
431.66	5863.04
431.85	5757.72
432.03	5832.62
432.22	5940.28
432.41	5930.92
432.60	5942.62
432.79	5858.36
432.97	5905.17
433.16	6017.52
433.35	5879.43
433.54	5944.96
433.72	6153.27
433.91	6111.14
434.10	6066.67
434.28	6026.88
434.47	6312.42
434.66	6272.64
434.85	6387.32
435.03	6298.38
435.22	6087.73
435.41	6441.15
435.59	6340.51
435.78	6256.25
435.97	6494.99
436.16	6319.45
436.34	6265.61
436.53	6429.45
436.72	6745.42
436.90	6375.62
437.09	6565.20
437.28	6251.57
437.46	6588.61
437.65	6466.90
437.84	6707.98
438.02	6700.95
438.21	6757.13
438.40	6520.73
438.58	6839.05
438.77	6918.62
438.96	6841.39
439.14	6960.75
439.33	7002.88
439.52	7152.68
439.70	7157.36
439.89	7192.47
440.08	7199.49
440.26	7316.51
440.45	7140.97
440.63	7424.18
440.82	7632.49
441.01	7550.57
441.19	7492.05
441.38	7557.59
441.57	7768.24
441.75	7665.25
441.94	7988.25
442.12	7641.85
442.31	7990.59
442.50	7901.65
442.68	7943.78
442.87	7843.14
443.05	7962.50
443.24	8142.72
443.43	8072.51
443.61	8093.57
443.80	8393.16
443.98	8046.76
444.17	7770.58
444.35	8032.72
444.54	8313.58
444.73	8334.65
444.91	8262.09
445.10	8205.92
445.28	8243.37
445.47	8248.05
445.65	8264.43
445.84	8423.59
446.02	8404.86
446.21	8456.36
446.39	8372.10
446.58	8283.16
446.77	8407.20
446.95	8271.45
447.14	8421.25
447.32	8425.93
447.51	8325.29
447.69	8395.50
447.88	8505.51
448.06	8564.02
448.25	8428.27
448.43	8627.21
448.62	8465.72
448.80	8517.21
448.99	8631.90
449.17	8622.53
449.36	8519.55
449.54	8814.46
449.73	8819.14
449.91	8732.54
450.10	8879.99
450.28	9100.00
450.46	9046.17
450.65	8847.22
450.83	9048.51
451.02	9078.94
451.20	9387.89
451.39	9149.15
451.57	9263.84
451.76	9233.41
451.94	9132.77
452.13	9331.72
452.31	9240.44
452.49	9097.66
452.68	9310.65
452.86	9219.37
453.05	9284.91
453.23	9181.92
453.42	9334.06
453.60	9338.74
453.78	9458.10
453.97	9345.76
454.15	9263.84
454.34	9376.19
454.52	9610.24
454.70	9635.99
454.89	9551.73
455.07	9493.21
455.26	9720.24
455.44	9762.37
455.62	9886.42
455.81	9633.64
455.99	9844.29
456.17	9970.68
456.36	10122.82
456.54	10104.09
456.73	9937.91
456.91	10349.85
457.09	10415.38
457.28	10366.23
457.46	10328.78
457.64	10537.09
457.83	10195.37
458.01	10277.29
458.19	10614.33
458.38	10457.51
458.56	10637.73
458.74	10555.82
458.93	10516.03
459.11	10789.87
459.29	10677.52
459.48	10923.28
459.66	10686.89
459.84	11084.78
460.03	11122.23
460.21	11023.92
460.39	10970.09
460.57	10724.33
460.76	11016.90
460.94	10860.09
461.12	11143.29
461.31	11227.55
461.49	11234.57
461.67	11145.63
461.85	11337.56
462.04	11321.17
462.22	11683.95
462.40	11391.39
462.59	11428.84
462.77	11552.88
462.95	11630.12
463.13	11611.40
463.32	11641.82
463.50	11648.85
463.68	11651.19
463.86	11726.08
464.05	11590.33
464.23	11501.39
464.41	11756.51
464.59	11695.66
464.78	12098.23
464.96	11913.33
465.14	11833.75
465.32	11810.34
465.50	12091.21
465.69	12114.61
465.87	12077.16
466.05	12116.95
466.23	12123.98
466.41	12184.83
466.60	12285.47
466.78	12058.44
466.96	12266.75
467.14	12109.93
467.32	12318.24
467.51	12383.77
467.69	12123.98
467.87	12381.43
468.05	12442.29
468.23	12402.50
468.41	12561.66
468.60	12725.49
468.78	12798.05
468.96	12355.69
469.14	12774.64
469.32	12861.24
469.50	12554.63
469.69	12849.54
469.87	12884.65
470.05	12905.71
470.23	13057.85
470.41	13231.05
470.59	13233.39
470.77	13345.73
470.95	13343.39
471.14	13638.30
471.32	13193.60
471.50	13437.02
471.68	13411.27
471.86	13507.23
472.04	13687.45
472.22	13834.91
472.40	13509.57
472.58	13827.88
472.77	13989.38
472.95	14188.33
473.13	14335.78
473.31	13701.50
473.49	14312.38
473.67	13984.70
473.85	14167.26
474.03	14214.07
474.21	14487.92
474.39	14658.78
474.57	14539.41
474.75	14726.65
474.93	15023.90
475.12	14949.00
475.30	14939.64
475.48	15040.28
475.66	15082.41
475.84	15087.09
476.02	15229.87
476.20	15417.11
476.38	15541.16
476.56	15927.35
476.74	16020.97
476.92	15726.06
477.10	15590.31
477.28	15882.88
477.46	16112.25
477.64	16212.89
477.82	16325.24
478.00	16898.67
478.18	16737.17
478.36	16854.20
478.54	16734.83
478.72	16893.99
478.90	17193.58
479.08	17532.95
479.26	17123.36
479.44	17479.12
479.62	17493.16
479.80	18164.90
479.98	18284.26
480.16	18611.94
480.34	18265.54
480.52	18513.64
480.70	18279.58
480.88	18125.11
481.06	18586.19
481.24	18719.60
481.41	18843.65
481.59	19147.92
481.77	19405.38
481.95	19274.31
482.13	19810.29
482.31	19534.11
482.49	20144.99
482.67	20273.72
482.85	20332.23
483.03	20250.32
483.21	20561.61
483.39	20713.74
483.57	20475.01
483.74	21270.79
483.92	21109.29
484.10	21083.55
484.28	21345.69
484.46	21806.77
484.64	21923.80
484.82	21734.21
485.00	22253.81
485.18	22632.98
485.35	22955.97
485.53	22684.47
485.71	22869.37
485.89	23068.32
486.07	23115.13
486.25	23496.64
486.43	23468.55
486.61	23723.67
486.78	23690.90
486.96	24098.16
487.14	24650.52
487.32	24287.74
487.50	24491.37
487.68	24936.07
487.85	24975.86
488.03	25127.99
488.21	25792.70
488.39	25628.87
488.57	26101.65
488.75	26080.59
488.92	26286.56
489.10	26654.02
489.28	26293.58
489.46	26939.57
489.64	26597.85
489.81	27679.18
489.99	27267.24
490.17	27545.76
490.35	27840.67
490.53	28212.82
490.70	28070.04
490.88	28189.41
491.06	28678.58
491.24	28428.15
491.41	28973.49
491.59	28898.59
491.77	28741.78
491.95	29411.17
492.13	29900.34
492.30	29853.53
492.48	29876.94
492.66	29820.77
492.84	30071.20
493.01	30639.95
493.19	30555.69
493.37	30543.99
493.54	31143.17
493.72	31154.87
493.90	31054.23
494.08	31622.98
494.25	31409.99
494.43	31688.51
494.61	32013.85
494.79	32217.47
494.96	32240.88
495.14	32041.93
495.32	33120.92
495.49	33259.01
495.67	33083.47
495.85	33549.24
496.02	33434.55
496.20	34005.64
496.38	33830.10
496.55	34197.57
496.73	34450.35
496.91	34089.90
497.09	34635.25
497.26	34600.14
497.44	34593.12
497.62	34986.33
497.79	35613.59
497.97	35377.20
498.14	35435.71
498.32	35789.13
498.50	36123.83
498.67	36149.57
498.85	36062.97
499.03	36428.10
499.20	36369.58
499.38	36395.33
499.56	36811.95
499.73	36781.52
499.91	36783.86
500.08	37095.15
500.26	37095.15
500.44	37453.25
500.61	37694.33
500.79	37631.13
500.97	37792.63
501.14	38326.27
501.32	38281.80
501.49	38246.69
501.67	38909.07
501.84	38550.96
502.02	38429.26
502.20	38672.67
502.37	38918.43
502.55	39243.76
502.72	39232.06
502.90	39189.93
503.07	39402.92
503.25	39466.11
503.43	39522.29
503.60	39632.29
503.78	39959.97
503.95	39981.03
504.13	40697.24
504.30	40013.80
504.48	40329.77
504.65	40364.88
504.83	40507.65
505.01	40940.65
505.18	41038.95
505.36	41591.32
505.53	41069.38
505.71	41853.46
505.88	41507.06
506.06	40854.05
506.23	41823.03
506.41	41439.18
506.58	42075.81
506.76	42192.84
506.93	42354.33
507.11	41942.40
507.28	42223.26
507.46	42389.44
507.63	42555.62
507.81	42951.17
507.98	42799.04
508.16	42843.51
508.33	43428.64
508.50	42944.15
508.68	42944.15
508.85	43503.54
509.03	43498.86
509.20	43803.13
509.38	43639.29
509.55	44172.93
509.73	44247.83
509.90	44046.54
510.08	44280.60
510.25	44383.58
510.42	44582.52
510.60	44671.46
510.77	44577.84
510.95	45413.41
511.12	44971.05
511.30	44755.72
511.47	45113.83
511.64	44926.58
511.82	45436.82
511.99	45230.85
512.17	45904.93
512.34	45748.11
512.51	46127.28
512.69	45645.13
512.86	46230.26
513.04	46347.29
513.21	46387.08
513.38	46595.38
513.56	46588.36
513.73	46604.75
513.90	46630.49
514.08	46527.51
514.25	46838.80
514.43	47257.76
514.60	47414.57
514.77	46997.96
514.95	47262.44
515.12	46691.35
515.29	47271.80
515.47	47550.32
515.64	48107.37
515.81	47576.07
515.99	48034.81
516.16	47943.53
516.33	47983.32
516.51	48570.80
516.68	47980.98
516.85	48556.75
517.03	48327.38
517.20	48807.19
517.37	48608.25
517.54	48814.21
517.72	48858.68
517.89	48767.40
518.06	48973.37
518.24	48683.14
518.41	48966.35
518.58	49095.08
518.75	49099.76
518.93	49296.36
519.10	49116.14
519.27	49539.78
519.45	49333.81
519.62	49635.74
519.79	49963.42
519.96	49860.43
520.14	49965.76
520.31	49633.40
520.48	50054.70
520.65	49888.52
520.83	50611.74
521.00	50611.74
521.17	50005.55
521.34	50532.17
521.52	50794.31
521.69	50527.48
521.86	50770.90
522.03	50684.30
522.20	50784.94
522.38	51096.24
522.55	51054.11
522.72	51318.59
522.89	51068.15
523.07	51529.23
523.24	51236.67
523.41	51615.83
523.58	51309.22
523.75	51592.43
523.92	51344.33
524.10	51643.92
524.27	51604.13
524.44	51936.49
524.61	51959.89
524.78	52233.74
524.96	51896.70
525.13	51838.18
525.30	52032.45
525.47	52196.29
525.64	52076.92
525.81	52523.96
525.98	52371.83
526.16	52252.46
526.33	52266.50
526.50	53127.82
526.67	52816.53
526.84	52961.64
527.01	52760.36
527.18	52765.04
527.36	52816.53
527.53	52781.42
527.70	52903.13
527.87	53389.96
528.04	52963.98
528.21	53132.50
528.38	53118.46
528.55	53429.75
528.72	53106.76
528.89	53308.04
529.07	53380.60
529.24	52966.32
529.41	53619.33
529.58	53528.05
529.75	53499.97
529.92	53422.73
530.09	53521.03
530.26	53855.73
530.43	53790.19
530.60	53628.69
530.77	53729.34
530.94	54068.72
531.11	53773.81
531.28	53954.03
531.46	53818.28
531.63	54152.97
531.80	54211.49
531.97	54382.35
532.14	54361.28
532.31	54183.40
532.48	54183.40
532.65	54302.77
532.82	54223.19
532.99	54405.75
533.16	54525.12
533.33	54571.93
533.50	54805.98
533.67	54738.11
533.84	54611.72
534.01	54649.17
534.18	54595.34
534.35	54986.21
534.52	54827.05
534.69	55213.24
534.86	55030.68
535.03	54805.98
535.20	55182.81
535.37	55384.10
535.54	55384.10
535.71	55110.25
535.88	55159.41
536.05	55161.75
536.22	55477.72
536.38	55482.40
536.55	55533.89
536.72	55466.02
536.89	55365.37
537.06	55304.52
537.23	55695.39
537.40	55466.02
537.57	55538.57
537.74	55475.38
537.91	55732.84
538.08	55774.97
538.25	55313.88
538.42	55634.53
538.59	56170.52
538.75	55735.18
538.92	55770.28
539.09	56030.08
539.26	55707.09
539.43	55861.57
539.60	56104.98
539.77	55955.19
539.94	56165.84
540.11	56055.83
540.28	56030.08
540.44	56051.15
540.61	56301.59
540.78	56097.96
540.95	56236.05
541.12	56133.07
541.29	56353.08
541.46	56547.34
541.62	56395.21
541.79	56526.28
541.96	56144.77
542.13	56456.06
542.30	56324.99
542.47	56706.50
542.63	56725.22
542.80	56645.65
542.97	56701.82
543.14	56996.73
543.31	57148.86
543.48	56933.53
543.64	57251.84
543.81	57343.12
543.98	57305.68
544.15	57308.02
544.32	57347.81
544.48	57343.12
544.65	57130.14
544.82	57350.15
544.99	57162.90
545.16	57205.03
545.32	57106.73
545.49	57516.32
545.66	57441.43
545.83	57378.23
546.00	57560.79
546.16	57570.16
546.33	57319.72
546.50	57097.37
546.67	57443.77
546.83	57277.59
547.00	57488.24
547.17	57375.89
547.34	57586.54
547.50	57822.93
547.67	57984.43
547.84	57879.11
548.00	57841.66
548.17	57996.13
548.34	57897.83
548.51	58223.17
548.67	58136.57
548.84	58033.58
549.01	58005.50
549.18	58061.67
549.34	58150.61
549.51	58227.85
549.68	58047.63
549.84	58141.25
550.01	58096.78
550.18	57991.45
550.34	58192.74
550.51	58457.22
550.68	58333.17
550.84	58110.82
551.01	58536.80
551.18	58394.03
551.34	58319.13
551.51	58284.02
551.68	58480.63
551.84	58258.27
552.01	58372.96
552.18	58529.78
552.34	58225.51
552.51	58478.28
552.68	58237.21
552.84	58546.16
553.01	58749.79
553.18	58475.94
553.34	58639.78
553.51	58625.74
553.67	58665.53
553.84	58913.62
554.01	58702.98
554.17	58691.27
554.34	58878.52
554.51	58922.99
554.67	59061.08
554.84	58756.81
555.00	58850.43
555.17	58864.47
555.33	58866.81
555.50	58688.93
555.67	58904.26
555.83	58972.14
556.00	59032.99
556.16	59274.07
556.33	59054.06
556.50	59093.85
556.66	59154.70
556.83	58831.71
556.99	59231.94
557.16	59297.47
557.32	59196.83
557.49	59456.63
557.65	59100.87
557.82	59285.77
557.98	59135.98
558.15	59236.62
558.32	59316.20
558.48	59196.83
558.65	59395.77
558.81	59409.82
558.98	59372.37
559.14	59320.88
559.31	59288.11
559.47	59386.41
559.64	59428.54
559.80	59510.46
559.97	59707.07
560.13	59302.15
560.30	59592.38
560.46	59543.23
560.63	59821.75
560.79	59796.01
560.96	59861.54
561.12	59576.00
561.29	59749.20
561.45	59716.43
561.61	59597.06
561.78	59655.57
561.94	59669.62
562.11	59664.94
562.27	59721.11
562.44	59807.71
562.60	59798.35
562.77	59810.05
562.93	59519.82
563.10	59929.42
563.26	59805.37
563.42	60060.49
563.59	59891.97
563.75	59767.92
563.92	59786.64
564.08	59894.31
564.24	60081.55
564.41	59943.46
564.57	60107.30
564.74	59786.64
564.90	60111.98
565.07	59873.24
565.23	59760.90
565.39	59779.62
565.56	60135.38
565.72	59957.50
565.88	60104.96
566.05	60067.51
566.21	59934.10
566.38	60154.11
566.54	60095.60
566.70	60149.43
566.87	60151.77
567.03	60032.40
567.19	60236.03
567.36	60058.15
567.52	60041.76
567.68	60261.77
567.85	60243.05
568.01	60168.15
568.17	60339.01
568.34	60362.42
568.50	60184.54
568.66	60243.05
568.83	60402.21
568.99	60058.15
569.15	60116.66
569.32	60149.43
569.48	60058.15
569.64	60252.41
569.81	60331.99
569.97	60271.14
570.13	60229.01
570.30	60348.37
570.46	60250.07
570.62	60191.56
570.78	60240.71
570.95	60294.54
571.11	60385.82
571.27	60151.77
571.43	60486.46
571.60	60402.21
571.76	60369.44
571.92	60329.65
572.09	60355.39
572.25	60336.67
572.41	60416.25
572.57	60257.09
572.74	60519.23
572.90	60392.84
573.06	60505.19
573.22	60467.74
573.38	60577.75
573.55	60554.34
573.71	60764.99
573.87	60566.04
574.03	60392.84
574.20	60537.96
574.36	60367.10
574.52	60561.36
574.68	60563.70
574.84	60596.47
575.01	60657.32
575.17	60495.83
575.33	60362.42
575.49	60395.18
575.65	60568.38
575.82	60685.41
575.98	60566.04
576.14	60774.35
576.30	60666.69
576.46	60713.50
576.62	60556.68
576.79	60727.54
576.95	60619.88
577.11	60591.79
577.27	60533.28
577.43	60643.28
577.59	60535.62
577.75	60477.10
577.92	60544.98
578.08	60636.26
578.24	60842.23
578.40	60928.83
578.56	60699.45
578.72	60711.16
578.88	60858.61
579.04	60772.01
579.21	60697.11
579.37	60786.05
579.53	60956.91
579.69	60526.25
579.85	60470.08
580.01	60694.77
580.17	60582.43
580.33	60736.90
580.49	60949.89
580.65	60811.80
580.82	60444.33
580.98	60741.58
581.14	60530.93
581.30	60769.67
581.46	60671.37
581.62	60729.88
581.78	60638.60
581.94	60753.29
582.10	60800.10
582.26	60685.41
582.42	60949.89
582.58	60549.66
582.74	60708.82
582.90	60821.16
583.06	60757.97
583.22	60591.79
583.38	60790.73
583.54	60657.32
583.70	60839.89
583.86	60856.27
584.02	60701.79
584.18	60949.89
584.34	60732.22
584.50	60802.44
584.66	60645.62
584.82	60570.72
584.98	60935.85
585.14	60879.67
585.30	60692.43
585.46	60858.61
585.62	60893.72
585.78	60919.46
585.94	60790.73
586.10	60846.91
586.26	60823.50
586.42	60963.93
586.58	60828.18
586.74	60825.84
586.90	60858.61
587.06	60858.61
587.22	60963.93
587.38	60945.21
587.54	60994.36
587.70	61202.67
587.86	61073.94
588.02	60846.91
588.18	61151.18
588.34	60790.73
588.49	60828.18
