SpectraSuite Data File
++++++++++++++++++++++++++++++++++++
Date: Fri Oct 25 11:22:49 EDT 2013
User: price-jones
Dark Spectrum Present: No
Reference Spectrum Present: No
Number of Sampled Component Spectra: 1
Spectrometers: USB2+H05261
Integration Time (usec): 100000 (USB2+H05261)
Spectra Averaged: 1 (USB2+H05261)
Boxcar Smoothing: 0 (USB2+H05261)
Correct for Electrical Dark: No (USB2+H05261)
Strobe/Lamp Enabled: No (USB2+H05261)
Correct for Detector Non-linearity: No (USB2+H05261)
Correct for Stray Light: No (USB2+H05261)
Number of Pixels in Processed Spectrum: 2048
>>>>>Begin Processed Spectral Data<<<<<
365.73	294.91
365.92	294.91
366.12	294.91
366.32	187.24
366.52	135.75
366.72	166.18
366.91	112.35
367.11	60.85
367.31	105.32
367.51	102.98
367.70	163.84
367.90	159.16
368.10	124.05
368.30	60.85
368.49	126.39
368.69	135.75
368.89	161.50
369.09	189.58
369.28	149.79
369.48	168.52
369.68	189.58
369.87	241.08
370.07	133.41
370.27	238.73
370.47	236.39
370.66	599.18
370.86	660.03
371.06	613.22
371.25	650.67
371.45	592.16
371.65	627.26
371.84	692.80
372.04	660.03
372.24	713.86
372.44	706.84
372.63	744.29
372.83	744.29
373.03	800.46
373.22	744.29
373.42	753.65
373.62	772.38
373.81	706.84
374.01	833.23
374.21	781.74
374.40	819.19
374.60	755.99
374.79	868.34
374.99	880.04
375.19	772.38
375.38	936.21
375.58	849.61
375.78	805.14
375.97	779.40
376.17	896.43
376.37	868.34
376.56	901.11
376.76	819.19
376.95	889.40
377.15	873.02
377.35	788.76
377.54	978.34
377.74	912.81
377.93	931.53
378.13	837.91
378.33	940.90
378.52	903.45
378.72	922.17
378.91	1022.81
379.11	929.19
379.31	891.74
379.50	863.66
379.70	990.05
379.89	999.41
380.09	926.85
380.28	945.58
380.48	915.15
380.68	1006.43
380.87	1006.43
381.07	1015.79
381.26	999.41
381.46	994.73
381.65	1015.79
381.85	1034.52
382.04	1011.11
382.24	1006.43
382.43	1029.84
382.63	1039.20
382.83	1093.03
383.02	1167.93
383.22	1130.48
383.41	1158.57
383.61	1114.10
383.80	1221.76
384.00	1102.39
384.19	1111.75
384.39	1151.54
384.58	1198.35
384.78	1100.05
384.97	1160.91
385.17	1268.57
385.36	1153.88
385.56	1221.76
385.75	1095.37
385.95	1165.59
386.14	1221.76
386.34	1128.14
386.53	1170.27
386.72	1146.86
386.92	1226.44
387.11	1226.44
387.31	1296.66
387.50	1210.06
387.70	1240.48
387.89	1259.21
388.09	1359.85
388.28	1259.21
388.48	1277.93
388.67	1303.68
388.86	1303.68
389.06	1317.72
389.25	1359.85
389.45	1331.76
389.64	1336.45
389.84	1387.94
390.03	1320.06
390.22	1441.77
390.42	1362.19
390.61	1268.57
390.81	1390.28
391.00	1451.13
391.19	1453.47
391.39	1446.45
391.58	1448.79
391.78	1439.43
391.97	1394.96
392.16	1488.58
392.36	1439.43
392.55	1547.09
392.75	1462.83
392.94	1514.33
393.13	1535.39
393.33	1418.36
393.52	1540.07
393.71	1551.78
393.91	1633.69
394.10	1556.46
394.29	1544.75
394.49	1668.80
394.68	1650.08
394.88	1664.12
395.07	1736.68
395.26	1624.33
395.46	1717.95
395.65	1724.97
395.84	1748.38
396.04	1846.68
396.23	1844.34
396.42	1771.79
396.62	1811.57
396.81	1820.94
397.00	1760.08
397.19	1722.63
397.39	1839.66
397.58	1813.92
397.77	1806.89
397.97	1926.26
398.16	1797.53
398.35	1966.05
398.55	1884.13
398.74	2015.20
398.93	2040.95
399.12	1879.45
399.32	1867.75
399.51	2008.18
399.70	2052.65
399.90	1823.28
400.09	2099.46
400.28	2078.40
400.47	1973.07
400.67	2059.67
400.86	2087.76
401.05	2136.91
401.24	2057.33
401.44	2120.53
401.63	2085.42
401.82	2153.29
402.01	2263.30
402.21	2209.47
402.40	2296.07
402.59	2190.74
402.78	2258.62
402.97	2167.34
403.17	2331.17
403.36	2246.91
403.55	2267.98
403.74	2284.36
403.93	2452.88
404.13	2303.09
404.32	2312.45
404.51	2417.77
404.70	2466.92
404.89	2445.86
405.09	2499.69
405.28	2480.97
405.47	2476.29
405.66	2516.08
405.85	2553.52
406.05	2513.74
406.24	2485.65
406.43	2457.56
406.62	2612.04
406.81	2651.83
407.00	2712.68
407.20	2602.68
407.39	2656.51
407.58	2677.57
407.77	2764.17
407.96	2759.49
408.15	2778.22
408.34	2736.09
408.54	2801.62
408.73	2722.04
408.92	2918.65
409.11	2841.41
409.30	2888.22
409.49	2881.20
409.68	2998.23
409.87	2916.31
410.07	2984.18
410.26	3028.65
410.45	2916.31
410.64	3063.76
410.83	3040.36
411.02	3012.27
411.21	3297.81
411.40	3157.38
411.59	3218.24
411.78	3119.93
411.98	3145.68
412.17	3227.60
412.36	3328.24
412.55	3368.03
412.74	3524.85
412.93	3419.52
413.12	3384.41
413.31	3609.11
413.50	3515.48
413.69	3574.00
413.88	3669.96
414.07	3564.64
414.26	3653.58
414.45	3688.68
414.64	3770.60
414.83	3803.37
415.02	3740.18
415.22	3836.14
415.41	3913.38
415.60	3819.75
415.79	3901.67
415.98	3985.93
416.17	4032.74
416.36	3962.53
416.55	3929.76
416.74	4126.36
416.93	4079.55
417.12	4074.87
417.31	4098.28
417.50	4166.15
417.69	4304.25
417.88	4306.59
418.07	4175.52
418.26	4231.69
418.45	4252.75
418.64	4575.75
418.83	4503.19
419.02	4425.95
419.21	4507.87
419.39	4524.26
419.58	4449.36
419.77	4507.87
419.96	4601.49
420.15	4566.39
420.34	4599.15
420.53	4613.20
420.72	4685.75
420.91	4788.74
421.10	4777.03
421.29	4856.61
421.48	4748.95
421.67	4774.69
421.86	4793.42
422.05	4863.63
422.24	4695.11
422.43	4828.53
422.61	4875.34
422.80	5025.13
422.99	4870.65
423.18	4985.34
423.37	5020.45
423.56	4964.28
423.75	4943.21
423.94	4926.83
424.13	4650.64
424.32	4718.52
424.50	5203.01
424.69	5153.86
424.88	5090.67
425.07	5114.07
425.26	4865.97
425.45	4959.60
425.64	5034.49
425.83	4990.02
426.01	5001.72
426.20	4980.66
426.39	5050.88
426.58	5069.60
426.77	5151.52
426.96	5336.42
427.15	5233.44
427.33	5303.65
427.52	5280.25
427.71	5425.36
427.90	5231.10
428.09	5345.78
428.28	5446.43
428.46	5277.91
428.65	5266.21
428.84	5406.64
429.03	5579.84
429.22	5418.34
429.40	5418.34
429.59	5486.22
429.78	5434.72
429.97	5320.04
430.16	5469.83
430.34	5734.31
430.53	5643.03
430.72	5816.23
430.91	5703.89
431.10	5802.19
431.28	5778.78
431.47	5720.27
431.66	6005.81
431.85	5914.53
432.03	5863.04
432.22	6132.20
432.41	5841.98
432.60	5923.90
432.79	5973.05
432.97	6019.86
433.16	6108.80
433.35	6106.46
433.54	5975.39
433.72	6010.50
433.91	6216.46
434.10	6328.81
434.28	6043.26
434.47	6155.61
434.66	6195.40
434.85	6235.19
435.03	6375.62
435.22	6265.61
435.41	6434.13
435.59	6235.19
435.78	6422.43
435.97	6612.01
436.16	6420.09
436.34	6504.35
436.53	6443.49
436.72	6595.63
436.90	6600.31
437.09	6707.98
437.28	6640.10
437.46	6537.12
437.65	6768.83
437.84	6705.63
438.02	6738.40
438.21	6785.21
438.40	6670.53
438.58	7033.31
438.77	7143.32
438.96	7054.37
439.14	7201.83
439.33	7225.23
439.52	7215.87
439.70	7330.56
439.89	7370.35
440.08	7377.37
440.26	7449.93
440.45	7372.69
440.63	7613.76
440.82	7571.63
441.01	7431.20
441.19	7693.34
441.38	7674.62
441.57	7714.41
441.75	7896.97
441.94	8184.85
442.12	7871.22
442.31	8231.66
442.50	7978.89
442.68	7784.62
442.87	7964.84
443.05	8231.66
443.24	8351.03
443.43	8079.53
443.61	8269.11
443.80	8510.19
443.98	8210.60
444.17	8098.25
444.35	8203.58
444.54	8435.29
444.73	8304.22
444.91	8318.26
445.10	8463.38
445.28	8257.41
445.47	8358.05
445.65	8287.84
445.84	8592.11
446.02	8477.42
446.21	8524.23
446.39	8561.68
446.58	8521.89
446.77	8463.38
446.95	8332.31
447.14	8418.91
447.32	8692.75
447.51	8610.83
447.69	8662.32
447.88	8439.97
448.06	8629.56
448.25	8414.23
448.43	8622.53
448.62	8662.32
448.80	8526.57
448.99	8641.26
449.17	8603.81
449.36	8690.41
449.54	8903.40
449.73	8959.57
449.91	9081.28
450.10	9177.24
450.28	9102.34
450.46	9198.31
450.65	9102.34
450.83	9015.74
451.02	9034.47
451.20	9144.47
451.39	9109.36
451.57	9022.77
451.76	9048.51
451.94	9425.34
452.13	9170.22
452.31	9160.86
452.49	9074.26
452.68	9362.14
452.86	9336.40
453.05	9633.64
453.23	9530.66
453.42	9362.14
453.60	9291.93
453.78	9451.08
453.97	9507.26
454.15	9488.53
454.34	9411.29
454.52	9570.45
454.70	9710.88
454.89	9834.93
455.07	10033.88
455.26	9825.57
455.44	9956.64
455.62	9853.66
455.81	9984.73
455.99	10022.17
456.17	10139.20
456.36	10083.03
456.54	10181.33
456.73	10326.44
456.91	10483.26
457.09	10420.06
457.28	10506.66
457.46	10560.50
457.64	10523.05
457.83	10541.77
458.01	10530.07
458.19	10738.38
458.38	10621.35
458.56	10761.78
458.74	10520.71
458.93	10724.33
459.11	10649.44
459.29	10658.80
459.48	10965.41
459.66	10869.45
459.84	11103.50
460.03	11302.45
460.21	11257.98
460.39	10934.98
460.57	10942.00
460.76	11145.63
460.94	11005.20
461.12	11026.26
461.31	11157.33
461.49	11274.36
461.67	11250.96
461.85	11562.25
462.04	11351.60
462.22	11852.47
462.40	11522.46
462.59	11548.20
462.77	11651.19
462.95	11681.61
463.13	11730.76
463.32	11566.93
463.50	11946.09
463.68	11690.98
463.86	11850.13
464.05	11995.25
464.23	11791.62
464.41	12217.60
464.59	11712.04
464.78	12294.83
464.96	12126.32
465.14	12121.63
465.32	12205.89
465.50	12222.28
465.69	12184.83
465.87	12025.67
466.05	12203.55
466.23	12177.81
466.41	12290.15
466.60	12531.23
466.78	12107.59
466.96	12056.10
467.14	12196.53
467.32	12437.61
467.51	12636.55
467.69	12191.85
467.87	12608.47
468.05	12666.98
468.23	12210.57
468.41	12666.98
468.60	12669.32
468.78	12709.11
468.96	12762.94
469.14	12959.55
469.32	12931.46
469.50	12826.14
469.69	13137.43
469.87	13235.73
470.05	13256.79
470.23	13266.16
470.41	13235.73
470.59	13406.59
470.77	13193.60
470.95	13233.39
471.14	13336.37
471.32	12992.31
471.50	13841.93
471.68	13525.96
471.86	13752.99
472.04	13675.75
472.22	14207.05
472.40	14101.73
472.58	13685.11
472.77	14022.15
472.95	14265.57
473.13	14738.35
473.31	14085.34
473.49	14284.29
473.67	14295.99
473.85	14525.36
474.03	14707.93
474.21	14572.18
474.39	14834.32
474.57	14752.40
474.75	14876.44
474.93	15213.48
475.12	15061.35
475.30	15447.54
475.48	15009.86
475.66	15307.10
475.84	15314.13
476.02	15538.82
476.20	15520.09
476.38	15873.51
476.56	16084.16
476.74	15735.42
476.92	15920.32
477.10	16056.08
477.28	16257.36
477.46	16339.28
477.64	16348.64
477.82	16716.11
478.00	16868.24
478.18	16870.58
478.36	17029.74
478.54	17170.17
478.72	17142.08
478.90	17291.88
479.08	17584.44
479.26	17797.43
479.44	17755.30
479.62	18022.12
479.80	18384.91
479.98	18244.48
480.16	18773.44
480.34	18377.89
480.52	18991.11
480.70	18787.48
480.88	18588.53
481.06	18700.88
481.24	18939.62
481.41	19442.83
481.59	19716.67
481.77	19510.71
481.95	19531.77
482.13	19948.39
482.31	19974.13
482.49	20463.30
482.67	20325.21
482.85	20699.70
483.03	20512.46
483.21	21088.23
483.39	21081.21
483.57	21081.21
483.74	21376.11
483.92	21453.35
484.10	21448.67
484.28	21881.67
484.46	22207.00
484.64	22581.49
484.82	22244.45
485.00	22600.21
485.18	22948.95
485.35	23105.77
485.53	22970.02
485.71	23241.52
485.89	23810.27
486.07	23454.51
486.25	23571.54
486.43	23936.66
486.61	23924.96
486.78	24084.11
486.96	24332.21
487.14	24833.08
487.32	24795.64
487.50	24769.89
487.68	25170.12
487.85	25315.23
488.03	25816.11
488.21	25853.56
488.39	25696.74
488.57	26373.16
488.75	26658.70
488.92	26906.80
489.10	26651.68
489.28	26628.27
489.46	27566.83
489.64	27173.62
489.81	27800.88
489.99	28034.94
490.17	27997.49
490.35	28390.70
490.53	28355.59
490.70	28844.76
490.88	28582.62
491.06	28531.13
491.24	29060.09
491.41	28999.24
491.59	29518.84
491.77	29301.17
491.95	29486.07
492.13	29933.11
492.30	30225.68
492.48	30298.23
492.66	30604.84
492.84	30476.12
493.01	30937.20
493.19	30810.81
493.37	31065.93
493.54	31325.73
493.72	31864.05
493.90	31702.56
494.08	31857.03
494.25	32378.97
494.43	32320.46
494.61	32250.24
494.79	32507.70
494.96	32732.39
495.14	32568.55
495.32	33514.13
495.49	33542.22
495.67	33275.40
495.85	33722.44
496.02	33923.72
496.20	33961.17
496.38	34323.96
496.55	34218.63
496.73	35250.81
496.91	34698.44
497.09	35068.25
497.26	35079.95
497.44	35674.45
497.62	35812.54
497.79	35714.23
497.97	35372.52
498.14	36023.19
498.32	36074.68
498.50	36697.26
498.67	36924.29
498.85	36687.90
499.03	36751.09
499.20	36973.44
499.38	37457.93
499.56	37413.46
499.73	37010.89
499.91	37832.42
500.08	38134.35
500.26	37731.78
500.44	37862.85
500.61	38543.94
500.79	37890.93
500.97	38373.08
501.14	38958.22
501.32	38918.43
501.49	39040.14
501.67	38993.32
501.84	39199.29
502.02	39082.27
502.20	39363.13
502.37	39543.35
502.55	39438.03
502.72	39599.52
502.90	39786.77
503.07	39569.10
503.25	40091.04
503.43	40037.20
503.60	40280.62
503.78	40318.07
503.95	40636.38
504.13	40542.76
504.30	41251.94
504.48	40830.65
504.65	40898.52
504.83	41347.90
505.01	41244.92
505.18	41462.59
505.36	41429.82
505.53	41972.83
505.71	41801.97
505.88	41933.04
506.06	41617.07
506.23	42021.98
506.41	41947.08
506.58	42436.25
506.76	42567.32
506.93	42876.27
507.11	42192.84
507.28	42792.01
507.46	43208.63
507.63	43351.40
507.81	43433.32
507.98	43084.58
508.16	43311.61
508.33	43136.07
508.50	43985.69
508.68	44123.78
508.85	44311.02
509.03	43723.55
509.20	44179.95
509.38	44734.66
509.55	45036.59
509.73	44884.45
509.90	44957.01
510.08	44737.00
510.25	44715.93
510.42	44907.86
510.60	45406.39
510.77	45443.84
510.95	45720.02
511.12	45265.96
511.30	45853.44
511.47	45525.76
511.64	46089.83
511.82	46080.47
511.99	46253.67
512.17	46340.27
512.34	46061.74
512.51	46733.48
512.69	46279.41
512.86	46653.90
513.04	46525.17
513.21	46768.58
513.38	46747.52
513.56	47283.50
513.73	47182.86
513.90	47089.24
514.08	47414.57
514.25	47330.31
514.43	47742.25
514.60	47662.67
514.77	47559.69
514.95	47817.14
515.12	47969.28
515.29	48336.74
515.47	47896.72
515.64	48362.49
515.81	48107.37
515.99	48311.00
516.16	48416.32
516.33	48325.04
516.51	48573.14
516.68	48790.81
516.85	48741.66
517.03	49326.79
517.20	49162.95
517.37	48964.01
517.54	49366.58
517.72	49434.45
517.89	49118.48
518.06	49521.05
518.24	49415.73
518.41	49340.83
518.58	49553.82
518.75	49485.95
518.93	49815.96
519.10	49584.25
519.27	50031.29
519.45	50050.02
519.62	50536.85
519.79	50302.79
519.96	49977.46
520.14	50192.79
520.31	50382.37
520.48	50752.18
520.65	50639.83
520.83	50866.86
521.00	50754.52
521.17	50796.65
521.34	50623.45
521.52	50930.06
521.69	51100.92
521.86	51309.22
522.03	51351.35
522.20	51419.23
522.38	51840.53
522.55	51576.04
522.72	51414.55
522.89	51615.83
523.07	51955.21
523.24	51494.13
523.41	52037.13
523.58	51735.20
523.75	52413.96
523.92	51845.21
524.10	52268.84
524.27	51978.62
524.44	52556.73
524.61	52102.67
524.78	52170.54
524.96	52191.61
525.13	52320.34
525.30	53102.07
525.47	52816.53
525.64	52933.56
525.81	52697.16
525.98	52853.98
526.16	52978.03
526.33	52505.24
526.50	53439.11
526.67	53272.93
526.84	53066.97
527.01	53062.29
527.18	53202.72
527.36	53085.69
527.53	53076.33
527.70	53600.61
527.87	53490.60
528.04	53404.00
528.21	53310.38
528.38	53549.12
528.55	53485.92
528.72	53595.93
528.89	53855.73
529.07	53614.65
529.24	53563.16
529.41	53832.32
529.58	53867.43
529.75	53675.51
529.92	54160.00
530.09	53949.35
530.26	54167.02
530.43	54089.78
530.60	54185.74
530.77	53916.58
530.94	54541.50
531.11	53982.12
531.28	54508.74
531.46	54377.67
531.63	54604.70
531.80	54574.27
531.97	54387.03
532.14	54635.13
532.31	54838.75
532.48	54866.84
532.65	54803.64
532.82	54546.18
532.99	54810.67
533.16	54850.45
533.33	54939.39
533.50	55136.00
533.67	55014.29
533.84	54616.40
534.01	54967.48
534.18	54983.86
534.35	55662.62
534.52	55262.39
534.69	55381.76
534.86	55440.27
535.03	55107.91
535.20	55461.33
535.37	55576.02
535.54	55583.04
535.71	55451.97
535.88	55793.69
536.05	55529.21
536.22	55671.98
536.38	55889.65
536.55	55798.37
536.72	55510.49
536.89	55543.25
537.06	55669.64
537.23	55990.30
537.40	55746.88
537.57	55627.51
537.74	55831.14
537.91	56097.96
538.08	55810.07
538.25	55929.44
538.42	56081.58
538.59	56465.42
538.75	56112.00
538.92	56303.93
539.09	56353.08
539.26	56437.34
539.43	56217.33
539.60	56416.27
539.77	56292.22
539.94	56507.55
540.11	56563.73
540.28	56741.61
540.44	56647.99
540.61	56640.96
540.78	56423.29
540.95	56711.18
541.12	56704.16
541.29	56610.54
541.46	56655.01
541.62	56750.97
541.79	56844.59
541.96	56559.05
542.13	56872.68
542.30	56594.15
542.47	57001.41
542.63	57186.31
542.80	57256.53
542.97	57301.00
543.14	57373.55
543.31	57483.56
543.48	57361.85
543.64	57532.71
543.81	57483.56
543.98	57279.93
544.15	57460.15
544.32	57726.97
544.48	57705.91
544.65	57322.06
544.82	57542.07
544.99	57329.08
545.16	57726.97
545.32	57659.10
545.49	57705.91
545.66	58049.97
545.83	57733.99
546.00	57949.32
546.16	58007.84
546.33	57869.75
546.50	57766.76
546.67	57874.43
546.83	57635.69
547.00	58017.20
547.17	57691.86
547.34	58019.54
547.50	58110.82
547.67	58162.31
547.84	58150.61
548.00	58234.87
548.17	58382.32
548.34	58258.27
548.51	58253.59
548.67	58365.94
548.84	58262.96
549.01	58422.11
549.18	58244.23
549.34	58410.41
549.51	58305.09
549.68	58398.71
549.84	58560.20
550.01	58782.55
550.18	58475.94
550.34	58642.12
550.51	58602.33
550.68	58597.65
550.84	58478.28
551.01	58780.21
551.18	58607.01
551.34	58817.66
551.51	58625.74
551.68	58857.45
551.84	58787.24
552.01	58756.81
552.18	58894.90
552.34	58588.29
552.51	58944.05
552.68	58700.64
552.84	58892.56
553.01	59021.29
553.18	59100.87
553.34	59157.04
553.51	58932.35
553.67	58951.07
553.84	59049.38
554.01	58937.03
554.17	59180.45
554.34	58934.69
554.51	59143.00
554.67	59061.08
554.84	59161.72
555.00	58906.60
555.17	59213.21
555.33	59215.55
555.50	59243.64
555.67	58967.46
555.83	59089.16
556.00	59334.92
556.16	59639.19
556.33	59339.60
556.50	59465.99
556.66	59508.12
556.83	59426.20
556.99	59391.09
557.16	59690.68
557.32	59627.49
557.49	59819.41
557.65	59381.73
557.82	59374.71
557.98	59475.35
558.15	59465.99
558.32	59660.26
558.48	59639.19
558.65	59494.08
558.81	59470.67
558.98	59702.38
559.14	59884.95
559.31	59704.73
559.47	59810.05
559.64	59908.35
559.80	59917.71
559.97	59969.21
560.13	59868.56
560.30	60034.74
560.46	59866.22
560.63	59800.69
560.79	59917.71
560.96	59950.48
561.12	59861.54
561.29	59875.58
561.45	60058.15
561.61	59997.29
561.78	59990.27
561.94	59920.05
562.11	59880.27
562.27	60170.49
562.44	60109.64
562.60	59955.16
562.77	60179.85
562.93	59987.93
563.10	60030.06
563.26	60083.89
563.42	60193.90
563.59	60090.91
563.75	60044.10
563.92	60137.72
564.08	60250.07
564.24	60268.79
564.41	60229.01
564.57	60247.73
564.74	60390.50
564.90	60301.56
565.07	60088.57
565.23	60317.95
565.39	60388.16
565.56	60423.27
565.72	60463.06
565.88	60617.53
566.05	60175.17
566.21	60360.08
566.38	60238.37
566.54	60395.18
566.70	60615.19
566.87	60575.40
567.03	60299.22
567.19	60697.11
567.36	60427.95
567.52	60456.04
567.68	60603.49
567.85	60666.69
568.01	60552.00
568.17	60432.63
568.34	60612.85
568.50	60427.95
568.66	60474.76
568.83	60388.16
568.99	60601.15
569.15	60750.94
569.32	60624.56
569.48	60430.29
569.64	60577.75
569.81	60673.71
569.97	60493.49
570.13	60706.47
570.30	60339.01
570.46	60629.24
570.62	60743.92
570.78	60818.82
570.95	60509.87
571.11	60853.93
571.27	60554.34
571.43	60638.60
571.60	60853.93
571.76	60860.95
571.92	60842.23
572.09	60570.72
572.25	60865.63
572.41	60851.59
572.57	60795.42
572.74	60933.51
572.90	60720.52
573.06	60603.49
573.22	60664.35
573.38	60865.63
573.55	60769.67
573.71	60942.87
573.87	60804.78
574.03	60598.81
574.20	60851.59
574.36	60809.46
574.52	60879.67
574.68	60980.32
574.84	60982.66
575.01	60865.63
575.17	60924.14
575.33	60940.53
575.49	60877.33
575.65	60968.61
575.82	60910.10
575.98	61059.90
576.14	61052.87
576.30	60931.17
576.46	60874.99
576.62	60867.97
576.79	60867.97
576.95	60956.91
577.11	61050.53
577.27	60952.23
577.43	60884.36
577.59	60750.94
577.75	60926.49
577.92	60779.03
578.08	60940.53
578.24	60851.59
578.40	61244.80
578.56	61036.49
578.72	61015.43
578.88	61207.35
579.04	61064.58
579.21	61050.53
579.37	61123.09
579.53	61073.94
579.69	60832.86
579.85	61109.05
580.01	60961.59
580.17	60912.44
580.33	61085.64
580.49	61221.39
580.65	61087.98
580.82	61069.26
580.98	60872.65
581.14	61029.47
581.30	61073.94
581.46	61055.21
581.62	61031.81
581.78	60963.93
581.94	60970.96
582.10	61087.98
582.26	61300.97
582.42	60959.25
582.58	61064.58
582.74	61109.05
582.90	61153.52
583.06	60947.55
583.22	60851.59
583.38	61233.10
583.54	61216.71
583.70	61186.28
583.86	61085.64
584.02	60877.33
584.18	61244.80
584.34	61073.94
584.50	61296.29
584.66	61010.74
584.82	60966.27
584.98	61296.29
585.14	61230.75
585.30	61148.84
585.46	60867.97
585.62	61221.39
585.78	61141.81
585.94	61048.19
586.10	61132.45
586.26	61272.88
586.42	61146.50
586.58	61183.94
586.74	61286.93
586.90	61153.52
587.06	61052.87
587.22	60992.02
587.38	61162.88
587.54	61375.87
587.70	61315.01
587.86	61265.86
588.02	61048.19
588.18	61233.10
588.34	61148.84
588.49	61310.33
