SpectraSuite Data File
++++++++++++++++++++++++++++++++++++
Date: Fri Oct 25 11:33:17 EDT 2013
User: price-jones
Dark Spectrum Present: No
Reference Spectrum Present: No
Number of Sampled Component Spectra: 1
Spectrometers: USB2+H05261
Integration Time (usec): 100000 (USB2+H05261)
Spectra Averaged: 1 (USB2+H05261)
Boxcar Smoothing: 0 (USB2+H05261)
Correct for Electrical Dark: No (USB2+H05261)
Strobe/Lamp Enabled: No (USB2+H05261)
Correct for Detector Non-linearity: No (USB2+H05261)
Correct for Stray Light: No (USB2+H05261)
Number of Pixels in Processed Spectrum: 2048
>>>>>Begin Processed Spectral Data<<<<<
365.73	273.84
365.92	273.84
366.12	273.84
366.32	142.77
366.52	184.90
366.72	177.88
366.91	102.98
367.11	198.95
367.31	147.45
367.51	191.92
367.70	259.80
367.90	196.60
368.10	175.54
368.30	191.92
368.49	184.90
368.69	124.05
368.89	100.64
369.09	184.90
369.28	182.56
369.48	168.52
369.68	252.78
369.87	243.42
370.07	241.08
370.27	285.55
370.47	381.51
370.66	477.47
370.86	512.58
371.06	554.71
371.25	550.03
371.45	566.41
371.65	613.22
371.84	526.62
372.04	510.24
372.24	545.34
372.44	554.71
372.63	610.88
372.83	580.45
373.03	624.92
373.22	622.58
373.42	648.33
373.62	613.22
373.81	699.82
374.01	638.97
374.21	634.29
374.40	629.60
374.60	713.86
374.79	587.47
374.99	641.31
375.19	676.41
375.38	667.05
375.58	718.54
375.78	692.80
375.97	704.50
376.17	746.63
376.37	662.37
376.56	643.65
376.76	643.65
376.95	671.73
377.15	699.82
377.35	641.31
377.54	669.39
377.74	758.33
377.93	723.23
378.13	784.08
378.33	730.25
378.52	751.31
378.72	636.63
378.91	723.23
379.11	709.18
379.31	737.27
379.50	723.23
379.70	751.31
379.89	720.88
380.09	681.10
380.28	655.35
380.48	734.93
380.68	751.31
380.87	645.99
381.07	734.93
381.26	690.46
381.46	791.10
381.65	786.42
381.85	765.36
382.04	748.97
382.24	751.31
382.43	695.14
382.63	760.67
382.83	784.08
383.02	758.33
383.22	826.21
383.41	730.25
383.61	833.23
383.80	861.32
384.00	760.67
384.19	856.64
384.39	856.64
384.58	809.83
384.78	959.62
384.97	903.45
385.17	863.66
385.36	793.44
385.56	770.04
385.75	814.51
385.95	861.32
386.14	772.38
386.34	826.21
386.53	861.32
386.72	851.96
386.92	842.59
387.11	866.00
387.31	842.59
387.50	861.32
387.70	812.17
387.89	947.92
388.09	1020.47
388.28	964.30
388.48	884.72
388.67	1006.43
388.86	990.05
389.06	837.91
389.25	983.02
389.45	990.05
389.64	994.73
389.84	1001.75
390.03	959.62
390.22	1001.75
390.42	915.15
390.61	952.60
390.81	903.45
391.00	1001.75
391.19	1032.18
391.39	1057.92
391.58	1004.09
391.78	980.68
391.97	1067.28
392.16	1015.79
392.36	1067.28
392.55	1027.50
392.75	1029.84
392.94	1055.58
393.13	1163.25
393.33	1057.92
393.52	1078.99
393.71	1128.14
393.91	1165.59
394.10	1083.67
394.29	1102.39
394.49	1109.41
394.68	1137.50
394.88	1196.01
395.07	1142.18
395.26	1193.67
395.46	1074.31
395.65	1139.84
395.84	1158.57
396.04	1191.33
396.23	1151.54
396.42	1165.59
396.62	1242.82
396.81	1240.48
397.00	1109.41
397.19	1238.14
397.39	1137.50
397.58	1163.25
397.77	1331.76
397.97	1275.59
398.16	1233.46
398.35	1399.64
398.55	1334.11
398.74	1196.01
398.93	1327.08
399.12	1249.85
399.32	1357.51
399.51	1289.64
399.70	1434.75
399.90	1394.96
400.09	1406.66
400.28	1423.05
400.47	1404.32
400.67	1409.00
400.86	1437.09
401.05	1399.64
401.24	1348.15
401.44	1493.26
401.63	1455.81
401.82	1458.15
402.01	1497.94
402.21	1474.54
402.40	1495.60
402.59	1490.92
402.78	1488.58
402.97	1533.05
403.17	1586.88
403.36	1528.37
403.55	1549.43
403.74	1584.54
403.93	1596.25
404.13	1579.86
404.32	1568.16
404.51	1600.93
404.70	1614.97
404.89	1617.31
405.09	1643.06
405.28	1715.61
405.47	1694.55
405.66	1682.85
405.85	1717.95
406.05	1825.62
406.24	1767.10
406.43	1795.19
406.62	1860.73
406.81	1762.42
407.00	1837.32
407.20	1795.19
407.39	1767.10
407.58	1891.15
407.77	1804.55
407.96	1884.13
408.15	1914.56
408.34	1844.34
408.54	1961.37
408.73	1916.90
408.92	1888.81
409.11	1968.39
409.30	2078.40
409.49	2111.16
409.68	1966.05
409.87	2097.12
410.07	2080.74
410.26	2038.61
410.45	2057.33
410.64	2066.69
410.83	2122.87
411.02	2097.12
411.21	2165.00
411.40	2113.50
411.59	2277.34
411.78	2279.68
411.98	2263.30
412.17	2289.04
412.36	2263.30
412.55	2352.24
412.74	2380.32
412.93	2443.52
413.12	2270.32
413.31	2389.69
413.50	2466.92
413.69	2394.37
413.88	2562.89
414.07	2420.11
414.26	2492.67
414.45	2544.16
414.64	2504.37
414.83	2555.86
415.02	2630.76
415.22	2595.65
415.41	2616.72
415.60	2724.38
415.79	2710.34
415.98	2752.47
416.17	2773.53
416.36	2731.41
416.55	2885.88
416.74	2913.97
416.93	2801.62
417.12	2813.32
417.31	2897.58
417.50	2867.16
417.69	2953.76
417.88	2981.84
418.07	2986.52
418.26	2935.03
418.45	2988.86
418.64	3005.25
418.83	3000.57
419.02	3080.14
419.21	3164.40
419.39	3173.77
419.58	3084.83
419.77	3164.40
419.96	3108.23
420.15	3265.05
420.34	3061.42
420.53	3176.11
420.72	3304.84
420.91	3335.26
421.10	3225.26
421.29	3534.21
421.48	3349.31
421.67	3428.88
421.86	3239.30
422.05	3283.77
422.24	3262.71
422.43	3417.18
422.61	3323.56
422.80	3414.84
422.99	3445.27
423.18	3513.14
423.37	3445.27
423.56	3431.23
423.75	3356.33
423.94	3527.19
424.13	3091.85
424.32	3243.98
424.50	3419.52
424.69	3543.57
424.88	3459.31
425.07	3618.47
425.26	3361.01
425.45	3398.46
425.64	3527.19
425.83	3440.59
426.01	3384.41
426.20	3517.83
426.39	3574.00
426.58	3466.33
426.77	3592.72
426.96	3625.49
427.15	3609.11
427.33	3634.85
427.52	3559.95
427.71	3740.18
427.90	3541.23
428.09	3623.15
428.28	3784.65
428.46	3768.26
428.65	3756.56
428.84	3805.71
429.03	3953.16
429.22	3728.47
429.40	3712.09
429.59	3754.22
429.78	3749.54
429.97	3749.54
430.16	3751.88
430.34	3927.42
430.53	3796.35
430.72	3896.99
430.91	3861.88
431.10	3819.75
431.28	3889.97
431.47	4194.24
431.66	4168.49
431.85	3925.08
432.03	4145.09
432.22	4156.79
432.41	4109.98
432.60	4065.51
432.79	4060.83
432.97	4142.75
433.16	4114.66
433.35	4072.53
433.54	4215.30
433.72	4271.48
433.91	4133.39
434.10	4294.88
434.28	4236.37
434.47	4191.90
434.66	4493.83
434.85	4341.69
435.03	4381.48
435.22	4470.42
435.41	4526.60
435.59	4449.36
435.78	4465.74
435.97	4496.17
436.16	4472.76
436.34	4461.06
436.53	4322.97
436.72	4617.88
436.90	4479.79
437.09	4582.77
437.28	4381.48
437.46	4535.96
437.65	4578.09
437.84	4685.75
438.02	4503.19
438.21	4753.63
438.40	4725.54
438.58	4690.43
438.77	4718.52
438.96	4755.97
439.14	4837.89
439.33	4917.47
439.52	5034.49
439.70	5011.09
439.89	5041.51
440.08	5088.32
440.26	5041.51
440.45	5008.75
440.63	5158.54
440.82	5191.31
441.01	5069.60
441.19	5240.46
441.38	5282.59
441.57	5401.96
441.75	5369.19
441.94	5462.81
442.12	5556.43
442.31	5549.41
442.50	5528.35
442.68	5565.79
442.87	5631.33
443.05	5598.56
443.24	5706.23
443.43	5645.37
443.61	5579.84
443.80	5856.02
443.98	5537.71
444.17	5399.62
444.35	5462.81
444.54	5731.97
444.73	5720.27
444.91	5825.59
445.10	5729.63
445.28	5708.57
445.47	5640.69
445.65	5806.87
445.84	5659.42
446.02	5795.17
446.21	5781.12
446.39	5727.29
446.58	5724.95
446.77	5795.17
446.95	5675.80
447.14	5750.70
447.32	5621.97
447.51	5720.27
447.69	5860.70
447.88	5795.17
448.06	5825.59
448.25	5729.63
448.43	5893.47
448.62	5837.30
448.80	5874.74
448.99	5863.04
449.17	6120.50
449.36	5973.05
449.54	6050.28
449.73	6101.78
449.91	6223.48
450.10	6169.65
450.28	6122.84
450.46	6214.12
450.65	6146.25
450.83	6153.27
451.02	6242.21
451.20	6399.02
451.39	6209.44
451.57	6134.54
451.76	6160.29
451.94	6296.04
452.13	6190.72
452.31	6448.18
452.49	6223.48
452.68	6345.19
452.86	6300.72
453.05	6455.20
453.23	6616.69
453.42	6204.76
453.60	6363.92
453.78	6539.46
453.97	6424.77
454.15	6597.97
454.34	6464.56
454.52	6583.93
454.70	6717.34
454.89	6649.46
455.07	6546.48
455.26	6829.68
455.44	6885.86
455.62	6712.66
455.81	6857.77
455.99	6792.23
456.17	6822.66
456.36	6773.51
456.54	6843.73
456.73	6995.86
456.91	7056.72
457.09	6923.30
457.28	6984.16
457.46	6974.80
457.64	7164.38
457.83	7169.06
458.01	7157.36
458.19	7297.79
458.38	7110.55
458.56	7176.08
458.74	7351.62
458.93	7119.91
459.11	7286.09
459.29	7431.20
459.48	7236.94
459.66	7375.03
459.84	7475.67
460.03	7405.46
460.21	7581.00
460.39	7452.27
460.57	7515.46
460.76	7405.46
460.94	7379.71
461.12	7609.08
461.31	7637.17
461.49	7552.91
461.67	7618.44
461.85	7733.13
462.04	7719.09
462.22	8046.76
462.40	7824.41
462.59	7779.94
462.77	7786.96
462.95	7770.58
463.13	7833.77
463.32	7831.43
463.50	7992.93
463.68	7903.99
463.86	8168.47
464.05	7817.39
464.23	8051.44
464.41	8049.10
464.59	7885.26
464.78	8159.11
464.96	8280.82
465.14	8175.49
465.32	8114.64
465.50	8182.51
465.69	8365.07
465.87	8201.24
466.05	8269.11
466.23	7964.84
466.41	8194.22
466.60	8318.26
466.78	8222.30
466.96	8451.67
467.14	8119.32
467.32	8393.16
467.51	8514.87
467.69	8325.29
467.87	8549.98
468.05	8627.21
468.23	8367.42
468.41	8484.44
468.60	8252.73
468.78	8603.81
468.96	8472.74
469.14	8652.96
469.32	8758.28
469.50	8596.79
469.69	8769.99
469.87	8772.33
470.05	8784.03
470.23	8966.59
470.41	8730.20
470.59	9008.72
470.77	8868.29
470.95	8868.29
471.14	9324.69
471.32	8985.32
471.50	9055.53
471.68	9130.43
471.86	9310.65
472.04	9261.50
472.22	9284.91
472.40	9256.82
472.58	9226.39
472.77	9460.45
472.95	9750.67
473.13	9909.83
473.31	9589.17
473.49	9474.49
473.67	9607.90
473.85	9776.42
474.03	9809.19
474.21	9694.50
474.39	9788.12
474.57	9933.23
474.75	10087.71
474.93	10155.58
475.12	9877.06
475.30	10171.97
475.48	10197.71
475.66	10181.33
475.84	10183.67
476.02	10422.41
476.20	10232.82
476.38	10216.44
476.56	10670.50
476.74	10672.84
476.92	10675.18
477.10	10743.06
477.28	10881.15
477.46	10792.21
477.64	10923.28
477.82	11133.93
478.00	11265.00
478.18	11227.55
478.36	11372.66
478.54	11407.77
478.72	11620.76
478.90	11520.12
479.08	11826.73
479.26	11625.44
479.44	11637.14
479.62	11833.75
479.80	11946.09
479.98	12243.34
480.16	12575.70
480.34	12163.76
480.52	12442.29
480.70	12489.10
480.88	12203.55
481.06	12404.84
481.24	12566.34
481.41	12788.69
481.59	12931.46
481.77	13114.02
481.95	12978.27
482.13	13249.77
482.31	13008.70
482.49	13570.43
482.67	13441.70
482.85	13689.79
483.03	13701.50
483.21	13703.84
483.39	14045.55
483.57	13872.36
483.74	13937.89
483.92	14141.52
484.10	14127.47
484.28	14494.94
484.46	14558.13
484.64	14958.36
484.82	14501.96
485.00	14806.23
485.18	15302.42
485.35	15463.92
485.53	15044.96
485.71	15318.81
485.89	15763.51
486.07	15463.92
486.25	15639.46
486.43	15428.81
486.61	16009.26
486.78	15960.11
486.96	16079.48
487.14	16500.78
487.32	16418.86
487.50	16336.94
487.68	16479.71
487.85	16702.06
488.03	16989.95
488.21	17039.10
488.39	16809.73
488.57	17446.35
488.75	17603.17
488.92	17781.05
489.10	18106.38
489.28	17642.96
489.46	18321.71
489.64	17743.60
489.81	18045.53
489.99	18497.25
490.17	18412.99
490.35	18515.98
490.53	18555.77
490.70	18682.16
490.88	18527.68
491.06	19082.39
491.24	19215.80
491.41	19147.92
491.59	19592.62
491.77	19527.09
491.95	19557.52
492.13	19594.96
492.30	19775.19
492.48	19711.99
492.66	20051.37
492.84	20210.53
493.01	20336.91
493.19	20320.53
493.37	20734.81
493.54	20807.36
493.72	20704.38
493.90	20613.10
494.08	21294.19
494.25	21338.66
494.43	21053.12
494.61	21518.89
494.79	21741.24
494.96	21743.58
495.14	21799.75
495.32	21645.27
495.49	21799.75
495.67	21963.59
495.85	22492.55
496.02	22649.36
496.20	22403.61
496.38	22204.66
496.55	22827.24
496.73	23290.67
496.91	22806.18
497.09	23271.95
497.26	23103.43
497.44	23255.56
497.62	23608.98
497.79	23393.65
497.97	23571.54
498.14	23824.31
498.32	23868.78
498.50	23819.63
498.67	24285.40
498.85	24194.12
499.03	24201.14
499.20	24517.11
499.38	24348.59
499.56	24603.71
499.73	24610.73
499.91	24952.45
500.08	25230.98
500.26	24592.01
500.44	24697.33
500.61	24872.87
500.79	25017.99
500.97	25385.45
501.14	25958.88
501.32	25289.49
501.49	25294.17
501.67	25387.79
501.84	25799.73
502.02	25703.76
502.20	25876.96
502.37	26033.78
502.55	25837.17
502.72	25858.24
502.90	26349.75
503.07	26064.21
503.25	26455.08
503.43	26405.92
503.60	26534.65
503.78	26764.03
503.95	26766.37
504.13	26759.34
504.30	26965.31
504.48	26892.76
504.65	27019.14
504.83	27168.94
505.01	27314.05
505.18	27498.95
505.36	27878.12
505.53	27639.39
505.71	27630.02
505.88	27707.26
506.06	27559.81
506.23	28002.17
506.41	27859.40
506.58	27763.43
506.76	28290.06
506.93	28011.53
507.11	28210.48
507.28	28416.44
507.46	28587.30
507.63	28830.72
507.81	28797.95
507.98	28765.18
508.16	28493.68
508.33	29090.52
508.50	28959.45
508.68	28844.76
508.85	29448.62
509.03	29275.42
509.20	29413.51
509.38	29710.76
509.55	29495.43
509.73	29827.79
509.90	29612.46
510.08	29584.37
510.25	29888.64
510.42	30015.03
510.60	30015.03
510.77	29701.40
510.95	30347.39
511.12	30185.89
511.30	30167.16
511.47	30251.42
511.64	30452.71
511.82	30419.94
511.99	30532.29
512.17	30644.63
512.34	30897.41
512.51	30871.67
512.69	31042.53
512.86	30852.94
513.04	31218.07
513.21	31367.86
513.38	31648.72
513.56	31360.84
513.73	31138.49
513.90	31360.84
514.08	31864.05
514.25	31995.12
514.43	31892.14
514.60	31828.95
514.77	32034.91
514.95	32268.97
515.12	32002.14
515.29	32165.98
515.47	31866.39
515.64	32336.84
515.81	32215.13
515.99	32526.42
516.16	32725.37
516.33	32636.43
516.51	32378.97
516.68	32774.52
516.85	32811.97
517.03	32659.84
517.20	32716.01
517.37	33085.81
517.54	33123.26
517.72	33158.37
517.89	33422.85
518.06	33329.23
518.24	33357.32
518.41	33317.53
518.58	33366.68
518.75	33652.22
518.93	33734.14
519.10	33820.74
519.27	33897.98
519.45	34036.07
519.62	34066.50
519.79	33963.51
519.96	34103.95
520.14	34220.97
520.31	33972.88
520.48	34183.52
520.65	34352.04
520.83	35026.12
521.00	34600.14
521.17	34361.40
521.34	34583.76
521.52	35051.86
521.69	35044.84
521.86	35136.12
522.03	35302.30
522.20	35218.04
522.38	35239.11
522.55	35388.90
522.72	35475.50
522.89	35225.06
523.07	35763.39
523.24	35798.49
523.41	35917.86
523.58	35601.89
523.75	35665.08
523.92	35791.47
524.10	35789.13
524.27	36109.78
524.44	36016.16
524.61	36290.01
524.78	36135.53
524.96	36563.85
525.13	35934.24
525.30	36327.45
525.47	36842.37
525.64	36184.68
525.81	36423.42
525.98	36723.01
526.16	36491.29
526.33	36559.17
526.50	36694.92
526.67	36589.59
526.84	36748.75
527.01	36954.72
527.18	37202.82
527.36	37104.51
527.53	37156.00
527.70	37500.06
527.87	37350.27
528.04	37436.87
528.21	37605.39
528.38	37074.09
528.55	37593.68
528.72	37596.03
528.89	37434.53
529.07	37689.65
529.24	37310.48
529.41	37989.24
529.58	37827.74
529.75	37591.34
529.92	38316.91
530.09	38197.54
530.26	38033.71
530.43	38375.42
530.60	37785.61
530.77	38057.11
530.94	37897.95
531.11	38066.47
531.28	38501.81
531.46	38359.04
531.63	38094.56
531.80	38775.66
531.97	38806.08
532.14	38628.20
532.31	38766.29
532.48	38925.45
532.65	39201.63
532.82	38827.15
532.99	39133.76
533.16	38246.69
533.33	39349.09
533.50	39199.29
533.67	39447.39
533.84	38822.47
534.01	39269.51
534.18	39290.57
534.35	39683.78
534.52	39803.15
534.69	39789.11
534.86	39597.18
535.03	39344.41
535.20	39672.08
535.37	39470.79
535.54	39793.79
535.71	39761.02
535.88	39807.83
536.05	39803.15
536.22	40006.78
536.38	40154.23
536.55	39709.53
536.72	39789.11
536.89	39997.41
537.06	39985.71
537.23	40713.62
537.40	40098.06
537.57	39976.35
537.74	40336.79
537.91	40381.26
538.08	40734.68
538.25	40121.46
538.42	40612.98
538.59	41085.76
538.75	40414.03
538.92	40786.18
539.09	40971.08
539.26	40868.09
539.43	41034.27
539.60	41095.13
539.77	41083.42
539.94	41116.19
540.11	41085.76
540.28	41317.48
540.44	40781.49
540.61	40865.75
540.78	40886.82
540.95	41167.68
541.12	41069.38
541.29	41265.99
541.46	41729.41
541.62	41422.80
541.79	41631.11
541.96	40893.84
542.13	41336.20
542.30	41661.54
542.47	41748.14
542.63	41603.02
542.80	42010.28
542.97	41961.12
543.14	42375.40
543.31	42323.91
543.48	41935.38
543.64	42801.38
543.81	42230.29
543.98	42312.20
544.15	42288.80
544.32	42462.00
544.48	42604.77
544.65	42829.46
544.82	42773.29
544.99	42487.74
545.16	42492.43
545.32	42663.28
545.49	43014.37
545.66	43157.14
545.83	42686.69
546.00	43157.14
546.16	43143.09
546.33	42810.74
546.50	43058.84
546.67	43012.02
546.83	42890.32
547.00	43393.53
547.17	42787.33
547.34	43157.14
547.50	43370.13
547.67	43590.14
547.84	43302.25
548.00	43351.40
548.17	43665.03
548.34	43908.45
548.51	43686.10
548.67	43793.76
548.84	43901.43
549.01	43704.82
549.18	43414.60
549.34	43646.31
549.51	43966.96
549.68	44341.45
549.84	43660.35
550.01	44105.06
550.18	43995.05
550.34	43845.26
550.51	44376.56
550.68	44196.34
550.84	44053.56
551.01	44198.68
551.18	44526.35
551.34	44020.80
551.51	44409.32
551.68	44367.20
551.84	43676.74
552.01	43948.24
552.18	44179.95
552.34	44304.00
552.51	44191.65
552.68	44067.61
552.84	44418.69
553.01	44587.21
553.18	44886.79
553.34	44952.33
553.51	44432.73
553.67	44685.51
553.84	44772.11
554.01	44488.90
554.17	44409.32
554.34	44807.22
554.51	44795.51
554.67	45284.68
554.84	44875.09
555.00	44699.55
555.17	44643.38
555.33	45233.19
555.50	45099.78
555.67	44683.17
555.83	45001.48
556.00	45298.73
556.16	45584.27
556.33	45251.92
556.50	45624.06
556.66	45329.16
556.83	45132.55
556.99	45687.26
557.16	45600.66
557.32	45668.53
557.49	45492.99
557.65	44989.78
557.82	45755.13
557.98	45603.00
558.15	45441.50
558.32	45525.76
558.48	45516.40
558.65	45734.07
558.81	45748.11
558.98	45357.24
559.14	45312.77
559.31	45345.54
559.47	45598.32
559.64	46047.70
559.80	45385.33
559.97	45778.54
560.13	45249.58
560.30	46277.07
560.46	46408.14
560.63	45794.92
560.79	46340.27
560.96	46075.79
561.12	46309.84
561.29	46099.19
561.45	45935.35
561.61	45703.64
561.78	46239.62
561.94	46199.83
562.11	45827.69
562.27	45820.67
562.44	46506.44
562.60	46124.94
562.77	46120.26
562.93	46103.87
563.10	46167.07
563.26	46288.77
563.42	46541.55
563.59	46096.85
563.75	46457.29
563.92	46344.95
564.08	46532.19
564.24	46567.30
564.41	46204.52
564.57	46412.82
564.74	46454.95
564.90	45916.63
565.07	46160.05
565.23	46642.20
565.39	46457.29
565.56	46569.64
565.72	46431.55
565.88	46646.88
566.05	46686.67
566.21	46791.99
566.38	46602.41
566.54	46887.95
566.70	46700.71
566.87	46719.43
567.03	46663.26
567.19	46962.85
567.36	46490.06
567.52	46810.71
567.68	47126.69
567.85	46913.70
568.01	46600.07
568.17	46997.96
568.34	46955.83
568.50	47363.08
568.66	46815.40
568.83	46927.74
568.99	46768.58
569.15	46660.92
569.32	46618.79
569.48	47152.43
569.64	46836.46
569.81	47007.32
569.97	47365.42
570.13	47433.30
570.30	46609.43
570.46	47381.80
570.62	47140.73
570.78	46981.57
570.95	47157.11
571.11	47459.04
571.27	46836.46
571.43	46653.90
571.60	47269.46
571.76	46913.70
571.92	47098.60
572.09	46990.94
572.25	47547.98
572.41	46836.46
572.57	47297.55
572.74	47496.49
572.90	46976.89
573.06	47702.46
573.22	47494.15
573.38	47288.18
573.55	47459.04
573.71	47908.43
573.87	47440.32
574.03	47136.05
574.20	47515.22
574.36	47643.94
574.52	47290.52
574.68	47187.54
574.84	47728.20
575.01	47208.61
575.17	47587.77
575.33	47367.76
575.49	47276.48
575.65	47374.78
575.82	47618.20
575.98	47194.56
576.14	47681.39
576.30	47517.56
576.46	47526.92
576.62	47103.28
576.79	47468.40
576.95	46869.23
577.11	47119.66
577.27	47728.20
577.43	47442.66
577.59	47477.77
577.75	47253.08
577.92	47421.59
578.08	47370.10
578.24	47426.28
578.40	47763.31
578.56	47775.02
578.72	47597.13
578.88	47707.14
579.04	47487.13
579.21	47391.17
579.37	47327.97
579.53	47606.50
579.69	47459.04
579.85	47454.36
580.01	47760.97
580.17	47334.99
580.33	47950.56
580.49	47695.44
580.65	47131.37
580.82	47297.55
580.98	47475.43
581.14	47557.35
581.30	47555.00
581.46	47334.99
581.62	47339.68
581.78	47363.08
581.94	47791.40
582.10	47426.28
582.26	48109.71
582.42	47461.38
582.58	47870.98
582.74	47660.33
582.90	47978.64
583.06	47976.30
583.22	47487.13
583.38	47796.08
583.54	47714.16
583.70	47665.01
583.86	47608.84
584.02	47494.15
584.18	48116.73
584.34	47725.86
584.50	47908.43
584.66	48294.61
584.82	47760.97
584.98	48041.84
585.14	47870.98
585.30	47562.03
585.46	47999.71
585.62	47487.13
585.78	47791.40
585.94	47337.33
586.10	48095.67
586.26	48004.39
586.42	48065.24
586.58	47861.61
586.74	47833.53
586.90	47803.10
587.06	47948.21
587.22	48030.13
587.38	47655.65
587.54	47730.54
587.70	48186.95
587.86	48210.35
588.02	47585.43
588.18	47915.45
588.34	47948.21
588.49	47683.73
588.65	47779.70
588.81	48133.12
588.97	47704.80
589.13	48439.73
589.29	47742.25
589.45	48074.60
589.61	48294.61
589.77	48165.88
589.93	47636.92
