SpectraSuite Data File
++++++++++++++++++++++++++++++++++++
Date: Fri Oct 25 11:26:37 EDT 2013
User: price-jones
Dark Spectrum Present: No
Reference Spectrum Present: No
Number of Sampled Component Spectra: 1
Spectrometers: USB2+H05261
Integration Time (usec): 100000 (USB2+H05261)
Spectra Averaged: 1 (USB2+H05261)
Boxcar Smoothing: 0 (USB2+H05261)
Correct for Electrical Dark: No (USB2+H05261)
Strobe/Lamp Enabled: No (USB2+H05261)
Correct for Detector Non-linearity: No (USB2+H05261)
Correct for Stray Light: No (USB2+H05261)
Number of Pixels in Processed Spectrum: 2048
>>>>>Begin Processed Spectral Data<<<<<
365.73	196.60
365.92	196.60
366.12	196.60
366.32	138.09
366.52	110.01
366.72	128.73
366.91	102.98
367.11	117.03
367.31	93.62
367.51	124.05
367.70	161.50
367.90	173.20
368.10	159.16
368.30	177.88
368.49	107.66
368.69	168.52
368.89	184.90
369.09	107.66
369.28	187.24
369.48	152.13
369.68	210.65
369.87	189.58
370.07	220.01
370.27	191.92
370.47	393.21
370.66	645.99
370.86	669.39
371.06	727.91
371.25	683.44
371.45	674.07
371.65	739.61
371.84	627.26
372.04	681.10
372.24	746.63
372.44	730.25
372.63	697.48
372.83	772.38
373.03	800.46
373.22	809.83
373.42	812.17
373.62	755.99
373.81	837.91
374.01	800.46
374.21	809.83
374.40	805.14
374.60	894.08
374.79	791.10
374.99	858.98
375.19	781.74
375.38	873.02
375.58	837.91
375.78	842.59
375.97	858.98
376.17	922.17
376.37	777.06
376.56	880.04
376.76	882.38
376.95	898.77
377.15	842.59
377.35	877.70
377.54	908.13
377.74	936.21
377.93	915.15
378.13	966.64
378.33	912.81
378.52	912.81
378.72	954.94
378.91	976.00
379.11	954.94
379.31	961.96
379.50	924.51
379.70	950.26
379.89	1039.20
380.09	961.96
380.28	940.90
380.48	1064.94
380.68	987.71
380.87	1018.13
381.07	945.58
381.26	1041.54
381.46	1064.94
381.65	1043.88
381.85	990.05
382.04	1076.65
382.24	1048.56
382.43	1167.93
382.63	1062.60
382.83	1086.01
383.02	1093.03
383.22	1067.28
383.41	1011.11
383.61	1128.14
383.80	1067.28
384.00	1107.07
384.19	1048.56
384.39	1135.16
384.58	1090.69
384.78	1196.01
384.97	1144.52
385.17	1181.97
385.36	1149.20
385.56	1221.76
385.75	1160.91
385.95	1200.69
386.14	1167.93
386.34	1233.46
386.53	1165.59
386.72	1160.91
386.92	1277.93
387.11	1268.57
387.31	1306.02
387.50	1160.91
387.70	1254.53
387.89	1303.68
388.09	1252.19
388.28	1301.34
388.48	1308.36
388.67	1294.32
388.86	1277.93
389.06	1306.02
389.25	1289.64
389.45	1362.19
389.64	1320.06
389.84	1324.74
390.03	1383.26
390.22	1448.79
390.42	1357.51
390.61	1406.66
390.81	1537.73
391.00	1413.68
391.19	1425.39
391.39	1444.11
391.58	1418.36
391.78	1483.90
391.97	1479.22
392.16	1521.35
392.36	1561.14
392.55	1474.54
392.75	1570.50
392.94	1481.56
393.13	1554.12
393.33	1551.78
393.52	1535.39
393.71	1598.59
393.91	1614.97
394.10	1572.84
394.29	1603.27
394.49	1661.78
394.68	1629.01
394.88	1671.14
395.07	1675.82
395.26	1699.23
395.46	1703.91
395.65	1760.08
395.84	1825.62
396.04	1783.49
396.23	1664.12
396.42	1710.93
396.62	1727.32
396.81	1811.57
397.00	1832.64
397.19	1806.89
397.39	1708.59
397.58	1898.17
397.77	1877.11
397.97	1867.75
398.16	1947.33
398.35	1891.15
398.55	1867.75
398.74	1853.70
398.93	1984.77
399.12	1947.33
399.32	1865.41
399.51	1949.67
399.70	2019.88
399.90	2040.95
400.09	2043.29
400.28	2094.78
400.47	1937.96
400.67	2052.65
400.86	2047.97
401.05	1987.11
401.24	2136.91
401.44	2064.35
401.63	2122.87
401.82	2237.55
402.01	2085.42
402.21	2211.81
402.40	2202.44
402.59	2094.78
402.78	2237.55
402.97	2216.49
403.17	2174.36
403.36	2225.85
403.55	2359.26
403.74	2335.85
403.93	2403.73
404.13	2305.43
404.32	2487.99
404.51	2399.05
404.70	2438.84
404.89	2441.18
405.09	2539.48
405.28	2457.56
405.47	2525.44
405.66	2497.35
405.85	2626.08
406.05	2551.18
406.24	2511.39
406.43	2495.01
406.62	2663.53
406.81	2757.15
407.00	2619.06
407.20	2619.06
407.39	2705.66
407.58	2717.36
407.77	2729.06
407.96	2684.59
408.15	2766.51
408.34	2813.32
408.54	2738.43
408.73	2867.16
408.92	2883.54
409.11	2876.52
409.30	2822.69
409.49	2867.16
409.68	3012.27
409.87	2935.03
410.07	2864.82
410.26	2906.95
410.45	2965.46
410.64	3105.89
410.83	3122.27
411.02	3082.49
411.21	3084.83
411.40	3150.36
411.59	3325.90
411.78	3248.66
411.98	3206.53
412.17	3201.85
412.36	3241.64
412.55	3314.20
412.74	3375.05
412.93	3538.89
413.12	3463.99
413.31	3410.16
413.50	3330.58
413.69	3496.76
413.88	3552.93
414.07	3508.46
414.26	3588.04
414.45	3496.76
414.64	3735.50
414.83	3655.92
415.02	3786.99
415.22	3714.43
415.41	3962.53
415.60	3892.31
415.79	3967.21
415.98	4004.66
416.17	3948.48
416.36	3901.67
416.55	4042.11
416.74	4109.98
416.93	4114.66
417.12	4007.00
417.31	4121.68
417.50	4161.47
417.69	4243.39
417.88	4243.39
418.07	4313.61
418.26	4287.86
418.45	4435.32
418.64	4592.13
418.83	4367.44
419.02	4344.03
419.21	4552.34
419.39	4547.66
419.58	4503.19
419.77	4512.55
419.96	4524.26
420.15	4709.16
420.34	4643.62
420.53	4699.80
420.72	4765.33
420.91	4737.24
421.10	4755.97
421.29	4828.53
421.48	4678.73
421.67	4760.65
421.86	4767.67
422.05	4784.06
422.24	4800.44
422.43	4947.89
422.61	4975.98
422.80	4835.55
422.99	4931.51
423.18	4957.25
423.37	4884.70
423.56	4875.34
423.75	4933.85
423.94	4957.25
424.13	4535.96
424.32	4688.09
424.50	5057.90
424.69	5165.56
424.88	5097.69
425.07	5046.20
425.26	4924.49
425.45	4835.55
425.64	4973.64
425.83	4978.32
426.01	5064.92
426.20	5071.94
426.39	5125.77
426.58	5085.98
426.77	5144.50
426.96	5203.01
427.15	5135.14
427.33	5254.50
427.52	5151.52
427.71	5334.08
427.90	5334.08
428.09	5338.76
428.28	5540.05
428.46	5373.87
428.65	5331.74
428.84	5511.96
429.03	5523.66
429.22	5483.88
429.40	5397.28
429.59	5511.96
429.78	5343.44
429.97	5233.44
430.16	5549.41
430.34	5621.97
430.53	5699.20
430.72	5753.04
430.91	5738.99
431.10	5547.07
431.28	5708.57
431.47	5830.27
431.66	5872.40
431.85	5734.31
432.03	5818.57
432.22	6017.52
432.41	5937.94
432.60	5893.47
432.79	5947.30
432.97	6052.63
433.16	6139.23
433.35	6038.58
433.54	6052.63
433.72	6064.33
433.91	6136.88
434.10	6270.30
434.28	6263.27
434.47	6118.16
434.66	6286.68
434.85	6181.35
435.03	6413.07
435.22	6291.36
435.41	6459.88
435.59	6565.20
435.78	6518.39
435.97	6490.31
436.16	6406.05
436.34	6558.18
436.53	6459.88
436.72	6775.85
436.90	6555.84
437.09	6665.85
437.28	6473.92
437.46	6623.72
437.65	6670.53
437.84	6595.63
438.02	6640.10
438.21	6832.02
438.40	6792.23
438.58	6881.18
438.77	7033.31
438.96	6951.39
439.14	7014.59
439.33	7232.26
439.52	7346.94
439.70	7344.60
439.89	7375.03
440.08	7494.40
440.26	7288.43
440.45	7328.22
440.63	7386.73
440.82	7651.21
441.01	7653.55
441.19	7698.02
441.38	7651.21
441.57	7730.79
441.75	7875.90
441.94	8044.42
442.12	7939.10
442.31	8049.10
442.50	8086.55
442.68	8006.97
442.87	8149.75
443.05	7948.46
443.24	8348.69
443.43	8257.41
443.61	8351.03
443.80	8346.35
443.98	8063.15
444.17	7796.32
444.35	8271.45
444.54	8465.72
444.73	8278.47
444.91	8297.20
445.10	8475.08
445.28	8280.82
445.47	8201.24
445.65	8276.13
445.84	8418.91
446.02	8362.73
446.21	8641.26
446.39	8582.74
446.58	8601.47
446.77	8409.54
446.95	8390.82
447.14	8538.27
447.32	8718.50
447.51	8500.83
447.69	8517.21
447.88	8678.71
448.06	8568.70
448.25	8339.33
448.43	8648.28
448.62	8627.21
448.80	8755.94
448.99	8491.46
449.17	8847.22
449.36	8645.94
449.54	8912.76
449.73	8971.27
449.91	9088.30
450.10	9132.77
450.28	9121.07
450.46	8840.20
450.65	9055.53
450.83	9130.43
451.02	8957.23
451.20	9284.91
451.39	9261.50
451.57	9308.31
451.76	9062.55
451.94	9364.48
452.13	9221.71
452.31	9509.60
452.49	9163.20
452.68	9465.13
452.86	9554.07
453.05	9427.68
453.23	9554.07
453.42	9535.34
453.60	9378.53
453.78	9469.81
453.97	9554.07
454.15	9650.03
454.34	9575.13
454.52	9671.09
454.70	9673.43
454.89	9902.81
455.07	9827.91
455.26	9795.14
455.44	10064.30
455.62	9837.27
455.81	10087.71
455.99	10064.30
456.17	9970.68
456.36	10012.81
456.54	10333.47
456.73	10342.83
456.91	10682.20
457.09	10436.45
457.28	10628.37
457.46	10415.38
457.64	10621.35
457.83	10525.39
458.01	10424.75
458.19	10689.23
458.38	10633.05
458.56	10815.62
458.74	10494.96
458.93	10869.45
459.11	10850.72
459.29	10689.23
459.48	10853.06
459.66	10892.85
459.84	10967.75
460.03	11112.86
460.21	11171.38
460.39	10925.62
460.57	10916.26
460.76	11190.10
460.94	11199.46
461.12	11147.97
461.31	11260.32
461.49	11225.21
461.67	11220.53
461.85	11449.90
462.04	11412.45
462.22	11562.25
462.40	11534.16
462.59	11580.97
462.77	11522.46
462.95	11534.16
463.13	11634.80
463.32	11641.82
463.50	11634.80
463.68	11868.86
463.86	11763.53
464.05	11754.17
464.23	11700.34
464.41	11981.20
464.59	11679.27
464.78	12301.86
464.96	11978.86
465.14	11803.32
465.32	12018.65
465.50	12233.98
465.69	12217.60
465.87	12067.80
466.05	12262.07
466.23	12219.94
466.41	12313.56
466.60	12468.03
466.78	12241.00
466.96	12311.22
467.14	12315.90
467.32	12414.20
467.51	12702.09
467.69	12343.99
467.87	12400.16
468.05	12587.40
468.23	12386.12
468.41	12430.59
468.60	12402.50
468.78	12610.81
468.96	12659.96
469.14	12744.22
469.32	13135.09
469.50	12823.80
469.69	12849.54
469.87	13226.37
470.05	13083.59
470.23	13341.05
470.41	13137.43
470.59	13184.24
470.77	13149.13
470.95	13048.49
471.14	13362.12
471.32	13369.14
471.50	13507.23
471.68	13757.67
471.86	13645.32
472.04	13776.39
472.22	14125.13
472.40	13727.24
472.58	13668.73
472.77	14127.47
472.95	14324.08
473.13	14785.16
473.31	14059.60
473.49	14003.43
473.67	14375.57
473.85	14291.31
474.03	14623.67
474.21	14590.90
474.39	14672.82
474.57	14487.92
474.75	14885.81
474.93	15225.18
475.12	14689.20
475.30	15300.08
475.48	15222.84
475.66	15260.29
475.84	15119.86
476.02	15391.36
476.20	15227.53
476.38	15704.99
476.56	15761.17
476.74	16067.78
476.92	16114.59
477.10	15499.03
477.28	16353.32
477.46	16042.03
477.64	16439.92
477.82	16503.12
478.00	17006.33
478.18	17036.76
478.36	17081.23
478.54	17184.21
478.72	17184.21
478.90	17352.73
479.08	17465.08
479.26	17465.08
479.44	17755.30
479.62	17972.97
479.80	18375.55
479.98	18111.07
480.16	18733.65
480.34	18293.63
480.52	19056.64
480.70	18630.66
480.88	18658.75
481.06	18712.58
481.24	18991.11
481.41	18925.57
481.59	19466.24
481.77	19372.61
481.95	19587.94
482.13	19763.48
482.31	19817.32
482.49	20283.08
482.67	19948.39
482.85	20697.36
483.03	20587.35
483.21	20973.54
483.39	20971.20
483.57	20947.79
483.74	21120.99
483.92	21348.03
484.10	21549.31
484.28	21525.91
484.46	21944.86
484.64	22630.64
484.82	22097.00
485.00	22459.78
485.18	22429.35
485.35	22965.34
485.53	22895.12
485.71	23065.98
485.89	23527.06
486.07	23424.08
486.25	23377.27
486.43	23520.04
486.61	23857.08
486.78	24053.69
486.96	24142.63
487.14	24437.53
487.32	24601.37
487.50	25034.37
487.68	25340.98
487.85	25256.72
488.03	25649.93
488.21	25701.42
488.39	25876.96
488.57	26019.74
488.75	26331.03
488.92	26742.96
489.10	26527.63
489.28	26773.39
489.46	27292.99
489.64	26998.08
489.81	27665.13
489.99	27847.69
490.17	27756.41
490.35	27962.38
490.53	28102.81
490.70	28816.68
490.88	28308.78
491.06	28762.84
491.24	28664.54
491.41	29064.77
491.59	29191.16
491.77	29050.73
491.95	29745.87
492.13	29731.83
492.30	30363.77
492.48	29916.73
492.66	30244.40
492.84	30469.09
493.01	30913.80
493.19	30782.73
493.37	31131.47
493.54	31026.14
493.72	31625.32
493.90	31686.17
494.08	31906.18
494.25	32044.27
494.43	32353.23
494.61	32158.96
494.79	32177.68
494.96	32318.12
495.14	32907.93
495.32	33291.78
495.49	33432.21
495.67	33404.13
495.85	33787.97
496.02	33907.34
496.20	34239.70
496.38	33905.00
496.55	34300.55
496.73	34574.39
496.91	34581.42
497.09	35292.94
497.26	34953.56
497.44	35262.51
497.62	35353.79
497.79	35735.30
497.97	35349.11
498.14	36184.68
498.32	36280.64
498.50	36268.94
498.67	36971.10
498.85	36538.10
499.03	36524.06
499.20	36685.56
499.38	36954.72
499.56	36910.25
499.73	36966.42
499.91	37336.23
500.08	38059.45
500.26	37708.37
500.44	37827.74
500.61	37914.34
500.79	37860.51
500.97	37706.03
501.14	38323.93
501.32	38572.03
501.49	38513.52
501.67	38672.67
501.84	38679.69
502.02	39166.52
502.20	39119.71
502.37	39112.69
502.55	39274.19
502.72	39613.57
502.90	39735.27
503.07	39658.04
503.25	39784.43
503.43	39742.30
503.60	40098.06
503.78	40201.04
503.95	40299.34
504.13	40538.08
504.30	40973.42
504.48	40493.61
504.65	40713.62
504.83	40982.78
505.01	41209.81
505.18	41900.27
505.36	41649.83
505.53	41268.33
505.71	41593.66
505.88	41713.03
506.06	41741.11
506.23	42623.50
506.41	41830.05
506.58	42085.17
506.76	42171.77
506.93	42403.49
507.11	42110.92
507.28	42969.90
507.46	43037.77
507.63	42745.20
507.81	43358.42
507.98	42665.63
508.16	43349.06
508.33	43508.22
508.50	43241.40
508.68	43690.78
508.85	43882.70
509.03	43613.54
509.20	44325.07
509.38	44533.37
509.55	44463.16
509.73	44194.00
509.90	44863.39
510.08	44669.12
510.25	44830.62
510.42	45055.31
510.60	45347.88
510.77	45179.36
510.95	45713.00
511.12	44978.07
511.30	45034.25
511.47	45549.17
511.64	45469.59
511.82	45614.70
511.99	45811.31
512.17	45680.24
512.34	45963.44
512.51	46677.30
512.69	46363.67
512.86	46344.95
513.04	46747.52
513.21	46637.51
513.38	47157.11
513.56	46990.94
513.73	46988.60
513.90	47295.21
514.08	46674.96
514.25	47646.29
514.43	47159.45
514.60	47590.11
514.77	47255.42
514.95	47756.29
515.12	47896.72
515.29	47522.24
515.47	47971.62
515.64	48215.04
515.81	47770.33
515.99	48072.26
516.16	48463.13
516.33	48149.50
516.51	48556.75
516.68	48612.93
516.85	48374.19
517.03	48708.89
517.20	49069.33
517.37	48949.96
517.54	48875.07
517.72	49209.76
517.89	48811.87
518.06	49127.84
518.24	49296.36
518.41	49422.75
518.58	49755.11
518.75	49382.96
518.93	49535.10
519.10	49439.14
519.27	49755.11
519.45	49993.84
519.62	50188.11
519.79	49876.82
519.96	50054.70
520.14	50195.13
520.31	50396.42
520.48	50403.44
520.65	50293.43
520.83	50719.41
521.00	50733.45
521.17	50546.21
521.34	50960.48
521.52	50567.27
521.69	50822.39
521.86	50806.01
522.03	51281.14
522.20	51444.98
522.38	51313.90
522.55	51664.99
522.72	51526.89
522.89	51547.96
523.07	51688.39
523.24	51620.52
523.41	51653.28
523.58	51573.70
523.75	52058.20
523.92	51962.23
524.10	51798.40
524.27	52119.05
524.44	52292.25
524.61	51943.51
524.78	52519.28
524.96	52280.55
525.13	52376.51
525.30	52439.70
525.47	52772.06
525.64	52608.22
525.81	52973.34
525.98	52875.04
526.16	52547.37
526.33	52755.68
526.50	52734.61
526.67	52556.73
526.84	52978.03
527.01	53132.50
527.18	52673.76
527.36	52734.61
527.53	53120.80
527.70	53378.26
527.87	53354.85
528.04	53331.45
528.21	53301.02
528.38	53364.21
528.55	53668.48
528.72	53378.26
528.89	53528.05
529.07	53404.00
529.24	53621.67
529.41	53858.07
529.58	53712.95
529.75	53893.18
529.92	53813.60
530.09	53787.85
530.26	53851.05
530.43	53717.64
530.60	53846.36
530.77	53951.69
530.94	54262.98
531.11	54358.94
531.28	54064.03
531.46	54497.03
531.63	54192.76
531.80	54438.52
531.97	54457.24
532.14	54459.58
532.31	54485.33
532.48	54513.42
532.65	54710.02
532.82	54780.24
532.99	54653.85
533.16	54557.89
533.33	54930.03
533.50	55016.63
533.67	54777.90
533.84	54798.96
534.01	54976.84
534.18	54925.35
534.35	55152.38
534.52	54904.29
534.69	55070.46
534.86	54981.52
535.03	55194.51
535.20	55435.59
535.37	55550.27
535.54	55407.50
535.71	55152.38
535.88	55412.18
536.05	55451.97
536.22	55629.85
536.38	55466.02
536.55	55599.43
536.72	55739.86
536.89	55545.59
537.06	55744.54
537.23	55681.34
537.40	55655.60
537.57	55646.24
537.74	55735.18
537.91	56100.30
538.08	55908.38
538.25	55491.76
538.42	55957.53
538.59	56236.05
538.75	55884.97
538.92	56076.90
539.09	56427.98
539.26	56268.82
539.43	56257.12
539.60	56254.78
539.77	56240.73
539.94	56463.08
540.11	56446.70
540.28	56313.29
540.44	56287.54
540.61	56296.91
540.78	56378.82
540.95	56413.93
541.12	56193.92
541.29	56327.33
541.46	56753.31
541.62	56729.90
541.79	56706.50
541.96	56273.50
542.13	56652.67
542.30	56779.06
542.47	56914.81
542.63	56755.65
542.80	56882.04
542.97	57261.21
543.14	57272.91
543.31	57172.27
543.48	57338.44
543.64	57492.92
543.81	57453.13
543.98	57448.45
544.15	57425.04
544.32	57347.81
544.48	57736.34
544.65	57387.60
544.82	57682.50
544.99	57406.32
545.16	57607.61
545.32	57399.30
545.49	57694.21
545.66	57766.76
545.83	57705.91
546.00	57640.37
546.16	57719.95
546.33	57771.44
546.50	57504.62
546.67	57682.50
546.83	57361.85
547.00	57696.55
547.17	57631.01
547.34	57813.57
547.50	57895.49
547.67	57902.51
547.84	58199.76
548.00	58129.54
548.17	58134.23
548.34	58145.93
548.51	58253.59
548.67	58408.07
548.84	57977.41
549.01	58164.65
549.18	58138.91
549.34	58162.31
549.51	58337.85
549.68	58265.30
549.84	58269.98
550.01	58452.54
550.18	58253.59
550.34	58389.34
550.51	58478.28
550.68	58607.01
550.84	57925.92
551.01	58548.50
551.18	58499.35
551.34	58494.67
551.51	58728.72
551.68	58784.90
551.84	58660.85
552.01	58447.86
552.18	58824.68
552.34	58394.03
552.51	58632.76
552.68	58590.63
552.84	58702.98
553.01	58951.07
553.18	58953.41
553.34	59018.95
553.51	58824.68
553.67	58904.26
553.84	58974.48
554.01	58983.84
554.17	59054.06
554.34	58845.75
554.51	59161.72
554.67	58913.62
554.84	58979.16
555.00	59016.61
555.17	59248.32
555.33	58965.12
555.50	59070.44
555.67	58981.50
555.83	59114.91
556.00	59381.73
556.16	59311.52
556.33	59435.56
556.50	59271.73
556.66	59243.64
556.83	59143.00
556.99	59566.63
557.16	59353.65
557.32	59487.06
557.49	59597.06
557.65	59222.58
557.82	59519.82
557.98	59421.52
558.15	59447.27
558.32	59494.08
558.48	59360.67
558.65	59688.34
558.81	59482.37
558.98	59678.98
559.14	59608.76
559.31	59728.13
559.47	59559.61
559.64	59693.02
559.80	59763.24
559.97	59744.51
560.13	59608.76
560.30	59496.42
560.46	59737.49
560.63	59828.77
560.79	59852.18
560.96	59920.05
561.12	59693.02
561.29	59758.56
561.45	60018.36
561.61	59913.03
561.78	60051.12
561.94	59798.35
562.11	59774.94
562.27	59788.98
562.44	59959.84
562.60	60149.43
562.77	59936.44
562.93	59861.54
563.10	59973.89
563.26	59985.59
563.42	60109.64
563.59	59994.95
563.75	59978.57
563.92	59866.22
564.08	60053.47
564.24	60161.13
564.41	60266.45
564.57	60102.62
564.74	60168.15
564.90	60350.71
565.07	60301.56
565.23	59983.25
565.39	60207.94
565.56	60083.89
565.72	60231.35
565.88	60100.28
566.05	59985.59
566.21	60116.66
566.38	60177.51
566.54	60275.82
566.70	60406.89
566.87	60388.16
567.03	60238.37
567.19	60533.28
567.36	60385.82
567.52	60310.92
567.68	60561.36
567.85	60381.14
568.01	60320.29
568.17	60444.33
568.34	60355.39
568.50	60020.70
568.66	60334.33
568.83	60568.38
568.99	60456.04
569.15	60484.12
569.32	60402.21
569.48	60350.71
569.64	60437.31
569.81	60446.68
569.97	60257.09
570.13	60638.60
570.30	60320.29
570.46	60697.11
570.62	60467.74
570.78	60430.29
570.95	60369.44
571.11	60718.18
571.27	60736.90
571.43	60388.16
571.60	60603.49
571.76	60519.23
571.92	60713.50
572.09	60629.24
572.25	60535.62
572.41	60694.77
572.57	60633.92
572.74	60788.39
572.90	60706.47
573.06	60622.22
573.22	60692.43
573.38	60732.22
573.55	60589.45
573.71	60837.54
573.87	60779.03
574.03	60662.00
574.20	60720.52
574.36	60392.84
574.52	60640.94
574.68	60561.36
574.84	60741.58
575.01	60851.59
575.17	60514.55
575.33	60685.41
575.49	60626.90
575.65	60711.16
575.82	60963.93
575.98	60977.98
576.14	61003.72
576.30	60830.52
576.46	60900.74
576.62	60605.83
576.79	60732.22
576.95	60666.69
577.11	60825.84
577.27	60893.72
577.43	60711.16
577.59	60722.86
577.75	60687.75
577.92	60657.32
578.08	60900.74
578.24	60760.31
578.40	60933.51
578.56	61024.79
578.72	60893.72
578.88	61139.47
579.04	60877.33
579.21	60727.54
579.37	61041.17
579.53	61057.56
579.69	60582.43
579.85	60882.02
580.01	60776.69
580.17	60697.11
580.33	60973.30
580.49	61041.17
580.65	61024.79
580.82	61085.64
580.98	60874.99
581.14	60762.65
581.30	61265.86
581.46	61001.38
581.62	61111.39
581.78	60807.12
581.94	61045.85
582.10	60837.54
582.26	60521.57
582.42	60786.05
582.58	61038.83
582.74	60919.46
582.90	60884.36
583.06	61045.85
583.22	60882.02
583.38	60863.29
583.54	60830.52
583.70	61029.47
583.86	61055.21
584.02	60879.67
584.18	61048.19
584.34	61001.38
584.50	61003.72
584.66	60786.05
584.82	60800.10
584.98	61207.35
585.14	61029.47
585.30	60898.40
585.46	61200.33
585.62	61181.60
585.78	61008.40
585.94	60884.36
586.10	60940.53
586.26	61188.63
586.42	61022.45
586.58	61146.50
586.74	61179.26
586.90	60886.70
587.06	61006.06
587.22	60985.00
587.38	61095.00
587.54	61251.82
587.70	61139.47
587.86	60896.06
588.02	60968.61
588.18	61127.77
588.34	61174.58
588.49	61001.38
