SpectraSuite Data File
++++++++++++++++++++++++++++++++++++
Date: Fri Oct 25 10:43:18 EDT 2013
User: price-jones
Dark Spectrum Present: No
Reference Spectrum Present: No
Number of Sampled Component Spectra: 1
Spectrometers: USB2+H05261
Integration Time (usec): 100000 (USB2+H05261)
Spectra Averaged: 1 (USB2+H05261)
Boxcar Smoothing: 0 (USB2+H05261)
Correct for Electrical Dark: No (USB2+H05261)
Strobe/Lamp Enabled: No (USB2+H05261)
Correct for Detector Non-linearity: No (USB2+H05261)
Correct for Stray Light: No (USB2+H05261)
Number of Pixels in Processed Spectrum: 2048
>>>>>Begin Processed Spectral Data<<<<<
365.73	95.96
365.92	95.96
366.12	95.96
366.32	102.98
366.52	7.02
366.72	84.26
366.91	30.43
367.11	0.00
367.31	2.34
367.51	11.70
367.70	25.75
367.90	51.49
368.10	0.00
368.30	53.83
368.49	37.45
368.69	98.30
368.89	18.72
369.09	32.77
369.28	14.04
369.48	30.43
369.68	0.00
369.87	79.58
370.07	70.22
370.27	110.01
370.47	248.10
370.66	379.17
370.86	411.93
371.06	369.80
371.25	465.77
371.45	444.70
371.65	507.90
371.84	430.66
372.04	477.47
372.24	458.74
372.44	521.94
372.63	489.17
372.83	512.58
373.03	409.59
373.22	496.19
373.42	496.19
373.62	442.36
373.81	578.11
374.01	538.32
374.21	521.94
374.40	510.24
374.60	613.22
374.79	582.79
374.99	531.30
375.19	650.67
375.38	585.13
375.58	629.60
375.78	624.92
375.97	650.67
376.17	622.58
376.37	599.18
376.56	613.22
376.76	627.26
376.95	615.56
377.15	592.16
377.35	674.07
377.54	669.39
377.74	730.25
377.93	603.86
378.13	653.01
378.33	727.91
378.52	603.86
378.72	662.37
378.91	610.88
379.11	575.77
379.31	629.60
379.50	592.16
379.70	711.52
379.89	664.71
380.09	699.82
380.28	685.78
380.48	671.73
380.68	653.01
380.87	702.16
381.07	671.73
381.26	681.10
381.46	753.65
381.65	737.27
381.85	669.39
382.04	669.39
382.24	741.95
382.43	660.03
382.63	683.44
382.83	671.73
383.02	748.97
383.22	737.27
383.41	671.73
383.61	730.25
383.80	716.20
384.00	678.76
384.19	755.99
384.39	777.06
384.58	868.34
384.78	856.64
384.97	767.70
385.17	748.97
385.36	903.45
385.56	765.36
385.75	727.91
385.95	851.96
386.14	854.30
386.34	903.45
386.53	706.84
386.72	847.27
386.92	828.55
387.11	816.85
387.31	847.27
387.50	779.40
387.70	823.87
387.89	887.06
388.09	842.59
388.28	842.59
388.48	802.80
388.67	938.55
388.86	910.47
389.06	915.15
389.25	866.00
389.45	933.87
389.64	905.79
389.84	973.66
390.03	973.66
390.22	1055.58
390.42	1025.15
390.61	945.58
390.81	980.68
391.00	1043.88
391.19	1001.75
391.39	1111.75
391.58	1015.79
391.78	992.39
391.97	987.71
392.16	1060.26
392.36	1020.47
392.55	926.85
392.75	1013.45
392.94	952.60
393.13	980.68
393.33	994.73
393.52	1057.92
393.71	1123.46
393.91	1050.90
394.10	1015.79
394.29	1144.52
394.49	1107.07
394.68	1200.69
394.88	1214.74
395.07	1242.82
395.26	1259.21
395.46	1231.12
395.65	1172.61
395.84	1200.69
396.04	1287.29
396.23	1224.10
396.42	1121.12
396.62	1146.86
396.81	1170.27
397.00	1198.35
397.19	1266.23
397.39	1324.74
397.58	1425.39
397.77	1308.36
397.97	1441.77
398.16	1448.79
398.35	1427.73
398.55	1387.94
398.74	1437.09
398.93	1373.89
399.12	1516.67
399.32	1586.88
399.51	1547.09
399.70	1472.20
399.90	1460.49
400.09	1544.75
400.28	1570.50
400.47	1614.97
400.67	1591.56
400.86	1535.39
401.05	1633.69
401.24	1610.29
401.44	1617.31
401.63	1614.97
401.82	1701.57
402.01	1664.12
402.21	1813.92
402.40	1713.27
402.59	1755.40
402.78	1734.34
402.97	1706.25
403.17	1682.85
403.36	1729.66
403.55	1893.49
403.74	1781.15
403.93	1811.57
404.13	1963.71
404.32	1916.90
404.51	1846.68
404.70	1926.26
404.89	1928.60
405.09	2017.54
405.28	2031.58
405.47	1874.77
405.66	1937.96
405.85	1949.67
406.05	1973.07
406.24	1933.28
406.43	1947.33
406.62	1998.82
406.81	2094.78
407.00	2015.20
407.20	2062.01
407.39	1987.11
407.58	2083.08
407.77	2155.63
407.96	2134.57
408.15	2244.57
408.34	2246.91
408.54	2214.15
408.73	2272.66
408.92	2258.62
409.11	2190.74
409.30	2228.19
409.49	2249.25
409.68	2303.09
409.87	2289.04
410.07	2256.28
410.26	2209.47
410.45	2406.07
410.64	2349.90
410.83	2380.32
411.02	2403.73
411.21	2644.81
411.40	2600.34
411.59	2581.61
411.78	2602.68
411.98	2537.14
412.17	2548.84
412.36	2597.99
412.55	2586.29
412.74	2677.57
412.93	2736.09
413.12	2677.57
413.31	2810.98
413.50	2806.30
413.69	2794.60
413.88	3026.31
414.07	2825.03
414.26	2920.99
414.45	2946.73
414.64	2876.52
414.83	3082.49
415.02	2991.20
415.22	2995.89
415.41	3005.25
415.60	3028.65
415.79	3052.06
415.98	3204.19
416.17	3234.62
416.36	3197.17
416.55	3187.81
416.74	3208.87
416.93	3258.03
417.12	3283.77
417.31	3342.28
417.50	3438.25
417.69	3325.90
417.88	3351.65
418.07	3433.57
418.26	3323.56
418.45	3480.38
418.64	3442.93
418.83	3459.31
419.02	3466.33
419.21	3520.17
419.39	3623.15
419.58	3529.53
419.77	3564.64
419.96	3592.72
420.15	3625.49
420.34	3595.06
420.53	3829.12
420.72	3861.88
420.91	3763.58
421.10	3859.54
421.29	3812.73
421.48	3676.98
421.67	3922.74
421.86	3786.99
422.05	3845.50
422.24	3721.45
422.43	3784.65
422.61	3749.54
422.80	3684.00
422.99	3852.52
423.18	3918.06
423.37	3871.25
423.56	3943.80
423.75	3812.73
423.94	3627.83
424.13	3548.25
424.32	3819.75
424.50	3964.87
424.69	3974.23
424.88	3976.57
425.07	3934.44
425.26	3791.67
425.45	3852.52
425.64	3817.41
425.83	3857.20
426.01	4021.04
426.20	3906.35
426.39	4032.74
426.58	3911.04
426.77	3829.12
426.96	3922.74
427.15	3969.55
427.33	3948.48
427.52	4079.55
427.71	3985.93
427.90	4044.45
428.09	4107.64
428.28	4163.81
428.46	4086.58
428.65	3969.55
428.84	4152.11
429.03	4182.54
429.22	4133.39
429.40	4163.81
429.59	4201.26
429.78	3880.61
429.97	3817.41
430.16	3946.14
430.34	3976.57
430.53	4154.45
430.72	4117.00
430.91	4215.30
431.10	4196.58
431.28	4484.47
431.47	4482.13
431.66	4547.66
431.85	4374.46
432.03	4564.04
432.22	4545.32
432.41	4664.69
432.60	4730.22
432.79	4505.53
432.97	4664.69
433.16	4620.22
433.35	4638.94
433.54	4610.86
433.72	4575.75
433.91	4573.41
434.10	4660.01
434.28	4807.46
434.47	4669.37
434.66	4723.20
434.85	4802.78
435.03	4992.36
435.22	4915.12
435.41	4833.21
435.59	4983.00
435.78	5008.75
435.97	5090.67
436.16	5191.31
436.34	5163.22
436.53	5074.28
436.72	5158.54
436.90	5041.51
437.09	5116.41
437.28	5011.09
437.46	5109.39
437.65	5064.92
437.84	5041.51
438.02	5188.97
438.21	5172.58
438.40	4999.38
438.58	5401.96
438.77	5373.87
438.96	5437.06
439.14	5437.06
439.33	5631.33
439.52	5547.07
439.70	5315.36
439.89	5596.22
440.08	5640.69
440.26	5708.57
440.45	5614.95
440.63	5788.14
440.82	5806.87
441.01	5853.68
441.19	6061.99
441.38	6024.54
441.57	6115.82
441.75	6019.86
441.94	6139.23
442.12	6031.56
442.31	6090.07
442.50	6230.51
442.68	6356.90
442.87	6216.46
443.05	6305.40
443.24	6394.34
443.43	6310.08
443.61	6228.17
443.80	6415.41
443.98	6120.50
444.17	6118.16
444.35	6520.73
444.54	6640.10
444.73	6445.84
444.91	6476.26
445.10	6408.39
445.28	6368.60
445.47	6296.04
445.65	6396.68
445.84	6483.28
446.02	6560.52
446.21	6452.86
446.39	6445.84
446.58	6434.13
446.77	6597.97
446.95	6473.92
447.14	6710.32
447.32	6747.76
447.51	6504.35
447.69	6534.78
447.88	6537.12
448.06	6731.38
448.25	6588.61
448.43	6497.33
448.62	6670.53
448.80	6579.25
448.99	6623.72
449.17	6817.98
449.36	6707.98
449.54	6817.98
449.73	6991.18
449.91	6939.69
450.10	7002.88
450.28	7075.44
450.46	7199.49
450.65	7220.55
450.83	7192.47
451.02	7033.31
451.20	7122.25
451.39	7002.88
451.57	6942.03
451.76	7108.21
451.94	7194.81
452.13	7255.66
452.31	7080.12
452.49	6927.99
452.68	6984.16
452.86	7108.21
453.05	7232.26
453.23	7435.88
453.42	7122.25
453.60	7166.72
453.78	7438.22
453.97	7274.38
454.15	7267.36
454.34	7232.26
454.52	7119.91
454.70	7520.14
454.89	7552.91
455.07	7332.90
455.26	7552.91
455.44	7756.54
455.62	7754.19
455.81	7763.56
455.99	7808.03
456.17	7630.15
456.36	7655.89
456.54	7784.62
456.73	7805.69
456.91	7960.16
457.09	7934.42
457.28	8100.59
457.46	7999.95
457.64	8051.44
457.83	7943.78
458.01	7918.03
458.19	8095.91
458.38	7999.95
458.56	8170.81
458.74	8133.36
458.93	8142.72
459.11	8037.40
459.29	8346.35
459.48	8056.12
459.66	8058.46
459.84	8439.97
460.03	8336.99
460.21	8383.80
460.39	8484.44
460.57	8276.13
460.76	8482.10
460.94	8542.96
461.12	8533.59
461.31	8711.47
461.49	8599.13
461.67	8652.96
461.85	8713.81
462.04	8713.81
462.22	9263.84
462.40	8833.18
462.59	8725.52
462.77	8683.39
462.95	8784.03
463.13	8933.82
463.32	8777.01
463.50	8802.75
463.68	8975.95
463.86	8659.98
464.05	8877.65
464.23	8772.33
464.41	8835.52
464.59	8875.31
464.78	9092.98
464.96	9001.70
465.14	8884.67
465.32	9130.43
465.50	9228.73
465.69	9217.03
465.87	9240.44
466.05	9083.62
466.23	9111.71
466.41	9149.15
466.60	9153.84
466.78	9041.49
466.96	9170.22
467.14	9053.19
467.32	9114.05
467.51	9312.99
467.69	9224.05
467.87	9261.50
468.05	9240.44
468.23	9486.19
468.41	9130.43
468.60	9366.82
468.78	9624.28
468.96	9437.04
469.14	9387.89
469.32	9624.28
469.50	9371.50
469.69	9610.24
469.87	9708.54
470.05	9586.83
470.23	9661.73
470.41	9701.52
470.59	9717.90
470.77	9750.67
470.95	9905.15
471.14	10071.33
471.32	9830.25
471.50	9977.70
471.68	10068.98
471.86	10174.31
472.04	10242.18
472.22	10389.64
472.40	9989.41
472.58	10314.74
472.77	10146.22
472.95	10443.47
473.13	10553.48
473.31	10380.28
473.49	10244.52
473.67	10665.82
473.85	10448.15
474.03	10874.13
474.21	10869.45
474.39	11009.88
474.57	10876.47
474.75	10799.23
474.93	11091.80
475.12	11110.52
475.30	11098.82
475.48	11089.46
475.66	11126.91
475.84	11108.18
476.02	11192.44
476.20	11328.19
476.38	11435.86
476.56	11534.16
476.74	11726.08
476.92	11569.27
477.10	11749.49
477.28	11922.69
477.46	11786.94
477.64	12114.61
477.82	12266.75
478.00	12351.01
478.18	12362.71
478.36	12552.29
478.54	12538.25
478.72	12634.21
478.90	12748.90
479.08	12858.90
479.26	12854.22
479.44	12753.58
479.62	13020.40
479.80	13020.40
479.98	13242.75
480.16	13385.52
480.34	13387.86
480.52	13659.37
480.70	13406.59
480.88	13422.97
481.06	13696.82
481.24	13760.01
481.41	13968.32
481.59	14274.93
481.77	14251.52
481.95	14197.69
482.13	14281.95
482.31	14207.05
482.49	14658.78
482.67	14483.24
482.85	14761.76
483.03	14869.42
483.21	14998.15
483.39	15194.76
483.57	14850.70
483.74	15257.95
483.92	15176.03
484.10	15379.66
484.28	15667.55
484.46	15639.46
484.64	16287.79
484.82	15822.02
485.00	15908.62
485.18	16168.42
485.35	16266.72
485.53	15730.74
485.71	15850.11
485.89	15950.75
486.07	16161.40
486.25	16451.63
486.43	16449.28
486.61	16922.07
486.78	16947.82
486.96	16922.07
487.14	17343.37
487.32	17762.33
487.50	17778.71
487.68	17865.31
487.85	18195.32
488.03	18265.54
488.21	18181.28
488.39	18541.72
488.57	18560.45
488.75	18515.98
488.92	18661.09
489.10	19108.13
489.28	19126.86
489.46	19421.77
489.64	19171.33
489.81	19962.43
489.99	19896.89
490.17	19829.02
490.35	20453.94
490.53	20086.48
490.70	20128.61
490.88	20198.82
491.06	20615.44
491.24	20451.60
491.41	20486.71
491.59	20652.89
491.77	20362.66
491.95	20603.74
492.13	21046.10
492.30	21001.63
492.48	21322.28
492.66	21331.64
492.84	21610.17
493.01	21727.19
493.19	21422.92
493.37	22157.85
493.54	21979.97
493.72	22328.71
493.90	22195.30
494.08	22789.80
494.25	22867.03
494.43	22817.88
494.61	23077.68
494.79	23201.73
494.96	23042.57
495.14	23098.75
495.32	23283.65
495.49	23250.88
495.67	23606.64
495.85	23821.97
496.02	23704.95
496.20	23924.96
496.38	24034.96
496.55	24334.55
496.73	24711.38
496.91	24236.25
497.09	24641.16
497.26	24547.54
497.44	24730.10
497.62	24788.61
497.79	24994.58
497.97	24692.65
498.14	24973.52
498.32	25404.17
498.50	25013.31
498.67	25619.50
498.85	25621.84
499.03	25734.19
499.20	25853.56
499.38	26005.69
499.56	26029.10
499.73	25998.67
499.91	26286.56
500.08	26218.68
500.26	26015.05
500.44	26375.50
500.61	26300.60
500.79	26218.68
500.97	26544.02
501.14	26764.03
501.32	26532.31
501.49	26731.26
501.67	26703.17
501.84	27077.66
502.02	27248.52
502.20	27555.13
502.37	27384.27
502.55	27101.06
502.72	27520.02
502.90	27580.87
503.07	27562.15
503.25	27709.60
503.43	27342.14
503.60	27637.05
503.78	27782.16
503.95	27325.75
504.13	28180.05
504.30	28353.25
504.48	28245.58
504.65	28732.42
504.83	28765.18
505.01	28500.70
505.18	28540.49
505.36	29167.76
505.53	29034.35
505.71	29244.99
505.88	29310.53
506.06	29324.57
506.23	29462.66
506.41	29263.72
506.58	29472.03
506.76	29275.42
506.93	29474.37
507.11	29418.19
507.28	29570.33
507.46	29537.56
507.63	29771.61
507.81	30029.07
507.98	29685.01
508.16	29579.69
508.33	29736.51
508.50	30387.18
508.68	30213.98
508.85	30562.72
509.03	30265.47
509.20	30864.64
509.38	30764.00
509.55	30829.54
509.73	30721.87
509.90	31527.02
510.08	30457.39
510.25	31227.43
510.42	31243.81
510.60	31463.82
510.77	31442.76
510.95	31655.75
511.12	31269.56
511.30	31669.79
511.47	31559.78
511.64	31955.33
511.82	31826.60
511.99	31845.33
512.17	31786.82
512.34	31840.65
512.51	32046.62
512.69	32231.52
512.86	32208.11
513.04	32524.08
513.21	32453.87
513.38	32046.62
513.56	32786.22
513.73	32381.31
513.90	32648.13
514.08	32512.38
514.25	32694.94
514.43	32652.81
514.60	32950.06
514.77	33193.48
514.95	33223.90
515.12	33273.06
515.29	33076.45
515.47	33450.94
515.64	33596.05
515.81	33518.81
515.99	33013.26
516.16	33146.67
516.33	33268.37
516.51	33441.57
516.68	33277.74
516.85	32601.32
517.03	33053.05
517.20	33446.26
517.37	34012.66
517.54	34003.30
517.72	33958.83
517.89	33521.15
518.06	33764.57
518.24	33647.54
518.41	33830.10
518.58	34122.67
518.75	34092.24
518.93	34574.39
519.10	34410.56
519.27	34300.55
519.45	34457.37
519.62	34899.73
519.79	34588.44
519.96	34857.60
520.14	34810.79
520.31	34958.24
520.48	34881.00
520.65	35302.30
520.83	35304.64
521.00	35187.61
521.17	35276.55
521.34	35374.86
521.52	35751.68
521.69	35526.99
521.86	35658.06
522.03	35805.52
522.20	35864.03
522.38	35545.72
522.55	36236.17
522.72	35793.81
522.89	35763.39
523.07	35857.01
523.24	35899.14
523.41	36641.09
523.58	36767.48
523.75	37223.88
523.92	36694.92
524.10	36638.75
524.27	36666.83
524.44	36449.16
524.61	37095.15
524.78	36746.41
524.96	36884.50
525.13	37212.18
525.30	37144.30
525.47	37186.43
525.64	37584.32
525.81	37312.82
525.98	37109.19
526.16	37270.69
526.33	37088.13
526.50	36814.29
526.67	36601.30
526.84	37013.23
527.01	36580.23
527.18	37184.09
527.36	37460.27
527.53	38143.71
527.70	37734.12
527.87	37769.22
528.04	37860.51
528.21	37701.35
528.38	37890.93
528.55	38129.67
528.72	38384.79
528.89	38307.55
529.07	38644.59
529.24	38183.50
529.41	38389.47
529.58	38572.03
529.75	38171.80
529.92	38546.28
530.09	38452.66
530.26	38684.37
530.43	38586.07
530.60	38391.81
530.77	38438.62
530.94	39480.16
531.11	38621.18
531.28	39229.72
531.46	38689.06
531.63	38946.51
531.80	38892.68
531.97	39505.90
532.14	39026.09
532.31	38717.14
532.48	38864.60
532.65	39189.93
532.82	38911.41
532.99	39185.25
533.16	38972.26
533.33	39599.52
533.50	39545.69
533.67	39421.64
533.84	39611.23
534.01	39751.66
534.18	39697.83
534.35	39770.38
534.52	39566.76
534.69	39648.68
534.86	39821.87
535.03	39756.34
535.20	39948.26
535.37	40053.59
535.54	40322.75
535.71	40091.04
535.88	40041.88
536.05	39793.79
536.22	40521.69
536.38	40205.72
536.55	39711.87
536.72	40306.37
536.89	40128.48
537.06	40222.11
537.23	40847.03
537.40	40631.70
537.57	40694.89
537.74	40491.27
537.91	40479.57
538.08	40961.72
538.25	40418.71
538.42	40570.85
538.59	40697.24
538.75	40315.73
538.92	40767.45
539.09	40711.28
539.26	40950.01
539.43	40802.56
539.60	40753.41
539.77	40849.37
539.94	40924.27
540.11	40737.02
540.28	41013.21
540.44	41141.94
540.61	41060.02
540.78	40699.58
540.95	41109.17
541.12	40872.78
541.29	41315.14
541.46	41380.67
541.62	41289.39
541.79	41698.98
541.96	41017.89
542.13	41464.93
542.30	41624.09
542.47	41392.37
542.63	41361.95
542.80	41404.08
542.97	41921.34
543.14	42129.64
543.31	41846.44
543.48	41956.44
543.64	42396.46
543.81	42347.31
543.98	42686.69
544.15	42082.83
544.32	42265.39
544.48	42653.92
544.65	42677.33
544.82	42401.14
544.99	42014.96
545.16	41769.20
545.32	42213.90
545.49	42859.89
545.66	42923.08
545.83	42370.72
546.00	42536.90
546.16	42330.93
546.33	42483.06
546.50	42012.62
546.67	42564.98
546.83	42029.00
547.00	42831.80
547.17	42710.10
547.34	42813.08
547.50	42735.84
547.67	42749.88
547.84	43239.06
548.00	42930.11
548.17	43180.54
548.34	42834.14
548.51	43849.94
548.67	43400.55
548.84	43395.87
549.01	43407.58
549.18	43463.75
549.34	43433.32
549.51	43117.35
549.68	43131.39
549.84	43320.98
550.01	43569.07
550.18	43461.41
550.34	43313.95
550.51	43349.06
550.68	43473.11
550.84	43143.09
551.01	44149.53
551.18	43105.65
551.34	43353.74
551.51	43782.06
551.68	43580.78
551.84	43515.24
552.01	43435.66
552.18	43878.02
552.34	43477.79
552.51	44261.87
552.68	43622.90
552.84	43868.66
553.01	44388.26
553.18	43800.79
553.34	44287.62
553.51	44177.61
553.67	44196.34
553.84	44680.83
554.01	44760.40
554.17	44151.87
554.34	44030.16
554.51	44367.20
554.67	44392.94
554.84	44289.96
555.00	44414.01
555.17	43962.28
555.33	44336.77
555.50	44304.00
555.67	44233.78
555.83	44465.50
556.00	43950.58
556.16	44568.48
556.33	44336.77
556.50	44521.67
556.66	44458.48
556.83	44247.83
556.99	44390.60
557.16	44727.64
557.32	44367.20
557.49	44442.09
557.65	43906.11
557.82	44182.29
557.98	44685.51
558.15	44619.97
558.32	44327.41
558.48	44292.30
558.65	44280.60
558.81	44435.07
558.98	44346.13
559.14	44584.86
559.31	44680.83
559.47	44655.08
559.64	45254.26
559.80	44636.36
559.97	45036.59
560.13	44477.20
560.30	45017.86
560.46	44650.40
560.63	45008.50
560.79	45298.73
560.96	45427.46
561.12	44832.96
561.29	44921.90
561.45	44598.91
561.61	44591.89
561.78	44889.13
561.94	44758.06
562.11	44807.22
562.27	44610.61
562.44	44905.52
562.60	45151.27
562.77	44905.52
562.93	45258.94
563.10	45167.66
563.26	44631.68
563.42	45588.95
563.59	45081.06
563.75	44816.58
563.92	45027.23
564.08	45067.02
564.24	45294.05
564.41	45188.72
564.57	44987.44
564.74	45165.32
564.90	45427.46
565.07	45230.85
565.23	45003.82
565.39	45359.58
565.56	45258.94
565.72	44842.32
565.88	45109.14
566.05	44872.75
566.21	45090.42
566.38	45247.24
566.54	44987.44
566.70	45605.34
566.87	45303.41
567.03	45500.01
567.19	45677.90
567.36	45446.18
567.52	45804.28
567.68	45408.73
567.85	45305.75
568.01	45048.29
568.17	45261.28
568.34	45514.06
568.50	45289.37
568.66	45006.16
568.83	45544.48
568.99	45174.68
569.15	45247.24
569.32	45191.06
569.48	45764.49
569.64	45727.05
569.81	45577.25
569.97	45485.97
570.13	45619.38
570.30	45254.26
570.46	45287.03
570.62	44891.48
570.78	44961.69
570.95	44758.06
571.11	45310.43
571.27	45298.73
571.43	45464.91
571.60	45263.62
571.76	45427.46
571.92	45280.00
572.09	45689.60
572.25	45509.38
572.41	45741.09
572.57	45172.34
572.74	46068.76
572.90	45682.58
573.06	45579.59
573.22	45661.51
573.38	45645.13
573.55	45177.02
573.71	45773.86
573.87	45563.21
574.03	45710.66
574.20	45745.77
574.36	45432.14
574.52	45488.31
574.68	46036.00
574.84	45366.60
575.01	45647.47
575.17	44919.56
575.33	45495.33
575.49	45298.73
575.65	45296.39
575.82	45797.26
575.98	45340.86
576.14	45626.40
576.30	45830.03
576.46	45294.05
576.62	45148.93
576.79	45516.40
576.95	45745.77
577.11	45766.84
577.27	45235.53
577.43	45261.28
577.59	45415.76
577.75	45680.24
577.92	45221.49
578.08	45071.70
578.24	45137.23
578.40	45244.90
578.56	45567.89
578.72	45336.18
578.88	45291.71
579.04	45490.65
579.21	45392.35
579.37	45633.42
579.53	45614.70
579.69	45223.83
579.85	45579.59
580.01	45546.82
580.17	45853.44
580.33	45865.14
580.49	45640.45
580.65	45453.20
580.82	45696.62
580.98	45081.06
581.14	45160.64
581.30	45663.85
581.46	45904.93
581.62	45865.14
581.78	45631.08
581.94	46024.29
582.10	46028.98
582.26	45783.22
582.42	45675.55
582.58	45338.52
582.74	45649.81
582.90	45968.12
583.06	45598.32
583.22	45584.27
583.38	45656.83
583.54	45970.46
583.70	45750.45
583.86	45308.09
584.02	45457.88
584.18	45766.84
584.34	45226.17
584.50	45654.49
584.66	45436.82
584.82	45338.52
584.98	45738.75
585.14	45654.49
585.30	45689.60
585.46	45216.81
585.62	45743.43
585.78	45441.50
585.94	45530.44
586.10	45771.52
586.26	45371.28
586.42	45600.66
586.58	45844.07
586.74	45610.02
586.90	45832.37
587.06	45130.21
587.22	45663.85
587.38	45757.47
587.54	45626.40
587.70	45673.21
587.86	45488.31
588.02	45759.81
588.18	45968.12
588.34	45560.87
588.49	45336.18
588.65	44959.35
588.81	45359.58
588.97	44790.83
589.13	45256.60
589.29	44772.11
589.45	45347.88
589.61	45219.15
589.77	46017.27
589.93	45825.35
590.08	45661.51
