SpectraSuite Data File
++++++++++++++++++++++++++++++++++++
Date: Fri Oct 25 10:44:30 EDT 2013
User: price-jones
Dark Spectrum Present: No
Reference Spectrum Present: No
Number of Sampled Component Spectra: 1
Spectrometers: USB2+H05261
Integration Time (usec): 100000 (USB2+H05261)
Spectra Averaged: 1 (USB2+H05261)
Boxcar Smoothing: 0 (USB2+H05261)
Correct for Electrical Dark: No (USB2+H05261)
Strobe/Lamp Enabled: No (USB2+H05261)
Correct for Detector Non-linearity: No (USB2+H05261)
Correct for Stray Light: No (USB2+H05261)
Number of Pixels in Processed Spectrum: 2048
>>>>>Begin Processed Spectral Data<<<<<
365.73	112.35
365.92	112.35
366.12	112.35
366.32	14.04
366.52	28.09
366.72	18.72
366.91	21.06
367.11	16.38
367.31	56.17
367.51	0.00
367.70	0.00
367.90	0.00
368.10	30.43
368.30	30.43
368.49	18.72
368.69	35.11
368.89	46.81
369.09	60.85
369.28	51.49
369.48	16.38
369.68	46.81
369.87	110.01
370.07	95.96
370.27	72.56
370.47	168.52
370.66	360.44
370.86	388.53
371.06	486.83
371.25	486.83
371.45	334.70
371.65	444.70
371.84	433.00
372.04	414.27
372.24	472.79
372.44	458.74
372.63	517.26
372.83	425.98
373.03	500.87
373.22	449.38
373.42	484.49
373.62	545.34
373.81	505.56
374.01	505.56
374.21	547.69
374.40	568.75
374.60	559.39
374.79	486.83
374.99	521.94
375.19	557.05
375.38	706.84
375.58	603.86
375.78	603.86
375.97	585.13
376.17	599.18
376.37	517.26
376.56	559.39
376.76	594.50
376.95	538.32
377.15	669.39
377.35	662.37
377.54	589.82
377.74	582.79
377.93	578.11
378.13	580.45
378.33	641.31
378.52	671.73
378.72	692.80
378.91	543.00
379.11	592.16
379.31	645.99
379.50	648.33
379.70	706.84
379.89	676.41
380.09	725.57
380.28	667.05
380.48	573.43
380.68	624.92
380.87	653.01
381.07	641.31
381.26	720.88
381.46	748.97
381.65	648.33
381.85	709.18
382.04	709.18
382.24	674.07
382.43	716.20
382.63	786.42
382.83	734.93
383.02	739.61
383.22	753.65
383.41	760.67
383.61	744.29
383.80	730.25
384.00	692.80
384.19	737.27
384.39	741.95
384.58	727.91
384.78	805.14
384.97	744.29
385.17	711.52
385.36	779.40
385.56	763.01
385.75	751.31
385.95	821.53
386.14	777.06
386.34	741.95
386.53	849.61
386.72	807.48
386.92	830.89
387.11	835.57
387.31	760.67
387.50	851.96
387.70	847.27
387.89	866.00
388.09	891.74
388.28	868.34
388.48	861.32
388.67	954.94
388.86	851.96
389.06	877.70
389.25	926.85
389.45	959.62
389.64	985.37
389.84	915.15
390.03	971.32
390.22	915.15
390.42	905.79
390.61	945.58
390.81	884.72
391.00	983.02
391.19	933.87
391.39	992.39
391.58	1011.11
391.78	985.37
391.97	1001.75
392.16	950.26
392.36	971.32
392.55	961.96
392.75	947.92
392.94	997.07
393.13	980.68
393.33	973.66
393.52	971.32
393.71	1022.81
393.91	1053.24
394.10	1027.50
394.29	1172.61
394.49	1067.28
394.68	1118.78
394.88	1083.67
395.07	1207.72
395.26	1212.40
395.46	1263.89
395.65	1177.29
395.84	1263.89
396.04	1167.93
396.23	1046.22
396.42	1036.86
396.62	1156.22
396.81	1158.57
397.00	1212.40
397.19	1235.80
397.39	1167.93
397.58	1275.59
397.77	1193.67
397.97	1282.61
398.16	1413.68
398.35	1336.45
398.55	1331.76
398.74	1352.83
398.93	1465.18
399.12	1387.94
399.32	1308.36
399.51	1394.96
399.70	1488.58
399.90	1460.49
400.09	1448.79
400.28	1497.94
400.47	1523.69
400.67	1504.96
400.86	1547.09
401.05	1547.09
401.24	1591.56
401.44	1540.07
401.63	1551.78
401.82	1537.73
402.01	1509.65
402.21	1645.40
402.40	1607.95
402.59	1535.39
402.78	1563.48
402.97	1591.56
403.17	1753.06
403.36	1750.72
403.55	1746.04
403.74	1713.27
403.93	1701.57
404.13	1806.89
404.32	1671.14
404.51	1792.85
404.70	1799.87
404.89	1774.13
405.09	1790.51
405.28	1746.04
405.47	1776.47
405.66	1771.79
405.85	1867.75
406.05	1870.09
406.24	1839.66
406.43	1823.28
406.62	2045.63
406.81	2036.27
407.00	1849.02
407.20	1923.92
407.39	1905.20
407.58	1914.56
407.77	2104.14
407.96	2036.27
408.15	2115.84
408.34	2029.24
408.54	2165.00
408.73	2122.87
408.92	2160.31
409.11	2111.16
409.30	2204.78
409.49	2080.74
409.68	2120.53
409.87	2190.74
410.07	2195.42
410.26	2204.78
410.45	2160.31
410.64	2211.81
410.83	2293.72
411.02	2445.86
411.21	2422.45
411.40	2359.26
411.59	2485.65
411.78	2352.24
411.98	2445.86
412.17	2469.27
412.36	2525.44
412.55	2480.97
412.74	2443.52
412.93	2495.01
413.12	2630.76
413.31	2724.38
413.50	2665.87
413.69	2700.98
413.88	2658.85
414.07	2616.72
414.26	2768.85
414.45	2745.45
414.64	2691.62
414.83	2799.28
415.02	2834.39
415.22	2834.39
415.41	2888.22
415.60	2860.13
415.79	2944.39
415.98	2946.73
416.17	3129.30
416.36	2965.46
416.55	2960.78
416.74	2988.86
416.93	3187.81
417.12	3056.74
417.31	3143.34
417.50	3066.10
417.69	3073.12
417.88	3363.35
418.07	3248.66
418.26	3150.36
418.45	3431.23
418.64	3368.03
418.83	3433.57
419.02	3339.94
419.21	3344.63
419.39	3330.58
419.58	3262.71
419.77	3272.07
419.96	3414.84
420.15	3449.95
420.34	3438.25
420.53	3426.54
420.72	3566.98
420.91	3588.04
421.10	3574.00
421.29	3602.08
421.48	3616.13
421.67	3499.10
421.86	3529.53
422.05	3599.74
422.24	3456.97
422.43	3672.30
422.61	3721.45
422.80	3709.75
422.99	3714.43
423.18	3803.37
423.37	3728.47
423.56	3616.13
423.75	3641.87
423.94	3730.81
424.13	3391.44
424.32	3590.38
424.50	3761.24
424.69	3779.97
424.88	3700.39
425.07	3744.86
425.26	3721.45
425.45	3620.81
425.64	3709.75
425.83	3747.20
426.01	3737.84
426.20	3779.97
426.39	3758.90
426.58	3737.84
426.77	3751.88
426.96	3716.77
427.15	3707.41
427.33	3927.42
427.52	3847.84
427.71	3946.14
427.90	3770.60
428.09	4002.32
428.28	3899.33
428.46	3911.04
428.65	3960.19
428.84	4018.70
429.03	4217.65
429.22	3962.53
429.40	3765.92
429.59	3948.48
429.78	3782.31
429.97	3737.84
430.16	3908.69
430.34	3887.63
430.53	4070.19
430.72	3967.21
430.91	4028.06
431.10	4124.02
431.28	4252.75
431.47	4348.72
431.66	4290.20
431.85	4292.54
432.03	4381.48
432.22	4479.79
432.41	4423.61
432.60	4339.35
432.79	4500.85
432.97	4486.81
433.16	4568.73
433.35	4416.59
433.54	4430.63
433.72	4475.10
433.91	4454.04
434.10	4414.25
434.28	4334.67
434.47	4491.49
434.66	4636.60
434.85	4620.22
435.03	4643.62
435.22	4746.61
435.41	4692.77
435.59	4858.95
435.78	4695.11
435.97	4798.10
436.16	4809.80
436.34	4634.26
436.53	4805.12
436.72	4940.87
436.90	4784.06
437.09	4959.60
437.28	4793.42
437.46	4758.31
437.65	4805.12
437.84	4999.38
438.02	4833.21
438.21	4748.95
438.40	4819.16
438.58	5053.22
438.77	5123.43
438.96	5146.84
439.14	5280.25
439.33	5177.26
439.52	5235.78
439.70	5205.35
439.89	5394.93
440.08	5383.23
440.26	5378.55
440.45	5399.62
440.63	5465.15
440.82	5689.84
441.01	5490.90
441.19	5607.92
441.38	5603.24
441.57	5678.14
441.75	5818.57
441.94	5994.11
442.12	5844.32
442.31	6108.80
442.50	5951.98
442.68	5886.45
442.87	5849.00
443.05	6129.86
443.24	6127.52
443.43	5947.30
443.61	6083.05
443.80	6312.42
443.98	6001.13
444.17	5905.17
444.35	6207.10
444.54	6242.21
444.73	6150.93
444.91	6087.73
445.10	6029.22
445.28	5928.58
445.47	6003.47
445.65	6040.92
445.84	6164.97
446.02	6157.95
446.21	6118.16
446.39	6249.23
446.58	6256.25
446.77	6307.74
446.95	6232.85
447.14	6354.55
447.32	6104.12
447.51	6394.34
447.69	6279.66
447.88	6340.51
448.06	6392.00
448.25	6293.70
448.43	6354.55
448.62	6349.87
448.80	6377.96
448.99	6455.20
449.17	6293.70
449.36	6469.24
449.54	6539.46
449.73	6675.21
449.91	6654.14
450.10	6832.02
450.28	6780.53
450.46	6876.49
450.65	6623.72
450.83	6916.28
451.02	6815.64
451.20	6782.87
451.39	6766.49
451.57	6768.83
451.76	6766.49
451.94	6733.72
452.13	6820.32
452.31	6836.70
452.49	6640.10
452.68	6874.15
452.86	6637.76
453.05	6867.13
453.23	7094.16
453.42	6965.43
453.60	6867.13
453.78	7080.12
453.97	6764.15
454.15	7054.37
454.34	6874.15
454.52	7117.57
454.70	7005.22
454.89	7248.64
455.07	7047.35
455.26	7201.83
455.44	7365.67
455.62	7269.70
455.81	7145.66
455.99	7377.37
456.17	7274.38
456.36	7536.52
456.54	7466.31
456.73	7517.80
456.91	7571.63
457.09	7637.17
457.28	7810.37
457.46	7644.19
457.64	7588.02
457.83	7611.42
458.01	7438.22
458.19	7777.60
458.38	7683.98
458.56	7688.66
458.74	7936.76
458.93	7644.19
459.11	7786.96
459.29	7660.57
459.48	7985.91
459.66	7868.88
459.84	8100.59
460.03	8147.40
460.21	7892.29
460.39	7974.21
460.57	8102.93
460.76	7976.55
460.94	8210.60
461.12	8004.63
461.31	8175.49
461.49	8196.56
461.67	8037.40
461.85	8395.50
462.04	8355.71
462.22	8336.99
462.40	8386.14
462.59	8362.73
462.77	8325.29
462.95	8390.82
463.13	8327.63
463.32	8285.50
463.50	8451.67
463.68	8599.13
463.86	8360.39
464.05	8205.92
464.23	8255.07
464.41	8594.45
464.59	8514.87
464.78	8610.83
464.96	8615.51
465.14	8477.42
465.32	8795.73
465.50	8755.94
465.69	8746.58
465.87	8627.21
466.05	8634.24
466.23	8554.66
466.41	8594.45
466.60	8791.05
466.78	8493.80
466.96	8674.03
467.14	8762.97
467.32	8791.05
467.51	9102.34
467.69	8713.81
467.87	8936.17
468.05	9228.73
468.23	8821.48
468.41	8947.87
468.60	8994.68
468.78	9128.09
468.96	8947.87
469.14	9179.58
469.32	9327.03
469.50	8901.06
469.69	9322.35
469.87	9460.45
470.05	9329.38
470.23	9568.11
470.41	9554.07
470.59	9383.21
470.77	9259.16
470.95	9467.47
471.14	9530.66
471.32	9399.59
471.50	9760.03
471.68	9624.28
471.86	9643.01
472.04	9923.87
472.22	9996.43
472.40	9788.12
472.58	9802.16
472.77	9717.90
472.95	10094.73
473.13	10115.80
473.31	9973.02
473.49	10026.86
473.67	9837.27
473.85	10033.88
474.03	10274.95
474.21	10408.36
474.39	10553.48
474.57	10478.58
474.75	10541.77
474.93	10588.58
475.12	10363.89
475.30	10672.84
475.48	10672.84
475.66	10511.35
475.84	10843.70
476.02	10745.40
476.20	10897.53
476.38	11112.86
476.56	11105.84
476.74	11269.68
476.92	11042.65
477.10	11138.61
477.28	11543.52
477.46	11576.29
477.64	11527.14
477.82	11829.07
478.00	11857.15
478.18	11658.21
478.36	11803.32
478.54	12257.39
478.72	12086.53
478.90	12224.62
479.08	12219.94
479.26	12273.77
479.44	12360.37
479.62	12650.60
479.80	12863.58
479.98	12901.03
480.16	12856.56
480.34	12826.14
480.52	13116.36
480.70	13130.41
480.88	12982.95
481.06	13057.85
481.24	13392.55
481.41	13429.99
481.59	13645.32
481.77	13720.22
481.95	13591.49
482.13	13837.25
482.31	13975.34
482.49	14221.10
482.67	13928.53
482.85	14223.44
483.03	14338.12
483.21	14504.30
483.39	14335.78
483.57	14441.11
483.74	14867.08
483.92	14932.62
484.10	14930.28
484.28	15023.90
484.46	15658.18
484.64	15356.25
484.82	15215.82
485.00	15400.72
485.18	15475.62
485.35	15763.51
485.53	15513.07
485.71	15431.15
485.89	15896.92
486.07	15735.42
486.25	15761.17
486.43	16285.45
486.61	16056.08
486.78	16339.28
486.96	16472.69
487.14	16648.23
487.32	16992.29
487.50	17116.34
487.68	17324.65
487.85	17596.15
488.03	17802.11
488.21	17755.30
488.39	17685.09
488.57	17631.26
488.75	18073.62
488.92	18164.90
489.10	18171.92
489.28	18972.38
489.46	18860.04
489.64	18593.22
489.81	18738.33
489.99	19049.62
490.17	19089.41
490.35	19323.46
490.53	19204.10
490.70	19695.61
490.88	19438.15
491.06	19833.70
491.24	19838.38
491.41	19962.43
491.59	19824.34
491.77	20023.28
491.95	20046.69
492.13	19946.05
492.30	20643.52
492.48	20507.77
492.66	20936.09
492.84	20744.17
493.01	21268.45
493.19	21067.16
493.37	21408.88
493.54	21310.58
493.72	21476.76
493.90	21493.14
494.08	21825.50
494.25	22001.04
494.43	22071.25
494.61	22354.46
494.79	22361.48
494.96	22319.35
495.14	22480.85
495.32	22473.82
495.49	22352.12
495.67	22574.47
495.85	23073.00
496.02	22658.73
496.20	23351.52
496.38	23325.78
496.55	23468.55
496.73	24102.84
496.91	23634.73
497.09	24032.62
497.26	23571.54
497.44	24175.39
497.62	24058.37
497.79	24283.06
497.97	24044.32
498.14	24236.25
498.32	24847.13
498.50	24435.19
498.67	24973.52
498.85	24800.32
499.03	24996.92
499.20	25233.32
499.38	24924.36
499.56	25247.36
499.73	25277.79
499.91	25179.48
500.08	25287.15
500.26	25268.42
500.44	26206.98
500.61	25696.74
500.79	25715.47
500.97	25434.60
501.14	25745.89
501.32	26047.82
501.49	26445.71
501.67	26082.93
501.84	25764.62
502.02	26087.61
502.20	26462.10
502.37	26485.50
502.55	26735.94
502.72	26874.03
502.90	27321.07
503.07	26920.84
503.25	26719.56
503.43	27014.46
503.60	26857.65
503.78	27023.83
503.95	26927.86
504.13	27070.64
504.30	27489.59
504.48	27175.96
504.65	27667.47
504.83	27672.15
505.01	28002.17
505.18	28093.45
505.36	28425.81
505.53	28102.81
505.71	28137.92
505.88	28577.94
506.06	27590.24
506.23	28294.74
506.41	28629.43
506.58	28290.06
506.76	28371.97
506.93	28690.29
507.11	28088.77
507.28	28889.23
507.46	28673.90
507.63	28879.87
507.81	29041.37
507.98	28896.25
508.16	29287.12
508.33	29273.08
508.50	29390.11
508.68	29434.58
508.85	29675.65
509.03	29844.17
509.20	29984.60
509.38	30267.81
509.55	30188.23
509.73	29874.60
509.90	30160.14
510.08	30036.09
510.25	30099.29
510.42	30331.00
510.60	30698.47
510.77	30429.30
510.95	30803.79
511.12	30698.47
511.30	30735.92
511.47	30923.16
511.64	30984.01
511.82	31178.28
511.99	30803.79
512.17	31201.68
512.34	30810.81
512.51	31522.34
512.69	31732.98
512.86	31976.40
513.04	31690.85
513.21	31597.23
513.38	31798.52
513.56	31220.41
513.73	31189.98
513.90	31711.92
514.08	31747.03
514.25	32332.16
514.43	31971.72
514.60	31878.10
514.77	32182.37
514.95	32266.63
515.12	32147.26
515.29	32395.35
515.47	32683.24
515.64	32781.54
515.81	32767.50
515.99	32470.25
516.16	32280.67
516.33	32409.40
516.51	32765.16
516.68	32149.60
516.85	32488.98
517.03	32531.11
517.20	32914.95
517.37	33020.28
517.54	33132.62
517.72	33149.01
517.89	32854.10
518.06	32833.04
518.24	33319.87
518.41	32985.17
518.58	32980.49
518.75	33099.86
518.93	33759.89
519.10	33387.74
519.27	33474.34
519.45	33818.40
519.62	33799.68
519.79	33914.36
519.96	33989.26
520.14	33972.88
520.31	34206.93
520.48	33921.38
520.65	34251.40
520.83	34635.25
521.00	34656.31
521.17	34574.39
521.34	34852.92
521.52	34576.73
521.69	34939.52
521.86	35332.73
522.03	34974.63
522.20	35119.74
522.38	34972.28
522.55	35077.61
522.72	35459.12
522.89	35154.85
523.07	35498.91
523.24	35262.51
523.41	35456.78
523.58	35424.01
523.75	35906.16
523.92	35880.41
524.10	36032.55
524.27	36116.81
524.44	36353.20
524.61	35901.48
524.78	36488.95
524.96	36566.19
525.13	36250.22
525.30	36697.26
525.47	36297.03
525.64	36526.40
525.81	36723.01
525.98	36559.17
526.16	36315.75
526.33	36439.80
526.50	36355.54
526.67	36355.54
526.84	36297.03
527.01	36243.20
527.18	36856.42
527.36	37212.18
527.53	37003.87
527.70	37158.34
527.87	36840.03
528.04	37146.64
528.21	37027.28
528.38	37034.30
528.55	37645.18
528.72	37841.78
528.89	37642.84
529.07	37390.06
529.24	37530.49
529.41	37771.57
529.58	37411.12
529.75	37340.91
529.92	37771.57
530.09	37860.51
530.26	37963.49
530.43	37972.85
530.60	37659.22
530.77	37940.08
530.94	38073.49
531.11	37769.22
531.28	38178.82
531.46	38178.82
531.63	38146.05
531.80	38223.29
531.97	38071.15
532.14	38810.76
532.31	38139.03
532.48	38567.35
532.65	38543.94
532.82	38354.36
532.99	38455.00
533.16	38618.84
533.33	39065.88
533.50	38939.49
533.67	38880.98
533.84	38827.15
534.01	38916.09
534.18	38754.59
534.35	39377.17
534.52	39037.80
534.69	38983.96
534.86	39196.95
535.03	39206.31
535.20	39346.75
535.37	39751.66
535.54	39524.63
535.71	39339.72
535.88	39358.45
536.05	39484.84
536.22	39786.77
536.38	39622.93
536.55	39185.25
536.72	39885.07
536.89	39505.90
537.06	39299.94
537.23	39849.96
537.40	39704.85
537.57	39714.21
537.74	39761.02
537.91	40004.44
538.08	40231.47
538.25	39910.82
538.42	40051.25
538.59	40201.04
538.75	39826.56
538.92	40158.91
539.09	39880.39
539.26	40006.78
539.43	39885.07
539.60	39835.92
539.77	39833.58
539.94	39882.73
540.11	39931.88
540.28	40311.05
540.44	40205.72
540.61	40491.27
540.78	40175.30
540.95	40603.61
541.12	40465.52
541.29	40177.64
541.46	40353.18
541.62	40748.73
541.79	40996.82
541.96	40367.22
542.13	40624.68
542.30	40486.59
542.47	40598.93
542.63	40573.19
542.80	41137.26
542.97	41036.61
543.14	41694.30
543.31	41617.07
543.48	41352.58
543.64	42155.39
543.81	41701.32
543.98	41689.62
544.15	41694.30
544.32	41476.63
544.48	41656.85
544.65	41694.30
544.82	41766.86
544.99	41277.69
545.16	41876.86
545.32	41755.16
545.49	42164.75
545.66	42249.01
545.83	42581.37
546.00	42424.55
546.16	42347.31
546.33	41944.74
546.50	41778.56
546.67	41904.95
546.83	41776.22
547.00	41982.19
547.17	42021.98
547.34	42553.28
547.50	41989.21
547.67	42504.13
547.84	42176.45
548.00	42382.42
548.17	43047.13
548.34	42408.17
548.51	42911.38
548.67	42876.27
548.84	42902.02
549.01	42361.36
549.18	42855.21
549.34	42672.65
549.51	42754.57
549.68	42579.03
549.84	42937.13
550.01	42784.99
550.18	42478.38
550.34	42747.54
550.51	42801.38
550.68	42710.10
550.84	42300.50
551.01	42965.21
551.18	42852.87
551.34	42717.12
551.51	42897.34
551.68	43536.30
551.84	43271.82
552.01	42691.37
552.18	42799.04
552.34	43210.97
552.51	43253.10
552.68	42618.81
552.84	43356.08
553.01	43096.28
553.18	43419.28
553.34	43370.13
553.51	43480.13
553.67	43503.54
553.84	43632.27
554.01	43901.43
554.17	43487.15
554.34	43938.88
554.51	44079.31
554.67	43508.22
554.84	43875.68
555.00	43641.63
555.17	43625.25
555.33	43746.95
555.50	43803.13
555.67	43775.04
555.83	43576.09
556.00	44112.08
556.16	43948.24
556.33	43552.69
556.50	43400.55
556.66	43749.29
556.83	43887.39
556.99	43976.33
557.16	43803.13
557.32	44102.71
557.49	43852.28
557.65	43269.48
557.82	43915.47
557.98	44229.10
558.15	44133.14
558.32	44236.12
558.48	43913.13
558.65	43594.82
558.81	43700.14
558.98	43873.34
559.14	44147.18
559.31	43871.00
559.47	44116.76
559.64	44573.16
559.80	44477.20
559.97	44315.70
560.13	44231.44
560.30	44259.53
560.46	44215.06
560.63	44509.97
560.79	44975.73
560.96	44383.58
561.12	44095.69
561.29	44217.40
561.45	44027.82
561.61	44121.44
561.78	44657.42
561.94	44374.22
562.11	44767.43
562.27	44535.71
562.44	44648.06
562.60	44526.35
562.77	44615.29
562.93	44683.17
563.10	44666.78
563.26	44048.88
563.42	44666.78
563.59	44280.60
563.75	44318.04
563.92	45050.63
564.08	44327.41
564.24	44765.09
564.41	44502.95
564.57	44109.74
564.74	44809.56
564.90	44760.40
565.07	44734.66
565.23	44790.83
565.39	44521.67
565.56	44638.70
565.72	44634.02
565.88	44718.28
566.05	44664.44
566.21	44968.71
566.38	44629.34
566.54	44528.69
566.70	45134.89
566.87	45287.03
567.03	44423.37
567.19	45315.11
567.36	44907.86
567.52	44919.56
567.68	44872.75
567.85	44776.79
568.01	44875.09
568.17	44673.81
568.34	44982.76
568.50	44942.97
568.66	44912.54
568.83	45352.56
568.99	44751.04
569.15	44868.07
569.32	44538.05
569.48	45153.62
569.64	44980.42
569.81	45109.14
569.97	45460.23
570.13	44893.82
570.30	44692.53
570.46	44938.29
570.62	45139.57
570.78	44669.12
570.95	44547.42
571.11	44933.60
571.27	44739.34
571.43	44692.53
571.60	44886.79
571.76	44741.68
571.92	44999.14
572.09	45038.93
572.25	45155.96
572.41	44589.55
572.57	45137.23
572.74	45193.40
572.90	45223.83
573.06	45415.76
573.22	45359.58
573.38	45120.85
573.55	45277.66
573.71	45258.94
573.87	44999.14
574.03	45205.11
574.20	44978.07
574.36	44994.46
574.52	45146.59
574.68	44964.03
574.84	45209.79
575.01	44685.51
575.17	45254.26
575.33	44907.86
575.49	44949.99
575.65	45298.73
575.82	44987.44
575.98	44868.07
576.14	44973.39
576.30	45226.17
576.46	45324.47
576.62	45134.89
576.79	44989.78
576.95	45432.14
577.11	45343.20
577.27	44715.93
577.43	45254.26
577.59	45193.40
577.75	45041.27
577.92	44964.03
578.08	44975.73
578.24	45179.36
578.40	45102.12
578.56	45111.49
578.72	45193.40
578.88	45443.84
579.04	45528.10
579.21	45064.67
579.37	45270.64
579.53	45289.37
579.69	44657.42
579.85	45048.29
580.01	45221.49
580.17	45153.62
580.33	45401.71
580.49	45834.71
580.65	45209.79
580.82	45352.56
580.98	45333.84
581.14	44814.24
581.30	45492.99
581.46	45368.94
581.62	45532.78
581.78	45457.88
581.94	45713.00
582.10	45277.66
582.26	45256.60
582.42	45181.70
582.58	44626.99
582.74	44769.77
582.90	45165.32
583.06	45242.56
583.22	45315.11
583.38	45558.53
583.54	45773.86
583.70	45642.79
583.86	45577.25
584.02	45059.99
584.18	45209.79
584.34	44949.99
584.50	44985.10
584.66	45375.97
584.82	45621.72
584.98	45361.92
585.14	45514.06
585.30	44879.77
585.46	45495.33
585.62	44952.33
585.78	45233.19
585.94	45193.40
586.10	45415.76
586.26	45448.52
586.42	45535.12
586.58	45750.45
586.74	45628.74
586.90	45258.94
587.06	45404.05
587.22	44947.65
587.38	44863.39
587.54	45015.52
587.70	45764.49
587.86	45518.74
588.02	45511.72
588.18	45511.72
588.34	45043.61
588.49	45223.83
588.65	45027.23
588.81	44837.64
588.97	44748.70
589.13	44680.83
589.29	44891.48
589.45	45521.08
589.61	45450.86
589.77	45776.20
589.93	45736.41
590.08	45261.28
590.24	45815.99
