SpectraSuite Data File
++++++++++++++++++++++++++++++++++++
Date: Fri Oct 25 10:47:28 EDT 2013
User: price-jones
Dark Spectrum Present: No
Reference Spectrum Present: No
Number of Sampled Component Spectra: 1
Spectrometers: USB2+H05261
Integration Time (usec): 100000 (USB2+H05261)
Spectra Averaged: 1 (USB2+H05261)
Boxcar Smoothing: 0 (USB2+H05261)
Correct for Electrical Dark: No (USB2+H05261)
Strobe/Lamp Enabled: No (USB2+H05261)
Correct for Detector Non-linearity: No (USB2+H05261)
Correct for Stray Light: No (USB2+H05261)
Number of Pixels in Processed Spectrum: 2048
>>>>>Begin Processed Spectral Data<<<<<
365.73	177.88
365.92	177.88
366.12	177.88
366.32	37.45
366.52	28.09
366.72	128.73
366.91	25.75
367.11	98.30
367.31	51.49
367.51	72.56
367.70	81.92
367.90	77.24
368.10	77.24
368.30	112.35
368.49	46.81
368.69	81.92
368.89	51.49
369.09	91.28
369.28	58.51
369.48	25.75
369.68	39.79
369.87	63.19
370.07	60.85
370.27	112.35
370.47	269.16
370.66	313.63
370.86	442.36
371.06	503.22
371.25	458.74
371.45	404.91
371.65	557.05
371.84	372.15
372.04	423.64
372.24	435.34
372.44	489.17
372.63	479.81
372.83	505.56
373.03	477.47
373.22	517.26
373.42	531.30
373.62	482.15
373.81	507.90
374.01	535.98
374.21	503.22
374.40	521.94
374.60	540.66
374.79	528.96
374.99	535.98
375.19	545.34
375.38	554.71
375.58	636.63
375.78	592.16
375.97	575.77
376.17	643.65
376.37	559.39
376.56	594.50
376.76	634.29
376.95	629.60
377.15	564.07
377.35	657.69
377.54	550.03
377.74	580.45
377.93	599.18
378.13	660.03
378.33	641.31
378.52	585.13
378.72	657.69
378.91	706.84
379.11	643.65
379.31	648.33
379.50	645.99
379.70	645.99
379.89	662.37
380.09	554.71
380.28	631.94
380.48	573.43
380.68	631.94
380.87	695.14
381.07	636.63
381.26	699.82
381.46	674.07
381.65	643.65
381.85	643.65
382.04	564.07
382.24	655.35
382.43	624.92
382.63	713.86
382.83	716.20
383.02	767.70
383.22	760.67
383.41	746.63
383.61	748.97
383.80	734.93
384.00	716.20
384.19	650.67
384.39	758.33
384.58	774.72
384.78	709.18
384.97	713.86
385.17	791.10
385.36	683.44
385.56	760.67
385.75	706.84
385.95	772.38
386.14	784.08
386.34	730.25
386.53	774.72
386.72	802.80
386.92	842.59
387.11	777.06
387.31	840.25
387.50	770.04
387.70	734.93
387.89	819.19
388.09	767.70
388.28	866.00
388.48	800.46
388.67	816.85
388.86	903.45
389.06	840.25
389.25	793.44
389.45	791.10
389.64	875.36
389.84	929.19
390.03	943.24
390.22	849.61
390.42	821.53
390.61	821.53
390.81	851.96
391.00	889.40
391.19	924.51
391.39	851.96
391.58	997.07
391.78	943.24
391.97	985.37
392.16	842.59
392.36	1034.52
392.55	973.66
392.75	917.49
392.94	1032.18
393.13	980.68
393.33	938.55
393.52	987.71
393.71	1043.88
393.91	976.00
394.10	952.60
394.29	997.07
394.49	983.02
394.68	1071.97
394.88	1076.65
395.07	1125.80
395.26	1006.43
395.46	1153.88
395.65	1170.27
395.84	1153.88
396.04	1083.67
396.23	1114.10
396.42	1144.52
396.62	1247.51
396.81	1107.07
397.00	1137.50
397.19	1146.86
397.39	1151.54
397.58	1196.01
397.77	1291.98
397.97	1203.04
398.16	1235.80
398.35	1277.93
398.55	1214.74
398.74	1291.98
398.93	1200.69
399.12	1181.97
399.32	1256.87
399.51	1200.69
399.70	1313.04
399.90	1366.87
400.09	1266.23
400.28	1369.21
400.47	1401.98
400.67	1385.60
400.86	1453.47
401.05	1432.41
401.24	1423.05
401.44	1533.05
401.63	1420.71
401.82	1493.26
402.01	1455.81
402.21	1430.07
402.40	1563.48
402.59	1401.98
402.78	1511.99
402.97	1516.67
403.17	1502.62
403.36	1467.52
403.55	1448.79
403.74	1577.52
403.93	1629.01
404.13	1582.20
404.32	1610.29
404.51	1530.71
404.70	1673.48
404.89	1586.88
405.09	1668.80
405.28	1715.61
405.47	1596.25
405.66	1589.22
405.85	1734.34
406.05	1788.17
406.24	1668.80
406.43	1776.47
406.62	1722.63
406.81	1839.66
407.00	1713.27
407.20	1682.85
407.39	1692.21
407.58	1870.09
407.77	1820.94
407.96	1858.39
408.15	1895.83
408.34	1949.67
408.54	1870.09
408.73	1914.56
408.92	1926.26
409.11	1998.82
409.30	2008.18
409.49	1937.96
409.68	1994.14
409.87	1954.35
410.07	1996.48
410.26	2092.44
410.45	1998.82
410.64	2022.22
410.83	2115.84
411.02	2094.78
411.21	2249.25
411.40	2188.40
411.59	2207.13
411.78	2251.60
411.98	2347.56
412.17	2310.11
412.36	2270.32
412.55	2256.28
412.74	2363.94
412.93	2342.88
413.12	2284.36
413.31	2525.44
413.50	2399.05
413.69	2560.55
413.88	2623.74
414.07	2523.10
414.26	2654.17
414.45	2539.48
414.64	2605.02
414.83	2607.36
415.02	2609.70
415.22	2539.48
415.41	2686.94
415.60	2675.23
415.79	2759.49
415.98	2801.62
416.17	2757.15
416.36	2747.79
416.55	2881.20
416.74	2923.33
416.93	2850.77
417.12	2846.09
417.31	2918.65
417.50	2897.58
417.69	3000.57
417.88	2960.78
418.07	2960.78
418.26	2984.18
418.45	3173.77
418.64	3176.11
418.83	3098.87
419.02	3000.57
419.21	3152.70
419.39	2944.39
419.58	3056.74
419.77	2995.89
419.96	3222.92
420.15	3297.81
420.34	3192.49
420.53	3304.84
420.72	3337.60
420.91	3349.31
421.10	3248.66
421.29	3499.10
421.48	3269.73
421.67	3431.23
421.86	3440.59
422.05	3370.37
422.24	3332.92
422.43	3288.45
422.61	3433.57
422.80	3335.26
422.99	3597.40
423.18	3384.41
423.37	3410.16
423.56	3449.95
423.75	3454.63
423.94	3316.54
424.13	3232.28
424.32	3258.03
424.50	3375.05
424.69	3581.02
424.88	3569.32
425.07	3618.47
425.26	3375.05
425.45	3499.10
425.64	3501.44
425.83	3391.44
426.01	3428.88
426.20	3559.95
426.39	3440.59
426.58	3407.82
426.77	3534.21
426.96	3534.21
427.15	3461.65
427.33	3517.83
427.52	3503.78
427.71	3595.06
427.90	3602.08
428.09	3583.36
428.28	3613.79
428.46	3702.73
428.65	3751.88
428.84	3812.73
429.03	3702.73
429.22	3735.50
429.40	3742.52
429.59	3815.07
429.78	3597.40
429.97	3510.80
430.16	3571.66
430.34	3693.37
430.53	3786.99
430.72	3911.04
430.91	3915.72
431.10	3927.42
431.28	3939.12
431.47	4135.73
431.66	3964.87
431.85	3988.27
432.03	4014.02
432.22	3995.29
432.41	3995.29
432.60	4149.77
432.79	4124.02
432.97	4297.22
433.16	4166.15
433.35	4217.65
433.54	4077.21
433.72	4021.04
433.91	4234.03
434.10	4329.99
434.28	4236.37
434.47	4264.46
434.66	4222.33
434.85	4315.95
435.03	4149.77
435.22	4329.99
435.41	4440.00
435.59	4493.83
435.78	4444.68
435.97	4554.68
436.16	4334.67
436.34	4554.68
436.53	4547.66
436.72	4613.20
436.90	4557.02
437.09	4662.35
437.28	4566.39
437.46	4580.43
437.65	4566.39
437.84	4681.07
438.02	4571.07
438.21	4547.66
438.40	4545.32
438.58	4821.50
438.77	4770.01
438.96	4985.34
439.14	4933.85
439.33	4788.74
439.52	4931.51
439.70	4978.32
439.89	5226.42
440.08	4968.96
440.26	5067.26
440.45	5043.85
440.63	5146.84
440.82	5336.42
441.01	5245.14
441.19	5252.16
441.38	5387.91
441.57	5322.38
441.75	5483.88
441.94	5425.36
442.12	5448.77
442.31	5514.30
442.50	5671.12
442.68	5579.84
442.87	5617.29
443.05	5495.58
443.24	5746.02
443.43	5617.29
443.61	5687.50
443.80	5851.34
443.98	5633.67
444.17	5575.16
444.35	5717.93
444.54	5825.59
444.73	5654.73
444.91	5802.19
445.10	5659.42
445.28	5689.84
445.47	5600.90
445.65	5701.54
445.84	5724.95
446.02	5827.93
446.21	5561.11
446.39	5626.65
446.58	5724.95
446.77	5734.31
446.95	5727.29
447.14	5841.98
447.32	5783.46
447.51	5776.44
447.69	6047.94
447.88	5923.90
448.06	5912.19
448.25	5902.83
448.43	6047.94
448.62	5865.38
448.80	5851.34
448.99	5935.60
449.17	5781.12
449.36	5905.17
449.54	6003.47
449.73	6008.16
449.91	6270.30
450.10	6485.62
450.28	6202.42
450.46	6239.87
450.65	6270.30
450.83	6347.53
451.02	6207.10
451.20	6239.87
451.39	6422.43
451.57	6246.89
451.76	6317.11
451.94	6326.47
452.13	6328.81
452.31	6265.61
452.49	6216.46
452.68	6359.24
452.86	6338.17
453.05	6445.84
453.23	6417.75
453.42	6436.47
453.60	6403.71
453.78	6403.71
453.97	6363.92
454.15	6424.77
454.34	6457.54
454.52	6534.78
454.70	6511.37
454.89	6773.51
455.07	6642.44
455.26	6733.72
455.44	6850.75
455.62	6686.91
455.81	6616.69
455.99	6895.22
456.17	6876.49
456.36	6883.52
456.54	6984.16
456.73	6995.86
456.91	7007.56
457.09	7215.87
457.28	7059.06
457.46	6825.00
457.64	7068.42
457.83	7194.81
458.01	7131.61
458.19	7129.27
458.38	7110.55
458.56	7220.55
458.74	7382.05
458.93	7398.43
459.11	7454.61
459.29	7297.79
459.48	7433.54
459.66	7218.21
459.84	7398.43
460.03	7499.08
460.21	7307.15
460.39	7545.89
460.57	7353.96
460.76	7478.01
460.94	7667.60
461.12	7541.21
461.31	7543.55
461.49	7501.42
461.67	7480.35
461.85	7637.17
462.04	7784.62
462.22	8332.31
462.40	7756.54
462.59	7641.85
462.77	7822.07
462.95	7705.04
463.13	7808.03
463.32	7978.89
463.50	7826.75
463.68	7824.41
463.86	7967.18
464.05	7700.36
464.23	7932.08
464.41	7948.46
464.59	7723.77
464.78	8072.51
464.96	8013.99
465.14	7911.01
465.32	7988.25
465.50	7934.42
465.69	8390.82
465.87	8365.07
466.05	8049.10
466.23	7969.52
466.41	8156.77
466.60	8372.10
466.78	8196.56
466.96	8245.71
467.14	8217.62
467.32	8248.05
467.51	8444.65
467.69	8161.45
467.87	8404.86
468.05	8297.20
468.23	8404.86
468.41	8362.73
468.60	8446.99
468.78	8538.27
468.96	8601.47
469.14	8676.37
469.32	8652.96
469.50	8526.57
469.69	8762.97
469.87	8692.75
470.05	8491.46
470.23	8854.25
470.41	8753.60
470.59	8898.72
470.77	8676.37
470.95	8704.45
471.14	9064.89
471.32	8737.22
471.50	8912.76
471.68	9116.39
471.86	9186.60
472.04	9027.45
472.22	9387.89
472.40	9029.79
472.58	9394.91
472.77	9303.63
472.95	9411.29
473.13	9687.48
473.31	9268.52
473.49	9420.66
473.67	9518.96
473.85	9488.53
474.03	9753.01
474.21	9776.42
474.39	9893.44
474.57	9916.85
474.75	9916.85
474.93	9905.15
475.12	9905.15
475.30	9968.34
475.48	10031.54
475.66	10167.29
475.84	9961.32
476.02	10256.23
476.20	10127.50
476.38	10253.89
476.56	10614.33
476.74	10448.15
476.92	10647.10
477.10	10532.41
477.28	10480.92
477.46	10523.05
477.64	10946.69
477.82	11068.39
478.00	11190.10
478.18	10956.05
478.36	11108.18
478.54	11379.68
478.72	11463.94
478.90	11384.37
479.08	11705.02
479.26	11707.36
479.44	11587.99
479.62	11784.60
479.80	11859.49
479.98	11985.88
480.16	12243.34
480.34	12149.72
480.52	12163.76
480.70	12173.13
480.88	11910.99
481.06	12278.45
481.24	12334.62
481.41	12542.93
481.59	13064.87
481.77	12992.31
481.95	12840.18
482.13	12996.99
482.31	13008.70
482.49	13460.42
482.67	13139.77
482.85	13481.49
483.03	13441.70
483.21	13755.33
483.39	13830.23
483.57	13790.44
483.74	13699.16
483.92	14010.45
484.10	14146.20
484.28	14118.11
484.46	14513.66
484.64	14855.38
484.82	14363.87
485.00	14724.31
485.18	14775.80
485.35	14789.85
485.53	14677.50
485.71	14939.64
485.89	15030.92
486.07	15077.73
486.25	15250.93
486.43	15161.99
486.61	15234.55
486.78	15779.89
486.96	15723.72
487.14	16086.50
487.32	15838.41
487.50	16327.58
487.68	16477.37
487.85	16425.88
488.03	16760.58
488.21	16805.05
488.39	16620.14
488.57	16973.56
488.75	17001.65
488.92	17380.82
489.10	17359.75
489.28	17486.14
489.46	17436.99
489.64	17729.56
489.81	18071.28
489.99	18197.67
490.17	18420.02
490.35	18192.98
490.53	18071.28
490.70	18373.21
490.88	18637.69
491.06	18787.48
491.24	18700.88
491.41	18686.84
491.59	18925.57
491.77	19058.98
491.95	19173.67
492.13	19201.76
492.30	19623.05
492.48	19381.98
492.66	19742.42
492.84	20142.65
493.01	19782.21
493.19	19896.89
493.37	19943.70
493.54	20123.93
493.72	20456.28
493.90	20465.64
494.08	20540.54
494.25	20760.55
494.43	21022.69
494.61	21085.89
494.79	21106.95
494.96	20891.62
495.14	21364.41
495.32	21511.86
495.49	21575.06
495.67	21696.77
495.85	21855.92
496.02	22031.46
496.20	21909.75
496.38	22221.05
496.55	22143.81
496.73	22656.39
496.91	22504.25
497.09	22237.43
497.26	22742.99
497.44	22595.53
497.62	22621.28
497.79	23028.53
497.97	23197.05
498.14	23335.14
498.32	23138.54
498.50	23323.44
498.67	23410.04
498.85	23260.24
499.03	24163.69
499.20	23896.87
499.38	23672.18
499.56	24002.19
499.73	23957.72
499.91	24088.79
500.08	24446.90
500.26	23955.38
500.44	24203.48
500.61	24278.38
500.79	24203.48
500.97	24638.82
501.14	24610.73
501.32	24687.97
501.49	24814.36
501.67	24856.49
501.84	24840.11
502.02	25008.62
502.20	25043.73
502.37	25408.86
502.55	25228.63
502.72	25371.41
502.90	25497.80
503.07	25303.53
503.25	25586.74
503.43	25673.34
503.60	26122.72
503.78	25785.68
503.95	25898.03
504.13	25846.54
504.30	26218.68
504.48	26284.22
504.65	26450.39
504.83	26581.46
505.01	26382.52
505.18	26361.45
505.36	26654.02
505.53	26838.92
505.71	26918.50
505.88	26913.82
506.06	26742.96
506.23	26948.93
506.41	27199.37
506.58	27157.24
506.76	27211.07
506.93	27278.94
507.11	27536.40
507.28	27475.55
507.46	27388.95
507.63	27655.77
507.81	27964.72
507.98	27473.21
508.16	27751.73
508.33	27515.34
508.50	28091.11
508.68	28006.85
508.85	28395.38
509.03	28411.76
509.20	28212.82
509.38	28739.44
509.55	28919.66
509.73	28856.46
509.90	28591.98
510.08	28486.66
510.25	28739.44
510.42	29266.06
510.60	29043.71
510.77	29256.70
510.95	29350.32
511.12	28802.63
511.30	29443.94
511.47	29518.84
511.64	29703.74
511.82	29673.31
511.99	29565.65
512.17	30047.80
512.34	29413.51
512.51	29912.05
512.69	30064.18
512.86	30202.27
513.04	30139.08
513.21	30064.18
513.38	30115.67
513.56	29921.41
513.73	30431.65
513.90	30497.18
514.08	30506.54
514.25	30696.13
514.43	30644.63
514.60	30326.32
514.77	30719.53
514.95	30948.90
515.12	30951.24
515.29	30981.67
515.47	31360.84
515.64	31332.75
515.81	30874.01
515.99	30972.31
516.16	31016.78
516.33	31070.61
516.51	31402.97
516.68	31239.13
516.85	31232.11
517.03	31337.43
517.20	31449.78
517.37	31337.43
517.54	31697.88
517.72	31775.11
517.89	31821.92
518.06	31894.48
518.24	31702.56
518.41	31866.39
518.58	31931.93
518.75	32051.30
518.93	32266.63
519.10	32044.27
519.27	32514.72
519.45	32414.08
519.62	32863.46
519.79	32940.70
519.96	32772.18
520.14	32788.56
520.31	32868.14
520.48	32535.79
520.65	32638.77
520.83	33516.47
521.00	33036.66
521.17	33195.82
521.34	33558.60
521.52	33706.05
521.69	33233.27
521.86	33427.53
522.03	33446.26
522.20	33724.78
522.38	34019.69
522.55	33806.70
522.72	33764.57
522.89	33731.80
523.07	33944.79
523.24	33930.75
523.41	34122.67
523.58	33792.65
523.75	34361.40
523.92	34803.77
524.10	34600.14
524.27	34487.79
524.44	34246.72
524.61	34869.30
524.78	34686.74
524.96	34857.60
525.13	34682.06
525.30	35101.01
525.47	34731.21
525.64	35103.35
525.81	35206.34
525.98	35363.15
526.16	35129.10
526.33	34543.97
526.50	35356.13
526.67	35335.07
526.84	35180.59
527.01	35119.74
527.18	35063.57
527.36	35262.51
527.53	35550.40
527.70	36020.84
527.87	35845.30
528.04	35686.15
528.21	35967.01
528.38	35758.70
528.55	36100.42
528.72	35798.49
528.89	36039.57
529.07	35999.78
529.24	35803.17
529.41	36371.92
529.58	36154.26
529.75	36009.14
529.92	36240.86
530.09	36751.09
530.26	36170.64
530.43	36584.91
530.60	36545.12
530.77	36140.21
530.94	36807.26
531.11	36931.31
531.28	36678.54
531.46	36856.42
531.63	36463.21
531.80	36442.14
531.97	36935.99
532.14	36924.29
532.31	36809.61
532.48	36851.73
532.65	37282.39
532.82	37083.45
532.99	37174.73
533.16	36966.42
533.33	37500.06
533.50	37488.36
533.67	37148.98
533.84	37055.36
534.01	37827.74
534.18	37317.50
534.35	37333.89
534.52	37378.36
534.69	37212.18
534.86	37982.21
535.03	37600.71
535.20	37780.93
535.37	37858.17
535.54	38293.50
535.71	37902.64
535.88	38064.13
536.05	37893.27
536.22	37954.13
536.38	38148.39
536.55	38349.68
536.72	38321.59
536.89	37947.11
537.06	38036.05
537.23	38534.58
537.40	37958.81
537.57	38438.62
537.74	38230.31
537.91	38848.21
538.08	38731.18
538.25	38038.39
538.42	38632.88
538.59	38714.80
538.75	38272.44
538.92	38778.00
539.09	38827.15
539.26	39058.86
539.43	39091.63
539.60	39222.70
539.77	38815.44
539.94	38927.79
540.11	38979.28
540.28	38998.01
540.44	39115.03
540.61	39257.81
540.78	38778.00
540.95	39222.70
541.12	38930.13
541.29	39227.38
541.46	39475.48
541.62	39267.17
541.79	39438.03
541.96	39164.18
542.13	39536.33
542.30	39103.33
542.47	39651.02
542.63	39505.90
542.80	39594.84
542.97	40006.78
543.14	40596.59
543.31	40130.83
543.48	40308.71
543.64	40414.03
543.81	40657.45
543.98	40285.30
544.15	39728.25
544.32	40456.16
544.48	40500.63
544.65	40421.05
544.82	40657.45
544.99	40306.37
545.16	40460.84
545.32	40376.58
545.49	40491.27
545.66	40877.46
545.83	40919.59
546.00	40690.21
546.16	41120.87
546.33	40678.51
546.50	40392.97
546.67	40545.10
546.83	40437.44
547.00	40783.83
547.17	40921.93
547.34	40701.92
547.50	40978.10
547.67	41209.81
547.84	40912.56
548.00	41006.19
548.17	40879.80
548.34	41378.33
548.51	41532.81
548.67	41263.64
548.84	41429.82
549.01	41385.35
549.18	41556.21
549.34	41486.00
549.51	41448.55
549.68	41525.78
549.84	41261.30
550.01	41961.12
550.18	41928.36
550.34	41343.22
550.51	41493.02
550.68	41088.10
550.84	41607.70
551.01	41303.43
551.18	41677.92
551.34	41888.57
551.51	41701.32
551.68	41893.25
551.84	41900.27
552.01	42017.30
552.18	41783.24
552.34	41998.57
552.51	42450.30
552.68	41853.46
552.84	41942.40
553.01	41933.04
553.18	42527.53
553.34	41954.10
553.51	41720.05
553.67	41811.33
553.84	42314.55
554.01	41963.46
554.17	42525.19
554.34	42670.31
554.51	42639.88
554.67	42333.27
554.84	42590.73
555.00	41965.81
555.17	42146.03
555.33	42220.92
555.50	42777.97
555.67	42665.63
555.83	42564.98
556.00	42878.61
556.16	42962.87
556.33	42838.83
556.50	42871.59
556.66	42473.70
556.83	42494.77
556.99	42550.94
557.16	42597.75
557.32	42618.81
557.49	42859.89
557.65	43058.84
557.82	42775.63
557.98	43215.65
558.15	43171.18
558.32	42784.99
558.48	42972.24
558.65	42712.44
558.81	42969.90
558.98	42869.25
559.14	42997.98
559.31	43096.28
559.47	42834.14
559.64	43470.77
559.80	43091.60
559.97	43220.33
560.13	43028.41
560.30	42735.84
560.46	42983.94
560.63	43138.41
560.79	43611.20
560.96	43676.74
561.12	43161.82
561.29	43370.13
561.45	43145.44
561.61	43400.55
561.78	43295.23
561.94	43290.55
562.11	43239.06
562.27	43220.33
562.44	43360.76
562.60	43171.18
562.77	43601.84
562.93	43239.06
563.10	43335.02
563.26	43421.62
563.42	43922.49
563.59	42925.42
563.75	43533.96
563.92	43650.99
564.08	43346.72
564.24	43983.35
564.41	43842.92
564.57	43728.23
564.74	43655.67
564.90	44109.74
565.07	43917.81
565.23	43405.23
565.39	43421.62
565.56	43812.49
565.72	43819.51
565.88	43367.79
566.05	43845.26
566.21	43679.08
566.38	43732.91
566.54	43463.75
566.70	43896.75
566.87	43908.45
567.03	43531.62
567.19	44334.43
567.36	44219.74
567.52	43428.64
567.68	44224.42
567.85	43552.69
568.01	43835.89
568.17	43515.24
568.34	44177.61
568.50	43789.08
568.66	44055.90
568.83	44163.57
568.99	43753.97
569.15	44034.84
569.32	44135.48
569.48	43910.79
569.64	43952.92
569.81	44306.34
569.97	44158.89
570.13	44294.64
570.30	43838.23
570.46	43594.82
570.62	43566.73
570.78	43718.87
570.95	43966.96
571.11	44051.22
571.27	43988.03
571.43	44144.84
571.60	44484.22
571.76	44107.40
571.92	43784.40
572.09	44198.68
572.25	43931.86
572.41	44088.67
572.57	43952.92
572.74	44449.11
572.90	44491.24
573.06	43924.83
573.22	43981.01
573.38	43835.89
573.55	44072.29
573.71	44739.34
573.87	44172.93
574.03	43959.94
574.20	44201.02
574.36	44041.86
574.52	43988.03
574.68	44322.72
574.84	43955.26
575.01	44112.08
575.17	43761.00
575.33	44034.84
575.49	44069.95
575.65	44411.67
575.82	44797.85
575.98	44006.75
576.14	44662.10
576.30	44371.88
576.46	44224.42
576.62	44500.61
576.79	43924.83
576.95	43672.06
577.11	44142.50
577.27	44229.10
577.43	44327.41
577.59	44175.27
577.75	44563.80
577.92	44212.72
578.08	44079.31
578.24	43831.21
578.40	44149.53
578.56	44449.11
578.72	44231.44
578.88	44479.54
579.04	44083.99
579.21	43969.30
579.37	44203.36
579.53	44198.68
579.69	44137.82
579.85	44685.51
580.01	44168.25
580.17	44229.10
580.33	44877.43
580.49	44673.81
580.65	44484.22
580.82	44645.72
580.98	44601.25
581.14	44360.17
581.30	44690.19
581.46	44488.90
581.62	44053.56
581.78	44685.51
581.94	44318.04
582.10	44048.88
582.26	44776.79
582.42	44285.28
582.58	44463.16
582.74	44086.33
582.90	44095.69
583.06	44414.01
583.22	44591.89
583.38	44734.66
583.54	44296.98
583.70	44144.84
583.86	44528.69
584.02	43868.66
584.18	44493.58
584.34	44275.91
584.50	44397.62
584.66	44147.18
584.82	44580.18
584.98	44823.60
585.14	44626.99
585.30	44362.51
585.46	43995.05
585.62	44037.18
585.78	43915.47
585.94	44142.50
586.10	44348.47
586.26	44116.76
586.42	44626.99
586.58	44435.07
586.74	44540.39
586.90	44053.56
587.06	44404.64
587.22	44463.16
587.38	44240.81
587.54	44472.52
587.70	44828.28
587.86	44664.44
588.02	44325.07
588.18	44907.86
588.34	44439.75
588.49	44465.50
588.65	44313.36
588.81	44170.59
588.97	44629.34
589.13	44004.41
589.29	44491.24
589.45	44591.89
589.61	44793.17
589.77	44732.32
589.93	45069.36
590.08	44767.43
590.24	44542.74
590.40	44449.11
