SpectraSuite Data File
++++++++++++++++++++++++++++++++++++
Date: Fri Oct 25 11:25:40 EDT 2013
User: price-jones
Dark Spectrum Present: No
Reference Spectrum Present: No
Number of Sampled Component Spectra: 1
Spectrometers: USB2+H05261
Integration Time (usec): 100000 (USB2+H05261)
Spectra Averaged: 1 (USB2+H05261)
Boxcar Smoothing: 0 (USB2+H05261)
Correct for Electrical Dark: No (USB2+H05261)
Strobe/Lamp Enabled: No (USB2+H05261)
Correct for Detector Non-linearity: No (USB2+H05261)
Correct for Stray Light: No (USB2+H05261)
Number of Pixels in Processed Spectrum: 2048
>>>>>Begin Processed Spectral Data<<<<<
365.73	227.03
365.92	227.03
366.12	227.03
366.32	154.48
366.52	105.32
366.72	152.13
366.91	126.39
367.11	60.85
367.31	121.71
367.51	126.39
367.70	114.69
367.90	175.54
368.10	79.58
368.30	72.56
368.49	93.62
368.69	191.92
368.89	175.54
369.09	124.05
369.28	135.75
369.48	175.54
369.68	191.92
369.87	217.67
370.07	168.52
370.27	222.35
370.47	358.10
370.66	477.47
370.86	608.54
371.06	678.76
371.25	772.38
371.45	645.99
371.65	702.16
371.84	718.54
372.04	695.14
372.24	746.63
372.44	781.74
372.63	758.33
372.83	809.83
373.03	744.29
373.22	723.23
373.42	786.42
373.62	772.38
373.81	681.10
374.01	849.61
374.21	819.19
374.40	849.61
374.60	826.21
374.79	837.91
374.99	854.30
375.19	826.21
375.38	877.70
375.58	901.11
375.78	863.66
375.97	800.46
376.17	887.06
376.37	875.36
376.56	894.08
376.76	833.23
376.95	741.95
377.15	882.38
377.35	940.90
377.54	908.13
377.74	912.81
377.93	910.47
378.13	973.66
378.33	950.26
378.52	1025.15
378.72	1029.84
378.91	997.07
379.11	992.39
379.31	889.40
379.50	905.79
379.70	994.73
379.89	1001.75
380.09	919.83
380.28	999.41
380.48	968.98
380.68	931.53
380.87	978.34
381.07	1050.90
381.26	990.05
381.46	950.26
381.65	976.00
381.85	1104.73
382.04	1067.28
382.24	1050.90
382.43	1076.65
382.63	1156.22
382.83	1097.71
383.02	1118.78
383.22	1104.73
383.41	1083.67
383.61	1043.88
383.80	1153.88
384.00	1100.05
384.19	1048.56
384.39	1123.46
384.58	1160.91
384.78	1174.95
384.97	1188.99
385.17	1193.67
385.36	1139.84
385.56	1118.78
385.75	1240.48
385.95	1158.57
386.14	1224.10
386.34	1174.95
386.53	1165.59
386.72	1158.57
386.92	1219.42
387.11	1217.08
387.31	1156.22
387.50	1163.25
387.70	1196.01
387.89	1294.32
388.09	1212.40
388.28	1268.57
388.48	1263.89
388.67	1299.00
388.86	1338.79
389.06	1348.15
389.25	1385.60
389.45	1238.14
389.64	1238.14
389.84	1315.38
390.03	1203.04
390.22	1385.60
390.42	1308.36
390.61	1392.62
390.81	1418.36
391.00	1362.19
391.19	1462.83
391.39	1500.28
391.58	1409.00
391.78	1434.75
391.97	1516.67
392.16	1504.96
392.36	1406.66
392.55	1469.86
392.75	1621.99
392.94	1481.56
393.13	1467.52
393.33	1528.37
393.52	1572.84
393.71	1500.28
393.91	1476.88
394.10	1502.62
394.29	1476.88
394.49	1483.90
394.68	1568.16
394.88	1643.06
395.07	1680.50
395.26	1633.69
395.46	1617.31
395.65	1706.25
395.84	1650.08
396.04	1842.00
396.23	1724.97
396.42	1813.92
396.62	1720.29
396.81	1792.85
397.00	1790.51
397.19	1692.21
397.39	1825.62
397.58	1746.04
397.77	1781.15
397.97	1856.04
398.16	1844.34
398.35	1783.49
398.55	1771.79
398.74	1937.96
398.93	1977.75
399.12	1872.43
399.32	1849.02
399.51	1895.83
399.70	1980.09
399.90	1949.67
400.09	1968.39
400.28	1970.73
400.47	1961.37
400.67	2134.57
400.86	2047.97
401.05	2017.54
401.24	2132.23
401.44	2148.61
401.63	2010.52
401.82	2076.06
402.01	2132.23
402.21	2106.48
402.40	2136.91
402.59	2162.66
402.78	2179.04
402.97	2118.18
403.17	2282.02
403.36	2307.77
403.55	2277.34
403.74	2326.49
403.93	2345.22
404.13	2321.81
404.32	2319.47
404.51	2347.56
404.70	2347.56
404.89	2429.48
405.09	2408.41
405.28	2377.98
405.47	2530.12
405.66	2434.16
405.85	2377.98
406.05	2523.10
406.24	2452.88
406.43	2408.41
406.62	2520.76
406.81	2532.46
407.00	2647.15
407.20	2579.27
407.39	2565.23
407.58	2663.53
407.77	2672.89
407.96	2717.36
408.15	2717.36
408.34	2686.94
408.54	2684.59
408.73	2771.19
408.92	2806.30
409.11	2810.98
409.30	2818.00
409.49	2923.33
409.68	2764.17
409.87	2951.42
410.07	2972.48
410.26	2935.03
410.45	2946.73
410.64	2930.35
410.83	2977.16
411.02	3080.14
411.21	3084.83
411.40	3122.27
411.59	3215.90
411.78	3225.26
411.98	3087.17
412.17	3267.39
412.36	3272.07
412.55	3351.65
412.74	3335.26
412.93	3295.47
413.12	3332.92
413.31	3459.31
413.50	3440.59
413.69	3414.84
413.88	3578.68
414.07	3623.15
414.26	3599.74
414.45	3529.53
414.64	3627.83
414.83	3723.79
415.02	3737.84
415.22	3896.99
415.41	3983.59
415.60	3660.60
415.79	3934.44
415.98	3934.44
416.17	3882.95
416.36	3775.28
416.55	3918.06
416.74	4117.00
416.93	3878.27
417.12	4173.18
417.31	4086.58
417.50	4194.24
417.69	4248.07
417.88	4306.59
418.07	4278.50
418.26	4285.52
418.45	4306.59
418.64	4484.47
418.83	4461.06
419.02	4557.02
419.21	4456.38
419.39	4498.51
419.58	4463.40
419.77	4409.57
419.96	4507.87
420.15	4641.28
420.34	4533.62
420.53	4337.01
420.72	4657.67
420.91	4636.60
421.10	4500.85
421.29	4833.21
421.48	4807.46
421.67	4753.63
421.86	4641.28
422.05	4793.42
422.24	4800.44
422.43	4784.06
422.61	4812.14
422.80	4788.74
422.99	4931.51
423.18	4842.57
423.37	5013.43
423.56	4912.78
423.75	4957.25
423.94	4690.43
424.13	4744.27
424.32	4732.56
424.50	4943.21
424.69	5095.35
424.88	5050.88
425.07	4983.00
425.26	4938.53
425.45	4898.74
425.64	4975.98
425.83	4992.36
426.01	4938.53
426.20	4985.34
426.39	5083.64
426.58	5041.51
426.77	5025.13
426.96	5263.86
427.15	5217.05
427.33	5050.88
427.52	5116.41
427.71	5219.39
427.90	5249.82
428.09	5282.59
428.28	5411.32
428.46	5373.87
428.65	5392.59
428.84	5298.97
429.03	5472.17
429.22	5378.55
429.40	5371.53
429.59	5535.37
429.78	5308.34
429.97	5137.48
430.16	5469.83
430.34	5565.79
430.53	5554.09
430.72	5593.88
430.91	5671.12
431.10	5661.76
431.28	5626.65
431.47	5753.04
431.66	5795.17
431.85	5741.33
432.03	5947.30
432.22	6080.71
432.41	5870.06
432.60	5898.15
432.79	5802.19
432.97	5886.45
433.16	5949.64
433.35	5982.41
433.54	6157.95
433.72	6097.10
433.91	6160.29
434.10	6141.57
434.28	6029.22
434.47	5961.34
434.66	6249.23
434.85	6193.06
435.03	6319.45
435.22	6272.64
435.41	6417.75
435.59	6120.50
435.78	6347.53
435.97	6464.56
436.16	6216.46
436.34	6253.91
436.53	6427.11
436.72	6803.94
436.90	6349.87
437.09	6576.91
437.28	6478.60
437.46	6476.26
437.65	6731.38
437.84	6839.05
438.02	6750.10
438.21	6663.51
438.40	6640.10
438.58	7005.22
438.77	7045.01
438.96	6927.99
439.14	7089.48
439.33	7040.33
439.52	7143.32
439.70	7152.68
439.89	7325.88
440.08	7405.46
440.26	7157.36
440.45	7302.47
440.63	7466.31
440.82	7698.02
441.01	7414.82
441.19	7569.29
441.38	7566.95
441.57	7595.04
441.75	7672.28
441.94	7899.31
442.12	7824.41
442.31	8018.68
442.50	8053.78
442.68	7861.86
442.87	8072.51
443.05	8133.36
443.24	7976.55
443.43	8039.74
443.61	8257.41
443.80	8425.93
443.98	7997.61
444.17	7702.70
444.35	8046.76
444.54	8416.57
444.73	8271.45
444.91	8135.70
445.10	8439.97
445.28	8234.00
445.47	8287.84
445.65	8379.12
445.84	8423.59
446.02	8439.97
446.21	8355.71
446.39	8472.74
446.58	8549.98
446.77	8444.65
446.95	8236.35
447.14	8409.54
447.32	8456.36
447.51	8383.80
447.69	8596.79
447.88	8479.76
448.06	8416.57
448.25	8482.10
448.43	8547.64
448.62	8746.58
448.80	8449.33
448.99	8760.63
449.17	8755.94
449.36	8561.68
449.54	8645.94
449.73	8943.19
449.91	8833.18
450.10	8870.63
450.28	9163.20
450.46	8997.02
450.65	8917.44
450.83	9125.75
451.02	9064.89
451.20	9048.51
451.39	9195.96
451.57	9179.58
451.76	8889.35
451.94	8978.30
452.13	9273.20
452.31	9188.94
452.49	9151.49
452.68	9266.18
452.86	9387.89
453.05	9420.66
453.23	9423.00
453.42	9509.60
453.60	9167.88
453.78	9514.28
453.97	9603.22
454.15	9582.15
454.34	9364.48
454.52	9528.32
454.70	9809.19
454.89	9666.41
455.07	9820.89
455.26	9666.41
455.44	9839.61
455.62	9738.97
455.81	9853.66
455.99	9856.00
456.17	10115.80
456.36	10127.50
456.54	10113.45
456.73	10162.61
456.91	10218.78
457.09	10384.96
457.28	10682.20
457.46	10260.91
457.64	10354.53
457.83	10548.79
458.01	10328.78
458.19	10583.90
458.38	10406.02
458.56	10590.92
458.74	10485.60
458.93	10445.81
459.11	10562.84
459.29	10593.26
459.48	10794.55
459.66	10766.46
459.84	10862.43
460.03	10956.05
460.21	10888.17
460.39	10883.49
460.57	10857.75
460.76	11197.12
460.94	11028.60
461.12	11314.15
461.31	11094.14
461.49	11199.46
461.67	11293.08
461.85	11276.70
462.04	11159.67
462.22	11887.58
462.40	11564.59
462.59	11475.65
462.77	11215.85
462.95	11398.41
463.13	11559.91
463.32	11391.39
463.50	11740.13
463.68	11777.58
463.86	11789.28
464.05	11705.02
464.23	11845.45
464.41	11840.77
464.59	11758.85
464.78	11946.09
464.96	11875.88
465.14	11779.92
465.32	11929.71
465.50	11929.71
465.69	12156.74
465.87	11747.15
466.05	12287.81
466.23	12145.04
466.41	11981.20
466.60	12461.01
466.78	12112.27
466.96	12224.62
467.14	12203.55
467.32	12358.03
467.51	12381.43
467.69	12184.83
467.87	12491.44
468.05	12404.84
468.23	12571.02
468.41	12526.55
468.60	12793.37
468.78	12788.69
468.96	12540.59
469.14	13001.68
469.32	12901.03
469.50	12430.59
469.69	12678.68
469.87	13029.76
470.05	12947.84
470.23	13085.94
470.41	13001.68
470.59	13046.15
470.77	12910.40
470.95	13247.43
471.14	13488.51
471.32	13064.87
471.50	13341.05
471.68	13427.65
471.86	13476.80
472.04	13554.04
472.22	13853.63
472.40	13518.93
472.58	13848.95
472.77	13757.67
472.95	14085.34
473.13	14466.85
473.31	13963.64
473.49	13837.25
473.67	13781.07
473.85	14143.86
474.03	14492.60
474.21	14340.46
474.39	14686.86
474.57	14450.47
474.75	14813.25
474.93	14773.46
475.12	15028.58
475.30	14984.11
475.48	14857.72
475.66	15206.46
475.84	15049.64
476.02	15178.37
476.20	15063.69
476.38	15566.90
476.56	15939.05
476.74	15506.05
476.92	15765.85
477.10	15917.98
477.28	16191.83
477.46	15896.92
477.64	16152.04
477.82	16570.99
478.00	16950.16
478.18	16468.01
478.36	16989.95
478.54	16938.46
478.72	17043.78
478.90	17345.71
479.08	17657.00
479.26	17940.21
479.44	17872.33
479.62	17862.97
479.80	17916.80
479.98	18115.75
480.16	18408.31
480.34	18090.00
480.52	18487.89
480.70	18579.17
480.88	18190.64
481.06	18532.36
481.24	18675.13
481.41	18977.06
481.59	19063.66
481.77	19515.39
481.95	19276.65
482.13	19597.31
482.31	19412.40
482.49	20009.24
482.67	19967.11
482.85	20037.33
483.03	20505.43
483.21	20666.93
483.39	20692.68
483.57	20975.88
483.74	21020.35
483.92	21165.46
484.10	21280.15
484.28	21579.74
484.46	21589.10
484.64	22094.66
484.82	21886.35
485.00	22143.81
485.18	22588.51
485.35	22852.99
485.53	22869.37
485.71	22925.55
485.89	23276.63
486.07	23283.65
486.25	23150.24
486.43	23304.71
486.61	23608.98
486.78	23915.59
486.96	23962.40
487.14	24526.47
487.32	24458.60
487.50	24753.51
487.68	24692.65
487.85	25174.80
488.03	25273.10
488.21	25385.45
488.39	25699.08
488.57	26108.68
488.75	25923.77
488.92	26087.61
489.10	26808.50
489.28	26171.87
489.46	27281.28
489.64	26733.60
489.81	27630.02
489.99	27510.66
490.17	27489.59
490.35	27798.54
490.53	28147.28
490.70	28093.45
490.88	28006.85
491.06	28402.40
491.24	28306.44
491.41	28678.58
491.59	28844.76
491.77	29439.26
491.95	29551.60
492.13	29301.17
492.30	30010.35
492.48	30064.18
492.66	30174.19
492.84	29968.22
493.01	30323.98
493.19	30469.09
493.37	30843.58
493.54	31304.67
493.72	31559.78
493.90	31477.86
494.08	31328.07
494.25	31850.01
494.43	32060.66
494.61	32034.91
494.79	32051.30
494.96	32027.89
495.14	32676.22
495.32	32833.04
495.49	33001.55
495.67	32931.34
495.85	33586.69
496.02	33614.77
496.20	33605.41
496.38	33809.04
496.55	34040.75
496.73	34792.06
496.91	34487.79
497.09	34422.26
497.26	34504.18
497.44	34403.53
497.62	34845.90
497.79	35611.25
497.97	35161.87
498.14	35770.41
498.32	36273.62
498.50	36009.14
498.67	36339.16
498.85	36074.68
499.03	36362.56
499.20	36458.52
499.38	36577.89
499.56	37078.77
499.73	36954.72
499.91	37240.26
500.08	37343.25
500.26	36807.26
500.44	37359.63
500.61	37420.48
500.79	37745.82
500.97	37940.08
501.14	38202.22
501.32	37954.13
501.49	37996.26
501.67	38455.00
501.84	38625.86
502.02	38569.69
502.20	38925.45
502.37	38993.32
502.55	38944.17
502.72	39473.13
502.90	39037.80
503.07	39157.16
503.25	39641.65
503.43	39208.65
503.60	39578.46
503.78	39995.07
503.95	39849.96
504.13	40297.00
504.30	40451.48
504.48	40800.22
504.65	40247.85
504.83	41099.81
505.01	40722.98
505.18	40978.10
505.36	41422.80
505.53	40994.48
505.71	41177.04
505.88	41504.72
506.06	41336.20
506.23	41691.96
506.41	41586.64
506.58	41638.13
506.76	41832.39
506.93	42068.79
507.11	42260.71
507.28	42375.40
507.46	42899.68
507.63	42656.26
507.81	42777.97
507.98	42305.18
508.16	42864.57
508.33	42623.50
508.50	43391.19
508.68	43328.00
508.85	43700.14
509.03	43491.83
509.20	43936.54
509.38	43817.17
509.55	44119.10
509.73	44376.56
509.90	43971.64
510.08	44615.29
510.25	44514.65
510.42	44584.86
510.60	44638.70
510.77	45031.91
510.95	45272.98
511.12	45249.58
511.30	44542.74
511.47	45085.74
511.64	45113.83
511.82	45532.78
511.99	45167.66
512.17	46010.25
512.34	45757.47
512.51	45853.44
512.69	45986.85
512.86	45968.12
513.04	46204.52
513.21	46405.80
513.38	46628.15
513.56	46763.90
513.73	46454.95
513.90	46803.69
514.08	46424.53
514.25	46890.29
514.43	47222.65
514.60	47306.91
514.77	47035.41
514.95	47239.03
515.12	47185.20
515.29	47524.58
515.47	47896.72
515.64	47374.78
515.81	47601.82
515.99	47878.00
516.16	48397.60
516.33	48425.68
516.51	48439.73
516.68	48580.16
516.85	48079.28
517.03	48655.06
517.20	48322.70
517.37	48175.25
517.54	48680.80
517.72	48722.93
517.89	48507.60
518.06	48994.43
518.24	48849.32
518.41	48893.79
518.58	49305.73
518.75	49076.35
518.93	49617.02
519.10	48811.87
519.27	49759.79
519.45	49389.98
519.62	49659.15
519.79	49825.32
519.96	50014.91
520.14	50122.57
520.31	49968.10
520.48	50145.98
520.65	50075.76
520.83	50803.67
521.00	50319.18
521.17	50167.04
521.34	50536.85
521.52	50944.10
521.69	50464.29
521.86	50806.01
522.03	50754.52
522.20	50869.20
522.38	51309.22
522.55	51192.20
522.72	51021.34
522.89	51274.12
523.07	51374.76
523.24	51133.68
523.41	51454.34
523.58	51283.48
523.75	51489.45
523.92	51540.94
524.10	51615.83
524.27	51618.17
524.44	51910.74
524.61	51906.06
524.78	51913.08
524.96	51896.70
525.13	51995.00
525.30	52086.28
525.47	52135.43
525.64	52142.45
525.81	52292.25
525.98	52584.82
526.16	52402.25
526.33	52418.64
526.50	52739.29
526.67	52502.90
526.84	52917.17
527.01	52591.84
527.18	52615.24
527.36	52910.15
527.53	52926.53
527.70	53066.97
527.87	53214.42
528.04	53050.58
528.21	53179.31
528.38	53188.67
528.55	53359.53
528.72	53071.65
528.89	53261.23
529.07	53048.24
529.24	53205.06
529.41	53506.99
529.58	53448.47
529.75	53394.64
529.92	53357.19
530.09	53670.82
530.26	53808.92
530.43	53497.62
530.60	53624.01
530.77	53680.19
530.94	53680.19
531.11	53860.41
531.28	53876.79
531.46	53895.52
531.63	53855.73
531.80	54127.23
531.97	54040.63
532.14	54192.76
532.31	54354.26
532.48	54155.32
532.65	54597.68
532.82	54291.07
532.99	54237.23
533.16	54475.97
533.33	54642.15
533.50	54862.16
533.67	54419.80
533.84	54429.16
534.01	54717.04
534.18	54859.82
534.35	55168.77
534.52	54848.11
534.69	54869.18
534.86	55161.75
535.03	54864.50
535.20	55014.29
535.37	55096.21
535.54	55517.51
535.71	55229.62
535.88	55119.62
536.05	55187.49
536.22	55306.86
536.38	55356.01
536.55	55339.63
536.72	55430.91
536.89	55402.82
537.06	55194.51
537.23	55784.33
537.40	55482.40
537.57	55409.84
537.74	55505.80
537.91	55746.88
538.08	55917.74
538.25	55573.68
538.42	55686.03
538.59	55948.17
538.75	55716.45
538.92	55899.01
539.09	55906.04
539.26	55899.01
539.43	55686.03
539.60	56086.26
539.77	56083.92
539.94	56179.88
540.11	56137.75
540.28	56184.56
540.44	56027.74
540.61	56313.29
540.78	56175.20
540.95	56121.37
541.12	56193.92
541.29	56252.44
541.46	56332.01
541.62	56467.76
541.79	56512.23
541.96	56142.43
542.13	56301.59
542.30	56477.13
542.47	56760.33
542.63	56535.64
542.80	56781.40
542.97	57095.03
543.14	57013.11
543.31	56973.32
543.48	57127.80
543.64	57162.90
543.81	57102.05
543.98	57144.18
544.15	57254.18
544.32	57125.46
544.48	57471.85
544.65	57125.46
544.82	57296.31
544.99	57242.48
545.16	57329.08
545.32	57375.89
545.49	57733.99
545.66	57455.47
545.83	57359.51
546.00	57495.26
546.16	57450.79
546.33	57401.64
546.50	57144.18
546.67	57752.72
546.83	57240.14
547.00	57708.25
547.17	57453.13
547.34	57738.68
547.50	57712.93
547.67	57911.88
547.84	57598.24
548.00	57687.18
548.17	57792.51
548.34	57790.17
548.51	58059.33
548.67	58106.14
548.84	58024.22
549.01	57946.98
549.18	58005.50
549.34	58010.18
549.51	58181.04
549.68	58155.29
549.84	58071.03
550.01	58152.95
550.18	58035.92
550.34	58082.73
550.51	58312.11
550.68	58295.72
550.84	57902.51
551.01	58244.23
551.18	58213.80
551.34	58152.95
551.51	58482.97
551.68	58628.08
551.84	58408.07
552.01	58363.60
552.18	58410.41
552.34	58372.96
552.51	58754.47
552.68	58176.36
552.84	58422.11
553.01	58679.57
553.18	58583.61
553.34	58756.81
553.51	58564.88
553.67	58667.87
553.84	58733.40
554.01	58820.00
554.17	58742.77
554.34	58798.94
554.51	58784.90
554.67	58824.68
554.84	58878.52
555.00	58883.20
555.17	58925.33
555.33	58717.02
555.50	58646.80
555.67	58770.85
555.83	59004.91
556.00	58901.92
556.16	59164.06
556.33	59281.09
556.50	59028.31
556.66	59299.81
556.83	58822.34
556.99	59267.05
557.16	59360.67
557.32	59206.19
557.49	59231.94
557.65	59054.06
557.82	59267.05
557.98	59201.51
558.15	59409.82
558.32	59143.00
558.48	59341.94
558.65	59377.05
558.81	59238.96
558.98	59576.00
559.14	59627.49
559.31	59510.46
559.47	59313.86
559.64	59341.94
559.80	59662.60
559.97	59744.51
560.13	59510.46
560.30	59643.87
560.46	59587.70
560.63	59728.13
560.79	59690.68
560.96	59657.91
561.12	59517.48
561.29	59821.75
561.45	59580.68
561.61	59812.39
561.78	59681.32
561.94	59608.76
562.11	59683.66
562.27	59561.95
562.44	59784.30
562.60	59704.73
562.77	59814.73
562.93	59559.61
563.10	59887.29
563.26	59606.42
563.42	60027.72
563.59	59819.41
563.75	59613.44
563.92	59870.90
564.08	59784.30
564.24	59798.35
564.41	59936.44
564.57	60072.19
564.74	59824.09
564.90	60081.55
565.07	59894.31
565.23	60107.30
565.39	59889.63
565.56	60128.36
565.72	59875.58
565.88	60207.94
566.05	60030.06
566.21	59957.50
566.38	60055.81
566.54	60037.08
566.70	60212.62
566.87	60376.46
567.03	59880.27
567.19	60282.84
567.36	60369.44
567.52	60088.57
567.68	60336.67
567.85	60001.97
568.01	60229.01
568.17	60271.14
568.34	60282.84
568.50	60184.54
568.66	60163.47
568.83	60350.71
568.99	60200.92
569.15	60140.07
569.32	60350.71
569.48	60303.90
569.64	60350.71
569.81	60165.81
569.97	60313.26
570.13	60114.32
570.30	60065.17
570.46	60259.43
570.62	60472.42
570.78	60217.30
570.95	60310.92
571.11	60458.38
571.27	60254.75
571.43	60619.88
571.60	60388.16
571.76	60231.35
571.92	60434.97
572.09	60399.86
572.25	60467.74
572.41	60355.39
572.57	60505.19
572.74	60601.15
572.90	60378.80
573.06	60505.19
573.22	60467.74
573.38	60432.63
573.55	60530.93
573.71	60673.71
573.87	60519.23
574.03	60559.02
574.20	60549.66
574.36	60378.80
574.52	60580.09
574.68	60441.99
574.84	60526.25
575.01	60755.63
575.17	60692.43
575.33	60638.60
575.49	60458.38
575.65	60676.05
575.82	60591.79
575.98	60706.47
576.14	60800.10
576.30	60678.39
576.46	60629.24
576.62	60692.43
576.79	60654.98
576.95	60383.48
577.11	60444.33
577.27	60505.19
577.43	60528.59
577.59	60690.09
577.75	60537.96
577.92	60521.57
578.08	60568.38
578.24	60669.03
578.40	60921.80
578.56	60748.60
578.72	60823.50
578.88	60860.95
579.04	60977.98
579.21	60732.22
579.37	60725.20
579.53	60779.03
579.69	60582.43
579.85	60701.79
580.01	60636.26
580.17	60540.30
580.33	60678.39
580.49	60970.96
580.65	60664.35
580.82	60814.14
580.98	60776.69
581.14	60650.30
581.30	60746.26
581.46	60769.67
581.62	60830.52
581.78	60685.41
581.94	60804.78
582.10	60767.33
582.26	60739.24
582.42	60687.75
582.58	60692.43
582.74	60753.29
582.90	60734.56
583.06	60779.03
583.22	60512.21
583.38	60732.22
583.54	60963.93
583.70	60823.50
583.86	60935.85
584.02	60701.79
584.18	60903.08
584.34	60767.33
584.50	60781.37
584.66	60760.31
584.82	60748.60
584.98	60996.70
585.14	60863.29
585.30	60495.83
585.46	60942.87
585.62	60846.91
585.78	60886.70
585.94	60788.39
586.10	60921.80
586.26	61001.38
586.42	60807.12
586.58	60882.02
586.74	60928.83
586.90	60882.02
587.06	60802.44
587.22	60931.17
587.38	60743.92
587.54	60970.96
587.70	61146.50
587.86	60952.23
588.02	60889.04
588.18	61020.11
588.34	60739.24
588.49	60821.16
