SpectraSuite Data File
++++++++++++++++++++++++++++++++++++
Date: Fri Oct 25 11:22:39 EDT 2013
User: price-jones
Dark Spectrum Present: No
Reference Spectrum Present: No
Number of Sampled Component Spectra: 1
Spectrometers: USB2+H05261
Integration Time (usec): 100000 (USB2+H05261)
Spectra Averaged: 1 (USB2+H05261)
Boxcar Smoothing: 0 (USB2+H05261)
Correct for Electrical Dark: No (USB2+H05261)
Strobe/Lamp Enabled: No (USB2+H05261)
Correct for Detector Non-linearity: No (USB2+H05261)
Correct for Stray Light: No (USB2+H05261)
Number of Pixels in Processed Spectrum: 2048
>>>>>Begin Processed Spectral Data<<<<<
365.73	196.60
365.92	196.60
366.12	196.60
366.32	124.05
366.52	121.71
366.72	7.02
366.91	100.64
367.11	149.79
367.31	107.66
367.51	100.64
367.70	81.92
367.90	140.43
368.10	100.64
368.30	112.35
368.49	60.85
368.69	133.41
368.89	131.07
369.09	100.64
369.28	140.43
369.48	117.03
369.68	212.99
369.87	220.01
370.07	196.60
370.27	224.69
370.47	386.19
370.66	580.45
370.86	660.03
371.06	683.44
371.25	636.63
371.45	610.88
371.65	706.84
371.84	636.63
372.04	669.39
372.24	711.52
372.44	711.52
372.63	767.70
372.83	767.70
373.03	774.72
373.22	751.31
373.42	685.78
373.62	774.72
373.81	784.08
374.01	828.55
374.21	795.78
374.40	765.36
374.60	835.57
374.79	814.51
374.99	854.30
375.19	744.29
375.38	833.23
375.58	809.83
375.78	814.51
375.97	889.40
376.17	905.79
376.37	903.45
376.56	926.85
376.76	830.89
376.95	877.70
377.15	870.68
377.35	873.02
377.54	929.19
377.74	870.68
377.93	882.38
378.13	915.15
378.33	894.08
378.52	999.41
378.72	1008.77
378.91	919.83
379.11	851.96
379.31	961.96
379.50	964.30
379.70	973.66
379.89	966.64
380.09	924.51
380.28	1043.88
380.48	976.00
380.68	966.64
380.87	1029.84
381.07	1062.60
381.26	1090.69
381.46	976.00
381.65	1062.60
381.85	1018.13
382.04	1029.84
382.24	1018.13
382.43	1015.79
382.63	1078.99
382.83	1057.92
383.02	1013.45
383.22	1118.78
383.41	1062.60
383.61	1114.10
383.80	1186.65
384.00	1160.91
384.19	1039.20
384.39	1174.95
384.58	1149.20
384.78	1102.39
384.97	1172.61
385.17	1071.97
385.36	1210.06
385.56	1165.59
385.75	1181.97
385.95	1170.27
386.14	1238.14
386.34	1259.21
386.53	1247.51
386.72	1210.06
386.92	1217.08
387.11	1308.36
387.31	1217.08
387.50	1268.57
387.70	1310.70
387.89	1179.63
388.09	1390.28
388.28	1254.53
388.48	1289.64
388.67	1320.06
388.86	1268.57
389.06	1369.21
389.25	1348.15
389.45	1401.98
389.64	1338.79
389.84	1317.72
390.03	1317.72
390.22	1355.17
390.42	1460.49
390.61	1418.36
390.81	1411.34
391.00	1490.92
391.19	1490.92
391.39	1479.22
391.58	1446.45
391.78	1434.75
391.97	1460.49
392.16	1493.26
392.36	1528.37
392.55	1481.56
392.75	1448.79
392.94	1516.67
393.13	1582.20
393.33	1493.26
393.52	1694.55
393.71	1638.38
393.91	1549.43
394.10	1762.42
394.29	1561.14
394.49	1572.84
394.68	1720.29
394.88	1556.46
395.07	1706.25
395.26	1708.59
395.46	1755.40
395.65	1732.00
395.84	1743.70
396.04	1694.55
396.23	1710.93
396.42	1732.00
396.62	1774.13
396.81	1802.21
397.00	1717.95
397.19	1739.02
397.39	1755.40
397.58	1647.74
397.77	1774.13
397.97	1888.81
398.16	1839.66
398.35	1930.94
398.55	1771.79
398.74	1956.69
398.93	1954.35
399.12	1994.14
399.32	1989.46
399.51	2003.50
399.70	1977.75
399.90	1930.94
400.09	1994.14
400.28	2019.88
400.47	2127.55
400.67	2054.99
400.86	2031.58
401.05	2022.22
401.24	1980.09
401.44	2120.53
401.63	2235.21
401.82	2069.03
402.01	2001.16
402.21	2223.51
402.40	2157.97
402.59	2232.87
402.78	2228.19
402.97	2167.34
403.17	2242.23
403.36	2195.42
403.55	2279.68
403.74	2249.25
403.93	2272.66
404.13	2403.73
404.32	2370.96
404.51	2335.85
404.70	2431.82
404.89	2286.70
405.09	2429.48
405.28	2473.95
405.47	2485.65
405.66	2495.01
405.85	2560.55
406.05	2537.14
406.24	2518.42
406.43	2548.84
406.62	2637.78
406.81	2686.94
407.00	2708.00
407.20	2644.81
407.39	2686.94
407.58	2675.23
407.77	2722.04
407.96	2764.17
408.15	2853.11
408.34	2752.47
408.54	2761.83
408.73	2794.60
408.92	2726.72
409.11	2899.92
409.30	2860.13
409.49	2825.03
409.68	2937.37
409.87	2935.03
410.07	2979.50
410.26	3108.23
410.45	2930.35
410.64	3021.63
410.83	3136.32
411.02	3173.77
411.21	3178.45
411.40	3265.05
411.59	3243.98
411.78	3297.81
411.98	3248.66
412.17	3330.58
412.36	3239.30
412.55	3440.59
412.74	3396.12
412.93	3393.78
413.12	3353.99
413.31	3492.08
413.50	3499.10
413.69	3541.23
413.88	3564.64
414.07	3630.17
414.26	3726.13
414.45	3709.75
414.64	3709.75
414.83	3723.79
415.02	3794.01
415.22	3777.62
415.41	3838.48
415.60	3906.35
415.79	3885.29
415.98	4016.36
416.17	3997.64
416.36	4095.94
416.55	4039.76
416.74	4060.83
416.93	4149.77
417.12	4100.62
417.31	4154.45
417.50	4086.58
417.69	4259.78
417.88	4369.78
418.07	4339.35
418.26	4351.06
418.45	4430.63
418.64	4489.15
418.83	4400.21
419.02	4358.08
419.21	4498.51
419.39	4411.91
419.58	4301.90
419.77	4470.42
419.96	4510.21
420.15	4575.75
420.34	4503.19
420.53	4573.41
420.72	4718.52
420.91	4777.03
421.10	4685.75
421.29	4664.69
421.48	4634.26
421.67	4798.10
421.86	4753.63
422.05	4833.21
422.24	4896.40
422.43	4917.47
422.61	4856.61
422.80	5029.81
422.99	4898.74
423.18	5221.74
423.37	5083.64
423.56	5015.77
423.75	4901.08
423.94	5076.62
424.13	4674.05
424.32	4788.74
424.50	5015.77
424.69	5109.39
424.88	5081.30
425.07	4901.08
425.26	5050.88
425.45	4975.98
425.64	5109.39
425.83	5078.96
426.01	5160.88
426.20	5046.20
426.39	5078.96
426.58	5114.07
426.77	5109.39
426.96	5231.10
427.15	5078.96
427.33	5107.05
427.52	5146.84
427.71	5277.91
427.90	5188.97
428.09	5408.98
428.28	5446.43
428.46	5289.61
428.65	5352.81
428.84	5509.62
429.03	5542.39
429.22	5369.19
429.40	5533.03
429.59	5399.62
429.78	5275.57
429.97	5343.44
430.16	5568.13
430.34	5472.17
430.53	5579.84
430.72	5790.49
430.91	5678.14
431.10	5654.73
431.28	5858.36
431.47	5774.10
431.66	6094.76
431.85	5790.49
432.03	5907.51
432.22	6181.35
432.41	6022.20
432.60	6003.47
432.79	5977.73
432.97	6001.13
433.16	6047.94
433.35	6033.90
433.54	6087.73
433.72	6223.48
433.91	6024.54
434.10	6139.23
434.28	6097.10
434.47	6228.17
434.66	6209.44
434.85	6263.27
435.03	6193.06
435.22	6380.30
435.41	6565.20
435.59	6338.17
435.78	6387.32
435.97	6450.52
436.16	6375.62
436.34	6532.44
436.53	6438.81
436.72	6787.55
436.90	6459.88
437.09	6619.04
437.28	6586.27
437.46	6530.09
437.65	6789.89
437.84	6736.06
438.02	6841.39
438.21	6813.30
438.40	6810.96
438.58	7016.93
438.77	7155.02
438.96	7089.48
439.14	7089.48
439.33	7187.79
439.52	7346.94
439.70	7398.43
439.89	7279.07
440.08	7372.69
440.26	7461.63
440.45	7499.08
440.63	7658.23
440.82	7452.27
441.01	7679.30
441.19	7559.93
441.38	7740.15
441.57	7866.54
441.75	7737.81
441.94	7871.22
442.12	8009.31
442.31	8023.36
442.50	8095.91
442.68	8098.25
442.87	8042.08
443.05	8339.33
443.24	8205.92
443.43	8039.74
443.61	8205.92
443.80	8751.26
443.98	8135.70
444.17	7892.29
444.35	8173.15
444.54	8369.76
444.73	8306.56
444.91	8482.10
445.10	8308.90
445.28	8077.19
445.47	8290.18
445.65	8290.18
445.84	8540.61
446.02	8463.38
446.21	8486.78
446.39	8454.02
446.58	8500.83
446.77	8652.96
446.95	8407.20
447.14	8535.93
447.32	8713.81
447.51	8507.85
447.69	8659.98
447.88	8603.81
448.06	8561.68
448.25	8599.13
448.43	8706.79
448.62	8442.31
448.80	8489.12
448.99	8812.12
449.17	8739.56
449.36	8648.28
449.54	8798.07
449.73	9022.77
449.91	8915.10
450.10	8990.00
450.28	9043.83
450.46	9142.13
450.65	8922.12
450.83	9163.20
451.02	9130.43
451.20	9240.44
451.39	9193.62
451.57	9338.74
451.76	9294.27
451.94	9371.50
452.13	9217.03
452.31	9572.79
452.49	9188.94
452.68	9343.42
452.86	9493.21
453.05	9362.14
453.23	9589.17
453.42	9500.23
453.60	9217.03
453.78	9687.48
453.97	9408.95
454.15	9561.09
454.34	9621.94
454.52	9643.01
454.70	9755.35
454.89	9806.84
455.07	9856.00
455.26	9961.32
455.44	9966.00
455.62	9982.38
455.81	10036.22
455.99	10026.86
456.17	10207.08
456.36	10064.30
456.54	10359.21
456.73	10260.91
456.91	10609.65
457.09	10523.05
457.28	10693.91
457.46	10455.17
457.64	10714.97
457.83	10434.11
458.01	10408.36
458.19	10874.13
458.38	10677.52
458.56	10787.53
458.74	10616.67
458.93	10759.44
459.11	10792.21
459.29	10752.42
459.48	10949.03
459.66	11084.78
459.84	10930.30
460.03	11091.80
460.21	11143.29
460.39	11122.23
460.57	11176.06
460.76	11162.01
460.94	11236.91
461.12	11052.01
461.31	11147.97
461.49	11199.46
461.67	11330.53
461.85	11358.62
462.04	11414.79
462.22	11803.32
462.40	11716.72
462.59	11510.75
462.77	11536.50
462.95	11808.00
463.13	11763.53
463.32	11653.53
463.50	11885.24
463.68	11892.26
463.86	11943.75
464.05	11854.81
464.23	11906.31
464.41	12175.47
464.59	11597.35
464.78	11950.78
464.96	11990.56
465.14	12035.03
465.32	12035.03
465.50	12009.29
465.69	12290.15
465.87	12346.33
466.05	12222.28
466.23	12123.98
466.41	12140.36
466.60	12512.50
466.78	12226.96
466.96	12294.83
467.14	12355.69
467.32	12507.82
467.51	12514.84
467.69	12322.92
467.87	12435.27
468.05	12608.47
468.23	12594.42
468.41	12559.31
468.60	12840.18
468.78	12791.03
468.96	12692.73
469.14	13022.74
469.32	13004.02
469.50	12638.89
469.69	12968.91
469.87	13142.11
470.05	13076.57
470.23	13310.63
470.41	13142.11
470.59	13544.68
470.77	13418.29
470.95	13261.48
471.14	13806.82
471.32	13446.38
471.50	13734.26
471.68	13853.63
471.86	13628.94
472.04	13626.60
472.22	14050.24
472.40	13635.96
472.58	13956.61
472.77	13973.00
472.95	14057.26
473.13	14623.67
473.31	14218.75
473.49	14307.69
473.67	14225.78
473.85	14553.45
474.03	14693.88
474.21	14696.22
474.39	14871.76
474.57	14558.13
474.75	14993.47
474.93	14965.39
475.12	15070.71
475.30	15007.52
475.48	15190.08
475.66	15346.89
475.84	15105.82
476.02	15520.09
476.20	15604.35
476.38	15929.69
476.56	15934.37
476.74	16177.78
476.92	16233.96
477.10	16100.55
477.28	16163.74
477.46	15969.48
477.64	16308.85
477.82	16533.54
478.00	16791.00
478.18	17252.09
478.36	17046.12
478.54	17390.18
478.72	17011.01
478.90	17479.12
479.08	17603.17
479.26	17537.63
479.44	17839.56
479.62	18054.89
479.80	18345.12
479.98	18125.11
480.16	18728.97
480.34	18487.89
480.52	18562.79
480.70	18888.12
480.88	18525.34
481.06	19089.41
481.24	19096.43
481.41	19407.72
481.59	19190.05
481.77	19494.32
481.95	19515.39
482.13	19775.19
482.31	19545.81
482.49	20460.96
482.67	20273.72
482.85	20439.90
483.03	20809.70
483.21	20774.60
483.39	21088.23
483.57	21090.57
483.74	21254.40
483.92	21266.11
484.10	21366.75
484.28	22094.66
484.46	22155.51
484.64	22239.77
484.82	21947.20
485.00	22555.74
485.18	22707.88
485.35	23063.64
485.53	23042.57
485.71	23283.65
485.89	23623.03
486.07	23342.16
486.25	23391.31
486.43	23690.90
486.61	23976.45
486.78	24393.06
486.96	24353.27
487.14	24741.80
487.32	24854.15
487.50	25230.98
487.68	25172.46
487.85	25593.76
488.03	25759.94
488.21	25722.49
488.39	25893.35
488.57	26316.98
488.75	26354.43
488.92	26590.83
489.10	26738.28
489.28	27297.67
489.46	27199.37
489.64	27075.32
489.81	27754.07
489.99	28027.92
490.17	28009.19
490.35	28084.09
490.53	28041.96
490.70	28692.63
490.88	28374.31
491.06	28861.15
491.24	29235.63
491.41	29256.70
491.59	29362.02
491.77	29883.96
491.95	29766.93
492.13	30033.75
492.30	30691.44
492.48	30295.89
492.66	30143.76
492.84	30628.25
493.01	30813.15
493.19	31089.34
493.37	31248.49
493.54	31435.74
493.72	31915.54
493.90	31758.73
494.08	32044.27
494.25	32556.85
494.43	32191.73
494.61	32311.10
494.79	32795.59
494.96	33123.26
495.14	32917.29
495.32	33439.23
495.49	33598.39
495.67	33624.14
495.85	33844.15
496.02	33713.08
496.20	34195.23
496.38	34677.38
496.55	34403.53
496.73	34866.96
496.91	34951.22
497.09	35182.93
497.26	35278.89
497.44	35145.48
497.62	35849.99
497.79	36041.91
497.97	35519.97
498.14	36484.27
498.32	36367.24
498.50	36503.00
498.67	36999.19
498.85	36334.48
499.03	36952.38
499.20	37209.84
499.38	37392.40
499.56	37493.04
499.73	37436.87
499.91	37600.71
500.08	37979.87
500.26	37881.57
500.44	37975.19
500.61	38408.19
500.79	38260.74
500.97	38597.77
501.14	39225.04
501.32	38780.34
501.49	38990.98
501.67	39019.07
501.84	39398.24
502.02	39400.58
502.20	39196.95
502.37	39573.78
502.55	39601.86
502.72	39824.22
502.90	40432.75
503.07	39798.47
503.25	40079.33
503.43	39981.03
503.60	40521.69
503.78	40421.05
503.95	40718.30
504.13	40545.10
504.30	40879.80
504.48	40758.09
504.65	40971.08
504.83	41436.84
505.01	41853.46
505.18	41647.49
505.36	41638.13
505.53	41528.13
505.71	41977.51
505.88	42239.65
506.06	41958.78
506.23	42494.77
506.41	41935.38
506.58	42593.07
506.76	42756.91
506.93	42660.94
507.11	42576.69
507.28	42892.66
507.46	43143.09
507.63	43194.59
507.81	43405.23
507.98	43526.94
508.16	43779.72
508.33	43622.90
508.50	43529.28
508.68	43768.02
508.85	44486.56
509.03	43981.01
509.20	44512.31
509.38	44842.32
509.55	45059.99
509.73	44612.95
509.90	44849.35
510.08	44844.66
510.25	45375.97
510.42	44802.53
510.60	45401.71
510.77	45532.78
510.95	45500.01
511.12	45780.88
511.30	45364.26
511.47	45734.07
511.64	45879.18
511.82	46394.10
511.99	45717.68
512.17	46340.27
512.34	46197.49
512.51	47318.61
512.69	46850.50
512.86	46361.33
513.04	47133.71
513.21	46773.27
513.38	47098.60
513.56	47505.85
513.73	47400.53
513.90	47187.54
514.08	47737.57
514.25	47714.16
514.43	47742.25
514.60	48158.86
514.77	47887.36
514.95	47831.19
515.12	47686.07
515.29	47915.45
515.47	48240.78
515.64	48456.11
515.81	48231.42
515.99	48418.66
516.16	48961.67
516.33	48825.92
516.51	49017.84
516.68	48772.08
516.85	48982.73
517.03	48697.19
517.20	49155.93
517.37	49216.78
517.54	48928.90
517.72	49361.90
517.89	49336.15
518.06	49230.83
518.24	49528.08
518.41	49413.39
518.58	49918.95
518.75	49769.15
518.93	49949.37
519.10	49874.48
519.27	50138.96
519.45	50284.07
519.62	50305.13
519.79	50157.68
519.96	50244.28
520.14	50696.00
520.31	50497.06
520.48	50677.28
520.65	50389.39
520.83	50789.62
521.00	50990.91
521.17	50803.67
521.34	51253.05
521.52	51187.52
521.69	51047.08
521.86	51290.50
522.03	51215.60
522.20	51585.41
522.38	51910.74
522.55	51578.39
522.72	51578.39
522.89	51756.27
523.07	51786.69
523.24	51782.01
523.41	52224.37
523.58	51456.68
523.75	52079.26
523.92	52165.86
524.10	52271.18
524.27	52083.94
524.44	52083.94
524.61	52437.36
524.78	52074.58
524.96	52610.56
525.13	52713.55
525.30	52655.03
525.47	52638.65
525.64	52587.16
525.81	52903.13
525.98	53034.20
526.16	52896.11
526.33	52832.91
526.50	53432.09
526.67	53017.82
526.84	53097.39
527.01	53062.29
527.18	53329.11
527.36	53221.44
527.53	53265.91
527.70	53750.40
527.87	53581.88
528.04	53361.87
528.21	53614.65
528.38	53572.52
528.55	53879.13
528.72	53586.57
528.89	53965.73
529.07	53504.65
529.24	53724.66
529.41	54028.93
529.58	54073.40
529.75	53982.12
529.92	53902.54
530.09	54251.28
530.26	54061.69
530.43	54333.20
530.60	54136.59
530.77	54082.76
530.94	54749.81
531.11	54171.70
531.28	54300.43
531.46	54265.32
531.63	54438.52
531.80	54621.08
531.97	54749.81
532.14	54684.28
532.31	54607.04
532.48	55061.10
532.65	54805.98
532.82	54901.95
532.99	54965.14
533.16	54878.54
533.33	55042.38
533.50	55365.37
533.67	55100.89
533.84	54836.41
534.01	55128.98
534.18	55182.81
534.35	55585.38
534.52	55393.46
534.69	55496.44
534.86	55531.55
535.03	55133.66
535.20	55327.92
535.37	55533.89
535.54	55510.49
535.71	55480.06
535.88	55458.99
536.05	55686.03
536.22	55760.92
536.38	55819.44
536.55	55854.54
536.72	55899.01
536.89	55681.34
537.06	55889.65
537.23	55992.64
537.40	55966.89
537.57	55877.95
537.74	55971.57
537.91	56109.66
538.08	56076.90
538.25	56004.34
538.42	56020.72
538.59	56374.14
538.75	56404.57
538.92	56154.13
539.09	56537.98
539.26	56402.23
539.43	56437.34
539.60	56442.02
539.77	56390.53
539.94	56652.67
540.11	56259.46
540.28	56619.90
540.44	56692.46
540.61	56587.13
540.78	56671.39
540.95	56350.74
541.12	56552.02
541.29	56626.92
541.46	56825.87
541.62	56772.03
541.79	57116.09
541.96	56427.98
542.13	56903.10
542.30	56839.91
542.47	56884.38
542.63	57160.56
542.80	57221.42
542.97	57242.48
543.14	57523.35
543.31	57209.71
543.48	57483.56
543.64	57705.91
543.81	57666.12
543.98	57282.27
544.15	57509.30
544.32	57558.45
544.48	57733.99
544.65	57565.48
544.82	57518.67
544.99	57460.15
545.16	57677.82
545.32	57502.28
545.49	58078.05
545.66	58099.12
545.83	57893.15
546.00	58024.22
546.16	57804.21
546.33	57762.08
546.50	57745.70
546.67	58061.67
546.83	57708.25
547.00	58028.90
547.17	57932.94
547.34	57977.41
547.50	58234.87
547.67	58513.39
547.84	58010.18
548.00	58206.78
548.17	58557.86
548.34	58408.07
548.51	58492.33
548.67	58485.31
548.84	58377.64
549.01	58260.62
549.18	58368.28
549.34	58504.03
549.51	58585.95
549.68	58651.48
549.84	58599.99
550.01	58726.38
550.18	58440.84
550.34	58747.45
550.51	58742.77
550.68	58466.58
550.84	58305.09
551.01	58817.66
551.18	58726.38
551.34	58789.58
551.51	58848.09
551.68	58766.17
551.84	58815.32
552.01	58918.31
552.18	58702.98
552.34	58754.47
552.51	58908.94
552.68	58862.13
552.84	58880.86
553.01	59025.97
553.18	59058.74
553.34	59089.16
553.51	58941.71
553.67	58983.84
553.84	59185.13
554.01	59143.00
554.17	59030.65
554.34	59124.27
554.51	59180.45
554.67	59330.24
554.84	59257.68
555.00	59194.49
555.17	59000.22
555.33	59126.61
555.50	59325.56
555.67	59318.54
555.83	59157.04
556.00	59468.33
556.16	59636.85
556.33	59419.18
556.50	59409.82
556.66	59725.79
556.83	59393.43
556.99	59622.81
557.16	59515.14
557.32	59709.41
557.49	59863.88
557.65	59470.67
557.82	59561.95
557.98	59554.93
558.15	59636.85
558.32	59650.89
558.48	59578.34
558.65	59625.15
558.81	59894.31
558.98	59746.86
559.14	59959.84
559.31	59678.98
559.47	60027.72
559.64	60018.36
559.80	59934.10
559.97	59868.56
560.13	59854.52
560.30	59994.95
560.46	59927.08
560.63	59742.17
560.79	60001.97
560.96	60374.12
561.12	60135.38
561.29	59924.74
561.45	59873.24
561.61	59922.40
561.78	60081.55
561.94	60203.26
562.11	60086.23
562.27	60088.57
562.44	60027.72
562.60	60097.94
562.77	60100.28
562.93	60027.72
563.10	60250.07
563.26	60207.94
563.42	60280.50
563.59	60243.05
563.75	60261.77
563.92	60259.43
564.08	60130.70
564.24	60381.14
564.41	60226.66
564.57	60364.76
564.74	60177.51
564.90	60374.12
565.07	60261.77
565.23	60367.10
565.39	60221.98
565.56	60451.36
565.72	60390.50
565.88	60374.12
566.05	60229.01
566.21	60294.54
566.38	60542.64
566.54	60484.12
566.70	60500.51
566.87	60732.22
567.03	60507.53
567.19	60671.37
567.36	60273.48
567.52	60477.10
567.68	60479.44
567.85	60563.70
568.01	60591.79
568.17	60416.25
568.34	60762.65
568.50	60374.12
568.66	60383.48
568.83	60514.55
568.99	60575.40
569.15	60570.72
569.32	60701.79
569.48	60514.55
569.64	60753.29
569.81	60591.79
569.97	60783.71
570.13	60631.58
570.30	60708.82
570.46	60755.63
570.62	60736.90
570.78	60596.47
570.95	60722.86
571.11	60863.29
571.27	60624.56
571.43	60652.64
571.60	60849.25
571.76	60725.20
571.92	60837.54
572.09	60732.22
572.25	60842.23
572.41	60917.12
572.57	60781.37
572.74	61036.49
572.90	60711.16
573.06	60896.06
573.22	60645.62
573.38	60851.59
573.55	60690.09
573.71	61038.83
573.87	60821.16
574.03	60772.01
574.20	60919.46
574.36	60928.83
574.52	60804.78
574.68	60999.04
574.84	60839.89
575.01	61024.79
575.17	60884.36
575.33	60961.59
575.49	61109.05
575.65	60874.99
575.82	60928.83
575.98	60729.88
576.14	61155.86
576.30	60994.36
576.46	60779.03
576.62	60970.96
576.79	60989.68
576.95	60825.84
577.11	61106.71
577.27	60874.99
577.43	61020.11
577.59	60921.80
577.75	60863.29
577.92	60982.66
578.08	60884.36
578.24	60910.10
578.40	61125.43
578.56	61118.41
578.72	61020.11
578.88	61205.01
579.04	61223.73
579.21	61076.28
579.37	61120.75
579.53	61202.67
579.69	61095.00
579.85	60980.32
580.01	61024.79
580.17	60853.93
580.33	61183.94
580.49	61160.54
580.65	60931.17
580.82	61062.24
580.98	60914.78
581.14	60720.52
581.30	61237.78
581.46	61137.13
581.62	61099.68
581.78	61109.05
581.94	61410.98
582.10	61045.85
582.26	61029.47
582.42	60907.76
582.58	61006.06
582.74	61099.68
582.90	61027.13
583.06	60975.64
583.22	60996.70
583.38	61209.69
583.54	61087.98
583.70	61116.07
583.86	61305.65
584.02	61066.92
584.18	61083.30
584.34	61179.26
584.50	61312.67
584.66	61050.53
584.82	61139.47
584.98	61226.07
585.14	61148.84
585.30	61085.64
585.46	61242.46
585.62	61249.48
585.78	61478.85
585.94	61076.28
586.10	61188.63
586.26	61324.38
586.42	61394.59
586.58	61293.95
586.74	61209.69
586.90	61310.33
587.06	61235.44
587.22	61319.70
587.38	61289.27
587.54	61298.63
587.70	61244.80
587.86	61200.33
588.02	61326.72
588.18	61359.48
588.34	61495.24
588.49	61324.38
