SpectraSuite Data File
++++++++++++++++++++++++++++++++++++
Date: Fri Oct 25 10:48:12 EDT 2013
User: price-jones
Dark Spectrum Present: No
Reference Spectrum Present: No
Number of Sampled Component Spectra: 1
Spectrometers: USB2+H05261
Integration Time (usec): 100000 (USB2+H05261)
Spectra Averaged: 1 (USB2+H05261)
Boxcar Smoothing: 0 (USB2+H05261)
Correct for Electrical Dark: No (USB2+H05261)
Strobe/Lamp Enabled: No (USB2+H05261)
Correct for Detector Non-linearity: No (USB2+H05261)
Correct for Stray Light: No (USB2+H05261)
Number of Pixels in Processed Spectrum: 2048
>>>>>Begin Processed Spectral Data<<<<<
365.73	170.86
365.92	170.86
366.12	170.86
366.32	98.30
366.52	74.90
366.72	77.24
366.91	53.83
367.11	70.22
367.31	0.00
367.51	32.77
367.70	16.38
367.90	0.00
368.10	77.24
368.30	70.22
368.49	28.09
368.69	88.94
368.89	0.00
369.09	107.66
369.28	100.64
369.48	100.64
369.68	98.30
369.87	133.41
370.07	95.96
370.27	163.84
370.47	194.26
370.66	348.74
370.86	411.93
371.06	390.87
371.25	447.04
371.45	461.09
371.65	416.62
371.84	437.68
372.04	507.90
372.24	496.19
372.44	585.13
372.63	561.73
372.83	521.94
373.03	585.13
373.22	472.79
373.42	540.66
373.62	543.00
373.81	533.64
374.01	585.13
374.21	624.92
374.40	580.45
374.60	573.43
374.79	547.69
374.99	578.11
375.19	599.18
375.38	599.18
375.58	557.05
375.78	550.03
375.97	601.52
376.17	610.88
376.37	594.50
376.56	582.79
376.76	575.77
376.95	636.63
377.15	561.73
377.35	592.16
377.54	645.99
377.74	657.69
377.93	631.94
378.13	702.16
378.33	634.29
378.52	620.24
378.72	688.12
378.91	608.54
379.11	606.20
379.31	606.20
379.50	627.26
379.70	627.26
379.89	606.20
380.09	571.09
380.28	587.47
380.48	664.71
380.68	669.39
380.87	657.69
381.07	699.82
381.26	613.22
381.46	578.11
381.65	678.76
381.85	727.91
382.04	629.60
382.24	727.91
382.43	641.31
382.63	669.39
382.83	603.86
383.02	692.80
383.22	709.18
383.41	676.41
383.61	657.69
383.80	758.33
384.00	760.67
384.19	774.72
384.39	711.52
384.58	812.17
384.78	767.70
384.97	772.38
385.17	744.29
385.36	688.12
385.56	711.52
385.75	727.91
385.95	746.63
386.14	851.96
386.34	753.65
386.53	730.25
386.72	706.84
386.92	837.91
387.11	723.23
387.31	891.74
387.50	870.68
387.70	819.19
387.89	786.42
388.09	758.33
388.28	861.32
388.48	823.87
388.67	915.15
388.86	873.02
389.06	809.83
389.25	894.08
389.45	877.70
389.64	880.04
389.84	931.53
390.03	891.74
390.22	947.92
390.42	1015.79
390.61	882.38
390.81	896.43
391.00	868.34
391.19	945.58
391.39	999.41
391.58	976.00
391.78	966.64
391.97	1020.47
392.16	971.32
392.36	1060.26
392.55	1076.65
392.75	880.04
392.94	1011.11
393.13	954.94
393.33	959.62
393.52	1013.45
393.71	1053.24
393.91	976.00
394.10	1032.18
394.29	1043.88
394.49	1057.92
394.68	1015.79
394.88	1078.99
395.07	1088.35
395.26	1107.07
395.46	1107.07
395.65	1160.91
395.84	1132.82
396.04	1142.18
396.23	1163.25
396.42	1224.10
396.62	1139.84
396.81	1247.51
397.00	1207.72
397.19	1055.58
397.39	1104.73
397.58	1287.29
397.77	1273.25
397.97	1329.42
398.16	1329.42
398.35	1317.72
398.55	1191.33
398.74	1320.06
398.93	1334.11
399.12	1322.40
399.32	1411.34
399.51	1329.42
399.70	1409.00
399.90	1411.34
400.09	1420.71
400.28	1502.62
400.47	1458.15
400.67	1490.92
400.86	1488.58
401.05	1437.09
401.24	1607.95
401.44	1444.11
401.63	1540.07
401.82	1624.33
402.01	1434.75
402.21	1582.20
402.40	1493.26
402.59	1530.71
402.78	1591.56
402.97	1596.25
403.17	1521.35
403.36	1605.61
403.55	1633.69
403.74	1650.08
403.93	1591.56
404.13	1636.03
404.32	1572.84
404.51	1556.46
404.70	1736.68
404.89	1621.99
405.09	1806.89
405.28	1678.16
405.47	1715.61
405.66	1753.06
405.85	1823.28
406.05	1785.83
406.24	1746.04
406.43	1811.57
406.62	1837.32
406.81	1954.35
407.00	1895.83
407.20	1781.15
407.39	1818.60
407.58	1813.92
407.77	1867.75
407.96	1961.37
408.15	2031.58
408.34	1973.07
408.54	1975.41
408.73	1989.46
408.92	1980.09
409.11	2076.06
409.30	1977.75
409.49	2059.67
409.68	2059.67
409.87	2010.52
410.07	1987.11
410.26	2267.98
410.45	2211.81
410.64	2090.10
410.83	2312.45
411.02	2312.45
411.21	2387.35
411.40	2223.51
411.59	2165.00
411.78	2368.62
411.98	2317.13
412.17	2296.07
412.36	2377.98
412.55	2469.27
412.74	2532.46
412.93	2509.05
413.12	2502.03
413.31	2602.68
413.50	2459.90
413.69	2544.16
413.88	2623.74
414.07	2555.86
414.26	2548.84
414.45	2656.51
414.64	2778.22
414.83	2689.28
415.02	2726.72
415.22	2780.56
415.41	2717.36
415.60	2892.90
415.79	2949.08
415.98	3005.25
416.17	2953.76
416.36	2925.67
416.55	2843.75
416.74	2810.98
416.93	2796.94
417.12	2869.50
417.31	2979.50
417.50	2977.16
417.69	3112.91
417.88	2991.20
418.07	2995.89
418.26	3073.12
418.45	2998.23
418.64	3169.09
418.83	3218.24
419.02	3087.17
419.21	3232.28
419.39	3089.51
419.58	3192.49
419.77	3098.87
419.96	3213.56
420.15	3316.54
420.34	3251.00
420.53	3323.56
420.72	3463.99
420.91	3375.05
421.10	3419.52
421.29	3475.70
421.48	3410.16
421.67	3557.61
421.86	3520.17
422.05	3463.99
422.24	3375.05
422.43	3393.78
422.61	3543.57
422.80	3538.89
422.99	3566.98
423.18	3501.44
423.37	3639.53
423.56	3529.53
423.75	3513.14
423.94	3471.01
424.13	3276.75
424.32	3463.99
424.50	3684.00
424.69	3503.78
424.88	3520.17
425.07	3576.34
425.26	3428.88
425.45	3440.59
425.64	3702.73
425.83	3609.11
426.01	3660.60
426.20	3637.19
426.39	3562.30
426.58	3693.37
426.77	3513.14
426.96	3648.90
427.15	3679.32
427.33	3686.34
427.52	3777.62
427.71	3721.45
427.90	3735.50
428.09	3777.62
428.28	3740.18
428.46	3691.02
428.65	3684.00
428.84	3829.12
429.03	3950.82
429.22	3756.56
429.40	3866.56
429.59	3646.55
429.78	3733.15
429.97	3602.08
430.16	3571.66
430.34	3861.88
430.53	3777.62
430.72	4030.40
430.91	4030.40
431.10	4077.21
431.28	4168.49
431.47	4138.07
431.66	4046.79
431.85	4166.15
432.03	4264.46
432.22	4407.23
432.41	4173.18
432.60	4278.50
432.79	4114.66
432.97	4212.96
433.16	4201.26
433.35	4131.05
433.54	4484.47
433.72	4271.48
433.91	4327.65
434.10	4348.72
434.28	4334.67
434.47	4454.04
434.66	4369.78
434.85	4250.41
435.03	4444.68
435.22	4484.47
435.41	4585.11
435.59	4512.55
435.78	4463.40
435.97	4575.75
436.16	4561.70
436.34	4493.83
436.53	4517.23
436.72	4758.31
436.90	4615.54
437.09	4638.94
437.28	4578.09
437.46	4688.09
437.65	4524.26
437.84	4851.93
438.02	4748.95
438.21	4727.88
438.40	4627.24
438.58	4954.91
438.77	4835.55
438.96	4898.74
439.14	5146.84
439.33	5029.81
439.52	5048.54
439.70	5048.54
439.89	5046.20
440.08	5149.18
440.26	5252.16
440.45	5135.14
440.63	5179.61
440.82	5451.11
441.01	5245.14
441.19	5488.56
441.38	5303.65
441.57	5423.02
441.75	5668.78
441.94	5446.43
442.12	5678.14
442.31	5750.70
442.50	5888.79
442.68	5577.50
442.87	5710.91
443.05	5788.14
443.24	5781.12
443.43	5720.27
443.61	5640.69
443.80	5984.75
443.98	5675.80
444.17	5783.46
444.35	5795.17
444.54	6022.20
444.73	5783.46
444.91	5846.66
445.10	5750.70
445.28	5781.12
445.47	5799.85
445.65	5804.53
445.84	5881.77
446.02	5722.61
446.21	5774.10
446.39	5949.64
446.58	5944.96
446.77	6005.81
446.95	5977.73
447.14	6033.90
447.32	5937.94
447.51	6169.65
447.69	5970.71
447.88	5928.58
448.06	6064.33
448.25	6008.16
448.43	6024.54
448.62	5975.39
448.80	5966.03
448.99	5975.39
449.17	6090.07
449.36	6078.37
449.54	6307.74
449.73	6448.18
449.91	6293.70
450.10	6392.00
450.28	6431.79
450.46	6394.34
450.65	6424.77
450.83	6534.78
451.02	6527.75
451.20	6487.96
451.39	6450.52
451.57	6504.35
451.76	6509.03
451.94	6537.12
452.13	6607.33
452.31	6623.72
452.49	6471.58
452.68	6593.29
452.86	6384.98
453.05	6497.33
453.23	6654.14
453.42	6534.78
453.60	6684.57
453.78	6827.34
453.97	6406.05
454.15	6509.03
454.34	6691.59
454.52	6834.36
454.70	6867.13
454.89	6679.89
455.07	6888.20
455.26	6768.83
455.44	7091.82
455.62	6956.07
455.81	6899.90
455.99	6986.50
456.17	6888.20
456.36	6918.62
456.54	7035.65
456.73	7070.76
456.91	7377.37
457.09	7454.61
457.28	7524.82
457.46	7288.43
457.64	7339.92
457.83	7183.10
458.01	7335.24
458.19	7372.69
458.38	7344.60
458.56	7407.80
458.74	7440.56
458.93	7403.11
459.11	7318.86
459.29	7480.35
459.48	7583.34
459.66	7480.35
459.84	7602.06
460.03	7618.44
460.21	7674.62
460.39	7588.02
460.57	7611.42
460.76	7791.64
460.94	7698.02
461.12	7786.96
461.31	7871.22
461.49	7768.24
461.67	7878.24
461.85	7887.61
462.04	7761.22
462.22	8353.37
462.40	8182.51
462.59	8053.78
462.77	7660.57
462.95	8215.28
463.13	8203.58
463.32	7955.48
463.50	8102.93
463.68	8070.17
463.86	8086.55
464.05	7976.55
464.23	8093.57
464.41	8166.13
464.59	8002.29
464.78	8049.10
464.96	8098.25
465.14	8035.06
465.32	8203.58
465.50	8381.46
465.69	8313.58
465.87	8236.35
466.05	8269.11
466.23	8402.52
466.41	8360.39
466.60	8545.30
466.78	8320.60
466.96	8454.02
467.14	8606.15
467.32	8638.92
467.51	8557.00
467.69	8393.16
467.87	8613.17
468.05	8746.58
468.23	8631.90
468.41	8681.05
468.60	8699.77
468.78	8730.20
468.96	8638.92
469.14	8807.44
469.32	8901.06
469.50	8566.36
469.69	8952.55
469.87	8957.23
470.05	9125.75
470.23	9135.11
470.41	9118.73
470.59	9095.32
470.77	8884.67
470.95	8945.53
471.14	9296.61
471.32	9043.83
471.50	9121.07
471.68	9116.39
471.86	9448.74
472.04	9254.48
472.22	9554.07
472.40	9259.16
472.58	9350.44
472.77	9511.94
472.95	9460.45
473.13	9937.91
473.31	9680.46
473.49	9654.71
473.67	9570.45
473.85	9767.06
474.03	9879.40
474.21	9865.36
474.39	10139.20
474.57	10059.62
474.75	10111.11
474.93	10207.08
475.12	10092.39
475.30	10211.76
475.48	10176.65
475.66	10516.03
475.84	10380.28
476.02	10333.47
476.20	10448.15
476.38	10717.31
476.56	10752.42
476.74	10836.68
476.92	10651.78
477.10	10923.28
477.28	11129.25
477.46	11131.59
477.64	10878.81
477.82	11049.67
478.00	11382.03
478.18	11470.97
478.36	11681.61
478.54	11695.66
478.72	11726.08
478.90	11723.74
479.08	11730.76
479.26	11964.82
479.44	12126.32
479.62	12093.55
479.80	12170.79
479.98	12343.99
480.16	12589.74
480.34	12449.31
480.52	12482.08
480.70	12336.96
480.88	12383.77
481.06	12638.89
481.24	12564.00
481.41	13081.25
481.59	13006.36
481.77	13085.94
481.95	13249.77
482.13	13502.55
482.31	13331.69
482.49	13497.87
482.67	13427.65
482.85	13724.90
483.03	13736.60
483.21	13841.93
483.39	13973.00
483.57	14059.60
483.74	14127.47
483.92	14307.69
484.10	14260.88
484.28	14303.01
484.46	14567.49
484.64	14881.13
484.82	14721.97
485.00	14899.85
485.18	15077.73
485.35	15192.42
485.53	15063.69
485.71	15580.95
485.89	15503.71
486.07	15374.98
486.25	15342.21
486.43	15716.70
486.61	15969.48
486.78	16070.12
486.96	16086.50
487.14	16280.77
487.32	16238.64
487.50	16596.74
487.68	16585.04
487.85	16805.05
488.03	17123.36
488.21	17167.83
488.39	17057.82
488.57	17460.40
488.75	17193.58
488.92	17621.89
489.10	17418.27
489.28	17617.21
489.46	18410.65
489.64	18267.88
489.81	18370.86
489.99	18443.42
490.17	18635.35
490.35	18513.64
490.53	18576.83
490.70	18597.90
490.88	18808.54
491.06	19307.08
491.24	19192.39
491.41	19248.57
491.59	19475.60
491.77	19365.59
491.95	19042.60
492.13	19810.29
492.30	19854.76
492.48	20133.29
492.66	20037.33
492.84	20137.97
493.01	20386.07
493.19	20327.55
493.37	20339.26
493.54	20493.73
493.72	20716.08
493.90	20915.03
494.08	21043.76
494.25	21411.22
494.43	21273.13
494.61	21633.57
494.79	21376.11
494.96	21619.53
495.14	21525.91
495.32	21797.41
495.49	21823.16
495.67	21757.62
495.85	22047.85
496.02	22483.19
496.20	22511.27
496.38	22537.02
496.55	22520.63
496.73	23117.47
496.91	22635.32
497.09	23044.91
497.26	23105.77
497.44	23147.90
497.62	22963.00
497.79	23374.93
497.97	23183.01
498.14	23637.07
498.32	23985.81
498.50	23590.26
498.67	24180.07
498.85	23882.83
499.03	24224.54
499.20	24142.63
499.38	24350.93
499.56	24940.75
499.73	24180.07
499.91	24758.19
500.08	25064.80
500.26	24430.51
500.44	24650.52
500.61	24685.63
500.79	24765.21
500.97	25043.73
501.14	25020.33
501.32	25678.02
501.49	25149.06
501.67	25193.53
501.84	25326.94
502.02	25404.17
502.20	25972.92
502.37	25865.26
502.55	25626.53
502.72	25905.05
502.90	25926.11
503.07	25853.56
503.25	25996.33
503.43	26305.28
503.60	26253.79
503.78	26707.85
503.95	26141.44
504.13	26415.29
504.30	26553.38
504.48	26859.99
504.65	26801.47
504.83	26969.99
505.01	27140.85
505.18	27110.43
505.36	27208.73
505.53	27201.71
505.71	27337.46
505.88	27702.58
506.06	27276.60
506.23	27655.77
506.41	27482.57
506.58	27915.57
506.76	27639.39
506.93	27880.46
507.11	28048.98
507.28	27960.04
507.46	27740.03
507.63	27817.27
507.81	28397.72
507.98	28142.60
508.16	28245.58
508.33	28678.58
508.50	28215.16
508.68	29057.75
508.85	28884.55
509.03	29212.23
509.20	29057.75
509.38	29027.32
509.55	29486.07
509.73	29404.15
509.90	29151.37
510.08	29010.94
510.25	29219.25
510.42	29560.97
510.60	29708.42
510.77	29734.17
510.95	29872.26
511.12	29900.34
511.30	29841.83
511.47	29816.08
511.64	30373.13
511.82	30005.67
511.99	30000.99
512.17	30312.28
512.34	29853.53
512.51	30218.66
512.69	30536.97
512.86	30778.04
513.04	30782.73
513.21	30480.80
513.38	30586.12
513.56	30866.98
513.73	30810.81
513.90	30881.03
514.08	31150.19
514.25	31360.84
514.43	31243.81
514.60	30670.38
514.77	31267.22
514.95	31515.31
515.12	31215.72
515.29	31384.24
515.47	32135.56
515.64	32058.32
515.81	31861.71
515.99	31508.29
516.16	31777.45
516.33	31599.57
516.51	32294.71
516.68	31871.07
516.85	32058.32
517.03	32030.23
517.20	32381.31
517.37	32091.09
517.54	32587.28
517.72	32507.70
517.89	32301.73
518.06	32343.86
518.24	32060.66
518.41	32226.84
518.58	32636.43
518.75	32275.99
518.93	32673.88
519.10	33113.90
519.27	32772.18
519.45	32842.40
519.62	32964.10
519.79	33139.65
519.96	33294.12
520.14	33174.75
520.31	33233.27
520.48	33296.46
520.65	33149.01
520.83	33818.40
521.00	33907.34
521.17	33813.72
521.34	33862.87
521.52	33949.47
521.69	34532.26
521.86	34230.33
522.03	34438.64
522.20	34291.19
522.38	34380.13
522.55	34576.73
522.72	33935.43
522.89	34143.74
523.07	34991.01
523.24	34115.65
523.41	34841.21
523.58	34728.87
523.75	34864.62
523.92	35426.35
524.10	34586.10
524.27	35166.55
524.44	34976.97
524.61	35042.50
524.78	35056.54
524.96	35204.00
525.13	35257.83
525.30	35449.75
525.47	35606.57
525.64	35381.88
525.81	35725.94
525.98	35117.40
526.16	35030.80
526.33	35363.15
526.50	35482.52
526.67	35653.38
526.84	35407.62
527.01	35494.22
527.18	35716.58
527.36	35634.66
527.53	35739.98
527.70	36556.83
527.87	36208.09
528.04	36039.57
528.21	36364.90
528.38	36105.10
528.55	36575.55
528.72	36334.48
528.89	36547.47
529.07	36856.42
529.24	36332.14
529.41	36662.15
529.58	36725.35
529.75	36701.94
529.92	37050.68
530.09	36669.17
530.26	36877.48
530.43	37251.97
530.60	36676.19
530.77	37151.32
530.94	37326.86
531.11	37345.59
531.28	37247.29
531.46	37273.03
531.63	37371.33
531.80	37053.02
531.97	37535.17
532.14	37165.37
532.31	37132.60
532.48	37846.46
532.65	37886.25
532.82	37188.77
532.99	37809.01
533.16	37462.61
533.33	37937.74
533.50	38192.86
533.67	37970.51
533.84	37801.99
534.01	37921.36
534.18	37886.25
534.35	38005.62
534.52	37862.85
534.69	38094.56
534.86	38455.00
535.03	38288.82
535.20	38227.97
535.37	38763.95
535.54	38611.82
535.71	38506.49
535.88	38576.71
536.05	38719.48
536.22	38644.59
536.38	38649.27
536.55	38667.99
536.72	38567.35
536.89	38345.00
537.06	38974.60
537.23	39047.16
537.40	38857.57
537.57	38677.35
537.74	38822.47
537.91	39138.44
538.08	39070.56
538.25	38665.65
538.42	38857.57
538.59	39428.66
538.75	38983.96
538.92	39225.04
539.09	39323.34
539.26	39482.50
539.43	39480.16
539.60	39379.51
539.77	39428.66
539.94	39260.15
540.11	39241.42
540.28	39412.28
540.44	39166.52
540.61	39508.24
540.78	39522.29
540.95	39349.09
541.12	39372.49
541.29	39660.38
541.46	39597.18
541.62	39412.28
541.79	40041.88
541.96	39667.40
542.13	39770.38
542.30	40488.93
542.47	40264.24
542.63	40093.38
542.80	40334.45
542.97	40140.19
543.14	40802.56
543.31	40568.51
543.48	40605.95
543.64	41200.45
543.81	40652.76
543.98	41060.02
544.15	40584.89
544.32	41027.25
544.48	41226.20
544.65	41001.50
544.82	40832.99
544.99	40627.02
545.16	40933.63
545.32	40692.55
545.49	41556.21
545.66	41270.67
545.83	41163.00
546.00	41516.42
546.16	41177.04
546.33	41326.84
546.50	40615.32
546.67	41141.94
546.83	41071.72
547.00	40865.75
547.17	41188.75
547.34	41214.49
547.50	41542.17
547.67	41900.27
547.84	41689.62
548.00	41806.65
548.17	41434.50
548.34	41263.64
548.51	41951.76
548.67	42019.64
548.84	41956.44
549.01	41610.04
549.18	42019.64
549.34	42005.59
549.51	41785.58
549.68	42190.50
549.84	42026.66
550.01	42300.50
550.18	41790.27
550.34	42192.84
550.51	41872.18
550.68	42366.04
550.84	42176.45
551.01	41776.22
551.18	42548.60
551.34	42244.33
551.51	42239.65
551.68	41933.04
551.84	42520.51
552.01	42410.51
552.18	42485.40
552.34	42618.81
552.51	42745.20
552.68	42265.39
552.84	42506.47
553.01	42969.90
553.18	42108.58
553.34	42815.42
553.51	42073.47
553.67	42820.10
553.84	42433.91
554.01	43115.01
554.17	43175.86
554.34	43435.66
554.51	43117.35
554.67	43035.43
554.84	42892.66
555.00	42759.25
555.17	42878.61
555.33	42754.57
555.50	42934.79
555.67	43068.20
555.83	43065.86
556.00	42817.76
556.16	43550.35
556.33	43320.98
556.50	43154.80
556.66	43662.69
556.83	43105.65
556.99	43227.35
557.16	43086.92
557.32	43243.74
557.49	43232.04
557.65	43077.56
557.82	43154.80
557.98	43236.72
558.15	43583.12
558.32	43232.04
558.48	43229.69
558.65	43590.14
558.81	43098.62
558.98	43344.38
559.14	43440.34
559.31	43328.00
559.47	43332.68
559.64	43964.62
559.80	43971.64
559.97	43868.66
560.13	43723.55
560.30	43744.61
560.46	43538.65
560.63	43622.90
560.79	43632.27
560.96	43922.49
561.12	43819.51
561.29	43814.83
561.45	43646.31
561.61	43779.72
561.78	43618.22
561.94	43325.66
562.11	43751.63
562.27	43636.95
562.44	44006.75
562.60	44170.59
562.77	44168.25
562.93	43526.94
563.10	43990.37
563.26	43990.37
563.42	43831.21
563.59	43648.65
563.75	44268.89
563.92	43817.17
564.08	44505.29
564.24	44472.52
564.41	44411.67
564.57	43653.33
564.74	44004.41
564.90	43810.15
565.07	43915.47
565.23	44144.84
565.39	43833.55
565.56	44091.01
565.72	44109.74
565.88	43943.56
566.05	44329.75
566.21	44198.68
566.38	43955.26
566.54	44411.67
566.70	44275.91
566.87	44332.09
567.03	44233.78
567.19	44589.55
567.36	44027.82
567.52	44105.06
567.68	44563.80
567.85	43976.33
568.01	44058.24
568.17	44505.29
568.34	44231.44
568.50	44542.74
568.66	44212.72
568.83	44299.32
568.99	44023.14
569.15	44219.74
569.32	43973.98
569.48	44060.58
569.64	44460.82
569.81	44243.15
569.97	44554.44
570.13	44292.30
570.30	43917.81
570.46	44020.80
570.62	44119.10
570.78	43852.28
570.95	44491.24
571.11	44664.44
571.27	44329.75
571.43	44460.82
571.60	44748.70
571.76	44350.81
571.92	44612.95
572.09	44786.15
572.25	44795.51
572.41	44430.39
572.57	44421.03
572.74	45029.57
572.90	44491.24
573.06	44425.71
573.22	44638.70
573.38	44559.12
573.55	44643.38
573.71	44320.38
573.87	44612.95
574.03	44694.87
574.20	44961.69
574.36	44334.43
574.52	44589.55
574.68	44711.25
574.84	44765.09
575.01	44428.05
575.17	44563.80
575.33	44371.88
575.49	44540.39
575.65	44964.03
575.82	44652.74
575.98	44622.31
576.14	44816.58
576.30	44566.14
576.46	44383.58
576.62	44201.02
576.79	44238.47
576.95	44222.08
577.11	44325.07
577.27	44692.53
577.43	44811.90
577.59	44540.39
577.75	44304.00
577.92	44264.21
578.08	44556.78
578.24	44488.90
578.40	44355.49
578.56	44566.14
578.72	44348.47
578.88	44528.69
579.04	44458.48
579.21	44449.11
579.37	44240.81
579.53	44884.45
579.69	44554.44
579.85	44889.13
580.01	45006.16
580.17	45059.99
580.33	45174.68
580.49	45008.50
580.65	44634.02
580.82	44650.40
580.98	44580.18
581.14	44692.53
581.30	44409.32
581.46	44617.63
581.62	45006.16
581.78	44814.24
581.94	44975.73
582.10	44985.10
582.26	45074.04
582.42	44442.09
582.58	45148.93
582.74	44945.31
582.90	44636.36
583.06	44872.75
583.22	44842.32
583.38	44968.71
583.54	44762.75
583.70	44818.92
583.86	44765.09
584.02	44722.96
584.18	44781.47
584.34	44706.57
584.50	45013.18
584.66	44795.51
584.82	44547.42
584.98	45478.95
585.14	45174.68
585.30	44952.33
585.46	44823.60
585.62	44444.43
585.78	44708.91
585.94	44509.97
586.10	44753.38
586.26	44294.64
586.42	45132.55
586.58	45244.90
586.74	45352.56
586.90	44582.52
587.06	45167.66
587.22	44861.05
587.38	44830.62
587.54	44954.67
587.70	45425.12
587.86	44739.34
588.02	44608.27
588.18	45308.09
588.34	45069.36
588.49	44552.10
588.65	44332.09
588.81	44505.29
588.97	44414.01
589.13	44470.18
589.29	44584.86
589.45	44790.83
589.61	45106.80
589.77	45120.85
589.93	45265.96
590.08	45289.37
590.24	45319.79
