SpectraSuite Data File
++++++++++++++++++++++++++++++++++++
Date: Fri Oct 25 11:23:46 EDT 2013
User: price-jones
Dark Spectrum Present: No
Reference Spectrum Present: No
Number of Sampled Component Spectra: 1
Spectrometers: USB2+H05261
Integration Time (usec): 100000 (USB2+H05261)
Spectra Averaged: 1 (USB2+H05261)
Boxcar Smoothing: 0 (USB2+H05261)
Correct for Electrical Dark: No (USB2+H05261)
Strobe/Lamp Enabled: No (USB2+H05261)
Correct for Detector Non-linearity: No (USB2+H05261)
Correct for Stray Light: No (USB2+H05261)
Number of Pixels in Processed Spectrum: 2048
>>>>>Begin Processed Spectral Data<<<<<
365.73	229.37
365.92	229.37
366.12	229.37
366.32	168.52
366.52	112.35
366.72	135.75
366.91	156.82
367.11	126.39
367.31	86.60
367.51	102.98
367.70	95.96
367.90	135.75
368.10	152.13
368.30	135.75
368.49	140.43
368.69	229.37
368.89	110.01
369.09	180.22
369.28	173.20
369.48	154.48
369.68	126.39
369.87	166.18
370.07	203.63
370.27	201.29
370.47	299.59
370.66	615.56
370.86	603.86
371.06	617.90
371.25	690.46
371.45	641.31
371.65	702.16
371.84	655.35
372.04	674.07
372.24	709.18
372.44	739.61
372.63	786.42
372.83	830.89
373.03	826.21
373.22	746.63
373.42	763.01
373.62	767.70
373.81	819.19
374.01	784.08
374.21	786.42
374.40	751.31
374.60	891.74
374.79	819.19
374.99	784.08
375.19	725.57
375.38	894.08
375.58	866.00
375.78	858.98
375.97	873.02
376.17	884.72
376.37	835.57
376.56	894.08
376.76	896.43
376.95	884.72
377.15	868.34
377.35	746.63
377.54	849.61
377.74	826.21
377.93	901.11
378.13	837.91
378.33	915.15
378.52	898.77
378.72	936.21
378.91	924.51
379.11	922.17
379.31	940.90
379.50	940.90
379.70	1046.22
379.89	994.73
380.09	952.60
380.28	966.64
380.48	1008.77
380.68	1004.09
380.87	854.30
381.07	1032.18
381.26	1057.92
381.46	1004.09
381.65	1081.33
381.85	1041.54
382.04	1043.88
382.24	1121.12
382.43	1076.65
382.63	1043.88
382.83	1064.94
383.02	1088.35
383.22	1046.22
383.41	1001.75
383.61	1165.59
383.80	1118.78
384.00	1128.14
384.19	1123.46
384.39	1144.52
384.58	1184.31
384.78	1137.50
384.97	1081.33
385.17	1118.78
385.36	1135.16
385.56	1074.31
385.75	1088.35
385.95	1210.06
386.14	1238.14
386.34	1207.72
386.53	1205.38
386.72	1198.35
386.92	1329.42
387.11	1224.10
387.31	1177.29
387.50	1226.44
387.70	1268.57
387.89	1210.06
388.09	1270.91
388.28	1277.93
388.48	1224.10
388.67	1441.77
388.86	1291.98
389.06	1331.76
389.25	1385.60
389.45	1287.29
389.64	1327.08
389.84	1387.94
390.03	1306.02
390.22	1434.75
390.42	1352.83
390.61	1394.96
390.81	1376.24
391.00	1394.96
391.19	1441.77
391.39	1348.15
391.58	1430.07
391.78	1387.94
391.97	1406.66
392.16	1373.89
392.36	1409.00
392.55	1430.07
392.75	1537.73
392.94	1514.33
393.13	1521.35
393.33	1558.80
393.52	1549.43
393.71	1570.50
393.91	1610.29
394.10	1556.46
394.29	1572.84
394.49	1584.54
394.68	1636.03
394.88	1678.16
395.07	1633.69
395.26	1776.47
395.46	1633.69
395.65	1717.95
395.84	1696.89
396.04	1767.10
396.23	1673.48
396.42	1827.96
396.62	1774.13
396.81	1727.32
397.00	1799.87
397.19	1806.89
397.39	1764.76
397.58	1933.28
397.77	1767.10
397.97	1842.00
398.16	1844.34
398.35	1923.92
398.55	1865.41
398.74	1818.60
398.93	1905.20
399.12	1834.98
399.32	1870.09
399.51	2010.52
399.70	1982.43
399.90	2076.06
400.09	2078.40
400.28	2078.40
400.47	2005.84
400.67	2113.50
400.86	2141.59
401.05	2001.16
401.24	1940.30
401.44	2115.84
401.63	2076.06
401.82	2101.80
402.01	2150.95
402.21	2125.21
402.40	2260.96
402.59	2310.11
402.78	2251.60
402.97	2349.90
403.17	2312.45
403.36	2366.28
403.55	2232.87
403.74	2349.90
403.93	2331.17
404.13	2303.09
404.32	2377.98
404.51	2354.58
404.70	2319.47
404.89	2410.75
405.09	2464.58
405.28	2490.33
405.47	2373.30
405.66	2448.20
405.85	2588.63
406.05	2534.80
406.24	2511.39
406.43	2565.23
406.62	2654.17
406.81	2612.04
407.00	2609.70
407.20	2581.61
407.39	2565.23
407.58	2679.91
407.77	2696.30
407.96	2836.73
408.15	2710.34
408.34	2782.90
408.54	2754.81
408.73	2810.98
408.92	2827.37
409.11	2813.32
409.30	2876.52
409.49	2820.35
409.68	2862.48
409.87	2949.08
410.07	3042.70
410.26	3110.57
410.45	2951.42
410.64	3047.38
410.83	3122.27
411.02	2986.52
411.21	3241.64
411.40	3197.17
411.59	3131.64
411.78	3218.24
411.98	3258.03
412.17	3241.64
412.36	3332.92
412.55	3356.33
412.74	3440.59
412.93	3459.31
413.12	3358.67
413.31	3641.87
413.50	3655.92
413.69	3543.57
413.88	3494.42
414.07	3613.79
414.26	3674.64
414.45	3630.17
414.64	3709.75
414.83	3805.71
415.02	3644.21
415.22	3887.63
415.41	3871.25
415.60	3894.65
415.79	4007.00
415.98	3932.10
416.17	3901.67
416.36	3995.29
416.55	3915.72
416.74	4196.58
416.93	3962.53
417.12	4051.47
417.31	4205.94
417.50	4187.22
417.69	4334.67
417.88	4273.82
418.07	4348.72
418.26	4315.95
418.45	4355.74
418.64	4540.64
418.83	4318.29
419.02	4491.49
419.21	4503.19
419.39	4479.79
419.58	4496.17
419.77	4491.49
419.96	4482.13
420.15	4498.51
420.34	4589.79
420.53	4727.88
420.72	4716.18
420.91	4915.12
421.10	4760.65
421.29	4819.16
421.48	4751.29
421.67	4713.84
421.86	4922.15
422.05	4812.14
422.24	4870.65
422.43	4865.97
422.61	4968.96
422.80	4896.40
422.99	4922.15
423.18	4889.38
423.37	5029.81
423.56	5062.58
423.75	4887.04
423.94	4847.25
424.13	4760.65
424.32	4833.21
424.50	4894.06
424.69	5060.24
424.88	5064.92
425.07	4943.21
425.26	4936.19
425.45	5039.17
425.64	5088.32
425.83	5013.43
426.01	5048.54
426.20	5064.92
426.39	4973.64
426.58	4922.15
426.77	5032.15
426.96	5303.65
427.15	5158.54
427.33	5345.78
427.52	5214.71
427.71	5423.02
427.90	5144.50
428.09	5441.75
428.28	5247.48
428.46	5291.95
428.65	5502.60
428.84	5643.03
429.03	5591.54
429.22	5364.51
429.40	5432.38
429.59	5568.13
429.78	5203.01
429.97	5261.52
430.16	5483.88
430.34	5661.76
430.53	5668.78
430.72	5638.35
430.91	5741.33
431.10	5645.37
431.28	5734.31
431.47	5961.34
431.66	5947.30
431.85	5870.06
432.03	5970.71
432.22	5902.83
432.41	5900.49
432.60	5991.77
432.79	5912.19
432.97	6010.50
433.16	6150.93
433.35	5959.00
433.54	6099.44
433.72	6211.78
433.91	6162.63
434.10	6300.72
434.28	5968.37
434.47	6230.51
434.66	6274.98
434.85	6251.57
435.03	6200.08
435.22	6359.24
435.41	6455.20
435.59	6450.52
435.78	6363.92
435.97	6527.75
436.16	6408.39
436.34	6541.80
436.53	6492.65
436.72	6715.00
436.90	6583.93
437.09	6724.36
437.28	6523.07
437.46	6686.91
437.65	6782.87
437.84	6675.21
438.02	6862.45
438.21	6710.32
438.40	6726.70
438.58	6909.26
438.77	6876.49
438.96	6949.05
439.14	7059.06
439.33	7232.26
439.52	7190.13
439.70	7232.26
439.89	7442.90
440.08	7405.46
440.26	7407.80
440.45	7351.62
440.63	7557.59
440.82	7749.51
441.01	7445.24
441.19	7611.42
441.38	7578.65
441.57	7641.85
441.75	7861.86
441.94	8114.64
442.12	7976.55
442.31	8210.60
442.50	8140.38
442.68	8077.19
442.87	8056.12
443.05	8196.56
443.24	8257.41
443.43	8215.28
443.61	8084.21
443.80	8444.65
443.98	8203.58
444.17	7798.66
444.35	8292.52
444.54	8421.25
444.73	8446.99
444.91	8348.69
445.10	8339.33
445.28	8479.76
445.47	8365.07
445.65	8334.65
445.84	8554.66
446.02	8409.54
446.21	8395.50
446.39	8367.42
446.58	8564.02
446.77	8353.37
446.95	8234.00
447.14	8521.89
447.32	8489.12
447.51	8622.53
447.69	8533.59
447.88	8542.96
448.06	8587.43
448.25	8622.53
448.43	8674.03
448.62	8638.92
448.80	8777.01
448.99	8706.79
449.17	8833.18
449.36	8681.05
449.54	8870.63
449.73	8877.65
449.91	9085.96
450.10	9104.68
450.28	9090.64
450.46	9048.51
450.65	9062.55
450.83	9149.15
451.02	9191.28
451.20	9062.55
451.39	9181.92
451.57	9095.32
451.76	9111.71
451.94	9301.29
452.13	9294.27
452.31	9294.27
452.49	9327.03
452.68	9362.14
452.86	9217.03
453.05	9427.68
453.23	9572.79
453.42	9427.68
453.60	9320.01
453.78	9495.55
453.97	9474.49
454.15	9514.28
454.34	9778.76
454.52	9687.48
454.70	9785.78
454.89	9802.16
455.07	9764.72
455.26	9874.72
455.44	9907.49
455.62	9968.34
455.81	10050.26
455.99	9898.13
456.17	9970.68
456.36	10061.96
456.54	10333.47
456.73	10391.98
456.91	10387.30
457.09	10373.25
457.28	10441.13
457.46	10253.89
457.64	10607.31
457.83	10581.56
458.01	10527.73
458.19	10607.31
458.38	10597.95
458.56	10895.19
458.74	10733.70
458.93	10757.10
459.11	10773.49
459.29	10757.10
459.48	10972.43
459.66	10993.50
459.84	10918.60
460.03	11035.63
460.21	11096.48
460.39	10993.50
460.57	11089.46
460.76	11281.38
460.94	11169.04
461.12	11201.80
461.31	11190.10
461.49	11215.85
461.67	11143.29
461.85	11700.34
462.04	11372.66
462.22	11492.03
462.40	11660.55
462.59	11503.73
462.77	11370.32
462.95	11609.06
463.13	11672.25
463.32	11585.65
463.50	11536.50
463.68	11761.19
463.86	11995.25
464.05	11882.90
464.23	11847.79
464.41	11992.90
464.59	11868.86
464.78	12212.92
464.96	11988.22
465.14	11962.48
465.32	12154.40
465.50	12332.28
465.69	12074.82
465.87	12245.68
466.05	12145.04
466.23	12339.30
466.41	12332.28
466.60	12620.17
466.78	12093.55
466.96	12180.15
467.14	12308.88
467.32	12652.94
467.51	12723.15
467.69	12086.53
467.87	12252.70
468.05	12601.44
468.23	12606.13
468.41	12636.55
468.60	12493.78
468.78	12840.18
468.96	12748.90
469.14	12992.31
469.32	13102.32
469.50	12769.96
469.69	13036.78
469.87	13345.73
470.05	13062.53
470.23	13448.72
470.41	13366.80
470.59	13226.37
470.77	13392.55
470.95	13209.98
471.14	13530.64
471.32	13226.37
471.50	13593.83
471.68	13757.67
471.86	13614.90
472.04	13970.66
472.22	13991.72
472.40	13724.90
472.58	13872.36
472.77	14155.56
472.95	14359.19
473.13	14883.47
473.31	14078.32
473.49	14104.07
473.67	14377.91
473.85	14562.81
474.03	14803.89
474.21	14806.23
474.39	14731.33
474.57	14775.80
474.75	14778.14
474.93	15239.23
475.12	14766.44
475.30	15042.62
475.48	14963.04
475.66	15208.80
475.84	15367.96
476.02	15356.25
476.20	15414.77
476.38	15749.46
476.56	16049.05
476.74	15913.30
476.92	15833.72
477.10	15683.93
477.28	16217.57
477.46	16255.02
477.64	16418.86
477.82	16601.42
478.00	17149.11
478.18	16692.70
478.36	16996.97
478.54	17102.29
478.72	17057.82
478.90	17500.19
479.08	17568.06
479.26	17900.42
479.44	17811.48
479.62	18001.06
479.80	18431.72
479.98	17951.91
480.16	18630.66
480.34	18450.44
480.52	18611.94
480.70	18604.92
480.88	18476.19
481.06	18614.28
481.24	18759.39
481.41	19208.78
481.59	19489.64
481.77	19494.32
481.95	19796.25
482.13	19737.74
482.31	19772.85
482.49	20159.03
482.67	20247.97
482.85	20580.33
483.03	20798.00
483.21	20648.21
483.39	21050.78
483.57	20973.54
483.74	21188.87
483.92	21467.39
484.10	21373.77
484.28	21694.43
484.46	21893.37
484.64	22389.56
484.82	22394.25
485.00	22824.90
485.18	22717.24
485.35	23161.94
485.53	23016.83
485.71	22920.87
485.89	23669.84
486.07	23484.94
486.25	23358.55
486.43	23491.96
486.61	23868.78
486.78	23971.77
486.96	24194.12
487.14	24664.57
487.32	24776.91
487.50	24931.39
487.68	25268.42
487.85	25427.58
488.03	25806.75
488.21	26302.94
488.39	25883.98
488.57	26293.58
488.75	26321.66
488.92	26632.96
489.10	26859.99
489.28	26834.24
489.46	27222.77
489.64	26899.78
489.81	27831.31
489.99	27461.51
490.17	28067.70
490.35	28364.95
490.53	28397.72
490.70	28594.32
490.88	28634.11
491.06	28730.08
491.24	29099.88
491.41	28992.22
491.59	29240.31
491.77	29469.69
491.95	29902.68
492.13	29692.04
492.30	30155.46
492.48	30071.20
492.66	30373.13
492.84	30457.39
493.01	30890.39
493.19	30710.17
493.37	31302.32
493.54	31377.22
493.72	31646.38
493.90	31730.64
494.08	31763.41
494.25	32184.71
494.43	32243.22
494.61	32332.16
494.79	32723.03
494.96	32732.39
495.14	32348.54
495.32	33282.42
495.49	33195.82
495.67	33392.42
495.85	34038.41
496.02	33930.75
496.20	34361.40
496.38	34108.63
496.55	34583.76
496.73	35005.05
496.91	34745.25
497.09	34948.88
497.26	35206.34
497.44	35290.60
497.62	35573.80
497.79	35995.10
497.97	35501.25
498.14	35864.03
498.32	36250.22
498.50	36194.04
498.67	37006.21
498.85	36631.72
499.03	36662.15
499.20	37085.79
499.38	36868.12
499.56	37186.43
499.73	37130.26
499.91	37883.91
500.08	37968.17
500.26	37464.96
500.44	37649.86
500.61	37900.29
500.79	38071.15
500.97	38557.99
501.14	38733.53
501.32	38728.84
501.49	38806.08
501.67	38836.51
501.84	39304.62
502.02	39124.40
502.20	39164.18
502.37	39344.41
502.55	39098.65
502.72	39789.11
502.90	39887.41
503.07	39522.29
503.25	39723.57
503.43	40184.66
503.60	40224.45
503.78	40460.84
503.95	40479.57
504.13	40889.16
504.30	41078.74
504.48	40701.92
504.65	40978.10
504.83	40954.69
505.01	41797.29
505.18	41254.28
505.36	41799.63
505.53	41771.54
505.71	41893.25
505.88	42157.73
506.06	41888.57
506.23	41998.57
506.41	41872.18
506.58	42066.45
506.76	42497.11
506.93	42478.38
507.11	42679.67
507.28	42873.93
507.46	43243.74
507.63	43126.71
507.81	43278.85
507.98	43042.45
508.16	43548.01
508.33	43398.21
508.50	43639.29
508.68	43690.78
508.85	44123.78
509.03	43821.85
509.20	44165.91
509.38	44786.15
509.55	44526.35
509.73	44636.36
509.90	45167.66
510.08	44360.17
510.25	45064.67
510.42	45036.59
510.60	45134.89
510.77	45155.96
510.95	45778.54
511.12	45195.74
511.30	45640.45
511.47	46010.25
511.64	45713.00
511.82	46291.12
511.99	46281.75
512.17	46370.69
512.34	46124.94
512.51	46153.02
512.69	46464.32
512.86	46742.84
513.04	46742.84
513.21	46555.60
513.38	47199.24
513.56	47175.84
513.73	46925.40
513.90	47381.80
514.08	47229.67
514.25	47683.73
514.43	47430.96
514.60	47583.09
514.77	47512.88
514.95	47896.72
515.12	47938.85
515.29	47852.25
515.47	48067.58
515.64	48430.36
515.81	48208.01
515.99	48355.47
516.16	48809.53
516.33	48774.42
516.51	48545.05
516.68	48645.69
516.85	48685.48
517.03	49111.46
517.20	48980.39
517.37	49062.31
517.54	48718.25
517.72	48830.60
517.89	49076.35
518.06	49624.04
518.24	49085.72
518.41	49359.56
518.58	49551.48
518.75	49602.97
518.93	49715.32
519.10	49563.18
519.27	49684.89
519.45	49902.56
519.62	50169.38
519.79	50150.66
519.96	50047.68
520.14	50548.55
520.31	49865.11
520.48	50452.59
520.65	50468.97
520.83	50735.79
521.00	51229.65
521.17	50468.97
521.34	51124.32
521.52	51016.66
521.69	51136.02
521.86	51681.37
522.03	51243.69
522.20	51433.27
522.38	51430.93
522.55	51554.98
522.72	51594.77
522.89	51646.26
523.07	52060.54
523.24	51758.61
523.41	52088.62
523.58	51744.56
523.75	51934.15
523.92	51978.62
524.10	52282.89
524.27	52299.27
524.44	52254.80
524.61	52231.40
524.78	52552.05
524.96	52444.38
525.13	52322.68
525.30	52435.02
525.47	52594.18
525.64	52353.10
525.81	52767.38
525.98	52624.60
526.16	52783.76
526.33	52671.42
526.50	53062.29
526.67	53045.90
526.84	53027.18
527.01	52783.76
527.18	52837.59
527.36	53448.47
527.53	53167.61
527.70	53553.80
527.87	53558.48
528.04	53333.79
528.21	53572.52
528.38	53518.69
528.55	53811.26
528.72	53382.94
528.89	53815.94
529.07	53396.98
529.24	53404.00
529.41	54143.61
529.58	53792.53
529.75	54094.46
529.92	53867.43
530.09	54012.54
530.26	54124.89
530.43	54216.17
530.60	53862.75
530.77	54141.27
530.94	54344.90
531.11	54293.41
531.28	54429.16
531.46	54255.96
531.63	54279.36
531.80	54232.55
531.97	54431.50
532.14	54595.34
532.31	54534.48
532.48	54637.47
532.65	54787.26
532.82	54487.67
532.99	55037.70
533.16	54855.14
533.33	54993.23
533.50	55061.10
533.67	54801.30
533.84	54890.24
534.01	54803.64
534.18	54997.91
534.35	55487.08
534.52	55154.72
534.69	55395.80
534.86	55028.34
535.03	55253.03
535.20	55316.22
535.37	55587.72
535.54	55585.38
535.71	55599.43
535.88	55510.49
536.05	55367.71
536.22	55744.54
536.38	55629.85
536.55	55515.17
536.72	55707.09
536.89	55611.13
537.06	55873.27
537.23	55987.95
537.40	55814.76
537.57	55723.47
537.74	55786.67
537.91	56191.58
538.08	56074.55
538.25	55774.97
538.42	56067.53
538.59	56151.79
538.75	56060.51
538.92	56320.31
539.09	56397.55
539.26	56254.78
539.43	56217.33
539.60	56346.06
539.77	56205.62
539.94	56683.09
540.11	56451.38
540.28	56573.09
540.44	56535.64
540.61	56559.05
540.78	56598.83
540.95	56783.74
541.12	56425.64
541.29	56629.26
541.46	56643.30
541.62	56835.23
541.79	56566.07
541.96	56559.05
542.13	56631.60
542.30	56935.87
542.47	57048.22
542.63	56947.57
542.80	56849.27
542.97	56699.48
543.14	57270.57
543.31	57326.74
543.48	57240.14
543.64	57588.88
543.81	57649.74
543.98	57441.43
544.15	57605.26
544.32	57638.03
544.48	57518.67
544.65	57759.74
544.82	57378.23
544.99	57289.29
545.16	57682.50
545.32	57471.85
545.49	57808.89
545.66	57909.53
545.83	57598.24
546.00	57806.55
546.16	57633.35
546.33	57883.79
546.50	57755.06
546.67	57689.52
546.83	57279.93
547.00	58094.44
547.17	57958.69
547.34	58181.04
547.50	58436.16
547.67	58293.38
547.84	57876.77
548.00	58258.27
548.17	58518.07
548.34	58419.77
548.51	58244.23
548.67	58129.54
548.84	58274.66
549.01	58265.30
549.18	58466.58
549.34	58387.00
549.51	58459.56
549.68	58445.52
549.84	58487.65
550.01	58555.52
550.18	58475.94
550.34	58590.63
550.51	58534.46
550.68	58660.85
550.84	58494.67
551.01	58733.40
551.18	58576.59
551.34	58504.03
551.51	58454.88
551.68	58665.53
551.84	58787.24
552.01	58475.94
552.18	58576.59
552.34	58728.72
552.51	58920.65
552.68	58747.45
552.84	58990.86
553.01	59138.32
553.18	58843.41
553.34	59056.40
553.51	58908.94
553.67	58724.04
553.84	59089.16
554.01	58836.39
554.17	59079.80
554.34	59096.19
554.51	59222.58
554.67	59302.15
554.84	59079.80
555.00	59082.14
555.17	59028.31
555.33	59224.92
555.50	59075.12
555.67	59044.69
555.83	58979.16
556.00	59201.51
556.16	59339.60
556.33	59355.99
556.50	59222.58
556.66	59538.55
556.83	59208.53
556.99	59625.15
557.16	59664.94
557.32	59550.25
557.49	59803.03
557.65	59613.44
557.82	59484.72
557.98	59669.62
558.15	59643.87
558.32	59643.87
558.48	59318.54
558.65	59648.55
558.81	59641.53
558.98	59817.07
559.14	59784.30
559.31	59763.24
559.47	59952.82
559.64	59791.33
559.80	59803.03
559.97	59845.16
560.13	59725.79
560.30	60011.34
560.46	59962.18
560.63	59882.61
560.79	59793.67
560.96	60093.25
561.12	60072.19
561.29	59948.14
561.45	59927.08
561.61	59833.46
561.78	59777.28
561.94	59838.14
562.11	59934.10
562.27	59903.67
562.44	60013.68
562.60	60114.32
562.77	59976.23
562.93	59980.91
563.10	60037.08
563.26	60013.68
563.42	60465.40
563.59	60231.35
563.75	60055.81
563.92	60238.37
564.08	60163.47
564.24	60214.96
564.41	60144.75
564.57	60317.95
564.74	60259.43
564.90	60257.09
565.07	60191.56
565.23	60231.35
565.39	60296.88
565.56	60360.08
565.72	60198.58
565.88	60158.79
566.05	60191.56
566.21	60226.66
566.38	60296.88
566.54	60362.42
566.70	60346.03
566.87	60392.84
567.03	60243.05
567.19	60633.92
567.36	60495.83
567.52	60615.19
567.68	60722.86
567.85	60402.21
568.01	60612.85
568.17	60385.82
568.34	60640.94
568.50	60755.63
568.66	60441.99
568.83	60598.81
568.99	60409.23
569.15	60619.88
569.32	60580.09
569.48	60528.59
569.64	60488.80
569.81	60589.45
569.97	60563.70
570.13	60512.21
570.30	60439.65
570.46	60603.49
570.62	60477.10
570.78	60568.38
570.95	60643.28
571.11	60837.54
571.27	60671.37
571.43	60685.41
571.60	60764.99
571.76	60713.50
571.92	60858.61
572.09	60654.98
572.25	60793.07
572.41	60657.32
572.57	60673.71
572.74	60882.02
572.90	61006.06
573.06	60870.31
573.22	60786.05
573.38	60687.75
573.55	60804.78
573.71	61113.73
573.87	60814.14
574.03	60708.82
574.20	60924.14
574.36	60570.72
574.52	61022.45
574.68	60900.74
574.84	60879.67
575.01	60825.84
575.17	60772.01
575.33	60601.15
575.49	60718.18
575.65	60952.23
575.82	61010.74
575.98	60996.70
576.14	61029.47
576.30	61071.60
576.46	60753.29
576.62	60935.85
576.79	60718.18
576.95	60795.42
577.11	60874.99
577.27	60940.53
577.43	60996.70
577.59	61001.38
577.75	60783.71
577.92	60830.52
578.08	60966.27
578.24	61146.50
578.40	61013.08
578.56	61085.64
578.72	60994.36
578.88	61055.21
579.04	61062.24
579.21	60959.25
579.37	61006.06
579.53	61125.43
579.69	60949.89
579.85	61062.24
580.01	60977.98
580.17	60886.70
580.33	61048.19
580.49	61165.22
580.65	61169.90
580.82	61029.47
580.98	61017.77
581.14	60896.06
581.30	61020.11
581.46	61027.13
581.62	61134.79
581.78	60956.91
581.94	61085.64
582.10	60996.70
582.26	61013.08
582.42	61169.90
582.58	61109.05
582.74	61099.68
582.90	60940.53
583.06	60919.46
583.22	60851.59
583.38	61022.45
583.54	61041.17
583.70	61125.43
583.86	61102.03
584.02	61003.72
584.18	61146.50
584.34	61118.41
584.50	61013.08
584.66	61183.94
584.82	60605.83
584.98	61263.52
585.14	61193.31
585.30	61331.40
585.46	61268.20
585.62	61008.40
585.78	61284.59
585.94	61123.09
586.10	61240.12
586.26	61300.97
586.42	61326.72
586.58	61284.59
586.74	61205.01
586.90	61219.05
587.06	61153.52
587.22	61361.82
587.38	61169.90
587.54	61282.25
587.70	61338.42
587.86	61172.24
588.02	61137.13
588.18	61230.75
588.34	61226.07
588.49	61188.63
