SpectraSuite Data File
++++++++++++++++++++++++++++++++++++
Date: Fri Oct 25 10:46:56 EDT 2013
User: price-jones
Dark Spectrum Present: No
Reference Spectrum Present: No
Number of Sampled Component Spectra: 1
Spectrometers: USB2+H05261
Integration Time (usec): 100000 (USB2+H05261)
Spectra Averaged: 1 (USB2+H05261)
Boxcar Smoothing: 0 (USB2+H05261)
Correct for Electrical Dark: No (USB2+H05261)
Strobe/Lamp Enabled: No (USB2+H05261)
Correct for Detector Non-linearity: No (USB2+H05261)
Correct for Stray Light: No (USB2+H05261)
Number of Pixels in Processed Spectrum: 2048
>>>>>Begin Processed Spectral Data<<<<<
365.73	177.88
365.92	177.88
366.12	177.88
366.32	25.75
366.52	100.64
366.72	58.51
366.91	0.00
367.11	35.11
367.31	21.06
367.51	0.00
367.70	56.17
367.90	93.62
368.10	81.92
368.30	77.24
368.49	14.04
368.69	110.01
368.89	79.58
369.09	0.00
369.28	51.49
369.48	30.43
369.68	105.32
369.87	135.75
370.07	131.07
370.27	173.20
370.47	170.86
370.66	447.04
370.86	374.49
371.06	503.22
371.25	472.79
371.45	423.64
371.65	442.36
371.84	407.25
372.04	449.38
372.24	573.43
372.44	498.53
372.63	510.24
372.83	514.92
373.03	624.92
373.22	521.94
373.42	543.00
373.62	594.50
373.81	547.69
374.01	613.22
374.21	587.47
374.40	552.37
374.60	671.73
374.79	589.82
374.99	674.07
375.19	557.05
375.38	692.80
375.58	627.26
375.78	601.52
375.97	634.29
376.17	671.73
376.37	660.03
376.56	641.31
376.76	589.82
376.95	603.86
377.15	657.69
377.35	657.69
377.54	685.78
377.74	643.65
377.93	608.54
378.13	650.67
378.33	704.50
378.52	667.05
378.72	706.84
378.91	645.99
379.11	645.99
379.31	643.65
379.50	638.97
379.70	671.73
379.89	667.05
380.09	786.42
380.28	650.67
380.48	767.70
380.68	702.16
380.87	638.97
381.07	791.10
381.26	692.80
381.46	741.95
381.65	784.08
381.85	748.97
382.04	704.50
382.24	688.12
382.43	744.29
382.63	709.18
382.83	676.41
383.02	713.86
383.22	755.99
383.41	760.67
383.61	737.27
383.80	819.19
384.00	699.82
384.19	718.54
384.39	798.12
384.58	800.46
384.78	774.72
384.97	828.55
385.17	805.14
385.36	835.57
385.56	786.42
385.75	699.82
385.95	793.44
386.14	917.49
386.34	861.32
386.53	868.34
386.72	854.30
386.92	873.02
387.11	858.98
387.31	833.23
387.50	889.40
387.70	819.19
387.89	851.96
388.09	868.34
388.28	882.38
388.48	812.17
388.67	912.81
388.86	894.08
389.06	898.77
389.25	877.70
389.45	952.60
389.64	922.17
389.84	1088.35
390.03	1074.31
390.22	1039.20
390.42	971.32
390.61	1034.52
390.81	954.94
391.00	905.79
391.19	1076.65
391.39	1025.15
391.58	1046.22
391.78	978.34
391.97	1043.88
392.16	1057.92
392.36	1100.05
392.55	1057.92
392.75	987.71
392.94	1036.86
393.13	1111.75
393.33	1025.15
393.52	1071.97
393.71	1100.05
393.91	1025.15
394.10	1074.31
394.29	1137.50
394.49	1170.27
394.68	1151.54
394.88	1277.93
395.07	1224.10
395.26	1172.61
395.46	1196.01
395.65	1324.74
395.84	1188.99
396.04	1359.85
396.23	1226.44
396.42	1146.86
396.62	1170.27
396.81	1233.46
397.00	1160.91
397.19	1306.02
397.39	1282.61
397.58	1345.81
397.77	1345.81
397.97	1385.60
398.16	1390.28
398.35	1488.58
398.55	1481.56
398.74	1486.24
398.93	1462.83
399.12	1502.62
399.32	1474.54
399.51	1535.39
399.70	1607.95
399.90	1488.58
400.09	1554.12
400.28	1629.01
400.47	1591.56
400.67	1643.06
400.86	1621.99
401.05	1605.61
401.24	1708.59
401.44	1629.01
401.63	1657.10
401.82	1771.79
402.01	1708.59
402.21	1748.38
402.40	1858.39
402.59	1692.21
402.78	1727.32
402.97	1734.34
403.17	1682.85
403.36	1846.68
403.55	1739.02
403.74	1900.52
403.93	1834.98
404.13	1888.81
404.32	1790.51
404.51	1760.08
404.70	1954.35
404.89	1989.46
405.09	1970.73
405.28	1991.80
405.47	1956.69
405.66	2054.99
405.85	2008.18
406.05	2012.86
406.24	1921.58
406.43	2022.22
406.62	1961.37
406.81	2043.29
407.00	1930.94
407.20	1991.80
407.39	2097.12
407.58	2087.76
407.77	2115.84
407.96	2218.83
408.15	2211.81
408.34	2181.38
408.54	2312.45
408.73	2305.43
408.92	2263.30
409.11	2354.58
409.30	2157.97
409.49	2260.96
409.68	2230.53
409.87	2314.79
410.07	2249.25
410.26	2303.09
410.45	2389.69
410.64	2310.11
410.83	2483.31
411.02	2478.63
411.21	2513.74
411.40	2609.70
411.59	2574.59
411.78	2480.97
411.98	2569.91
412.17	2605.02
412.36	2686.94
412.55	2614.38
412.74	2731.41
412.93	2705.66
413.12	2658.85
413.31	2853.11
413.50	2820.35
413.69	2663.53
413.88	2752.47
414.07	2899.92
414.26	2970.14
414.45	2920.99
414.64	2963.12
414.83	3012.27
415.02	3049.72
415.22	3061.42
415.41	3169.09
415.60	3054.40
415.79	3218.24
415.98	3213.56
416.17	3141.00
416.36	3272.07
416.55	3215.90
416.74	3166.74
416.93	3187.81
417.12	3227.60
417.31	3349.31
417.50	3346.97
417.69	3485.06
417.88	3342.28
418.07	3396.12
418.26	3396.12
418.45	3314.20
418.64	3592.72
418.83	3515.48
419.02	3407.82
419.21	3506.12
419.39	3513.14
419.58	3566.98
419.77	3552.93
419.96	3702.73
420.15	3672.30
420.34	3672.30
420.53	3676.98
420.72	3768.26
420.91	3784.65
421.10	3779.97
421.29	3798.69
421.48	3726.13
421.67	3850.18
421.86	3803.37
422.05	3733.15
422.24	3588.04
422.43	3733.15
422.61	3801.03
422.80	3723.79
422.99	3929.76
423.18	3911.04
423.37	3992.95
423.56	3843.16
423.75	3913.38
423.94	3920.40
424.13	3669.96
424.32	3653.58
424.50	3899.33
424.69	3889.97
424.88	3964.87
425.07	3861.88
425.26	3882.95
425.45	3817.41
425.64	3885.29
425.83	3796.35
426.01	4056.15
426.20	3983.59
426.39	4002.32
426.58	3817.41
426.77	3995.29
426.96	3908.69
427.15	3875.93
427.33	3983.59
427.52	4091.26
427.71	4128.70
427.90	4046.79
428.09	4259.78
428.28	4175.52
428.46	4161.47
428.65	4177.86
428.84	4175.52
429.03	4264.46
429.22	4102.96
429.40	4114.66
429.59	4168.49
429.78	3901.67
429.97	3852.52
430.16	3976.57
430.34	4095.94
430.53	4159.13
430.72	4095.94
430.91	4262.12
431.10	4271.48
431.28	4496.17
431.47	4526.60
431.66	4526.60
431.85	4479.79
432.03	4667.03
432.22	4660.01
432.41	4519.57
432.60	4641.28
432.79	4674.05
432.97	4706.82
433.16	4580.43
433.35	4629.58
433.54	4624.90
433.72	4690.43
433.91	4575.75
434.10	4662.35
434.28	4795.76
434.47	4762.99
434.66	4814.48
434.85	4819.16
435.03	4891.72
435.22	4903.42
435.41	4929.17
435.59	4961.94
435.78	4917.47
435.97	5029.81
436.16	5036.83
436.34	5181.95
436.53	5167.90
436.72	5317.70
436.90	5109.39
437.09	5062.58
437.28	4968.96
437.46	5135.14
437.65	5149.18
437.84	5186.63
438.02	5036.83
438.21	5203.01
438.40	5352.81
438.58	5341.10
438.77	5259.18
438.96	5479.19
439.14	5469.83
439.33	5423.02
439.52	5675.80
439.70	5533.03
439.89	5563.45
440.08	5654.73
440.26	5682.82
440.45	5774.10
440.63	5689.84
440.82	5998.79
441.01	5748.36
441.19	5928.58
441.38	5996.45
441.57	5881.77
441.75	6083.05
441.94	6087.73
442.12	6223.48
442.31	6230.51
442.50	6317.11
442.68	6129.86
442.87	6216.46
443.05	6431.79
443.24	6298.38
443.43	6340.51
443.61	6408.39
443.80	6492.65
443.98	6424.77
444.17	6169.65
444.35	6518.39
444.54	6473.92
444.73	6408.39
444.91	6359.24
445.10	6509.03
445.28	6293.70
445.47	6258.59
445.65	6305.40
445.84	6354.55
446.02	6469.24
446.21	6434.13
446.39	6492.65
446.58	6633.08
446.77	6686.91
446.95	6312.42
447.14	6509.03
447.32	6609.67
447.51	6630.74
447.69	6532.44
447.88	6619.04
448.06	6686.91
448.25	6609.67
448.43	6569.88
448.62	6628.40
448.80	6731.38
448.99	6853.09
449.17	6970.12
449.36	6661.16
449.54	6850.75
449.73	7033.31
449.91	7084.80
450.10	7014.59
450.28	7148.00
450.46	6913.94
450.65	7019.27
450.83	6958.41
451.02	7075.44
451.20	7183.10
451.39	7337.58
451.57	7047.35
451.76	7030.97
451.94	7213.53
452.13	7253.32
452.31	7267.36
452.49	7009.90
452.68	7218.21
452.86	7236.94
453.05	7351.62
453.23	7304.81
453.42	7283.75
453.60	7194.81
453.78	7456.95
453.97	7236.94
454.15	7297.79
454.34	7239.28
454.52	7307.15
454.70	7468.65
454.89	7489.71
455.07	7332.90
455.26	7578.65
455.44	7653.55
455.62	7667.60
455.81	7590.36
455.99	7527.16
456.17	7943.78
456.36	7513.12
456.54	7950.80
456.73	7838.45
456.91	8095.91
457.09	7882.92
457.28	8128.68
457.46	7913.35
457.64	8053.78
457.83	8222.30
458.01	7889.95
458.19	7992.93
458.38	8037.40
458.56	8152.09
458.74	7995.27
458.93	8058.46
459.11	8063.15
459.29	8400.18
459.48	8124.00
459.66	8262.09
459.84	8423.59
460.03	8407.20
460.21	8299.54
460.39	8449.33
460.57	8280.82
460.76	8479.76
460.94	8521.89
461.12	8528.91
461.31	8526.57
461.49	8500.83
461.67	8580.40
461.85	8585.08
462.04	8711.47
462.22	9050.85
462.40	8697.43
462.59	8744.24
462.77	8814.46
462.95	8769.99
463.13	8671.68
463.32	8879.99
463.50	8781.69
463.68	8891.70
463.86	8980.64
464.05	8727.86
464.23	8875.31
464.41	8966.59
464.59	8938.51
464.78	8961.91
464.96	9018.08
465.14	8863.61
465.32	9202.99
465.50	9050.85
465.69	9186.60
465.87	9231.07
466.05	8968.93
466.23	9193.62
466.41	8992.34
466.60	9329.38
466.78	9043.83
466.96	9156.18
467.14	9224.05
467.32	9088.30
467.51	9481.51
467.69	9116.39
467.87	9298.95
468.05	9362.14
468.23	9352.78
468.41	9387.89
468.60	9474.49
468.78	9635.99
468.96	9544.70
469.14	9781.10
469.32	9701.52
469.50	9465.13
469.69	9556.41
469.87	9916.85
470.05	9788.12
470.23	9706.20
470.41	9748.33
470.59	9771.74
470.77	9996.43
470.95	10092.39
471.14	10106.43
471.32	9895.78
471.50	9790.46
471.68	10090.05
471.86	10284.31
472.04	10314.74
472.22	10497.30
472.40	10345.17
472.58	10296.02
472.77	10347.51
472.95	10326.44
473.13	10752.42
473.31	10558.16
473.49	10443.47
473.67	10424.75
473.85	10623.69
474.03	10881.15
474.21	10862.43
474.39	10855.40
474.57	10885.83
474.75	11126.91
474.93	11035.63
475.12	11220.53
475.30	11030.94
475.48	10991.16
475.66	11246.27
475.84	11229.89
476.02	11211.17
476.20	11190.10
476.38	11616.08
476.56	11800.98
476.74	11927.37
476.92	11749.49
477.10	12018.65
477.28	11831.41
477.46	12023.33
477.64	11995.25
477.82	12250.36
478.00	12547.61
478.18	12318.24
478.36	12547.61
478.54	12638.89
478.72	12748.90
478.90	12950.18
479.08	12987.63
479.26	12999.34
479.44	12891.67
479.62	13048.49
479.80	13170.19
479.98	13219.35
480.16	13448.72
480.34	13364.46
480.52	13460.42
480.70	13638.30
480.88	13432.33
481.06	13767.03
481.24	13785.76
481.41	13975.34
481.59	14305.35
481.77	14188.33
481.95	14253.86
482.13	14368.55
482.31	14382.59
482.49	14860.06
482.67	14626.01
482.85	14820.27
483.03	15119.86
483.21	15054.33
483.39	15213.48
483.57	15311.78
483.74	15573.92
483.92	15566.90
484.10	15403.07
484.28	15754.15
484.46	15772.87
484.64	16175.44
484.82	15873.51
485.00	15971.82
485.18	16482.05
485.35	16248.00
485.53	15880.53
485.71	16250.34
485.89	16102.89
486.07	16360.34
486.25	16594.40
486.43	16695.04
486.61	17128.04
486.78	17118.68
486.96	17149.11
487.14	17537.63
487.32	17397.20
487.50	17607.85
487.68	18143.83
487.85	18448.10
488.03	18104.04
488.21	18607.26
488.39	18256.18
488.57	18483.21
488.75	18948.98
488.92	19105.79
489.10	19105.79
489.28	19370.27
489.46	19749.44
489.64	19440.49
489.81	19831.36
489.99	19920.30
490.17	20407.13
490.35	20496.07
490.53	20077.12
490.70	20027.96
490.88	20311.17
491.06	20484.37
491.24	20908.01
491.41	20599.05
491.59	20793.32
491.77	20585.01
491.95	20886.94
492.13	21032.05
492.30	21621.87
492.48	21612.51
492.66	21755.28
492.84	21649.96
493.01	22225.73
493.19	21617.19
493.37	22141.47
493.54	22139.13
493.72	22513.61
493.90	22546.38
494.08	22789.80
494.25	23056.62
494.43	23384.29
494.61	22995.76
494.79	23143.22
494.96	23126.83
495.14	23456.85
495.32	23351.52
495.49	23372.59
495.67	23391.31
495.85	23590.26
496.02	24109.86
496.20	24222.20
496.38	24407.11
496.55	24498.39
496.73	24608.39
496.91	24362.64
497.09	24854.15
497.26	24814.36
497.44	24554.56
497.62	24844.79
497.79	25448.64
497.97	25027.35
498.14	25371.41
498.32	25586.74
498.50	25429.92
498.67	25582.06
498.85	25832.49
499.03	26225.70
499.20	25916.75
499.38	25979.95
499.56	26188.25
499.73	26073.57
499.91	26436.35
500.08	26335.71
500.26	26071.23
500.44	26410.60
500.61	26780.41
500.79	26600.19
500.97	26583.80
501.14	27351.50
501.32	26991.06
501.49	27154.90
501.67	27063.61
501.84	27370.22
502.02	27138.51
502.20	27445.12
502.37	27557.47
502.55	27365.54
502.72	27711.94
502.90	28121.54
503.07	27725.99
503.25	28198.77
503.43	27742.37
503.60	28044.30
503.78	27950.68
503.95	28030.26
504.13	28348.57
504.30	28086.43
504.48	28470.28
504.65	28655.18
504.83	28809.65
505.01	29125.63
505.18	28952.43
505.36	29406.49
505.53	29064.77
505.71	29696.72
505.88	29685.01
506.06	29507.13
506.23	29446.28
506.41	29317.55
506.58	29738.85
506.76	29455.64
506.93	29717.78
507.11	29809.06
507.28	29954.18
507.46	29647.57
507.63	29560.97
507.81	30319.30
507.98	30038.44
508.16	30548.67
508.33	30651.66
508.50	30295.89
508.68	30654.00
508.85	31215.72
509.03	30991.03
509.20	31307.01
509.38	31290.62
509.55	31372.54
509.73	31187.64
509.90	31239.13
510.08	31239.13
510.25	31087.00
510.42	31435.74
510.60	31665.11
510.77	31950.65
510.95	31688.51
511.12	31812.56
511.30	32018.53
511.47	32505.36
511.64	32268.97
511.82	32102.79
511.99	31917.89
512.17	32266.63
512.34	32048.96
512.51	32563.87
512.69	32730.05
512.86	32662.18
513.04	33039.00
513.21	32535.79
513.38	32804.95
513.56	32666.86
513.73	32051.30
513.90	32716.01
514.08	32830.69
514.25	33184.12
514.43	33134.96
514.60	33055.39
514.77	33324.55
514.95	33586.69
515.12	33434.55
515.29	33682.65
515.47	33677.97
515.64	33928.41
515.81	34022.03
515.99	33736.48
516.16	33535.20
516.33	33556.26
516.51	33607.75
516.68	33359.66
516.85	33495.41
517.03	33755.21
517.20	33809.04
517.37	33993.94
517.54	34452.69
517.72	34227.99
517.89	34005.64
518.06	33837.12
518.24	34162.46
518.41	34087.56
518.58	34464.39
518.75	34768.66
518.93	34176.50
519.10	34567.37
519.27	34845.90
519.45	34881.00
519.62	35133.78
519.79	35005.05
519.96	35346.77
520.14	35491.88
520.31	35225.06
520.48	35526.99
520.65	35480.18
520.83	35667.42
521.00	35845.30
521.17	35651.04
521.34	36446.82
521.52	36217.45
521.69	36605.98
521.86	36385.97
522.03	36254.90
522.20	36760.45
522.38	36357.88
522.55	36334.48
522.72	36201.07
522.89	36240.86
523.07	36938.33
523.24	36505.34
523.41	37228.56
523.58	36524.06
523.75	37525.81
523.92	37462.61
524.10	37008.55
524.27	37284.73
524.44	37312.82
524.61	37188.77
524.78	37469.64
524.96	37240.26
525.13	37497.72
525.30	38031.36
525.47	37876.89
525.64	37694.33
525.81	37734.12
525.98	37544.53
526.16	37535.17
526.33	37483.68
526.50	37809.01
526.67	37006.21
526.84	37574.96
527.01	37151.32
527.18	37940.08
527.36	38085.20
527.53	38298.19
527.70	38192.86
527.87	38146.05
528.04	38103.92
528.21	38602.46
528.38	38398.83
528.55	38204.56
528.72	38429.26
528.89	38939.49
529.07	38827.15
529.24	38691.40
529.41	38827.15
529.58	38866.94
529.75	38705.44
529.92	38920.77
530.09	38831.83
530.26	39285.89
530.43	39297.59
530.60	39084.61
530.77	39063.54
530.94	39126.74
531.11	39232.06
531.28	39559.73
531.46	39522.29
531.63	39398.24
531.80	39306.96
531.97	39220.36
532.14	39426.32
532.31	39145.46
532.48	39374.83
532.65	39810.17
532.82	39456.75
532.99	39943.58
533.16	39744.64
533.33	40020.82
533.50	39955.29
533.67	40320.41
533.84	40348.50
534.01	39814.85
534.18	39824.22
534.35	40540.42
534.52	40140.19
534.69	40549.78
534.86	40776.81
535.03	39920.18
535.20	40891.50
535.37	40664.47
535.54	41085.76
535.71	40584.89
535.88	40271.26
536.05	40275.94
536.22	40748.73
536.38	40690.21
536.55	40755.75
536.72	40786.18
536.89	40924.27
537.06	41015.55
537.23	40835.33
537.40	40783.83
537.57	41139.60
537.74	40580.21
537.91	41516.42
538.08	41085.76
538.25	40980.44
538.42	41102.15
538.59	41443.87
538.75	41053.00
538.92	41347.90
539.09	41631.11
539.26	41343.22
539.43	41045.97
539.60	41736.43
539.77	41539.83
539.94	41500.04
540.11	41188.75
540.28	41422.80
540.44	41858.14
540.61	41350.24
540.78	41493.02
540.95	41862.82
541.12	41759.84
541.29	41570.25
541.46	41806.65
541.62	42017.30
541.79	42279.44
541.96	41820.69
542.13	41862.82
542.30	42040.70
542.47	41998.57
542.63	42328.59
542.80	42059.43
542.97	42394.12
543.14	43103.31
543.31	42515.83
543.48	42789.67
543.64	43098.62
543.81	42857.55
543.98	42700.73
544.15	42630.52
544.32	43215.65
544.48	43147.78
544.65	42995.64
544.82	43154.80
544.99	42670.31
545.16	42845.85
545.32	43040.11
545.49	43555.03
545.66	43299.91
545.83	43393.53
546.00	43470.77
546.16	43379.49
546.33	43161.82
546.50	42714.78
546.67	43215.65
546.83	42754.57
547.00	43505.88
547.17	43248.42
547.34	43192.25
547.50	43178.20
547.67	43775.04
547.84	43812.49
548.00	43480.13
548.17	43716.53
548.34	43686.10
548.51	44067.61
548.67	43833.55
548.84	43739.93
549.01	43831.21
549.18	44158.89
549.34	43510.56
549.51	43559.71
549.68	44381.24
549.84	44027.82
550.01	44257.19
550.18	44100.37
550.34	43873.34
550.51	43693.12
550.68	43587.80
550.84	43959.94
551.01	44076.97
551.18	43948.24
551.34	44318.04
551.51	44306.34
551.68	45031.91
551.84	44048.88
552.01	44250.17
552.18	44119.10
552.34	44289.96
552.51	44437.41
552.68	44114.42
552.84	44563.80
553.01	44744.02
553.18	44587.21
553.34	44437.41
553.51	44664.44
553.67	44301.66
553.84	44390.60
554.01	44577.84
554.17	45111.49
554.34	44964.03
554.51	44896.16
554.67	44811.90
554.84	44807.22
555.00	44418.69
555.17	44816.58
555.33	45270.64
555.50	45132.55
555.67	44900.84
555.83	44816.58
556.00	44601.25
556.16	45251.92
556.33	44751.04
556.50	44634.02
556.66	45258.94
556.83	45214.47
556.99	45317.45
557.16	45059.99
557.32	45219.15
557.49	45385.33
557.65	44975.73
557.82	45251.92
557.98	44662.10
558.15	44996.80
558.32	45188.72
558.48	45031.91
558.65	44952.33
558.81	45083.40
558.98	45333.84
559.14	45469.59
559.31	45296.39
559.47	45184.04
559.64	45390.01
559.80	45439.16
559.97	45790.24
560.13	45085.74
560.30	45420.44
560.46	45563.21
560.63	45455.54
560.79	45455.54
560.96	46036.00
561.12	45539.80
561.29	45464.91
561.45	45546.82
561.61	45584.27
561.78	45567.89
561.94	45537.46
562.11	45366.60
562.27	45975.14
562.44	45827.69
562.60	45715.34
562.77	45949.40
562.93	45797.26
563.10	45745.77
563.26	45556.19
563.42	46099.19
563.59	45574.91
563.75	45811.31
563.92	46017.27
564.08	45951.74
564.24	46101.53
564.41	45649.81
564.57	45771.52
564.74	45722.37
564.90	45462.57
565.07	45933.01
565.23	45895.56
565.39	45766.84
565.56	46270.05
565.72	45406.39
565.88	45654.49
566.05	45687.26
566.21	45689.60
566.38	45968.12
566.54	46223.24
566.70	45881.52
566.87	46183.45
567.03	45907.27
567.19	46408.14
567.36	46073.45
567.52	46146.00
567.68	46557.94
567.85	46038.34
568.01	46232.60
568.17	45876.84
568.34	46157.70
568.50	46190.47
568.66	46536.87
568.83	46138.98
568.99	45928.33
569.15	45682.58
569.32	46007.91
569.48	46057.06
569.64	46424.53
569.81	46326.22
569.97	46160.05
570.13	46040.68
570.30	45963.44
570.46	46003.23
570.62	45717.68
570.78	46005.57
570.95	45474.27
571.11	46174.09
571.27	45801.94
571.43	46124.94
571.60	46539.21
571.76	46354.31
571.92	45918.97
572.09	45886.20
572.25	46321.54
572.41	45755.13
572.57	46295.80
572.74	46234.94
572.90	46265.37
573.06	46314.52
573.22	46068.76
573.38	46436.23
573.55	45876.84
573.71	46288.77
573.87	46389.42
574.03	45984.51
574.20	46050.04
574.36	45652.15
574.52	46284.09
574.68	46078.13
574.84	46693.69
575.01	46469.00
575.17	46017.27
575.33	46291.12
575.49	46033.66
575.65	46424.53
575.82	46508.79
575.98	46131.96
576.14	46623.47
576.30	46775.61
576.46	46155.36
576.62	46216.22
576.79	46295.80
576.95	46143.66
577.11	46239.62
577.27	46347.29
577.43	46272.39
577.59	45979.82
577.75	46298.14
577.92	45865.14
578.08	45808.96
578.24	46089.83
578.40	46150.68
578.56	46328.56
578.72	46199.83
578.88	46588.36
579.04	46733.48
579.21	46284.09
579.37	46188.13
579.53	46438.57
579.69	46167.07
579.85	46204.52
580.01	46487.72
580.17	46103.87
580.33	46483.04
580.49	46216.22
580.65	46230.26
580.82	46373.03
580.98	46216.22
581.14	46515.81
581.30	46738.16
581.46	46300.48
581.62	46579.00
581.78	46513.47
581.94	46955.83
582.10	46174.09
582.26	46892.63
582.42	46471.34
582.58	46195.15
582.74	46206.86
582.90	46176.43
583.06	46569.64
583.22	46541.55
583.38	46387.08
583.54	46314.52
583.70	46602.41
583.86	46389.42
584.02	46204.52
584.18	46087.49
584.34	46850.50
584.50	46433.89
584.66	46506.44
584.82	46286.43
584.98	46775.61
585.14	46391.76
585.30	46485.38
585.46	46312.18
585.62	46195.15
585.78	46504.10
585.94	45883.86
586.10	46593.04
586.26	46508.79
586.42	46412.82
586.58	46887.95
586.74	46326.22
586.90	46263.03
587.06	46543.89
587.22	46370.69
587.38	46511.13
587.54	46337.93
587.70	46721.77
587.86	46543.89
588.02	46384.74
588.18	46590.70
588.34	46513.47
588.49	46335.59
588.65	45956.42
588.81	46026.63
588.97	46092.17
589.13	45776.20
589.29	45991.53
589.45	46356.65
589.61	46403.46
589.77	46429.21
589.93	46480.70
