SpectraSuite Data File
++++++++++++++++++++++++++++++++++++
Date: Fri Oct 25 10:43:39 EDT 2013
User: price-jones
Dark Spectrum Present: No
Reference Spectrum Present: No
Number of Sampled Component Spectra: 1
Spectrometers: USB2+H05261
Integration Time (usec): 100000 (USB2+H05261)
Spectra Averaged: 1 (USB2+H05261)
Boxcar Smoothing: 0 (USB2+H05261)
Correct for Electrical Dark: No (USB2+H05261)
Strobe/Lamp Enabled: No (USB2+H05261)
Correct for Detector Non-linearity: No (USB2+H05261)
Correct for Stray Light: No (USB2+H05261)
Number of Pixels in Processed Spectrum: 2048
>>>>>Begin Processed Spectral Data<<<<<
365.73	138.09
365.92	138.09
366.12	138.09
366.32	56.17
366.52	0.00
366.72	0.00
366.91	16.38
367.11	0.00
367.31	0.00
367.51	51.49
367.70	44.47
367.90	7.02
368.10	39.79
368.30	46.81
368.49	0.00
368.69	11.70
368.89	4.68
369.09	14.04
369.28	65.54
369.48	46.81
369.68	105.32
369.87	81.92
370.07	58.51
370.27	142.77
370.47	177.88
370.66	482.15
370.86	454.06
371.06	472.79
371.25	517.26
371.45	386.19
371.65	507.90
371.84	442.36
372.04	414.27
372.24	540.66
372.44	383.85
372.63	503.22
372.83	587.47
373.03	510.24
373.22	498.53
373.42	531.30
373.62	550.03
373.81	582.79
374.01	547.69
374.21	517.26
374.40	512.58
374.60	533.64
374.79	545.34
374.99	559.39
375.19	603.86
375.38	596.84
375.58	571.09
375.78	617.90
375.97	622.58
376.17	613.22
376.37	575.77
376.56	580.45
376.76	601.52
376.95	622.58
377.15	629.60
377.35	709.18
377.54	685.78
377.74	638.97
377.93	655.35
378.13	674.07
378.33	641.31
378.52	608.54
378.72	669.39
378.91	676.41
379.11	601.52
379.31	690.46
379.50	739.61
379.70	648.33
379.89	741.95
380.09	741.95
380.28	688.12
380.48	744.29
380.68	676.41
380.87	767.70
381.07	662.37
381.26	816.85
381.46	779.40
381.65	695.14
381.85	681.10
382.04	657.69
382.24	683.44
382.43	718.54
382.63	627.26
382.83	645.99
383.02	751.31
383.22	730.25
383.41	702.16
383.61	739.61
383.80	732.59
384.00	669.39
384.19	755.99
384.39	720.88
384.58	861.32
384.78	809.83
384.97	814.51
385.17	791.10
385.36	833.23
385.56	882.38
385.75	837.91
385.95	828.55
386.14	844.93
386.34	858.98
386.53	751.31
386.72	774.72
386.92	842.59
387.11	802.80
387.31	922.17
387.50	866.00
387.70	842.59
387.89	887.06
388.09	926.85
388.28	894.08
388.48	884.72
388.67	910.47
388.86	931.53
389.06	997.07
389.25	987.71
389.45	978.34
389.64	922.17
389.84	1001.75
390.03	987.71
390.22	1132.82
390.42	964.30
390.61	1053.24
390.81	1020.47
391.00	1128.14
391.19	1071.97
391.39	1034.52
391.58	1093.03
391.78	954.94
391.97	1018.13
392.16	997.07
392.36	1111.75
392.55	1020.47
392.75	1088.35
392.94	908.13
393.13	992.39
393.33	1046.22
393.52	1034.52
393.71	1095.37
393.91	1181.97
394.10	1128.14
394.29	1118.78
394.49	1186.65
394.68	1193.67
394.88	1240.48
395.07	1331.76
395.26	1214.74
395.46	1210.06
395.65	1186.65
395.84	1200.69
396.04	1313.04
396.23	1146.86
396.42	1200.69
396.62	1139.84
396.81	1245.16
397.00	1238.14
397.19	1256.87
397.39	1308.36
397.58	1387.94
397.77	1390.28
397.97	1476.88
398.16	1392.62
398.35	1399.64
398.55	1535.39
398.74	1502.62
398.93	1603.27
399.12	1549.43
399.32	1521.35
399.51	1483.90
399.70	1617.31
399.90	1570.50
400.09	1577.52
400.28	1607.95
400.47	1535.39
400.67	1586.88
400.86	1689.87
401.05	1640.72
401.24	1729.66
401.44	1764.76
401.63	1834.98
401.82	1734.34
402.01	1748.38
402.21	1865.41
402.40	1729.66
402.59	1696.89
402.78	1785.83
402.97	1790.51
403.17	1781.15
403.36	1788.17
403.55	1947.33
403.74	1930.94
403.93	1851.36
404.13	1914.56
404.32	1837.32
404.51	1933.28
404.70	1961.37
404.89	1902.86
405.09	2022.22
405.28	1900.52
405.47	1928.60
405.66	1940.30
405.85	1966.05
406.05	1984.77
406.24	2003.50
406.43	1996.48
406.62	2054.99
406.81	2176.70
407.00	2148.61
407.20	2017.54
407.39	2115.84
407.58	2214.15
407.77	2197.76
407.96	2291.38
408.15	2200.10
408.34	2223.51
408.54	2410.75
408.73	2317.13
408.92	2345.22
409.11	2370.96
409.30	2335.85
409.49	2314.79
409.68	2303.09
409.87	2354.58
410.07	2389.69
410.26	2282.02
410.45	2406.07
410.64	2485.65
410.83	2527.78
411.02	2663.53
411.21	2590.97
411.40	2626.08
411.59	2600.34
411.78	2628.42
411.98	2710.34
412.17	2799.28
412.36	2640.12
412.55	2766.51
412.74	2768.85
412.93	2843.75
413.12	2855.45
413.31	2944.39
413.50	2846.09
413.69	2775.88
413.88	2981.84
414.07	2902.26
414.26	2977.16
414.45	2942.05
414.64	3005.25
414.83	3070.78
415.02	3059.08
415.22	3047.38
415.41	3229.94
415.60	3211.22
415.79	3117.59
415.98	3290.79
416.17	3314.20
416.36	3152.70
416.55	3288.45
416.74	3288.45
416.93	3335.26
417.12	3262.71
417.31	3419.52
417.50	3328.24
417.69	3372.71
417.88	3410.16
418.07	3461.65
418.26	3428.88
418.45	3508.46
418.64	3637.19
418.83	3620.81
419.02	3590.38
419.21	3583.36
419.39	3620.81
419.58	3611.45
419.77	3665.28
419.96	3765.92
420.15	3775.28
420.34	3719.11
420.53	3967.21
420.72	3915.72
420.91	3939.12
421.10	3918.06
421.29	3913.38
421.48	3854.86
421.67	3801.03
421.86	3850.18
422.05	3786.99
422.24	3728.47
422.43	3740.18
422.61	3922.74
422.80	4093.60
422.99	3829.12
423.18	3836.14
423.37	3988.27
423.56	3911.04
423.75	4051.47
423.94	3850.18
424.13	3669.96
424.32	3985.93
424.50	3882.95
424.69	4086.58
424.88	3981.25
425.07	3939.12
425.26	3866.56
425.45	3969.55
425.64	4011.68
425.83	3932.10
426.01	4046.79
426.20	4002.32
426.39	4009.34
426.58	3906.35
426.77	3983.59
426.96	4037.42
427.15	3988.27
427.33	4140.41
427.52	4051.47
427.71	4105.30
427.90	4168.49
428.09	4273.82
428.28	4252.75
428.46	4217.65
428.65	4257.43
428.84	4400.21
429.03	4203.60
429.22	4117.00
429.40	4191.90
429.59	4175.52
429.78	4018.70
429.97	4112.32
430.16	4053.81
430.34	4231.69
430.53	4222.33
430.72	4222.33
430.91	4241.05
431.10	4299.56
431.28	4617.88
431.47	4748.95
431.66	4849.59
431.85	4685.75
432.03	4676.39
432.22	4688.09
432.41	4418.93
432.60	4805.12
432.79	4615.54
432.97	4746.61
433.16	4774.69
433.35	4559.36
433.54	4592.13
433.72	4702.14
433.91	4737.24
434.10	4856.61
434.28	4760.65
434.47	4887.04
434.66	4922.15
434.85	4957.25
435.03	4943.21
435.22	4952.57
435.41	5263.86
435.59	5076.62
435.78	4985.34
435.97	5219.39
436.16	5100.03
436.34	5078.96
436.53	5177.26
436.72	5343.44
436.90	5036.83
437.09	5411.32
437.28	5146.84
437.46	5329.40
437.65	5313.02
437.84	5256.84
438.02	5191.31
438.21	5125.77
438.40	5212.37
438.58	5416.00
438.77	5291.95
438.96	5345.78
439.14	5558.77
439.33	5659.42
439.52	5640.69
439.70	5727.29
439.89	5921.56
440.08	5781.12
440.26	5771.76
440.45	5820.91
440.63	6026.88
440.82	6183.70
441.01	5951.98
441.19	6179.01
441.38	6129.86
441.57	6148.59
441.75	6181.35
441.94	6319.45
442.12	6174.33
442.31	6469.24
442.50	6380.30
442.68	6441.15
442.87	6469.24
443.05	6682.23
443.24	6532.44
443.43	6518.39
443.61	6443.49
443.80	6705.63
443.98	6389.66
444.17	6258.59
444.35	6619.04
444.54	6789.89
444.73	6654.14
444.91	6621.38
445.10	6593.29
445.28	6607.33
445.47	6516.05
445.65	6424.77
445.84	6593.29
446.02	6771.17
446.21	6712.66
446.39	6576.91
446.58	6757.13
446.77	6609.67
446.95	6668.19
447.14	6855.43
447.32	7152.68
447.51	6726.70
447.69	6881.18
447.88	6848.41
448.06	6710.32
448.25	6867.13
448.43	6799.26
448.62	7023.95
448.80	6796.92
448.99	6810.96
449.17	6960.75
449.36	7082.46
449.54	6970.12
449.73	6979.48
449.91	7201.83
450.10	7185.44
450.28	7440.56
450.46	7110.55
450.65	7307.15
450.83	7332.90
451.02	7155.02
451.20	7398.43
451.39	7265.02
451.57	7311.83
451.76	7140.97
451.94	7293.11
452.13	7337.58
452.31	7054.37
452.49	7035.65
452.68	7180.76
452.86	7412.48
453.05	7311.83
453.23	7297.79
453.42	7440.56
453.60	7468.65
453.78	7662.91
453.97	7302.47
454.15	7435.88
454.34	7510.78
454.52	7543.55
454.70	7634.83
454.89	7707.38
455.07	7566.95
455.26	7623.12
455.44	7948.46
455.62	7836.11
455.81	8030.38
455.99	7847.82
456.17	7990.59
456.36	8023.36
456.54	7861.86
456.73	8011.65
456.91	8257.41
457.09	8294.86
457.28	8585.08
457.46	8140.38
457.64	8292.52
457.83	8297.20
458.01	8292.52
458.19	8292.52
458.38	8112.30
458.56	8458.70
458.74	8318.26
458.93	8285.50
459.11	8397.84
459.29	8404.86
459.48	8521.89
459.66	8414.23
459.84	8571.04
460.03	8765.31
460.21	8685.73
460.39	8444.65
460.57	8596.79
460.76	8538.27
460.94	8615.51
461.12	8526.57
461.31	8720.84
461.49	8861.27
461.67	8662.32
461.85	8964.25
462.04	8891.70
462.22	9303.63
462.40	8872.97
462.59	8908.08
462.77	9025.11
462.95	9123.41
463.13	8868.29
463.32	8898.72
463.50	8997.02
463.68	9202.99
463.86	9165.54
464.05	9083.62
464.23	8929.14
464.41	9001.70
464.59	8994.68
464.78	9322.35
464.96	9210.01
465.14	9224.05
465.32	9425.34
465.50	9315.33
465.69	9413.63
465.87	9249.80
466.05	9217.03
466.23	9174.90
466.41	9380.87
466.60	9320.01
466.78	9163.20
466.96	9303.63
467.14	9404.27
467.32	9483.85
467.51	9778.76
467.69	9245.12
467.87	9511.94
468.05	9570.45
468.23	9441.72
468.41	9659.39
468.60	9294.27
468.78	9736.63
468.96	9554.07
469.14	9650.03
469.32	9650.03
469.50	9476.83
469.69	9785.78
469.87	10054.94
470.05	10008.13
470.23	10005.79
470.41	9975.36
470.59	10003.45
470.77	9984.73
470.95	10118.14
471.14	10162.61
471.32	10120.48
471.50	10403.68
471.68	10394.32
471.86	10487.94
472.04	10244.52
472.22	10649.44
472.40	10190.69
472.58	10476.24
472.77	10733.70
472.95	10778.17
473.13	11049.67
473.31	10579.22
473.49	10689.23
473.67	10544.11
473.85	10911.58
474.03	11033.29
474.21	11250.96
474.39	11206.48
474.57	11176.06
474.75	11281.38
474.93	11569.27
475.12	11318.83
475.30	11346.92
475.48	11424.15
475.66	11318.83
475.84	11473.31
476.02	11562.25
476.20	11515.44
476.38	11749.49
476.56	12119.29
476.74	11985.88
476.92	12058.44
477.10	12044.40
477.28	12028.01
477.46	12098.23
477.64	12498.46
477.82	12718.47
478.00	12856.56
478.18	12737.20
478.36	12650.60
478.54	12702.09
478.72	12840.18
478.90	13048.49
479.08	13109.34
479.26	13289.56
479.44	13397.23
479.62	13226.37
479.80	13439.36
479.98	13757.67
480.16	13760.01
480.34	13708.52
480.52	13832.57
480.70	13987.04
480.88	13926.19
481.06	14139.18
481.24	14197.69
481.41	14312.38
481.59	14417.70
481.77	14497.28
481.95	14476.21
482.13	14864.74
482.31	14595.58
482.49	14939.64
482.67	14801.55
482.85	14974.75
483.03	15332.85
483.21	15403.07
483.39	15655.84
483.57	15428.81
483.74	15573.92
483.92	15934.37
484.10	15761.17
484.28	15868.83
484.46	16093.52
484.64	16437.58
484.82	16198.85
485.00	16390.77
485.18	16421.20
485.35	16470.35
485.53	16301.83
485.71	16182.46
485.89	16699.72
486.07	16552.27
486.25	16774.62
486.43	17116.34
486.61	17259.11
486.78	17507.21
486.96	17362.09
487.14	17874.67
487.32	17937.87
487.50	18005.74
487.68	18087.66
487.85	18768.76
488.03	18532.36
488.21	18677.48
488.39	18735.99
488.57	18794.50
488.75	18841.31
488.92	19466.24
489.10	19346.87
489.28	19779.87
489.46	19749.44
489.64	19768.16
489.81	20395.43
489.99	20219.89
490.17	20432.88
490.35	20755.87
490.53	20423.51
490.70	20807.36
490.88	20908.01
491.06	21165.46
491.24	20807.36
491.41	20751.19
491.59	21046.10
491.77	21046.10
491.95	21060.14
492.13	21558.67
492.30	21757.62
492.48	21703.79
492.66	22087.64
492.84	22047.85
493.01	22394.25
493.19	22139.13
493.37	22483.19
493.54	22225.73
493.72	22815.54
493.90	23009.81
494.08	22820.22
494.25	23433.44
494.43	23557.49
494.61	23922.62
494.79	23613.66
494.96	23786.86
495.14	23838.36
495.32	23875.80
495.49	23747.08
495.67	23997.51
495.85	24271.36
496.02	24694.99
496.20	24467.96
496.38	24720.74
496.55	24538.18
496.73	25364.39
496.91	25165.44
497.09	25158.42
497.26	25399.49
497.44	25050.75
497.62	25544.61
497.79	25523.54
497.97	25434.60
498.14	26022.08
498.32	26206.98
498.50	25958.88
498.67	26658.70
498.85	26398.90
499.03	26457.42
499.20	26331.03
499.38	26422.31
499.56	26553.38
499.73	26801.47
499.91	26764.03
500.08	26696.15
500.26	26522.95
500.44	26991.06
500.61	27012.12
500.79	26831.90
500.97	27096.38
501.14	27438.10
501.32	27473.21
501.49	27192.34
501.67	27435.76
501.84	27527.04
502.02	27744.71
502.20	27999.83
502.37	28063.02
502.55	28175.37
502.72	28119.20
502.90	28238.56
503.07	28177.71
503.25	28379.00
503.43	28329.84
503.60	28451.55
503.78	28264.31
503.95	28350.91
504.13	28566.24
504.30	29081.16
504.48	28875.19
504.65	29266.06
504.83	29092.86
505.01	29535.22
505.18	29249.67
505.36	29783.32
505.53	29556.28
505.71	29855.87
505.88	30071.20
506.06	29727.14
506.23	29954.18
506.41	29851.19
506.58	29900.34
506.76	30281.85
506.93	30513.56
507.11	30043.12
507.28	30534.63
507.46	30321.64
507.63	30115.67
507.81	30452.71
507.98	30160.14
508.16	31014.44
508.33	30543.99
508.50	31016.78
508.68	30834.22
508.85	31494.25
509.03	31585.53
509.20	31480.21
509.38	31372.54
509.55	31805.54
509.73	31845.33
509.90	31550.42
510.08	31519.99
510.25	31328.07
510.42	32039.59
510.60	32428.12
510.77	32247.90
510.95	32435.14
511.12	32065.34
511.30	32135.56
511.47	32788.56
511.64	32821.33
511.82	32577.92
511.99	32751.12
512.17	32273.65
512.34	32180.03
512.51	32802.61
512.69	33085.81
512.86	32842.40
513.04	33055.39
513.21	33233.27
513.38	33083.47
513.56	33310.50
513.73	33069.43
513.90	33530.51
514.08	33446.26
514.25	33453.28
514.43	33509.45
514.60	33429.87
514.77	33589.03
514.95	34085.22
515.12	33453.28
515.29	33567.96
515.47	34085.22
515.64	34478.43
515.81	33865.21
515.99	33954.15
516.16	34389.49
516.33	33893.30
516.51	34160.12
516.68	33549.24
516.85	33572.64
517.03	33876.91
517.20	34398.85
517.37	34731.21
517.54	34616.52
517.72	34625.89
517.89	34508.86
518.06	33989.26
518.24	34309.91
518.41	34590.78
518.58	34705.46
518.75	34998.03
518.93	35136.12
519.10	34827.17
519.27	35199.32
519.45	35199.32
519.62	35704.87
519.79	35920.20
519.96	35489.54
520.14	35328.05
520.31	35122.08
520.48	35707.21
520.65	35915.52
520.83	36077.02
521.00	36114.47
521.17	36250.22
521.34	36261.92
521.52	36292.35
521.69	36444.48
521.86	36701.94
522.03	36664.49
522.20	37123.24
522.38	36807.26
522.55	36315.75
522.72	36079.36
522.89	37062.38
523.07	36854.08
523.24	36648.11
523.41	36847.05
523.58	36886.84
523.75	37460.27
523.92	37612.41
524.10	37282.39
524.27	37720.07
524.44	37422.83
524.61	37699.01
524.78	37483.68
524.96	37617.09
525.13	37694.33
525.30	37830.08
525.47	38340.32
525.64	38038.39
525.81	38117.96
525.98	37996.26
526.16	38061.79
526.33	37799.65
526.50	37797.31
526.67	37687.31
526.84	37759.86
527.01	37748.16
527.18	38209.25
527.36	38492.45
527.53	38972.26
527.70	38677.35
527.87	38778.00
528.04	38007.96
528.21	38714.80
528.38	38735.87
528.55	38749.91
528.72	39175.89
528.89	39353.77
529.07	38934.81
529.24	38728.84
529.41	38918.43
529.58	39267.17
529.75	38981.62
529.92	39070.56
530.09	39398.24
530.26	39353.77
530.43	39529.31
530.60	39187.59
530.77	39555.05
530.94	40170.61
531.11	39679.10
531.28	39236.74
531.46	39906.13
531.63	39800.81
531.80	39835.92
531.97	39674.42
532.14	39620.59
532.31	39435.69
532.48	39807.83
532.65	39615.91
532.82	39840.60
532.99	39751.66
533.16	39903.79
533.33	40198.70
533.50	40528.72
533.67	40289.98
533.84	40423.39
534.01	40575.53
534.18	40254.87
534.35	40931.29
534.52	40521.69
534.69	40718.30
534.86	40935.97
535.03	40669.15
535.20	40900.86
535.37	41474.29
535.54	41418.12
535.71	41015.55
535.88	40952.35
536.05	40566.16
536.22	41223.86
536.38	41179.39
536.55	40753.41
536.72	41006.19
536.89	40734.68
537.06	40781.49
537.23	41055.34
537.40	41312.80
537.57	41455.57
537.74	41729.41
537.91	41708.35
538.08	41511.74
538.25	41333.86
538.42	41174.70
538.59	41694.30
538.75	40854.05
538.92	41399.40
539.09	41783.24
539.26	41713.03
539.43	41670.90
539.60	41467.27
539.77	41570.25
539.94	41844.10
540.11	41525.78
540.28	41855.80
540.44	41907.29
540.61	41820.69
540.78	41668.56
540.95	41588.98
541.12	41483.66
541.29	42057.09
541.46	42021.98
541.62	42270.08
541.79	41855.80
541.96	42014.96
542.13	42204.54
542.30	42139.00
542.47	42679.67
542.63	42438.59
542.80	42127.30
542.97	42258.37
543.14	42703.07
543.31	43105.65
543.48	42958.19
543.64	43098.62
543.81	43175.86
543.98	43058.84
544.15	42988.62
544.32	43138.41
544.48	43660.35
544.65	42958.19
544.82	43100.97
544.99	43208.63
545.16	43082.24
545.32	43145.44
545.49	43332.68
545.66	44184.63
545.83	43353.74
546.00	43662.69
546.16	43372.47
546.33	43461.41
546.50	43325.66
546.67	43821.85
546.83	43196.93
547.00	43227.35
547.17	43920.15
547.34	43077.56
547.50	43372.47
547.67	43426.30
547.84	43852.28
548.00	43913.13
548.17	43749.29
548.34	43959.94
548.51	44175.27
548.67	44264.21
548.84	43896.75
549.01	43686.10
549.18	43700.14
549.34	44254.85
549.51	44411.67
549.68	44596.57
549.84	44423.37
550.01	44142.50
550.18	44067.61
550.34	44189.31
550.51	44287.62
550.68	44683.17
550.84	43339.70
551.01	44257.19
551.18	44495.92
551.34	43913.13
551.51	44449.11
551.68	44437.41
551.84	44479.54
552.01	44549.76
552.18	44662.10
552.34	44662.10
552.51	44641.04
552.68	44247.83
552.84	44350.81
553.01	44729.98
553.18	44933.60
553.34	44975.73
553.51	44477.20
553.67	44767.43
553.84	45153.62
554.01	44914.88
554.17	45170.00
554.34	45162.98
554.51	45289.37
554.67	44940.63
554.84	45188.72
555.00	44821.26
555.17	44935.95
555.33	44657.42
555.50	44935.95
555.67	45315.11
555.83	45427.46
556.00	44891.48
556.16	45312.77
556.33	45223.83
556.50	45083.40
556.66	44935.95
556.83	45071.70
556.99	45097.44
557.16	45282.34
557.32	45406.39
557.49	45750.45
557.65	45209.79
557.82	45275.32
557.98	45661.51
558.15	44891.48
558.32	45357.24
558.48	44711.25
558.65	45188.72
558.81	45329.16
558.98	45193.40
559.14	45347.88
559.31	44924.24
559.47	45315.11
559.64	45436.82
559.80	45628.74
559.97	45418.10
560.13	45345.54
560.30	45617.04
560.46	45696.62
560.63	45886.20
560.79	45514.06
560.96	45750.45
561.12	45713.00
561.29	45731.73
561.45	45441.50
561.61	45687.26
561.78	45490.65
561.94	45450.86
562.11	45123.19
562.27	45617.04
562.44	45900.25
562.60	45588.95
562.77	45455.54
562.93	45401.71
563.10	46007.91
563.26	45682.58
563.42	45844.07
563.59	45783.22
563.75	45858.12
563.92	45890.88
564.08	45963.44
564.24	46206.86
564.41	45736.41
564.57	45958.76
564.74	45574.91
564.90	45766.84
565.07	45729.39
565.23	46237.28
565.39	46019.61
565.56	45965.78
565.72	45741.09
565.88	45996.21
566.05	45715.34
566.21	45659.17
566.38	45921.31
566.54	45963.44
566.70	46103.87
566.87	46375.37
567.03	46169.41
567.19	46445.59
567.36	46171.75
567.52	46253.67
567.68	46099.19
567.85	45996.21
568.01	45968.12
568.17	45993.87
568.34	46007.91
568.50	45858.12
568.66	45954.08
568.83	46447.93
568.99	45661.51
569.15	45769.18
569.32	46071.10
569.48	46291.12
569.64	46101.53
569.81	46017.27
569.97	46099.19
570.13	46124.94
570.30	45841.73
570.46	45593.64
570.62	45392.35
570.78	45715.34
570.95	46010.25
571.11	45998.55
571.27	46185.79
571.43	46003.23
571.60	46300.48
571.76	46155.36
571.92	46279.41
572.09	46401.12
572.25	46047.70
572.41	46410.48
572.57	46717.09
572.74	46719.43
572.90	46256.01
573.06	46312.18
573.22	46113.23
573.38	45900.25
573.55	46096.85
573.71	46401.12
573.87	46539.21
574.03	46122.60
574.20	46335.59
574.36	46157.70
574.52	46328.56
574.68	46012.59
574.84	46019.61
575.01	45996.21
575.17	46237.28
575.33	46033.66
575.49	46153.02
575.65	46148.34
575.82	46405.80
575.98	46197.49
576.14	46335.59
576.30	46728.80
576.46	46045.36
576.62	46103.87
576.79	46164.73
576.95	46476.02
577.11	45998.55
577.27	46887.95
577.43	46157.70
577.59	46316.86
577.75	46146.00
577.92	45965.78
578.08	46178.77
578.24	45942.38
578.40	46220.90
578.56	45986.85
578.72	46171.75
578.88	46305.16
579.04	46525.17
579.21	46267.71
579.37	45830.03
579.53	46328.56
579.69	46167.07
579.85	46312.18
580.01	46204.52
580.17	46436.23
580.33	46466.66
580.49	46600.07
580.65	46141.32
580.82	46466.66
580.98	46265.37
581.14	45937.69
581.30	46405.80
581.46	46478.36
581.62	46614.11
581.78	46562.62
581.94	46918.38
582.10	46609.43
582.26	46129.62
582.42	46691.35
582.58	46770.93
582.74	46366.01
582.90	46579.00
583.06	46728.80
583.22	46539.21
583.38	46962.85
583.54	46459.63
583.70	47070.51
583.86	46373.03
584.02	46274.73
584.18	46618.79
584.34	46689.01
584.50	46431.55
584.66	46103.87
584.82	46298.14
584.98	46590.70
585.14	46300.48
585.30	46293.46
585.46	46171.75
585.62	46246.65
585.78	45727.05
585.94	45759.81
586.10	46127.28
586.26	46213.88
586.42	46869.23
586.58	46609.43
586.74	46431.55
586.90	46480.70
587.06	46183.45
587.22	46543.89
587.38	46492.40
587.54	46494.74
587.70	46784.97
587.86	46412.82
588.02	46518.15
588.18	46422.19
588.34	46562.62
588.49	45687.26
588.65	45844.07
588.81	46286.43
588.97	46082.81
589.13	46160.05
589.29	46401.12
589.45	46052.38
589.61	46195.15
589.77	46518.15
589.93	46361.33
