SpectraSuite Data File
++++++++++++++++++++++++++++++++++++
Date: Fri Oct 25 11:25:33 EDT 2013
User: price-jones
Dark Spectrum Present: No
Reference Spectrum Present: No
Number of Sampled Component Spectra: 1
Spectrometers: USB2+H05261
Integration Time (usec): 100000 (USB2+H05261)
Spectra Averaged: 1 (USB2+H05261)
Boxcar Smoothing: 0 (USB2+H05261)
Correct for Electrical Dark: No (USB2+H05261)
Strobe/Lamp Enabled: No (USB2+H05261)
Correct for Detector Non-linearity: No (USB2+H05261)
Correct for Stray Light: No (USB2+H05261)
Number of Pixels in Processed Spectrum: 2048
>>>>>Begin Processed Spectral Data<<<<<
365.73	201.29
365.92	201.29
366.12	201.29
366.32	117.03
366.52	119.37
366.72	107.66
366.91	184.90
367.11	60.85
367.31	124.05
367.51	168.52
367.70	98.30
367.90	107.66
368.10	114.69
368.30	70.22
368.49	173.20
368.69	140.43
368.89	210.65
369.09	147.45
369.28	168.52
369.48	212.99
369.68	241.08
369.87	173.20
370.07	145.11
370.27	210.65
370.47	313.63
370.66	477.47
370.86	627.26
371.06	615.56
371.25	645.99
371.45	709.18
371.65	655.35
371.84	683.44
372.04	727.91
372.24	711.52
372.44	674.07
372.63	711.52
372.83	767.70
373.03	765.36
373.22	828.55
373.42	807.48
373.62	753.65
373.81	807.48
374.01	861.32
374.21	809.83
374.40	812.17
374.60	814.51
374.79	767.70
374.99	802.80
375.19	854.30
375.38	840.25
375.58	809.83
375.78	896.43
375.97	833.23
376.17	805.14
376.37	971.32
376.56	856.64
376.76	875.36
376.95	807.48
377.15	844.93
377.35	933.87
377.54	861.32
377.74	884.72
377.93	882.38
378.13	933.87
378.33	858.98
378.52	926.85
378.72	929.19
378.91	959.62
379.11	987.71
379.31	994.73
379.50	851.96
379.70	1029.84
379.89	1041.54
380.09	933.87
380.28	1027.50
380.48	997.07
380.68	997.07
380.87	950.26
381.07	1039.20
381.26	1069.62
381.46	1013.45
381.65	1062.60
381.85	1001.75
382.04	1041.54
382.24	1057.92
382.43	1041.54
382.63	1057.92
382.83	1043.88
383.02	1083.67
383.22	1233.46
383.41	1062.60
383.61	1184.31
383.80	1121.12
384.00	1104.73
384.19	1191.33
384.39	1142.18
384.58	1111.75
384.78	1109.41
384.97	1177.29
385.17	1174.95
385.36	1146.86
385.56	1228.78
385.75	1121.12
385.95	1235.80
386.14	1249.85
386.34	1191.33
386.53	1221.76
386.72	1153.88
386.92	1219.42
387.11	1210.06
387.31	1263.89
387.50	1205.38
387.70	1247.51
387.89	1231.12
388.09	1259.21
388.28	1247.51
388.48	1245.16
388.67	1235.80
388.86	1315.38
389.06	1280.27
389.25	1343.47
389.45	1341.13
389.64	1345.81
389.84	1357.51
390.03	1371.55
390.22	1336.45
390.42	1387.94
390.61	1401.98
390.81	1301.34
391.00	1420.71
391.19	1416.02
391.39	1338.79
391.58	1495.60
391.78	1469.86
391.97	1526.03
392.16	1528.37
392.36	1404.32
392.55	1451.13
392.75	1479.22
392.94	1514.33
393.13	1490.92
393.33	1507.30
393.52	1488.58
393.71	1523.69
393.91	1603.27
394.10	1640.72
394.29	1671.14
394.49	1614.97
394.68	1659.44
394.88	1671.14
395.07	1572.84
395.26	1664.12
395.46	1605.61
395.65	1645.40
395.84	1748.38
396.04	1713.27
396.23	1757.74
396.42	1820.94
396.62	1729.66
396.81	1746.04
397.00	1753.06
397.19	1874.77
397.39	1680.50
397.58	1823.28
397.77	1699.23
397.97	1888.81
398.16	1844.34
398.35	1867.75
398.55	1799.87
398.74	1937.96
398.93	2022.22
399.12	1912.22
399.32	1830.30
399.51	1963.71
399.70	1907.54
399.90	2003.50
400.09	2047.97
400.28	2038.61
400.47	2064.35
400.67	2132.23
400.86	2001.16
401.05	2092.44
401.24	1989.46
401.44	2127.55
401.63	2186.06
401.82	2132.23
402.01	2160.31
402.21	2094.78
402.40	2064.35
402.59	2129.89
402.78	2125.21
402.97	2256.28
403.17	2265.64
403.36	2211.81
403.55	2275.00
403.74	2300.75
403.93	2429.48
404.13	2340.54
404.32	2389.69
404.51	2207.13
404.70	2310.11
404.89	2385.01
405.09	2382.67
405.28	2551.18
405.47	2487.99
405.66	2502.03
405.85	2551.18
406.05	2429.48
406.24	2485.65
406.43	2495.01
406.62	2675.23
406.81	2647.15
407.00	2553.52
407.20	2537.14
407.39	2597.99
407.58	2665.87
407.77	2869.50
407.96	2757.15
408.15	2771.19
408.34	2717.36
408.54	2726.72
408.73	2775.88
408.92	2780.56
409.11	2815.66
409.30	2803.96
409.49	2862.48
409.68	2761.83
409.87	2890.56
410.07	2988.86
410.26	3056.74
410.45	2935.03
410.64	3075.46
410.83	3159.72
411.02	3091.85
411.21	3183.13
411.40	3124.62
411.59	3145.68
411.78	3267.39
411.98	3159.72
412.17	3138.66
412.36	3225.26
412.55	3297.81
412.74	3330.58
412.93	3325.90
413.12	3344.63
413.31	3604.42
413.50	3482.72
413.69	3487.40
413.88	3529.53
414.07	3681.66
414.26	3620.81
414.45	3571.66
414.64	3641.87
414.83	3789.33
415.02	3805.71
415.22	3786.99
415.41	3777.62
415.60	3758.90
415.79	3789.33
415.98	3894.65
416.17	3861.88
416.36	3988.27
416.55	4053.81
416.74	4133.39
416.93	4051.47
417.12	4091.26
417.31	4222.33
417.50	4147.43
417.69	4236.37
417.88	4236.37
418.07	4208.28
418.26	4173.18
418.45	4489.15
418.64	4486.81
418.83	4461.06
419.02	4318.29
419.21	4540.64
419.39	4435.32
419.58	4416.59
419.77	4524.26
419.96	4627.24
420.15	4566.39
420.34	4491.49
420.53	4641.28
420.72	4671.71
420.91	4690.43
421.10	4758.31
421.29	4821.50
421.48	4720.86
421.67	4873.00
421.86	4774.69
422.05	4851.93
422.24	4807.46
422.43	4882.36
422.61	4915.12
422.80	4957.25
422.99	4922.15
423.18	4779.37
423.37	4929.17
423.56	4985.34
423.75	4903.42
423.94	4861.29
424.13	4613.20
424.32	4699.80
424.50	5121.09
424.69	5057.90
424.88	4952.57
425.07	4873.00
425.26	4884.70
425.45	4924.49
425.64	4903.42
425.83	4912.78
426.01	4983.00
426.20	5041.51
426.39	4994.70
426.58	4940.87
426.77	5102.37
426.96	5097.69
427.15	5205.35
427.33	5123.43
427.52	5097.69
427.71	5172.58
427.90	5371.53
428.09	5404.30
428.28	5301.31
428.46	5387.91
428.65	5345.78
428.84	5425.36
429.03	5518.98
429.22	5135.14
429.40	5434.72
429.59	5476.85
429.78	5240.46
429.97	5184.29
430.16	5380.89
430.34	5572.82
430.53	5757.72
430.72	5673.46
430.91	5476.85
431.10	5408.98
431.28	5816.23
431.47	5858.36
431.66	5776.44
431.85	5678.14
432.03	5849.00
432.22	5975.39
432.41	5774.10
432.60	5717.93
432.79	5973.05
432.97	5926.24
433.16	5940.28
433.35	5919.21
433.54	5951.98
433.72	6087.73
433.91	6244.55
434.10	6033.90
434.28	6031.56
434.47	6125.18
434.66	6111.14
434.85	6328.81
435.03	6389.66
435.22	6186.04
435.41	6483.28
435.59	6403.71
435.78	6370.94
435.97	6333.49
436.16	6296.04
436.34	6338.17
436.53	6499.67
436.72	6719.68
436.90	6441.15
437.09	6525.41
437.28	6455.20
437.46	6832.02
437.65	6726.70
437.84	6703.29
438.02	6700.95
438.21	6853.09
438.40	6548.82
438.58	6832.02
438.77	6810.96
438.96	6897.56
439.14	7089.48
439.33	7220.55
439.52	7087.14
439.70	7197.15
439.89	7218.21
440.08	7541.21
440.26	7321.20
440.45	7297.79
440.63	7316.51
440.82	7683.98
441.01	7375.03
441.19	7494.40
441.38	7588.02
441.57	7618.44
441.75	7602.06
441.94	7896.97
442.12	7929.74
442.31	7992.93
442.50	8149.75
442.68	8149.75
442.87	8002.29
443.05	7974.21
443.24	8147.40
443.43	8084.21
443.61	8032.72
443.80	8348.69
443.98	7971.86
444.17	7723.77
444.35	8145.06
444.54	8386.14
444.73	8114.64
444.91	8191.88
445.10	8297.20
445.28	8273.79
445.47	8262.09
445.65	8241.03
445.84	8461.04
446.02	8510.19
446.21	8294.86
446.39	8229.32
446.58	8414.23
446.77	8414.23
446.95	8294.86
447.14	8404.86
447.32	8456.36
447.51	8283.16
447.69	8369.76
447.88	8496.14
448.06	8521.89
448.25	8386.14
448.43	8631.90
448.62	8739.56
448.80	8538.27
448.99	8571.04
449.17	8510.19
449.36	8493.80
449.54	8657.64
449.73	8968.93
449.91	8971.27
450.10	8755.94
450.28	8917.44
450.46	8964.25
450.65	9165.54
450.83	9043.83
451.02	8856.59
451.20	9167.88
451.39	9067.24
451.57	9305.97
451.76	9067.24
451.94	9170.22
452.13	9352.78
452.31	9167.88
452.49	9221.71
452.68	9296.61
452.86	9338.74
453.05	9415.98
453.23	9488.53
453.42	9308.31
453.60	9193.62
453.78	9582.15
453.97	9308.31
454.15	9221.71
454.34	9444.06
454.52	9547.05
454.70	9724.93
454.89	9750.67
455.07	9682.80
455.26	9643.01
455.44	9790.46
455.62	9898.13
455.81	9914.51
455.99	9994.09
456.17	9956.64
456.36	10263.25
456.54	9930.89
456.73	10186.01
456.91	10265.59
457.09	10284.31
457.28	10672.84
457.46	10078.35
457.64	10338.15
457.83	10422.41
458.01	10328.78
458.19	10684.55
458.38	10480.92
458.56	10782.85
458.74	10759.44
458.93	10501.98
459.11	10693.91
459.29	10717.31
459.48	10743.06
459.66	10857.75
459.84	10827.32
460.03	11023.92
460.21	11002.86
460.39	10998.18
460.57	10827.32
460.76	11049.67
460.94	11019.24
461.12	11119.89
461.31	11129.25
461.49	11136.27
461.67	11176.06
461.85	11555.22
462.04	11171.38
462.22	11946.09
462.40	11576.29
462.59	11414.79
462.77	11375.00
462.95	11367.98
463.13	11506.07
463.32	11559.91
463.50	11499.05
463.68	11840.77
463.86	11939.07
464.05	11480.33
464.23	11728.42
464.41	11854.81
464.59	11674.59
464.78	12009.29
464.96	12093.55
465.14	11803.32
465.32	12035.03
465.50	12011.63
465.69	11997.59
465.87	11969.50
466.05	12163.76
466.23	12004.61
466.41	12086.53
466.60	12603.78
466.78	11997.59
466.96	12011.63
467.14	12278.45
467.32	12334.62
467.51	12580.38
467.69	12049.08
467.87	12355.69
468.05	12449.31
468.23	12521.87
468.41	12339.30
468.60	12453.99
468.78	12592.08
468.96	12325.26
469.14	12606.13
469.32	12678.68
469.50	12849.54
469.69	12877.63
469.87	13057.85
470.05	13020.40
470.23	12968.91
470.41	13090.62
470.59	13221.69
470.77	12989.97
470.95	13130.41
471.14	13680.43
471.32	13029.76
471.50	13383.18
471.68	13387.86
471.86	13535.32
472.04	13825.54
472.22	13937.89
472.40	13764.69
472.58	13652.34
472.77	13891.08
472.95	14043.21
473.13	14169.60
473.31	13982.36
473.49	13919.17
473.67	14169.60
473.85	14143.86
474.03	14651.75
474.21	14497.28
474.39	14504.30
474.57	14686.86
474.75	14618.99
474.93	14843.68
475.12	15075.39
475.30	14911.55
475.48	15084.75
475.66	15021.56
475.84	15066.03
476.02	15201.78
476.20	15367.96
476.38	15609.03
476.56	16074.80
476.74	16250.34
476.92	15889.90
477.10	15702.65
477.28	15976.50
477.46	15880.53
477.64	16159.06
477.82	16554.61
478.00	16783.98
478.18	16685.68
478.36	16851.86
478.54	16987.61
478.72	17123.36
478.90	17195.92
479.08	17495.50
479.26	17542.32
479.44	17500.19
479.62	17748.28
479.80	18017.44
479.98	18092.34
480.16	18485.55
480.34	18401.29
480.52	18139.15
480.70	18424.70
480.88	18246.82
481.06	18710.24
481.24	18630.66
481.41	18824.93
481.59	19152.60
481.77	19173.67
481.95	19276.65
482.13	19601.99
482.31	19555.18
482.49	20191.80
482.67	20112.22
482.85	20325.21
483.03	20470.33
483.21	20688.00
483.39	20676.29
483.57	20528.84
483.74	21275.47
483.92	21216.96
484.10	21226.32
484.28	21687.40
484.46	21795.07
484.64	22185.94
484.82	21853.58
485.00	22300.62
485.18	22782.77
485.35	22757.03
485.53	22588.51
485.71	22845.97
485.89	23293.01
486.07	23435.78
486.25	23087.04
486.43	23548.13
486.61	23405.36
486.78	24222.20
486.96	24177.73
487.14	24437.53
487.32	24507.75
487.50	24556.90
487.68	24772.23
487.85	25127.99
488.03	25406.52
488.21	25727.17
488.39	25785.68
488.57	25923.77
488.75	26012.71
488.92	26431.67
489.10	26253.79
489.28	26478.48
489.46	27049.57
489.64	26714.87
489.81	27679.18
489.99	27676.83
490.17	27807.90
490.35	28109.83
490.53	27934.29
490.70	28226.86
490.88	27782.16
491.06	28687.95
491.24	28807.31
491.41	28751.14
491.59	29244.99
491.77	29235.63
491.95	29352.66
492.13	29535.22
492.30	29867.58
492.48	29914.39
492.66	30244.40
492.84	30110.99
493.01	30728.89
493.19	30504.20
493.37	31026.14
493.54	31089.34
493.72	31512.97
493.90	31241.47
494.08	31541.06
494.25	31988.10
494.43	31852.35
494.61	31775.11
494.79	32491.32
494.96	32051.30
495.14	32507.70
495.32	32936.02
495.49	32470.25
495.67	33060.07
495.85	33144.33
496.02	33521.15
496.20	33890.96
496.38	33750.52
496.55	33998.62
496.73	34621.20
496.91	34223.31
497.09	34675.04
497.26	34639.93
497.44	34663.33
497.62	34735.89
497.79	35913.18
497.97	35199.32
498.14	35428.69
498.32	35931.90
498.50	36004.46
498.67	36416.40
498.85	36383.63
499.03	36058.29
499.20	36435.12
499.38	36912.59
499.56	36610.66
499.73	36809.61
499.91	37053.02
500.08	37123.24
500.26	37125.58
500.44	37801.99
500.61	37469.64
500.79	37621.77
500.97	37996.26
501.14	38216.27
501.32	38625.86
501.49	38380.10
501.67	38293.50
501.84	38990.98
502.02	38614.16
502.20	38789.70
502.37	39098.65
502.55	39126.74
502.72	39358.45
502.90	39213.34
503.07	38660.97
503.25	39716.55
503.43	39182.91
503.60	40224.45
503.78	40224.45
503.95	40128.48
504.13	40032.52
504.30	40210.40
504.48	40500.63
504.65	40627.02
504.83	40928.95
505.01	40982.78
505.18	40893.84
505.36	41631.11
505.53	41008.53
505.71	41392.37
505.88	41617.07
506.06	41256.62
506.23	41846.44
506.41	41748.14
506.58	42108.58
506.76	42134.32
506.93	41914.31
507.11	41907.29
507.28	41949.42
507.46	42288.80
507.63	42958.19
507.81	43217.99
507.98	42794.36
508.16	43075.22
508.33	42925.42
508.50	43171.18
508.68	43152.46
508.85	43871.00
509.03	43335.02
509.20	43405.23
509.38	43955.26
509.55	43913.13
509.73	44201.02
509.90	44390.60
510.08	44538.05
510.25	44615.29
510.42	44531.03
510.60	44701.89
510.77	44931.26
510.95	45191.06
511.12	44971.05
511.30	44828.28
511.47	45684.92
511.64	45326.81
511.82	45312.77
511.99	45347.88
512.17	45904.93
512.34	45708.32
512.51	46050.04
512.69	46054.72
512.86	46239.62
513.04	46410.48
513.21	46223.24
513.38	46834.12
513.56	46749.86
513.73	46618.79
513.90	47168.82
514.08	46377.72
514.25	46976.89
514.43	46904.34
514.60	47377.12
514.77	46913.70
514.95	47428.62
515.12	47587.77
515.29	47393.51
515.47	48011.41
515.64	47826.51
515.81	47573.73
515.99	47683.73
516.16	48006.73
516.33	48116.73
516.51	48629.31
516.68	48151.84
516.85	48189.29
517.03	48744.00
517.20	48715.91
517.37	48322.70
517.54	48680.80
517.72	48741.66
517.89	48594.20
518.06	48942.94
518.24	48973.37
518.41	49001.46
518.58	49158.27
518.75	49095.08
518.93	49514.03
519.10	49352.54
519.27	49659.15
519.45	49434.45
519.62	49411.05
519.79	49727.02
519.96	49743.41
520.14	49649.78
520.31	49783.19
520.48	50061.72
520.65	50246.62
520.83	50443.23
521.00	50588.34
521.17	50522.80
521.34	50508.76
521.52	50714.73
521.69	50653.87
521.86	50714.73
522.03	50948.78
522.20	51154.75
522.38	51077.51
522.55	51105.60
522.72	51311.56
522.89	51196.88
523.07	51320.93
523.24	51260.07
523.41	51456.68
523.58	51213.26
523.75	51742.22
523.92	51938.83
524.10	51716.48
524.27	51723.50
524.44	51854.57
524.61	51920.10
524.78	51826.48
524.96	51959.89
525.13	51945.85
525.30	52395.23
525.47	52439.70
525.64	52285.23
525.81	52500.56
525.98	52488.85
526.16	52219.69
526.33	52205.65
526.50	52533.32
526.67	52512.26
526.84	52760.36
527.01	52481.83
527.18	52708.86
527.36	52673.76
527.53	52636.31
527.70	53176.97
527.87	53490.60
528.04	52917.17
528.21	53078.67
528.38	53127.82
528.55	53422.73
528.72	52947.60
528.89	53263.57
529.07	53223.78
529.24	53350.17
529.41	53326.77
529.58	53670.82
529.75	53354.85
529.92	53476.56
530.09	53743.38
530.26	53729.34
530.43	53694.23
530.60	53577.20
530.77	53471.88
530.94	53972.75
531.11	53888.49
531.28	54099.14
531.46	54124.89
531.63	53991.48
531.80	53872.11
531.97	54232.55
532.14	54328.52
532.31	54061.69
532.48	54281.70
532.65	54415.11
532.82	54293.41
532.99	54670.23
533.16	54365.96
533.33	54658.53
533.50	54705.34
533.67	54581.29
533.84	54504.06
534.01	54625.76
534.18	54686.62
534.35	55124.30
534.52	54897.27
534.69	55150.04
534.86	54995.57
535.03	55018.97
535.20	54901.95
535.37	55309.20
535.54	55285.79
535.71	54990.89
535.88	55412.18
536.05	55384.10
536.22	55508.14
536.38	55650.92
536.55	55395.80
536.72	55222.60
536.89	55227.28
537.06	55517.51
537.23	55473.04
537.40	55386.44
537.57	55646.24
537.74	55618.15
537.91	55704.75
538.08	55805.39
538.25	55475.38
538.42	55641.56
538.59	56090.94
538.75	55744.54
538.92	56039.45
539.09	56018.38
539.26	56079.24
539.43	56182.22
539.60	56172.86
539.77	56214.99
539.94	56324.99
540.11	56060.51
540.28	56296.91
540.44	56371.80
540.61	56186.90
540.78	56336.69
540.95	56458.40
541.12	56280.52
541.29	56306.27
541.46	56530.96
541.62	56479.47
541.79	56509.89
541.96	56149.45
542.13	56259.46
542.30	56533.30
542.47	56690.12
542.63	56594.15
542.80	56772.03
542.97	56917.15
543.14	57050.56
543.31	57001.41
543.48	57022.47
543.64	57298.65
543.81	57045.88
543.98	57125.46
544.15	56994.39
544.32	57380.57
544.48	57530.37
544.65	57183.97
544.82	57233.12
544.99	57027.15
545.16	57350.15
545.32	57209.71
545.49	57382.91
545.66	57708.25
545.83	57441.43
546.00	57537.39
546.16	57322.06
546.33	57312.70
546.50	57200.35
546.67	57645.05
546.83	57317.38
547.00	57635.69
547.17	57689.52
547.34	57530.37
547.50	57682.50
547.67	57815.91
547.84	58056.99
548.00	57918.90
548.17	58049.97
548.34	58085.07
548.51	58234.87
548.67	58113.16
548.84	58068.69
549.01	58024.22
549.18	58082.73
549.34	58199.76
549.51	57937.62
549.68	58216.14
549.84	58501.69
550.01	58269.98
550.18	58145.93
550.34	58328.49
550.51	58405.73
550.68	58251.25
550.84	58075.71
551.01	58429.13
551.18	58466.58
551.34	58377.64
551.51	58475.94
551.68	58468.92
551.84	58347.21
552.01	58382.32
552.18	58419.77
552.34	58251.25
552.51	58511.05
552.68	58202.10
552.84	58529.78
553.01	58934.69
553.18	58698.30
553.34	58649.14
553.51	58700.64
553.67	58752.13
553.84	58686.59
554.01	58791.92
554.17	58930.01
554.34	58803.62
554.51	58972.14
554.67	58794.26
554.84	58843.41
555.00	58812.98
555.17	58976.82
555.33	58887.88
555.50	59049.38
555.67	58761.49
555.83	58766.17
556.00	58866.81
556.16	59271.73
556.33	59086.82
556.50	59180.45
556.66	59011.93
556.83	58976.82
556.99	59292.79
557.16	59320.88
557.32	59327.90
557.49	59566.63
557.65	59201.51
557.82	59260.02
557.98	59351.30
558.15	59231.94
558.32	59564.29
558.48	59253.00
558.65	59423.86
558.81	59334.92
558.98	59412.16
559.14	59290.45
559.31	59566.63
559.47	59721.11
559.64	59370.03
559.80	59482.37
559.97	59484.72
560.13	59419.18
560.30	59447.27
560.46	59580.68
560.63	59686.00
560.79	59634.51
560.96	59573.66
561.12	59716.43
561.29	59788.98
561.45	59793.67
561.61	59681.32
561.78	59601.74
561.94	59639.19
562.11	59877.93
562.27	59803.03
562.44	59917.71
562.60	59812.39
562.77	59927.08
562.93	59611.10
563.10	59927.08
563.26	59810.05
563.42	60137.72
563.59	59957.50
563.75	59856.86
563.92	59788.98
564.08	59800.69
564.24	59936.44
564.41	60044.10
564.57	60144.75
564.74	60107.30
564.90	60128.36
565.07	60055.81
565.23	60001.97
565.39	59980.91
565.56	59807.71
565.72	60097.94
565.88	60055.81
566.05	59945.80
566.21	59957.50
566.38	60245.39
566.54	59966.87
566.70	60397.52
566.87	60200.92
567.03	59906.01
567.19	60111.98
567.36	60233.69
567.52	60114.32
567.68	60432.63
567.85	60306.24
568.01	60268.79
568.17	60287.52
568.34	60308.58
568.50	59971.55
568.66	60053.47
568.83	60182.19
568.99	60137.72
569.15	60266.45
569.32	60282.84
569.48	60142.41
569.64	60367.10
569.81	60245.39
569.97	60392.84
570.13	60350.71
570.30	60364.76
570.46	60339.01
570.62	60357.74
570.78	60226.66
570.95	60315.61
571.11	60367.10
571.27	60336.67
571.43	60336.67
571.60	60540.30
571.76	60207.94
571.92	60465.40
572.09	60439.65
572.25	60390.50
572.41	60495.83
572.57	60502.85
572.74	60643.28
572.90	60561.36
573.06	60575.40
573.22	60563.70
573.38	60388.16
573.55	60336.67
573.71	60774.35
573.87	60493.49
574.03	60542.64
574.20	60498.17
574.36	60659.66
574.52	60556.68
574.68	60715.84
574.84	60470.08
575.01	60472.42
575.17	60624.56
575.33	60523.91
575.49	60612.85
575.65	60645.62
575.82	60608.17
575.98	60802.44
576.14	60671.37
576.30	60608.17
576.46	60523.91
576.62	60662.00
576.79	60624.56
576.95	60444.33
577.11	60818.82
577.27	60697.11
577.43	60587.11
577.59	60664.35
577.75	60647.96
577.92	60526.25
578.08	60587.11
578.24	60844.57
578.40	61024.79
578.56	60563.70
578.72	60647.96
578.88	60949.89
579.04	60748.60
579.21	60678.39
579.37	60849.25
579.53	60793.07
579.69	60512.21
579.85	60638.60
580.01	60563.70
580.17	60697.11
580.33	60832.86
580.49	60924.14
580.65	60860.95
580.82	60748.60
580.98	60626.90
581.14	60673.71
581.30	60736.90
581.46	60891.38
581.62	60823.50
581.78	60706.47
581.94	60921.80
582.10	60736.90
582.26	60715.84
582.42	60767.33
582.58	60753.29
582.74	60708.82
582.90	60774.35
583.06	60748.60
583.22	60786.05
583.38	60844.57
583.54	60917.12
583.70	61055.21
583.86	60942.87
584.02	60736.90
584.18	60999.04
584.34	60839.89
584.50	60874.99
584.66	60933.51
584.82	60484.12
584.98	61020.11
585.14	61125.43
585.30	60786.05
585.46	60954.57
585.62	60905.42
585.78	61052.87
585.94	60570.72
586.10	60968.61
586.26	60858.61
586.42	60823.50
586.58	60828.18
586.74	61066.92
586.90	60893.72
587.06	60772.01
587.22	61076.28
587.38	61080.96
587.54	61027.13
587.70	61062.24
587.86	60940.53
588.02	60809.46
588.18	61006.06
588.34	61022.45
588.49	60903.08
