SpectraSuite Data File
++++++++++++++++++++++++++++++++++++
Date: Fri Oct 25 11:22:46 EDT 2013
User: price-jones
Dark Spectrum Present: No
Reference Spectrum Present: No
Number of Sampled Component Spectra: 1
Spectrometers: USB2+H05261
Integration Time (usec): 100000 (USB2+H05261)
Spectra Averaged: 1 (USB2+H05261)
Boxcar Smoothing: 0 (USB2+H05261)
Correct for Electrical Dark: No (USB2+H05261)
Strobe/Lamp Enabled: No (USB2+H05261)
Correct for Detector Non-linearity: No (USB2+H05261)
Correct for Stray Light: No (USB2+H05261)
Number of Pixels in Processed Spectrum: 2048
>>>>>Begin Processed Spectral Data<<<<<
365.73	243.42
365.92	243.42
366.12	243.42
366.32	212.99
366.52	79.58
366.72	138.09
366.91	107.66
367.11	138.09
367.31	60.85
367.51	140.43
367.70	135.75
367.90	135.75
368.10	135.75
368.30	154.48
368.49	128.73
368.69	182.56
368.89	166.18
369.09	60.85
369.28	152.13
369.48	173.20
369.68	156.82
369.87	147.45
370.07	222.35
370.27	287.89
370.47	269.16
370.66	592.16
370.86	592.16
371.06	683.44
371.25	702.16
371.45	692.80
371.65	678.76
371.84	676.41
372.04	627.26
372.24	755.99
372.44	788.76
372.63	765.36
372.83	812.17
373.03	767.70
373.22	739.61
373.42	692.80
373.62	812.17
373.81	777.06
374.01	746.63
374.21	770.04
374.40	809.83
374.60	798.12
374.79	858.98
374.99	784.08
375.19	835.57
375.38	837.91
375.58	898.77
375.78	786.42
375.97	847.27
376.17	891.74
376.37	755.99
376.56	887.06
376.76	798.12
376.95	863.66
377.15	887.06
377.35	933.87
377.54	929.19
377.74	828.55
377.93	816.85
378.13	940.90
378.33	863.66
378.52	945.58
378.72	987.71
378.91	926.85
379.11	898.77
379.31	966.64
379.50	894.08
379.70	912.81
379.89	992.39
380.09	1036.86
380.28	983.02
380.48	987.71
380.68	1041.54
380.87	994.73
381.07	936.21
381.26	983.02
381.46	1109.41
381.65	1032.18
381.85	1006.43
382.04	1093.03
382.24	1039.20
382.43	1083.67
382.63	1046.22
382.83	1057.92
383.02	1086.01
383.22	1135.16
383.41	1048.56
383.61	1067.28
383.80	1240.48
384.00	1086.01
384.19	1078.99
384.39	1071.97
384.58	1111.75
384.78	1228.78
384.97	1118.78
385.17	1086.01
385.36	1097.71
385.56	1158.57
385.75	1116.44
385.95	1078.99
386.14	1111.75
386.34	1256.87
386.53	1242.82
386.72	1252.19
386.92	1270.91
387.11	1266.23
387.31	1249.85
387.50	1254.53
387.70	1275.59
387.89	1226.44
388.09	1289.64
388.28	1198.35
388.48	1296.66
388.67	1411.34
388.86	1327.08
389.06	1287.29
389.25	1324.74
389.45	1352.83
389.64	1430.07
389.84	1320.06
390.03	1416.02
390.22	1432.41
390.42	1343.47
390.61	1322.40
390.81	1362.19
391.00	1413.68
391.19	1380.92
391.39	1500.28
391.58	1488.58
391.78	1458.15
391.97	1530.71
392.16	1437.09
392.36	1509.65
392.55	1542.41
392.75	1591.56
392.94	1582.20
393.13	1577.52
393.33	1589.22
393.52	1554.12
393.71	1540.07
393.91	1497.94
394.10	1519.01
394.29	1617.31
394.49	1540.07
394.68	1710.93
394.88	1671.14
395.07	1666.46
395.26	1668.80
395.46	1619.65
395.65	1764.76
395.84	1748.38
396.04	1881.79
396.23	1809.23
396.42	1736.68
396.62	1856.04
396.81	1776.47
397.00	1816.26
397.19	1853.70
397.39	1802.21
397.58	1774.13
397.77	1905.20
397.97	1783.49
398.16	1830.30
398.35	1930.94
398.55	1797.53
398.74	1853.70
398.93	2029.24
399.12	1914.56
399.32	1886.47
399.51	1891.15
399.70	2047.97
399.90	1947.33
400.09	2017.54
400.28	1991.80
400.47	2033.93
400.67	2050.31
400.86	2052.65
401.05	2148.61
401.24	2221.17
401.44	2132.23
401.63	2129.89
401.82	2169.68
402.01	2099.46
402.21	2183.72
402.40	2169.68
402.59	2181.38
402.78	2244.57
402.97	2134.57
403.17	2148.61
403.36	2108.82
403.55	2293.72
403.74	2429.48
403.93	2392.03
404.13	2415.43
404.32	2394.37
404.51	2345.22
404.70	2445.86
404.89	2321.81
405.09	2420.11
405.28	2387.35
405.47	2443.52
405.66	2473.95
405.85	2502.03
406.05	2434.16
406.24	2572.25
406.43	2520.76
406.62	2586.29
406.81	2827.37
407.00	2621.40
407.20	2642.46
407.39	2483.31
407.58	2708.00
407.77	2698.64
407.96	2794.60
408.15	2810.98
408.34	2724.38
408.54	2818.00
408.73	2862.48
408.92	2745.45
409.11	2843.75
409.30	2937.37
409.49	3082.49
409.68	2857.79
409.87	2920.99
410.07	3035.67
410.26	3012.27
410.45	2972.48
410.64	3129.30
410.83	3023.97
411.02	3229.94
411.21	3138.66
411.40	3122.27
411.59	3232.28
411.78	3300.16
411.98	3218.24
412.17	3346.97
412.36	3323.56
412.55	3417.18
412.74	3454.63
412.93	3447.61
413.12	3363.35
413.31	3520.17
413.50	3590.38
413.69	3529.53
413.88	3681.66
414.07	3473.36
414.26	3618.47
414.45	3639.53
414.64	3721.45
414.83	3691.02
415.02	3765.92
415.22	3878.27
415.41	3978.91
415.60	3850.18
415.79	4028.06
415.98	4135.73
416.17	3962.53
416.36	3946.14
416.55	3999.98
416.74	4121.68
416.93	3978.91
417.12	4229.35
417.31	4175.52
417.50	4077.21
417.69	4304.25
417.88	4280.84
418.07	4393.19
418.26	4299.56
418.45	4210.62
418.64	4561.70
418.83	4519.57
419.02	4440.00
419.21	4505.53
419.39	4617.88
419.58	4493.83
419.77	4643.62
419.96	4573.41
420.15	4578.09
420.34	4713.84
420.53	4573.41
420.72	4667.03
420.91	4669.37
421.10	4762.99
421.29	4826.18
421.48	4662.35
421.67	4777.03
421.86	4858.95
422.05	4760.65
422.24	4840.23
422.43	5006.41
422.61	4954.91
422.80	4901.08
422.99	5053.22
423.18	4821.50
423.37	5097.69
423.56	4877.68
423.75	4952.57
423.94	4844.91
424.13	4610.86
424.32	4657.67
424.50	5060.24
424.69	5217.05
424.88	5160.88
425.07	5027.47
425.26	4917.47
425.45	5057.90
425.64	4978.32
425.83	5074.28
426.01	5116.41
426.20	4985.34
426.39	5013.43
426.58	5135.14
426.77	4791.08
426.96	5205.35
427.15	5205.35
427.33	5266.21
427.52	5249.82
427.71	5294.29
427.90	5341.10
428.09	5413.66
428.28	5408.98
428.46	5408.98
428.65	5472.17
428.84	5526.00
429.03	5671.12
429.22	5334.08
429.40	5596.22
429.59	5563.45
429.78	5287.27
429.97	5277.91
430.16	5425.36
430.34	5682.82
430.53	5516.64
430.72	5781.12
430.91	5582.18
431.10	5734.31
431.28	5825.59
431.47	5902.83
431.66	5884.11
431.85	5724.95
432.03	6040.92
432.22	6050.28
432.41	6073.69
432.60	5973.05
432.79	6003.47
432.97	6118.16
433.16	5898.15
433.35	5935.60
433.54	6015.18
433.72	6157.95
433.91	6267.95
434.10	6122.84
434.28	6069.01
434.47	6092.41
434.66	6230.51
434.85	6403.71
435.03	6331.15
435.22	6373.28
435.41	6455.20
435.59	6370.94
435.78	6532.44
435.97	6401.37
436.16	6506.69
436.34	6537.12
436.53	6616.69
436.72	6567.54
436.90	6363.92
437.09	6623.72
437.28	6612.01
437.46	6525.41
437.65	6703.29
437.84	6757.13
438.02	6679.89
438.21	6794.58
438.40	6745.42
438.58	6949.05
438.77	7155.02
438.96	7077.78
439.14	7052.03
439.33	7185.44
439.52	7281.41
439.70	7272.04
439.89	7421.84
440.08	7393.75
440.26	7349.28
440.45	7506.10
440.63	7658.23
440.82	7541.21
441.01	7503.76
441.19	7765.90
441.38	7733.13
441.57	7840.79
441.75	7829.09
441.94	7836.11
442.12	7880.58
442.31	8177.83
442.50	8159.11
442.68	8042.08
442.87	8025.70
443.05	8105.28
443.24	8234.00
443.43	8262.09
443.61	8336.99
443.80	8491.46
443.98	8135.70
444.17	7793.98
444.35	8320.60
444.54	8507.85
444.73	8297.20
444.91	8388.48
445.10	8564.02
445.28	8322.94
445.47	8346.35
445.65	8145.06
445.84	8514.87
446.02	8580.40
446.21	8496.14
446.39	8374.44
446.58	8578.06
446.77	8606.15
446.95	8437.63
447.14	8430.61
447.32	8561.68
447.51	8369.76
447.69	8414.23
447.88	8304.22
448.06	8451.67
448.25	8542.96
448.43	8566.36
448.62	8617.85
448.80	8601.47
448.99	8585.08
449.17	8943.19
449.36	8732.54
449.54	8842.54
449.73	9121.07
449.91	9109.36
450.10	9015.74
450.28	9057.87
450.46	9226.39
450.65	8964.25
450.83	9041.49
451.02	9284.91
451.20	9165.54
451.39	9163.20
451.57	9151.49
451.76	9001.70
451.94	9312.99
452.13	9160.86
452.31	9287.25
452.49	9294.27
452.68	9158.52
452.86	9355.12
453.05	9413.63
453.23	9533.00
453.42	9331.72
453.60	9362.14
453.78	9659.39
453.97	9364.48
454.15	9645.35
454.34	9507.26
454.52	9863.02
454.70	9792.80
454.89	9902.81
455.07	9823.23
455.26	10083.03
455.44	9811.53
455.62	9973.02
455.81	9776.42
455.99	10111.11
456.17	10223.46
456.36	10054.94
456.54	10249.21
456.73	10157.92
456.91	10476.24
457.09	10523.05
457.28	10696.25
457.46	10485.60
457.64	10696.25
457.83	10441.13
458.01	10628.37
458.19	10789.87
458.38	10665.82
458.56	10490.28
458.74	10822.64
458.93	10761.78
459.11	10761.78
459.29	10913.92
459.48	10656.46
459.66	10736.04
459.84	11089.46
460.03	11159.67
460.21	11073.07
460.39	11222.87
460.57	11040.31
460.76	10993.50
460.94	11112.86
461.12	11220.53
461.31	11220.53
461.49	11309.47
461.67	11091.80
461.85	11391.39
462.04	11417.13
462.22	11831.41
462.40	11714.38
462.59	11482.67
462.77	11367.98
462.95	11707.36
463.13	11885.24
463.32	11564.59
463.50	11871.20
463.68	11595.01
463.86	11875.88
464.05	12002.27
464.23	11826.73
464.41	12025.67
464.59	11747.15
464.78	12252.70
464.96	12292.49
465.14	11948.43
465.32	12098.23
465.50	12065.46
465.69	12121.63
465.87	12355.69
466.05	12159.08
466.23	12145.04
466.41	12280.79
466.60	12418.88
466.78	12217.60
466.96	12407.18
467.14	12418.88
467.32	12683.36
467.51	12517.18
467.69	12262.07
467.87	12430.59
468.05	12676.34
468.23	12554.63
468.41	12510.16
468.60	12599.10
468.78	12896.35
468.96	12704.43
469.14	13097.64
469.32	12837.84
469.50	12716.13
469.69	13104.66
469.87	13238.07
470.05	13132.75
470.23	13160.83
470.41	13085.94
470.59	13535.32
470.77	13149.13
470.95	13287.22
471.14	13642.98
471.32	13460.42
471.50	13774.05
471.68	13635.96
471.86	13699.16
472.04	13825.54
472.22	14092.37
472.40	13680.43
472.58	13855.97
472.77	14085.34
472.95	14239.82
473.13	14614.30
473.31	14127.47
473.49	14375.57
473.67	14427.06
473.85	14525.36
474.03	14862.40
474.21	14721.97
474.39	14888.15
474.57	14796.87
474.75	15213.48
474.93	15056.67
475.12	15262.63
475.30	15370.30
475.48	14871.76
475.66	15335.19
475.84	15089.43
476.02	15288.38
476.20	15578.61
476.38	16020.97
476.56	16084.16
476.74	16070.12
476.92	16191.83
477.10	16035.01
477.28	16257.36
477.46	16217.57
477.64	16561.63
477.82	16802.71
478.00	17043.78
478.18	16765.26
478.36	17160.81
478.54	17181.87
478.72	17268.47
478.90	17528.27
479.08	17886.37
479.26	17809.14
479.44	17661.68
479.62	17996.38
479.80	18312.35
479.98	18354.48
480.16	18588.53
480.34	18370.86
480.52	18656.41
480.70	18752.37
480.88	18480.87
481.06	18951.32
481.24	19049.62
481.41	19417.08
481.59	19541.13
481.77	19749.44
481.95	19669.86
482.13	20009.24
482.31	19784.55
482.49	20325.21
482.67	20482.03
482.85	20702.04
483.03	20922.05
483.21	20964.18
483.39	21027.37
483.57	20762.89
483.74	21120.99
483.92	21041.42
484.10	21570.38
484.28	21816.13
484.46	22066.57
484.64	22555.74
484.82	22080.61
485.00	22415.31
485.18	23190.03
485.35	23175.98
485.53	22876.40
485.71	23190.03
485.89	23484.94
486.07	23559.83
486.25	23683.88
486.43	23915.59
486.61	23964.75
486.78	23873.46
486.96	24336.89
487.14	24685.63
487.32	24837.76
487.50	25081.18
487.68	25212.25
487.85	25568.01
488.03	25783.34
488.21	26103.99
488.39	25834.83
488.57	26314.64
488.75	26352.09
488.92	26590.83
489.10	26799.13
489.28	26979.36
489.46	27590.24
489.64	27166.60
489.81	27707.26
489.99	27929.61
490.17	28201.11
490.35	28397.72
490.53	28304.10
490.70	28503.04
490.88	28442.19
491.06	29165.42
491.24	29160.73
491.41	29479.05
491.59	29347.98
491.77	29090.52
491.95	29603.10
492.13	30230.36
492.30	30190.57
492.48	30216.32
492.66	30270.15
492.84	30471.43
493.01	30501.86
493.19	30874.01
493.37	31522.34
493.54	31215.72
493.72	31810.22
493.90	31878.10
494.08	32041.93
494.25	32601.32
494.43	31866.39
494.61	32596.64
494.79	32828.35
494.96	32737.07
495.14	32811.97
495.32	33170.07
495.49	33680.31
495.67	33879.25
495.85	33670.95
496.02	33883.94
496.20	34185.86
496.38	34132.03
496.55	34555.67
496.73	35063.57
496.91	34848.24
497.09	34801.43
497.26	34845.90
497.44	35103.35
497.62	35576.14
497.79	36170.64
497.97	35524.65
498.14	36044.25
498.32	36545.12
498.50	36355.54
498.67	36627.04
498.85	36505.34
499.03	36673.85
499.20	37050.68
499.38	37097.49
499.56	37036.64
499.73	37347.93
499.91	37890.93
500.08	37998.60
500.26	37614.75
500.44	38024.34
500.61	38366.06
500.79	38089.88
500.97	38628.20
501.14	38799.06
501.32	38862.26
501.49	39133.76
501.67	39124.40
501.84	39428.66
502.02	39077.58
502.20	39519.95
502.37	39835.92
502.55	39545.69
502.72	39770.38
502.90	39856.98
503.07	39679.10
503.25	40095.72
503.43	39828.90
503.60	40084.01
503.78	40395.31
503.95	40844.69
504.13	40755.75
504.30	40407.01
504.48	40882.14
504.65	41193.43
504.83	41347.90
505.01	41383.01
505.18	41088.10
505.36	41603.02
505.53	41146.62
505.71	41698.98
505.88	42492.43
506.06	41710.69
506.23	42047.72
506.41	41862.82
506.58	42169.43
506.76	42616.47
506.93	42539.24
507.11	42408.17
507.28	42976.92
507.46	42951.17
507.63	43239.06
507.81	43295.23
507.98	42951.17
508.16	43154.80
508.33	43775.04
508.50	43725.89
508.68	43686.10
508.85	44243.15
509.03	43945.90
509.20	44411.67
509.38	44629.34
509.55	44797.85
509.73	44559.12
509.90	44914.88
510.08	44332.09
510.25	44516.99
510.42	44809.56
510.60	45268.30
510.77	45570.23
510.95	45942.38
511.12	44935.95
511.30	45052.97
511.47	45663.85
511.64	45949.40
511.82	46302.82
511.99	46298.14
512.17	46047.70
512.34	46333.24
512.51	46576.66
512.69	46440.91
512.86	46752.20
513.04	46635.17
513.21	46808.37
513.38	47166.48
513.56	47243.71
513.73	47072.85
513.90	47180.52
514.08	46628.15
514.25	47299.89
514.43	47758.63
514.60	47760.97
514.77	47117.32
514.95	47962.26
515.12	47943.53
515.29	47697.78
515.47	48327.38
515.64	48458.45
515.81	48425.68
515.99	48650.38
516.16	48680.80
516.33	48477.18
516.51	48996.77
516.68	48973.37
516.85	48648.03
517.03	49120.82
517.20	48818.89
517.37	48846.98
517.54	49165.29
517.72	49144.23
517.89	49420.41
518.06	49705.96
518.24	49287.00
518.41	49663.83
518.58	49755.11
518.75	49340.83
518.93	49982.14
519.10	49748.09
519.27	49921.29
519.45	49897.88
519.62	50127.25
519.79	49956.39
519.96	50031.29
520.14	50349.60
520.31	50492.38
520.48	50836.44
520.65	50721.75
520.83	50885.59
521.00	50967.51
521.17	50880.91
521.34	50721.75
521.52	50845.80
521.69	51159.43
521.86	51040.06
522.03	51526.89
522.20	51536.26
522.38	51779.67
522.55	51613.49
522.72	51554.98
522.89	51959.89
523.07	51718.82
523.24	51725.84
523.41	52076.92
523.58	51627.54
523.75	52217.35
523.92	51936.49
524.10	52170.54
524.27	52439.70
524.44	52060.54
524.61	52406.94
524.78	52133.09
524.96	52502.90
525.13	52704.18
525.30	52392.89
525.47	52713.55
525.64	52547.37
525.81	52961.64
525.98	53059.94
526.16	52800.15
526.33	53029.52
526.50	53422.73
526.67	52910.15
526.84	53191.01
527.01	53078.67
527.18	53207.40
527.36	53020.16
527.53	53294.00
527.70	53734.02
527.87	53418.05
528.04	53275.27
528.21	53460.18
528.38	53516.35
528.55	53970.41
528.72	53502.31
528.89	53724.66
529.07	53729.34
529.24	53404.00
529.41	53872.11
529.58	53799.55
529.75	53701.25
529.92	53916.58
530.09	54429.16
530.26	54307.45
530.43	53975.09
530.60	54059.35
530.77	53998.50
530.94	54260.64
531.11	54389.37
531.28	54234.89
531.46	54363.62
531.63	54419.80
531.80	54202.13
531.97	54705.34
532.14	54735.77
532.31	54597.68
532.48	54731.09
532.65	55084.51
532.82	54674.91
532.99	54801.30
533.16	54967.48
533.33	55009.61
533.50	55199.19
533.67	54810.67
533.84	54810.67
534.01	55210.90
534.18	55096.21
534.35	55363.03
534.52	55327.92
534.69	55285.79
534.86	55451.97
535.03	55295.16
535.20	55480.06
535.37	55508.14
535.54	55576.02
535.71	55454.31
535.88	55625.17
536.05	55707.09
536.22	55653.26
536.38	55891.99
536.55	55852.20
536.72	55917.74
536.89	55941.14
537.06	55812.41
537.23	55973.91
537.40	55842.84
537.57	55641.56
537.74	56030.08
537.91	56034.77
538.08	55959.87
538.25	55580.70
538.42	56156.47
538.59	56140.09
538.75	56217.33
538.92	56179.88
539.09	56313.29
539.26	56357.76
539.43	56252.44
539.60	56229.03
539.77	56460.74
539.94	56772.03
540.11	56509.89
540.28	56502.87
540.44	56617.56
540.61	56413.93
540.78	56488.83
540.95	56535.64
541.12	56729.90
541.29	56568.41
541.46	56790.76
541.62	56811.82
541.79	56905.44
541.96	56519.26
542.13	56711.18
542.30	56919.49
542.47	57106.73
542.63	56942.89
542.80	57003.75
542.97	57036.51
543.14	57172.27
543.31	57539.73
543.48	57176.95
543.64	57801.87
543.81	57230.78
543.98	57513.98
544.15	57275.25
544.32	57808.89
544.48	57797.19
544.65	57591.22
544.82	57581.86
544.99	57551.43
545.16	57560.79
545.32	57764.42
545.49	57705.91
545.66	57738.68
545.83	57738.68
546.00	57834.64
546.16	57787.83
546.33	57925.92
546.50	57600.58
546.67	57787.83
546.83	57448.45
547.00	57766.76
547.17	57986.77
547.34	57930.60
547.50	58312.11
547.67	57963.37
547.84	58054.65
548.00	58333.17
548.17	58277.00
548.34	58234.87
548.51	58356.58
548.67	58511.05
548.84	58396.37
549.01	58162.31
549.18	58302.74
549.34	58426.79
549.51	58361.26
549.68	58543.82
549.84	58499.35
550.01	58511.05
550.18	58337.85
550.34	58616.38
550.51	58684.25
550.68	58691.27
550.84	58532.12
551.01	58810.64
551.18	58515.73
551.34	58656.17
551.51	58871.49
551.68	58852.77
551.84	58738.08
552.01	58599.99
552.18	58885.54
552.34	58475.94
552.51	59112.57
552.68	58808.30
552.84	58719.36
553.01	59192.15
553.18	58859.79
553.34	59056.40
553.51	58848.09
553.67	58908.94
553.84	59004.91
554.01	59056.40
554.17	59112.57
554.34	59171.08
554.51	59168.74
554.67	59082.14
554.84	59037.67
555.00	59133.63
555.17	59278.75
555.33	58997.88
555.50	59135.98
555.67	59234.28
555.83	59082.14
556.00	59381.73
556.16	59480.03
556.33	59465.99
556.50	59297.47
556.66	59480.03
556.83	59283.43
556.99	59639.19
557.16	59781.96
557.32	59756.22
557.49	59903.67
557.65	59564.29
557.82	59533.87
557.98	59576.00
558.15	59487.06
558.32	59683.66
558.48	59599.40
558.65	59714.09
558.81	59505.78
558.98	59721.11
559.14	59847.50
559.31	59810.05
559.47	59985.59
559.64	59934.10
559.80	59936.44
559.97	59910.69
560.13	59721.11
560.30	59906.01
560.46	59786.64
560.63	60121.34
560.79	59863.88
560.96	60104.96
561.12	60177.51
561.29	60142.41
561.45	60149.43
561.61	59948.14
561.78	59997.29
561.94	60299.22
562.11	60322.63
562.27	60252.41
562.44	60030.06
562.60	60294.54
562.77	60053.47
562.93	59990.27
563.10	60233.69
563.26	59877.93
563.42	60336.67
563.59	60191.56
563.75	60156.45
563.92	60172.83
564.08	60123.68
564.24	60425.61
564.41	60184.54
564.57	60449.02
564.74	60081.55
564.90	60413.91
565.07	60126.02
565.23	60233.69
565.39	60317.95
565.56	60437.31
565.72	60193.90
565.88	60327.31
566.05	60409.23
566.21	60406.89
566.38	60420.93
566.54	60383.48
566.70	60423.27
566.87	60566.04
567.03	60308.58
567.19	60580.09
567.36	60355.39
567.52	60329.65
567.68	60818.82
567.85	60479.44
568.01	60760.31
568.17	60360.08
568.34	60577.75
568.50	60502.85
568.66	60591.79
568.83	60636.26
568.99	60444.33
569.15	60624.56
569.32	60664.35
569.48	60690.09
569.64	60676.05
569.81	60547.32
569.97	60465.40
570.13	60561.36
570.30	60603.49
570.46	60867.97
570.62	60692.43
570.78	60718.18
570.95	60900.74
571.11	60919.46
571.27	60617.53
571.43	60713.50
571.60	60877.33
571.76	60790.73
571.92	60589.45
572.09	60807.12
572.25	60697.11
572.41	60654.98
572.57	60832.86
572.74	60933.51
572.90	60870.31
573.06	60956.91
573.22	60811.80
573.38	60818.82
573.55	60713.50
573.71	60882.02
573.87	60804.78
574.03	60654.98
574.20	60793.07
574.36	60685.41
574.52	60977.98
574.68	61073.94
574.84	60992.02
575.01	60870.31
575.17	60746.26
575.33	60718.18
575.49	60769.67
575.65	61092.66
575.82	60652.64
575.98	61024.79
576.14	61244.80
576.30	60807.12
576.46	60942.87
576.62	60945.21
576.79	60874.99
576.95	60912.44
577.11	60893.72
577.27	61200.33
577.43	61134.79
577.59	60910.10
577.75	60830.52
577.92	60889.04
578.08	60793.07
578.24	61111.39
578.40	60982.66
578.56	61123.09
578.72	61071.60
578.88	60989.68
579.04	61102.03
579.21	61158.20
579.37	61240.12
579.53	61247.14
579.69	61104.37
579.85	61034.15
580.01	61116.07
580.17	61034.15
580.33	60907.76
580.49	61141.81
580.65	61130.11
580.82	60982.66
580.98	60842.23
581.14	60905.42
581.30	61286.93
581.46	60975.64
581.62	61090.32
581.78	61155.86
581.94	61176.92
582.10	61041.17
582.26	61116.07
582.42	61123.09
582.58	61207.35
582.74	61139.47
582.90	60928.83
583.06	60977.98
583.22	61169.90
583.38	61013.08
583.54	61050.53
583.70	61429.70
583.86	61186.28
584.02	61048.19
584.18	61071.60
584.34	61130.11
584.50	61137.13
584.66	61212.03
584.82	60846.91
584.98	61134.79
585.14	61284.59
585.30	61036.49
585.46	61169.90
585.62	61312.67
585.78	61502.26
585.94	60912.44
586.10	61045.85
586.26	61111.39
586.42	61181.60
586.58	61298.63
586.74	61052.87
586.90	61041.17
587.06	61158.20
587.22	61443.74
587.38	61289.27
587.54	61436.72
587.70	61228.41
587.86	61254.16
588.02	61254.16
588.18	61324.38
588.34	61282.25
588.49	61221.39
