SpectraSuite Data File
++++++++++++++++++++++++++++++++++++
Date: Fri Oct 25 11:33:27 EDT 2013
User: price-jones
Dark Spectrum Present: No
Reference Spectrum Present: No
Number of Sampled Component Spectra: 1
Spectrometers: USB2+H05261
Integration Time (usec): 100000 (USB2+H05261)
Spectra Averaged: 1 (USB2+H05261)
Boxcar Smoothing: 0 (USB2+H05261)
Correct for Electrical Dark: No (USB2+H05261)
Strobe/Lamp Enabled: No (USB2+H05261)
Correct for Detector Non-linearity: No (USB2+H05261)
Correct for Stray Light: No (USB2+H05261)
Number of Pixels in Processed Spectrum: 2048
>>>>>Begin Processed Spectral Data<<<<<
365.73	280.86
365.92	280.86
366.12	280.86
366.32	205.97
366.52	191.92
366.72	229.37
366.91	147.45
367.11	168.52
367.31	63.19
367.51	114.69
367.70	177.88
367.90	147.45
368.10	166.18
368.30	128.73
368.49	156.82
368.69	182.56
368.89	224.69
369.09	217.67
369.28	220.01
369.48	201.29
369.68	215.33
369.87	311.29
370.07	208.31
370.27	259.80
370.47	311.29
370.66	463.43
370.86	482.15
371.06	526.62
371.25	566.41
371.45	512.58
371.65	571.09
371.84	606.20
372.04	500.87
372.24	571.09
372.44	564.07
372.63	545.34
372.83	561.73
373.03	561.73
373.22	573.43
373.42	608.54
373.62	606.20
373.81	669.39
374.01	622.58
374.21	636.63
374.40	617.90
374.60	681.10
374.79	695.14
374.99	671.73
375.19	723.23
375.38	660.03
375.58	704.50
375.78	643.65
375.97	643.65
376.17	725.57
376.37	709.18
376.56	674.07
376.76	624.92
376.95	662.37
377.15	662.37
377.35	664.71
377.54	650.67
377.74	671.73
377.93	727.91
378.13	676.41
378.33	748.97
378.52	648.33
378.72	795.78
378.91	779.40
379.11	713.86
379.31	755.99
379.50	664.71
379.70	676.41
379.89	727.91
380.09	690.46
380.28	767.70
380.48	758.33
380.68	678.76
380.87	674.07
381.07	772.38
381.26	645.99
381.46	781.74
381.65	720.88
381.85	800.46
382.04	814.51
382.24	784.08
382.43	791.10
382.63	765.36
382.83	814.51
383.02	844.93
383.22	844.93
383.41	835.57
383.61	791.10
383.80	786.42
384.00	837.91
384.19	875.36
384.39	830.89
384.58	877.70
384.78	938.55
384.97	875.36
385.17	835.57
385.36	854.30
385.56	875.36
385.75	816.85
385.95	823.87
386.14	882.38
386.34	873.02
386.53	873.02
386.72	898.77
386.92	924.51
387.11	833.23
387.31	875.36
387.50	940.90
387.70	926.85
387.89	840.25
388.09	950.26
388.28	947.92
388.48	882.38
388.67	940.90
388.86	973.66
389.06	945.58
389.25	931.53
389.45	940.90
389.64	903.45
389.84	1015.79
390.03	924.51
390.22	999.41
390.42	966.64
390.61	966.64
390.81	1013.45
391.00	999.41
391.19	987.71
391.39	943.24
391.58	1020.47
391.78	976.00
391.97	1064.94
392.16	1011.11
392.36	999.41
392.55	1067.28
392.75	983.02
392.94	1123.46
393.13	1006.43
393.33	1097.71
393.52	1050.90
393.71	1090.69
393.91	1123.46
394.10	1053.24
394.29	1137.50
394.49	1214.74
394.68	1172.61
394.88	1273.25
395.07	1139.84
395.26	1179.63
395.46	1088.35
395.65	1163.25
395.84	1196.01
396.04	1191.33
396.23	1196.01
396.42	1275.59
396.62	1231.12
396.81	1268.57
397.00	1135.16
397.19	1165.59
397.39	1231.12
397.58	1275.59
397.77	1139.84
397.97	1231.12
398.16	1336.45
398.35	1320.06
398.55	1254.53
398.74	1221.76
398.93	1315.38
399.12	1345.81
399.32	1247.51
399.51	1277.93
399.70	1341.13
399.90	1329.42
400.09	1369.21
400.28	1394.96
400.47	1462.83
400.67	1437.09
400.86	1352.83
401.05	1277.93
401.24	1481.56
401.44	1444.11
401.63	1521.35
401.82	1526.03
402.01	1399.64
402.21	1469.86
402.40	1465.18
402.59	1397.30
402.78	1514.33
402.97	1502.62
403.17	1516.67
403.36	1455.81
403.55	1650.08
403.74	1519.01
403.93	1570.50
404.13	1645.40
404.32	1584.54
404.51	1668.80
404.70	1657.10
404.89	1661.78
405.09	1769.44
405.28	1621.99
405.47	1645.40
405.66	1710.93
405.85	1739.02
406.05	1703.91
406.24	1739.02
406.43	1750.72
406.62	1778.81
406.81	1823.28
407.00	1788.17
407.20	1722.63
407.39	1802.21
407.58	1839.66
407.77	1858.39
407.96	1928.60
408.15	1858.39
408.34	1806.89
408.54	1947.33
408.73	1933.28
408.92	2108.82
409.11	2015.20
409.30	1977.75
409.49	1914.56
409.68	1996.48
409.87	1956.69
410.07	2097.12
410.26	2033.93
410.45	2115.84
410.64	2050.31
410.83	2076.06
411.02	2059.67
411.21	2190.74
411.40	2169.68
411.59	2186.06
411.78	2272.66
411.98	2146.27
412.17	2258.62
412.36	2319.47
412.55	2232.87
412.74	2289.04
412.93	2314.79
413.12	2333.51
413.31	2387.35
413.50	2392.03
413.69	2354.58
413.88	2499.69
414.07	2434.16
414.26	2562.89
414.45	2574.59
414.64	2527.78
414.83	2597.99
415.02	2597.99
415.22	2689.28
415.41	2715.02
415.60	2569.91
415.79	2619.06
415.98	2789.92
416.17	2729.06
416.36	2928.01
416.55	2803.96
416.74	2860.13
416.93	2747.79
417.12	2778.22
417.31	2946.73
417.50	2909.29
417.69	2988.86
417.88	3028.65
418.07	2860.13
418.26	2958.44
418.45	2981.84
418.64	3087.17
418.83	2925.67
419.02	2988.86
419.21	3236.96
419.39	3094.19
419.58	3162.06
419.77	3073.12
419.96	3131.64
420.15	3253.34
420.34	3110.57
420.53	3229.94
420.72	3248.66
420.91	3190.15
421.10	3218.24
421.29	3201.85
421.48	3136.32
421.67	3265.05
421.86	3258.03
422.05	3307.18
422.24	3236.96
422.43	3307.18
422.61	3293.13
422.80	3414.84
422.99	3346.97
423.18	3386.76
423.37	3335.26
423.56	3330.58
423.75	3435.91
423.94	3351.65
424.13	3236.96
424.32	3297.81
424.50	3391.44
424.69	3536.55
424.88	3449.95
425.07	3330.58
425.26	3414.84
425.45	3475.70
425.64	3382.07
425.83	3330.58
426.01	3480.38
426.20	3456.97
426.39	3459.31
426.58	3447.61
426.77	3412.50
426.96	3639.53
427.15	3478.04
427.33	3707.41
427.52	3517.83
427.71	3574.00
427.90	3611.45
428.09	3693.37
428.28	3660.60
428.46	3691.02
428.65	3794.01
428.84	3782.31
429.03	3801.03
429.22	3651.24
429.40	3721.45
429.59	3726.13
429.78	3695.71
429.97	3660.60
430.16	3847.84
430.34	3864.22
430.53	3889.97
430.72	3859.54
430.91	3882.95
431.10	3747.20
431.28	4039.76
431.47	4093.60
431.66	4030.40
431.85	4002.32
432.03	4018.70
432.22	4049.13
432.41	4189.56
432.60	4009.34
432.79	4004.66
432.97	4180.20
433.16	4264.46
433.35	4229.35
433.54	4201.26
433.72	4236.37
433.91	4042.11
434.10	4112.32
434.28	4196.58
434.47	4315.95
434.66	4344.03
434.85	4285.52
435.03	4344.03
435.22	4332.33
435.41	4524.26
435.59	4365.10
435.78	4479.79
435.97	4503.19
436.16	4475.10
436.34	4372.12
436.53	4458.72
436.72	4493.83
436.90	4304.25
437.09	4454.04
437.28	4440.00
437.46	4404.89
437.65	4627.24
437.84	4692.77
438.02	4601.49
438.21	4629.58
438.40	4631.92
438.58	4674.05
438.77	4755.97
438.96	4681.07
439.14	4910.44
439.33	5013.43
439.52	5015.77
439.70	4896.40
439.89	5029.81
440.08	5093.01
440.26	4952.57
440.45	5123.43
440.63	5090.67
440.82	5184.29
441.01	5254.50
441.19	5195.99
441.38	5390.25
441.57	5378.55
441.75	5298.97
441.94	5383.23
442.12	5259.18
442.31	5542.39
442.50	5413.66
442.68	5408.98
442.87	5448.77
443.05	5561.11
443.24	5570.48
443.43	5399.62
443.61	5514.30
443.80	5874.74
443.98	5537.71
444.17	5411.32
444.35	5598.56
444.54	5678.14
444.73	5764.74
444.91	5729.63
445.10	5668.78
445.28	5673.46
445.47	5788.14
445.65	5661.76
445.84	5809.21
446.02	5834.96
446.21	5919.21
446.39	5710.91
446.58	5703.89
446.77	5685.16
446.95	5584.52
447.14	5802.19
447.32	5884.11
447.51	5795.17
447.69	5666.44
447.88	5760.06
448.06	5809.21
448.25	5942.62
448.43	5841.98
448.62	5818.57
448.80	5961.34
448.99	5907.51
449.17	5905.17
449.36	5717.93
449.54	6005.81
449.73	6090.07
449.91	6169.65
450.10	6071.35
450.28	6300.72
450.46	6171.99
450.65	6146.25
450.83	6097.10
451.02	6232.85
451.20	6090.07
451.39	6136.88
451.57	6111.14
451.76	6195.40
451.94	6272.64
452.13	6209.44
452.31	6260.93
452.49	6342.85
452.68	6366.26
452.86	6162.63
453.05	6413.07
453.23	6459.88
453.42	6436.47
453.60	6462.22
453.78	6462.22
453.97	6312.42
454.15	6394.34
454.34	6462.22
454.52	6604.99
454.70	6623.72
454.89	6569.88
455.07	6532.44
455.26	6710.32
455.44	6789.89
455.62	6803.94
455.81	6691.59
455.99	6782.87
456.17	6696.27
456.36	6890.54
456.54	6939.69
456.73	6965.43
456.91	6935.01
457.09	7012.24
457.28	7185.44
457.46	7087.14
457.64	7014.59
457.83	7073.10
458.01	7096.50
458.19	7234.60
458.38	7199.49
458.56	7241.62
458.74	7274.38
458.93	7283.75
459.11	7094.16
459.29	7225.23
459.48	7335.24
459.66	7274.38
459.84	7372.69
460.03	7494.40
460.21	7452.27
460.39	7466.31
460.57	7400.77
460.76	7911.01
460.94	7620.78
461.12	7569.29
461.31	7578.65
461.49	7503.76
461.67	7616.10
461.85	7667.60
462.04	7634.83
462.22	8044.42
462.40	7934.42
462.59	7700.36
462.77	7653.55
462.95	7756.54
463.13	7810.37
463.32	8023.36
463.50	8058.46
463.68	7801.01
463.86	7943.78
464.05	7847.82
464.23	7815.05
464.41	8128.68
464.59	7786.96
464.78	8376.78
464.96	8138.04
465.14	7761.22
465.32	8119.32
465.50	8018.68
465.69	8121.66
465.87	8119.32
466.05	8243.37
466.23	8156.77
466.41	8234.00
466.60	8454.02
466.78	8168.47
466.96	8336.99
467.14	8292.52
467.32	8400.18
467.51	8514.87
467.69	8315.92
467.87	8351.03
468.05	8367.42
468.23	8334.65
468.41	8325.29
468.60	8603.81
468.78	8601.47
468.96	8503.17
469.14	8454.02
469.32	8526.57
469.50	8566.36
469.69	8769.99
469.87	8854.25
470.05	8664.66
470.23	8741.90
470.41	8800.41
470.59	9041.49
470.77	8844.88
470.95	8877.65
471.14	9104.68
471.32	8973.61
471.50	9092.98
471.68	9245.12
471.86	9202.99
472.04	9142.13
472.22	9591.52
472.40	9165.54
472.58	9217.03
472.77	9610.24
472.95	9390.23
473.13	9834.93
473.31	9493.21
473.49	9511.94
473.67	9423.00
473.85	9570.45
474.03	9984.73
474.21	9755.35
474.39	9898.13
474.57	9811.53
474.75	9856.00
474.93	10249.21
475.12	9961.32
475.30	10080.69
475.48	10083.03
475.66	10141.54
475.84	10239.84
476.02	10289.00
476.20	10387.30
476.38	10438.79
476.56	10712.63
476.74	10609.65
476.92	10684.55
477.10	10368.57
477.28	10712.63
477.46	10658.80
477.64	10979.45
477.82	11318.83
478.00	11375.00
478.18	11206.48
478.36	11473.31
478.54	11496.71
478.72	11440.54
478.90	11407.77
479.08	11812.68
479.26	11798.64
479.44	11639.48
479.62	12028.01
479.80	11875.88
479.98	12154.40
480.16	12318.24
480.34	11934.39
480.52	12362.71
480.70	12599.10
480.88	12161.42
481.06	12336.96
481.24	12313.56
481.41	12725.49
481.59	12844.86
481.77	12966.57
481.95	13209.98
482.13	12978.27
482.31	12982.95
482.49	13654.69
482.67	13474.46
482.85	13694.47
483.03	13631.28
483.21	13537.66
483.39	13973.00
483.57	13694.47
483.74	13886.40
483.92	13914.48
484.10	14249.18
484.28	14539.41
484.46	14576.86
484.64	14663.46
484.82	14525.36
485.00	14839.00
485.18	14871.76
485.35	15236.89
485.53	15197.10
485.71	15147.95
485.89	15543.50
486.07	15417.11
486.25	15524.77
486.43	15590.31
486.61	15704.99
486.78	15871.17
486.96	16114.59
487.14	16095.86
487.32	16620.14
487.50	16603.76
487.68	16610.78
487.85	16702.06
488.03	16931.44
488.21	17074.21
488.39	17128.04
488.57	17420.61
488.75	17238.05
488.92	17544.66
489.10	17781.05
489.28	17579.76
489.46	17572.74
489.64	17905.10
489.81	17961.27
489.99	18136.81
490.17	18284.26
490.35	18331.08
490.53	18775.78
490.70	19063.66
490.88	18754.71
491.06	19047.28
491.24	19173.67
491.41	18864.72
491.59	19248.57
491.77	19328.14
491.95	19367.93
492.13	19831.36
492.30	19852.42
492.48	19737.74
492.66	19854.76
492.84	19962.43
493.01	20304.15
493.19	20409.47
493.37	20690.34
493.54	20505.43
493.72	21010.99
493.90	20608.42
494.08	20999.29
494.25	21413.56
494.43	21326.96
494.61	21242.70
494.79	21528.25
494.96	21600.80
495.14	21546.97
495.32	22092.32
495.49	21907.41
495.67	22136.79
495.85	22214.02
496.02	22427.01
496.20	22391.91
496.38	22223.39
496.55	22391.91
496.73	23185.35
496.91	22789.80
497.09	22909.16
497.26	23166.62
497.44	23161.94
497.62	23166.62
497.79	23246.20
497.97	23487.28
498.14	23723.67
498.32	23866.44
498.50	23756.44
498.67	24205.82
498.85	24093.47
499.03	23903.89
499.20	24081.77
499.38	24245.61
499.56	24435.19
499.73	24353.27
499.91	24622.44
500.08	24870.53
500.26	24751.17
500.44	24978.20
500.61	24800.32
500.79	25003.94
500.97	25146.72
501.14	25331.62
501.32	25544.61
501.49	25399.49
501.67	25525.88
501.84	25694.40
502.02	25921.43
502.20	25724.83
502.37	25921.43
502.55	25855.90
502.72	26230.38
502.90	26022.08
503.07	25963.56
503.25	26450.39
503.43	26195.28
503.60	26525.29
503.78	26703.17
503.95	26754.66
504.13	26867.01
504.30	27239.15
504.48	27051.91
504.65	26831.90
504.83	26932.54
505.01	27063.61
505.18	27388.95
505.36	27538.74
505.53	27786.84
505.71	27538.74
505.88	27651.09
506.06	27496.61
506.23	27828.97
506.41	27791.52
506.58	27763.43
506.76	28053.66
506.93	28311.12
507.11	28395.38
507.28	28168.35
507.46	28573.26
507.63	28463.25
507.81	28732.42
507.98	28521.77
508.16	28971.15
508.33	28828.38
508.50	29237.97
508.68	28903.28
508.85	29149.03
509.03	29116.26
509.20	28814.34
509.38	29343.30
509.55	29544.58
509.73	29474.37
509.90	29710.76
510.08	29888.64
510.25	29788.00
510.42	29820.77
510.60	30089.93
510.77	30045.46
510.95	30260.79
511.12	29940.13
511.30	30146.10
511.47	30345.05
511.64	30497.18
511.82	30632.93
511.99	30286.53
512.17	30820.17
512.34	30541.65
512.51	31021.46
512.69	30902.09
512.86	30471.43
513.04	31285.94
513.21	30934.86
513.38	31267.22
513.56	31248.49
513.73	31178.28
513.90	31124.44
514.08	31328.07
514.25	31613.62
514.43	31606.59
514.60	31749.37
514.77	31892.14
514.95	32329.82
515.12	31934.27
515.29	32018.53
515.47	32105.13
515.64	32219.81
515.81	32423.44
515.99	32320.46
516.16	32580.26
516.33	32671.54
516.51	32680.90
516.68	32355.57
516.85	32622.39
517.03	32685.58
517.20	32889.21
517.37	32826.01
517.54	33291.78
517.72	32926.66
517.89	33127.94
518.06	33160.71
518.24	33350.29
518.41	32980.49
518.58	33284.76
518.75	33174.75
518.93	33340.93
519.10	33116.24
519.27	33535.20
519.45	33350.29
519.62	33610.09
519.79	34174.16
519.96	34103.95
520.14	34431.62
520.31	34007.98
520.48	34057.14
520.65	34272.46
520.83	34934.84
521.00	34197.57
521.17	34639.93
521.34	34918.45
521.52	34829.51
521.69	34918.45
521.86	34705.46
522.03	34803.77
522.20	35323.36
522.38	35349.11
522.55	35079.95
522.72	35306.98
522.89	35379.54
523.07	35480.18
523.24	35749.34
523.41	35969.35
523.58	35325.71
523.75	35791.47
523.92	35402.94
524.10	36065.31
524.27	36156.60
524.44	35927.22
524.61	35566.78
524.78	36222.13
524.96	36718.32
525.13	36343.84
525.30	36540.44
525.47	36290.01
525.64	36062.97
525.81	36521.72
525.98	36678.54
526.16	36762.79
526.33	36715.98
526.50	36725.35
526.67	36439.80
526.84	36847.05
527.01	36446.82
527.18	36854.08
527.36	37205.16
527.53	36957.06
527.70	37280.05
527.87	37804.33
528.04	37397.08
528.21	37460.27
528.38	37038.98
528.55	37223.88
528.72	37450.91
528.89	37415.80
529.07	37420.48
529.24	37383.04
529.41	37621.77
529.58	37598.37
529.75	37780.93
529.92	37593.68
530.09	38197.54
530.26	37666.24
530.43	38108.60
530.60	37436.87
530.77	37965.83
530.94	37806.67
531.11	37860.51
531.28	38005.62
531.46	38209.25
531.63	38225.63
531.80	38347.34
531.97	38455.00
532.14	38405.85
532.31	38272.44
532.48	38756.93
532.65	38864.60
532.82	38672.67
532.99	38927.79
533.16	38667.99
533.33	38995.67
533.50	38714.80
533.67	38911.41
533.84	38628.20
534.01	39222.70
534.18	39019.07
534.35	39751.66
534.52	39363.13
534.69	39599.52
534.86	39133.76
535.03	39536.33
535.20	39721.23
535.37	39332.70
535.54	39943.58
535.71	39901.45
535.88	39665.06
536.05	39690.80
536.22	40371.90
536.38	39922.52
536.55	40037.20
536.72	39988.05
536.89	40013.80
537.06	40114.44
537.23	40184.66
537.40	40247.85
537.57	40051.25
537.74	40114.44
537.91	40676.17
538.08	40760.43
538.25	39838.26
538.42	40273.60
538.59	40650.42
538.75	40858.73
538.92	40701.92
539.09	40631.70
539.26	40673.83
539.43	40385.94
539.60	40851.71
539.77	40858.73
539.94	41455.57
540.11	40655.11
540.28	40854.05
540.44	40917.25
540.61	40877.46
540.78	41308.11
540.95	41254.28
541.12	40982.78
541.29	40837.67
541.46	41352.58
541.62	41373.65
541.79	41221.52
541.96	40964.06
542.13	41315.14
542.30	41387.69
542.47	41270.67
542.63	41481.31
542.80	41799.63
542.97	42129.64
543.14	41918.99
543.31	42171.77
543.48	41902.61
543.64	42705.41
543.81	42553.28
543.98	41858.14
544.15	42501.79
544.32	42476.04
544.48	42747.54
544.65	42249.01
544.82	42485.40
544.99	42377.74
545.16	42298.16
545.32	42436.25
545.49	42902.02
545.66	42792.01
545.83	42539.24
546.00	42836.48
546.16	42780.31
546.33	42597.75
546.50	42644.56
546.67	42857.55
546.83	42356.67
547.00	42806.06
547.17	42880.95
547.34	42981.60
547.50	43250.76
547.67	43426.30
547.84	43264.80
548.00	43342.04
548.17	43639.29
548.34	43360.76
548.51	43545.67
548.67	43613.54
548.84	43587.80
549.01	43611.20
549.18	43276.51
549.34	43833.55
549.51	43737.59
549.68	43753.97
549.84	43786.74
550.01	43913.13
550.18	43796.10
550.34	43842.92
550.51	43721.21
550.68	44233.78
550.84	43489.49
551.01	43798.44
551.18	43971.64
551.34	44032.50
551.51	44315.70
551.68	44222.08
551.84	43878.02
552.01	43934.20
552.18	44083.99
552.34	43903.77
552.51	44559.12
552.68	44093.35
552.84	43922.49
553.01	44435.07
553.18	43868.66
553.34	44198.68
553.51	44240.81
553.67	44470.18
553.84	44650.40
554.01	44942.97
554.17	44498.26
554.34	45031.91
554.51	44877.43
554.67	45036.59
554.84	44980.42
555.00	44584.86
555.17	44718.28
555.33	45104.46
555.50	44835.30
555.67	45003.82
555.83	44858.71
556.00	45263.62
556.16	45155.96
556.33	45043.61
556.50	45092.76
556.66	44982.76
556.83	44849.35
556.99	45455.54
557.16	45453.20
557.32	45439.16
557.49	45406.39
557.65	45059.99
557.82	45446.18
557.98	45291.71
558.15	45366.60
558.32	45125.53
558.48	45256.60
558.65	45375.97
558.81	44966.37
558.98	45689.60
559.14	45394.69
559.31	45179.36
559.47	45418.10
559.64	45673.21
559.80	45759.81
559.97	45483.63
560.13	45516.40
560.30	45584.27
560.46	46122.60
560.63	45900.25
560.79	46256.01
560.96	46328.56
561.12	45724.71
561.29	46010.25
561.45	45790.24
561.61	46176.43
561.78	45982.16
561.94	45565.55
562.11	45778.54
562.27	45804.28
562.44	46288.77
562.60	46298.14
562.77	45879.18
562.93	45717.68
563.10	46293.46
563.26	45748.11
563.42	46319.20
563.59	46120.26
563.75	46272.39
563.92	46031.32
564.08	45860.46
564.24	46492.40
564.41	46316.86
564.57	46728.80
564.74	46146.00
564.90	46380.06
565.07	46108.55
565.23	46092.17
565.39	45965.78
565.56	46445.59
565.72	46630.49
565.88	46691.35
566.05	46469.00
566.21	46403.46
566.38	46286.43
566.54	46557.94
566.70	46223.24
566.87	46476.02
567.03	46419.84
567.19	46574.32
567.36	46330.90
567.52	46513.47
567.68	46904.34
567.85	46543.89
568.01	46953.49
568.17	46670.28
568.34	46824.76
568.50	46782.63
568.66	46305.16
568.83	46614.11
568.99	46740.50
569.15	46621.13
569.32	46665.60
569.48	46703.05
569.64	47110.30
569.81	46953.49
569.97	47002.64
570.13	46799.01
570.30	46429.21
570.46	46761.56
570.62	47107.96
570.78	46808.37
570.95	46761.56
571.11	47236.69
571.27	46600.07
571.43	46944.12
571.60	46808.37
571.76	46944.12
571.92	47232.01
572.09	47044.77
572.25	46548.57
572.41	47107.96
572.57	47136.05
572.74	47491.81
572.90	46604.75
573.06	47241.37
573.22	47220.31
573.38	46951.15
573.55	47122.01
573.71	47842.89
573.87	46887.95
574.03	46995.62
574.20	47632.24
574.36	47180.52
574.52	47194.56
574.68	47564.37
574.84	47372.44
575.01	47409.89
575.17	47306.91
575.33	47384.15
575.49	47016.68
575.65	47360.74
575.82	47728.20
575.98	46899.65
576.14	47316.27
576.30	47810.12
576.46	47220.31
576.62	47363.08
576.79	47318.61
576.95	46780.29
577.11	47068.17
577.27	47519.90
577.43	47744.59
577.59	47063.49
577.75	47145.41
577.92	46836.46
578.08	47173.50
578.24	47482.45
578.40	47332.65
578.56	47714.16
578.72	47512.88
578.88	47578.41
579.04	47299.89
579.21	47224.99
579.37	47445.00
579.53	47552.66
579.69	47426.28
579.85	47330.31
580.01	46820.08
580.17	47550.32
580.33	47393.51
580.49	47662.67
580.65	47325.63
580.82	47564.37
580.98	47058.81
581.14	46930.08
581.30	47543.30
581.46	47070.51
581.62	47131.37
581.78	47491.81
581.94	47332.65
582.10	47868.64
582.26	47660.33
582.42	47423.93
582.58	47620.54
582.74	47412.23
582.90	47924.81
583.06	47419.25
583.22	47342.02
583.38	47540.96
583.54	47632.24
583.70	47384.15
583.86	47545.64
584.02	47779.70
584.18	47917.79
584.34	47545.64
584.50	47957.58
584.66	47688.42
584.82	47620.54
584.98	47962.26
585.14	47744.59
585.30	47723.52
585.46	47442.66
585.62	47899.06
585.78	47718.84
585.94	47152.43
586.10	47730.54
586.26	47327.97
586.42	47777.36
586.58	47606.50
586.74	47555.00
586.90	47475.43
587.06	47948.21
587.22	47517.56
587.38	47632.24
587.54	47934.17
587.70	48048.86
587.86	48062.90
588.02	47742.25
588.18	47445.00
588.34	47714.16
588.49	47704.80
588.65	47810.12
588.81	47730.54
588.97	47791.40
589.13	47604.16
589.29	47721.18
589.45	47833.53
589.61	47592.45
589.77	47580.75
589.93	48023.11
590.08	47896.72
