SpectraSuite Data File
++++++++++++++++++++++++++++++++++++
Date: Fri Oct 25 10:44:26 EDT 2013
User: price-jones
Dark Spectrum Present: No
Reference Spectrum Present: No
Number of Sampled Component Spectra: 1
Spectrometers: USB2+H05261
Integration Time (usec): 100000 (USB2+H05261)
Spectra Averaged: 1 (USB2+H05261)
Boxcar Smoothing: 0 (USB2+H05261)
Correct for Electrical Dark: No (USB2+H05261)
Strobe/Lamp Enabled: No (USB2+H05261)
Correct for Detector Non-linearity: No (USB2+H05261)
Correct for Stray Light: No (USB2+H05261)
Number of Pixels in Processed Spectrum: 2048
>>>>>Begin Processed Spectral Data<<<<<
365.73	138.09
365.92	138.09
366.12	138.09
366.32	84.26
366.52	7.02
366.72	53.83
366.91	95.96
367.11	51.49
367.31	18.72
367.51	86.60
367.70	28.09
367.90	65.54
368.10	0.00
368.30	39.79
368.49	25.75
368.69	25.75
368.89	25.75
369.09	46.81
369.28	65.54
369.48	39.79
369.68	25.75
369.87	140.43
370.07	0.00
370.27	180.22
370.47	187.24
370.66	322.99
370.86	404.91
371.06	500.87
371.25	505.56
371.45	477.47
371.65	435.34
371.84	519.60
372.04	430.66
372.24	444.70
372.44	503.22
372.63	433.00
372.83	475.13
373.03	507.90
373.22	484.49
373.42	507.90
373.62	641.31
373.81	587.47
374.01	596.84
374.21	592.16
374.40	500.87
374.60	561.73
374.79	587.47
374.99	695.14
375.19	606.20
375.38	613.22
375.58	613.22
375.78	620.24
375.97	613.22
376.17	676.41
376.37	573.43
376.56	582.79
376.76	601.52
376.95	622.58
377.15	655.35
377.35	634.29
377.54	699.82
377.74	702.16
377.93	589.82
378.13	720.88
378.33	732.59
378.52	643.65
378.72	723.23
378.91	678.76
379.11	674.07
379.31	655.35
379.50	653.01
379.70	655.35
379.89	763.01
380.09	718.54
380.28	702.16
380.48	704.50
380.68	746.63
380.87	624.92
381.07	671.73
381.26	760.67
381.46	681.10
381.65	671.73
381.85	713.86
382.04	763.01
382.24	716.20
382.43	727.91
382.63	676.41
382.83	772.38
383.02	777.06
383.22	830.89
383.41	711.52
383.61	704.50
383.80	784.08
384.00	744.29
384.19	723.23
384.39	821.53
384.58	739.61
384.78	870.68
384.97	873.02
385.17	758.33
385.36	770.04
385.56	812.17
385.75	760.67
385.95	791.10
386.14	919.83
386.34	849.61
386.53	947.92
386.72	830.89
386.92	933.87
387.11	875.36
387.31	954.94
387.50	901.11
387.70	915.15
387.89	929.19
388.09	887.06
388.28	814.51
388.48	980.68
388.67	964.30
388.86	882.38
389.06	954.94
389.25	922.17
389.45	1008.77
389.64	990.05
389.84	1081.33
390.03	1086.01
390.22	1008.77
390.42	1015.79
390.61	999.41
390.81	1163.25
391.00	1025.15
391.19	1055.58
391.39	1109.41
391.58	1034.52
391.78	1029.84
391.97	1090.69
392.16	1062.60
392.36	1090.69
392.55	1039.20
392.75	1114.10
392.94	1067.28
393.13	1088.35
393.33	964.30
393.52	1011.11
393.71	1177.29
393.91	1137.50
394.10	1067.28
394.29	1212.40
394.49	1252.19
394.68	1214.74
394.88	1247.51
395.07	1210.06
395.26	1306.02
395.46	1432.41
395.65	1352.83
395.84	1287.29
396.04	1275.59
396.23	1163.25
396.42	1174.95
396.62	1203.04
396.81	1259.21
397.00	1235.80
397.19	1291.98
397.39	1343.47
397.58	1411.34
397.77	1486.24
397.97	1486.24
398.16	1453.47
398.35	1570.50
398.55	1481.56
398.74	1430.07
398.93	1577.52
399.12	1535.39
399.32	1584.54
399.51	1568.16
399.70	1652.42
399.90	1556.46
400.09	1596.25
400.28	1703.91
400.47	1661.78
400.67	1753.06
400.86	1720.29
401.05	1755.40
401.24	1561.14
401.44	1785.83
401.63	1865.41
401.82	1760.08
402.01	1792.85
402.21	1837.32
402.40	1865.41
402.59	1790.51
402.78	1853.70
402.97	1846.68
403.17	1919.24
403.36	1856.04
403.55	1790.51
403.74	2033.93
403.93	1944.99
404.13	1872.43
404.32	1961.37
404.51	2012.86
404.70	1977.75
404.89	1919.24
405.09	2108.82
405.28	1792.85
405.47	2111.16
405.66	2090.10
405.85	2064.35
406.05	2090.10
406.24	2083.08
406.43	2099.46
406.62	2108.82
406.81	2265.64
407.00	2181.38
407.20	2069.03
407.39	2172.02
407.58	2251.60
407.77	2150.95
407.96	2275.00
408.15	2319.47
408.34	2333.51
408.54	2249.25
408.73	2427.14
408.92	2338.20
409.11	2499.69
409.30	2307.77
409.49	2389.69
409.68	2335.85
409.87	2359.26
410.07	2462.24
410.26	2469.27
410.45	2431.82
410.64	2462.24
410.83	2485.65
411.02	2722.04
411.21	2656.51
411.40	2616.72
411.59	2708.00
411.78	2750.13
411.98	2757.15
412.17	2764.17
412.36	2778.22
412.55	2710.34
412.74	2799.28
412.93	2818.00
413.12	2752.47
413.31	2991.20
413.50	2869.50
413.69	2899.92
413.88	3005.25
414.07	3115.25
414.26	3023.97
414.45	3049.72
414.64	3133.98
414.83	3180.79
415.02	3112.91
415.22	3101.21
415.41	3229.94
415.60	3192.49
415.79	3187.81
415.98	3281.43
416.17	3349.31
416.36	3255.69
416.55	3300.16
416.74	3297.81
416.93	3346.97
417.12	3421.86
417.31	3471.01
417.50	3583.36
417.69	3576.34
417.88	3489.74
418.07	3473.36
418.26	3421.86
418.45	3461.65
418.64	3777.62
418.83	3503.78
419.02	3644.21
419.21	3681.66
419.39	3726.13
419.58	3566.98
419.77	3604.42
419.96	3719.11
420.15	3782.31
420.34	3824.44
420.53	3808.05
420.72	3831.46
420.91	3803.37
421.10	3906.35
421.29	4028.06
421.48	3808.05
421.67	4056.15
421.86	3880.61
422.05	4014.02
422.24	3782.31
422.43	3880.61
422.61	3927.42
422.80	4088.92
422.99	4114.66
423.18	4147.43
423.37	4028.06
423.56	4058.49
423.75	4269.14
423.94	3934.44
424.13	3698.05
424.32	3939.12
424.50	4131.05
424.69	4231.69
424.88	4163.81
425.07	4084.23
425.26	3892.31
425.45	4058.49
425.64	4044.45
425.83	3997.64
426.01	4053.81
426.20	4093.60
426.39	4093.60
426.58	4051.47
426.77	3913.38
426.96	4074.87
427.15	4049.13
427.33	4236.37
427.52	4194.24
427.71	4222.33
427.90	4205.94
428.09	4227.01
428.28	4269.14
428.46	4189.56
428.65	4224.67
428.84	4475.10
429.03	4390.84
429.22	4248.07
429.40	4196.58
429.59	4229.35
429.78	4093.60
429.97	4049.13
430.16	4166.15
430.34	4210.62
430.53	4231.69
430.72	4163.81
430.91	4395.53
431.10	4472.76
431.28	4528.94
431.47	4713.84
431.66	4692.77
431.85	4730.22
432.03	4793.42
432.22	4643.62
432.41	4746.61
432.60	4713.84
432.79	4798.10
432.97	4952.57
433.16	4781.71
433.35	4732.56
433.54	4887.04
433.72	4826.18
433.91	4870.65
434.10	4898.74
434.28	4929.17
434.47	5018.11
434.66	5093.01
434.85	4992.36
435.03	5198.33
435.22	5050.88
435.41	5334.08
435.59	5146.84
435.78	5240.46
435.97	5301.31
436.16	5298.97
436.34	5268.55
436.53	5322.38
436.72	5425.36
436.90	5277.91
437.09	5336.42
437.28	5203.01
437.46	5135.14
437.65	5413.66
437.84	5387.91
438.02	5366.85
438.21	5247.48
438.40	5336.42
438.58	5432.38
438.77	5643.03
438.96	5589.20
439.14	5846.66
439.33	5888.79
439.52	5982.41
439.70	5844.32
439.89	5757.72
440.08	5881.77
440.26	5970.71
440.45	5760.06
440.63	6066.67
440.82	6010.50
441.01	6043.26
441.19	6134.54
441.38	6150.93
441.57	6394.34
441.75	6359.24
441.94	6471.58
442.12	6345.19
442.31	6502.01
442.50	6604.99
442.68	6459.88
442.87	6471.58
443.05	6609.67
443.24	6560.52
443.43	6747.76
443.61	6637.76
443.80	6796.92
443.98	6431.79
444.17	6525.41
444.35	6902.24
444.54	6904.58
444.73	6857.77
444.91	6595.63
445.10	6759.47
445.28	6670.53
445.47	6628.40
445.65	6684.57
445.84	6693.93
446.02	6799.26
446.21	6623.72
446.39	6927.99
446.58	6839.05
446.77	6794.58
446.95	6850.75
447.14	7037.99
447.32	6963.09
447.51	6881.18
447.69	6752.45
447.88	6853.09
448.06	6878.83
448.25	6895.22
448.43	7049.69
448.62	7000.54
448.80	6719.68
448.99	6892.88
449.17	7002.88
449.36	6932.67
449.54	7225.23
449.73	7314.17
449.91	7243.96
450.10	7375.03
450.28	7475.67
450.46	7473.33
450.65	7431.20
450.83	7489.71
451.02	7236.94
451.20	7524.82
451.39	7496.74
451.57	7435.88
451.76	7382.05
451.94	7555.25
452.13	7353.96
452.31	7482.69
452.49	7290.77
452.68	7428.86
452.86	7492.05
453.05	7417.16
453.23	7634.83
453.42	7592.70
453.60	7489.71
453.78	7756.54
453.97	7604.40
454.15	7688.66
454.34	7531.84
454.52	7831.43
454.70	7737.81
454.89	7662.91
455.07	7810.37
455.26	7953.14
455.44	7871.22
455.62	8039.74
455.81	7920.37
455.99	7957.82
456.17	8037.40
456.36	8131.02
456.54	7992.93
456.73	8320.60
456.91	8322.94
457.09	8306.56
457.28	8461.04
457.46	8299.54
457.64	8425.93
457.83	8688.07
458.01	8175.49
458.19	8519.55
458.38	8383.80
458.56	8505.51
458.74	8449.33
458.93	8465.72
459.11	8533.59
459.29	8690.41
459.48	8758.28
459.66	8713.81
459.84	8681.05
460.03	8681.05
460.21	8699.77
460.39	8674.03
460.57	8842.54
460.76	8912.76
460.94	8762.97
461.12	8861.27
461.31	9076.60
461.49	8765.31
461.67	8875.31
461.85	9081.28
462.04	8961.91
462.22	9296.61
462.40	9064.89
462.59	9088.30
462.77	9048.51
462.95	9205.33
463.13	9015.74
463.32	9090.64
463.50	9397.25
463.68	9392.57
463.86	9200.65
464.05	9156.18
464.23	9231.07
464.41	9221.71
464.59	9139.79
464.78	9572.79
464.96	9273.20
465.14	9312.99
465.32	9469.81
465.50	9488.53
465.69	9673.43
465.87	9551.73
466.05	9476.83
466.23	9282.56
466.41	9451.08
466.60	9774.08
466.78	9305.97
466.96	9458.10
467.14	9390.23
467.32	9441.72
467.51	9710.88
467.69	9385.55
467.87	9745.99
468.05	9778.76
468.23	9781.10
468.41	9570.45
468.60	9612.58
468.78	9806.84
468.96	9877.06
469.14	9970.68
469.32	10005.79
469.50	9856.00
469.69	10078.35
469.87	10310.06
470.05	10186.01
470.23	10188.35
470.41	9919.19
470.59	10188.35
470.77	10033.88
470.95	10242.18
471.14	10471.56
471.32	10296.02
471.50	10731.36
471.68	10621.35
471.86	10602.63
472.04	10686.89
472.22	10946.69
472.40	10471.56
472.58	10794.55
472.77	10848.38
472.95	10904.56
473.13	11190.10
473.31	10846.04
473.49	10853.06
473.67	10883.49
473.85	10993.50
474.03	11033.29
474.21	11358.62
474.39	11304.79
474.57	11283.72
474.75	11332.87
474.93	11435.86
475.12	11604.38
475.30	11510.75
475.48	11580.97
475.66	11445.22
475.84	11480.33
476.02	11688.64
476.20	11728.42
476.38	11756.51
476.56	12287.81
476.74	12138.02
476.92	12187.17
477.10	12039.72
477.28	12510.16
477.46	12404.84
477.64	12699.75
477.82	12821.45
478.00	13137.43
478.18	12774.64
478.36	12589.74
478.54	13338.71
478.72	13151.47
478.90	13245.09
479.08	13275.52
479.26	13654.69
479.44	13568.09
479.62	13760.01
479.80	13554.04
479.98	13760.01
480.16	14141.52
480.34	13961.30
480.52	14176.62
480.70	14200.03
480.88	14078.32
481.06	14134.50
481.24	14640.05
481.41	14878.79
481.59	14796.87
481.77	14956.02
481.95	14850.70
482.13	15051.99
482.31	15051.99
482.49	15161.99
482.67	15250.93
482.85	15339.87
483.03	15524.77
483.21	15679.25
483.39	15751.81
483.57	15791.59
483.74	15976.50
483.92	15800.96
484.10	15772.87
484.28	16549.93
484.46	16540.57
484.64	16786.32
484.82	16458.65
485.00	16676.32
485.18	16840.15
485.35	17011.01
485.53	16507.80
485.71	16482.05
485.89	16805.05
486.07	16772.28
486.25	17163.15
486.43	17326.99
486.61	17631.26
486.78	17750.62
486.96	17813.82
487.14	18141.49
487.32	18190.64
487.50	18354.48
487.68	18698.54
487.85	18855.36
488.03	18778.12
488.21	19019.19
488.39	19066.00
488.57	19030.90
488.75	19400.70
488.92	19454.53
489.10	19903.92
489.28	19831.36
489.46	20081.80
489.64	20081.80
489.81	20725.44
489.99	20680.97
490.17	21064.82
490.35	20917.37
490.53	20718.42
490.70	20957.16
490.88	20989.92
491.06	21106.95
491.24	21275.47
491.41	21212.28
491.59	21617.19
491.77	21151.42
491.95	21436.97
492.13	21720.17
492.30	22003.38
492.48	22328.71
492.66	22244.45
492.84	22347.44
493.01	22595.53
493.19	22113.38
493.37	22838.95
493.54	22693.83
493.72	23159.60
493.90	23241.52
494.08	23536.43
494.25	23468.55
494.43	23606.64
494.61	23847.72
494.79	23950.70
494.96	23786.86
495.14	24020.92
495.32	24451.58
495.49	24102.84
495.67	24383.70
495.85	24662.22
496.02	24692.65
496.20	25102.25
496.38	24891.60
496.55	25324.60
496.73	25514.18
496.91	25263.74
497.09	25668.66
497.26	25940.16
497.44	25495.46
497.62	25986.97
497.79	26260.81
497.97	25926.11
498.14	26001.01
498.32	26160.17
498.50	26328.69
498.67	26525.29
498.85	26567.42
499.03	26962.97
499.20	26913.82
499.38	27143.19
499.56	27342.14
499.73	27007.44
499.91	27126.81
500.08	27187.66
500.26	27054.25
500.44	27316.39
500.61	27421.72
500.79	27171.28
500.97	27592.58
501.14	27676.83
501.32	27714.28
501.49	27782.16
501.67	27761.09
501.84	28158.99
502.02	28170.69
502.20	28252.61
502.37	28442.19
502.55	28407.08
502.72	28599.01
502.90	29123.29
503.07	28610.71
503.25	28629.43
503.43	28697.31
503.60	28865.83
503.78	28966.47
503.95	28851.78
504.13	29219.25
504.30	29333.93
504.48	29710.76
504.65	29589.05
504.83	29656.93
505.01	29809.06
505.18	29745.87
505.36	30597.82
505.53	29809.06
505.71	30700.81
505.88	30581.44
506.06	30071.20
506.23	30188.23
506.41	30349.73
506.58	30429.30
506.76	30410.58
506.93	30754.64
507.11	30506.54
507.28	30710.17
507.46	30424.62
507.63	30405.90
507.81	31194.66
507.98	30639.95
508.16	31318.71
508.33	31400.63
508.50	31328.07
508.68	31737.66
508.85	31505.95
509.03	31487.23
509.20	31793.84
509.38	31971.72
509.55	32013.85
509.73	32018.53
509.90	31782.13
510.08	32203.43
510.25	31655.75
510.42	32362.59
510.60	32570.90
510.77	32531.11
510.95	32701.96
511.12	32290.03
511.30	32423.44
511.47	33071.77
511.64	32907.93
511.82	32912.61
511.99	32519.40
512.17	33209.86
512.34	32919.63
512.51	33230.93
512.69	33610.09
512.86	33450.94
513.04	33902.66
513.21	33352.63
513.38	33170.07
513.56	33603.07
513.73	33247.31
513.90	33890.96
514.08	33537.54
514.25	33895.64
514.43	33905.00
514.60	34057.14
514.77	34103.95
514.95	34125.01
515.12	34328.64
515.29	34511.20
515.47	35040.16
515.64	34656.31
515.81	34646.95
515.99	34185.86
516.16	34127.35
516.33	34384.81
516.51	34426.94
516.68	34192.89
516.85	33907.34
517.03	34225.65
517.20	34555.67
517.37	35033.14
517.54	34904.41
517.72	34663.33
517.89	35072.93
518.06	34705.46
518.24	34951.22
518.41	35138.46
518.58	34972.28
518.75	35594.87
518.93	35438.05
519.10	35782.11
519.27	35931.90
519.45	36058.29
519.62	35737.64
519.79	35971.69
519.96	35983.40
520.14	35915.52
520.31	36084.04
520.48	36493.63
520.65	36439.80
520.83	36751.09
521.00	36463.21
521.17	36657.47
521.34	36985.15
521.52	36863.44
521.69	36996.85
521.86	36856.42
522.03	37170.05
522.20	36872.80
522.38	37095.15
522.55	37102.17
522.72	36863.44
522.89	37062.38
523.07	37354.95
523.24	37266.01
523.41	37490.70
523.58	37691.99
523.75	38054.77
523.92	38274.78
524.10	38195.20
524.27	38293.50
524.44	38045.41
524.61	38396.49
524.78	38141.37
524.96	38473.73
525.13	38452.66
525.30	38696.08
525.47	38700.76
525.64	38754.59
525.81	38356.70
525.98	37993.92
526.16	38007.96
526.33	37689.65
526.50	38092.22
526.67	38017.32
526.84	38183.50
527.01	38223.29
527.18	38703.10
527.36	39117.37
527.53	39133.76
527.70	38979.28
527.87	39365.47
528.04	38983.96
528.21	38923.11
528.38	39330.36
528.55	39564.42
528.72	39014.39
528.89	39819.53
529.07	39667.40
529.24	39337.38
529.41	39559.73
529.58	39728.25
529.75	39503.56
529.92	39892.09
530.09	39990.39
530.26	39449.73
530.43	40009.12
530.60	39754.00
530.77	40163.59
530.94	40383.60
531.11	40231.47
531.28	40385.94
531.46	40252.53
531.63	40130.83
531.80	40573.19
531.97	40381.26
532.14	40170.61
532.31	40161.25
532.48	40119.12
532.65	40519.35
532.82	39885.07
532.99	40360.20
533.16	40350.84
533.33	40720.64
533.50	40975.76
533.67	40938.31
533.84	41254.28
534.01	41062.36
534.18	40954.69
534.35	40818.94
534.52	40788.52
534.69	40863.41
534.86	41212.15
535.03	40959.38
535.20	41956.44
535.37	42059.43
535.54	41640.47
535.71	41593.66
535.88	41429.82
536.05	41748.14
536.22	41230.88
536.38	41696.64
536.55	41684.94
536.72	41607.70
536.89	41270.67
537.06	41441.53
537.23	41617.07
537.40	41947.08
537.57	42160.07
537.74	41855.80
537.91	41797.29
538.08	42050.06
538.25	41773.88
538.42	41923.68
538.59	42197.52
538.75	41532.81
538.92	41598.34
539.09	42419.87
539.26	42232.63
539.43	42087.51
539.60	41748.14
539.77	42162.41
539.94	42316.89
540.11	41848.78
540.28	42277.10
540.44	42153.05
540.61	42300.50
540.78	42412.85
540.95	42469.02
541.12	42457.32
541.29	42211.56
541.46	42361.36
541.62	42513.49
541.79	42902.02
541.96	42298.16
542.13	42742.86
542.30	42852.87
542.47	42426.89
542.63	42974.58
542.80	43028.41
542.97	43447.36
543.14	43959.94
543.31	43564.39
543.48	43395.87
543.64	44194.00
543.81	43707.16
543.98	43875.68
544.15	43679.08
544.32	43650.99
544.48	43856.96
544.65	43966.96
544.82	43646.31
544.99	43531.62
545.16	43934.20
545.32	43878.02
545.49	44161.23
545.66	44294.64
545.83	44292.30
546.00	43709.50
546.16	43964.62
546.33	43580.78
546.50	43831.21
546.67	43969.30
546.83	43555.03
547.00	44182.29
547.17	43985.69
547.34	44156.55
547.50	44577.84
547.67	44458.48
547.84	44715.93
548.00	44437.41
548.17	44830.62
548.34	44685.51
548.51	44601.25
548.67	44725.30
548.84	44669.12
549.01	44676.15
549.18	44570.82
549.34	44404.64
549.51	44875.09
549.68	44601.25
549.84	44931.26
550.01	44582.52
550.18	44631.68
550.34	45020.20
550.51	44882.11
550.68	44706.57
550.84	44648.06
551.01	44528.69
551.18	44966.37
551.34	44638.70
551.51	45177.02
551.68	45209.79
551.84	45067.02
552.01	44891.48
552.18	45085.74
552.34	44767.43
552.51	44971.05
552.68	44842.32
552.84	45298.73
553.01	45287.03
553.18	44947.65
553.34	45392.35
553.51	44903.18
553.67	45406.39
553.84	46021.95
554.01	45705.98
554.17	45610.02
554.34	45570.23
554.51	45652.15
554.67	45457.88
554.84	45364.26
555.00	45324.47
555.17	45624.06
555.33	45677.90
555.50	45549.17
555.67	45390.01
555.83	45586.61
556.00	45916.63
556.16	45815.99
556.33	45574.91
556.50	45710.66
556.66	45736.41
556.83	45432.14
556.99	46120.26
557.16	45794.92
557.32	45584.27
557.49	45846.41
557.65	45734.07
557.82	45399.37
557.98	45865.14
558.15	45722.37
558.32	45682.58
558.48	45441.50
558.65	45904.93
558.81	46080.47
558.98	45675.55
559.14	45813.65
559.31	45918.97
559.47	46178.77
559.64	46087.49
559.80	46644.54
559.97	45907.27
560.13	45773.86
560.30	45914.29
560.46	45916.63
560.63	46300.48
560.79	46492.40
560.96	46536.87
561.12	46089.83
561.29	46293.46
561.45	45656.83
561.61	45970.46
561.78	46080.47
561.94	45869.82
562.11	46237.28
562.27	46211.54
562.44	46138.98
562.60	46646.88
562.77	46316.86
562.93	45979.82
563.10	46370.69
563.26	45937.69
563.42	46403.46
563.59	46450.27
563.75	46213.88
563.92	46515.81
564.08	46321.54
564.24	46890.29
564.41	46618.79
564.57	46281.75
564.74	46349.63
564.90	46181.11
565.07	46178.77
565.23	46410.48
565.39	46328.56
565.56	46550.91
565.72	46557.94
565.88	46419.84
566.05	46553.26
566.21	46237.28
566.38	46342.61
566.54	46361.33
566.70	46801.35
566.87	47082.22
567.03	46829.44
567.19	46845.82
567.36	46527.51
567.52	46366.01
567.68	46651.56
567.85	46497.08
568.01	46454.95
568.17	46309.84
568.34	46469.00
568.50	46705.39
568.66	46127.28
568.83	46436.23
568.99	46232.60
569.15	46560.28
569.32	46745.18
569.48	46319.20
569.64	46691.35
569.81	46665.60
569.97	46281.75
570.13	46504.10
570.30	46124.94
570.46	46548.57
570.62	46080.47
570.78	46047.70
570.95	46342.61
571.11	46593.04
571.27	46351.97
571.43	46745.18
571.60	46417.50
571.76	46597.73
571.92	46717.09
572.09	46717.09
572.25	46412.82
572.41	46382.40
572.57	46396.44
572.74	46904.34
572.90	46560.28
573.06	46801.35
573.22	46801.35
573.38	46799.01
573.55	46522.83
573.71	46885.61
573.87	46714.75
574.03	46454.95
574.20	46560.28
574.36	46424.53
574.52	46588.36
574.68	46939.44
574.84	47063.49
575.01	46646.88
575.17	46506.44
575.33	46316.86
575.49	46440.91
575.65	46459.63
575.82	46553.26
575.98	46387.08
576.14	47098.60
576.30	47037.75
576.46	46670.28
576.62	46618.79
576.79	46461.97
576.95	46476.02
577.11	46464.32
577.27	46642.20
577.43	46815.40
577.59	46461.97
577.75	46059.40
577.92	46660.92
578.08	46710.07
578.24	46553.26
578.40	46609.43
578.56	46822.42
578.72	46902.00
578.88	47023.70
579.04	47004.98
579.21	46518.15
579.37	47051.79
579.53	46782.63
579.69	46651.56
579.85	46761.56
580.01	47178.18
580.17	46520.49
580.33	46761.56
580.49	46885.61
580.65	47164.14
580.82	47374.78
580.98	46703.05
581.14	46820.08
581.30	47229.67
581.46	46843.48
581.62	47107.96
581.78	46773.27
581.94	46906.68
582.10	46443.25
582.26	46883.27
582.42	46387.08
582.58	46766.24
582.74	46913.70
582.90	47004.98
583.06	46782.63
583.22	47002.64
583.38	46869.23
583.54	47180.52
583.70	47150.09
583.86	46733.48
584.02	46553.26
584.18	47327.97
584.34	46728.80
584.50	46871.57
584.66	46738.16
584.82	46866.89
584.98	47075.19
585.14	46843.48
585.30	46471.34
585.46	46726.46
585.62	47194.56
585.78	46361.33
585.94	46031.32
586.10	46705.39
586.26	46841.14
586.42	46817.74
586.58	46894.97
586.74	46906.68
586.90	46925.40
587.06	46946.47
587.22	46944.12
587.38	46663.26
587.54	47302.23
587.70	46948.81
587.86	46986.25
588.02	47159.45
588.18	46684.33
588.34	46763.90
588.49	46492.40
588.65	46146.00
588.81	45897.91
588.97	46174.09
589.13	45940.04
589.29	46607.09
589.45	46539.21
589.61	46457.29
589.77	47175.84
589.93	46974.55
