SpectraSuite Data File
++++++++++++++++++++++++++++++++++++
Date: Fri Oct 25 10:44:45 EDT 2013
User: price-jones
Dark Spectrum Present: No
Reference Spectrum Present: No
Number of Sampled Component Spectra: 1
Spectrometers: USB2+H05261
Integration Time (usec): 100000 (USB2+H05261)
Spectra Averaged: 1 (USB2+H05261)
Boxcar Smoothing: 0 (USB2+H05261)
Correct for Electrical Dark: No (USB2+H05261)
Strobe/Lamp Enabled: No (USB2+H05261)
Correct for Detector Non-linearity: No (USB2+H05261)
Correct for Stray Light: No (USB2+H05261)
Number of Pixels in Processed Spectrum: 2048
>>>>>Begin Processed Spectral Data<<<<<
365.73	149.79
365.92	149.79
366.12	149.79
366.32	25.75
366.52	0.00
366.72	63.19
366.91	46.81
367.11	28.09
367.31	56.17
367.51	86.60
367.70	0.00
367.90	25.75
368.10	28.09
368.30	21.06
368.49	49.15
368.69	51.49
368.89	65.54
369.09	0.00
369.28	37.45
369.48	81.92
369.68	86.60
369.87	93.62
370.07	105.32
370.27	135.75
370.47	161.50
370.66	299.59
370.86	397.89
371.06	454.06
371.25	404.91
371.45	383.85
371.65	360.44
371.84	435.34
372.04	411.93
372.24	465.77
372.44	437.68
372.63	521.94
372.83	528.96
373.03	440.02
373.22	458.74
373.42	500.87
373.62	526.62
373.81	463.43
374.01	461.09
374.21	510.24
374.40	442.36
374.60	631.94
374.79	517.26
374.99	578.11
375.19	521.94
375.38	664.71
375.58	568.75
375.78	545.34
375.97	566.41
376.17	617.90
376.37	559.39
376.56	528.96
376.76	479.81
376.95	538.32
377.15	622.58
377.35	589.82
377.54	578.11
377.74	538.32
377.93	589.82
378.13	594.50
378.33	674.07
378.52	601.52
378.72	645.99
378.91	517.26
379.11	662.37
379.31	596.84
379.50	645.99
379.70	585.13
379.89	620.24
380.09	657.69
380.28	622.58
380.48	585.13
380.68	660.03
380.87	568.75
381.07	643.65
381.26	683.44
381.46	655.35
381.65	669.39
381.85	643.65
382.04	671.73
382.24	739.61
382.43	713.86
382.63	613.22
382.83	676.41
383.02	688.12
383.22	648.33
383.41	753.65
383.61	681.10
383.80	746.63
384.00	692.80
384.19	688.12
384.39	830.89
384.58	739.61
384.78	821.53
384.97	713.86
385.17	732.59
385.36	744.29
385.56	755.99
385.75	737.27
385.95	753.65
386.14	770.04
386.34	791.10
386.53	697.48
386.72	732.59
386.92	894.08
387.11	823.87
387.31	840.25
387.50	795.78
387.70	748.97
387.89	809.83
388.09	856.64
388.28	788.76
388.48	851.96
388.67	849.61
388.86	901.11
389.06	856.64
389.25	917.49
389.45	875.36
389.64	908.13
389.84	952.60
390.03	901.11
390.22	978.34
390.42	929.19
390.61	971.32
390.81	919.83
391.00	905.79
391.19	992.39
391.39	1015.79
391.58	924.51
391.78	1074.31
391.97	943.24
392.16	915.15
392.36	1050.90
392.55	943.24
392.75	959.62
392.94	924.51
393.13	1015.79
393.33	954.94
393.52	1036.86
393.71	950.26
393.91	1029.84
394.10	1046.22
394.29	1032.18
394.49	1172.61
394.68	1188.99
394.88	1078.99
395.07	1158.57
395.26	1088.35
395.46	1118.78
395.65	1207.72
395.84	1170.27
396.04	1205.38
396.23	1203.04
396.42	1020.47
396.62	1139.84
396.81	1097.71
397.00	1160.91
397.19	1191.33
397.39	1299.00
397.58	1254.53
397.77	1291.98
397.97	1254.53
398.16	1306.02
398.35	1385.60
398.55	1294.32
398.74	1359.85
398.93	1350.49
399.12	1284.95
399.32	1331.76
399.51	1336.45
399.70	1427.73
399.90	1313.04
400.09	1380.92
400.28	1306.02
400.47	1348.15
400.67	1427.73
400.86	1481.56
401.05	1493.26
401.24	1437.09
401.44	1488.58
401.63	1547.09
401.82	1575.18
402.01	1528.37
402.21	1523.69
402.40	1507.30
402.59	1511.99
402.78	1661.78
402.97	1645.40
403.17	1598.59
403.36	1584.54
403.55	1748.38
403.74	1696.89
403.93	1614.97
404.13	1556.46
404.32	1638.38
404.51	1699.23
404.70	1626.67
404.89	1701.57
405.09	1811.57
405.28	1675.82
405.47	1746.04
405.66	1926.26
405.85	1720.29
406.05	1715.61
406.24	1746.04
406.43	1678.16
406.62	1863.07
406.81	1893.49
407.00	1909.88
407.20	1877.11
407.39	1909.88
407.58	1919.24
407.77	1975.41
407.96	1949.67
408.15	2064.35
408.34	1952.01
408.54	2097.12
408.73	2120.53
408.92	2155.63
409.11	2064.35
409.30	2024.56
409.49	2087.76
409.68	2162.66
409.87	2092.44
410.07	2169.68
410.26	2136.91
410.45	2150.95
410.64	2216.49
410.83	2207.13
411.02	2265.64
411.21	2253.94
411.40	2382.67
411.59	2349.90
411.78	2289.04
411.98	2333.51
412.17	2408.41
412.36	2356.92
412.55	2473.95
412.74	2539.48
412.93	2548.84
413.12	2441.18
413.31	2476.29
413.50	2630.76
413.69	2546.50
413.88	2705.66
414.07	2661.19
414.26	2626.08
414.45	2602.68
414.64	2712.68
414.83	2656.51
415.02	2700.98
415.22	2916.31
415.41	2899.92
415.60	2731.41
415.79	2780.56
415.98	2930.35
416.17	2928.01
416.36	2738.43
416.55	2864.82
416.74	2902.26
416.93	2932.69
417.12	3038.02
417.31	2946.73
417.50	2993.55
417.69	3131.64
417.88	3056.74
418.07	3173.77
418.26	3049.72
418.45	3056.74
418.64	3206.53
418.83	3267.39
419.02	3213.56
419.21	3290.79
419.39	3272.07
419.58	3220.58
419.77	3063.76
419.96	3255.69
420.15	3286.11
420.34	3332.92
420.53	3337.60
420.72	3454.63
420.91	3534.21
421.10	3396.12
421.29	3487.40
421.48	3335.26
421.67	3452.29
421.86	3503.78
422.05	3405.48
422.24	3382.07
422.43	3400.80
422.61	3632.51
422.80	3466.33
422.99	3648.90
423.18	3494.42
423.37	3618.47
423.56	3637.19
423.75	3613.79
423.94	3599.74
424.13	3485.06
424.32	3492.08
424.50	3581.02
424.69	3679.32
424.88	3639.53
425.07	3684.00
425.26	3674.64
425.45	3637.19
425.64	3655.92
425.83	3578.68
426.01	3768.26
426.20	3768.26
426.39	3754.22
426.58	3597.40
426.77	3623.15
426.96	3627.83
427.15	3758.90
427.33	3700.39
427.52	3723.79
427.71	3789.33
427.90	3838.48
428.09	3796.35
428.28	3772.94
428.46	3733.15
428.65	3786.99
428.84	3955.51
429.03	3911.04
429.22	3868.91
429.40	3770.60
429.59	3913.38
429.78	3693.37
429.97	3672.30
430.16	3808.05
430.34	3826.78
430.53	3887.63
430.72	3955.51
430.91	3992.95
431.10	3999.98
431.28	4077.21
431.47	4112.32
431.66	4248.07
431.85	4219.99
432.03	4224.67
432.22	4276.16
432.41	4234.03
432.60	4329.99
432.79	4325.31
432.97	4351.06
433.16	4285.52
433.35	4231.69
433.54	4334.67
433.72	4299.56
433.91	4381.48
434.10	4341.69
434.28	4278.50
434.47	4542.98
434.66	4498.51
434.85	4489.15
435.03	4582.77
435.22	4360.42
435.41	4578.09
435.59	4496.17
435.78	4585.11
435.97	4655.33
436.16	4613.20
436.34	4561.70
436.53	4660.01
436.72	4908.10
436.90	4596.81
437.09	4816.82
437.28	4725.54
437.46	4784.06
437.65	4809.80
437.84	4844.91
438.02	4830.87
438.21	4624.90
438.40	4713.84
438.58	4968.96
438.77	4898.74
438.96	4966.62
439.14	4990.02
439.33	5170.24
439.52	5153.86
439.70	5240.46
439.89	5205.35
440.08	5212.37
440.26	5235.78
440.45	5055.56
440.63	5214.71
440.82	5406.64
441.01	5233.44
441.19	5526.00
441.38	5383.23
441.57	5373.87
441.75	5722.61
441.94	5650.05
442.12	5495.58
442.31	5809.21
442.50	5605.58
442.68	5748.36
442.87	5668.78
443.05	5713.25
443.24	5916.87
443.43	5912.19
443.61	5926.24
443.80	6073.69
443.98	5727.29
444.17	5689.84
444.35	5966.03
444.54	5912.19
444.73	5888.79
444.91	6003.47
445.10	5942.62
445.28	5755.38
445.47	5781.12
445.65	5844.32
445.84	5928.58
446.02	5933.26
446.21	6050.28
446.39	5898.15
446.58	6019.86
446.77	6129.86
446.95	6031.56
447.14	5991.77
447.32	6274.98
447.51	5977.73
447.69	5980.07
447.88	6108.80
448.06	6237.53
448.25	6274.98
448.43	6015.18
448.62	6164.97
448.80	6129.86
448.99	6150.93
449.17	6408.39
449.36	6270.30
449.54	6403.71
449.73	6399.02
449.91	6497.33
450.10	6392.00
450.28	6616.69
450.46	6476.26
450.65	6511.37
450.83	6480.94
451.02	6537.12
451.20	6544.14
451.39	6588.61
451.57	6487.96
451.76	6466.90
451.94	6640.10
452.13	6642.44
452.31	6527.75
452.49	6457.54
452.68	6551.16
452.86	6623.72
453.05	6684.57
453.23	6642.44
453.42	6715.00
453.60	6665.85
453.78	6684.57
453.97	6743.08
454.15	6602.65
454.34	6700.95
454.52	6860.11
454.70	6817.98
454.89	7005.22
455.07	6787.55
455.26	7035.65
455.44	6970.12
455.62	7007.56
455.81	6995.86
455.99	7105.87
456.17	7045.01
456.36	7304.81
456.54	7145.66
456.73	7258.00
456.91	7410.14
457.09	7459.29
457.28	7459.29
457.46	7414.82
457.64	7602.06
457.83	7419.50
458.01	7456.95
458.19	7370.35
458.38	7431.20
458.56	7571.63
458.74	7489.71
458.93	7566.95
459.11	7604.40
459.29	7669.94
459.48	7564.61
459.66	7667.60
459.84	7700.36
460.03	7847.82
460.21	7707.38
460.39	7775.26
460.57	7719.09
460.76	7822.07
460.94	7803.35
461.12	7948.46
461.31	7810.37
461.49	7815.05
461.67	7819.73
461.85	8060.80
462.04	7866.54
462.22	7885.26
462.40	8126.34
462.59	8131.02
462.77	8049.10
462.95	8212.94
463.13	8013.99
463.32	8187.19
463.50	8175.49
463.68	8243.37
463.86	8435.29
464.05	8152.09
464.23	8208.26
464.41	8381.46
464.59	8023.36
464.78	8430.61
464.96	8435.29
465.14	8203.58
465.32	8468.06
465.50	8439.97
465.69	8430.61
465.87	8519.55
466.05	8470.40
466.23	8224.64
466.41	8477.42
466.60	8617.85
466.78	8465.72
466.96	8421.25
467.14	8353.37
467.32	8603.81
467.51	8589.77
467.69	8482.10
467.87	8755.94
468.05	8669.34
468.23	8510.19
468.41	8695.09
468.60	8809.78
468.78	8795.73
468.96	8830.84
469.14	8982.98
469.32	9081.28
469.50	8720.84
469.69	9004.04
469.87	8926.80
470.05	9088.30
470.23	8950.21
470.41	8997.02
470.59	9132.77
470.77	9076.60
470.95	9170.22
471.14	9350.44
471.32	9261.50
471.50	9694.50
471.68	9282.56
471.86	9287.25
472.04	9448.74
472.22	9647.69
472.40	9530.66
472.58	9734.29
472.77	9652.37
472.95	9753.01
473.13	10078.35
473.31	9561.09
473.49	9563.43
473.67	9760.03
473.85	9771.74
474.03	10078.35
474.21	9947.28
474.39	10111.11
474.57	10370.91
474.75	10125.16
474.93	10438.79
475.12	10190.69
475.30	10420.06
475.48	10265.59
475.66	10389.64
475.84	10413.04
476.02	10370.91
476.20	10527.73
476.38	10628.37
476.56	10998.18
476.74	10967.75
476.92	10906.90
477.10	11070.73
477.28	11227.55
477.46	11005.20
477.64	11307.13
477.82	11438.20
478.00	11705.02
478.18	11328.19
478.36	11569.27
478.54	11719.06
478.72	11740.13
478.90	11817.36
479.08	11796.30
479.26	11962.48
479.44	11955.46
479.62	12046.74
479.80	12351.01
479.98	12381.43
480.16	12683.36
480.34	12346.33
480.52	12821.45
480.70	12615.49
480.88	12699.75
481.06	12886.99
481.24	12854.22
481.41	13224.03
481.59	13284.88
481.77	13334.03
481.95	13146.79
482.13	13411.27
482.31	13425.31
482.49	13722.56
482.67	13708.52
482.85	13937.89
483.03	14115.77
483.21	14193.01
483.39	13961.30
483.57	14001.08
483.74	14452.81
483.92	14359.19
484.10	14279.61
484.28	14483.24
484.46	14693.88
484.64	14993.47
484.82	14916.23
485.00	15103.48
485.18	15094.11
485.35	15234.55
485.53	15021.56
485.71	15154.97
485.89	15543.50
486.07	15421.79
486.25	15279.02
486.43	15988.20
486.61	15878.19
486.78	16156.72
486.96	16100.55
487.14	16390.77
487.32	16613.12
487.50	17029.74
487.68	16725.47
487.85	17275.49
488.03	17032.08
488.21	17486.14
488.39	17123.36
488.57	17467.42
488.75	17444.01
488.92	17846.58
489.10	17759.98
489.28	18038.51
489.46	18249.16
489.64	18171.92
489.81	18515.98
489.99	18782.80
490.17	18782.80
490.35	18876.42
490.53	18785.14
490.70	18883.44
490.88	18970.04
491.06	19126.86
491.24	19213.46
491.41	19126.86
491.59	19309.42
491.77	19414.74
491.95	19850.08
492.13	19932.00
492.30	19812.63
492.48	20130.95
492.66	20367.34
492.84	20121.59
493.01	20229.25
493.19	20482.03
493.37	20900.98
493.54	20837.79
493.72	21256.75
493.90	20889.28
494.08	21249.72
494.25	21345.69
494.43	21525.91
494.61	21558.67
494.79	21584.42
494.96	21596.12
495.14	21736.56
495.32	21977.63
495.49	22387.22
495.67	22092.32
495.85	22485.53
496.02	22464.46
496.20	22092.32
496.38	22738.30
496.55	22871.72
496.73	22986.40
496.91	22817.88
497.09	22963.00
497.26	23414.72
497.44	23129.17
497.62	23660.48
497.79	23662.82
497.97	23241.52
498.14	23599.62
498.32	23765.80
498.50	23880.49
498.67	24327.53
498.85	24006.87
499.03	24493.71
499.20	24386.04
499.38	24638.82
499.56	24411.79
499.73	24577.97
499.91	24807.34
500.08	24903.30
500.26	24524.13
500.44	25149.06
500.61	24940.75
500.79	24982.88
500.97	25013.31
501.14	24964.15
501.32	25333.96
501.49	25511.84
501.67	25156.08
501.84	25617.16
502.02	25654.61
502.20	26019.74
502.37	25729.51
502.55	25975.27
502.72	26342.73
502.90	25888.67
503.07	26169.53
503.25	26099.31
503.43	26506.57
503.60	26417.63
503.78	26326.35
503.95	26239.75
504.13	26389.54
504.30	26906.80
504.48	27028.51
504.65	26958.29
504.83	26958.29
505.01	26986.38
505.18	27255.54
505.36	27545.76
505.53	27714.28
505.71	27674.49
505.88	27623.00
506.06	27594.92
506.23	27494.27
506.41	27845.35
506.58	27835.99
506.76	27590.24
506.93	28224.52
507.11	27985.79
507.28	28254.95
507.46	28048.98
507.63	28098.13
507.81	28203.46
507.98	28180.05
508.16	28638.80
508.33	28444.53
508.50	28589.64
508.68	28652.84
508.85	29357.34
509.03	29214.57
509.20	29090.52
509.38	28992.22
509.55	29345.64
509.73	29163.08
509.90	29289.46
510.08	29680.33
510.25	29649.91
510.42	29596.07
510.60	29841.83
510.77	29577.35
510.95	29921.41
511.12	29797.36
511.30	30012.69
511.47	30387.18
511.64	30581.44
511.82	30511.22
511.99	30108.65
512.17	30333.34
512.34	30424.62
512.51	30312.28
512.69	30686.76
512.86	30883.37
513.04	31030.82
513.21	30953.58
513.38	30925.50
513.56	30953.58
513.73	30639.95
513.90	31192.32
514.08	31047.21
514.25	31215.72
514.43	31468.50
514.60	31182.96
514.77	31374.88
514.95	31686.17
515.12	31550.42
515.29	32039.59
515.47	31831.29
515.64	32348.54
515.81	31721.28
515.99	31529.36
516.16	32065.34
516.33	31672.13
516.51	32184.71
516.68	32048.96
516.85	31728.30
517.03	31716.60
517.20	32264.28
517.37	32470.25
517.54	32163.64
517.72	32353.23
517.89	31915.54
518.06	32320.46
518.24	32201.09
518.41	32084.06
518.58	32751.12
518.75	32563.87
518.93	32938.36
519.10	32861.12
519.27	33067.09
519.45	32975.81
519.62	33226.24
519.79	33481.36
519.96	33205.18
520.14	33434.55
520.31	33193.48
520.48	33757.55
520.65	33350.29
520.83	34176.50
521.00	33975.22
521.17	33589.03
521.34	34012.66
521.52	33907.34
521.69	34057.14
521.86	34125.01
522.03	33778.61
522.20	34553.33
522.38	34848.24
522.55	34267.78
522.72	34440.98
522.89	34338.00
523.07	34649.29
523.24	34054.79
523.41	34909.09
523.58	34878.66
523.75	35262.51
523.92	34967.60
524.10	35491.88
524.27	35091.65
524.44	35016.75
524.61	35204.00
524.78	35777.43
524.96	35321.02
525.13	35482.52
525.30	35519.97
525.47	35395.92
525.64	35634.66
525.81	35353.79
525.98	35548.06
526.16	35204.00
526.33	35339.75
526.50	36055.95
526.67	35370.18
526.84	35849.99
527.01	35651.04
527.18	36098.08
527.36	36285.33
527.53	36292.35
527.70	36589.59
527.87	36203.41
528.04	36348.52
528.21	36503.00
528.38	36367.24
528.55	36697.26
528.72	36601.30
528.89	36505.34
529.07	36275.96
529.24	36505.34
529.41	37020.25
529.58	36720.66
529.75	36467.89
529.92	37172.39
530.09	37240.26
530.26	37034.30
530.43	37434.53
530.60	36952.38
530.77	37067.06
530.94	37148.98
531.11	37296.44
531.28	37453.25
531.46	37446.23
531.63	37675.60
531.80	36973.44
531.97	37041.32
532.14	37909.66
532.31	37497.72
532.48	37504.74
532.65	37677.94
532.82	37579.64
532.99	37951.79
533.16	37476.66
533.33	37998.60
533.50	37998.60
533.67	38139.03
533.84	37811.35
534.01	37968.17
534.18	37673.26
534.35	38010.30
534.52	37656.88
534.69	37883.91
534.86	38471.39
535.03	38022.00
535.20	38939.49
535.37	38857.57
535.54	38813.10
535.71	38359.04
535.88	38660.97
536.05	38789.70
536.22	38962.90
536.38	38990.98
536.55	38728.84
536.72	39047.16
536.89	38766.29
537.06	38843.53
537.23	38857.57
537.40	38775.66
537.57	38719.48
537.74	38969.92
537.91	39494.20
538.08	39281.21
538.25	39199.29
538.42	39143.12
538.59	39145.46
538.75	39028.43
538.92	39505.90
539.09	38836.51
539.26	39433.35
539.43	39339.72
539.60	39033.11
539.77	38930.13
539.94	39342.06
540.11	39264.83
540.28	39239.08
540.44	39262.49
540.61	39531.65
540.78	39487.18
540.95	39871.03
541.12	39662.72
541.29	39976.35
541.46	39484.84
541.62	39337.38
541.79	40098.06
541.96	39833.58
542.13	40032.52
542.30	39868.69
542.47	40280.62
542.63	40172.96
542.80	40318.07
542.97	40229.13
543.14	40751.07
543.31	40704.26
543.48	40685.53
543.64	41275.35
543.81	40835.33
543.98	41081.08
544.15	40730.00
544.32	40938.31
544.48	41315.14
544.65	40875.12
544.82	40912.56
544.99	40823.62
545.16	41050.66
545.32	40989.80
545.49	41329.18
545.66	41331.52
545.83	41048.32
546.00	41507.06
546.16	41024.91
546.33	41137.26
546.50	40861.07
546.67	41181.73
546.83	40994.48
547.00	41610.04
547.17	41303.43
547.34	41209.81
547.50	41488.34
547.67	42047.72
547.84	41776.22
548.00	41673.24
548.17	41918.99
548.34	41940.06
548.51	41989.21
548.67	41897.93
548.84	41874.52
549.01	41701.32
549.18	42162.41
549.34	41808.99
549.51	41944.74
549.68	42188.16
549.84	41827.71
550.01	42171.77
550.18	42405.83
550.34	42115.60
550.51	41970.49
550.68	41918.99
550.84	41867.50
551.01	42120.28
551.18	42351.99
551.34	42082.83
551.51	42232.63
551.68	42557.96
551.84	42642.22
552.01	42202.20
552.18	42600.09
552.34	42078.15
552.51	42546.26
552.68	42403.49
552.84	42990.96
553.01	42611.79
553.18	42447.96
553.34	42506.47
553.51	42424.55
553.67	42511.15
553.84	42686.69
554.01	42375.40
554.17	42595.41
554.34	42815.42
554.51	42588.39
554.67	42820.10
554.84	43145.44
555.00	42635.20
555.17	43037.77
555.33	43377.15
555.50	42518.17
555.67	42927.77
555.83	42871.59
556.00	42988.62
556.16	43529.28
556.33	43012.02
556.50	43061.18
556.66	42983.94
556.83	42913.72
556.99	43508.22
557.16	43482.47
557.32	43615.88
557.49	43459.07
557.65	43243.74
557.82	43292.89
557.98	43646.31
558.15	43459.07
558.32	43159.48
558.48	43159.48
558.65	43477.79
558.81	43107.99
558.98	43531.62
559.14	43414.60
559.31	43213.31
559.47	43171.18
559.64	43875.68
559.80	43576.09
559.97	43625.25
560.13	43281.19
560.30	43129.05
560.46	43618.22
560.63	43739.93
560.79	43723.55
560.96	43819.51
561.12	43466.09
561.29	43337.36
561.45	43878.02
561.61	43849.94
561.78	43229.69
561.94	43744.61
562.11	43791.42
562.27	43686.10
562.44	43861.64
562.60	43739.93
562.77	44175.27
562.93	44018.46
563.10	43620.56
563.26	43295.23
563.42	43590.14
563.59	44074.63
563.75	43686.10
563.92	43917.81
564.08	43800.79
564.24	43758.66
564.41	43931.86
564.57	44023.14
564.74	43831.21
564.90	43789.08
565.07	44154.21
565.23	44619.97
565.39	43945.90
565.56	43924.83
565.72	43800.79
565.88	44135.48
566.05	44194.00
566.21	43831.21
566.38	43838.23
566.54	43999.73
566.70	44336.77
566.87	44521.67
567.03	43896.75
567.19	44406.98
567.36	44399.96
567.52	43653.33
567.68	44264.21
567.85	44201.02
568.01	43943.56
568.17	44009.09
568.34	44619.97
568.50	44175.27
568.66	44058.24
568.83	44479.54
568.99	43824.19
569.15	44367.20
569.32	44168.25
569.48	44100.37
569.64	44392.94
569.81	44287.62
569.97	44395.28
570.13	44327.41
570.30	44432.73
570.46	44285.28
570.62	43831.21
570.78	44004.41
570.95	44128.46
571.11	44226.76
571.27	44301.66
571.43	44371.88
571.60	44486.56
571.76	44079.31
571.92	44039.52
572.09	44247.83
572.25	44334.43
572.41	44495.92
572.57	44545.08
572.74	44516.99
572.90	44816.58
573.06	44170.59
573.22	44140.16
573.38	44425.71
573.55	44421.03
573.71	44465.50
573.87	44453.79
574.03	44091.01
574.20	44273.57
574.36	44287.62
574.52	44460.82
574.68	44641.04
574.84	44296.98
575.01	44559.12
575.17	44460.82
575.33	44304.00
575.49	44233.78
575.65	44524.01
575.82	44591.89
575.98	44418.69
576.14	44769.77
576.30	44708.91
576.46	44683.17
576.62	44367.20
576.79	44540.39
576.95	44397.62
577.11	44208.04
577.27	44477.20
577.43	44479.54
577.59	44306.34
577.75	44044.20
577.92	44278.25
578.08	44414.01
578.24	44636.36
578.40	44435.07
578.56	44348.47
578.72	44631.68
578.88	44643.38
579.04	44449.11
579.21	44622.31
579.37	44751.04
579.53	44540.39
579.69	44472.52
579.85	44617.63
580.01	44315.70
580.17	44406.98
580.33	44795.51
580.49	44292.30
580.65	44814.24
580.82	44725.30
580.98	44353.15
581.14	44371.88
581.30	44987.44
581.46	44907.86
581.62	45057.65
581.78	44465.50
581.94	44451.45
582.10	44868.07
582.26	44662.10
582.42	44313.36
582.58	44821.26
582.74	44526.35
582.90	44847.00
583.06	45167.66
583.22	45085.74
583.38	44842.32
583.54	44788.49
583.70	44741.68
583.86	44786.15
584.02	44243.15
584.18	44891.48
584.34	44561.46
584.50	44690.19
584.66	44772.11
584.82	44327.41
584.98	45221.49
585.14	44704.23
585.30	44409.32
585.46	44535.71
585.62	44219.74
585.78	44657.42
585.94	44205.70
586.10	44704.23
586.26	44362.51
586.42	44809.56
586.58	45202.77
586.74	44858.71
586.90	44720.62
587.06	44800.19
587.22	44634.02
587.38	43978.67
587.54	44701.89
587.70	44729.98
587.86	45057.65
588.02	44737.00
588.18	44802.53
588.34	44535.71
588.49	44594.23
588.65	44177.61
588.81	44687.85
588.97	44641.04
589.13	44418.69
589.29	44807.22
589.45	44582.52
589.61	45010.84
589.77	44751.04
589.93	44793.17
590.08	45102.12
590.24	45272.98
