SpectraSuite Data File
++++++++++++++++++++++++++++++++++++
Date: Fri Oct 25 10:44:11 EDT 2013
User: price-jones
Dark Spectrum Present: No
Reference Spectrum Present: No
Number of Sampled Component Spectra: 1
Spectrometers: USB2+H05261
Integration Time (usec): 100000 (USB2+H05261)
Spectra Averaged: 1 (USB2+H05261)
Boxcar Smoothing: 0 (USB2+H05261)
Correct for Electrical Dark: No (USB2+H05261)
Strobe/Lamp Enabled: No (USB2+H05261)
Correct for Detector Non-linearity: No (USB2+H05261)
Correct for Stray Light: No (USB2+H05261)
Number of Pixels in Processed Spectrum: 2048
>>>>>Begin Processed Spectral Data<<<<<
365.73	159.16
365.92	159.16
366.12	159.16
366.32	39.79
366.52	35.11
366.72	0.00
366.91	4.68
367.11	37.45
367.31	42.13
367.51	0.00
367.70	46.81
367.90	32.77
368.10	0.00
368.30	35.11
368.49	2.34
368.69	44.47
368.89	35.11
369.09	105.32
369.28	95.96
369.48	23.41
369.68	88.94
369.87	53.83
370.07	84.26
370.27	110.01
370.47	196.60
370.66	355.76
370.86	407.25
371.06	479.81
371.25	470.45
371.45	421.30
371.65	437.68
371.84	315.97
372.04	456.40
372.24	528.96
372.44	557.05
372.63	465.77
372.83	498.53
373.03	507.90
373.22	535.98
373.42	528.96
373.62	535.98
373.81	512.58
374.01	571.09
374.21	496.19
374.40	496.19
374.60	643.65
374.79	554.71
374.99	606.20
375.19	552.37
375.38	615.56
375.58	599.18
375.78	552.37
375.97	631.94
376.17	624.92
376.37	603.86
376.56	648.33
376.76	627.26
376.95	645.99
377.15	664.71
377.35	559.39
377.54	613.22
377.74	617.90
377.93	681.10
378.13	676.41
378.33	674.07
378.52	648.33
378.72	638.97
378.91	683.44
379.11	688.12
379.31	610.88
379.50	660.03
379.70	746.63
379.89	669.39
380.09	653.01
380.28	779.40
380.48	737.27
380.68	660.03
380.87	676.41
381.07	770.04
381.26	809.83
381.46	739.61
381.65	718.54
381.85	727.91
382.04	744.29
382.24	732.59
382.43	589.82
382.63	657.69
382.83	692.80
383.02	657.69
383.22	842.59
383.41	753.65
383.61	676.41
383.80	828.55
384.00	777.06
384.19	763.01
384.39	819.19
384.58	781.74
384.78	821.53
384.97	814.51
385.17	786.42
385.36	802.80
385.56	798.12
385.75	760.67
385.95	826.21
386.14	835.57
386.34	868.34
386.53	833.23
386.72	798.12
386.92	814.51
387.11	847.27
387.31	842.59
387.50	875.36
387.70	788.76
387.89	847.27
388.09	887.06
388.28	870.68
388.48	938.55
388.67	1025.15
388.86	947.92
389.06	987.71
389.25	905.79
389.45	912.81
389.64	894.08
389.84	1062.60
390.03	964.30
390.22	987.71
390.42	980.68
390.61	1046.22
390.81	976.00
391.00	1022.81
391.19	1086.01
391.39	1135.16
391.58	1048.56
391.78	1062.60
391.97	1139.84
392.16	976.00
392.36	999.41
392.55	1015.79
392.75	1067.28
392.94	1001.75
393.13	971.32
393.33	983.02
393.52	1043.88
393.71	1034.52
393.91	1093.03
394.10	994.73
394.29	1158.57
394.49	1186.65
394.68	1153.88
394.88	1207.72
395.07	1256.87
395.26	1291.98
395.46	1210.06
395.65	1193.67
395.84	1259.21
396.04	1196.01
396.23	1301.34
396.42	1247.51
396.62	1139.84
396.81	1345.81
397.00	1235.80
397.19	1280.27
397.39	1324.74
397.58	1343.47
397.77	1308.36
397.97	1430.07
398.16	1469.86
398.35	1399.64
398.55	1479.22
398.74	1474.54
398.93	1535.39
399.12	1465.18
399.32	1399.64
399.51	1413.68
399.70	1589.22
399.90	1551.78
400.09	1593.90
400.28	1523.69
400.47	1605.61
400.67	1722.63
400.86	1610.29
401.05	1659.44
401.24	1640.72
401.44	1654.76
401.63	1678.16
401.82	1729.66
402.01	1657.10
402.21	1710.93
402.40	1823.28
402.59	1774.13
402.78	1774.13
402.97	1722.63
403.17	1919.24
403.36	1774.13
403.55	1839.66
403.74	1804.55
403.93	1863.07
404.13	1771.79
404.32	1881.79
404.51	1949.67
404.70	1923.92
404.89	1839.66
405.09	1905.20
405.28	1966.05
405.47	1877.11
405.66	1959.03
405.85	2005.84
406.05	1970.73
406.24	1921.58
406.43	1977.75
406.62	2155.63
406.81	2204.78
407.00	1968.39
407.20	2003.50
407.39	2122.87
407.58	2188.40
407.77	2132.23
407.96	2157.97
408.15	2157.97
408.34	2249.25
408.54	2188.40
408.73	2298.41
408.92	2457.56
409.11	2396.71
409.30	2307.77
409.49	2335.85
409.68	2427.14
409.87	2172.02
410.07	2291.38
410.26	2340.54
410.45	2389.69
410.64	2462.24
410.83	2483.31
411.02	2408.41
411.21	2513.74
411.40	2551.18
411.59	2712.68
411.78	2523.10
411.98	2490.33
412.17	2684.59
412.36	2548.84
412.55	2693.96
412.74	2649.49
412.93	2693.96
413.12	2757.15
413.31	2925.67
413.50	2881.20
413.69	2942.05
413.88	2862.48
414.07	2902.26
414.26	2853.11
414.45	2904.60
414.64	2857.79
414.83	2981.84
415.02	2892.90
415.22	3061.42
415.41	3056.74
415.60	3173.77
415.79	3159.72
415.98	3258.03
416.17	3206.53
416.36	3215.90
416.55	3141.00
416.74	3176.11
416.93	3122.27
417.12	3258.03
417.31	3286.11
417.50	3332.92
417.69	3515.48
417.88	3433.57
418.07	3400.80
418.26	3433.57
418.45	3520.17
418.64	3655.92
418.83	3452.29
419.02	3501.44
419.21	3588.04
419.39	3604.42
419.58	3576.34
419.77	3541.23
419.96	3613.79
420.15	3602.08
420.34	3667.62
420.53	3772.94
420.72	3735.50
420.91	3742.52
421.10	3880.61
421.29	3922.74
421.48	3840.82
421.67	3932.10
421.86	3772.94
422.05	3810.39
422.24	3824.44
422.43	3768.26
422.61	3786.99
422.80	3906.35
422.99	3882.95
423.18	4009.34
423.37	3861.88
423.56	3859.54
423.75	3922.74
423.94	3796.35
424.13	3660.60
424.32	3674.64
424.50	3796.35
424.69	3985.93
424.88	3960.19
425.07	3896.99
425.26	3995.29
425.45	3941.46
425.64	4039.76
425.83	3875.93
426.01	3950.82
426.20	3990.61
426.39	4042.11
426.58	3875.93
426.77	3967.21
426.96	3971.89
427.15	3918.06
427.33	3988.27
427.52	4011.68
427.71	4117.00
427.90	4147.43
428.09	4030.40
428.28	4245.73
428.46	4168.49
428.65	4046.79
428.84	4152.11
429.03	4269.14
429.22	4049.13
429.40	4168.49
429.59	4044.45
429.78	3920.40
429.97	3911.04
430.16	4028.06
430.34	4079.55
430.53	4077.21
430.72	4138.07
430.91	4128.70
431.10	4397.87
431.28	4498.51
431.47	4652.98
431.66	4692.77
431.85	4479.79
432.03	4596.81
432.22	4737.24
432.41	4566.39
432.60	4648.30
432.79	4517.23
432.97	4767.67
433.16	4706.82
433.35	4550.00
433.54	4660.01
433.72	4641.28
433.91	4739.58
434.10	4830.87
434.28	4835.55
434.47	4669.37
434.66	4870.65
434.85	4952.57
435.03	4898.74
435.22	4880.02
435.41	5008.75
435.59	5102.37
435.78	5001.72
435.97	4971.30
436.16	5104.71
436.34	5071.94
436.53	5289.61
436.72	5331.74
436.90	5050.88
437.09	5174.92
437.28	5139.82
437.46	5226.42
437.65	5144.50
437.84	5093.01
438.02	5238.12
438.21	5224.08
438.40	5137.48
438.58	5352.81
438.77	5355.15
438.96	5322.38
439.14	5589.20
439.33	5589.20
439.52	5577.50
439.70	5500.26
439.89	5596.22
440.08	5694.52
440.26	5788.14
440.45	5636.01
440.63	5701.54
440.82	5956.66
441.01	6038.58
441.19	5923.90
441.38	5998.79
441.57	6195.40
441.75	6265.61
441.94	6242.21
442.12	6169.65
442.31	6239.87
442.50	6335.83
442.68	6303.06
442.87	6384.98
443.05	6249.23
443.24	6312.42
443.43	6406.05
443.61	6286.68
443.80	6590.95
443.98	6284.34
444.17	6148.59
444.35	6628.40
444.54	6558.18
444.73	6647.12
444.91	6574.56
445.10	6511.37
445.28	6370.94
445.47	6392.00
445.65	6239.87
445.84	6424.77
446.02	6689.25
446.21	6300.72
446.39	6401.37
446.58	6682.23
446.77	6518.39
446.95	6415.41
447.14	6705.63
447.32	6614.35
447.51	6691.59
447.69	6581.59
447.88	6682.23
448.06	6583.93
448.25	6747.76
448.43	6815.64
448.62	6862.45
448.80	6656.48
448.99	6750.10
449.17	6752.45
449.36	6672.87
449.54	6832.02
449.73	7082.46
449.91	7030.97
450.10	7258.00
450.28	7304.81
450.46	7145.66
450.65	7126.93
450.83	7190.13
451.02	7068.42
451.20	7311.83
451.39	7180.76
451.57	7059.06
451.76	7148.00
451.94	7243.96
452.13	7068.42
452.31	7199.49
452.49	7115.23
452.68	7169.06
452.86	7133.95
453.05	7265.02
453.23	7258.00
453.42	7269.70
453.60	7248.64
453.78	7377.37
453.97	7290.77
454.15	7246.30
454.34	7288.43
454.52	7456.95
454.70	7424.18
454.89	7433.54
455.07	7571.63
455.26	7772.92
455.44	7777.60
455.62	7707.38
455.81	7726.11
455.99	7831.43
456.17	7644.19
456.36	7793.98
456.54	7793.98
456.73	7911.01
456.91	8072.51
457.09	8116.98
457.28	8215.28
457.46	8072.51
457.64	8109.96
457.83	8241.03
458.01	7815.05
458.19	8077.19
458.38	8079.53
458.56	8131.02
458.74	8187.19
458.93	8182.51
459.11	8311.24
459.29	8273.79
459.48	8156.77
459.66	8280.82
459.84	8322.94
460.03	8491.46
460.21	8407.20
460.39	8538.27
460.57	8561.68
460.76	8613.17
460.94	8491.46
461.12	8608.49
461.31	8751.26
461.49	8601.47
461.67	8479.76
461.85	8858.93
462.04	8819.14
462.22	8940.85
462.40	8865.95
462.59	8887.01
462.77	8762.97
462.95	8847.22
463.13	8819.14
463.32	8884.67
463.50	9027.45
463.68	8891.70
463.86	8947.87
464.05	8711.47
464.23	8905.74
464.41	8950.21
464.59	8624.87
464.78	9153.84
464.96	9081.28
465.14	9153.84
465.32	9275.54
465.50	9181.92
465.69	9114.05
465.87	9334.06
466.05	8901.06
466.23	9118.73
466.41	9121.07
466.60	9493.21
466.78	9263.84
466.96	9247.46
467.14	9254.48
467.32	9423.00
467.51	9315.33
467.69	9069.58
467.87	9301.29
468.05	9474.49
468.23	9551.73
468.41	9549.39
468.60	9495.55
468.78	9437.04
468.96	9565.77
469.14	9694.50
469.32	9905.15
469.50	9455.76
469.69	9680.46
469.87	9720.24
470.05	9776.42
470.23	9771.74
470.41	9694.50
470.59	9996.43
470.77	9877.06
470.95	9891.10
471.14	10090.05
471.32	9865.36
471.50	10277.29
471.68	10478.58
471.86	10251.55
472.04	10087.71
472.22	10768.80
472.40	10200.05
472.58	10483.26
472.77	10394.32
472.95	10321.76
473.13	10721.99
473.31	10476.24
473.49	10729.02
473.67	10516.03
473.85	10658.80
474.03	10836.68
474.21	10874.13
474.39	10951.37
474.57	11229.89
474.75	10869.45
474.93	11009.88
475.12	11162.01
475.30	11283.72
475.48	11250.96
475.66	11274.36
475.84	11075.42
476.02	11323.51
476.20	11349.26
476.38	11562.25
476.56	11805.66
476.74	11887.58
476.92	12039.72
477.10	11831.41
477.28	11953.12
477.46	11971.84
477.64	12395.48
477.82	12255.04
478.00	12622.51
478.18	12432.93
478.36	12568.68
478.54	12631.87
478.72	12699.75
478.90	12861.24
479.08	12802.73
479.26	13001.68
479.44	13095.30
479.62	13301.26
479.80	13298.92
479.98	13404.25
480.16	13722.56
480.34	13465.10
480.52	13666.39
480.70	13720.22
480.88	13642.98
481.06	13767.03
481.24	13839.59
481.41	14087.68
481.59	14207.05
481.77	14288.97
481.95	14342.80
482.13	14396.64
482.31	14626.01
482.49	14881.13
482.67	14714.95
482.85	14974.75
483.03	15290.72
483.21	15363.28
483.39	15445.20
483.57	15417.11
483.74	15365.62
483.92	15665.21
484.10	15400.72
484.28	15864.15
484.46	16084.16
484.64	16297.15
484.82	15857.13
485.00	16016.29
485.18	16222.25
485.35	16383.75
485.53	15953.09
485.71	16135.65
485.89	16477.37
486.07	16355.66
486.25	16556.95
486.43	16704.40
486.61	16915.05
486.78	17219.32
486.96	17294.22
487.14	17633.60
487.32	17589.13
487.50	17813.82
487.68	17928.50
487.85	18178.94
488.03	18401.29
488.21	18637.69
488.39	18321.71
488.57	18707.90
488.75	18640.03
488.92	19126.86
489.10	19232.18
489.28	19204.10
489.46	19545.81
489.64	19651.14
489.81	19814.98
489.99	20247.97
490.17	20276.06
490.35	20231.59
490.53	20540.54
490.70	20201.16
490.88	20245.63
491.06	20692.68
491.24	21008.65
491.41	20929.07
491.59	20592.03
491.77	20718.42
491.95	21170.15
492.13	20896.30
492.30	21591.44
492.48	21905.07
492.66	21671.02
492.84	21766.98
493.01	21869.97
493.19	21881.67
493.37	21933.16
493.54	22202.32
493.72	22530.00
493.90	22607.23
494.08	22871.72
494.25	23140.88
494.43	23028.53
494.61	23096.41
494.79	23342.16
494.96	23159.60
495.14	23611.32
495.32	23873.46
495.49	23744.73
495.67	23807.93
495.85	24100.50
496.02	24088.79
496.20	24133.26
496.38	24353.27
496.55	24294.76
496.73	24936.07
496.91	24643.50
497.09	24694.99
497.26	24968.84
497.44	24699.67
497.62	25158.42
497.79	25151.40
497.97	25095.22
498.14	25195.87
498.32	25420.56
498.50	25635.89
498.67	26066.55
498.85	25984.63
499.03	26366.13
499.20	25926.11
499.38	26576.78
499.56	26272.51
499.73	26349.75
499.91	26574.44
500.08	26710.19
500.26	26574.44
500.44	26705.51
500.61	27033.19
500.79	26623.59
500.97	26635.30
501.14	27300.01
501.32	26925.52
501.49	26944.25
501.67	27297.67
501.84	27145.53
502.02	27697.90
502.20	27615.98
502.37	27725.99
502.55	27910.89
502.72	27868.76
502.90	28301.76
503.07	28079.41
503.25	28261.97
503.43	27924.93
503.60	28123.88
503.78	28149.62
503.95	28067.70
504.13	28257.29
504.30	28989.88
504.48	28631.77
504.65	28652.84
504.83	28898.59
505.01	29280.10
505.18	29263.72
505.36	29603.10
505.53	29413.51
505.71	29174.78
505.88	29661.61
506.06	29415.85
506.23	29460.32
506.41	29502.45
506.58	29780.98
506.76	29905.02
506.93	29898.00
507.11	29673.31
507.28	29961.20
507.46	29502.45
507.63	30125.04
507.81	30185.89
507.98	30029.07
508.16	30326.32
508.33	30387.18
508.50	30684.42
508.68	30909.11
508.85	30988.69
509.03	30960.61
509.20	31098.70
509.38	31014.44
509.55	31152.53
509.73	31194.66
509.90	31271.90
510.08	31295.30
510.25	31559.78
510.42	31323.39
510.60	31786.82
510.77	31438.08
510.95	31945.97
511.12	31417.01
511.30	32187.05
511.47	32154.28
511.64	32577.92
511.82	32549.83
511.99	31964.70
512.17	32133.21
512.34	32184.71
512.51	32224.50
512.69	32416.42
512.86	32311.10
513.04	32985.17
513.21	32739.41
513.38	32606.00
513.56	33158.37
513.73	32767.50
513.90	32968.79
514.08	32898.57
514.25	33270.72
514.43	33221.56
514.60	33556.26
514.77	33022.62
514.95	33586.69
515.12	33635.84
515.29	33876.91
515.47	34096.92
515.64	33909.68
515.81	34136.71
515.99	33900.32
516.16	33570.30
516.33	33060.07
516.51	33795.00
516.68	33525.83
516.85	33308.16
517.03	33453.28
517.20	33748.18
517.37	34590.78
517.54	34286.51
517.72	34251.40
517.89	33993.94
518.06	33684.99
518.24	33771.59
518.41	34043.09
518.58	34497.16
518.75	34700.78
518.93	34923.13
519.10	34717.17
519.27	35189.95
519.45	34923.13
519.62	35086.97
519.79	35257.83
519.96	35321.02
520.14	35360.81
520.31	35447.41
520.48	35550.40
520.65	35428.69
520.83	35899.14
521.00	35915.52
521.17	35761.05
521.34	35927.22
521.52	35971.69
521.69	36051.27
521.86	35962.33
522.03	36126.17
522.20	36641.09
522.38	36016.16
522.55	36392.99
522.72	36510.02
522.89	36432.78
523.07	36659.81
523.24	36383.63
523.41	36650.45
523.58	36580.23
523.75	36996.85
523.92	37041.32
524.10	37462.61
524.27	37324.52
524.44	37347.93
524.61	37401.76
524.78	37722.41
524.96	37404.10
525.13	37525.81
525.30	37792.63
525.47	37654.54
525.64	37277.71
525.81	37890.93
525.98	37577.30
526.16	37392.40
526.33	37645.18
526.50	37579.64
526.67	37230.90
526.84	37645.18
527.01	37471.98
527.18	38005.62
527.36	38253.72
527.53	38375.42
527.70	38396.49
527.87	38052.43
528.04	38089.88
528.21	38550.96
528.38	38466.70
528.55	38782.68
528.72	38646.93
528.89	38960.56
529.07	38658.63
529.24	38611.82
529.41	39068.22
529.58	38579.05
529.75	38888.00
529.92	39264.83
530.09	39054.18
530.26	39316.32
530.43	39023.75
530.60	39295.25
530.77	39161.84
530.94	39723.57
531.11	39321.00
531.28	39700.17
531.46	39676.76
531.63	39505.90
531.80	39611.23
531.97	39337.38
532.14	39555.05
532.31	39173.55
532.48	39442.71
532.65	39625.27
532.82	39491.86
532.99	39749.32
533.16	39782.09
533.33	39721.23
533.50	39959.97
533.67	40006.78
533.84	39931.88
534.01	40081.67
534.18	39878.05
534.35	40156.57
534.52	39976.35
534.69	40371.90
534.86	40226.79
535.03	40297.00
535.20	41064.70
535.37	40980.44
535.54	40921.93
535.71	40318.07
535.88	40631.70
536.05	40502.97
536.22	40781.49
536.38	41022.57
536.55	40694.89
536.72	40444.46
536.89	40135.51
537.06	40388.28
537.23	41116.19
537.40	40685.53
537.57	41003.85
537.74	41296.41
537.91	41127.89
538.08	41265.99
538.25	41099.81
538.42	41181.73
538.59	41518.76
538.75	41233.22
538.92	41083.42
539.09	41130.23
539.26	41219.17
539.43	41478.97
539.60	41368.97
539.77	41134.92
539.94	41184.07
540.11	41263.64
540.28	41333.86
540.44	41375.99
540.61	41670.90
540.78	41600.68
540.95	41743.45
541.12	41495.36
541.29	41574.94
541.46	41675.58
541.62	42312.20
541.79	41907.29
541.96	41390.03
542.13	42220.92
542.30	42316.89
542.47	41977.51
542.63	42171.77
542.80	42129.64
542.97	42574.34
543.14	42780.31
543.31	42073.47
543.48	42878.61
543.64	42871.59
543.81	43054.15
543.98	43021.39
544.15	42497.11
544.32	42871.59
544.48	43035.43
544.65	43295.23
544.82	43173.52
544.99	42309.86
545.16	42658.60
545.32	43409.92
545.49	43430.98
545.66	43519.92
545.83	43351.40
546.00	43573.75
546.16	43168.84
546.33	43264.80
546.50	43082.24
546.67	43248.42
546.83	43281.19
547.00	42983.94
547.17	42995.64
547.34	43199.27
547.50	43365.45
547.67	43531.62
547.84	43477.79
548.00	43611.20
548.17	43789.08
548.34	43700.14
548.51	43648.65
548.67	43793.76
548.84	43597.16
549.01	43676.74
549.18	43704.82
549.34	43608.86
549.51	44093.35
549.68	43978.67
549.84	43522.26
550.01	44245.49
550.18	43803.13
550.34	44282.94
550.51	43873.34
550.68	44137.82
550.84	43814.83
551.01	44374.22
551.18	44053.56
551.34	44016.11
551.51	44123.78
551.68	44334.43
551.84	44233.78
552.01	44046.54
552.18	44369.54
552.34	43861.64
552.51	44423.37
552.68	44189.31
552.84	44758.06
553.01	44804.88
553.18	44570.82
553.34	44240.81
553.51	44268.89
553.67	44531.03
553.84	44603.59
554.01	44460.82
554.17	44486.56
554.34	44802.53
554.51	44676.15
554.67	44837.64
554.84	44762.75
555.00	44481.88
555.17	44816.58
555.33	45036.59
555.50	45055.31
555.67	44741.68
555.83	45003.82
556.00	45230.85
556.16	45017.86
556.33	44666.78
556.50	44762.75
556.66	45127.87
556.83	44474.86
556.99	45015.52
557.16	44961.69
557.32	45502.35
557.49	45022.54
557.65	44919.56
557.82	45251.92
557.98	45294.05
558.15	44978.07
558.32	45158.30
558.48	44729.98
558.65	44996.80
558.81	45001.48
558.98	45338.52
559.14	45120.85
559.31	45202.77
559.47	45113.83
559.64	45441.50
559.80	45146.59
559.97	45251.92
560.13	45401.71
560.30	44994.46
560.46	45572.57
560.63	45453.20
560.79	45483.63
560.96	45542.14
561.12	45476.61
561.29	45193.40
561.45	45476.61
561.61	45450.86
561.78	45354.90
561.94	45455.54
562.11	45537.46
562.27	45542.14
562.44	45352.56
562.60	45806.62
562.77	45605.34
562.93	45530.44
563.10	45518.74
563.26	45715.34
563.42	45787.90
563.59	45588.95
563.75	45701.30
563.92	45790.24
564.08	45436.82
564.24	46204.52
564.41	45567.89
564.57	45680.24
564.74	45598.32
564.90	45532.78
565.07	45947.06
565.23	46021.95
565.39	45773.86
565.56	45663.85
565.72	45331.50
565.88	45745.77
566.05	45504.70
566.21	45591.30
566.38	45724.71
566.54	45645.13
566.70	45958.76
566.87	46373.03
567.03	46073.45
567.19	46447.93
567.36	45773.86
567.52	46066.42
567.68	46028.98
567.85	45874.50
568.01	46071.10
568.17	45806.62
568.34	45624.06
568.50	45886.20
568.66	45624.06
568.83	45745.77
568.99	45507.04
569.15	45841.73
569.32	45565.55
569.48	45652.15
569.64	46220.90
569.81	45815.99
569.97	45825.35
570.13	45715.34
570.30	46424.53
570.46	45834.71
570.62	45390.01
570.78	45497.67
570.95	45457.88
571.11	46707.73
571.27	45968.12
571.43	45830.03
571.60	45804.28
571.76	46071.10
571.92	45811.31
572.09	45780.88
572.25	46038.34
572.41	45872.16
572.57	46103.87
572.74	46092.17
572.90	46174.09
573.06	46068.76
573.22	46122.60
573.38	46031.32
573.55	45911.95
573.71	45951.74
573.87	46319.20
574.03	46092.17
574.20	46122.60
574.36	46087.49
574.52	46218.56
574.68	45574.91
574.84	45872.16
575.01	45970.46
575.17	46082.81
575.33	46330.90
575.49	45799.60
575.65	46295.80
575.82	46134.30
575.98	46064.08
576.14	46342.61
576.30	46344.95
576.46	45813.65
576.62	45914.29
576.79	45694.28
576.95	45574.91
577.11	46195.15
577.27	46113.23
577.43	45979.82
577.59	45759.81
577.75	46059.40
577.92	45567.89
578.08	46209.20
578.24	45684.92
578.40	45993.87
578.56	46277.07
578.72	46127.28
578.88	46284.09
579.04	46342.61
579.21	46021.95
579.37	46335.59
579.53	46045.36
579.69	46239.62
579.85	45961.10
580.01	46192.81
580.17	46068.76
580.33	46288.77
580.49	45783.22
580.65	46213.88
580.82	46176.43
580.98	45666.19
581.14	45743.43
581.30	46672.62
581.46	46532.19
581.62	46295.80
581.78	46466.66
581.94	46693.69
582.10	45872.16
582.26	46040.68
582.42	46181.11
582.58	46377.72
582.74	46183.45
582.90	46024.29
583.06	46597.73
583.22	46370.69
583.38	46630.49
583.54	46777.95
583.70	46244.30
583.86	46405.80
584.02	46115.58
584.18	46681.98
584.34	46059.40
584.50	46326.22
584.66	46351.97
584.82	46066.42
584.98	46012.59
585.14	46263.03
585.30	46227.92
585.46	46036.00
585.62	46160.05
585.78	46354.31
585.94	45991.53
586.10	46426.87
586.26	46192.81
586.42	46267.71
586.58	46422.19
586.74	46153.02
586.90	45933.01
587.06	45925.99
587.22	46108.55
587.38	46260.69
587.54	46356.65
587.70	46309.84
587.86	46288.77
588.02	45989.19
588.18	46291.12
588.34	46270.05
588.49	45661.51
588.65	45565.55
588.81	45720.02
588.97	45890.88
589.13	45879.18
589.29	46096.85
589.45	45961.10
589.61	46164.73
589.77	46216.22
589.93	46157.70
590.08	46473.68
