SpectraSuite Data File
++++++++++++++++++++++++++++++++++++
Date: Fri Oct 25 11:22:58 EDT 2013
User: price-jones
Dark Spectrum Present: No
Reference Spectrum Present: No
Number of Sampled Component Spectra: 1
Spectrometers: USB2+H05261
Integration Time (usec): 100000 (USB2+H05261)
Spectra Averaged: 1 (USB2+H05261)
Boxcar Smoothing: 0 (USB2+H05261)
Correct for Electrical Dark: No (USB2+H05261)
Strobe/Lamp Enabled: No (USB2+H05261)
Correct for Detector Non-linearity: No (USB2+H05261)
Correct for Stray Light: No (USB2+H05261)
Number of Pixels in Processed Spectrum: 2048
>>>>>Begin Processed Spectral Data<<<<<
365.73	201.29
365.92	201.29
366.12	201.29
366.32	159.16
366.52	114.69
366.72	110.01
366.91	133.41
367.11	124.05
367.31	119.37
367.51	117.03
367.70	131.07
367.90	131.07
368.10	67.88
368.30	140.43
368.49	128.73
368.69	121.71
368.89	107.66
369.09	131.07
369.28	210.65
369.48	135.75
369.68	149.79
369.87	217.67
370.07	198.95
370.27	173.20
370.47	276.18
370.66	578.11
370.86	660.03
371.06	732.59
371.25	624.92
371.45	643.65
371.65	716.20
371.84	688.12
372.04	606.20
372.24	676.41
372.44	716.20
372.63	702.16
372.83	699.82
373.03	681.10
373.22	720.88
373.42	702.16
373.62	788.76
373.81	802.80
374.01	765.36
374.21	802.80
374.40	791.10
374.60	814.51
374.79	915.15
374.99	828.55
375.19	795.78
375.38	828.55
375.58	889.40
375.78	926.85
375.97	917.49
376.17	908.13
376.37	828.55
376.56	924.51
376.76	873.02
376.95	866.00
377.15	840.25
377.35	798.12
377.54	835.57
377.74	868.34
377.93	985.37
378.13	912.81
378.33	1006.43
378.52	976.00
378.72	880.04
378.91	933.87
379.11	922.17
379.31	945.58
379.50	950.26
379.70	983.02
379.89	1039.20
380.09	1029.84
380.28	943.24
380.48	976.00
380.68	1043.88
380.87	980.68
381.07	983.02
381.26	1022.81
381.46	1018.13
381.65	1008.77
381.85	1013.45
382.04	1071.97
382.24	1074.31
382.43	1062.60
382.63	1001.75
382.83	1071.97
383.02	1167.93
383.22	1109.41
383.41	1086.01
383.61	1130.48
383.80	1200.69
384.00	1071.97
384.19	1160.91
384.39	1078.99
384.58	1104.73
384.78	1156.22
384.97	1160.91
385.17	1029.84
385.36	1170.27
385.56	1121.12
385.75	1093.03
385.95	1228.78
386.14	1179.63
386.34	1191.33
386.53	1242.82
386.72	1163.25
386.92	1263.89
387.11	1252.19
387.31	1277.93
387.50	1224.10
387.70	1266.23
387.89	1256.87
388.09	1306.02
388.28	1301.34
388.48	1275.59
388.67	1331.76
388.86	1345.81
389.06	1287.29
389.25	1299.00
389.45	1299.00
389.64	1345.81
389.84	1420.71
390.03	1371.55
390.22	1420.71
390.42	1406.66
390.61	1434.75
390.81	1420.71
391.00	1352.83
391.19	1544.75
391.39	1418.36
391.58	1495.60
391.78	1446.45
391.97	1521.35
392.16	1521.35
392.36	1582.20
392.55	1598.59
392.75	1476.88
392.94	1535.39
393.13	1465.18
393.33	1554.12
393.52	1636.03
393.71	1570.50
393.91	1535.39
394.10	1589.22
394.29	1624.33
394.49	1542.41
394.68	1652.42
394.88	1626.67
395.07	1647.74
395.26	1727.32
395.46	1610.29
395.65	1729.66
395.84	1809.23
396.04	1832.64
396.23	1816.26
396.42	1802.21
396.62	1849.02
396.81	1792.85
397.00	1692.21
397.19	1764.76
397.39	1849.02
397.58	1760.08
397.77	1788.17
397.97	1774.13
398.16	1940.30
398.35	1881.79
398.55	1884.13
398.74	1919.24
398.93	1980.09
399.12	1952.01
399.32	1879.45
399.51	1926.26
399.70	1977.75
399.90	2001.16
400.09	2059.67
400.28	2045.63
400.47	2062.01
400.67	2062.01
400.86	2160.31
401.05	2106.48
401.24	2003.50
401.44	2148.61
401.63	2230.53
401.82	2150.95
402.01	2136.91
402.21	2090.10
402.40	2186.06
402.59	2127.55
402.78	2366.28
402.97	2143.93
403.17	2326.49
403.36	2167.34
403.55	2249.25
403.74	2422.45
403.93	2401.39
404.13	2401.39
404.32	2462.24
404.51	2296.07
404.70	2459.90
404.89	2331.17
405.09	2504.37
405.28	2572.25
405.47	2560.55
405.66	2567.57
405.85	2647.15
406.05	2464.58
406.24	2633.10
406.43	2485.65
406.62	2705.66
406.81	2736.09
407.00	2672.89
407.20	2574.59
407.39	2677.57
407.58	2663.53
407.77	2771.19
407.96	2684.59
408.15	2764.17
408.34	2677.57
408.54	2820.35
408.73	2885.88
408.92	2855.45
409.11	2993.55
409.30	2911.63
409.49	2949.08
409.68	2906.95
409.87	2979.50
410.07	3038.02
410.26	3178.45
410.45	3009.93
410.64	3152.70
410.83	3047.38
411.02	3089.51
411.21	3148.02
411.40	3117.59
411.59	3234.62
411.78	3295.47
411.98	3131.64
412.17	3220.58
412.36	3262.71
412.55	3482.72
412.74	3431.23
412.93	3506.12
413.12	3368.03
413.31	3515.48
413.50	3375.05
413.69	3569.32
413.88	3712.09
414.07	3611.45
414.26	3747.20
414.45	3751.88
414.64	3737.84
414.83	3791.67
415.02	3709.75
415.22	3880.61
415.41	3815.07
415.60	3887.63
415.79	3796.35
415.98	3999.98
416.17	4093.60
416.36	3999.98
416.55	4063.17
416.74	4140.41
416.93	4077.21
417.12	4051.47
417.31	4315.95
417.50	4280.84
417.69	4241.05
417.88	4339.35
418.07	4386.16
418.26	4383.82
418.45	4465.74
418.64	4507.87
418.83	4571.07
419.02	4507.87
419.21	4695.11
419.39	4582.77
419.58	4519.57
419.77	4510.21
419.96	4730.22
420.15	4664.69
420.34	4557.02
420.53	4554.68
420.72	4688.09
420.91	4772.35
421.10	4755.97
421.29	4877.68
421.48	4662.35
421.67	4856.61
421.86	4772.35
422.05	4877.68
422.24	4882.36
422.43	4924.49
422.61	5011.09
422.80	5022.79
422.99	5064.92
423.18	4877.68
423.37	5163.22
423.56	5050.88
423.75	4844.91
423.94	4851.93
424.13	4671.71
424.32	4774.69
424.50	5107.05
424.69	5146.84
424.88	5144.50
425.07	5008.75
425.26	4819.16
425.45	4912.78
425.64	4894.06
425.83	4931.51
426.01	5088.32
426.20	5060.24
426.39	5039.17
426.58	5085.98
426.77	5153.86
426.96	5193.65
427.15	5149.18
427.33	5249.82
427.52	5153.86
427.71	5324.72
427.90	5387.91
428.09	5334.08
428.28	5373.87
428.46	5446.43
428.65	5500.26
428.84	5490.90
429.03	5549.41
429.22	5460.47
429.40	5490.90
429.59	5472.17
429.78	5313.02
429.97	5224.08
430.16	5617.29
430.34	5865.38
430.53	5678.14
430.72	5659.42
430.91	5671.12
431.10	5792.83
431.28	5944.96
431.47	5771.76
431.66	5827.93
431.85	5839.64
432.03	5813.89
432.22	6057.31
432.41	6033.90
432.60	6083.05
432.79	5872.40
432.97	6059.65
433.16	6225.82
433.35	6064.33
433.54	6160.29
433.72	6195.40
433.91	6029.22
434.10	6080.71
434.28	6134.54
434.47	6111.14
434.66	6284.34
434.85	6291.36
435.03	6267.95
435.22	6317.11
435.41	6459.88
435.59	6422.43
435.78	6476.26
435.97	6525.41
436.16	6473.92
436.34	6401.37
436.53	6600.31
436.72	6715.00
436.90	6525.41
437.09	6808.62
437.28	6651.80
437.46	6691.59
437.65	6686.91
437.84	6754.79
438.02	6747.76
438.21	6825.00
438.40	6892.88
438.58	6960.75
438.77	7190.13
438.96	6988.84
439.14	7063.74
439.33	7204.17
439.52	7276.73
439.70	7412.48
439.89	7368.01
440.08	7335.24
440.26	7449.93
440.45	7506.10
440.63	7569.29
440.82	7667.60
441.01	7618.44
441.19	7466.31
441.38	7754.19
441.57	7878.24
441.75	7871.22
441.94	7882.92
442.12	7992.93
442.31	8212.94
442.50	8187.19
442.68	7934.42
442.87	8147.40
443.05	8107.62
443.24	8241.03
443.43	8035.06
443.61	8327.63
443.80	8313.58
443.98	8271.45
444.17	7896.97
444.35	8468.06
444.54	8526.57
444.73	8280.82
444.91	8236.35
445.10	8379.12
445.28	8444.65
445.47	8559.34
445.65	8603.81
445.84	8648.28
446.02	8566.36
446.21	8461.04
446.39	8454.02
446.58	8643.60
446.77	8608.49
446.95	8507.85
447.14	8589.77
447.32	8697.43
447.51	8575.72
447.69	8449.33
447.88	8559.34
448.06	8554.66
448.25	8683.39
448.43	8545.30
448.62	8667.00
448.80	8643.60
448.99	8772.33
449.17	8828.50
449.36	8753.60
449.54	8744.24
449.73	8959.57
449.91	9327.03
450.10	9097.66
450.28	9322.35
450.46	9102.34
450.65	9011.06
450.83	8856.59
451.02	9219.37
451.20	9324.69
451.39	9256.82
451.57	9174.90
451.76	9254.48
451.94	9385.55
452.13	9149.15
452.31	9214.69
452.49	9263.84
452.68	9200.65
452.86	9383.21
453.05	9643.01
453.23	9521.30
453.42	9322.35
453.60	9479.17
453.78	9633.64
453.97	9612.58
454.15	9434.70
454.34	9790.46
454.52	9818.55
454.70	9514.28
454.89	9830.25
455.07	10132.18
455.26	10040.90
455.44	9947.28
455.62	9961.32
455.81	9907.49
455.99	9905.15
456.17	9980.04
456.36	10178.99
456.54	10242.18
456.73	10448.15
456.91	10452.83
457.09	10560.50
457.28	10595.61
457.46	10513.69
457.64	10902.22
457.83	10520.71
458.01	10544.11
458.19	10934.98
458.38	10637.73
458.56	10892.85
458.74	10511.35
458.93	10839.02
459.11	11094.14
459.29	10766.46
459.48	11026.26
459.66	10991.16
459.84	11225.21
460.03	11117.54
460.21	11073.07
460.39	11260.32
460.57	11035.63
460.76	11222.87
460.94	11375.00
461.12	11105.84
461.31	11447.56
461.49	11201.80
461.67	11470.97
461.85	11705.02
462.04	11419.47
462.22	11620.76
462.40	11723.74
462.59	11674.59
462.77	11770.55
462.95	11796.30
463.13	11796.30
463.32	11805.66
463.50	11740.13
463.68	11822.05
463.86	11810.34
464.05	11602.04
464.23	11763.53
464.41	11878.22
464.59	11620.76
464.78	12257.39
464.96	12175.47
465.14	11871.20
465.32	12283.13
465.50	12184.83
465.69	12332.28
465.87	12411.86
466.05	12355.69
466.23	12486.76
466.41	12461.01
466.60	12571.02
466.78	12400.16
466.96	12238.66
467.14	12613.15
467.32	12636.55
467.51	12615.49
467.69	12093.55
467.87	12571.02
468.05	12664.64
468.23	12545.27
468.41	12657.62
468.60	12786.35
468.78	12877.63
468.96	12521.87
469.14	12865.92
469.32	13249.77
469.50	12718.47
469.69	13319.99
469.87	13158.49
470.05	13317.65
470.23	13050.83
470.41	13298.92
470.59	13315.31
470.77	13193.60
470.95	13500.21
471.14	13617.24
471.32	13334.03
471.50	13846.61
471.68	13617.24
471.86	13687.45
472.04	13809.16
472.22	13998.74
472.40	13628.94
472.58	14118.11
472.77	14349.82
472.95	14223.44
473.13	14621.33
473.31	14115.77
473.49	14464.51
473.67	14249.18
473.85	14635.37
474.03	14420.04
474.21	14768.78
474.39	14796.87
474.57	14892.83
474.75	14995.81
474.93	15232.21
475.12	15321.15
475.30	15213.48
475.48	15066.03
475.66	15339.87
475.84	15304.76
476.02	15559.88
476.20	15630.10
476.38	15578.61
476.56	16175.44
476.74	15971.82
476.92	15967.13
477.10	15875.85
477.28	16437.58
477.46	16250.34
477.64	16498.44
477.82	16772.28
478.00	17013.35
478.18	16924.41
478.36	17198.26
478.54	17205.28
478.72	17326.99
478.90	17596.15
479.08	17776.37
479.26	17987.02
479.44	17654.66
479.62	17881.69
479.80	18099.36
479.98	18462.15
480.16	18878.76
480.34	18672.79
480.52	19012.17
480.70	18764.07
480.88	18405.97
481.06	18813.23
481.24	18977.06
481.41	19255.59
481.59	19576.24
481.77	19681.56
481.95	19864.13
482.13	19674.54
482.31	20042.01
482.49	20582.67
482.67	20325.21
482.85	20786.30
483.03	20748.85
483.21	21146.74
483.39	21062.48
483.57	21095.25
483.74	21507.18
483.92	21474.42
484.10	21568.04
484.28	21731.87
484.46	22071.25
484.64	22759.37
484.82	22387.22
485.00	22792.14
485.18	22871.72
485.35	23374.93
485.53	22981.72
485.71	23044.91
485.89	23646.43
486.07	23564.51
486.25	23498.98
486.43	23756.44
486.61	23990.49
486.78	24362.64
486.96	24421.15
487.14	24596.69
487.32	24926.71
487.50	25060.12
487.68	25207.57
487.85	25493.12
488.03	25699.08
488.21	25982.29
488.39	26019.74
488.57	26183.57
488.75	26888.07
488.92	26658.70
489.10	26806.16
489.28	27239.15
489.46	27426.40
489.64	27632.36
489.81	28137.92
489.99	28170.69
490.17	28168.35
490.35	28374.31
490.53	28804.97
490.70	28393.04
490.88	28376.66
491.06	29160.73
491.24	28914.98
491.41	29343.30
491.59	29586.71
491.77	29598.41
491.95	30052.48
492.13	29968.22
492.30	30319.30
492.48	30478.46
492.66	30515.90
492.84	30761.66
493.01	30902.09
493.19	30986.35
493.37	31384.24
493.54	31435.74
493.72	31641.70
493.90	31772.77
494.08	32369.61
494.25	32151.94
494.43	32306.41
494.61	32573.24
494.79	32987.51
494.96	32821.33
495.14	32514.72
495.32	33504.77
495.49	33254.33
495.67	33811.38
495.85	34022.03
496.02	34085.22
496.20	34235.02
496.38	34363.75
496.55	34574.39
496.73	35105.70
496.91	34878.66
497.09	35309.32
497.26	35356.13
497.44	35133.78
497.62	35798.49
497.79	36364.90
497.97	35672.10
498.14	36346.18
498.32	36292.35
498.50	36641.09
498.67	37013.23
498.85	36999.19
499.03	37057.70
499.20	37109.19
499.38	37354.95
499.56	37717.73
499.73	37610.07
499.91	37502.40
500.08	37841.78
500.26	37792.63
500.44	38155.41
500.61	38532.24
500.79	38024.34
500.97	38597.77
501.14	38923.11
501.32	39016.73
501.49	39040.14
501.67	39196.95
501.84	39033.11
502.02	39342.06
502.20	39686.12
502.37	39311.64
502.55	39370.15
502.72	39791.45
502.90	40098.06
503.07	39665.06
503.25	40360.20
503.43	40271.26
503.60	40718.30
503.78	40837.67
503.95	40809.58
504.13	41102.15
504.30	40980.44
504.48	40938.31
504.65	40629.36
504.83	41764.52
505.01	41645.15
505.18	41336.20
505.36	41780.90
505.53	41478.97
505.71	42216.24
505.88	42021.98
506.06	41677.92
506.23	42532.22
506.41	42267.73
506.58	42880.95
506.76	42574.34
506.93	43250.76
507.11	42462.00
507.28	42712.44
507.46	42728.82
507.63	43356.08
507.81	43676.74
507.98	43168.84
508.16	43737.59
508.33	43618.22
508.50	43915.47
508.68	43962.28
508.85	44245.49
509.03	44360.17
509.20	44533.37
509.38	44748.70
509.55	44875.09
509.73	44886.79
509.90	45148.93
510.08	44648.06
510.25	45275.32
510.42	44966.37
510.60	45268.30
510.77	45869.82
510.95	45897.91
511.12	45532.78
511.30	45750.45
511.47	45876.84
511.64	46099.19
511.82	46412.82
511.99	45930.67
512.17	46539.21
512.34	46101.53
512.51	46674.96
512.69	46623.47
512.86	46632.83
513.04	46990.94
513.21	47096.26
513.38	46986.25
513.56	47847.57
513.73	47110.30
513.90	47590.11
514.08	47203.92
514.25	47643.94
514.43	47992.68
514.60	47620.54
514.77	47943.53
514.95	48357.81
515.12	48081.63
515.29	47917.79
515.47	48458.45
515.64	48430.36
515.81	48744.00
515.99	48711.23
516.16	48638.67
516.33	48863.36
516.51	49059.97
516.68	49066.99
516.85	49099.76
517.03	49247.21
517.20	49579.57
517.37	49113.80
517.54	49542.12
517.72	49432.11
517.89	49673.19
518.06	49537.44
518.24	49598.29
518.41	49600.63
518.58	49820.64
518.75	49647.44
518.93	49820.64
519.10	49614.68
519.27	49848.73
519.45	50583.66
519.62	50192.79
519.79	50270.03
519.96	50408.12
520.14	50848.14
520.31	50368.33
520.48	50939.42
520.65	50986.23
520.83	51054.11
521.00	51201.56
521.17	51044.74
521.34	51339.65
521.52	51058.79
521.69	50955.80
521.86	51084.53
522.03	51323.27
522.20	51641.58
522.38	51571.36
522.55	51760.95
522.72	51721.16
522.89	51601.79
523.07	52083.94
523.24	51807.76
523.41	52102.67
523.58	51812.44
523.75	52222.03
523.92	51894.36
524.10	52250.12
524.27	52409.28
524.44	52444.38
524.61	52348.42
524.78	52818.87
524.96	52317.99
525.13	52669.08
525.30	52746.31
525.47	52706.52
525.64	52875.04
525.81	52849.30
525.98	52683.12
526.16	52931.22
526.33	52891.43
526.50	53331.45
526.67	53081.01
526.84	53172.29
527.01	53261.23
527.18	53223.78
527.36	53504.65
527.53	53385.28
527.70	53614.65
527.87	53647.42
528.04	53670.82
528.21	53825.30
528.38	53602.95
528.55	53705.93
528.72	53717.64
528.89	53865.09
529.07	53818.28
529.24	53616.99
529.41	54064.03
529.58	54192.76
529.75	53808.92
529.92	53949.35
530.09	54042.97
530.26	54370.64
530.43	54391.71
530.60	54169.36
530.77	54108.50
530.94	54401.07
531.11	54644.49
531.28	54480.65
531.46	54946.42
531.63	54649.17
531.80	54515.76
531.97	54635.13
532.14	55016.63
532.31	54492.35
532.48	54913.65
532.65	54932.37
532.82	54911.31
532.99	55201.53
533.16	54944.08
533.33	54796.62
533.50	55161.75
533.67	54988.55
533.84	54864.50
534.01	55077.49
534.18	55133.66
534.35	55449.63
534.52	55334.95
534.69	55437.93
534.86	55601.77
535.03	55421.55
535.20	55494.10
535.37	55709.43
535.54	55648.58
535.71	55461.33
535.88	55791.35
536.05	55604.11
536.22	55894.33
536.38	55746.88
536.55	56079.24
536.72	55833.48
536.89	55767.94
537.06	56044.13
537.23	55938.80
537.40	55625.17
537.57	55948.17
537.74	56252.44
537.91	56346.06
538.08	56264.14
538.25	56074.55
538.42	56137.75
538.59	56479.47
538.75	56053.49
538.92	56301.59
539.09	56645.65
539.26	56587.13
539.43	56287.54
539.60	56451.38
539.77	56348.40
539.94	56697.14
540.11	56528.62
540.28	56655.01
540.44	56767.35
540.61	56868.00
540.78	56727.56
540.95	56626.92
541.12	56760.33
541.29	56633.94
541.46	57078.64
541.62	56786.08
541.79	56907.79
541.96	56697.14
542.13	56779.06
542.30	56924.17
542.47	57041.20
542.63	57020.13
542.80	57120.77
542.97	57427.38
543.14	57350.15
543.31	57511.64
543.48	57497.60
543.64	57579.52
543.81	57598.24
543.98	57516.32
544.15	57682.50
544.32	57759.74
544.48	57836.98
544.65	57741.02
544.82	57366.53
544.99	57446.11
545.16	57595.90
545.32	57766.76
545.49	57982.09
545.66	57759.74
545.83	57844.00
546.00	57935.28
546.16	57986.77
546.33	57780.81
546.50	57689.52
546.67	57951.66
546.83	57726.97
547.00	58031.24
547.17	57895.49
547.34	58106.14
547.50	58141.25
547.67	58471.26
547.84	58253.59
548.00	58473.60
548.17	58330.83
548.34	58445.52
548.51	58609.35
548.67	58459.56
548.84	58548.50
549.01	58323.81
549.18	58354.24
549.34	58415.09
549.51	58504.03
549.68	58515.73
549.84	58733.40
550.01	58684.25
550.18	58564.88
550.34	58688.93
550.51	58705.32
550.68	58604.67
550.84	58520.41
551.01	58976.82
551.18	58710.00
551.34	58681.91
551.51	58607.01
551.68	59011.93
551.84	58925.33
552.01	58705.32
552.18	58979.16
552.34	58958.09
552.51	58635.10
552.68	58852.77
552.84	58951.07
553.01	59201.51
553.18	59180.45
553.34	59164.06
553.51	59061.08
553.67	58997.88
553.84	59255.34
554.01	59194.49
554.17	59260.02
554.34	59353.65
554.51	59196.83
554.67	59276.41
554.84	59152.36
555.00	59278.75
555.17	59264.70
555.33	59370.03
555.50	59208.53
555.67	59215.55
555.83	59264.70
556.00	59494.08
556.16	59709.41
556.33	59557.27
556.50	59451.95
556.66	59552.59
556.83	59458.97
556.99	59606.42
557.16	59505.78
557.32	59664.94
557.49	59840.48
557.65	59608.76
557.82	59622.81
557.98	59470.67
558.15	59774.94
558.32	59788.98
558.48	59742.17
558.65	59599.40
558.81	59854.52
558.98	59772.60
559.14	59943.46
559.31	59868.56
559.47	60023.04
559.64	60004.31
559.80	59891.97
559.97	60072.19
560.13	59845.16
560.30	59854.52
560.46	59842.82
560.63	60053.47
560.79	60149.43
560.96	60212.62
561.12	59948.14
561.29	60175.17
561.45	60257.09
561.61	59955.16
561.78	59948.14
561.94	60023.04
562.11	60149.43
562.27	60210.28
562.44	60130.70
562.60	60294.54
562.77	59987.93
562.93	59856.86
563.10	60275.82
563.26	60088.57
563.42	60519.23
563.59	60243.05
563.75	60245.39
563.92	60275.82
564.08	60250.07
564.24	60519.23
564.41	60357.74
564.57	60495.83
564.74	60463.06
564.90	60207.94
565.07	60301.56
565.23	60308.58
565.39	60165.81
565.56	60451.36
565.72	60301.56
565.88	60378.80
566.05	60472.42
566.21	60353.05
566.38	60397.52
566.54	60650.30
566.70	60626.90
566.87	60519.23
567.03	60402.21
567.19	60769.67
567.36	60619.88
567.52	60629.24
567.68	60582.43
567.85	60671.37
568.01	60713.50
568.17	60608.17
568.34	60566.04
568.50	60467.74
568.66	60355.39
568.83	60652.64
568.99	60706.47
569.15	60554.34
569.32	60498.17
569.48	60676.05
569.64	60671.37
569.81	60676.05
569.97	60643.28
570.13	60720.52
570.30	60495.83
570.46	60746.26
570.62	60804.78
570.78	60732.22
570.95	60874.99
571.11	60975.64
571.27	60645.62
571.43	60992.02
571.60	60879.67
571.76	60755.63
571.92	61062.24
572.09	60853.93
572.25	60821.16
572.41	60711.16
572.57	60865.63
572.74	60987.34
572.90	60821.16
573.06	60706.47
573.22	60865.63
573.38	60867.97
573.55	60793.07
573.71	61106.71
573.87	60921.80
574.03	60729.88
574.20	60935.85
574.36	60898.40
574.52	60954.57
574.68	61029.47
574.84	61219.05
575.01	60994.36
575.17	60980.32
575.33	60863.29
575.49	60870.31
575.65	61050.53
575.82	61183.94
575.98	61144.16
576.14	61230.75
576.30	61113.73
576.46	60914.78
576.62	61022.45
576.79	61024.79
576.95	60963.93
577.11	61111.39
577.27	60938.19
577.43	60977.98
577.59	61029.47
577.75	60977.98
577.92	61001.38
578.08	61055.21
578.24	61055.21
578.40	61315.01
578.56	61137.13
578.72	61130.11
578.88	61113.73
579.04	61190.97
579.21	60956.91
579.37	61071.60
579.53	61233.10
579.69	61003.72
579.85	61069.26
580.01	61139.47
580.17	61010.74
580.33	61055.21
580.49	61448.42
580.65	61230.75
580.82	61020.11
580.98	61104.37
581.14	60924.14
581.30	61237.78
581.46	61066.92
581.62	61097.34
581.78	61057.56
581.94	61244.80
582.10	61024.79
582.26	61233.10
582.42	61027.13
582.58	61310.33
582.74	61223.73
582.90	60987.34
583.06	61155.86
583.22	60938.19
583.38	61247.14
583.54	61413.32
583.70	61080.96
583.86	61017.77
584.02	61076.28
584.18	61394.59
584.34	61200.33
584.50	61087.98
584.66	60963.93
584.82	61010.74
584.98	61434.38
585.14	61226.07
585.30	60989.68
585.46	61261.18
585.62	61305.65
585.78	61350.12
585.94	61230.75
586.10	61307.99
586.26	61186.28
586.42	61226.07
586.58	61263.52
586.74	61282.25
586.90	61205.01
587.06	61244.80
587.22	61310.33
587.38	61216.71
587.54	61408.64
587.70	61307.99
587.86	61160.54
588.02	61439.06
588.18	61359.48
588.34	61284.59
