SpectraSuite Data File
++++++++++++++++++++++++++++++++++++
Date: Fri Oct 25 11:26:08 EDT 2013
User: price-jones
Dark Spectrum Present: No
Reference Spectrum Present: No
Number of Sampled Component Spectra: 1
Spectrometers: USB2+H05261
Integration Time (usec): 100000 (USB2+H05261)
Spectra Averaged: 1 (USB2+H05261)
Boxcar Smoothing: 0 (USB2+H05261)
Correct for Electrical Dark: No (USB2+H05261)
Strobe/Lamp Enabled: No (USB2+H05261)
Correct for Detector Non-linearity: No (USB2+H05261)
Correct for Stray Light: No (USB2+H05261)
Number of Pixels in Processed Spectrum: 2048
>>>>>Begin Processed Spectral Data<<<<<
365.73	189.58
365.92	189.58
366.12	189.58
366.32	173.20
366.52	100.64
366.72	105.32
366.91	77.24
367.11	91.28
367.31	161.50
367.51	131.07
367.70	154.48
367.90	110.01
368.10	117.03
368.30	175.54
368.49	163.84
368.69	177.88
368.89	159.16
369.09	121.71
369.28	149.79
369.48	194.26
369.68	152.13
369.87	231.71
370.07	210.65
370.27	205.97
370.47	278.52
370.66	580.45
370.86	610.88
371.06	692.80
371.25	653.01
371.45	641.31
371.65	706.84
371.84	685.78
372.04	629.60
372.24	755.99
372.44	704.50
372.63	690.46
372.83	779.40
373.03	744.29
373.22	786.42
373.42	765.36
373.62	765.36
373.81	770.04
374.01	847.27
374.21	737.27
374.40	723.23
374.60	858.98
374.79	833.23
374.99	805.14
375.19	873.02
375.38	847.27
375.58	849.61
375.78	866.00
375.97	954.94
376.17	866.00
376.37	851.96
376.56	919.83
376.76	851.96
376.95	938.55
377.15	926.85
377.35	866.00
377.54	882.38
377.74	854.30
377.93	894.08
378.13	905.79
378.33	917.49
378.52	976.00
378.72	947.92
378.91	847.27
379.11	903.45
379.31	945.58
379.50	889.40
379.70	985.37
379.89	1011.11
380.09	978.34
380.28	891.74
380.48	999.41
380.68	947.92
380.87	1027.50
381.07	973.66
381.26	990.05
381.46	1076.65
381.65	1060.26
381.85	990.05
382.04	1109.41
382.24	1093.03
382.43	997.07
382.63	1064.94
382.83	1050.90
383.02	1123.46
383.22	1074.31
383.41	1116.44
383.61	1214.74
383.80	1200.69
384.00	1111.75
384.19	1128.14
384.39	1123.46
384.58	1207.72
384.78	1165.59
384.97	1139.84
385.17	1188.99
385.36	1188.99
385.56	1177.29
385.75	1170.27
385.95	1240.48
386.14	1287.29
386.34	1219.42
386.53	1247.51
386.72	1242.82
386.92	1268.57
387.11	1289.64
387.31	1174.95
387.50	1247.51
387.70	1221.76
387.89	1249.85
388.09	1280.27
388.28	1242.82
388.48	1254.53
388.67	1315.38
388.86	1380.92
389.06	1299.00
389.25	1320.06
389.45	1394.96
389.64	1320.06
389.84	1366.87
390.03	1341.13
390.22	1425.39
390.42	1425.39
390.61	1362.19
390.81	1380.92
391.00	1355.17
391.19	1511.99
391.39	1416.02
391.58	1509.65
391.78	1460.49
391.97	1535.39
392.16	1521.35
392.36	1446.45
392.55	1521.35
392.75	1455.81
392.94	1636.03
393.13	1549.43
393.33	1547.09
393.52	1488.58
393.71	1547.09
393.91	1483.90
394.10	1582.20
394.29	1652.42
394.49	1593.90
394.68	1647.74
394.88	1680.50
395.07	1720.29
395.26	1760.08
395.46	1579.86
395.65	1692.21
395.84	1675.82
396.04	1748.38
396.23	1746.04
396.42	1713.27
396.62	1767.10
396.81	1827.96
397.00	1713.27
397.19	1811.57
397.39	1760.08
397.58	1792.85
397.77	1879.45
397.97	1902.86
398.16	1788.17
398.35	2022.22
398.55	1856.04
398.74	1863.07
398.93	1783.49
399.12	1912.22
399.32	1942.64
399.51	1961.37
399.70	1944.99
399.90	1916.90
400.09	2094.78
400.28	2059.67
400.47	1994.14
400.67	1998.82
400.86	2148.61
401.05	2069.03
401.24	2008.18
401.44	2108.82
401.63	2094.78
401.82	2108.82
402.01	2073.71
402.21	2214.15
402.40	2249.25
402.59	2246.91
402.78	2221.17
402.97	2296.07
403.17	2239.89
403.36	2211.81
403.55	2284.36
403.74	2340.54
403.93	2324.15
404.13	2406.07
404.32	2270.32
404.51	2394.37
404.70	2431.82
404.89	2392.03
405.09	2499.69
405.28	2502.03
405.47	2452.88
405.66	2525.44
405.85	2399.05
406.05	2408.41
406.24	2539.48
406.43	2586.29
406.62	2658.85
406.81	2623.74
407.00	2593.31
407.20	2637.78
407.39	2656.51
407.58	2729.06
407.77	2647.15
407.96	2733.75
408.15	2775.88
408.34	2752.47
408.54	2789.92
408.73	2754.81
408.92	2813.32
409.11	2944.39
409.30	2806.30
409.49	2925.67
409.68	2974.82
409.87	2970.14
410.07	2888.22
410.26	2974.82
410.45	3028.65
410.64	2972.48
410.83	3089.51
411.02	3007.59
411.21	3129.30
411.40	3145.68
411.59	3185.47
411.78	3112.91
411.98	3304.84
412.17	3150.36
412.36	3267.39
412.55	3323.56
412.74	3304.84
412.93	3272.07
413.12	3281.43
413.31	3520.17
413.50	3358.67
413.69	3482.72
413.88	3475.70
414.07	3609.11
414.26	3566.98
414.45	3639.53
414.64	3716.77
414.83	3742.52
415.02	3665.28
415.22	3805.71
415.41	3873.59
415.60	3777.62
415.79	3880.61
415.98	3929.76
416.17	3971.89
416.36	3932.10
416.55	3950.82
416.74	4051.47
416.93	4063.17
417.12	4205.94
417.31	4149.77
417.50	4163.81
417.69	4210.62
417.88	4194.24
418.07	4229.35
418.26	4294.88
418.45	4299.56
418.64	4374.46
418.83	4472.76
419.02	4376.80
419.21	4573.41
419.39	4575.75
419.58	4442.34
419.77	4507.87
419.96	4496.17
420.15	4744.27
420.34	4643.62
420.53	4542.98
420.72	4699.80
420.91	4697.46
421.10	4690.43
421.29	4767.67
421.48	4566.39
421.67	4777.03
421.86	4695.11
422.05	4877.68
422.24	4805.12
422.43	4746.61
422.61	4786.40
422.80	5093.01
422.99	4919.81
423.18	5011.09
423.37	4945.55
423.56	4987.68
423.75	4805.12
423.94	4835.55
424.13	4505.53
424.32	4650.64
424.50	4828.53
424.69	5022.79
424.88	4994.70
425.07	4912.78
425.26	4938.53
425.45	4959.60
425.64	4835.55
425.83	5135.14
426.01	4973.64
426.20	5109.39
426.39	5210.03
426.58	5160.88
426.77	5027.47
426.96	5093.01
427.15	5139.82
427.33	5181.95
427.52	5170.24
427.71	5224.08
427.90	5355.15
428.09	5350.46
428.28	5518.98
428.46	5268.55
428.65	5296.63
428.84	5317.70
429.03	5657.07
429.22	5156.20
429.40	5439.40
429.59	5448.77
429.78	5371.53
429.97	5212.37
430.16	5479.19
430.34	5610.26
430.53	5624.31
430.72	5717.93
430.91	5628.99
431.10	5746.02
431.28	5799.85
431.47	5682.82
431.66	5771.76
431.85	5804.53
432.03	5886.45
432.22	5975.39
432.41	5813.89
432.60	5888.79
432.79	5863.04
432.97	5792.83
433.16	6040.92
433.35	5895.81
433.54	6143.91
433.72	6141.57
433.91	6169.65
434.10	6059.65
434.28	6036.24
434.47	6146.25
434.66	6134.54
434.85	6253.91
435.03	6422.43
435.22	6305.40
435.41	6394.34
435.59	6347.53
435.78	6420.09
435.97	6506.69
436.16	6363.92
436.34	6366.26
436.53	6469.24
436.72	6689.25
436.90	6312.42
437.09	6604.99
437.28	6579.25
437.46	6490.31
437.65	6628.40
437.84	6789.89
438.02	6712.66
438.21	6700.95
438.40	6604.99
438.58	7026.29
438.77	7052.03
438.96	6937.35
439.14	7068.42
439.33	7143.32
439.52	7232.26
439.70	7148.00
439.89	7365.67
440.08	7131.61
440.26	7342.26
440.45	7344.60
440.63	7330.56
440.82	7403.11
441.01	7487.37
441.19	7508.44
441.38	7831.43
441.57	7726.11
441.75	7777.60
441.94	7948.46
442.12	7939.10
442.31	7939.10
442.50	7908.67
442.68	8051.44
442.87	8114.64
443.05	7719.09
443.24	8086.55
443.43	8086.55
443.61	8210.60
443.80	8278.47
443.98	8088.89
444.17	7885.26
444.35	8215.28
444.54	8205.92
444.73	8241.03
444.91	8294.86
445.10	8257.41
445.28	8308.90
445.47	8297.20
445.65	8173.15
445.84	8526.57
446.02	8454.02
446.21	8201.24
446.39	8416.57
446.58	8351.03
446.77	8568.70
446.95	8201.24
447.14	8603.81
447.32	8454.02
447.51	8442.31
447.69	8552.32
447.88	8482.10
448.06	8372.10
448.25	8620.19
448.43	8463.38
448.62	8826.16
448.80	8561.68
448.99	8538.27
449.17	8788.71
449.36	8603.81
449.54	8891.70
449.73	8884.67
449.91	9074.26
450.10	8973.61
450.28	9020.42
450.46	8858.93
450.65	9067.24
450.83	8978.30
451.02	8959.57
451.20	9039.15
451.39	9142.13
451.57	9085.96
451.76	8908.08
451.94	9270.86
452.13	9312.99
452.31	9256.82
452.49	9123.41
452.68	9296.61
452.86	9334.06
453.05	9479.17
453.23	9390.23
453.42	9142.13
453.60	9413.63
453.78	9551.73
453.97	9329.38
454.15	9338.74
454.34	9418.32
454.52	9795.14
454.70	9830.25
454.89	9710.88
455.07	9776.42
455.26	9785.78
455.44	9935.57
455.62	9736.63
455.81	9935.57
455.99	10059.62
456.17	10031.54
456.36	10073.67
456.54	10195.37
456.73	10209.42
456.91	10338.15
457.09	10401.34
457.28	10471.56
457.46	10225.80
457.64	10427.09
457.83	10289.00
458.01	10310.06
458.19	10661.14
458.38	10457.51
458.56	10523.05
458.74	10438.79
458.93	10862.43
459.11	10651.78
459.29	10832.00
459.48	10827.32
459.66	10705.61
459.84	10782.85
460.03	11122.23
460.21	11145.63
460.39	10958.39
460.57	10942.00
460.76	10951.37
460.94	11309.47
461.12	11211.17
461.31	11375.00
461.49	11260.32
461.67	11246.27
461.85	11372.66
462.04	11166.70
462.22	11573.95
462.40	11627.78
462.59	11777.58
462.77	11559.91
462.95	11672.25
463.13	11566.93
463.32	11459.26
463.50	11428.84
463.68	11702.68
463.86	11564.59
464.05	11639.48
464.23	11508.41
464.41	11798.64
464.59	11517.78
464.78	12135.68
464.96	11887.58
465.14	12037.38
465.32	11981.20
465.50	11943.75
465.69	12060.78
465.87	12376.75
466.05	12074.82
466.23	11789.28
466.41	12198.87
466.60	12362.71
466.78	12191.85
466.96	12091.21
467.14	12233.98
467.32	12486.76
467.51	12395.48
467.69	12194.19
467.87	12470.37
468.05	12561.66
468.23	12446.97
468.41	12432.93
468.60	12608.47
468.78	12657.62
468.96	12638.89
469.14	12727.83
469.32	12847.20
469.50	12547.61
469.69	12886.99
469.87	12931.46
470.05	12996.99
470.23	13142.11
470.41	13214.66
470.59	13205.30
470.77	13060.19
470.95	13261.48
471.14	13537.66
471.32	13198.28
471.50	13362.12
471.68	13453.40
471.86	13741.29
472.04	13858.31
472.22	13851.29
472.40	13806.82
472.58	13776.39
472.77	14368.55
472.95	14019.81
473.13	14808.57
473.31	14106.41
473.49	14228.12
473.67	13980.02
473.85	14300.67
474.03	14682.18
474.21	14445.79
474.39	14909.21
474.57	15068.37
474.75	14623.67
474.93	15103.48
475.12	14794.53
475.30	14970.07
475.48	15080.07
475.66	15206.46
475.84	14941.98
476.02	15407.75
476.20	15140.93
476.38	15417.11
476.56	15882.88
476.74	15950.75
476.92	15674.57
477.10	15573.92
477.28	16112.25
477.46	16245.66
477.64	16280.77
477.82	16533.54
478.00	16812.07
478.18	16734.83
478.36	16968.88
478.54	16781.64
478.72	17135.06
478.90	17364.43
479.08	17509.55
479.26	17680.41
479.44	17591.47
479.62	17853.61
479.80	18001.06
479.98	18174.26
480.16	18333.42
480.34	18256.18
480.52	18380.23
480.70	18693.86
480.88	18492.57
481.06	18785.14
481.24	18719.60
481.41	19187.71
481.59	19070.68
481.77	19601.99
481.95	19508.37
482.13	19676.88
482.31	19545.81
482.49	20311.17
482.67	19967.11
482.85	20147.33
483.03	20470.33
483.21	20816.72
483.39	20863.54
483.57	20685.65
483.74	21092.91
483.92	21160.78
484.10	21036.74
484.28	21666.34
484.46	22160.19
484.64	22092.32
484.82	21652.30
485.00	22391.91
485.18	22867.03
485.35	22984.06
485.53	22752.35
485.71	22710.22
485.89	23396.00
486.07	23325.78
486.25	23325.78
486.43	23440.47
486.61	23728.35
486.78	23721.33
486.96	24297.10
487.14	24563.92
487.32	24477.32
487.50	24978.20
487.68	24992.24
487.85	25355.02
488.03	25617.16
488.21	25984.63
488.39	25621.84
488.57	26132.08
488.75	26455.08
488.92	26558.06
489.10	26892.76
489.28	26930.20
489.46	27274.26
489.64	26595.51
489.81	27536.40
489.99	27578.53
490.17	27821.95
490.35	28264.31
490.53	28180.05
490.70	28463.25
490.88	27765.78
491.06	28561.56
491.24	28835.40
491.41	28751.14
491.59	29221.59
491.77	29032.00
491.95	29507.13
492.13	29266.06
492.30	29869.92
492.48	30010.35
492.66	29986.94
492.84	30160.14
493.01	30738.26
493.19	30700.81
493.37	30759.32
493.54	31304.67
493.72	31433.39
493.90	31292.96
494.08	31283.60
494.25	31960.02
494.43	31683.83
494.61	32456.21
494.79	32367.27
494.96	32383.65
495.14	32540.47
495.32	33046.02
495.49	32903.25
495.67	33333.91
495.85	33209.86
496.02	33605.41
496.20	33958.83
496.38	33633.50
496.55	34015.01
496.73	34459.71
496.91	34588.44
497.09	34691.42
497.26	34639.93
497.44	35255.49
497.62	35075.27
497.79	35777.43
497.97	35573.80
498.14	36116.81
498.32	36107.44
498.50	35735.30
498.67	36510.02
498.85	36325.11
499.03	36720.66
499.20	36467.89
499.38	37027.28
499.56	36659.81
499.73	37354.95
499.91	37378.36
500.08	37378.36
500.26	37296.44
500.44	37303.46
500.61	37699.01
500.79	37734.12
500.97	37982.21
501.14	38286.48
501.32	38391.81
501.49	38462.02
501.67	38436.28
501.84	38855.23
502.02	38602.46
502.20	38813.10
502.37	38974.60
502.55	38976.94
502.72	39508.24
502.90	39585.48
503.07	39302.28
503.25	39770.38
503.43	39435.69
503.60	39826.56
503.78	40182.32
503.95	39959.97
504.13	40374.24
504.30	40722.98
504.48	40357.86
504.65	40418.71
504.83	40793.20
505.01	40942.99
505.18	40961.72
505.36	40973.42
505.53	41001.50
505.71	41277.69
505.88	41523.44
506.06	41160.66
506.23	42038.36
506.41	41717.71
506.58	41364.29
506.76	42265.39
506.93	42576.69
507.11	42197.52
507.28	42529.87
507.46	42117.94
507.63	42803.72
507.81	42752.23
507.98	42241.99
508.16	43016.71
508.33	43061.18
508.50	43234.38
508.68	43374.81
508.85	43393.53
509.03	43674.40
509.20	43639.29
509.38	44044.20
509.55	43789.08
509.73	44177.61
509.90	44266.55
510.08	44495.92
510.25	44795.51
510.42	44282.94
510.60	45404.05
510.77	44802.53
510.95	45284.68
511.12	44992.12
511.30	45059.99
511.47	45212.13
511.64	45397.03
511.82	45476.61
511.99	45425.12
512.17	45780.88
512.34	45713.00
512.51	46085.15
512.69	46749.86
512.86	46087.49
513.04	46267.71
513.21	46260.69
513.38	46281.75
513.56	46403.46
513.73	46813.05
513.90	47196.90
514.08	46976.89
514.25	46791.99
514.43	46948.81
514.60	47437.98
514.77	47117.32
514.95	47601.82
515.12	47171.16
515.29	47114.98
515.47	47746.93
515.64	47679.05
515.81	47517.56
515.99	47863.96
516.16	48601.22
516.33	47906.08
516.51	48184.61
516.68	48428.02
516.85	48577.82
517.03	48594.20
517.20	48828.26
517.37	48662.08
517.54	48814.21
517.72	48673.78
517.89	49006.14
518.06	49275.30
518.24	48861.02
518.41	49205.08
518.58	49467.22
518.75	49013.16
518.93	49595.95
519.10	49509.35
519.27	49158.27
519.45	49776.17
519.62	49670.85
519.79	50300.45
519.96	49902.56
520.14	50263.00
520.31	49773.83
520.48	50216.19
520.65	50192.79
520.83	50349.60
521.00	50447.91
521.17	50461.95
521.34	50536.85
521.52	50300.45
521.69	50490.04
521.86	50539.19
522.03	50831.75
522.20	50869.20
522.38	51414.55
522.55	51271.78
522.72	50962.82
522.89	51152.41
523.07	51433.27
523.24	51334.97
523.41	51512.85
523.58	51423.91
523.75	51863.93
523.92	51557.32
524.10	51655.62
524.27	51887.34
524.44	52011.38
524.61	51922.44
524.78	52325.02
524.96	52175.22
525.13	51877.97
525.30	52339.06
525.47	52339.06
525.64	52509.92
525.81	52622.26
525.98	52842.27
526.16	52381.19
526.33	52439.70
526.50	53116.12
526.67	52598.86
526.84	52722.91
527.01	52631.63
527.18	52776.74
527.36	52652.69
527.53	52973.34
527.70	53045.90
527.87	53284.64
528.04	53104.41
528.21	53340.81
528.38	53354.85
528.55	53406.34
528.72	53322.08
528.89	53118.46
529.07	53301.02
529.24	53286.98
529.41	53666.14
529.58	53413.37
529.75	53539.75
529.92	53827.64
530.09	53846.36
530.26	53806.58
530.43	54064.03
530.60	53467.20
530.77	53727.00
530.94	54075.74
531.11	53806.58
531.28	54078.08
531.46	54213.83
531.63	54019.56
531.80	53883.81
531.97	54396.39
532.14	54038.29
532.31	54321.49
532.48	54372.99
532.65	54550.87
532.82	54384.69
532.99	54349.58
533.16	54525.12
533.33	54670.23
533.50	54733.43
533.67	54527.46
533.84	54574.27
534.01	54848.11
534.18	54768.54
534.35	55178.13
534.52	54939.39
534.69	55035.36
534.86	55030.68
535.03	54969.82
535.20	55196.85
535.37	55290.48
535.54	55220.26
535.71	54979.18
535.88	55199.19
536.05	55440.27
536.22	55412.18
536.38	55334.95
536.55	55466.02
536.72	55643.90
536.89	55379.42
537.06	55533.89
537.23	55599.43
537.40	55653.26
537.57	55547.93
537.74	55758.58
537.91	55597.09
538.08	55859.23
538.25	55653.26
538.42	55700.07
538.59	55959.87
538.75	55599.43
538.92	56058.17
539.09	56128.39
539.26	55971.57
539.43	56203.28
539.60	56107.32
539.77	56222.01
539.94	56425.64
540.11	56418.61
540.28	56341.38
540.44	56231.37
540.61	56439.68
540.78	56222.01
540.95	56041.79
541.12	56214.99
541.29	56371.80
541.46	56598.83
541.62	56575.43
541.79	56657.35
541.96	56116.68
542.13	56559.05
542.30	56350.74
542.47	56580.11
542.63	56685.43
542.80	56797.78
542.97	56839.91
543.14	57031.83
543.31	57085.67
543.48	57172.27
543.64	57188.65
543.81	57411.00
543.98	57221.42
544.15	57162.90
544.32	57631.01
544.48	57551.43
544.65	57432.07
544.82	57467.17
544.99	56956.94
545.16	57551.43
545.32	57279.93
545.49	57511.64
545.66	57607.61
545.83	57628.67
546.00	57745.70
546.16	57464.83
546.33	57293.97
546.50	57258.87
546.67	57584.20
546.83	57317.38
547.00	57535.05
547.17	57612.29
547.34	57593.56
547.50	57757.40
547.67	58251.25
547.84	57853.36
548.00	58103.80
548.17	57951.66
548.34	57869.75
548.51	58049.97
548.67	58206.78
548.84	58071.03
549.01	58026.56
549.18	58227.85
549.34	58054.65
549.51	58138.91
549.68	58286.36
549.84	58361.26
550.01	58347.21
550.18	58169.33
550.34	58258.27
550.51	58241.89
550.68	58408.07
550.84	58300.40
551.01	58319.13
551.18	58312.11
551.34	58305.09
551.51	58337.85
551.68	58365.94
551.84	58473.60
552.01	58550.84
552.18	58595.31
552.34	58248.91
552.51	58656.17
552.68	58300.40
552.84	58513.39
553.01	58812.98
553.18	58759.15
553.34	58564.88
553.51	58433.81
553.67	58728.72
553.84	58766.17
554.01	58834.05
554.17	58784.90
554.34	58824.68
554.51	59103.21
554.67	59222.58
554.84	58880.86
555.00	59002.56
555.17	58878.52
555.33	58976.82
555.50	58890.22
555.67	58651.48
555.83	58766.17
556.00	59105.55
556.16	59423.86
556.33	59185.13
556.50	58995.54
556.66	58995.54
556.83	59164.06
556.99	59330.24
557.16	59381.73
557.32	59416.84
557.49	59547.91
557.65	59470.67
557.82	59325.56
557.98	59098.53
558.15	59306.83
558.32	59203.85
558.48	59339.60
558.65	59540.89
558.81	59470.67
558.98	59135.98
559.14	59391.09
559.31	59564.29
559.47	59597.06
559.64	59662.60
559.80	59597.06
559.97	59465.99
560.13	59599.40
560.30	59470.67
560.46	59540.89
560.63	59620.47
560.79	59700.04
560.96	59849.84
561.12	59730.47
561.29	59873.24
561.45	59777.28
561.61	59636.85
561.78	59716.43
561.94	59643.87
562.11	59714.09
562.27	59625.15
562.44	59833.46
562.60	59950.48
562.77	59856.86
562.93	59707.07
563.10	60170.49
563.26	59859.20
563.42	59983.25
563.59	59910.69
563.75	59805.37
563.92	59887.29
564.08	59891.97
564.24	60130.70
564.41	60074.53
564.57	59943.46
564.74	60009.00
564.90	59941.12
565.07	60343.69
565.23	59943.46
565.39	59849.84
565.56	60086.23
565.72	60069.85
565.88	60154.11
566.05	60205.60
566.21	59791.33
566.38	60123.68
566.54	60144.75
566.70	60158.79
566.87	60299.22
567.03	60058.15
567.19	60432.63
567.36	60168.15
567.52	60090.91
567.68	60254.75
567.85	60320.29
568.01	60561.36
568.17	60315.61
568.34	60240.71
568.50	60273.48
568.66	60378.80
568.83	60446.68
568.99	60292.20
569.15	60299.22
569.32	60278.16
569.48	60074.53
569.64	60301.56
569.81	60317.95
569.97	60238.37
570.13	60362.42
570.30	60308.58
570.46	60430.29
570.62	60402.21
570.78	60406.89
570.95	60362.42
571.11	60554.34
571.27	60453.70
571.43	60561.36
571.60	60566.04
571.76	60292.20
571.92	60472.42
572.09	60463.06
572.25	60280.50
572.41	60299.22
572.57	60645.62
572.74	60577.75
572.90	60587.11
573.06	60472.42
573.22	60367.10
573.38	60348.37
573.55	60540.30
573.71	60610.51
573.87	60617.53
574.03	60507.53
574.20	60767.33
574.36	60530.93
574.52	60631.58
574.68	60638.60
574.84	60664.35
575.01	60491.15
575.17	60568.38
575.33	60652.64
575.49	60453.70
575.65	60757.97
575.82	60790.73
575.98	60772.01
576.14	60767.33
576.30	60416.25
576.46	60596.47
576.62	60793.07
576.79	60729.88
576.95	60568.38
577.11	60690.09
577.27	60872.65
577.43	60683.07
577.59	60570.72
577.75	60626.90
577.92	60633.92
578.08	60671.37
578.24	60903.08
578.40	60893.72
578.56	60823.50
578.72	60846.91
578.88	60975.64
579.04	60917.12
579.21	60720.52
579.37	60938.19
579.53	60867.97
579.69	60610.51
579.85	60669.03
580.01	60678.39
580.17	60797.76
580.33	60910.10
580.49	60931.17
580.65	60828.18
580.82	60807.12
580.98	60734.56
581.14	60896.06
581.30	61076.28
581.46	60729.88
581.62	60748.60
581.78	60589.45
581.94	60889.04
582.10	60725.20
582.26	60757.97
582.42	60760.31
582.58	60949.89
582.74	60804.78
582.90	60701.79
583.06	60734.56
583.22	60629.24
583.38	60584.77
583.54	60975.64
583.70	60640.94
583.86	60739.24
584.02	60807.12
584.18	60832.86
584.34	60893.72
584.50	60910.10
584.66	60783.71
584.82	60643.28
584.98	61158.20
585.14	60839.89
585.30	60743.92
585.46	61034.15
585.62	60830.52
585.78	61080.96
585.94	60680.73
586.10	60910.10
586.26	60977.98
586.42	60879.67
586.58	61022.45
586.74	60900.74
586.90	60715.84
587.06	60830.52
587.22	61139.47
587.38	60985.00
587.54	61024.79
587.70	61052.87
587.86	60865.63
588.02	61064.58
588.18	61221.39
588.34	60811.80
588.49	60844.57
