SpectraSuite Data File
++++++++++++++++++++++++++++++++++++
Date: Fri Oct 25 11:33:08 EDT 2013
User: price-jones
Dark Spectrum Present: No
Reference Spectrum Present: No
Number of Sampled Component Spectra: 1
Spectrometers: USB2+H05261
Integration Time (usec): 100000 (USB2+H05261)
Spectra Averaged: 1 (USB2+H05261)
Boxcar Smoothing: 0 (USB2+H05261)
Correct for Electrical Dark: No (USB2+H05261)
Strobe/Lamp Enabled: No (USB2+H05261)
Correct for Detector Non-linearity: No (USB2+H05261)
Correct for Stray Light: No (USB2+H05261)
Number of Pixels in Processed Spectrum: 2048
>>>>>Begin Processed Spectral Data<<<<<
365.73	297.25
365.92	297.25
366.12	297.25
366.32	194.26
366.52	170.86
366.72	222.35
366.91	177.88
367.11	133.41
367.31	161.50
367.51	170.86
367.70	140.43
367.90	142.77
368.10	140.43
368.30	220.01
368.49	189.58
368.69	149.79
368.89	152.13
369.09	198.95
369.28	217.67
369.48	189.58
369.68	170.86
369.87	224.69
370.07	180.22
370.27	273.84
370.47	334.70
370.66	491.51
370.86	573.43
371.06	564.07
371.25	620.24
371.45	486.83
371.65	557.05
371.84	528.96
372.04	514.92
372.24	566.41
372.44	571.09
372.63	578.11
372.83	566.41
373.03	554.71
373.22	674.07
373.42	650.67
373.62	620.24
373.81	582.79
374.01	622.58
374.21	657.69
374.40	641.31
374.60	589.82
374.79	690.46
374.99	638.97
375.19	681.10
375.38	685.78
375.58	667.05
375.78	748.97
375.97	645.99
376.17	709.18
376.37	650.67
376.56	592.16
376.76	629.60
376.95	660.03
377.15	751.31
377.35	767.70
377.54	660.03
377.74	617.90
377.93	631.94
378.13	765.36
378.33	791.10
378.52	704.50
378.72	671.73
378.91	767.70
379.11	727.91
379.31	725.57
379.50	671.73
379.70	755.99
379.89	772.38
380.09	755.99
380.28	678.76
380.48	702.16
380.68	716.20
380.87	709.18
381.07	725.57
381.26	713.86
381.46	737.27
381.65	730.25
381.85	816.85
382.04	812.17
382.24	734.93
382.43	833.23
382.63	835.57
382.83	718.54
383.02	809.83
383.22	854.30
383.41	851.96
383.61	674.07
383.80	781.74
384.00	819.19
384.19	812.17
384.39	828.55
384.58	791.10
384.78	840.25
384.97	847.27
385.17	800.46
385.36	816.85
385.56	793.44
385.75	896.43
385.95	814.51
386.14	905.79
386.34	812.17
386.53	828.55
386.72	903.45
386.92	905.79
387.11	868.34
387.31	851.96
387.50	835.57
387.70	870.68
387.89	910.47
388.09	973.66
388.28	894.08
388.48	868.34
388.67	898.77
388.86	971.32
389.06	858.98
389.25	933.87
389.45	959.62
389.64	1006.43
389.84	966.64
390.03	983.02
390.22	952.60
390.42	983.02
390.61	957.28
390.81	999.41
391.00	999.41
391.19	1008.77
391.39	1043.88
391.58	1015.79
391.78	999.41
391.97	1041.54
392.16	1060.26
392.36	1046.22
392.55	1060.26
392.75	1011.11
392.94	980.68
393.13	994.73
393.33	1090.69
393.52	1064.94
393.71	1020.47
393.91	1064.94
394.10	1050.90
394.29	1149.20
394.49	1114.10
394.68	1076.65
394.88	1097.71
395.07	1165.59
395.26	1203.04
395.46	1123.46
395.65	1158.57
395.84	1259.21
396.04	1252.19
396.23	1282.61
396.42	1179.63
396.62	1205.38
396.81	1254.53
397.00	1280.27
397.19	1238.14
397.39	1219.42
397.58	1282.61
397.77	1165.59
397.97	1240.48
398.16	1221.76
398.35	1249.85
398.55	1245.16
398.74	1289.64
398.93	1336.45
399.12	1348.15
399.32	1329.42
399.51	1362.19
399.70	1376.24
399.90	1313.04
400.09	1387.94
400.28	1455.81
400.47	1437.09
400.67	1462.83
400.86	1451.13
401.05	1371.55
401.24	1427.73
401.44	1383.26
401.63	1399.64
401.82	1385.60
402.01	1493.26
402.21	1392.62
402.40	1549.43
402.59	1416.02
402.78	1544.75
402.97	1493.26
403.17	1586.88
403.36	1481.56
403.55	1511.99
403.74	1605.61
403.93	1568.16
404.13	1589.22
404.32	1687.53
404.51	1582.20
404.70	1689.87
404.89	1699.23
405.09	1661.78
405.28	1640.72
405.47	1727.32
405.66	1792.85
405.85	1746.04
406.05	1626.67
406.24	1666.46
406.43	1783.49
406.62	1650.08
406.81	1792.85
407.00	1750.72
407.20	1792.85
407.39	1692.21
407.58	1839.66
407.77	1867.75
407.96	1881.79
408.15	1863.07
408.34	1877.11
408.54	1949.67
408.73	1942.64
408.92	1895.83
409.11	1937.96
409.30	2001.16
409.49	2099.46
409.68	2071.37
409.87	1954.35
410.07	2008.18
410.26	2073.71
410.45	2064.35
410.64	2181.38
410.83	2167.34
411.02	2092.44
411.21	2125.21
411.40	2223.51
411.59	2232.87
411.78	2256.28
411.98	2216.49
412.17	2211.81
412.36	2326.49
412.55	2382.67
412.74	2284.36
412.93	2349.90
413.12	2361.60
413.31	2487.99
413.50	2438.84
413.69	2445.86
413.88	2487.99
414.07	2476.29
414.26	2693.96
414.45	2490.33
414.64	2605.02
414.83	2562.89
415.02	2663.53
415.22	2682.25
415.41	2710.34
415.60	2593.31
415.79	2590.97
415.98	2778.22
416.17	2775.88
416.36	2818.00
416.55	2693.96
416.74	2766.51
416.93	2792.26
417.12	2829.71
417.31	2789.92
417.50	2857.79
417.69	3087.17
417.88	2855.45
418.07	2953.76
418.26	2977.16
418.45	2860.13
418.64	3148.02
418.83	3138.66
419.02	3138.66
419.21	3185.47
419.39	3075.46
419.58	3110.57
419.77	3141.00
419.96	3173.77
420.15	3239.30
420.34	3169.09
420.53	3096.53
420.72	3368.03
420.91	3215.90
421.10	3117.59
421.29	3281.43
421.48	3236.96
421.67	3368.03
421.86	3211.22
422.05	3382.07
422.24	3412.50
422.43	3372.71
422.61	3283.77
422.80	3440.59
422.99	3421.86
423.18	3414.84
423.37	3471.01
423.56	3433.57
423.75	3353.99
423.94	3471.01
424.13	3185.47
424.32	3323.56
424.50	3363.35
424.69	3442.93
424.88	3531.87
425.07	3478.04
425.26	3389.10
425.45	3412.50
425.64	3314.20
425.83	3398.46
426.01	3405.48
426.20	3562.30
426.39	3557.61
426.58	3407.82
426.77	3513.14
426.96	3592.72
427.15	3487.40
427.33	3606.77
427.52	3482.72
427.71	3667.62
427.90	3613.79
428.09	3786.99
428.28	3602.08
428.46	3646.55
428.65	3726.13
428.84	3794.01
429.03	3782.31
429.22	3667.62
429.40	3836.14
429.59	3655.92
429.78	3744.86
429.97	3639.53
430.16	3850.18
430.34	3962.53
430.53	3913.38
430.72	3896.99
430.91	3772.94
431.10	3768.26
431.28	3850.18
431.47	4030.40
431.66	4035.08
431.85	4016.36
432.03	4063.17
432.22	4241.05
432.41	4222.33
432.60	4014.02
432.79	4039.76
432.97	4053.81
433.16	4269.14
433.35	4114.66
433.54	4112.32
433.72	4063.17
433.91	4262.12
434.10	4154.45
434.28	4322.97
434.47	4320.63
434.66	4311.27
434.85	4418.93
435.03	4252.75
435.22	4440.00
435.41	4498.51
435.59	4351.06
435.78	4409.57
435.97	4337.01
436.16	4278.50
436.34	4273.82
436.53	4489.15
436.72	4526.60
436.90	4498.51
437.09	4613.20
437.28	4662.35
437.46	4641.28
437.65	4645.96
437.84	4774.69
438.02	4664.69
438.21	4746.61
438.40	4676.39
438.58	4856.61
438.77	4807.46
438.96	4912.78
439.14	4975.98
439.33	4849.59
439.52	4915.12
439.70	4954.91
439.89	5123.43
440.08	4954.91
440.26	4992.36
440.45	5214.71
440.63	5043.85
440.82	5245.14
441.01	5231.10
441.19	5352.81
441.38	5233.44
441.57	5221.74
441.75	5399.62
441.94	5526.00
442.12	5521.32
442.31	5369.19
442.50	5504.94
442.68	5455.79
442.87	5654.73
443.05	5528.35
443.24	5607.92
443.43	5598.56
443.61	5563.45
443.80	5650.05
443.98	5329.40
444.17	5345.78
444.35	5593.88
444.54	5582.18
444.73	5582.18
444.91	5710.91
445.10	5631.33
445.28	5593.88
445.47	5598.56
445.65	5591.54
445.84	5687.50
446.02	5806.87
446.21	5881.77
446.39	5610.26
446.58	5746.02
446.77	5727.29
446.95	5645.37
447.14	5671.12
447.32	5682.82
447.51	5959.00
447.69	5675.80
447.88	5734.31
448.06	5783.46
448.25	5715.59
448.43	5940.28
448.62	5893.47
448.80	5809.21
448.99	5820.91
449.17	5973.05
449.36	5856.02
449.54	6050.28
449.73	6179.01
449.91	6120.50
450.10	6031.56
450.28	6340.51
450.46	6125.18
450.65	6054.97
450.83	6078.37
451.02	6085.39
451.20	6253.91
451.39	6221.14
451.57	6190.72
451.76	6235.19
451.94	6085.39
452.13	6284.34
452.31	6368.60
452.49	6125.18
452.68	6211.78
452.86	6387.32
453.05	6544.14
453.23	6366.26
453.42	6356.90
453.60	6282.00
453.78	6546.48
453.97	6333.49
454.15	6544.14
454.34	6225.82
454.52	6544.14
454.70	6565.20
454.89	6616.69
455.07	6574.56
455.26	6469.24
455.44	6726.70
455.62	6691.59
455.81	6593.29
455.99	6855.43
456.17	6878.83
456.36	6794.58
456.54	6932.67
456.73	6993.52
456.91	7056.72
457.09	7052.03
457.28	7239.28
457.46	7054.37
457.64	7176.08
457.83	7077.78
458.01	6909.26
458.19	7211.19
458.38	7239.28
458.56	7349.28
458.74	7211.19
458.93	7059.06
459.11	7323.54
459.29	7276.73
459.48	7391.41
459.66	7162.04
459.84	7337.58
460.03	7632.49
460.21	7482.69
460.39	7564.61
460.57	7358.64
460.76	7573.97
460.94	7639.51
461.12	7595.04
461.31	7646.53
461.49	7550.57
461.67	7534.18
461.85	7698.02
462.04	7777.60
462.22	8098.25
462.40	7892.29
462.59	7925.05
462.77	7749.51
462.95	7864.20
463.13	7850.16
463.32	7840.79
463.50	7838.45
463.68	8095.91
463.86	8145.06
464.05	7864.20
464.23	8018.68
464.41	8037.40
464.59	7733.13
464.78	8304.22
464.96	8252.73
465.14	8046.76
465.32	8156.77
465.50	8229.32
465.69	8276.13
465.87	8229.32
466.05	8138.04
466.23	8053.78
466.41	8365.07
466.60	8365.07
466.78	8243.37
466.96	8042.08
467.14	8266.77
467.32	8383.80
467.51	8358.05
467.69	8081.87
467.87	8386.14
468.05	8280.82
468.23	8435.29
468.41	8461.04
468.60	8454.02
468.78	8510.19
468.96	8465.72
469.14	8664.66
469.32	8702.11
469.50	8418.91
469.69	8631.90
469.87	8596.79
470.05	8833.18
470.23	8798.07
470.41	8786.37
470.59	8961.91
470.77	8802.75
470.95	9057.87
471.14	9006.38
471.32	8872.97
471.50	9179.58
471.68	8990.00
471.86	9097.66
472.04	9212.35
472.22	9186.60
472.40	8821.48
472.58	9181.92
472.77	9212.35
472.95	9432.36
473.13	9926.21
473.31	9425.34
473.49	9390.23
473.67	9397.25
473.85	9434.70
474.03	9757.69
474.21	9956.64
474.39	9947.28
474.57	9687.48
474.75	9930.89
474.93	10066.64
475.12	9837.27
475.30	9937.91
475.48	10017.49
475.66	10221.12
475.84	10076.01
476.02	10258.57
476.20	10504.32
476.38	10532.41
476.56	10654.12
476.74	10527.73
476.92	10768.80
477.10	10471.56
477.28	10824.98
477.46	10958.39
477.64	10817.96
477.82	11115.20
478.00	11318.83
478.18	11286.06
478.36	11276.70
478.54	11494.37
478.72	11475.65
478.90	11641.82
479.08	11749.49
479.26	11838.43
479.44	11681.61
479.62	11627.78
479.80	11960.14
479.98	12063.12
480.16	12372.07
480.34	12189.51
480.52	12456.33
480.70	12414.20
480.88	12280.79
481.06	12620.17
481.24	12585.06
481.41	12718.47
481.59	12657.62
481.77	12685.70
481.95	12938.48
482.13	12971.25
482.31	13081.25
482.49	13284.88
482.67	13336.37
482.85	13736.60
483.03	13888.74
483.21	13926.19
483.39	13806.82
483.57	13844.27
483.74	13926.19
483.92	14298.33
484.10	13989.38
484.28	14288.97
484.46	14654.09
484.64	14862.40
484.82	14408.34
485.00	14775.80
485.18	14909.21
485.35	14890.49
485.53	14878.79
485.71	15257.95
485.89	15613.71
486.07	15492.01
486.25	15367.96
486.43	15854.79
486.61	15653.50
486.78	15906.28
486.96	15754.15
487.14	16306.51
487.32	16339.28
487.50	16456.31
487.68	16533.54
487.85	16812.07
488.03	16898.67
488.21	17163.15
488.39	16966.54
488.57	17149.11
488.75	17298.90
488.92	17493.16
489.10	17661.68
489.28	17879.35
489.46	17783.39
489.64	18267.88
489.81	18417.68
489.99	18333.42
490.17	18106.38
490.35	18326.39
490.53	18628.32
490.70	18820.25
490.88	18588.53
491.06	18745.35
491.24	18979.40
491.41	19274.31
491.59	19276.65
491.77	19140.90
491.95	19721.35
492.13	19833.70
492.30	19770.51
492.48	19824.34
492.66	19908.60
492.84	19990.52
493.01	20276.06
493.19	20259.68
493.37	20453.94
493.54	20587.35
493.72	20903.32
493.90	20933.75
494.08	21029.71
494.25	20774.60
494.43	21060.14
494.61	21331.64
494.79	21441.65
494.96	21165.46
495.14	21706.13
495.32	21963.59
495.49	22139.13
495.67	21989.33
495.85	22199.98
496.02	22312.33
496.20	22267.86
496.38	22490.21
496.55	22478.50
496.73	23145.56
496.91	22981.72
497.09	23129.17
497.26	23360.89
497.44	23061.30
497.62	23243.86
497.79	23562.17
497.97	23461.53
498.14	23917.93
498.32	23779.84
498.50	23683.88
498.67	24327.53
498.85	24243.27
499.03	24041.98
499.20	24154.33
499.38	24491.37
499.56	24863.51
499.73	24491.37
499.91	25010.96
500.08	24987.56
500.26	24971.18
500.44	24716.06
500.61	24938.41
500.79	24779.25
500.97	25301.19
501.14	25514.18
501.32	25654.61
501.49	25432.26
501.67	25680.36
501.84	25624.18
502.02	25539.93
502.20	25888.67
502.37	26073.57
502.55	26160.17
502.72	26136.76
502.90	25713.13
503.07	26389.54
503.25	25933.14
503.43	26286.56
503.60	26197.62
503.78	26621.25
503.95	26548.70
504.13	26815.52
504.30	26890.41
504.48	26993.40
504.65	26979.36
504.83	27112.77
505.01	27395.97
505.18	27442.78
505.36	27651.09
505.53	27321.07
505.71	27576.19
505.88	27960.04
506.06	27576.19
506.23	28009.19
506.41	27784.50
506.58	27831.31
506.76	28343.89
506.93	28514.75
507.11	27894.50
507.28	28304.10
507.46	28257.29
507.63	28828.38
507.81	28762.84
507.98	28676.24
508.16	28500.70
508.33	29064.77
508.50	28435.17
508.68	29380.74
508.85	28975.83
509.03	29230.95
509.20	29411.17
509.38	29673.31
509.55	29612.46
509.73	29408.83
509.90	29858.21
510.08	29797.36
510.25	29591.39
510.42	29989.28
510.60	29509.47
510.77	30068.86
510.95	30256.11
511.12	30342.70
511.30	29972.90
511.47	30199.93
511.64	30436.33
511.82	30389.52
511.99	30618.89
512.17	30677.40
512.34	30501.86
512.51	30934.86
512.69	31262.54
512.86	30733.57
513.04	31007.42
513.21	31651.06
513.38	31665.11
513.56	31285.94
513.73	31276.58
513.90	31304.67
514.08	31674.47
514.25	31887.46
514.43	31882.78
514.60	31597.23
514.77	32137.90
514.95	31955.33
515.12	31835.97
515.29	31803.20
515.47	31873.42
515.64	32449.19
515.81	31828.95
515.99	32390.67
516.16	32921.98
516.33	32542.81
516.51	32968.79
516.68	32762.82
516.85	32856.44
517.03	33088.15
517.20	33383.06
517.37	32910.27
517.54	32987.51
517.72	33078.79
517.89	33317.53
518.06	33069.43
518.24	33357.32
518.41	33202.84
518.58	33193.48
518.75	33495.41
518.93	33610.09
519.10	33516.47
519.27	33551.58
519.45	33858.19
519.62	34071.18
519.79	34366.09
519.96	33867.55
520.14	33874.57
520.31	34277.15
520.48	34190.55
520.65	34258.42
520.83	34639.93
521.00	34698.44
521.17	34574.39
521.34	34740.57
521.52	35189.95
521.69	34494.82
521.86	34876.32
522.03	35435.71
522.20	34951.22
522.38	35318.68
522.55	35321.02
522.72	35564.44
522.89	34983.99
523.07	35768.07
523.24	35421.67
523.41	35749.34
523.58	35765.73
523.75	35871.05
523.92	35709.55
524.10	35749.34
524.27	36133.19
524.44	35878.07
524.61	36535.76
524.78	36109.78
524.96	36594.28
525.13	36201.07
525.30	36425.76
525.47	36364.90
525.64	36514.70
525.81	36629.38
525.98	36905.57
526.16	36687.90
526.33	36566.19
526.50	36804.92
526.67	36313.41
526.84	36292.35
527.01	36842.37
527.18	36734.71
527.36	37097.49
527.53	37156.00
527.70	37188.77
527.87	37275.37
528.04	37240.26
528.21	37502.40
528.38	37502.40
528.55	37546.87
528.72	37207.50
528.89	37537.51
529.07	37649.86
529.24	37612.41
529.41	38178.82
529.58	37687.31
529.75	37914.34
529.92	38024.34
530.09	37717.73
530.26	37626.45
530.43	38029.02
530.60	37773.91
530.77	38321.59
530.94	37984.55
531.11	37794.97
531.28	38714.80
531.46	38511.17
531.63	37958.81
531.80	38340.32
531.97	38742.89
532.14	38485.43
532.31	38607.14
532.48	38927.79
532.65	39115.03
532.82	38595.43
532.99	38742.89
533.16	38780.34
533.33	39065.88
533.50	39000.35
533.67	38815.44
533.84	38852.89
534.01	39180.57
534.18	39416.96
534.35	39707.19
534.52	39386.54
534.69	39746.98
534.86	39515.26
535.03	39531.65
535.20	40191.68
535.37	39828.90
535.54	39988.05
535.71	39496.54
535.88	39894.43
536.05	39871.03
536.22	39978.69
536.38	40201.04
536.55	39842.94
536.72	39828.90
536.89	40257.21
537.06	40020.82
537.23	40301.68
537.40	40390.62
537.57	39915.50
537.74	40179.98
537.91	40573.19
538.08	40016.14
538.25	40315.73
538.42	40704.26
538.59	40872.78
538.75	40847.03
538.92	40554.46
539.09	41301.09
539.26	41160.66
539.43	40739.36
539.60	40856.39
539.77	41022.57
539.94	41308.11
540.11	41242.58
540.28	41280.03
540.44	41324.50
540.61	40818.94
540.78	40938.31
540.95	40896.18
541.12	41209.81
541.29	40973.42
541.46	41406.42
541.62	41294.07
541.79	41851.12
541.96	41282.37
542.13	41029.59
542.30	41701.32
542.47	41502.38
542.63	42157.73
542.80	42197.52
542.97	42480.72
543.14	42497.11
543.31	42237.31
543.48	41914.31
543.64	42277.10
543.81	42632.86
543.98	42031.34
544.15	42059.43
544.32	42227.95
544.48	42433.91
544.65	42756.91
544.82	42714.78
544.99	42300.50
545.16	42274.76
545.32	42656.26
545.49	42909.04
545.66	43255.44
545.83	42766.27
546.00	43159.48
546.16	42848.19
546.33	42609.45
546.50	42586.05
546.67	43072.88
546.83	42492.43
547.00	42859.89
547.17	42918.40
547.34	43023.73
547.50	43290.55
547.67	43648.65
547.84	43138.41
548.00	43236.72
548.17	43583.12
548.34	43643.97
548.51	43590.14
548.67	43618.22
548.84	43622.90
549.01	43154.80
549.18	43456.73
549.34	43573.75
549.51	44142.50
549.68	43702.48
549.84	43555.03
550.01	44296.98
550.18	43601.84
550.34	43688.44
550.51	43969.30
550.68	44128.46
550.84	43922.49
551.01	44261.87
551.18	43777.38
551.34	44201.02
551.51	44191.65
551.68	44182.29
551.84	44266.55
552.01	44374.22
552.18	44105.06
552.34	44311.02
552.51	44168.25
552.68	44102.71
552.84	44067.61
553.01	44617.63
553.18	44516.99
553.34	44608.27
553.51	44299.32
553.67	44184.63
553.84	44355.49
554.01	44446.77
554.17	44793.17
554.34	44830.62
554.51	44914.88
554.67	45045.95
554.84	45141.91
555.00	44584.86
555.17	44821.26
555.33	45191.06
555.50	44966.37
555.67	44985.10
555.83	45125.53
556.00	45588.95
556.16	45708.32
556.33	45233.19
556.50	45490.65
556.66	45230.85
556.83	45223.83
556.99	45052.97
557.16	45610.02
557.32	45357.24
557.49	45563.21
557.65	45179.36
557.82	45324.47
557.98	45364.26
558.15	45457.88
558.32	45855.78
558.48	45015.52
558.65	45713.00
558.81	45366.60
558.98	45914.29
559.14	45256.60
559.31	45378.31
559.47	45567.89
559.64	45125.53
559.80	45797.26
559.97	45954.08
560.13	45373.63
560.30	45490.65
560.46	46089.83
560.63	45839.39
560.79	46059.40
560.96	46064.08
561.12	45727.05
561.29	45961.10
561.45	46241.96
561.61	45698.96
561.78	46178.77
561.94	45830.03
562.11	45848.75
562.27	45834.71
562.44	46176.43
562.60	45617.04
562.77	46541.55
562.93	46014.93
563.10	46700.71
563.26	45867.48
563.42	46621.13
563.59	45858.12
563.75	46260.69
563.92	46347.29
564.08	46138.98
564.24	46354.31
564.41	46351.97
564.57	46417.50
564.74	46129.62
564.90	46354.31
565.07	46564.96
565.23	46749.86
565.39	46253.67
565.56	46344.95
565.72	46415.16
565.88	46251.33
566.05	46232.60
566.21	46527.51
566.38	46476.02
566.54	46501.76
566.70	46728.80
566.87	46478.36
567.03	46363.67
567.19	46848.16
567.36	46630.49
567.52	46635.17
567.68	46794.33
567.85	46581.34
568.01	46951.15
568.17	46686.67
568.34	47023.70
568.50	46656.24
568.66	46417.50
568.83	46719.43
568.99	46562.62
569.15	46731.14
569.32	47065.83
569.48	46478.36
569.64	47061.15
569.81	46906.68
569.97	47030.72
570.13	46724.11
570.30	46827.10
570.46	47175.84
570.62	47147.75
570.78	47096.26
570.95	46806.03
571.11	46880.93
571.27	47065.83
571.43	46398.78
571.60	47220.31
571.76	46607.09
571.92	47124.35
572.09	47133.71
572.25	46773.27
572.41	47206.26
572.57	46948.81
572.74	47269.46
572.90	47058.81
573.06	47636.92
573.22	47023.70
573.38	47222.65
573.55	47203.92
573.71	47580.75
573.87	47323.29
574.03	47019.02
574.20	47845.23
574.36	47332.65
574.52	47267.12
574.68	47522.24
574.84	47161.79
575.01	47665.01
575.17	47583.09
575.33	47217.97
575.49	47405.21
575.65	47201.58
575.82	47653.31
575.98	47028.38
576.14	47784.38
576.30	47552.66
576.46	47576.07
576.62	47260.10
576.79	47433.30
576.95	46696.03
577.11	47182.86
577.27	47051.79
577.43	47454.36
577.59	47463.72
577.75	47171.16
577.92	46857.52
578.08	47374.78
578.24	47342.02
578.40	47629.90
578.56	47304.57
578.72	47501.17
578.88	47538.62
579.04	47402.87
579.21	47672.03
579.37	47508.19
579.53	47622.88
579.69	47365.42
579.85	47449.68
580.01	47627.56
580.17	47227.33
580.33	47494.15
580.49	47547.98
580.65	47863.96
580.82	47763.31
580.98	47241.37
581.14	47327.97
581.30	47681.39
581.46	47194.56
581.62	47484.79
581.78	47351.38
581.94	47342.02
582.10	47358.40
582.26	47831.19
582.42	47437.98
582.58	47538.62
582.74	47866.30
582.90	47643.94
583.06	47613.52
583.22	47894.38
583.38	48044.18
583.54	48009.07
583.70	47440.32
583.86	47959.92
584.02	48093.33
584.18	47896.72
584.34	47601.82
584.50	47711.82
584.66	47737.57
584.82	48030.13
584.98	47845.23
585.14	48112.05
585.30	47702.46
585.46	47735.23
585.62	47564.37
585.78	47676.71
585.94	47124.35
586.10	47693.10
586.26	47290.52
586.42	47517.56
586.58	47892.04
586.74	47447.34
586.90	47239.03
587.06	47709.48
587.22	47639.26
587.38	47292.86
587.54	48065.24
587.70	48046.52
587.86	47791.40
588.02	47744.59
588.18	47739.91
588.34	47697.78
588.49	47629.90
588.65	47765.65
588.81	47821.83
588.97	47611.18
589.13	47592.45
589.29	47892.04
589.45	48149.50
589.61	47665.01
589.77	48074.60
589.93	48044.18
590.08	47938.85
