SpectraSuite Data File
++++++++++++++++++++++++++++++++++++
Date: Fri Oct 25 11:23:33 EDT 2013
User: price-jones
Dark Spectrum Present: No
Reference Spectrum Present: No
Number of Sampled Component Spectra: 1
Spectrometers: USB2+H05261
Integration Time (usec): 100000 (USB2+H05261)
Spectra Averaged: 1 (USB2+H05261)
Boxcar Smoothing: 0 (USB2+H05261)
Correct for Electrical Dark: No (USB2+H05261)
Strobe/Lamp Enabled: No (USB2+H05261)
Correct for Detector Non-linearity: No (USB2+H05261)
Correct for Stray Light: No (USB2+H05261)
Number of Pixels in Processed Spectrum: 2048
>>>>>Begin Processed Spectral Data<<<<<
365.73	191.92
365.92	191.92
366.12	191.92
366.32	180.22
366.52	161.50
366.72	205.97
366.91	142.77
367.11	163.84
367.31	74.90
367.51	86.60
367.70	124.05
367.90	51.49
368.10	175.54
368.30	117.03
368.49	114.69
368.69	142.77
368.89	147.45
369.09	114.69
369.28	128.73
369.48	98.30
369.68	119.37
369.87	173.20
370.07	182.56
370.27	187.24
370.47	358.10
370.66	533.64
370.86	592.16
371.06	634.29
371.25	699.82
371.45	645.99
371.65	737.27
371.84	650.67
372.04	650.67
372.24	702.16
372.44	674.07
372.63	777.06
372.83	737.27
373.03	730.25
373.22	770.04
373.42	833.23
373.62	758.33
373.81	847.27
374.01	767.70
374.21	765.36
374.40	800.46
374.60	847.27
374.79	940.90
374.99	894.08
375.19	863.66
375.38	873.02
375.58	828.55
375.78	931.53
375.97	842.59
376.17	823.87
376.37	894.08
376.56	926.85
376.76	875.36
376.95	849.61
377.15	840.25
377.35	875.36
377.54	940.90
377.74	919.83
377.93	950.26
378.13	945.58
378.33	966.64
378.52	873.02
378.72	987.71
378.91	959.62
379.11	1006.43
379.31	901.11
379.50	922.17
379.70	957.28
379.89	961.96
380.09	957.28
380.28	924.51
380.48	999.41
380.68	1011.11
380.87	957.28
381.07	945.58
381.26	1060.26
381.46	1039.20
381.65	1015.79
381.85	1029.84
382.04	994.73
382.24	1048.56
382.43	1090.69
382.63	964.30
382.83	1062.60
383.02	1121.12
383.22	1109.41
383.41	1088.35
383.61	1116.44
383.80	1151.54
384.00	1163.25
384.19	1102.39
384.39	1114.10
384.58	1179.63
384.78	1118.78
384.97	1167.93
385.17	1153.88
385.36	1132.82
385.56	1153.88
385.75	1203.04
385.95	1184.31
386.14	1235.80
386.34	1036.86
386.53	1233.46
386.72	1306.02
386.92	1268.57
387.11	1261.55
387.31	1280.27
387.50	1219.42
387.70	1181.97
387.89	1254.53
388.09	1210.06
388.28	1366.87
388.48	1221.76
388.67	1235.80
388.86	1287.29
389.06	1306.02
389.25	1338.79
389.45	1320.06
389.64	1263.89
389.84	1352.83
390.03	1474.54
390.22	1362.19
390.42	1331.76
390.61	1409.00
390.81	1392.62
391.00	1423.05
391.19	1411.34
391.39	1483.90
391.58	1502.62
391.78	1533.05
391.97	1486.24
392.16	1460.49
392.36	1500.28
392.55	1432.41
392.75	1488.58
392.94	1504.96
393.13	1460.49
393.33	1481.56
393.52	1619.65
393.71	1535.39
393.91	1584.54
394.10	1511.99
394.29	1619.65
394.49	1603.27
394.68	1577.52
394.88	1556.46
395.07	1710.93
395.26	1605.61
395.46	1661.78
395.65	1729.66
395.84	1764.76
396.04	1720.29
396.23	1799.87
396.42	1736.68
396.62	1870.09
396.81	1778.81
397.00	1774.13
397.19	1748.38
397.39	1921.58
397.58	1823.28
397.77	1863.07
397.97	1858.39
398.16	1769.44
398.35	1802.21
398.55	1879.45
398.74	1944.99
398.93	2038.61
399.12	1923.92
399.32	1905.20
399.51	1881.79
399.70	2001.16
399.90	1940.30
400.09	1961.37
400.28	2047.97
400.47	1996.48
400.67	2057.33
400.86	2040.95
401.05	2209.47
401.24	2080.74
401.44	2148.61
401.63	2200.10
401.82	2174.36
402.01	2064.35
402.21	2169.68
402.40	2200.10
402.59	2242.23
402.78	2132.23
402.97	2242.23
403.17	2235.21
403.36	2286.70
403.55	2359.26
403.74	2319.47
403.93	2312.45
404.13	2347.56
404.32	2312.45
404.51	2310.11
404.70	2324.15
404.89	2249.25
405.09	2431.82
405.28	2548.84
405.47	2469.27
405.66	2469.27
405.85	2583.95
406.05	2483.31
406.24	2539.48
406.43	2569.91
406.62	2700.98
406.81	2729.06
407.00	2665.87
407.20	2642.46
407.39	2752.47
407.58	2633.10
407.77	2682.25
407.96	2654.17
408.15	2705.66
408.34	2780.56
408.54	2642.46
408.73	2771.19
408.92	2860.13
409.11	2916.31
409.30	2871.84
409.49	2843.75
409.68	2944.39
409.87	2897.58
410.07	3141.00
410.26	2942.05
410.45	3075.46
410.64	3033.33
410.83	3166.74
411.02	3052.06
411.21	3122.27
411.40	3119.93
411.59	3159.72
411.78	3211.22
411.98	3365.69
412.17	3276.75
412.36	3309.52
412.55	3260.37
412.74	3372.71
412.93	3351.65
413.12	3485.06
413.31	3555.27
413.50	3487.40
413.69	3510.80
413.88	3765.92
414.07	3506.12
414.26	3538.89
414.45	3674.64
414.64	3742.52
414.83	3733.15
415.02	3747.20
415.22	3737.84
415.41	3873.59
415.60	3824.44
415.79	3861.88
415.98	4060.83
416.17	3957.85
416.36	4044.45
416.55	3960.19
416.74	3992.95
416.93	4072.53
417.12	4114.66
417.31	4166.15
417.50	4297.22
417.69	4201.26
417.88	4374.46
418.07	4301.90
418.26	4341.69
418.45	4346.37
418.64	4601.49
418.83	4489.15
419.02	4454.04
419.21	4428.29
419.39	4465.74
419.58	4510.21
419.77	4437.66
419.96	4547.66
420.15	4592.13
420.34	4641.28
420.53	4601.49
420.72	4723.20
420.91	4594.47
421.10	4699.80
421.29	4709.16
421.48	4685.75
421.67	4901.08
421.86	4730.22
422.05	4727.88
422.24	4802.78
422.43	4851.93
422.61	4908.10
422.80	5015.77
422.99	4873.00
423.18	4868.31
423.37	5071.94
423.56	4919.81
423.75	4926.83
423.94	4847.25
424.13	4608.51
424.32	4840.23
424.50	4975.98
424.69	5097.69
424.88	5062.58
425.07	4943.21
425.26	4800.44
425.45	5097.69
425.64	4983.00
425.83	5022.79
426.01	5095.35
426.20	4943.21
426.39	4919.81
426.58	5076.62
426.77	5165.56
426.96	5231.10
427.15	5165.56
427.33	5088.32
427.52	5027.47
427.71	5198.33
427.90	5240.46
428.09	5399.62
428.28	5317.70
428.46	5198.33
428.65	5266.21
428.84	5427.70
429.03	5476.85
429.22	5245.14
429.40	5518.98
429.59	5511.96
429.78	5469.83
429.97	5256.84
430.16	5486.22
430.34	5699.20
430.53	5589.20
430.72	5523.66
430.91	5614.95
431.10	5490.90
431.28	5731.97
431.47	5959.00
431.66	5884.11
431.85	5710.91
432.03	5921.56
432.22	6022.20
432.41	5987.09
432.60	6069.01
432.79	6015.18
432.97	6066.67
433.16	6017.52
433.35	6083.05
433.54	6167.31
433.72	6118.16
433.91	6157.95
434.10	6080.71
434.28	6167.31
434.47	6326.47
434.66	6181.35
434.85	6272.64
435.03	6279.66
435.22	6228.17
435.41	6506.69
435.59	6370.94
435.78	6546.48
435.97	6366.26
436.16	6534.78
436.34	6399.02
436.53	6485.62
436.72	6593.29
436.90	6373.28
437.09	6747.76
437.28	6462.22
437.46	6796.92
437.65	6679.89
437.84	6890.54
438.02	6895.22
438.21	6761.81
438.40	6635.42
438.58	7037.99
438.77	7136.29
438.96	6995.86
439.14	7178.42
439.33	7063.74
439.52	7096.50
439.70	7255.66
439.89	7398.43
440.08	7288.43
440.26	7199.49
440.45	7276.73
440.63	7372.69
440.82	7524.82
441.01	7506.10
441.19	7531.84
441.38	7501.42
441.57	7810.37
441.75	7733.13
441.94	7915.69
442.12	8091.23
442.31	8035.06
442.50	7927.39
442.68	8147.40
442.87	7936.76
443.05	8226.98
443.24	8170.81
443.43	7960.16
443.61	8210.60
443.80	8386.14
443.98	7873.56
444.17	7906.33
444.35	8126.34
444.54	8241.03
444.73	8175.49
444.91	7995.27
445.10	8425.93
445.28	8311.24
445.47	8093.57
445.65	8252.73
445.84	8383.80
446.02	8571.04
446.21	8500.83
446.39	8348.69
446.58	8402.52
446.77	8411.89
446.95	8226.98
447.14	8292.52
447.32	8393.16
447.51	8514.87
447.69	8472.74
447.88	8390.82
448.06	8568.70
448.25	8592.11
448.43	8521.89
448.62	8599.13
448.80	8486.78
448.99	8664.66
449.17	8964.25
449.36	8542.96
449.54	8725.52
449.73	9083.62
449.91	8931.48
450.10	8910.42
450.28	9018.08
450.46	9121.07
450.65	9060.21
450.83	9057.87
451.02	9034.47
451.20	9163.20
451.39	9275.54
451.57	9036.81
451.76	9151.49
451.94	9130.43
452.13	9364.48
452.31	9296.61
452.49	9322.35
452.68	9383.21
452.86	9467.47
453.05	9263.84
453.23	9500.23
453.42	9497.89
453.60	9378.53
453.78	9479.17
453.97	9479.17
454.15	9621.94
454.34	9380.87
454.52	9755.35
454.70	9846.63
454.89	9577.47
455.07	9767.06
455.26	9966.00
455.44	9968.34
455.62	9860.68
455.81	9919.19
455.99	10008.13
456.17	10057.28
456.36	10099.41
456.54	10167.29
456.73	10310.06
456.91	10703.27
457.09	10546.45
457.28	10431.77
457.46	10413.04
457.64	10637.73
457.83	10623.69
458.01	10335.81
458.19	10700.93
458.38	10396.66
458.56	10595.61
458.74	10422.41
458.93	10691.57
459.11	10693.91
459.29	10829.66
459.48	10998.18
459.66	10747.74
459.84	10953.71
460.03	11026.26
460.21	10953.71
460.39	11152.65
460.57	11037.97
460.76	11131.59
460.94	11274.36
461.12	11253.30
461.31	11372.66
461.49	11159.67
461.67	11063.71
461.85	11468.62
462.04	11119.89
462.22	11922.69
462.40	11714.38
462.59	11323.51
462.77	11527.14
462.95	11754.17
463.13	11592.67
463.32	11580.97
463.50	11550.54
463.68	11688.64
463.86	11634.80
464.05	11672.25
464.23	11803.32
464.41	12030.35
464.59	11698.00
464.78	11817.36
464.96	12028.01
465.14	11950.78
465.32	11997.59
465.50	12086.53
465.69	12287.81
465.87	12367.39
466.05	12070.14
466.23	12241.00
466.41	12182.49
466.60	12655.28
466.78	12002.27
466.96	12105.25
467.14	12341.64
467.32	12336.96
467.51	12498.46
467.69	12395.48
467.87	12486.76
468.05	12531.23
468.23	12519.53
468.41	12472.71
468.60	12802.73
468.78	12945.50
468.96	12809.75
469.14	12772.30
469.32	13041.46
469.50	12538.25
469.69	13142.11
469.87	12980.61
470.05	12999.34
470.23	13004.02
470.41	13046.15
470.59	13355.10
470.77	13256.79
470.95	13425.31
471.14	13455.74
471.32	13371.48
471.50	13687.45
471.68	13582.13
471.86	13650.00
472.04	13748.31
472.22	14054.92
472.40	13731.92
472.58	13724.90
472.77	14036.19
472.95	14150.88
473.13	14607.28
473.31	14125.13
473.49	14108.75
473.67	14293.65
473.85	14148.54
474.03	14651.75
474.21	14675.16
474.39	14523.02
474.57	14981.77
474.75	14668.14
474.93	14902.19
475.12	14857.72
475.30	15255.61
475.48	14974.75
475.66	15073.05
475.84	15288.38
476.02	15552.86
476.20	15508.39
476.38	15723.72
476.56	16072.46
476.74	15789.25
476.92	15894.58
477.10	15871.17
477.28	16404.81
477.46	16290.13
477.64	16390.77
477.82	16638.87
478.00	17142.08
478.18	16931.44
478.36	17097.61
478.54	16982.93
478.72	17242.73
478.90	17380.82
479.08	17455.72
479.26	17493.16
479.44	17713.17
479.62	17757.64
479.80	18059.57
479.98	18345.12
480.16	18703.22
480.34	18380.23
480.52	18728.97
480.70	18576.83
480.88	18525.34
481.06	18831.95
481.24	18988.77
481.41	19199.41
481.59	19255.59
481.77	19365.59
481.95	19527.09
482.13	19866.47
482.31	19466.24
482.49	20383.73
482.67	20325.21
482.85	20451.60
483.03	20547.56
483.21	20973.54
483.39	21118.65
483.57	21053.12
483.74	21177.17
483.92	21336.32
484.10	21261.43
484.28	21858.26
484.46	21956.57
484.64	22111.04
484.82	21738.90
485.00	22506.59
485.18	22927.89
485.35	23000.44
485.53	22867.03
485.71	23140.88
485.89	23639.41
486.07	23168.96
486.25	23243.86
486.43	23695.58
486.61	23620.69
486.78	24011.56
486.96	24332.21
487.14	24692.65
487.32	24489.03
487.50	24774.57
487.68	25062.46
487.85	25266.08
488.03	25568.01
488.21	25998.67
488.39	25986.97
488.57	25776.32
488.75	26309.96
488.92	26202.30
489.10	26843.60
489.28	26733.60
489.46	27417.04
489.64	26904.46
489.81	27604.28
489.99	27681.52
490.17	27445.12
490.35	27840.67
490.53	28268.99
490.70	28493.68
490.88	28102.81
491.06	28718.37
491.24	28704.33
491.41	29090.52
491.59	29071.79
491.77	29443.94
491.95	29659.27
492.13	29673.31
492.30	30078.22
492.48	29762.25
492.66	30221.00
492.84	30190.57
493.01	30445.69
493.19	30511.22
493.37	31079.97
493.54	31220.41
493.72	31384.24
493.90	31269.56
494.08	31756.39
494.25	32130.87
494.43	32364.93
494.61	32163.64
494.79	32552.17
494.96	32776.86
495.14	32503.02
495.32	33315.19
495.49	33422.85
495.67	33549.24
495.85	33425.19
496.02	34092.24
496.20	33991.60
496.38	34146.08
496.55	34167.14
496.73	34710.14
496.91	34469.07
497.09	34998.03
497.26	34911.43
497.44	35068.25
497.62	35491.88
497.79	35908.50
497.97	35449.75
498.14	36313.41
498.32	36367.24
498.50	36311.07
498.67	36390.65
498.85	36191.70
499.03	36783.86
499.20	37076.43
499.38	37038.98
499.56	36847.05
499.73	37359.63
499.91	37727.10
500.08	37340.91
500.26	37247.29
500.44	37617.09
500.61	37886.25
500.79	38045.41
500.97	38433.94
501.14	38405.85
501.32	38284.14
501.49	38337.98
501.67	38911.41
501.84	38763.95
502.02	39023.75
502.20	39253.12
502.37	39023.75
502.55	38995.67
502.72	39140.78
502.90	39536.33
503.07	39306.96
503.25	39936.56
503.43	39725.91
503.60	39901.45
503.78	40009.12
503.95	40376.58
504.13	40549.78
504.30	40521.69
504.48	40289.98
504.65	40912.56
504.83	40992.14
505.01	41287.05
505.18	41081.08
505.36	41542.17
505.53	41708.35
505.71	41420.46
505.88	42080.49
506.06	41296.41
506.23	42073.47
506.41	41940.06
506.58	42178.79
506.76	42356.67
506.93	42417.53
507.11	42670.31
507.28	42967.55
507.46	42567.32
507.63	42768.61
507.81	43445.02
507.98	42660.94
508.16	43042.45
508.33	43552.69
508.50	43353.74
508.68	43784.40
508.85	44076.97
509.03	44065.27
509.20	44086.33
509.38	43999.73
509.55	44463.16
509.73	44811.90
509.90	44411.67
510.08	44308.68
510.25	44734.66
510.42	44926.58
510.60	45118.51
510.77	45654.49
510.95	45556.19
511.12	44975.73
511.30	45289.37
511.47	45434.48
511.64	45883.86
511.82	45675.55
511.99	45677.90
512.17	46057.06
512.34	46033.66
512.51	46499.42
512.69	46309.84
512.86	46185.79
513.04	46780.29
513.21	46653.90
513.38	46714.75
513.56	46838.80
513.73	46909.02
513.90	47196.90
514.08	46988.60
514.25	47302.23
514.43	47295.21
514.60	47377.12
514.77	47697.78
514.95	47950.56
515.12	47454.36
515.29	47569.05
515.47	47962.26
515.64	48374.19
515.81	47634.58
515.99	48633.99
516.16	48193.97
516.33	48519.31
516.51	48533.35
516.68	48685.48
516.85	48631.65
517.03	48570.80
517.20	49146.57
517.37	48729.95
517.54	48680.80
517.72	49069.33
517.89	49062.31
518.06	49481.27
518.24	49397.01
518.41	49345.51
518.58	49057.63
518.75	49336.15
518.93	49528.08
519.10	49382.96
519.27	49610.00
519.45	49851.07
519.62	50232.58
519.79	49984.48
519.96	49928.31
520.14	50300.45
520.31	50440.89
520.48	50586.00
520.65	50347.26
520.83	50672.60
521.00	50815.37
521.17	50583.66
521.34	50953.46
521.52	50717.07
521.69	50801.33
521.86	50754.52
522.03	50993.25
522.20	51571.36
522.38	51264.75
522.55	51365.40
522.72	51576.04
522.89	51334.97
523.07	51526.89
523.24	51419.23
523.41	51669.67
523.58	51430.93
523.75	51803.08
523.92	52182.24
524.10	52102.67
524.27	52151.82
524.44	52095.64
524.61	52264.16
524.78	52030.11
524.96	52505.24
525.13	52329.70
525.30	52467.79
525.47	52451.41
525.64	52612.90
525.81	52765.04
525.98	52942.92
526.16	52872.70
526.33	52655.03
526.50	52786.10
526.67	52910.15
526.84	53109.10
527.01	52844.62
527.18	52992.07
527.36	52868.02
527.53	53092.71
527.70	53481.24
527.87	53399.32
528.04	53191.01
528.21	53364.21
528.38	53366.55
528.55	53762.11
528.72	53179.31
528.89	53586.57
529.07	53315.06
529.24	53357.19
529.41	53748.06
529.58	53497.62
529.75	53450.81
529.92	53715.29
530.09	53771.47
530.26	53689.55
530.43	54038.29
530.60	53717.64
530.77	54026.59
530.94	54092.12
531.11	54164.68
531.28	54155.32
531.46	54298.09
531.63	54211.49
531.80	54438.52
531.97	54555.55
532.14	54742.79
532.31	54293.41
532.48	54588.31
532.65	54773.22
532.82	54576.61
532.99	54707.68
533.16	54534.48
533.33	54918.33
533.50	55072.81
533.67	54593.00
533.84	54850.45
534.01	55107.91
534.18	54822.37
534.35	55360.69
534.52	54967.48
534.69	55248.35
534.86	55187.49
535.03	55037.70
535.20	55363.03
535.37	55348.99
535.54	55398.14
535.71	55079.83
535.88	55480.06
536.05	55686.03
536.22	55510.49
536.38	55578.36
536.55	55615.81
536.72	55498.78
536.89	55594.74
537.06	55868.59
537.23	55875.61
537.40	55526.87
537.57	55941.14
537.74	55777.31
537.91	55917.74
538.08	55810.07
538.25	55868.59
538.42	55774.97
538.59	56268.82
538.75	55870.93
538.92	55978.59
539.09	56381.16
539.26	56264.14
539.43	56392.87
539.60	56552.02
539.77	55903.70
539.94	56339.04
540.11	56629.26
540.28	56500.53
540.44	56425.64
540.61	56435.00
540.78	56238.39
540.95	56516.92
541.12	56561.39
541.29	56329.67
541.46	56568.41
541.62	56650.33
541.79	56914.81
541.96	56537.98
542.13	56870.34
542.30	56736.93
542.47	56783.74
542.63	56823.53
542.80	56858.63
542.97	57190.99
543.14	57326.74
543.31	57228.44
543.48	57305.68
543.64	57509.30
543.81	57731.65
543.98	57275.25
544.15	57272.91
544.32	57439.09
544.48	57492.92
544.65	57205.03
544.82	57485.90
544.99	57261.21
545.16	57389.94
545.32	57525.69
545.49	57661.44
545.66	57696.55
545.83	57729.31
546.00	57888.47
546.16	57492.92
546.33	57511.64
546.50	57645.05
546.67	57609.95
546.83	57572.50
547.00	57677.82
547.17	57886.13
547.34	57935.28
547.50	57867.40
547.67	58059.33
547.84	57975.07
548.00	58188.06
548.17	58298.06
548.34	57939.96
548.51	58344.87
548.67	58185.72
548.84	58012.52
549.01	58038.26
549.18	58080.39
549.34	58316.79
549.51	58305.09
549.68	58417.43
549.84	58192.74
550.01	58354.24
550.18	58239.55
550.34	58670.21
550.51	58642.12
550.68	58333.17
550.84	58155.29
551.01	58454.88
551.18	58567.23
551.34	58382.32
551.51	58450.20
551.68	58487.65
551.84	58569.57
552.01	58527.44
552.18	58623.40
552.34	58351.90
552.51	58880.86
552.68	58473.60
552.84	58759.15
553.01	58990.86
553.18	58546.16
553.34	58892.56
553.51	58880.86
553.67	58688.93
553.84	59054.06
554.01	59119.59
554.17	59098.53
554.34	58976.82
554.51	59208.53
554.67	58885.54
554.84	59171.08
555.00	59009.59
555.17	58941.71
555.33	59135.98
555.50	59138.32
555.67	59061.08
555.83	59014.27
556.00	59304.49
556.16	59592.38
556.33	59201.51
556.50	59248.32
556.66	59435.56
556.83	59311.52
556.99	59470.67
557.16	59440.24
557.32	59215.55
557.49	59597.06
557.65	59611.10
557.82	59538.55
557.98	59311.52
558.15	59456.63
558.32	59636.85
558.48	59597.06
558.65	59697.70
558.81	59590.04
558.98	59543.23
559.14	59573.66
559.31	59838.14
559.47	59580.68
559.64	59702.38
559.80	59639.19
559.97	59826.43
560.13	59566.63
560.30	59751.54
560.46	59777.28
560.63	59636.85
560.79	59840.48
560.96	59929.42
561.12	59990.27
561.29	59936.44
561.45	59969.21
561.61	59625.15
561.78	59824.09
561.94	59697.70
562.11	59931.76
562.27	60039.42
562.44	60168.15
562.60	59959.84
562.77	60128.36
562.93	59945.80
563.10	60079.21
563.26	59805.37
563.42	60357.74
563.59	59868.56
563.75	60072.19
563.92	60168.15
564.08	60020.70
564.24	60374.12
564.41	60161.13
564.57	60133.04
564.74	60177.51
564.90	60037.08
565.07	60250.07
565.23	60189.22
565.39	60219.64
565.56	60266.45
565.72	60310.92
565.88	60296.88
566.05	60097.94
566.21	60144.75
566.38	60158.79
566.54	60280.50
566.70	60432.63
566.87	60598.81
567.03	60301.56
567.19	60484.12
567.36	60360.08
567.52	60355.39
567.68	60561.36
567.85	60397.52
568.01	60381.14
568.17	60498.17
568.34	60425.61
568.50	60364.76
568.66	60151.77
568.83	60383.48
568.99	60360.08
569.15	60521.57
569.32	60402.21
569.48	60346.03
569.64	60568.38
569.81	60577.75
569.97	60336.67
570.13	60498.17
570.30	60324.97
570.46	60622.22
570.62	60329.65
570.78	60575.40
570.95	60577.75
571.11	60626.90
571.27	60488.80
571.43	60652.64
571.60	60685.41
571.76	60523.91
571.92	60624.56
572.09	60650.30
572.25	60760.31
572.41	60500.51
572.57	60505.19
572.74	60821.16
572.90	60617.53
573.06	60788.39
573.22	60645.62
573.38	60645.62
573.55	60573.06
573.71	60650.30
573.87	60715.84
574.03	60477.10
574.20	60687.75
574.36	60793.07
574.52	60797.76
574.68	60711.16
574.84	60912.44
575.01	60793.07
575.17	60491.15
575.33	60706.47
575.49	60846.91
575.65	60755.63
575.82	60704.13
575.98	60954.57
576.14	60811.80
576.30	60912.44
576.46	60891.38
576.62	60807.12
576.79	60790.73
576.95	60725.20
577.11	60886.70
577.27	60896.06
577.43	60879.67
577.59	60865.63
577.75	60699.45
577.92	60687.75
578.08	60685.41
578.24	60877.33
578.40	60781.37
578.56	60987.34
578.72	60800.10
578.88	60933.51
579.04	61158.20
579.21	60982.66
579.37	60980.32
579.53	61048.19
579.69	60818.82
579.85	60874.99
580.01	60844.57
580.17	60788.39
580.33	60977.98
580.49	60844.57
580.65	61102.03
580.82	61010.74
580.98	60800.10
581.14	60821.16
581.30	61153.52
581.46	60790.73
581.62	61034.15
581.78	60837.54
581.94	60931.17
582.10	60900.74
582.26	61048.19
582.42	60903.08
582.58	60800.10
582.74	60987.34
582.90	61001.38
583.06	60963.93
583.22	60713.50
583.38	61064.58
583.54	60912.44
583.70	61043.51
583.86	61146.50
584.02	60926.49
584.18	61205.01
584.34	60935.85
584.50	60949.89
584.66	61041.17
584.82	60860.95
584.98	61240.12
585.14	61036.49
585.30	60938.19
585.46	61172.24
585.62	61008.40
585.78	61080.96
585.94	60973.30
586.10	61080.96
586.26	60994.36
586.42	61015.43
586.58	61141.81
586.74	61181.60
586.90	60860.95
587.06	61087.98
587.22	61038.83
587.38	61024.79
587.54	61263.52
587.70	61265.86
587.86	61207.35
588.02	60886.70
588.18	61022.45
588.34	61118.41
588.49	61064.58
