SpectraSuite Data File
++++++++++++++++++++++++++++++++++++
Date: Fri Oct 25 10:43:32 EDT 2013
User: price-jones
Dark Spectrum Present: No
Reference Spectrum Present: No
Number of Sampled Component Spectra: 1
Spectrometers: USB2+H05261
Integration Time (usec): 100000 (USB2+H05261)
Spectra Averaged: 1 (USB2+H05261)
Boxcar Smoothing: 0 (USB2+H05261)
Correct for Electrical Dark: No (USB2+H05261)
Strobe/Lamp Enabled: No (USB2+H05261)
Correct for Detector Non-linearity: No (USB2+H05261)
Correct for Stray Light: No (USB2+H05261)
Number of Pixels in Processed Spectrum: 2048
>>>>>Begin Processed Spectral Data<<<<<
365.73	79.58
365.92	79.58
366.12	79.58
366.32	95.96
366.52	37.45
366.72	7.02
366.91	67.88
367.11	23.41
367.31	25.75
367.51	4.68
367.70	0.00
367.90	32.77
368.10	51.49
368.30	44.47
368.49	0.00
368.69	53.83
368.89	65.54
369.09	0.00
369.28	23.41
369.48	102.98
369.68	100.64
369.87	51.49
370.07	107.66
370.27	98.30
370.47	156.82
370.66	360.44
370.86	390.87
371.06	437.68
371.25	510.24
371.45	435.34
371.65	510.24
371.84	465.77
372.04	461.09
372.24	468.11
372.44	451.72
372.63	491.51
372.83	496.19
373.03	491.51
373.22	498.53
373.42	512.58
373.62	601.52
373.81	503.22
374.01	575.77
374.21	517.26
374.40	585.13
374.60	578.11
374.79	507.90
374.99	573.43
375.19	538.32
375.38	561.73
375.58	596.84
375.78	596.84
375.97	568.75
376.17	648.33
376.37	660.03
376.56	669.39
376.76	592.16
376.95	601.52
377.15	606.20
377.35	636.63
377.54	592.16
377.74	624.92
377.93	627.26
378.13	671.73
378.33	718.54
378.52	657.69
378.72	709.18
378.91	667.05
379.11	587.47
379.31	603.86
379.50	704.50
379.70	704.50
379.89	608.54
380.09	636.63
380.28	645.99
380.48	706.84
380.68	678.76
380.87	706.84
381.07	662.37
381.26	732.59
381.46	690.46
381.65	723.23
381.85	744.29
382.04	744.29
382.24	713.86
382.43	683.44
382.63	643.65
382.83	638.97
383.02	681.10
383.22	748.97
383.41	793.44
383.61	753.65
383.80	734.93
384.00	809.83
384.19	809.83
384.39	814.51
384.58	777.06
384.78	821.53
384.97	795.78
385.17	863.66
385.36	784.08
385.56	812.17
385.75	812.17
385.95	870.68
386.14	854.30
386.34	779.40
386.53	830.89
386.72	823.87
386.92	926.85
387.11	877.70
387.31	828.55
387.50	891.74
387.70	919.83
387.89	880.04
388.09	791.10
388.28	805.14
388.48	861.32
388.67	896.43
388.86	905.79
389.06	924.51
389.25	887.06
389.45	945.58
389.64	957.28
389.84	959.62
390.03	1034.52
390.22	1025.15
390.42	1036.86
390.61	945.58
390.81	1041.54
391.00	997.07
391.19	1160.91
391.39	1078.99
391.58	1050.90
391.78	992.39
391.97	1111.75
392.16	1053.24
392.36	1078.99
392.55	985.37
392.75	957.28
392.94	1036.86
393.13	978.34
393.33	1097.71
393.52	1102.39
393.71	1146.86
393.91	1057.92
394.10	1083.67
394.29	1205.38
394.49	1135.16
394.68	1181.97
394.88	1205.38
395.07	1261.55
395.26	1352.83
395.46	1256.87
395.65	1327.08
395.84	1158.57
396.04	1179.63
396.23	1193.67
396.42	1200.69
396.62	1163.25
396.81	1233.46
397.00	1165.59
397.19	1256.87
397.39	1289.64
397.58	1430.07
397.77	1401.98
397.97	1296.66
398.16	1371.55
398.35	1369.21
398.55	1401.98
398.74	1530.71
398.93	1483.90
399.12	1511.99
399.32	1507.30
399.51	1509.65
399.70	1528.37
399.90	1523.69
400.09	1558.80
400.28	1657.10
400.47	1596.25
400.67	1621.99
400.86	1668.80
401.05	1652.42
401.24	1659.44
401.44	1659.44
401.63	1621.99
401.82	1652.42
402.01	1624.33
402.21	1746.04
402.40	1717.95
402.59	1788.17
402.78	1713.27
402.97	1710.93
403.17	1743.70
403.36	1776.47
403.55	1944.99
403.74	1851.36
403.93	1785.83
404.13	1907.54
404.32	1891.15
404.51	1881.79
404.70	1984.77
404.89	1842.00
405.09	1947.33
405.28	1980.09
405.47	1881.79
405.66	1914.56
405.85	2036.27
406.05	1944.99
406.24	1987.11
406.43	2069.03
406.62	2101.80
406.81	2216.49
407.00	2080.74
407.20	2029.24
407.39	2155.63
407.58	2204.78
407.77	2230.53
407.96	2307.77
408.15	2293.72
408.34	2267.98
408.54	2228.19
408.73	2300.75
408.92	2387.35
409.11	2359.26
409.30	2399.05
409.49	2305.43
409.68	2174.36
409.87	2221.17
410.07	2223.51
410.26	2415.43
410.45	2342.88
410.64	2476.29
410.83	2574.59
411.02	2490.33
411.21	2569.91
411.40	2614.38
411.59	2572.25
411.78	2607.36
411.98	2567.57
412.17	2619.06
412.36	2647.15
412.55	2787.58
412.74	2747.79
412.93	2724.38
413.12	2679.91
413.31	2813.32
413.50	2799.28
413.69	2949.08
413.88	2897.58
414.07	2883.54
414.26	3014.61
414.45	2963.12
414.64	3005.25
414.83	3000.57
415.02	3016.95
415.22	3052.06
415.41	3084.83
415.60	3164.40
415.79	3220.58
415.98	3227.60
416.17	3211.22
416.36	3213.56
416.55	3262.71
416.74	3281.43
416.93	3290.79
417.12	3258.03
417.31	3262.71
417.50	3412.50
417.69	3417.18
417.88	3545.91
418.07	3384.41
418.26	3468.67
418.45	3382.07
418.64	3531.87
418.83	3473.36
419.02	3585.70
419.21	3538.89
419.39	3440.59
419.58	3639.53
419.77	3620.81
419.96	3653.58
420.15	3742.52
420.34	3688.68
420.53	3861.88
420.72	3847.84
420.91	3815.07
421.10	3857.20
421.29	3878.27
421.48	3896.99
421.67	3772.94
421.86	3864.22
422.05	3709.75
422.24	3702.73
422.43	3873.59
422.61	3892.31
422.80	3796.35
422.99	3953.16
423.18	3950.82
423.37	3976.57
423.56	3861.88
423.75	4007.00
423.94	3791.67
424.13	3585.70
424.32	3744.86
424.50	3934.44
424.69	3999.98
424.88	4109.98
425.07	3953.16
425.26	3887.63
425.45	3974.23
425.64	3929.76
425.83	3826.78
426.01	3941.46
426.20	4072.53
426.39	3981.25
426.58	4009.34
426.77	4007.00
426.96	3974.23
427.15	3957.85
427.33	4131.05
427.52	4002.32
427.71	4081.89
427.90	4117.00
428.09	4140.41
428.28	4074.87
428.46	4030.40
428.65	4170.83
428.84	4231.69
429.03	4297.22
429.22	4117.00
429.40	4177.86
429.59	4138.07
429.78	4091.26
429.97	3946.14
430.16	3983.59
430.34	4170.83
430.53	4046.79
430.72	4161.47
430.91	4166.15
431.10	4198.92
431.28	4414.25
431.47	4561.70
431.66	4627.24
431.85	4575.75
432.03	4603.83
432.22	4737.24
432.41	4613.20
432.60	4629.58
432.79	4678.73
432.97	4737.24
433.16	4542.98
433.35	4557.02
433.54	4587.45
433.72	4744.27
433.91	4690.43
434.10	4748.95
434.28	4940.87
434.47	4875.34
434.66	4760.65
434.85	4964.28
435.03	4880.02
435.22	4926.83
435.41	5015.77
435.59	5078.96
435.78	5064.92
435.97	5135.14
436.16	5109.39
436.34	5111.73
436.53	5263.86
436.72	5252.16
436.90	5100.03
437.09	5048.54
437.28	5046.20
437.46	5149.18
437.65	5289.61
437.84	5247.48
438.02	5097.69
438.21	5041.51
438.40	5144.50
438.58	5439.40
438.77	5315.36
438.96	5530.69
439.14	5572.82
439.33	5680.48
439.52	5565.79
439.70	5647.71
439.89	5689.84
440.08	5659.42
440.26	5863.04
440.45	5809.21
440.63	5846.66
440.82	5937.94
441.01	5956.66
441.19	6052.63
441.38	6251.57
441.57	6078.37
441.75	5937.94
441.94	6420.09
442.12	6207.10
442.31	6310.08
442.50	6340.51
442.68	6408.39
442.87	6356.90
443.05	6305.40
443.24	6448.18
443.43	6324.13
443.61	6562.86
443.80	6576.91
443.98	6289.02
444.17	6153.27
444.35	6485.62
444.54	6806.28
444.73	6633.08
444.91	6415.41
445.10	6443.49
445.28	6504.35
445.47	6415.41
445.65	6415.41
445.84	6553.50
446.02	6541.80
446.21	6623.72
446.39	6469.24
446.58	6642.44
446.77	6705.63
446.95	6682.23
447.14	6602.65
447.32	6827.34
447.51	6595.63
447.69	6504.35
447.88	6583.93
448.06	6595.63
448.25	6633.08
448.43	6766.49
448.62	6462.22
448.80	6764.15
448.99	6803.94
449.17	6850.75
449.36	6675.21
449.54	6864.79
449.73	7119.91
449.91	7199.49
450.10	7096.50
450.28	7138.63
450.46	7274.38
450.65	6874.15
450.83	7206.51
451.02	6981.82
451.20	7143.32
451.39	7176.08
451.57	7330.56
451.76	7297.79
451.94	7133.95
452.13	7220.55
452.31	7133.95
452.49	7094.16
452.68	7218.21
452.86	7276.73
453.05	7192.47
453.23	7272.04
453.42	7351.62
453.60	7012.24
453.78	7323.54
453.97	7330.56
454.15	7400.77
454.34	7393.75
454.52	7620.78
454.70	7543.55
454.89	7583.34
455.07	7513.12
455.26	7721.43
455.44	7705.04
455.62	7609.08
455.81	7707.38
455.99	7789.30
456.17	7915.69
456.36	7768.24
456.54	7946.12
456.73	8049.10
456.91	8154.43
457.09	8133.36
457.28	8173.15
457.46	8044.42
457.64	7983.57
457.83	8145.06
458.01	8077.19
458.19	8173.15
458.38	8152.09
458.56	8219.96
458.74	8201.24
458.93	8121.66
459.11	8285.50
459.29	8177.83
459.48	8222.30
459.66	8154.43
459.84	8430.61
460.03	8393.16
460.21	8542.96
460.39	8561.68
460.57	8383.80
460.76	8629.56
460.94	8610.83
461.12	8643.60
461.31	8688.07
461.49	8692.75
461.67	8636.58
461.85	8872.97
462.04	8683.39
462.22	9104.68
462.40	8908.08
462.59	8917.44
462.77	8908.08
462.95	8926.80
463.13	8856.59
463.32	9004.04
463.50	9046.17
463.68	9015.74
463.86	8854.25
464.05	8903.40
464.23	8755.94
464.41	9011.06
464.59	8713.81
464.78	9245.12
464.96	9139.79
465.14	9123.41
465.32	9174.90
465.50	9341.08
465.69	9327.03
465.87	9268.52
466.05	9156.18
466.23	9114.05
466.41	9057.87
466.60	9252.14
466.78	9135.11
466.96	9139.79
467.14	9312.99
467.32	9226.39
467.51	9600.88
467.69	9224.05
467.87	9294.27
468.05	9533.00
468.23	9451.08
468.41	9610.24
468.60	9551.73
468.78	9633.64
468.96	9472.15
469.14	9645.35
469.32	9731.95
469.50	9465.13
469.69	9685.14
469.87	9933.23
470.05	9921.53
470.23	9750.67
470.41	9809.19
470.59	10045.58
470.77	9895.78
470.95	9902.81
471.14	10169.63
471.32	9713.22
471.50	10469.22
471.68	10064.30
471.86	10298.36
472.04	10370.91
472.22	10553.48
472.40	10307.72
472.58	10415.38
472.77	10466.88
472.95	10406.02
473.13	10733.70
473.31	10607.31
473.49	10560.50
473.67	10588.58
473.85	10574.54
474.03	11014.56
474.21	10927.96
474.39	10937.32
474.57	11002.86
474.75	11122.23
474.93	10843.70
475.12	10967.75
475.30	11229.89
475.48	11377.34
475.66	11407.77
475.84	11403.09
476.02	11309.47
476.20	11220.53
476.38	11658.21
476.56	11466.28
476.74	11758.85
476.92	11866.52
477.10	11784.60
477.28	11957.80
477.46	11988.22
477.64	12224.62
477.82	12315.90
478.00	12430.59
478.18	12538.25
478.36	12535.91
478.54	12772.30
478.72	12894.01
478.90	12865.92
479.08	13107.00
479.26	12821.45
479.44	13301.26
479.62	13207.64
479.80	13362.12
479.98	13540.00
480.16	13563.40
480.34	13401.91
480.52	13582.13
480.70	13619.58
480.88	13659.37
481.06	13745.97
481.24	13668.73
481.41	13909.80
481.59	14307.69
481.77	14410.68
481.95	14260.88
482.13	14537.07
482.31	14471.53
482.49	14846.02
482.67	14714.95
482.85	14988.79
483.03	15171.35
483.21	15365.62
483.39	15520.09
483.57	15311.78
483.74	15531.80
483.92	15826.70
484.10	15761.17
484.28	16105.23
484.46	15859.47
484.64	16322.90
484.82	15920.32
485.00	16159.06
485.18	16437.58
485.35	16119.27
485.53	16063.10
485.71	16259.70
485.89	16631.85
486.07	16472.69
486.25	16430.56
486.43	16833.13
486.61	16844.84
486.78	17191.23
486.96	17404.22
487.14	17759.98
487.32	17563.38
487.50	17996.38
487.68	18038.51
487.85	18115.75
488.03	18230.43
488.21	18412.99
488.39	18410.65
488.57	18831.95
488.75	18733.65
488.92	18633.00
489.10	19302.40
489.28	19185.37
489.46	19601.99
489.64	19686.25
489.81	19999.88
489.99	19988.18
490.17	19976.47
490.35	20030.30
490.53	20126.27
490.70	20573.31
490.88	20442.24
491.06	20910.35
491.24	20568.63
491.41	20889.28
491.59	20706.72
491.77	20779.28
491.95	21137.38
492.13	21172.49
492.30	21766.98
492.48	21563.36
492.66	21818.47
492.84	21785.71
493.01	21933.16
493.19	22160.19
493.37	22356.80
493.54	22232.75
493.72	22590.85
493.90	22405.95
494.08	22944.27
494.25	23211.09
494.43	23253.22
494.61	23578.56
494.79	23318.76
494.96	23601.96
495.14	23377.27
495.32	23545.79
495.49	23800.91
495.67	23861.76
495.85	23971.77
496.02	24123.90
496.20	24430.51
496.38	24292.42
496.55	24364.98
496.73	25177.14
496.91	24641.16
497.09	24875.21
497.26	24975.86
497.44	25062.46
497.62	25596.10
497.79	25308.21
497.97	25032.03
498.14	25289.49
498.32	25357.36
498.50	25708.44
498.67	26115.70
498.85	25970.58
499.03	26272.51
499.20	26038.46
499.38	26377.84
499.56	26340.39
499.73	26326.35
499.91	26169.53
500.08	26410.60
500.26	26405.92
500.44	26092.29
500.61	26785.09
500.79	26506.57
500.97	26499.55
501.14	27082.34
501.32	27082.34
501.49	26916.16
501.67	26869.35
501.84	27229.79
502.02	27388.95
502.20	27274.26
502.37	27796.20
502.55	27707.26
502.72	27901.53
502.90	28196.43
503.07	27697.90
503.25	27908.55
503.43	27417.04
503.60	28020.89
503.78	28301.76
503.95	27772.80
504.13	28194.09
504.30	28456.23
504.48	28734.76
504.65	28718.37
504.83	28748.80
505.01	29308.19
505.18	28964.13
505.36	29640.54
505.53	29528.20
505.71	29427.56
505.88	29596.07
506.06	29493.09
506.23	29696.72
506.41	29734.17
506.58	29474.37
506.76	30221.00
506.93	29785.66
507.11	29876.94
507.28	29663.95
507.46	29802.04
507.63	30012.69
507.81	30342.70
507.98	29993.97
508.16	30122.69
508.33	29963.54
508.50	30419.94
508.68	30625.91
508.85	31290.62
509.03	30607.19
509.20	30841.24
509.38	31227.43
509.55	31236.79
509.73	31292.96
509.90	31126.78
510.08	31543.40
510.25	31400.63
510.42	31494.25
510.60	31793.84
510.77	31924.91
510.95	31903.84
511.12	31931.93
511.30	31861.71
511.47	31805.54
511.64	32353.23
511.82	32210.45
511.99	32039.59
512.17	32006.83
512.34	32114.49
512.51	32573.24
512.69	32093.43
512.86	32507.70
513.04	32458.55
513.21	32840.06
513.38	32598.98
513.56	32521.74
513.73	32381.31
513.90	33017.94
514.08	32919.63
514.25	33085.81
514.43	33254.33
514.60	33092.83
514.77	33591.37
514.95	33825.42
515.12	33502.43
515.29	33652.22
515.47	34321.62
515.64	33684.99
515.81	34078.20
515.99	33324.55
516.16	33591.37
516.33	33680.31
516.51	33750.52
516.68	33324.55
516.85	33560.94
517.03	33429.87
517.20	33956.49
517.37	34457.37
517.54	34174.16
517.72	34117.99
517.89	33797.34
518.06	33851.17
518.24	34064.16
518.41	34422.26
518.58	34672.70
518.75	34061.82
518.93	34616.52
519.10	35014.41
519.27	34740.57
519.45	34869.30
519.62	35426.35
519.79	35260.17
519.96	35534.01
520.14	35063.57
520.31	35304.64
520.48	35264.85
520.65	35304.64
520.83	35519.97
521.00	35534.01
521.17	35765.73
521.34	35777.43
521.52	36013.82
521.69	35735.30
521.86	36182.34
522.03	36306.39
522.20	35819.56
522.38	35959.99
522.55	36091.06
522.72	36474.91
522.89	36205.75
523.07	36847.05
523.24	36486.61
523.41	36875.14
523.58	36884.50
523.75	37331.54
523.92	37046.00
524.10	36835.35
524.27	37001.53
524.44	37120.90
524.61	37186.43
524.78	37181.75
524.96	37256.65
525.13	37244.94
525.30	37502.40
525.47	37221.54
525.64	37872.21
525.81	37205.16
525.98	37099.83
526.16	37530.49
526.33	37067.06
526.50	37525.81
526.67	37172.39
526.84	37357.29
527.01	37268.35
527.18	37677.94
527.36	38197.54
527.53	37785.61
527.70	38227.97
527.87	38410.53
528.04	37879.23
528.21	38349.68
528.38	38375.42
528.55	38768.63
528.72	38859.91
528.89	38548.62
529.07	38066.47
529.24	38527.56
529.41	38455.00
529.58	38141.37
529.75	38761.61
529.92	38635.22
530.09	38904.38
530.26	39274.19
530.43	39133.76
530.60	38752.25
530.77	38630.54
530.94	39363.13
531.11	39431.01
531.28	39662.72
531.46	39423.98
531.63	39206.31
531.80	39363.13
531.97	39456.75
532.14	39510.58
532.31	38937.15
532.48	39185.25
532.65	39601.86
532.82	39112.69
532.99	40020.82
533.16	39613.57
533.33	40320.41
533.50	39950.60
533.67	40140.19
533.84	39754.00
534.01	40187.00
534.18	40088.70
534.35	40194.02
534.52	39952.94
534.69	40395.31
534.86	40451.48
535.03	39892.09
535.20	40687.87
535.37	40769.79
535.54	40509.99
535.71	40502.97
535.88	40435.10
536.05	40538.08
536.22	40348.50
536.38	40975.76
536.55	40577.87
536.72	40933.63
536.89	40147.21
537.06	40257.21
537.23	40772.13
537.40	41223.86
537.57	40701.92
537.74	41153.64
537.91	40882.14
538.08	40832.99
538.25	40903.20
538.42	40896.18
538.59	41537.49
538.75	41104.49
538.92	40762.77
539.09	41394.71
539.26	41455.57
539.43	41481.31
539.60	41591.32
539.77	41092.79
539.94	41514.08
540.11	41125.55
540.28	41598.34
540.44	41184.07
540.61	41198.11
540.78	41113.85
540.95	41254.28
541.12	41429.82
541.29	41825.37
541.46	41731.75
541.62	41827.71
541.79	41525.78
541.96	41301.09
542.13	41970.49
542.30	42071.13
542.47	41944.74
542.63	41745.80
542.80	42078.15
542.97	42373.06
543.14	42541.58
543.31	42459.66
543.48	42323.91
543.64	42639.88
543.81	42513.49
543.98	42576.69
544.15	43026.07
544.32	43278.85
544.48	43267.14
544.65	43086.92
544.82	43283.53
544.99	42211.56
545.16	42724.14
545.32	42586.05
545.49	43217.99
545.66	43325.66
545.83	43210.97
546.00	43061.18
546.16	42784.99
546.33	42775.63
546.50	42684.35
546.67	43225.01
546.83	42850.53
547.00	42913.72
547.17	42784.99
547.34	43133.73
547.50	43016.71
547.67	43171.18
547.84	43222.67
548.00	43636.95
548.17	43445.02
548.34	43475.45
548.51	43718.87
548.67	43452.05
548.84	43241.40
549.01	43412.26
549.18	43449.70
549.34	43548.01
549.51	43498.86
549.68	43512.90
549.84	44055.90
550.01	44062.93
550.18	43796.10
550.34	43613.54
550.51	44100.37
550.68	43931.86
550.84	43388.85
551.01	43931.86
551.18	43894.41
551.34	43632.27
551.51	44123.78
551.68	44240.81
551.84	43931.86
552.01	43828.87
552.18	44144.84
552.34	43775.04
552.51	44170.59
552.68	44266.55
552.84	44423.37
553.01	44411.67
553.18	44348.47
553.34	44273.57
553.51	44336.77
553.67	44477.20
553.84	45074.04
554.01	44928.92
554.17	44727.64
554.34	44409.32
554.51	44905.52
554.67	44339.11
554.84	44507.63
555.00	44570.82
555.17	44294.64
555.33	44612.95
555.50	44395.28
555.67	44748.70
555.83	44198.68
556.00	44598.91
556.16	44933.60
556.33	44278.25
556.50	45036.59
556.66	44584.86
556.83	44217.40
556.99	44540.39
557.16	44851.69
557.32	44313.36
557.49	45165.32
557.65	44938.29
557.82	44961.69
557.98	44790.83
558.15	44856.37
558.32	44861.05
558.48	44753.38
558.65	44783.81
558.81	44940.63
558.98	44868.07
559.14	44882.11
559.31	44844.66
559.47	44678.49
559.64	45010.84
559.80	45116.17
559.97	45097.44
560.13	44947.65
560.30	44947.65
560.46	45048.29
560.63	45024.89
560.79	45006.16
560.96	45375.97
561.12	44921.90
561.29	45436.82
561.45	44893.82
561.61	44912.54
561.78	45249.58
561.94	45329.16
562.11	44690.19
562.27	44905.52
562.44	45558.53
562.60	45235.53
562.77	45193.40
562.93	45521.08
563.10	45219.15
563.26	45228.51
563.42	45464.91
563.59	45422.78
563.75	45184.04
563.92	45413.41
564.08	45532.78
564.24	45514.06
564.41	45413.41
564.57	45280.00
564.74	45212.13
564.90	45375.97
565.07	45432.14
565.23	45371.28
565.39	45228.51
565.56	45399.37
565.72	45251.92
565.88	45439.16
566.05	45198.09
566.21	45385.33
566.38	45322.13
566.54	45556.19
566.70	45579.59
566.87	46043.02
567.03	45647.47
567.19	45689.60
567.36	46012.59
567.52	45509.38
567.68	45918.97
567.85	45144.25
568.01	45982.16
568.17	45345.54
568.34	45991.53
568.50	45598.32
568.66	45476.61
568.83	45668.53
568.99	45329.16
569.15	45242.56
569.32	45806.62
569.48	45500.01
569.64	45591.30
569.81	45577.25
569.97	45881.52
570.13	45677.90
570.30	45172.34
570.46	45146.59
570.62	44996.80
570.78	45382.99
570.95	45544.48
571.11	45544.48
571.27	45237.87
571.43	45794.92
571.60	45464.91
571.76	45825.35
571.92	45965.78
572.09	45698.96
572.25	45535.12
572.41	45808.96
572.57	45930.67
572.74	46356.65
572.90	45801.94
573.06	46113.23
573.22	45977.48
573.38	45546.82
573.55	45425.12
573.71	46124.94
573.87	46024.29
574.03	45610.02
574.20	45993.87
574.36	45579.59
574.52	46068.76
574.68	45914.29
574.84	45584.27
575.01	45780.88
575.17	45680.24
575.33	45542.14
575.49	45776.20
575.65	46490.06
575.82	46155.36
575.98	46064.08
576.14	46167.07
576.30	46204.52
576.46	45975.14
576.62	45858.12
576.79	45986.85
576.95	45551.51
577.11	45968.12
577.27	46059.40
577.43	45633.42
577.59	45598.32
577.75	45586.61
577.92	45434.48
578.08	45998.55
578.24	45354.90
578.40	45462.57
578.56	45911.95
578.72	45860.46
578.88	45698.96
579.04	45867.48
579.21	45963.44
579.37	45436.82
579.53	45759.81
579.69	45972.80
579.85	45382.99
580.01	45661.51
580.17	45750.45
580.33	45635.77
580.49	45628.74
580.65	45986.85
580.82	46028.98
580.98	45811.31
581.14	46045.36
581.30	45811.31
581.46	45773.86
581.62	45769.18
581.78	45930.67
581.94	45914.29
582.10	45647.47
582.26	45975.14
582.42	45933.01
582.58	46038.34
582.74	46232.60
582.90	46433.89
583.06	45986.85
583.22	45942.38
583.38	46026.63
583.54	46288.77
583.70	46232.60
583.86	46155.36
584.02	45893.22
584.18	45797.26
584.34	45825.35
584.50	46553.26
584.66	45481.29
584.82	46007.91
584.98	46461.97
585.14	45902.59
585.30	45797.26
585.46	46113.23
585.62	45752.79
585.78	45469.59
585.94	45970.46
586.10	45846.41
586.26	45815.99
586.42	46078.13
586.58	46398.78
586.74	46054.72
586.90	45764.49
587.06	45867.48
587.22	45804.28
587.38	45808.96
587.54	46188.13
587.70	46005.57
587.86	45897.91
588.02	45825.35
588.18	45975.14
588.34	45752.79
588.49	45059.99
588.65	45551.51
588.81	45347.88
588.97	45593.64
589.13	45603.00
589.29	45188.72
589.45	45883.86
589.61	46031.32
589.77	46117.92
589.93	46415.16
590.08	45982.16
