SpectraSuite Data File
++++++++++++++++++++++++++++++++++++
Date: Fri Oct 25 11:25:02 EDT 2013
User: price-jones
Dark Spectrum Present: No
Reference Spectrum Present: No
Number of Sampled Component Spectra: 1
Spectrometers: USB2+H05261
Integration Time (usec): 100000 (USB2+H05261)
Spectra Averaged: 1 (USB2+H05261)
Boxcar Smoothing: 0 (USB2+H05261)
Correct for Electrical Dark: No (USB2+H05261)
Strobe/Lamp Enabled: No (USB2+H05261)
Correct for Detector Non-linearity: No (USB2+H05261)
Correct for Stray Light: No (USB2+H05261)
Number of Pixels in Processed Spectrum: 2048
>>>>>Begin Processed Spectral Data<<<<<
365.73	212.99
365.92	212.99
366.12	212.99
366.32	156.82
366.52	74.90
366.72	107.66
366.91	138.09
367.11	168.52
367.31	88.94
367.51	149.79
367.70	191.92
367.90	63.19
368.10	102.98
368.30	140.43
368.49	131.07
368.69	177.88
368.89	138.09
369.09	156.82
369.28	215.33
369.48	154.48
369.68	215.33
369.87	222.35
370.07	255.12
370.27	210.65
370.47	315.97
370.66	582.79
370.86	594.50
371.06	575.77
371.25	697.48
371.45	641.31
371.65	653.01
371.84	697.48
372.04	660.03
372.24	638.97
372.44	688.12
372.63	751.31
372.83	748.97
373.03	725.57
373.22	697.48
373.42	674.07
373.62	802.80
373.81	800.46
374.01	774.72
374.21	781.74
374.40	800.46
374.60	875.36
374.79	837.91
374.99	755.99
375.19	858.98
375.38	807.48
375.58	835.57
375.78	793.44
375.97	830.89
376.17	931.53
376.37	858.98
376.56	933.87
376.76	898.77
376.95	898.77
377.15	873.02
377.35	919.83
377.54	990.05
377.74	898.77
377.93	908.13
378.13	966.64
378.33	971.32
378.52	809.83
378.72	964.30
378.91	873.02
379.11	978.34
379.31	866.00
379.50	866.00
379.70	952.60
379.89	1018.13
380.09	987.71
380.28	905.79
380.48	997.07
380.68	954.94
380.87	978.34
381.07	966.64
381.26	1022.81
381.46	938.55
381.65	1039.20
381.85	1062.60
382.04	1015.79
382.24	1001.75
382.43	1018.13
382.63	1036.86
382.83	1015.79
383.02	1111.75
383.22	1041.54
383.41	1001.75
383.61	1139.84
383.80	1184.31
384.00	1090.69
384.19	1135.16
384.39	1186.65
384.58	1160.91
384.78	1071.97
384.97	1193.67
385.17	1125.80
385.36	1256.87
385.56	1144.52
385.75	1151.54
385.95	1200.69
386.14	1212.40
386.34	1144.52
386.53	1156.22
386.72	1130.48
386.92	1282.61
387.11	1196.01
387.31	1205.38
387.50	1210.06
387.70	1214.74
387.89	1259.21
388.09	1291.98
388.28	1369.21
388.48	1221.76
388.67	1259.21
388.86	1240.48
389.06	1214.74
389.25	1315.38
389.45	1322.40
389.64	1460.49
389.84	1390.28
390.03	1320.06
390.22	1404.32
390.42	1331.76
390.61	1458.15
390.81	1439.43
391.00	1455.81
391.19	1451.13
391.39	1526.03
391.58	1502.62
391.78	1404.32
391.97	1511.99
392.16	1387.94
392.36	1467.52
392.55	1577.52
392.75	1528.37
392.94	1591.56
393.13	1537.73
393.33	1479.22
393.52	1535.39
393.71	1497.94
393.91	1556.46
394.10	1551.78
394.29	1598.59
394.49	1575.18
394.68	1710.93
394.88	1652.42
395.07	1633.69
395.26	1694.55
395.46	1703.91
395.65	1654.76
395.84	1732.00
396.04	1729.66
396.23	1736.68
396.42	1739.02
396.62	1755.40
396.81	1720.29
397.00	1811.57
397.19	1853.70
397.39	1783.49
397.58	1865.41
397.77	1764.76
397.97	1872.43
398.16	1783.49
398.35	1865.41
398.55	1825.62
398.74	1886.47
398.93	1989.46
399.12	1874.77
399.32	1872.43
399.51	1987.11
399.70	1973.07
399.90	1996.48
400.09	2036.27
400.28	2036.27
400.47	2036.27
400.67	2069.03
400.86	2052.65
401.05	2078.40
401.24	2106.48
401.44	2134.57
401.63	2090.10
401.82	2127.55
402.01	2099.46
402.21	2129.89
402.40	2174.36
402.59	2228.19
402.78	2207.13
402.97	2165.00
403.17	2291.38
403.36	2186.06
403.55	2214.15
403.74	2356.92
403.93	2366.28
404.13	2293.72
404.32	2354.58
404.51	2422.45
404.70	2392.03
404.89	2296.07
405.09	2516.08
405.28	2471.61
405.47	2462.24
405.66	2499.69
405.85	2539.48
406.05	2532.46
406.24	2471.61
406.43	2663.53
406.62	2576.93
406.81	2658.85
407.00	2483.31
407.20	2686.94
407.39	2595.65
407.58	2689.28
407.77	2684.59
407.96	2738.43
408.15	2813.32
408.34	2705.66
408.54	2827.37
408.73	2825.03
408.92	2773.53
409.11	2883.54
409.30	2869.50
409.49	2981.84
409.68	2939.71
409.87	2876.52
410.07	3042.70
410.26	2956.10
410.45	3005.25
410.64	2944.39
410.83	3033.33
411.02	3117.59
411.21	3070.78
411.40	3157.38
411.59	3187.81
411.78	3187.81
411.98	3220.58
412.17	3272.07
412.36	3302.50
412.55	3382.07
412.74	3379.73
412.93	3377.39
413.12	3461.65
413.31	3543.57
413.50	3433.57
413.69	3569.32
413.88	3459.31
414.07	3576.34
414.26	3576.34
414.45	3613.79
414.64	3641.87
414.83	3695.71
415.02	3688.68
415.22	3770.60
415.41	3911.04
415.60	3971.89
415.79	3833.80
415.98	3906.35
416.17	3962.53
416.36	3831.46
416.55	4058.49
416.74	4039.76
416.93	4142.75
417.12	4025.72
417.31	4128.70
417.50	4273.82
417.69	4369.78
417.88	4231.69
418.07	4234.03
418.26	4402.55
418.45	4290.20
418.64	4456.38
418.83	4409.57
419.02	4390.84
419.21	4531.28
419.39	4425.95
419.58	4458.72
419.77	4390.84
419.96	4535.96
420.15	4617.88
420.34	4458.72
420.53	4547.66
420.72	4725.54
420.91	4779.37
421.10	4664.69
421.29	4739.58
421.48	4690.43
421.67	4772.35
421.86	4781.71
422.05	4695.11
422.24	4741.93
422.43	4814.48
422.61	4819.16
422.80	4805.12
422.99	4975.98
423.18	4854.27
423.37	5076.62
423.56	4882.36
423.75	4713.84
423.94	4868.31
424.13	4465.74
424.32	4774.69
424.50	4924.49
424.69	4997.04
424.88	4936.19
425.07	4987.68
425.26	4896.40
425.45	4966.62
425.64	4798.10
425.83	4863.63
426.01	5001.72
426.20	4908.10
426.39	4922.15
426.58	5160.88
426.77	5085.98
426.96	4945.55
427.15	5135.14
427.33	5247.48
427.52	5100.03
427.71	5219.39
427.90	5238.12
428.09	5093.01
428.28	5158.54
428.46	5401.96
428.65	5390.25
428.84	5451.11
429.03	5446.43
429.22	5355.15
429.40	5397.28
429.59	5509.62
429.78	5249.82
429.97	5270.89
430.16	5547.07
430.34	5638.35
430.53	5572.82
430.72	5685.16
430.91	5633.67
431.10	5605.58
431.28	5724.95
431.47	5713.25
431.66	5870.06
431.85	5741.33
432.03	5973.05
432.22	6024.54
432.41	5907.51
432.60	5858.36
432.79	5851.34
432.97	5891.13
433.16	5961.34
433.35	5865.38
433.54	6122.84
433.72	6066.67
433.91	6106.46
434.10	6078.37
434.28	6190.72
434.47	6132.20
434.66	6249.23
434.85	6197.74
435.03	6272.64
435.22	6274.98
435.41	6562.86
435.59	6445.84
435.78	6443.49
435.97	6612.01
436.16	6314.77
436.34	6394.34
436.53	6459.88
436.72	6752.45
436.90	6368.60
437.09	6574.56
437.28	6345.19
437.46	6600.31
437.65	6569.88
437.84	6724.36
438.02	6597.97
438.21	6789.89
438.40	6677.55
438.58	6942.03
438.77	6984.16
438.96	6792.23
439.14	7103.53
439.33	7059.06
439.52	7145.66
439.70	7351.62
439.89	7386.73
440.08	7611.42
440.26	7372.69
440.45	7295.45
440.63	7564.61
440.82	7712.07
441.01	7382.05
441.19	7588.02
441.38	7719.09
441.57	7623.12
441.75	7847.82
441.94	7793.98
442.12	7997.61
442.31	7939.10
442.50	7999.95
442.68	8002.29
442.87	8084.21
443.05	8173.15
443.24	8042.08
443.43	8262.09
443.61	8168.47
443.80	8568.70
443.98	8053.78
444.17	7817.39
444.35	8081.87
444.54	8491.46
444.73	8243.37
444.91	8093.57
445.10	8285.50
445.28	8264.43
445.47	8177.83
445.65	8285.50
445.84	8444.65
446.02	8411.89
446.21	8542.96
446.39	8346.35
446.58	8379.12
446.77	8355.71
446.95	8217.62
447.14	8224.64
447.32	8423.59
447.51	8517.21
447.69	8334.65
447.88	8634.24
448.06	8578.06
448.25	8538.27
448.43	8409.54
448.62	8566.36
448.80	8430.61
448.99	8697.43
449.17	8737.22
449.36	8772.33
449.54	8793.39
449.73	8997.02
449.91	9011.06
450.10	8943.19
450.28	9029.79
450.46	9198.31
450.65	8931.48
450.83	9064.89
451.02	9107.02
451.20	9252.14
451.39	9221.71
451.57	9240.44
451.76	9191.28
451.94	9188.94
452.13	9245.12
452.31	9366.82
452.49	9181.92
452.68	9420.66
452.86	9137.45
453.05	9231.07
453.23	9497.89
453.42	9249.80
453.60	9165.54
453.78	9540.02
453.97	9598.54
454.15	9589.17
454.34	9415.98
454.52	9668.75
454.70	9579.81
454.89	9771.74
455.07	9832.59
455.26	9781.10
455.44	9788.12
455.62	9851.31
455.81	9865.36
455.99	10033.88
456.17	9912.17
456.36	10141.54
456.54	10143.88
456.73	10087.71
456.91	10408.36
457.09	10157.92
457.28	10478.58
457.46	10274.95
457.64	10663.48
457.83	10600.29
458.01	10289.00
458.19	10808.59
458.38	10602.63
458.56	10682.20
458.74	10806.25
458.93	10539.43
459.11	10841.36
459.29	10560.50
459.48	10764.12
459.66	10906.90
459.84	10810.93
460.03	11061.37
460.21	10642.42
460.39	10911.58
460.57	11138.61
460.76	11253.30
460.94	11311.81
461.12	11276.70
461.31	11028.60
461.49	11239.25
461.67	11225.21
461.85	11353.94
462.04	11428.84
462.22	11758.85
462.40	11562.25
462.59	11470.97
462.77	11513.10
462.95	11496.71
463.13	11576.29
463.32	11576.29
463.50	11735.45
463.68	11861.84
463.86	11934.39
464.05	11847.79
464.23	11712.04
464.41	11793.96
464.59	11655.87
464.78	12093.55
464.96	11810.34
465.14	11597.35
465.32	12182.49
465.50	11999.93
465.69	11946.09
465.87	12086.53
466.05	12212.92
466.23	12081.85
466.41	12049.08
466.60	12451.65
466.78	12285.47
466.96	12060.78
467.14	12297.17
467.32	12351.01
467.51	12496.12
467.69	12395.48
467.87	12475.06
468.05	12381.43
468.23	12425.90
468.41	12444.63
468.60	12690.38
468.78	12751.24
468.96	12643.57
469.14	12699.75
469.32	13085.94
469.50	12746.56
469.69	12924.44
469.87	13181.90
470.05	12968.91
470.23	12938.48
470.41	13212.32
470.59	13245.09
470.77	13020.40
470.95	13345.73
471.14	13591.49
471.32	13160.83
471.50	13472.12
471.68	13397.23
471.86	13376.16
472.04	14017.47
472.22	14073.64
472.40	13724.90
472.58	13832.57
472.77	13937.89
472.95	14052.58
473.13	14483.24
473.31	14015.13
473.49	14092.37
473.67	14005.77
473.85	14539.41
474.03	14431.74
474.21	14581.54
474.39	14740.69
474.57	14839.00
474.75	14658.78
474.93	15185.40
475.12	15007.52
475.30	15241.57
475.48	14953.68
475.66	15084.75
475.84	14956.02
476.02	15419.45
476.20	15414.77
476.38	15733.08
476.56	15791.59
476.74	15887.56
476.92	16027.99
477.10	15620.74
477.28	15908.62
477.46	16245.66
477.64	16463.33
477.82	16542.91
478.00	16702.06
478.18	16940.80
478.36	17135.06
478.54	17083.57
478.72	17069.53
478.90	17397.20
479.08	17315.28
479.26	17350.39
479.44	17509.55
479.62	17736.58
479.80	17830.20
479.98	18085.32
480.16	18523.00
480.34	18209.37
480.52	18534.70
480.70	18450.44
480.88	18354.48
481.06	18553.43
481.24	18810.89
481.41	18958.34
481.59	19215.80
481.77	19548.15
481.95	19594.96
482.13	19690.93
482.31	19782.21
482.49	20582.67
482.67	20390.75
482.85	20423.51
483.03	20379.04
483.21	20641.18
483.39	20940.77
483.57	20554.58
483.74	21034.39
483.92	21422.92
484.10	21137.38
484.28	21687.40
484.46	22363.82
484.64	22527.66
484.82	21827.84
485.00	22075.93
485.18	22579.15
485.35	22895.12
485.53	22888.10
485.71	22995.76
485.89	23208.75
486.07	23246.20
486.25	23239.18
486.43	23740.05
486.61	23737.71
486.78	24264.33
486.96	24212.84
487.14	24372.00
487.32	24779.25
487.50	24800.32
487.68	24952.45
487.85	25268.42
488.03	25467.37
488.21	25804.41
488.39	25818.45
488.57	26066.55
488.75	26183.57
488.92	26143.78
489.10	26609.55
489.28	26817.86
489.46	26883.39
489.64	26941.91
489.81	27676.83
489.99	27552.79
490.17	27337.46
490.35	28135.58
490.53	28222.18
490.70	28257.29
490.88	28072.39
491.06	28627.09
491.24	28556.88
491.41	29308.19
491.59	29102.22
491.77	29317.55
491.95	29666.29
492.13	29493.09
492.30	29912.05
492.48	29656.93
492.66	29867.58
492.84	30164.82
493.01	30536.97
493.19	30656.34
493.37	31016.78
493.54	31143.17
493.72	31072.95
493.90	30972.31
494.08	31704.90
494.25	32032.57
494.43	31903.84
494.61	32072.36
494.79	32423.44
494.96	32496.00
495.14	32601.32
495.32	33188.80
495.49	33268.37
495.67	33134.96
495.85	33401.79
496.02	33525.83
496.20	33926.07
496.38	34342.68
496.55	33897.98
496.73	34623.54
496.91	34352.04
497.09	34602.48
497.26	34939.52
497.44	35271.87
497.62	35192.30
497.79	35496.56
497.97	35400.60
498.14	35721.26
498.32	36435.12
498.50	36259.58
498.67	36252.56
498.85	36418.74
499.03	36545.12
499.20	36837.69
499.38	36828.33
499.56	36964.08
499.73	37118.56
499.91	37230.90
500.08	37663.90
500.26	37577.30
500.44	37926.04
500.61	37933.06
500.79	37720.07
500.97	38216.27
501.14	38579.05
501.32	38501.81
501.49	38625.86
501.67	38230.31
501.84	39040.14
502.02	38632.88
502.20	38529.90
502.37	39168.87
502.55	39154.82
502.72	39426.32
502.90	39805.49
503.07	39381.85
503.25	39793.79
503.43	39665.06
503.60	40037.20
503.78	39746.98
503.95	39749.32
504.13	40392.97
504.30	40456.16
504.48	40013.80
504.65	40676.17
504.83	40959.38
505.01	41010.87
505.18	40886.82
505.36	41418.12
505.53	40861.07
505.71	41219.17
505.88	41652.17
506.06	41429.82
506.23	41862.82
506.41	41670.90
506.58	42038.36
506.76	42323.91
506.93	42579.03
507.11	42005.59
507.28	42600.09
507.46	42548.60
507.63	42904.36
507.81	42979.26
507.98	43002.66
508.16	43021.39
508.33	43005.00
508.50	43271.82
508.68	43536.30
508.85	43938.88
509.03	43910.79
509.20	43540.99
509.38	44123.78
509.55	44369.54
509.73	44205.70
509.90	44650.40
510.08	44474.86
510.25	44566.14
510.42	44727.64
510.60	44851.69
510.77	44935.95
510.95	45432.14
511.12	44823.60
511.30	45062.33
511.47	45617.04
511.64	45230.85
511.82	46085.15
511.99	45315.11
512.17	45766.84
512.34	45703.64
512.51	45972.80
512.69	46494.74
512.86	46293.46
513.04	46644.54
513.21	46555.60
513.38	46494.74
513.56	46925.40
513.73	46761.56
513.90	46721.77
514.08	46887.95
514.25	47234.35
514.43	47236.69
514.60	47463.72
514.77	46979.23
514.95	47601.82
515.12	47437.98
515.29	47730.54
515.47	47765.65
515.64	48193.97
515.81	48130.78
515.99	48147.16
516.16	48208.01
516.33	48573.14
516.51	48505.26
516.68	48556.75
516.85	48418.66
517.03	48729.95
517.20	48561.44
517.37	48456.11
517.54	48638.67
517.72	48769.74
517.89	48823.58
518.06	49099.76
518.24	49193.38
518.41	49078.69
518.58	49432.11
518.75	48961.67
518.93	49193.38
519.10	49347.86
519.27	49422.75
519.45	49420.41
519.62	50094.49
519.79	49794.90
519.96	49904.90
520.14	50089.80
520.31	49750.43
520.48	50291.09
520.65	50078.10
520.83	50658.56
521.00	50485.36
521.17	50543.87
521.34	50724.09
521.52	50438.54
521.69	50728.77
521.86	50766.22
522.03	51100.92
522.20	51702.43
522.38	51325.61
522.55	51182.84
522.72	51234.33
522.89	51339.65
523.07	51573.70
523.24	51639.24
523.41	51742.22
523.58	51559.66
523.75	51899.04
523.92	51515.19
524.10	51681.37
524.27	51952.87
524.44	52062.88
524.61	52271.18
524.78	51889.68
524.96	52107.35
525.13	52137.77
525.30	52334.38
525.47	52252.46
525.64	52598.86
525.81	52528.64
525.98	52680.78
526.16	52477.15
526.33	52509.92
526.50	52875.04
526.67	52680.78
526.84	53071.65
527.01	52645.67
527.18	52786.10
527.36	52919.51
527.53	53036.54
527.70	53275.27
527.87	53462.52
528.04	53357.19
528.21	53385.28
528.38	53176.97
528.55	53645.08
528.72	53294.00
528.89	53073.99
529.07	53291.66
529.24	53294.00
529.41	53577.20
529.58	53752.74
529.75	53361.87
529.92	53621.67
530.09	53874.45
530.26	53815.94
530.43	53961.05
530.60	53647.42
530.77	53680.19
530.94	53942.33
531.11	54035.95
531.28	53998.50
531.46	54178.72
531.63	54080.42
531.80	54440.86
531.97	54197.44
532.14	54459.58
532.31	54178.72
532.48	54372.99
532.65	54693.64
532.82	54302.77
532.99	54541.50
533.16	54412.77
533.33	54901.95
533.50	54724.07
533.67	54721.72
533.84	54543.84
534.01	55086.85
534.18	54618.74
534.35	55283.45
534.52	54981.52
534.69	55042.38
534.86	55166.43
535.03	55077.49
535.20	55100.89
535.37	55236.64
535.54	55363.03
535.71	55002.59
535.88	55267.07
536.05	55512.83
536.22	55351.33
536.38	55536.23
536.55	55522.19
536.72	55384.10
536.89	55533.89
537.06	55241.32
537.23	55723.47
537.40	55491.76
537.57	55824.12
537.74	55746.88
537.91	55950.51
538.08	55880.29
538.25	55487.08
538.42	55938.80
538.59	55861.57
538.75	55901.36
538.92	56067.53
539.09	56191.58
539.26	56147.11
539.43	56109.66
539.60	56097.96
539.77	56116.68
539.94	56460.74
540.11	56210.31
540.28	56554.36
540.44	56669.05
540.61	56343.72
540.78	56184.56
540.95	56383.51
541.12	56521.60
541.29	56512.23
541.46	56343.72
541.62	56638.62
541.79	56596.49
541.96	56460.74
542.13	56502.87
542.30	56823.53
542.47	56664.37
542.63	56828.21
542.80	56842.25
542.97	56821.19
543.14	57394.62
543.31	57134.82
543.48	57214.40
543.64	57403.98
543.81	57378.23
543.98	57312.70
544.15	57303.34
544.32	57298.65
544.48	57333.76
544.65	57305.68
544.82	57343.12
544.99	57361.85
545.16	57511.64
545.32	57066.94
545.49	57649.74
545.66	57614.63
545.83	57471.85
546.00	57717.61
546.16	57544.41
546.33	57303.34
546.50	57443.77
546.67	57724.63
546.83	57546.75
547.00	57844.00
547.17	57605.26
547.34	57918.90
547.50	57701.23
547.67	58054.65
547.84	57918.90
548.00	57844.00
548.17	58295.72
548.34	57949.32
548.51	58279.34
548.67	58195.08
548.84	58099.12
549.01	57888.47
549.18	58185.72
549.34	58028.90
549.51	58120.18
549.68	58330.83
549.84	58403.39
550.01	58520.41
550.18	58457.22
550.34	58379.98
550.51	58183.38
550.68	58480.63
550.84	58293.38
551.01	58422.11
551.18	58387.00
551.34	58422.11
551.51	58550.84
551.68	58518.07
551.84	58754.47
552.01	58457.22
552.18	58485.31
552.34	58403.39
552.51	58733.40
552.68	58550.84
552.84	58611.70
553.01	58897.24
553.18	58607.01
553.34	58719.36
553.51	58691.27
553.67	58808.30
553.84	58838.73
554.01	58913.62
554.17	58883.20
554.34	59077.46
554.51	58834.05
554.67	59154.70
554.84	58887.88
555.00	58969.80
555.17	59058.74
555.33	59135.98
555.50	58976.82
555.67	58939.37
555.83	58911.28
556.00	58885.54
556.16	59482.37
556.33	59285.77
556.50	59058.74
556.66	59353.65
556.83	59079.80
556.99	59316.20
557.16	59384.07
557.32	59440.24
557.49	59498.76
557.65	59238.96
557.82	59323.22
557.98	59166.40
558.15	59341.94
558.32	59309.18
558.48	59234.28
558.65	59522.16
558.81	59398.12
558.98	59484.72
559.14	59435.56
559.31	59337.26
559.47	59416.84
559.64	59578.34
559.80	59664.94
559.97	59597.06
560.13	59618.13
560.30	59494.08
560.46	59714.09
560.63	59777.28
560.79	59765.58
560.96	59674.30
561.12	59868.56
561.29	59821.75
561.45	59856.86
561.61	59739.83
561.78	59891.97
561.94	59861.54
562.11	59707.07
562.27	59913.03
562.44	59887.29
562.60	59817.07
562.77	59910.69
562.93	59845.16
563.10	59966.87
563.26	59889.63
563.42	60238.37
563.59	59854.52
563.75	59788.98
563.92	59936.44
564.08	59845.16
564.24	60069.85
564.41	60011.34
564.57	60233.69
564.74	60140.07
564.90	60119.00
565.07	59997.29
565.23	59906.01
565.39	60121.34
565.56	60151.77
565.72	60093.25
565.88	60137.72
566.05	59943.46
566.21	60133.04
566.38	60121.34
566.54	60193.90
566.70	60210.28
566.87	60282.84
567.03	60111.98
567.19	60320.29
567.36	60243.05
567.52	60046.44
567.68	60526.25
567.85	60224.32
568.01	60500.51
568.17	60243.05
568.34	60418.59
568.50	60357.74
568.66	60273.48
568.83	60465.40
568.99	60324.97
569.15	60493.49
569.32	60465.40
569.48	60350.71
569.64	60324.97
569.81	60399.86
569.97	60376.46
570.13	60374.12
570.30	60346.03
570.46	60444.33
570.62	60451.36
570.78	60339.01
570.95	60608.17
571.11	60662.00
571.27	60439.65
571.43	60573.06
571.60	60657.32
571.76	60303.90
571.92	60575.40
572.09	60662.00
572.25	60467.74
572.41	60535.62
572.57	60367.10
572.74	60701.79
572.90	60402.21
573.06	60481.78
573.22	60523.91
573.38	60596.47
573.55	60774.35
573.71	60945.21
573.87	60610.51
574.03	60439.65
574.20	60638.60
574.36	60559.02
574.52	60790.73
574.68	60732.22
574.84	60800.10
575.01	60959.25
575.17	60633.92
575.33	60505.19
575.49	60587.11
575.65	60694.77
575.82	60718.18
575.98	60849.25
576.14	60907.76
576.30	60701.79
576.46	60732.22
576.62	60877.33
576.79	60762.65
576.95	60802.44
577.11	60427.95
577.27	60790.73
577.43	60823.50
577.59	60615.19
577.75	60680.73
577.92	60566.04
578.08	60830.52
578.24	60921.80
578.40	61027.13
578.56	60837.54
578.72	60786.05
578.88	61038.83
579.04	60924.14
579.21	60823.50
579.37	61055.21
579.53	60837.54
579.69	60589.45
579.85	60727.54
580.01	60678.39
580.17	60718.18
580.33	60807.12
580.49	60757.97
580.65	61083.30
580.82	60676.05
580.98	60755.63
581.14	60699.45
581.30	61064.58
581.46	60605.83
581.62	60940.53
581.78	60779.03
581.94	61024.79
582.10	60788.39
582.26	60713.50
582.42	60952.23
582.58	61085.64
582.74	60891.38
582.90	60781.37
583.06	60928.83
583.22	60720.52
583.38	60921.80
583.54	60863.29
583.70	61020.11
583.86	60814.14
584.02	60748.60
584.18	61041.17
584.34	60849.25
584.50	60921.80
584.66	60999.04
584.82	60774.35
584.98	61104.37
585.14	60739.24
585.30	60823.50
585.46	61141.81
585.62	61038.83
585.78	61085.64
585.94	60676.05
586.10	61034.15
586.26	61055.21
586.42	61015.43
586.58	61134.79
586.74	60905.42
586.90	61015.43
587.06	60970.96
587.22	61001.38
587.38	61109.05
587.54	60956.91
587.70	61221.39
587.86	60982.66
588.02	61071.60
588.18	61015.43
588.34	61230.75
588.49	61092.66
