SpectraSuite Data File
++++++++++++++++++++++++++++++++++++
Date: Fri Oct 25 10:44:54 EDT 2013
User: price-jones
Dark Spectrum Present: No
Reference Spectrum Present: No
Number of Sampled Component Spectra: 1
Spectrometers: USB2+H05261
Integration Time (usec): 100000 (USB2+H05261)
Spectra Averaged: 1 (USB2+H05261)
Boxcar Smoothing: 0 (USB2+H05261)
Correct for Electrical Dark: No (USB2+H05261)
Strobe/Lamp Enabled: No (USB2+H05261)
Correct for Detector Non-linearity: No (USB2+H05261)
Correct for Stray Light: No (USB2+H05261)
Number of Pixels in Processed Spectrum: 2048
>>>>>Begin Processed Spectral Data<<<<<
365.73	63.19
365.92	63.19
366.12	63.19
366.32	60.85
366.52	0.00
366.72	77.24
366.91	28.09
367.11	46.81
367.31	77.24
367.51	7.02
367.70	56.17
367.90	0.00
368.10	0.00
368.30	16.38
368.49	0.00
368.69	81.92
368.89	84.26
369.09	11.70
369.28	0.00
369.48	49.15
369.68	72.56
369.87	117.03
370.07	140.43
370.27	124.05
370.47	173.20
370.66	388.53
370.86	313.63
371.06	416.62
371.25	404.91
371.45	393.21
371.65	416.62
371.84	404.91
372.04	435.34
372.24	442.36
372.44	493.85
372.63	470.45
372.83	416.62
373.03	395.55
373.22	472.79
373.42	535.98
373.62	521.94
373.81	468.11
374.01	477.47
374.21	533.64
374.40	564.07
374.60	594.50
374.79	526.62
374.99	564.07
375.19	552.37
375.38	601.52
375.58	521.94
375.78	592.16
375.97	573.43
376.17	613.22
376.37	535.98
376.56	533.64
376.76	587.47
376.95	587.47
377.15	613.22
377.35	592.16
377.54	566.41
377.74	681.10
377.93	634.29
378.13	573.43
378.33	592.16
378.52	571.09
378.72	540.66
378.91	704.50
379.11	547.69
379.31	557.05
379.50	594.50
379.70	660.03
379.89	660.03
380.09	690.46
380.28	648.33
380.48	664.71
380.68	697.48
380.87	631.94
381.07	638.97
381.26	653.01
381.46	676.41
381.65	648.33
381.85	657.69
382.04	650.67
382.24	664.71
382.43	709.18
382.63	655.35
382.83	631.94
383.02	681.10
383.22	620.24
383.41	667.05
383.61	681.10
383.80	725.57
384.00	746.63
384.19	688.12
384.39	706.84
384.58	751.31
384.78	755.99
384.97	681.10
385.17	653.01
385.36	781.74
385.56	847.27
385.75	664.71
385.95	704.50
386.14	690.46
386.34	732.59
386.53	734.93
386.72	821.53
386.92	830.89
387.11	777.06
387.31	809.83
387.50	770.04
387.70	826.21
387.89	805.14
388.09	798.12
388.28	828.55
388.48	791.10
388.67	863.66
388.86	809.83
389.06	924.51
389.25	896.43
389.45	814.51
389.64	922.17
389.84	924.51
390.03	924.51
390.22	889.40
390.42	901.11
390.61	877.70
390.81	908.13
391.00	1036.86
391.19	882.38
391.39	933.87
391.58	1018.13
391.78	968.98
391.97	936.21
392.16	894.08
392.36	1039.20
392.55	908.13
392.75	964.30
392.94	983.02
393.13	1001.75
393.33	908.13
393.52	1001.75
393.71	994.73
393.91	1034.52
394.10	1053.24
394.29	1050.90
394.49	999.41
394.68	1048.56
394.88	1086.01
395.07	1163.25
395.26	1036.86
395.46	1081.33
395.65	1137.50
395.84	1118.78
396.04	1130.48
396.23	1100.05
396.42	1076.65
396.62	1125.80
396.81	1146.86
397.00	1128.14
397.19	1123.46
397.39	1132.82
397.58	1242.82
397.77	1259.21
397.97	1249.85
398.16	1277.93
398.35	1228.78
398.55	1301.34
398.74	1373.89
398.93	1355.17
399.12	1287.29
399.32	1273.25
399.51	1266.23
399.70	1313.04
399.90	1299.00
400.09	1425.39
400.28	1397.30
400.47	1446.45
400.67	1540.07
400.86	1401.98
401.05	1488.58
401.24	1465.18
401.44	1497.94
401.63	1556.46
401.82	1507.30
402.01	1486.24
402.21	1528.37
402.40	1509.65
402.59	1432.41
402.78	1528.37
402.97	1500.28
403.17	1514.33
403.36	1593.90
403.55	1603.27
403.74	1596.25
403.93	1633.69
404.13	1696.89
404.32	1680.50
404.51	1645.40
404.70	1692.21
404.89	1717.95
405.09	1659.44
405.28	1881.79
405.47	1790.51
405.66	1781.15
405.85	1689.87
406.05	1746.04
406.24	1734.34
406.43	1823.28
406.62	1837.32
406.81	1783.49
407.00	1802.21
407.20	1867.75
407.39	1827.96
407.58	1867.75
407.77	1771.79
407.96	1942.64
408.15	2015.20
408.34	1928.60
408.54	2050.31
408.73	2059.67
408.92	2019.88
409.11	2071.37
409.30	2054.99
409.49	2083.08
409.68	1996.48
409.87	2003.50
410.07	2045.63
410.26	2134.57
410.45	2143.93
410.64	2008.18
410.83	2228.19
411.02	2141.59
411.21	2150.95
411.40	2211.81
411.59	2303.09
411.78	2326.49
411.98	2244.57
412.17	2389.69
412.36	2413.09
412.55	2485.65
412.74	2307.77
412.93	2438.84
413.12	2502.03
413.31	2593.31
413.50	2471.61
413.69	2551.18
413.88	2588.63
414.07	2581.61
414.26	2605.02
414.45	2605.02
414.64	2534.80
414.83	2623.74
415.02	2675.23
415.22	2726.72
415.41	2839.07
415.60	2773.53
415.79	2897.58
415.98	2876.52
416.17	2939.71
416.36	2775.88
416.55	2846.09
416.74	2939.71
416.93	2878.86
417.12	2822.69
417.31	2918.65
417.50	2963.12
417.69	3094.19
417.88	3038.02
418.07	3045.04
418.26	2988.86
418.45	3068.44
418.64	3262.71
418.83	3117.59
419.02	3119.93
419.21	3145.68
419.39	3260.37
419.58	3178.45
419.77	3145.68
419.96	3290.79
420.15	3241.64
420.34	3267.39
420.53	3330.58
420.72	3442.93
420.91	3361.01
421.10	3456.97
421.29	3332.92
421.48	3393.78
421.67	3506.12
421.86	3417.18
422.05	3492.08
422.24	3417.18
422.43	3407.82
422.61	3433.57
422.80	3363.35
422.99	3602.08
423.18	3412.50
423.37	3562.30
423.56	3459.31
423.75	3403.14
423.94	3419.52
424.13	3321.22
424.32	3375.05
424.50	3548.25
424.69	3669.96
424.88	3566.98
425.07	3414.84
425.26	3566.98
425.45	3524.85
425.64	3478.04
425.83	3480.38
426.01	3417.18
426.20	3574.00
426.39	3679.32
426.58	3534.21
426.77	3449.95
426.96	3578.68
427.15	3499.10
427.33	3634.85
427.52	3555.27
427.71	3524.85
427.90	3709.75
428.09	3826.78
428.28	3660.60
428.46	3808.05
428.65	3857.20
428.84	3808.05
429.03	3831.46
429.22	3728.47
429.40	3805.71
429.59	3798.69
429.78	3712.09
429.97	3623.15
430.16	3716.77
430.34	3875.93
430.53	3805.71
430.72	3866.56
430.91	3911.04
431.10	3836.14
431.28	4067.85
431.47	4086.58
431.66	4259.78
431.85	4100.62
432.03	4121.68
432.22	4208.28
432.41	4079.55
432.60	4259.78
432.79	4145.09
432.97	4229.35
433.16	4280.84
433.35	4098.28
433.54	4182.54
433.72	4234.03
433.91	4276.16
434.10	4243.39
434.28	4292.54
434.47	4386.16
434.66	4568.73
434.85	4304.25
435.03	4383.82
435.22	4447.02
435.41	4550.00
435.59	4435.32
435.78	4456.38
435.97	4468.08
436.16	4573.41
436.34	4470.42
436.53	4580.43
436.72	4624.90
436.90	4655.33
437.09	4671.71
437.28	4482.13
437.46	4589.79
437.65	4770.01
437.84	4784.06
438.02	4737.24
438.21	4699.80
438.40	4681.07
438.58	4851.93
438.77	4917.47
438.96	4968.96
439.14	4973.64
439.33	4987.68
439.52	5008.75
439.70	5088.32
439.89	5078.96
440.08	5153.86
440.26	5060.24
440.45	5163.22
440.63	5254.50
440.82	5364.51
441.01	5301.31
441.19	5465.15
441.38	5453.45
441.57	5462.81
441.75	5455.79
441.94	5535.37
442.12	5465.15
442.31	5701.54
442.50	5682.82
442.68	5720.27
442.87	5699.20
443.05	5671.12
443.24	5678.14
443.43	5804.53
443.61	5764.74
443.80	6001.13
443.98	5563.45
444.17	5633.67
444.35	5872.40
444.54	5959.00
444.73	5701.54
444.91	5863.04
445.10	5844.32
445.28	5884.11
445.47	5762.40
445.65	5827.93
445.84	5849.00
446.02	5832.62
446.21	5928.58
446.39	5846.66
446.58	5973.05
446.77	6069.01
446.95	5771.76
447.14	6104.12
447.32	5991.77
447.51	5884.11
447.69	5933.26
447.88	5870.06
448.06	5947.30
448.25	6064.33
448.43	6029.22
448.62	6111.14
448.80	5893.47
448.99	6127.52
449.17	6104.12
449.36	6106.46
449.54	6298.38
449.73	6298.38
449.91	6396.68
450.10	6258.59
450.28	6492.65
450.46	6338.17
450.65	6459.88
450.83	6492.65
451.02	6565.20
451.20	6553.50
451.39	6476.26
451.57	6354.55
451.76	6455.20
451.94	6537.12
452.13	6544.14
452.31	6368.60
452.49	6387.32
452.68	6523.07
452.86	6452.86
453.05	6443.49
453.23	6511.37
453.42	6768.83
453.60	6525.41
453.78	6686.91
453.97	6640.10
454.15	6738.40
454.34	6635.42
454.52	6796.92
454.70	6832.02
454.89	6834.36
455.07	6691.59
455.26	6853.09
455.44	6988.84
455.62	6878.83
455.81	6738.40
455.99	7052.03
456.17	7059.06
456.36	7077.78
456.54	7143.32
456.73	7136.29
456.91	7241.62
457.09	7049.69
457.28	7314.17
457.46	7173.74
457.64	7276.73
457.83	7304.81
458.01	7138.63
458.19	7328.22
458.38	7382.05
458.56	7396.09
458.74	7403.11
458.93	7485.03
459.11	7360.98
459.29	7428.86
459.48	7480.35
459.66	7503.76
459.84	7660.57
460.03	7672.28
460.21	7564.61
460.39	7510.78
460.57	7632.49
460.76	7679.30
460.94	7763.56
461.12	7803.35
461.31	7768.24
461.49	7679.30
461.67	7616.10
461.85	8152.09
462.04	7786.96
462.22	7995.27
462.40	8002.29
462.59	7985.91
462.77	7939.10
462.95	7859.52
463.13	7978.89
463.32	7929.74
463.50	8222.30
463.68	8088.89
463.86	8170.81
464.05	8107.62
464.23	8035.06
464.41	8152.09
464.59	7875.90
464.78	8344.01
464.96	8147.40
465.14	8037.40
465.32	8451.67
465.50	8451.67
465.69	8348.69
465.87	8175.49
466.05	8355.71
466.23	8294.86
466.41	8439.97
466.60	8568.70
466.78	8332.31
466.96	8250.39
467.14	8489.12
467.32	8348.69
467.51	8755.94
467.69	8446.99
467.87	8475.08
468.05	8554.66
468.23	8446.99
468.41	8435.29
468.60	8486.78
468.78	8730.20
468.96	8725.52
469.14	8725.52
469.32	8781.69
469.50	8533.59
469.69	8933.82
469.87	8805.10
470.05	8908.08
470.23	9013.40
470.41	8945.53
470.59	8961.91
470.77	9078.94
470.95	9062.55
471.14	9062.55
471.32	8887.01
471.50	9226.39
471.68	9174.90
471.86	9331.72
472.04	9317.67
472.22	9575.13
472.40	9338.74
472.58	9451.08
472.77	9401.93
472.95	9490.87
473.13	9921.53
473.31	9591.52
473.49	9537.68
473.67	9586.83
473.85	9785.78
474.03	10003.45
474.21	9963.66
474.39	10026.86
474.57	9907.49
474.75	10181.33
474.93	10029.20
475.12	10057.28
475.30	10176.65
475.48	10333.47
475.66	10415.38
475.84	10064.30
476.02	10366.23
476.20	10352.19
476.38	10626.03
476.56	10803.91
476.74	10738.38
476.92	10569.86
477.10	10691.57
477.28	10991.16
477.46	11049.67
477.64	11206.48
477.82	11232.23
478.00	11351.60
478.18	11370.32
478.36	11386.71
478.54	11398.41
478.72	11487.35
478.90	11407.77
479.08	11829.07
479.26	11698.00
479.44	11971.84
479.62	12042.06
479.80	12196.53
479.98	12180.15
480.16	12402.50
480.34	12285.47
480.52	12535.91
480.70	12650.60
480.88	12528.89
481.06	12540.59
481.24	12662.30
481.41	12648.26
481.59	12863.58
481.77	13099.98
481.95	13151.47
482.13	13217.01
482.31	13289.56
482.49	13404.25
482.67	13486.17
482.85	13832.57
483.03	13980.02
483.21	14132.15
483.39	14155.56
483.57	13745.97
483.74	14146.20
483.92	14307.69
484.10	14143.86
484.28	14520.68
484.46	14633.03
484.64	14787.50
484.82	14827.29
485.00	14663.46
485.18	15129.22
485.35	14927.94
485.53	15054.33
485.71	15002.83
485.89	15337.53
486.07	15201.78
486.25	15529.45
486.43	15573.92
486.61	15630.10
486.78	15896.92
486.96	16006.92
487.14	16484.39
487.32	16311.19
487.50	16435.24
487.68	16322.90
487.85	16798.02
488.03	17020.38
488.21	17076.55
488.39	17170.17
488.57	17114.00
488.75	17102.29
488.92	17626.57
489.10	17666.36
489.28	17795.09
489.46	17970.63
489.64	17757.64
489.81	18548.75
489.99	18689.18
490.17	18621.30
490.35	18576.83
490.53	18492.57
490.70	18845.99
490.88	18614.28
491.06	19400.70
491.24	19103.45
491.41	19051.96
491.59	19122.18
491.77	19271.97
491.95	19243.88
492.13	19653.48
492.30	19742.42
492.48	20121.59
492.66	20077.12
492.84	20381.38
493.01	20367.34
493.19	19843.06
493.37	20283.08
493.54	20620.12
493.72	20793.32
493.90	20868.22
494.08	20833.11
494.25	21085.89
494.43	21179.51
494.61	21451.01
494.79	21453.35
494.96	21212.28
495.14	21975.29
495.32	21902.73
495.49	21797.41
495.67	22120.40
495.85	22207.00
496.02	22012.74
496.20	22309.99
496.38	22391.91
496.55	22438.72
496.73	23253.22
496.91	22721.92
497.09	23016.83
497.26	23164.28
497.44	23035.55
497.62	23098.75
497.79	23440.47
497.97	23358.55
498.14	23318.76
498.32	23515.36
498.50	23857.08
498.67	23700.26
498.85	23655.79
499.03	24189.44
499.20	24011.56
499.38	23889.85
499.56	24252.63
499.73	24542.86
499.91	24215.18
500.08	24561.58
500.26	24692.65
500.44	24519.45
500.61	24575.62
500.79	24989.90
500.97	25106.93
501.14	25521.20
501.32	24716.06
501.49	25132.67
501.67	24823.72
501.84	24924.36
502.02	25359.70
502.20	25474.39
502.37	25685.04
502.55	25752.91
502.72	26176.55
502.90	25872.28
503.07	25944.84
503.25	26008.03
503.43	25972.92
503.60	25923.77
503.78	25792.70
503.95	26375.50
504.13	26305.28
504.30	26253.79
504.48	26466.78
504.65	26939.57
504.83	26771.05
505.01	27395.97
505.18	27246.18
505.36	26977.01
505.53	26953.61
505.71	27002.76
505.88	27318.73
506.06	27033.19
506.23	27824.29
506.41	27515.34
506.58	27421.72
506.76	27501.29
506.93	28119.20
507.11	27821.95
507.28	27798.54
507.46	27723.65
507.63	28198.77
507.81	27999.83
507.98	27899.19
508.16	28121.54
508.33	28545.17
508.50	28767.52
508.68	28545.17
508.85	28594.32
509.03	29008.60
509.20	28425.81
509.38	29151.37
509.55	29158.39
509.73	29174.78
509.90	29149.03
510.08	29010.94
510.25	29301.17
510.42	29415.85
510.60	29727.14
510.77	29394.79
510.95	29603.10
511.12	29488.41
511.30	29816.08
511.47	29780.98
511.64	30249.08
511.82	30312.28
511.99	29893.32
512.17	30445.69
512.34	29998.65
512.51	30195.25
512.69	30312.28
512.86	30314.62
513.04	30789.75
513.21	30754.64
513.38	30504.20
513.56	30754.64
513.73	30871.67
513.90	30721.87
514.08	31180.62
514.25	31318.71
514.43	30646.97
514.60	30974.65
514.77	30981.67
514.95	31454.46
515.12	31201.68
515.29	31459.14
515.47	31564.46
515.64	31882.78
515.81	31463.82
515.99	31620.64
516.16	31758.73
516.33	31330.41
516.51	31672.13
516.68	31381.90
516.85	31508.29
517.03	31653.40
517.20	31700.22
517.37	32025.55
517.54	32385.99
517.72	32465.57
517.89	32055.98
518.06	32053.64
518.24	32208.11
518.41	32226.84
518.58	32257.26
518.75	32219.81
518.93	32858.78
519.10	32477.27
519.27	32912.61
519.45	32727.71
519.62	32926.66
519.79	33331.57
519.96	33324.55
520.14	33221.56
520.31	32912.61
520.48	33181.77
520.65	33425.19
520.83	33469.66
521.00	33940.11
521.17	33420.51
521.34	33816.06
521.52	33598.39
521.69	33991.60
521.86	34113.31
522.03	34071.18
522.20	33909.68
522.38	34134.37
522.55	34113.31
522.72	34085.22
522.89	34164.80
523.07	34347.36
523.24	34132.03
523.41	34618.86
523.58	34157.78
523.75	34677.38
523.92	34937.18
524.10	34920.79
524.27	35152.51
524.44	34909.09
524.61	34951.22
524.78	35122.08
524.96	35421.67
525.13	35110.38
525.30	35571.46
525.47	35964.67
525.64	35342.09
525.81	35651.04
525.98	35386.56
526.16	35316.34
526.33	35576.14
526.50	35592.53
526.67	35414.65
526.84	35363.15
527.01	35393.58
527.18	35594.87
527.36	36259.58
527.53	35938.93
527.70	35861.69
527.87	36091.06
528.04	35941.27
528.21	36018.50
528.38	36093.40
528.55	36662.15
528.72	36568.53
528.89	36449.16
529.07	36456.18
529.24	36397.67
529.41	36500.65
529.58	36189.36
529.75	36620.02
529.92	36566.19
530.09	36678.54
530.26	36531.08
530.43	36669.17
530.60	37230.90
530.77	37057.70
530.94	36964.08
531.11	36690.24
531.28	37460.27
531.46	37289.42
531.63	37371.33
531.80	36821.31
531.97	37109.19
532.14	37130.26
532.31	36926.63
532.48	37556.24
532.65	37242.60
532.82	37141.96
532.99	37493.04
533.16	37535.17
533.33	37785.61
533.50	37834.76
533.67	37769.22
533.84	37612.41
534.01	37982.21
534.18	37834.76
534.35	38017.32
534.52	37708.37
534.69	38181.16
534.86	38298.19
535.03	37921.36
535.20	38480.75
535.37	38429.26
535.54	38590.75
535.71	38265.42
535.88	38181.16
536.05	38368.40
536.22	38398.83
536.38	38471.39
536.55	38658.63
536.72	38429.26
536.89	38209.25
537.06	38560.33
537.23	39023.75
537.40	38660.97
537.57	38639.90
537.74	38848.21
537.91	38918.43
538.08	39161.84
538.25	38927.79
538.42	38806.08
538.59	39466.11
538.75	38710.12
538.92	38845.87
539.09	38998.01
539.26	39189.93
539.43	39082.27
539.60	39147.80
539.77	38855.23
539.94	39416.96
540.11	38934.81
540.28	39524.63
540.44	39220.36
540.61	39414.62
540.78	39232.06
540.95	39278.87
541.12	39660.38
541.29	39189.93
541.46	39564.42
541.62	39648.68
541.79	39709.53
541.96	38988.64
542.13	39611.23
542.30	39910.82
542.47	39903.79
542.63	40486.59
542.80	40355.52
542.97	40271.26
543.14	40591.91
543.31	40315.73
543.48	40184.66
543.64	40807.24
543.81	41022.57
543.98	40364.88
544.15	40549.78
544.32	40547.44
544.48	40690.21
544.65	40697.24
544.82	40730.00
544.99	40353.18
545.16	40587.23
545.32	40662.13
545.49	40886.82
545.66	41244.92
545.83	40942.99
546.00	41214.49
546.16	40987.46
546.33	40786.18
546.50	40727.66
546.67	40786.18
546.83	40718.30
547.00	40872.78
547.17	41118.53
547.34	41265.99
547.50	41563.23
547.67	41401.74
547.84	41368.97
548.00	41144.28
548.17	41588.98
548.34	41226.20
548.51	41357.27
548.67	41766.86
548.84	41558.55
549.01	41591.32
549.18	41261.30
549.34	41663.88
549.51	41790.27
549.68	41902.61
549.84	41488.34
550.01	41886.23
550.18	41387.69
550.34	41750.48
550.51	42031.34
550.68	41928.36
550.84	41469.61
551.01	42087.51
551.18	41820.69
551.34	41947.08
551.51	42433.91
551.68	42394.12
551.84	41930.70
552.01	42305.18
552.18	42054.75
552.34	41970.49
552.51	42574.34
552.68	41991.55
552.84	42541.58
553.01	42454.98
553.18	42199.86
553.34	42155.39
553.51	42131.98
553.67	42328.59
553.84	42642.22
554.01	42674.99
554.17	42892.66
554.34	42433.91
554.51	42836.48
554.67	42604.77
554.84	42703.07
555.00	42244.33
555.17	42635.20
555.33	42550.94
555.50	42106.24
555.67	43005.00
555.83	42726.48
556.00	42824.78
556.16	42850.53
556.33	43098.62
556.50	42806.06
556.66	43150.12
556.83	42962.87
556.99	43152.46
557.16	43306.93
557.32	43196.93
557.49	43517.58
557.65	42918.40
557.82	42803.72
557.98	43164.16
558.15	43159.48
558.32	43215.65
558.48	42782.65
558.65	42850.53
558.81	43143.09
558.98	43028.41
559.14	43342.04
559.31	42941.81
559.47	43126.71
559.64	43126.71
559.80	43489.49
559.97	43281.19
560.13	42969.90
560.30	43360.76
560.46	43241.40
560.63	43274.16
560.79	43840.57
560.96	43913.13
561.12	43817.17
561.29	43330.34
561.45	43580.78
561.61	43229.69
561.78	43288.21
561.94	43487.15
562.11	43473.11
562.27	43737.59
562.44	43618.22
562.60	43943.56
562.77	43445.02
562.93	43917.81
563.10	43840.57
563.26	43241.40
563.42	43622.90
563.59	43498.86
563.75	43093.94
563.92	44037.18
564.08	43688.44
564.24	44254.85
564.41	43440.34
564.57	43749.29
564.74	43508.22
564.90	43725.89
565.07	43569.07
565.23	43730.57
565.39	43615.88
565.56	43941.22
565.72	43407.58
565.88	43906.11
566.05	43763.34
566.21	43856.96
566.38	43339.70
566.54	43917.81
566.70	44261.87
566.87	44016.11
567.03	44247.83
567.19	44318.04
567.36	43845.26
567.52	43985.69
567.68	43899.09
567.85	44189.31
568.01	44119.10
568.17	43440.34
568.34	44332.09
568.50	43882.70
568.66	44009.09
568.83	43908.45
568.99	43768.02
569.15	43545.67
569.32	43908.45
569.48	43728.23
569.64	44205.70
569.81	44451.45
569.97	43915.47
570.13	44161.23
570.30	43959.94
570.46	44126.12
570.62	44095.69
570.78	43957.60
570.95	43681.42
571.11	43985.69
571.27	44502.95
571.43	43845.26
571.60	43854.62
571.76	44135.48
571.92	44044.20
572.09	43971.64
572.25	43927.17
572.41	44133.14
572.57	44570.82
572.74	44559.12
572.90	44013.77
573.06	44418.69
573.22	43988.03
573.38	44020.80
573.55	43835.89
573.71	44273.57
573.87	44360.17
574.03	43992.71
574.20	44320.38
574.36	44315.70
574.52	44135.48
574.68	44177.61
574.84	44247.83
575.01	44184.63
575.17	44252.51
575.33	44720.62
575.49	44189.31
575.65	44245.49
575.82	44741.68
575.98	44023.14
576.14	44304.00
576.30	44617.63
576.46	44222.08
576.62	44212.72
576.79	44399.96
576.95	43995.05
577.11	44175.27
577.27	44353.15
577.43	44158.89
577.59	44322.72
577.75	44381.24
577.92	43775.04
578.08	44002.07
578.24	43786.74
578.40	44477.20
578.56	44502.95
578.72	44559.12
578.88	44458.48
579.04	44449.11
579.21	44371.88
579.37	43969.30
579.53	44411.67
579.69	44133.14
579.85	44465.50
580.01	44325.07
580.17	44252.51
580.33	44158.89
580.49	44786.15
580.65	44737.00
580.82	44575.50
580.98	44608.27
581.14	44027.82
581.30	44769.77
581.46	44294.64
581.62	44549.76
581.78	44526.35
581.94	44898.50
582.10	44456.14
582.26	44203.36
582.42	44601.25
582.58	44594.23
582.74	44327.41
582.90	44666.78
583.06	45132.55
583.22	44552.10
583.38	44467.84
583.54	44879.77
583.70	44729.98
583.86	44505.29
584.02	44502.95
584.18	44765.09
584.34	44631.68
584.50	44650.40
584.66	44280.60
584.82	44287.62
584.98	44957.01
585.14	44704.23
585.30	44439.75
585.46	44650.40
585.62	44224.42
585.78	44683.17
585.94	44296.98
586.10	44591.89
586.26	44694.87
586.42	44582.52
586.58	44617.63
586.74	44498.26
586.90	44301.66
587.06	44545.08
587.22	44655.08
587.38	44037.18
587.54	44411.67
587.70	44622.31
587.86	44439.75
588.02	44634.02
588.18	44959.35
588.34	44755.72
588.49	44355.49
588.65	44105.06
588.81	44402.30
588.97	44442.09
589.13	43796.10
589.29	44493.58
589.45	44580.18
589.61	44369.54
589.77	44561.46
589.93	44657.42
590.08	44631.68
590.24	44706.57
