SpectraSuite Data File
++++++++++++++++++++++++++++++++++++
Date: Fri Oct 25 11:26:19 EDT 2013
User: price-jones
Dark Spectrum Present: No
Reference Spectrum Present: No
Number of Sampled Component Spectra: 1
Spectrometers: USB2+H05261
Integration Time (usec): 100000 (USB2+H05261)
Spectra Averaged: 1 (USB2+H05261)
Boxcar Smoothing: 0 (USB2+H05261)
Correct for Electrical Dark: No (USB2+H05261)
Strobe/Lamp Enabled: No (USB2+H05261)
Correct for Detector Non-linearity: No (USB2+H05261)
Correct for Stray Light: No (USB2+H05261)
Number of Pixels in Processed Spectrum: 2048
>>>>>Begin Processed Spectral Data<<<<<
365.73	238.73
365.92	238.73
366.12	238.73
366.32	133.41
366.52	168.52
366.72	131.07
366.91	184.90
367.11	88.94
367.31	88.94
367.51	81.92
367.70	161.50
367.90	189.58
368.10	102.98
368.30	177.88
368.49	203.63
368.69	161.50
368.89	119.37
369.09	203.63
369.28	159.16
369.48	177.88
369.68	180.22
369.87	166.18
370.07	187.24
370.27	154.48
370.47	278.52
370.66	636.63
370.86	688.12
371.06	688.12
371.25	685.78
371.45	638.97
371.65	667.05
371.84	674.07
372.04	631.94
372.24	725.57
372.44	653.01
372.63	723.23
372.83	653.01
373.03	676.41
373.22	697.48
373.42	671.73
373.62	786.42
373.81	755.99
374.01	805.14
374.21	887.06
374.40	842.59
374.60	868.34
374.79	795.78
374.99	788.76
375.19	940.90
375.38	891.74
375.58	821.53
375.78	877.70
375.97	861.32
376.17	985.37
376.37	938.55
376.56	877.70
376.76	912.81
376.95	814.51
377.15	917.49
377.35	894.08
377.54	945.58
377.74	856.64
377.93	814.51
378.13	936.21
378.33	922.17
378.52	891.74
378.72	968.98
378.91	966.64
379.11	936.21
379.31	980.68
379.50	966.64
379.70	1025.15
379.89	1081.33
380.09	966.64
380.28	966.64
380.48	1001.75
380.68	1076.65
380.87	933.87
381.07	985.37
381.26	1055.58
381.46	968.98
381.65	1067.28
381.85	1067.28
382.04	1095.37
382.24	1067.28
382.43	992.39
382.63	1069.62
382.83	1102.39
383.02	1123.46
383.22	1144.52
383.41	1163.25
383.61	1067.28
383.80	1191.33
384.00	1074.31
384.19	1149.20
384.39	1060.26
384.58	1116.44
384.78	1158.57
384.97	1088.35
385.17	1184.31
385.36	1240.48
385.56	1219.42
385.75	1104.73
385.95	1167.93
386.14	1212.40
386.34	1179.63
386.53	1165.59
386.72	1179.63
386.92	1205.38
387.11	1310.70
387.31	1149.20
387.50	1205.38
387.70	1207.72
387.89	1203.04
388.09	1228.78
388.28	1366.87
388.48	1259.21
388.67	1380.92
388.86	1322.40
389.06	1352.83
389.25	1303.68
389.45	1357.51
389.64	1355.17
389.84	1350.49
390.03	1359.85
390.22	1387.94
390.42	1273.25
390.61	1352.83
390.81	1448.79
391.00	1430.07
391.19	1460.49
391.39	1406.66
391.58	1497.94
391.78	1453.47
391.97	1420.71
392.16	1409.00
392.36	1502.62
392.55	1572.84
392.75	1486.24
392.94	1519.01
393.13	1540.07
393.33	1490.92
393.52	1556.46
393.71	1577.52
393.91	1603.27
394.10	1493.26
394.29	1636.03
394.49	1526.03
394.68	1652.42
394.88	1565.82
395.07	1678.16
395.26	1582.20
395.46	1739.02
395.65	1771.79
395.84	1664.12
396.04	1802.21
396.23	1732.00
396.42	1732.00
396.62	1708.59
396.81	1839.66
397.00	1811.57
397.19	1853.70
397.39	1809.23
397.58	1858.39
397.77	1753.06
397.97	1914.56
398.16	1792.85
398.35	1905.20
398.55	1870.09
398.74	1881.79
398.93	1959.03
399.12	1839.66
399.32	1874.77
399.51	1895.83
399.70	2024.56
399.90	2050.31
400.09	2059.67
400.28	1994.14
400.47	2094.78
400.67	2005.84
400.86	2033.93
401.05	1980.09
401.24	2172.02
401.44	2064.35
401.63	2155.63
401.82	2085.42
402.01	2069.03
402.21	2143.93
402.40	2211.81
402.59	2195.42
402.78	2143.93
402.97	2165.00
403.17	2237.55
403.36	2359.26
403.55	2214.15
403.74	2392.03
403.93	2427.14
404.13	2370.96
404.32	2356.92
404.51	2382.67
404.70	2485.65
404.89	2413.09
405.09	2576.93
405.28	2476.29
405.47	2499.69
405.66	2476.29
405.85	2513.74
406.05	2539.48
406.24	2548.84
406.43	2506.71
406.62	2658.85
406.81	2649.49
407.00	2560.55
407.20	2616.72
407.39	2562.89
407.58	2546.50
407.77	2747.79
407.96	2722.04
408.15	2766.51
408.34	2738.43
408.54	2684.59
408.73	2768.85
408.92	2796.94
409.11	2939.71
409.30	2899.92
409.49	2853.11
409.68	2839.07
409.87	3030.99
410.07	2923.33
410.26	3068.44
410.45	2949.08
410.64	3126.96
410.83	3005.25
411.02	3021.63
411.21	2972.48
411.40	3204.19
411.59	3241.64
411.78	3227.60
411.98	3176.11
412.17	3281.43
412.36	3281.43
412.55	3288.45
412.74	3321.22
412.93	3426.54
413.12	3323.56
413.31	3618.47
413.50	3522.51
413.69	3452.29
413.88	3543.57
414.07	3403.14
414.26	3639.53
414.45	3674.64
414.64	3566.98
414.83	3599.74
415.02	3705.07
415.22	3887.63
415.41	3875.93
415.60	3899.33
415.79	3845.50
415.98	3866.56
416.17	3974.23
416.36	3990.61
416.55	3955.51
416.74	4072.53
416.93	4086.58
417.12	4163.81
417.31	4124.02
417.50	4173.18
417.69	4327.65
417.88	4306.59
418.07	4236.37
418.26	4255.09
418.45	4325.31
418.64	4432.97
418.83	4461.06
419.02	4395.53
419.21	4531.28
419.39	4526.60
419.58	4512.55
419.77	4444.68
419.96	4421.27
420.15	4692.77
420.34	4620.22
420.53	4650.64
420.72	4779.37
420.91	4730.22
421.10	4664.69
421.29	4812.14
421.48	4641.28
421.67	4695.11
421.86	4863.63
422.05	4755.97
422.24	4795.76
422.43	4894.06
422.61	4940.87
422.80	5050.88
422.99	5018.11
423.18	4896.40
423.37	4992.36
423.56	4798.10
423.75	4800.44
423.94	4828.53
424.13	4716.18
424.32	4809.80
424.50	4905.76
424.69	5088.32
424.88	5039.17
425.07	4966.62
425.26	4975.98
425.45	4957.25
425.64	4987.68
425.83	5078.96
426.01	5093.01
426.20	4924.49
426.39	4997.04
426.58	5039.17
426.77	4964.28
426.96	5210.03
427.15	5100.03
427.33	5181.95
427.52	5053.22
427.71	5210.03
427.90	5331.74
428.09	5408.98
428.28	5430.04
428.46	5373.87
428.65	5259.18
428.84	5451.11
429.03	5439.40
429.22	5336.42
429.40	5242.80
429.59	5458.13
429.78	5373.87
429.97	5195.99
430.16	5322.38
430.34	5516.64
430.53	5582.18
430.72	5589.20
430.91	5624.31
431.10	5568.13
431.28	5685.16
431.47	5806.87
431.66	5940.28
431.85	5795.17
432.03	5921.56
432.22	6115.82
432.41	5818.57
432.60	5888.79
432.79	6031.56
432.97	5818.57
433.16	6125.18
433.35	5973.05
433.54	6094.76
433.72	6162.63
433.91	6244.55
434.10	6148.59
434.28	6043.26
434.47	6157.95
434.66	6354.55
434.85	6249.23
435.03	6267.95
435.22	6239.87
435.41	6359.24
435.59	6452.86
435.78	6342.85
435.97	6466.90
436.16	6494.99
436.34	6478.60
436.53	6363.92
436.72	6691.59
436.90	6377.96
437.09	6700.95
437.28	6427.11
437.46	6476.26
437.65	6759.47
437.84	6799.26
438.02	6764.15
438.21	6710.32
438.40	6817.98
438.58	6902.24
438.77	6979.48
438.96	6764.15
439.14	7117.57
439.33	7026.29
439.52	7180.76
439.70	7152.68
439.89	7342.26
440.08	7094.16
440.26	7302.47
440.45	7363.33
440.63	7375.03
440.82	7595.04
441.01	7480.35
441.19	7538.87
441.38	7700.36
441.57	7777.60
441.75	7784.62
441.94	7864.20
442.12	7969.52
442.31	8063.15
442.50	7838.45
442.68	7990.59
442.87	7871.22
443.05	8011.65
443.24	8196.56
443.43	8126.34
443.61	8142.72
443.80	8287.84
443.98	8098.25
444.17	7868.88
444.35	8063.15
444.54	8243.37
444.73	8100.59
444.91	8301.88
445.10	8336.99
445.28	8376.78
445.47	8318.26
445.65	8336.99
445.84	8599.13
446.02	8514.87
446.21	8285.50
446.39	8294.86
446.58	8372.10
446.77	8695.09
446.95	8231.66
447.14	8397.84
447.32	8568.70
447.51	8362.73
447.69	8353.37
447.88	8479.76
448.06	8540.61
448.25	8573.38
448.43	8482.10
448.62	8631.90
448.80	8634.24
448.99	8575.72
449.17	8898.72
449.36	8578.06
449.54	8833.18
449.73	9001.70
449.91	8912.76
450.10	8952.55
450.28	8975.95
450.46	9097.66
450.65	8912.76
450.83	9160.86
451.02	9041.49
451.20	9320.01
451.39	8980.64
451.57	8940.85
451.76	9018.08
451.94	9312.99
452.13	9320.01
452.31	9357.46
452.49	9212.35
452.68	9238.09
452.86	9186.60
453.05	9387.89
453.23	9621.94
453.42	9366.82
453.60	9210.01
453.78	9415.98
453.97	9437.04
454.15	9713.22
454.34	9359.80
454.52	9366.82
454.70	9764.72
454.89	9635.99
455.07	9689.82
455.26	9848.97
455.44	9905.15
455.62	9905.15
455.81	9863.02
455.99	10108.77
456.17	10024.51
456.36	10094.73
456.54	10043.24
456.73	10202.40
456.91	10583.90
457.09	10448.15
457.28	10611.99
457.46	10298.36
457.64	10471.56
457.83	10518.37
458.01	10333.47
458.19	10747.74
458.38	10684.55
458.56	10518.37
458.74	10562.84
458.93	10375.59
459.11	10670.50
459.29	10721.99
459.48	10721.99
459.66	10649.44
459.84	10981.79
460.03	11087.12
460.21	10970.09
460.39	10967.75
460.57	11159.67
460.76	11154.99
460.94	11140.95
461.12	11227.55
461.31	10981.79
461.49	11061.37
461.67	11126.91
461.85	11379.68
462.04	11225.21
462.22	11555.22
462.40	11576.29
462.59	11353.94
462.77	11290.74
462.95	11592.67
463.13	11529.48
463.32	11784.60
463.50	11765.87
463.68	11833.75
463.86	11587.99
464.05	11683.95
464.23	11749.49
464.41	11761.19
464.59	11655.87
464.78	12098.23
464.96	12109.93
465.14	11754.17
465.32	12093.55
465.50	12042.06
465.69	12042.06
465.87	12119.29
466.05	12292.49
466.23	12262.07
466.41	12189.51
466.60	12657.62
466.78	12191.85
466.96	12070.14
467.14	12154.40
467.32	12526.55
467.51	12353.35
467.69	12145.04
467.87	12257.39
468.05	12505.48
468.23	12458.67
468.41	12589.74
468.60	12500.80
468.78	12711.45
468.96	12320.58
469.14	12776.98
469.32	13195.94
469.50	12578.04
469.69	12999.34
469.87	12978.27
470.05	13343.39
470.23	12879.97
470.41	12982.95
470.59	13219.35
470.77	13317.65
470.95	12973.59
471.14	13460.42
471.32	13142.11
471.50	13675.75
471.68	13493.19
471.86	13568.09
472.04	13727.24
472.22	14146.20
472.40	13830.23
472.58	13956.61
472.77	13685.11
472.95	14061.94
473.13	14586.22
473.31	13881.72
473.49	14122.79
473.67	14132.15
473.85	14333.44
474.03	14682.18
474.21	14492.60
474.39	14569.83
474.57	14717.29
474.75	14679.84
474.93	14810.91
475.12	14967.73
475.30	15005.17
475.48	14923.26
475.66	15208.80
475.84	15140.93
476.02	15372.64
476.20	15356.25
476.38	15707.34
476.56	15829.04
476.74	16154.38
476.92	15754.15
477.10	15751.81
477.28	16208.21
477.46	16407.16
477.64	16428.22
477.82	16666.95
478.00	16870.58
478.18	16779.30
478.36	16933.78
478.54	16945.48
478.72	17179.53
478.90	17465.08
479.08	17504.87
479.26	17334.01
479.44	17621.89
479.62	17755.30
479.80	17972.97
479.98	18052.55
480.16	18424.70
480.34	17987.02
480.52	18539.38
480.70	18508.96
480.88	18136.81
481.06	18656.41
481.24	18892.80
481.41	19037.92
481.59	18927.91
481.77	19412.40
481.95	19140.90
482.13	19487.30
482.31	19693.27
482.49	20301.81
482.67	19880.51
482.85	20339.26
483.03	20294.79
483.21	20570.97
483.39	20833.11
483.57	20613.10
483.74	21144.40
483.92	21139.72
484.10	21013.33
484.28	22038.48
484.46	21628.89
484.64	22059.55
484.82	21591.44
485.00	22251.47
485.18	22693.83
485.35	22951.29
485.53	22906.82
485.71	23012.15
485.89	23381.95
486.07	23250.88
486.25	23417.06
486.43	23506.00
486.61	23800.91
486.78	24201.14
486.96	23983.47
487.14	24531.15
487.32	24629.46
487.50	24905.64
487.68	25017.99
487.85	25153.74
488.03	25671.00
488.21	25750.57
488.39	25867.60
488.57	25954.20
488.75	25942.50
488.92	26534.65
489.10	26939.57
489.28	26719.56
489.46	26941.91
489.64	26962.97
489.81	27283.62
489.99	27505.98
490.17	27583.21
490.35	27964.72
490.53	27723.65
490.70	28388.36
490.88	28224.52
491.06	29015.62
491.24	28797.95
491.41	29137.33
491.59	29113.92
491.77	28954.77
491.95	29378.40
492.13	29483.73
492.30	29813.74
492.48	29914.39
492.66	29748.21
492.84	30012.69
493.01	30771.02
493.19	30728.89
493.37	30396.54
493.54	30965.29
493.72	30976.99
493.90	31292.96
494.08	31658.09
494.25	31969.38
494.43	32084.06
494.61	32247.90
494.79	32699.62
494.96	32163.64
495.14	32596.64
495.32	33247.31
495.49	33184.12
495.67	33006.23
495.85	33546.90
496.02	33743.50
496.20	33893.30
496.38	34033.73
496.55	33628.82
496.73	34923.13
496.91	34436.30
497.09	34780.36
497.26	34920.79
497.44	35189.95
497.62	34881.00
497.79	35487.20
497.97	35421.67
498.14	35845.30
498.32	36062.97
498.50	36137.87
498.67	36243.20
498.85	36521.72
499.03	36428.10
499.20	36334.48
499.38	36727.69
499.56	36531.08
499.73	36849.39
499.91	37055.36
500.08	37046.00
500.26	37249.63
500.44	37446.23
500.61	37539.85
500.79	37659.22
500.97	38160.09
501.14	38501.81
501.32	37951.79
501.49	38293.50
501.67	38539.26
501.84	38663.31
502.02	38892.68
502.20	38583.73
502.37	39210.99
502.55	39157.16
502.72	39548.03
502.90	39491.86
503.07	39225.04
503.25	39641.65
503.43	39791.45
503.60	39662.72
503.78	40182.32
503.95	40299.34
504.13	40212.74
504.30	40545.10
504.48	40105.08
504.65	40184.66
504.83	40921.93
505.01	41184.07
505.18	40919.59
505.36	41572.60
505.53	41720.05
505.71	41085.76
505.88	41408.76
506.06	41188.75
506.23	41450.89
506.41	41654.51
506.58	42029.00
506.76	42246.67
506.93	42529.87
507.11	42017.30
507.28	42520.51
507.46	42707.76
507.63	42401.14
507.81	43290.55
507.98	42382.42
508.16	43140.75
508.33	43091.60
508.50	43318.64
508.68	43323.32
508.85	43744.61
509.03	43768.02
509.20	43835.89
509.38	44266.55
509.55	44259.53
509.73	44210.38
509.90	44533.37
510.08	44271.23
510.25	44083.99
510.42	44547.42
510.60	44949.99
510.77	44739.34
510.95	45478.95
511.12	44863.39
511.30	45401.71
511.47	45191.06
511.64	45441.50
511.82	45621.72
511.99	45682.58
512.17	45851.09
512.34	45523.42
512.51	46476.02
512.69	46504.10
512.86	46483.04
513.04	46263.03
513.21	46251.33
513.38	46754.54
513.56	46506.44
513.73	46433.89
513.90	46735.82
514.08	46630.49
514.25	46937.10
514.43	47124.35
514.60	47309.25
514.77	47400.53
514.95	47779.70
515.12	47360.74
515.29	47213.29
515.47	48107.37
515.64	48135.46
515.81	47515.22
515.99	47772.67
516.16	48327.38
516.33	48240.78
516.51	48715.91
516.68	48680.80
516.85	48493.56
517.03	48903.15
517.20	48744.00
517.37	48587.18
517.54	48772.08
517.72	48650.38
517.89	48877.41
518.06	49062.31
518.24	48736.98
518.41	48933.58
518.58	49127.84
518.75	49457.86
518.93	49457.86
519.10	48994.43
519.27	49858.09
519.45	49851.07
519.62	49457.86
519.79	49879.16
519.96	49757.45
520.14	50019.59
520.31	50007.89
520.48	50314.50
520.65	50335.56
520.83	50646.85
521.00	50227.90
521.17	50468.97
521.34	50576.64
521.52	50946.44
521.69	50625.79
521.86	50885.59
522.03	50204.49
522.20	51182.84
522.38	51388.80
522.55	51484.76
522.72	51145.39
522.89	51152.41
523.07	51484.76
523.24	51400.50
523.41	51744.56
523.58	51576.04
523.75	51920.10
523.92	51545.62
524.10	51519.87
524.27	52128.41
524.44	52013.73
524.61	52168.20
524.78	51817.12
524.96	52076.92
525.13	52205.65
525.30	52325.02
525.47	52624.60
525.64	52615.24
525.81	52624.60
525.98	52601.20
526.16	52423.32
526.33	52762.70
526.50	52650.35
526.67	52404.59
526.84	52575.45
527.01	52715.89
527.18	52739.29
527.36	52528.64
527.53	53020.16
527.70	53258.89
527.87	53188.67
528.04	53041.22
528.21	53043.56
528.38	53277.61
528.55	53361.87
528.72	53506.99
528.89	53422.73
529.07	53256.55
529.24	53240.17
529.41	53719.98
529.58	53614.65
529.75	53474.22
529.92	53394.64
530.09	53577.20
530.26	53675.51
530.43	54143.61
530.60	53956.37
530.77	53745.72
530.94	53799.55
531.11	53939.99
531.28	54054.67
531.46	53888.49
531.63	53712.95
531.80	54171.70
531.97	54239.57
532.14	54314.47
532.31	54522.78
532.48	54459.58
532.65	54625.76
532.82	54211.49
532.99	54852.80
533.16	54351.92
533.33	54740.45
533.50	54663.21
533.67	55033.02
533.84	54536.82
534.01	54815.35
534.18	54616.40
534.35	55327.92
534.52	54944.08
534.69	54988.55
534.86	55159.41
535.03	55009.61
535.20	55096.21
535.37	55356.01
535.54	55337.29
535.71	54974.50
535.88	55309.20
536.05	55187.49
536.22	55320.90
536.38	55529.21
536.55	55241.32
536.72	55400.48
536.89	55274.09
537.06	55615.81
537.23	55597.09
537.40	55608.79
537.57	55856.88
537.74	55594.74
537.91	55756.24
538.08	55957.53
538.25	55803.05
538.42	55709.43
538.59	56041.79
538.75	55725.81
538.92	55980.93
539.09	56240.73
539.26	56025.40
539.43	56154.13
539.60	56161.15
539.77	56147.11
539.94	56465.42
540.11	56144.77
540.28	56357.76
540.44	56484.15
540.61	56336.69
540.78	56303.93
540.95	56523.94
541.12	56273.50
541.29	56378.82
541.46	56453.72
541.62	56573.09
541.79	56743.95
541.96	56158.81
542.13	56444.36
542.30	56523.94
542.47	56996.73
542.63	56486.49
542.80	56905.44
542.97	57031.83
543.14	57186.31
543.31	57062.26
543.48	57125.46
543.64	57265.89
543.81	57352.49
543.98	57258.87
544.15	57214.40
544.32	57298.65
544.48	57509.30
544.65	57158.22
544.82	57169.93
544.99	57216.74
545.16	57162.90
545.32	57263.55
545.49	57546.75
545.66	57698.89
545.83	57598.24
546.00	57567.82
546.16	57467.17
546.33	57633.35
546.50	57286.95
546.67	57577.18
546.83	57048.22
547.00	57497.60
547.17	57710.59
547.34	57652.08
547.50	57872.09
547.67	57750.38
547.84	57808.89
548.00	57832.30
548.17	57951.66
548.34	57820.59
548.51	58213.80
548.67	58066.35
548.84	57996.13
549.01	57949.32
549.18	58106.14
549.34	58169.33
549.51	58148.27
549.68	58174.02
549.84	58211.46
550.01	58468.92
550.18	58241.89
550.34	58178.70
550.51	58478.28
550.68	58159.97
550.84	58045.29
551.01	58475.94
551.18	58300.40
551.34	58284.02
551.51	58639.78
551.68	58686.59
551.84	58426.79
552.01	58499.35
552.18	58698.30
552.34	58515.73
552.51	58667.87
552.68	58489.99
552.84	58712.34
553.01	58887.88
553.18	58567.23
553.34	58925.33
553.51	58625.74
553.67	58693.61
553.84	58857.45
554.01	58953.41
554.17	58845.75
554.34	58866.81
554.51	58831.71
554.67	58791.92
554.84	58932.35
555.00	58810.64
555.17	58922.99
555.33	59133.63
555.50	58880.86
555.67	58866.81
555.83	58941.71
556.00	59110.23
556.16	59135.98
556.33	59051.72
556.50	58993.20
556.66	59250.66
556.83	58857.45
556.99	59292.79
557.16	59318.54
557.32	59377.05
557.49	59447.27
557.65	59311.52
557.82	59461.31
557.98	59260.02
558.15	59461.31
558.32	59391.09
558.48	59351.30
558.65	59678.98
558.81	59503.44
558.98	59363.01
559.14	59391.09
559.31	59290.45
559.47	59653.23
559.64	59550.25
559.80	59475.35
559.97	59688.34
560.13	59353.65
560.30	59772.60
560.46	59580.68
560.63	59606.42
560.79	59662.60
560.96	59517.48
561.12	59704.73
561.29	59845.16
561.45	59863.88
561.61	59870.90
561.78	59880.27
561.94	59618.13
562.11	59803.03
562.27	59849.84
562.44	59880.27
562.60	59994.95
562.77	59936.44
562.93	59732.81
563.10	59887.29
563.26	59723.45
563.42	60055.81
563.59	59838.14
563.75	59889.63
563.92	59819.41
564.08	59796.01
564.24	60221.98
564.41	60104.96
564.57	60032.40
564.74	60065.17
564.90	60083.89
565.07	59938.78
565.23	60001.97
565.39	59774.94
565.56	60128.36
565.72	60081.55
565.88	60119.00
566.05	60027.72
566.21	59980.91
566.38	60207.94
566.54	60182.19
566.70	60205.60
566.87	60219.64
567.03	59955.16
567.19	60350.71
567.36	60214.96
567.52	60259.43
567.68	60404.55
567.85	60154.11
568.01	60231.35
568.17	60200.92
568.34	60247.73
568.50	60369.44
568.66	60367.10
568.83	60303.90
568.99	60123.68
569.15	60355.39
569.32	60399.86
569.48	60224.32
569.64	60390.50
569.81	60341.35
569.97	60273.48
570.13	60339.01
570.30	60179.85
570.46	60252.41
570.62	60390.50
570.78	60411.57
570.95	60299.22
571.11	60423.27
571.27	60343.69
571.43	60437.31
571.60	60523.91
571.76	60243.05
571.92	60491.15
572.09	60542.64
572.25	60353.05
572.41	60603.49
572.57	60507.53
572.74	60687.75
572.90	60397.52
573.06	60563.70
573.22	60491.15
573.38	60491.15
573.55	60418.59
573.71	60690.09
573.87	60783.71
574.03	60362.42
574.20	60760.31
574.36	60411.57
574.52	60622.22
574.68	60612.85
574.84	60755.63
575.01	60680.73
575.17	60650.30
575.33	60406.89
575.49	60697.11
575.65	60851.59
575.82	60690.09
575.98	60844.57
576.14	60891.38
576.30	60786.05
576.46	60509.87
576.62	60577.75
576.79	60809.46
576.95	60512.21
577.11	60725.20
577.27	60683.07
577.43	60596.47
577.59	60570.72
577.75	60680.73
577.92	60509.87
578.08	60764.99
578.24	60842.23
578.40	60762.65
578.56	60877.33
578.72	60633.92
578.88	60809.46
579.04	60952.23
579.21	60622.22
579.37	60903.08
579.53	60949.89
579.69	60516.89
579.85	60718.18
580.01	60828.18
580.17	60870.31
580.33	60769.67
580.49	60851.59
580.65	60807.12
580.82	60697.11
580.98	60891.38
581.14	60610.51
581.30	60963.93
581.46	60701.79
581.62	60889.04
581.78	60683.07
581.94	60811.80
582.10	60753.29
582.26	60725.20
582.42	60844.57
582.58	60797.76
582.74	60743.92
582.90	60711.16
583.06	60800.10
583.22	60795.42
583.38	60739.24
583.54	60851.59
583.70	60987.34
583.86	60795.42
584.02	60872.65
584.18	60743.92
584.34	60919.46
584.50	60956.91
584.66	60676.05
584.82	60860.95
584.98	60917.12
585.14	60886.70
585.30	60956.91
585.46	60907.76
585.62	60818.82
585.78	61036.49
585.94	60741.58
586.10	60898.40
586.26	60966.27
586.42	60938.19
586.58	61205.01
586.74	60975.64
586.90	60839.89
587.06	60889.04
587.22	61092.66
587.38	60970.96
587.54	61186.28
587.70	61230.75
587.86	60977.98
588.02	60970.96
588.18	61076.28
588.34	60907.76
588.49	60839.89
