SpectraSuite Data File
++++++++++++++++++++++++++++++++++++
Date: Fri Oct 25 10:48:11 EDT 2013
User: price-jones
Dark Spectrum Present: No
Reference Spectrum Present: No
Number of Sampled Component Spectra: 1
Spectrometers: USB2+H05261
Integration Time (usec): 100000 (USB2+H05261)
Spectra Averaged: 1 (USB2+H05261)
Boxcar Smoothing: 0 (USB2+H05261)
Correct for Electrical Dark: No (USB2+H05261)
Strobe/Lamp Enabled: No (USB2+H05261)
Correct for Detector Non-linearity: No (USB2+H05261)
Correct for Stray Light: No (USB2+H05261)
Number of Pixels in Processed Spectrum: 2048
>>>>>Begin Processed Spectral Data<<<<<
365.73	79.58
365.92	79.58
366.12	79.58
366.32	7.02
366.52	53.83
366.72	11.70
366.91	81.92
367.11	21.06
367.31	39.79
367.51	35.11
367.70	65.54
367.90	102.98
368.10	4.68
368.30	25.75
368.49	16.38
368.69	117.03
368.89	63.19
369.09	74.90
369.28	72.56
369.48	65.54
369.68	32.77
369.87	126.39
370.07	133.41
370.27	154.48
370.47	332.36
370.66	322.99
370.86	402.57
371.06	444.70
371.25	496.19
371.45	435.34
371.65	566.41
371.84	463.43
372.04	470.45
372.24	514.92
372.44	475.13
372.63	479.81
372.83	505.56
373.03	470.45
373.22	575.77
373.42	514.92
373.62	528.96
373.81	491.51
374.01	559.39
374.21	580.45
374.40	528.96
374.60	662.37
374.79	599.18
374.99	587.47
375.19	524.28
375.38	514.92
375.58	594.50
375.78	620.24
375.97	587.47
376.17	587.47
376.37	617.90
376.56	653.01
376.76	587.47
376.95	613.22
377.15	720.88
377.35	594.50
377.54	566.41
377.74	627.26
377.93	566.41
378.13	634.29
378.33	585.13
378.52	645.99
378.72	664.71
378.91	674.07
379.11	603.86
379.31	676.41
379.50	557.05
379.70	571.09
379.89	709.18
380.09	643.65
380.28	674.07
380.48	627.26
380.68	622.58
380.87	634.29
381.07	669.39
381.26	711.52
381.46	683.44
381.65	695.14
381.85	657.69
382.04	645.99
382.24	770.04
382.43	622.58
382.63	692.80
382.83	638.97
383.02	720.88
383.22	664.71
383.41	702.16
383.61	725.57
383.80	788.76
384.00	662.37
384.19	763.01
384.39	763.01
384.58	830.89
384.78	730.25
384.97	791.10
385.17	795.78
385.36	772.38
385.56	758.33
385.75	720.88
385.95	758.33
386.14	882.38
386.34	805.14
386.53	781.74
386.72	798.12
386.92	784.08
387.11	770.04
387.31	809.83
387.50	901.11
387.70	800.46
387.89	844.93
388.09	805.14
388.28	758.33
388.48	830.89
388.67	936.21
388.86	805.14
389.06	723.23
389.25	851.96
389.45	849.61
389.64	896.43
389.84	887.06
390.03	954.94
390.22	919.83
390.42	894.08
390.61	903.45
390.81	933.87
391.00	880.04
391.19	964.30
391.39	968.98
391.58	980.68
391.78	954.94
391.97	959.62
392.16	940.90
392.36	973.66
392.55	992.39
392.75	950.26
392.94	985.37
393.13	997.07
393.33	978.34
393.52	943.24
393.71	1071.97
393.91	961.96
394.10	999.41
394.29	1156.22
394.49	1188.99
394.68	1125.80
394.88	1170.27
395.07	1083.67
395.26	1060.26
395.46	1118.78
395.65	1172.61
395.84	1090.69
396.04	1151.54
396.23	1149.20
396.42	1107.07
396.62	1191.33
396.81	1212.40
397.00	1165.59
397.19	1203.04
397.39	1114.10
397.58	1268.57
397.77	1296.66
397.97	1369.21
398.16	1221.76
398.35	1203.04
398.55	1282.61
398.74	1275.59
398.93	1404.32
399.12	1343.47
399.32	1329.42
399.51	1451.13
399.70	1338.79
399.90	1387.94
400.09	1343.47
400.28	1430.07
400.47	1472.20
400.67	1448.79
400.86	1338.79
401.05	1493.26
401.24	1441.77
401.44	1479.22
401.63	1500.28
401.82	1507.30
402.01	1551.78
402.21	1600.93
402.40	1621.99
402.59	1572.84
402.78	1551.78
402.97	1511.99
403.17	1504.96
403.36	1523.69
403.55	1671.14
403.74	1647.74
403.93	1645.40
404.13	1645.40
404.32	1544.75
404.51	1633.69
404.70	1717.95
404.89	1699.23
405.09	1703.91
405.28	1727.32
405.47	1809.23
405.66	1696.89
405.85	1788.17
406.05	1825.62
406.24	1778.81
406.43	1762.42
406.62	1879.45
406.81	1806.89
407.00	1811.57
407.20	1834.98
407.39	1743.70
407.58	1884.13
407.77	1947.33
407.96	2008.18
408.15	1987.11
408.34	1914.56
408.54	2139.25
408.73	2101.80
408.92	2078.40
409.11	2090.10
409.30	2031.58
409.49	2050.31
409.68	2069.03
409.87	2115.84
410.07	2174.36
410.26	2134.57
410.45	2071.37
410.64	2204.78
410.83	2232.87
411.02	2193.08
411.21	2282.02
411.40	2232.87
411.59	2258.62
411.78	2136.91
411.98	2275.00
412.17	2298.41
412.36	2333.51
412.55	2305.43
412.74	2422.45
412.93	2457.56
413.12	2303.09
413.31	2541.82
413.50	2385.01
413.69	2396.71
413.88	2672.89
414.07	2523.10
414.26	2593.31
414.45	2654.17
414.64	2623.74
414.83	2663.53
415.02	2778.22
415.22	2766.51
415.41	2834.39
415.60	2848.43
415.79	2808.64
415.98	2864.82
416.17	2813.32
416.36	2918.65
416.55	2920.99
416.74	2806.30
416.93	2906.95
417.12	2944.39
417.31	2918.65
417.50	2937.37
417.69	2995.89
417.88	3148.02
418.07	3096.53
418.26	3171.43
418.45	3045.04
418.64	3204.19
418.83	3141.00
419.02	3075.46
419.21	3190.15
419.39	3220.58
419.58	3126.96
419.77	3110.57
419.96	3248.66
420.15	3311.86
420.34	3297.81
420.53	3410.16
420.72	3398.46
420.91	3449.95
421.10	3480.38
421.29	3454.63
421.48	3290.79
421.67	3361.01
421.86	3433.57
422.05	3267.39
422.24	3508.46
422.43	3405.48
422.61	3414.84
422.80	3461.65
422.99	3543.57
423.18	3501.44
423.37	3634.85
423.56	3569.32
423.75	3435.91
423.94	3559.95
424.13	3365.69
424.32	3438.25
424.50	3536.55
424.69	3749.54
424.88	3538.89
425.07	3449.95
425.26	3480.38
425.45	3616.13
425.64	3646.55
425.83	3623.15
426.01	3599.74
426.20	3597.40
426.39	3686.34
426.58	3658.26
426.77	3550.59
426.96	3637.19
427.15	3655.92
427.33	3644.21
427.52	3686.34
427.71	3859.54
427.90	3709.75
428.09	3871.25
428.28	3730.81
428.46	3655.92
428.65	3707.41
428.84	3824.44
429.03	3801.03
429.22	3653.58
429.40	3719.11
429.59	3674.64
429.78	3562.30
429.97	3665.28
430.16	3765.92
430.34	3824.44
430.53	3901.67
430.72	3992.95
430.91	3911.04
431.10	3990.61
431.28	3943.80
431.47	4072.53
431.66	4156.79
431.85	4063.17
432.03	4205.94
432.22	4229.35
432.41	4182.54
432.60	4203.60
432.79	4156.79
432.97	4262.12
433.16	4208.28
433.35	4327.65
433.54	4236.37
433.72	4262.12
433.91	4154.45
434.10	4416.59
434.28	4327.65
434.47	4402.55
434.66	4456.38
434.85	4454.04
435.03	4414.25
435.22	4503.19
435.41	4578.09
435.59	4524.26
435.78	4545.32
435.97	4594.47
436.16	4599.15
436.34	4545.32
436.53	4564.04
436.72	4692.77
436.90	4531.28
437.09	4784.06
437.28	4564.04
437.46	4688.09
437.65	4692.77
437.84	4685.75
438.02	4699.80
438.21	4671.71
438.40	4652.98
438.58	4760.65
438.77	5036.83
438.96	4990.02
439.14	5048.54
439.33	5181.95
439.52	4987.68
439.70	5071.94
439.89	5029.81
440.08	5081.30
440.26	4975.98
440.45	5093.01
440.63	5121.09
440.82	5460.47
441.01	5320.04
441.19	5437.06
441.38	5432.38
441.57	5469.83
441.75	5533.03
441.94	5558.77
442.12	5568.13
442.31	5624.31
442.50	5596.22
442.68	5753.04
442.87	5767.08
443.05	5797.51
443.24	5874.74
443.43	5795.17
443.61	5652.39
443.80	5975.39
443.98	5710.91
444.17	5565.79
444.35	5678.14
444.54	5762.40
444.73	5837.30
444.91	5757.72
445.10	5738.99
445.28	5940.28
445.47	5685.16
445.65	5902.83
445.84	5951.98
446.02	6010.50
446.21	5717.93
446.39	5839.64
446.58	6026.88
446.77	5970.71
446.95	5771.76
447.14	5872.40
447.32	6033.90
447.51	5905.17
447.69	6064.33
447.88	6059.65
448.06	5977.73
448.25	6118.16
448.43	6076.03
448.62	6047.94
448.80	6080.71
448.99	6019.86
449.17	6162.63
449.36	5973.05
449.54	6345.19
449.73	6331.15
449.91	6251.57
450.10	6183.70
450.28	6366.26
450.46	6443.49
450.65	6384.98
450.83	6403.71
451.02	6272.64
451.20	6492.65
451.39	6574.56
451.57	6516.05
451.76	6562.86
451.94	6392.00
452.13	6672.87
452.31	6478.60
452.49	6431.79
452.68	6469.24
452.86	6668.19
453.05	6597.97
453.23	6623.72
453.42	6525.41
453.60	6642.44
453.78	6883.52
453.97	6593.29
454.15	6633.08
454.34	6745.42
454.52	6808.62
454.70	6679.89
454.89	6665.85
455.07	6761.81
455.26	6750.10
455.44	6937.35
455.62	7115.23
455.81	6927.99
455.99	7075.44
456.17	7028.63
456.36	7087.14
456.54	7169.06
456.73	7129.27
456.91	7442.90
457.09	7368.01
457.28	7379.71
457.46	7129.27
457.64	7311.83
457.83	7438.22
458.01	7176.08
458.19	7227.57
458.38	7286.09
458.56	7433.54
458.74	7485.03
458.93	7417.16
459.11	7625.47
459.29	7463.97
459.48	7529.50
459.66	7524.82
459.84	7559.93
460.03	7660.57
460.21	7723.77
460.39	7473.33
460.57	7674.62
460.76	7733.13
460.94	7742.49
461.12	7875.90
461.31	7702.70
461.49	7618.44
461.67	7775.26
461.85	8135.70
462.04	7906.33
462.22	8421.25
462.40	8105.28
462.59	8088.89
462.77	7988.25
462.95	8093.57
463.13	8201.24
463.32	8189.53
463.50	8201.24
463.68	8042.08
463.86	8074.85
464.05	8135.70
464.23	8180.17
464.41	8287.84
464.59	8131.02
464.78	8257.41
464.96	8175.49
465.14	8152.09
465.32	8257.41
465.50	8341.67
465.69	8294.86
465.87	8327.63
466.05	8301.88
466.23	8325.29
466.41	8294.86
466.60	8416.57
466.78	8346.35
466.96	8533.59
467.14	8461.04
467.32	8592.11
467.51	8535.93
467.69	8189.53
467.87	8482.10
468.05	8599.13
468.23	8552.32
468.41	8468.06
468.60	8629.56
468.78	8791.05
468.96	8496.14
469.14	8641.26
469.32	8910.42
469.50	8592.11
469.69	8915.10
469.87	9219.37
470.05	8952.55
470.23	9006.38
470.41	8971.27
470.59	9001.70
470.77	9004.04
470.95	8952.55
471.14	9235.75
471.32	9027.45
471.50	9348.10
471.68	9008.72
471.86	9341.08
472.04	9451.08
472.22	9497.89
472.40	9369.16
472.58	9612.58
472.77	9540.02
472.95	9661.73
473.13	9919.19
473.31	9376.19
473.49	9666.41
473.67	9448.74
473.85	9437.04
474.03	9755.35
474.21	9982.38
474.39	9991.75
474.57	9783.44
474.75	10129.84
474.93	10251.55
475.12	10125.16
475.30	10080.69
475.48	10101.75
475.66	10345.17
475.84	10099.41
476.02	10260.91
476.20	10541.77
476.38	10766.46
476.56	10665.82
476.74	10911.58
476.92	10839.02
477.10	10794.55
477.28	10888.17
477.46	10846.04
477.64	11056.69
477.82	11150.31
478.00	11463.94
478.18	11344.58
478.36	11426.50
478.54	11243.93
478.72	11840.77
478.90	11578.63
479.08	11852.47
479.26	12140.36
479.44	12016.31
479.62	12285.47
479.80	11819.71
479.98	12271.43
480.16	12358.03
480.34	12212.92
480.52	12559.31
480.70	12713.79
480.88	12273.77
481.06	12774.64
481.24	12365.05
481.41	13132.75
481.59	13121.04
481.77	12901.03
481.95	12823.80
482.13	13252.11
482.31	13022.74
482.49	13642.98
482.67	13549.36
482.85	13813.84
483.03	13785.76
483.21	13827.88
483.39	14008.11
483.57	14071.30
483.74	14305.35
483.92	14438.76
484.10	14211.73
484.28	14380.25
484.46	14459.83
484.64	15129.22
484.82	14366.21
485.00	14654.09
485.18	15075.39
485.35	15241.57
485.53	15080.07
485.71	15119.86
485.89	15447.54
486.07	15400.72
486.25	15351.57
486.43	15868.83
486.61	15838.41
486.78	15906.28
486.96	16070.12
487.14	16290.13
487.32	16350.98
487.50	16767.60
487.68	16631.85
487.85	16915.05
488.03	16975.91
488.21	17179.53
488.39	17032.08
488.57	17165.49
488.75	17518.91
488.92	17591.47
489.10	17757.64
489.28	17893.40
489.46	17879.35
489.64	17893.40
489.81	18162.56
489.99	18647.05
490.17	18420.02
490.35	18885.78
490.53	18686.84
490.70	18691.52
490.88	18782.80
491.06	18934.93
491.24	19005.15
491.41	19051.96
491.59	19281.33
491.77	19159.63
491.95	19295.38
492.13	19672.20
492.30	19730.72
492.48	20159.03
492.66	19711.99
492.84	19784.55
493.01	20112.22
493.19	19985.83
493.37	20821.41
493.54	20727.78
493.72	21008.65
493.90	20664.59
494.08	21104.61
494.25	21071.84
494.43	21111.63
494.61	21664.00
494.79	21495.48
494.96	21465.05
495.14	21762.30
495.32	21741.24
495.49	21736.56
495.67	21792.73
495.85	21902.73
496.02	22305.31
496.20	22672.77
496.38	22197.64
496.55	22635.32
496.73	23105.77
496.91	22698.52
497.09	23112.79
497.26	22876.40
497.44	23241.52
497.62	23040.23
497.79	23498.98
497.97	23674.52
498.14	23374.93
498.32	23616.01
498.50	23473.23
498.67	23882.83
498.85	23934.32
499.03	24168.37
499.20	23538.77
499.38	24154.33
499.56	24463.28
499.73	24390.72
499.91	24451.58
500.08	24659.88
500.26	24566.26
500.44	24540.52
500.61	25102.25
500.79	24968.84
500.97	24744.14
501.14	25383.11
501.32	25277.79
501.49	25095.22
501.67	25092.88
501.84	25771.64
502.02	25619.50
502.20	25762.28
502.37	26359.11
502.55	25883.98
502.72	25673.34
502.90	25895.69
503.07	25949.52
503.25	26223.36
503.43	26125.06
503.60	26349.75
503.78	26410.60
503.95	26265.49
504.13	26534.65
504.30	26614.23
504.48	26508.91
504.65	27084.68
504.83	27124.47
505.01	27372.57
505.18	26689.13
505.36	27323.41
505.53	27157.24
505.71	27515.34
505.88	27117.45
506.06	27138.51
506.23	27318.73
506.41	27676.83
506.58	27578.53
506.76	27733.01
506.93	27658.11
507.11	27634.71
507.28	27988.13
507.46	28016.21
507.63	28086.43
507.81	28535.81
507.98	27718.96
508.16	28137.92
508.33	28709.01
508.50	28500.70
508.68	28563.90
508.85	28692.63
509.03	28613.05
509.20	28882.21
509.38	29050.73
509.55	29476.71
509.73	29078.82
509.90	29366.70
510.08	28875.19
510.25	29167.76
510.42	29717.78
510.60	29525.86
510.77	29514.16
510.95	30141.42
511.12	29226.27
511.30	29970.56
511.47	29972.90
511.64	30452.71
511.82	30038.44
511.99	29769.27
512.17	30370.79
512.34	30298.23
512.51	30312.28
512.69	30494.84
512.86	30726.55
513.04	30785.07
513.21	30883.37
513.38	30553.35
513.56	30738.26
513.73	30782.73
513.90	30745.28
514.08	30881.03
514.25	31356.16
514.43	31290.62
514.60	30852.94
514.77	31187.64
514.95	31512.97
515.12	31311.69
515.29	31669.79
515.47	31894.48
515.64	31681.49
515.81	31384.24
515.99	31765.75
516.16	31431.05
516.33	31775.11
516.51	31861.71
516.68	31278.92
516.85	31517.65
517.03	31913.20
517.20	31648.72
517.37	32109.81
517.54	32629.41
517.72	32287.69
517.89	32301.73
518.06	32147.26
518.24	32322.80
518.41	32161.30
518.58	32229.18
518.75	32217.47
518.93	32732.39
519.10	32952.40
519.27	33174.75
519.45	33490.73
519.62	33179.43
519.79	32903.25
519.96	33074.11
520.14	33493.07
520.31	33165.39
520.48	33502.43
520.65	33090.49
520.83	33893.30
521.00	33769.25
521.17	33607.75
521.34	33731.80
521.52	33968.19
521.69	34190.55
521.86	34047.77
522.03	34492.47
522.20	34120.33
522.38	34569.71
522.55	34801.43
522.72	34195.23
522.89	34206.93
523.07	34494.82
523.24	34466.73
523.41	34560.35
523.58	34459.71
523.75	35208.68
523.92	34946.54
524.10	34862.28
524.27	35211.02
524.44	35054.20
524.61	35044.84
524.78	35225.06
524.96	35505.93
525.13	35110.38
525.30	35356.13
525.47	35842.96
525.64	35541.03
525.81	35667.42
525.98	35122.08
526.16	35267.19
526.33	35171.23
526.50	35747.00
526.67	35695.51
526.84	35407.62
527.01	35531.67
527.18	35906.16
527.36	35683.81
527.53	35964.67
527.70	36027.87
527.87	36439.80
528.04	35985.74
528.21	36346.18
528.38	36086.38
528.55	36428.10
528.72	36669.17
528.89	36943.02
529.07	36662.15
529.24	36364.90
529.41	36275.96
529.58	36559.17
529.75	36432.78
529.92	36945.36
530.09	36533.42
530.26	37148.98
530.43	36765.14
530.60	36563.85
530.77	37425.17
530.94	37141.96
531.11	36748.75
531.28	37284.73
531.46	37713.05
531.63	37268.35
531.80	37479.00
531.97	37249.63
532.14	37549.21
532.31	37235.58
532.48	36966.42
532.65	37853.48
532.82	37394.74
532.99	37970.51
533.16	37380.70
533.33	37858.17
533.50	37816.04
533.67	38218.61
533.84	37504.74
534.01	38024.34
534.18	38024.34
534.35	38543.94
534.52	38246.69
534.69	38396.49
534.86	38071.15
535.03	38199.88
535.20	38794.38
535.37	38836.51
535.54	38586.07
535.71	38354.36
535.88	38440.96
536.05	37970.51
536.22	38216.27
536.38	38667.99
536.55	38113.28
536.72	38857.57
536.89	38403.51
537.06	38937.15
537.23	39313.98
537.40	38478.41
537.57	38787.36
537.74	39098.65
537.91	39012.05
538.08	39140.78
538.25	39049.50
538.42	39229.72
538.59	39292.91
538.75	38419.89
538.92	39042.48
539.09	39569.10
539.26	39491.86
539.43	39391.22
539.60	39463.77
539.77	39548.03
539.94	39730.59
540.11	39475.48
540.28	39222.70
540.44	39260.15
540.61	39206.31
540.78	39278.87
540.95	39414.62
541.12	39545.69
541.29	39456.75
541.46	39864.00
541.62	39555.05
541.79	39943.58
541.96	39395.90
542.13	39941.24
542.30	40259.55
542.47	40287.64
542.63	40175.30
542.80	40278.28
542.97	41031.93
543.14	40704.26
543.31	40519.35
543.48	40390.62
543.64	41223.86
543.81	40975.76
543.98	40203.38
544.15	40758.09
544.32	41280.03
544.48	41069.38
544.65	40926.61
544.82	40807.24
544.99	40882.14
545.16	41050.66
545.32	40538.08
545.49	41188.75
545.66	41228.54
545.83	41242.58
546.00	41397.06
546.16	41345.56
546.33	40577.87
546.50	41067.04
546.67	41336.20
546.83	40732.34
547.00	40898.52
547.17	41387.69
547.34	41869.84
547.50	41448.55
547.67	41436.84
547.84	41408.76
548.00	42380.08
548.17	41886.23
548.34	41890.91
548.51	41867.50
548.67	41813.67
548.84	42005.59
549.01	41460.25
549.18	41713.03
549.34	41909.63
549.51	41792.61
549.68	42040.70
549.84	42206.88
550.01	42188.16
550.18	41736.43
550.34	42220.92
550.51	41734.09
550.68	41935.38
550.84	41621.75
551.01	42094.53
551.18	42440.93
551.34	41998.57
551.51	42234.97
551.68	42586.05
551.84	42335.61
552.01	42183.48
552.18	42274.76
552.34	42108.58
552.51	42609.45
552.68	42511.15
552.84	42717.12
553.01	42944.15
553.18	42270.08
553.34	42611.79
553.51	42705.41
553.67	42286.46
553.84	42775.63
554.01	42417.53
554.17	43374.81
554.34	42845.85
554.51	42642.22
554.67	42967.55
554.84	42885.64
555.00	42347.31
555.17	42483.06
555.33	42974.58
555.50	42841.17
555.67	42712.44
555.83	42880.95
556.00	43257.78
556.16	43583.12
556.33	43283.53
556.50	43339.70
556.66	43105.65
556.83	42887.98
556.99	43597.16
557.16	43377.15
557.32	43250.76
557.49	43477.79
557.65	43007.34
557.82	43288.21
557.98	43306.93
558.15	43339.70
558.32	43297.57
558.48	43281.19
558.65	43250.76
558.81	43257.78
558.98	43316.29
559.14	43594.82
559.31	43241.40
559.47	43599.50
559.64	43934.20
559.80	44205.70
559.97	43426.30
560.13	43229.69
560.30	43438.00
560.46	43168.84
560.63	43278.85
560.79	43824.19
560.96	43978.67
561.12	43419.28
561.29	44278.25
561.45	43583.12
561.61	43438.00
561.78	43679.08
561.94	43803.13
562.11	43620.56
562.27	43728.23
562.44	44154.21
562.60	44041.86
562.77	43660.35
562.93	43901.43
563.10	44355.49
563.26	43632.27
563.42	44076.97
563.59	43676.74
563.75	43854.62
563.92	43828.87
564.08	43786.74
564.24	44154.21
564.41	43927.17
564.57	44123.78
564.74	43803.13
564.90	44189.31
565.07	44252.51
565.23	44191.65
565.39	44109.74
565.56	44121.44
565.72	43784.40
565.88	44046.54
566.05	43917.81
566.21	44182.29
566.38	44081.65
566.54	44229.10
566.70	44556.78
566.87	44282.94
567.03	44177.61
567.19	44746.36
567.36	44418.69
567.52	44116.76
567.68	44322.72
567.85	44399.96
568.01	44402.30
568.17	44500.61
568.34	44442.09
568.50	44313.36
568.66	44215.06
568.83	44367.20
568.99	44013.77
569.15	44074.63
569.32	44231.44
569.48	44327.41
569.64	44486.56
569.81	44814.24
569.97	44381.24
570.13	44179.95
570.30	44114.42
570.46	44060.58
570.62	44259.53
570.78	44018.46
570.95	44470.18
571.11	44439.75
571.27	44470.18
571.43	44102.71
571.60	44690.19
571.76	44364.85
571.92	44573.16
572.09	44414.01
572.25	44231.44
572.41	44486.56
572.57	44631.68
572.74	45001.48
572.90	44619.97
573.06	44879.77
573.22	44706.57
573.38	44219.74
573.55	44177.61
573.71	44502.95
573.87	44575.50
574.03	44910.20
574.20	44601.25
574.36	44273.57
574.52	44479.54
574.68	44390.60
574.84	44648.06
575.01	44491.24
575.17	44179.95
575.33	44376.56
575.49	44512.31
575.65	44875.09
575.82	44800.19
575.98	44884.45
576.14	45118.51
576.30	44526.35
576.46	44545.08
576.62	44650.40
576.79	44816.58
576.95	44322.72
577.11	44685.51
577.27	44631.68
577.43	44835.30
577.59	44322.72
577.75	44781.47
577.92	43950.58
578.08	44229.10
578.24	44306.34
578.40	44470.18
578.56	44367.20
578.72	44566.14
578.88	44926.58
579.04	44746.36
579.21	44612.95
579.37	44591.89
579.53	44596.57
579.69	44561.46
579.85	44720.62
580.01	44821.26
580.17	44566.14
580.33	44973.39
580.49	45013.18
580.65	44556.78
580.82	44673.81
580.98	44650.40
581.14	44608.27
581.30	44835.30
581.46	44879.77
581.62	44687.85
581.78	44402.30
581.94	45221.49
582.10	44753.38
582.26	44854.03
582.42	44725.30
582.58	44978.07
582.74	44889.13
582.90	44612.95
583.06	45022.54
583.22	45027.23
583.38	44959.35
583.54	45031.91
583.70	44596.57
583.86	44643.38
584.02	44542.74
584.18	45010.84
584.34	44748.70
584.50	45034.25
584.66	44561.46
584.82	44664.44
584.98	45184.04
585.14	44900.84
585.30	45022.54
585.46	44729.98
585.62	44844.66
585.78	44287.62
585.94	44804.88
586.10	44741.68
586.26	44935.95
586.42	45202.77
586.58	44755.72
586.74	44823.60
586.90	44690.19
587.06	44678.49
587.22	44741.68
587.38	44596.57
587.54	44830.62
587.70	44877.43
587.86	45015.52
588.02	44711.25
588.18	44793.17
588.34	44821.26
588.49	44325.07
588.65	44491.24
588.81	44825.94
588.97	44697.21
589.13	45055.31
589.29	44884.45
589.45	44760.40
589.61	45361.92
589.77	44966.37
589.93	45017.86
590.08	45280.00
590.24	45202.77
590.40	44975.73
