SpectraSuite Data File
++++++++++++++++++++++++++++++++++++
Date: Fri Oct 25 11:23:10 EDT 2013
User: price-jones
Dark Spectrum Present: No
Reference Spectrum Present: No
Number of Sampled Component Spectra: 1
Spectrometers: USB2+H05261
Integration Time (usec): 100000 (USB2+H05261)
Spectra Averaged: 1 (USB2+H05261)
Boxcar Smoothing: 0 (USB2+H05261)
Correct for Electrical Dark: No (USB2+H05261)
Strobe/Lamp Enabled: No (USB2+H05261)
Correct for Detector Non-linearity: No (USB2+H05261)
Correct for Stray Light: No (USB2+H05261)
Number of Pixels in Processed Spectrum: 2048
>>>>>Begin Processed Spectral Data<<<<<
365.73	278.52
365.92	278.52
366.12	278.52
366.32	102.98
366.52	135.75
366.72	91.28
366.91	63.19
367.11	177.88
367.31	70.22
367.51	98.30
367.70	163.84
367.90	147.45
368.10	124.05
368.30	77.24
368.49	91.28
368.69	168.52
368.89	217.67
369.09	182.56
369.28	138.09
369.48	138.09
369.68	161.50
369.87	196.60
370.07	140.43
370.27	217.67
370.47	273.84
370.66	594.50
370.86	585.13
371.06	713.86
371.25	685.78
371.45	643.65
371.65	718.54
371.84	674.07
372.04	702.16
372.24	770.04
372.44	763.01
372.63	720.88
372.83	770.04
373.03	774.72
373.22	737.27
373.42	720.88
373.62	767.70
373.81	889.40
374.01	807.48
374.21	812.17
374.40	763.01
374.60	922.17
374.79	800.46
374.99	837.91
375.19	809.83
375.38	844.93
375.58	880.04
375.78	903.45
375.97	856.64
376.17	915.15
376.37	805.14
376.56	854.30
376.76	917.49
376.95	844.93
377.15	882.38
377.35	866.00
377.54	926.85
377.74	887.06
377.93	898.77
378.13	910.47
378.33	980.68
378.52	842.59
378.72	978.34
378.91	945.58
379.11	917.49
379.31	870.68
379.50	940.90
379.70	1015.79
379.89	1004.09
380.09	997.07
380.28	971.32
380.48	1018.13
380.68	959.62
380.87	926.85
381.07	933.87
381.26	1013.45
381.46	1046.22
381.65	1020.47
381.85	990.05
382.04	1041.54
382.24	1111.75
382.43	1107.07
382.63	1053.24
382.83	1144.52
383.02	1139.84
383.22	1193.67
383.41	1093.03
383.61	1095.37
383.80	1200.69
384.00	1114.10
384.19	1144.52
384.39	1100.05
384.58	1100.05
384.78	1083.67
384.97	1149.20
385.17	1128.14
385.36	1163.25
385.56	1181.97
385.75	1233.46
385.95	1210.06
386.14	1167.93
386.34	1235.80
386.53	1221.76
386.72	1256.87
386.92	1231.12
387.11	1228.78
387.31	1254.53
387.50	1193.67
387.70	1228.78
387.89	1238.14
388.09	1242.82
388.28	1203.04
388.48	1317.72
388.67	1355.17
388.86	1289.64
389.06	1418.36
389.25	1252.19
389.45	1376.24
389.64	1359.85
389.84	1397.30
390.03	1376.24
390.22	1324.74
390.42	1357.51
390.61	1348.15
390.81	1350.49
391.00	1420.71
391.19	1387.94
391.39	1516.67
391.58	1481.56
391.78	1460.49
391.97	1528.37
392.16	1516.67
392.36	1544.75
392.55	1516.67
392.75	1458.15
392.94	1589.22
393.13	1441.77
393.33	1535.39
393.52	1593.90
393.71	1687.53
393.91	1556.46
394.10	1556.46
394.29	1706.25
394.49	1605.61
394.68	1741.36
394.88	1493.26
395.07	1739.02
395.26	1664.12
395.46	1717.95
395.65	1650.08
395.84	1734.34
396.04	1802.21
396.23	1703.91
396.42	1757.74
396.62	1809.23
396.81	1811.57
397.00	1778.81
397.19	1769.44
397.39	1872.43
397.58	1827.96
397.77	1778.81
397.97	1830.30
398.16	1816.26
398.35	1926.26
398.55	1944.99
398.74	1942.64
398.93	2003.50
399.12	1980.09
399.32	1912.22
399.51	1977.75
399.70	1968.39
399.90	1966.05
400.09	2073.71
400.28	2132.23
400.47	2045.63
400.67	2157.97
400.86	2176.70
401.05	2162.66
401.24	2101.80
401.44	2218.83
401.63	2087.76
401.82	2108.82
402.01	2069.03
402.21	2136.91
402.40	2209.47
402.59	2246.91
402.78	2225.85
402.97	2314.79
403.17	2223.51
403.36	2305.43
403.55	2291.38
403.74	2438.84
403.93	2312.45
404.13	2399.05
404.32	2396.71
404.51	2361.60
404.70	2509.05
404.89	2359.26
405.09	2464.58
405.28	2436.50
405.47	2438.84
405.66	2417.77
405.85	2478.63
406.05	2511.39
406.24	2689.28
406.43	2513.74
406.62	2698.64
406.81	2700.98
407.00	2626.08
407.20	2668.21
407.39	2628.42
407.58	2745.45
407.77	2766.51
407.96	2881.20
408.15	2787.58
408.34	2708.00
408.54	2745.45
408.73	2820.35
408.92	2834.39
409.11	2885.88
409.30	2848.43
409.49	2928.01
409.68	3005.25
409.87	3033.33
410.07	3061.42
410.26	3056.74
410.45	3089.51
410.64	3063.76
410.83	3185.47
411.02	3138.66
411.21	3283.77
411.40	3105.89
411.59	3283.77
411.78	3211.22
411.98	3274.41
412.17	3290.79
412.36	3337.60
412.55	3236.96
412.74	3426.54
412.93	3447.61
413.12	3400.80
413.31	3595.06
413.50	3424.20
413.69	3400.80
413.88	3712.09
414.07	3592.72
414.26	3662.94
414.45	3609.11
414.64	3826.78
414.83	3723.79
415.02	3857.20
415.22	3730.81
415.41	4004.66
415.60	3971.89
415.79	3985.93
415.98	4046.79
416.17	3950.82
416.36	4070.19
416.55	4035.08
416.74	4077.21
416.93	4086.58
417.12	4145.09
417.31	4280.84
417.50	4245.73
417.69	4489.15
417.88	4262.12
418.07	4306.59
418.26	4245.73
418.45	4390.84
418.64	4477.44
418.83	4507.87
419.02	4477.44
419.21	4437.66
419.39	4678.73
419.58	4592.13
419.77	4521.92
419.96	4505.53
420.15	4622.56
420.34	4685.75
420.53	4564.04
420.72	4849.59
420.91	4919.81
421.10	4676.39
421.29	4798.10
421.48	4830.87
421.67	4833.21
421.86	4861.29
422.05	4973.64
422.24	4954.91
422.43	4870.65
422.61	4854.27
422.80	5062.58
422.99	4990.02
423.18	5097.69
423.37	5046.20
423.56	5013.43
423.75	5137.48
423.94	4994.70
424.13	4568.73
424.32	4779.37
424.50	5156.20
424.69	5139.82
424.88	5088.32
425.07	5008.75
425.26	5004.07
425.45	5011.09
425.64	5032.15
425.83	4990.02
426.01	5107.05
426.20	5004.07
426.39	5055.56
426.58	5029.81
426.77	5067.26
426.96	5214.71
427.15	5214.71
427.33	5261.52
427.52	5212.37
427.71	5247.48
427.90	5142.16
428.09	5305.99
428.28	5373.87
428.46	5392.59
428.65	5373.87
428.84	5479.19
429.03	5423.02
429.22	5327.06
429.40	5467.49
429.59	5483.88
429.78	5406.64
429.97	5378.55
430.16	5575.16
430.34	5598.56
430.53	5760.06
430.72	5743.67
430.91	5696.86
431.10	5643.03
431.28	5682.82
431.47	5956.66
431.66	6066.67
431.85	5888.79
432.03	5987.09
432.22	6050.28
432.41	5944.96
432.60	5973.05
432.79	6022.20
432.97	6019.86
433.16	6064.33
433.35	6071.35
433.54	6188.38
433.72	6384.98
433.91	6169.65
434.10	6218.80
434.28	6179.01
434.47	6368.60
434.66	6368.60
434.85	6464.56
435.03	6415.41
435.22	6242.21
435.41	6314.77
435.59	6546.48
435.78	6492.65
435.97	6644.78
436.16	6602.65
436.34	6424.77
436.53	6494.99
436.72	6726.70
436.90	6546.48
437.09	6579.25
437.28	6612.01
437.46	6722.02
437.65	6846.07
437.84	6986.50
438.02	6794.58
438.21	6846.07
438.40	6829.68
438.58	6995.86
438.77	7204.17
438.96	7192.47
439.14	7145.66
439.33	7300.13
439.52	7133.95
439.70	7152.68
439.89	7578.65
440.08	7440.56
440.26	7297.79
440.45	7431.20
440.63	7634.83
440.82	7716.75
441.01	7515.46
441.19	7679.30
441.38	7967.18
441.57	7885.26
441.75	7761.22
441.94	8065.49
442.12	7995.27
442.31	8109.96
442.50	8124.00
442.68	8168.47
442.87	8006.97
443.05	8248.05
443.24	8276.13
443.43	8156.77
443.61	8327.63
443.80	8381.46
443.98	8215.28
444.17	7992.93
444.35	8304.22
444.54	8482.10
444.73	8266.77
444.91	8372.10
445.10	8222.30
445.28	8552.32
445.47	8318.26
445.65	8547.64
445.84	8524.23
446.02	8594.45
446.21	8430.61
446.39	8325.29
446.58	8777.01
446.77	8549.98
446.95	8395.50
447.14	8533.59
447.32	8812.12
447.51	8365.07
447.69	8573.38
447.88	8531.25
448.06	8699.77
448.25	8688.07
448.43	8641.26
448.62	8587.43
448.80	8585.08
448.99	8746.58
449.17	8912.76
449.36	8926.80
449.54	8830.84
449.73	9240.44
449.91	9088.30
450.10	9144.47
450.28	9277.88
450.46	9387.89
450.65	9165.54
450.83	9142.13
451.02	9071.92
451.20	9413.63
451.39	9118.73
451.57	9252.14
451.76	9256.82
451.94	9357.46
452.13	9341.08
452.31	9486.19
452.49	9151.49
452.68	9298.95
452.86	9479.17
453.05	9511.94
453.23	9619.60
453.42	9535.34
453.60	9460.45
453.78	9701.52
453.97	9401.93
454.15	9465.13
454.34	9621.94
454.52	9905.15
454.70	9837.27
454.89	10078.35
455.07	9940.26
455.26	9921.53
455.44	10146.22
455.62	10125.16
455.81	10026.86
455.99	10113.45
456.17	10094.73
456.36	10267.93
456.54	10253.89
456.73	10499.64
456.91	10700.93
457.09	10602.63
457.28	10768.80
457.46	10518.37
457.64	10663.48
457.83	10633.05
458.01	10438.79
458.19	10803.91
458.38	10834.34
458.56	10689.23
458.74	10668.16
458.93	10946.69
459.11	10724.33
459.29	10822.64
459.48	10918.60
459.66	11066.05
459.84	11073.07
460.03	11398.41
460.21	10827.32
460.39	11098.82
460.57	11211.17
460.76	11089.46
460.94	11293.08
461.12	11309.47
461.31	11452.24
461.49	11227.55
461.67	11290.74
461.85	11653.53
462.04	11501.39
462.22	11747.15
462.40	11735.45
462.59	11698.00
462.77	11803.32
462.95	11833.75
463.13	11676.93
463.32	11789.28
463.50	11754.17
463.68	12035.03
463.86	11908.65
464.05	11880.56
464.23	11775.24
464.41	12095.89
464.59	11829.07
464.78	12306.54
464.96	12276.11
465.14	11948.43
465.32	12266.75
465.50	12273.77
465.69	12313.56
465.87	12180.15
466.05	12507.82
466.23	12430.59
466.41	12512.50
466.60	12638.89
466.78	12306.54
466.96	12278.45
467.14	12346.33
467.32	12395.48
467.51	12868.27
467.69	12332.28
467.87	12671.66
468.05	12844.86
468.23	12585.06
468.41	12905.71
468.60	12786.35
468.78	12786.35
468.96	12713.79
469.14	12947.84
469.32	13083.59
469.50	12725.49
469.69	13345.73
469.87	13149.13
470.05	13467.44
470.23	13399.57
470.41	13408.93
470.59	13472.12
470.77	13212.32
470.95	13593.83
471.14	13851.29
471.32	13121.04
471.50	13738.94
471.68	13570.43
471.86	13996.40
472.04	13965.98
472.22	14281.95
472.40	13713.20
472.58	13916.83
472.77	14246.84
472.95	14143.86
473.13	14773.46
473.31	13930.87
473.49	14396.64
473.67	14319.40
473.85	14396.64
474.03	14801.55
474.21	14834.32
474.39	14864.74
474.57	14801.55
474.75	15049.64
474.93	15084.75
475.12	14827.29
475.30	15475.62
475.48	15279.02
475.66	15499.03
475.84	15459.24
476.02	15370.30
476.20	15569.24
476.38	15946.07
476.56	16215.23
476.74	16365.03
476.92	16121.61
477.10	15796.28
477.28	16098.20
477.46	16365.03
477.64	16535.88
477.82	16594.40
478.00	17116.34
478.18	16975.91
478.36	17174.85
478.54	17413.59
478.72	17371.46
478.90	17869.99
479.08	17862.97
479.26	17975.31
479.44	17811.48
479.62	18059.57
479.80	18604.92
479.98	18104.04
480.16	18927.91
480.34	18546.40
480.52	18927.91
480.70	18944.30
480.88	18747.69
481.06	18757.05
481.24	19112.81
481.41	19367.93
481.59	19587.94
481.77	19999.88
481.95	19609.01
482.13	20109.88
482.31	20086.48
482.49	20549.90
482.67	20365.00
482.85	20891.62
483.03	20870.56
483.21	20924.39
483.39	21106.95
483.57	21282.49
483.74	21383.13
483.92	21619.53
484.10	21504.84
484.28	21649.96
484.46	22429.35
484.64	22478.50
484.82	22279.56
485.00	22309.99
485.18	23166.62
485.35	23503.66
485.53	23213.43
485.71	23330.46
485.89	23763.46
486.07	23854.74
486.25	23836.02
486.43	23714.31
486.61	24100.50
486.78	24545.20
486.96	24716.06
487.14	24479.66
487.32	24950.11
487.50	25230.98
487.68	25261.40
487.85	25553.97
488.03	25465.03
488.21	26352.09
488.39	26183.57
488.57	26661.04
488.75	26675.09
488.92	26810.84
489.10	26712.53
489.28	27087.02
489.46	27248.52
489.64	27129.15
489.81	27962.38
489.99	27580.87
490.17	27768.12
490.35	28383.68
490.53	28243.24
490.70	29001.58
490.88	28582.62
491.06	29406.49
491.24	29046.05
491.41	29584.37
491.59	29961.20
491.77	29563.31
491.95	30101.63
492.13	30141.42
492.30	30246.74
492.48	30621.23
492.66	30450.37
492.84	30312.28
493.01	30913.80
493.19	30766.34
493.37	31278.92
493.54	31917.89
493.72	31864.05
493.90	31749.37
494.08	32175.34
494.25	32694.94
494.43	32538.13
494.61	32629.41
494.79	33139.65
494.96	33006.23
495.14	32875.16
495.32	33699.03
495.49	33156.03
495.67	33266.03
495.85	34462.05
496.02	33902.66
496.20	34403.53
496.38	34504.18
496.55	34122.67
496.73	35084.63
496.91	35070.59
497.09	34969.94
497.26	35260.17
497.44	35267.19
497.62	35512.95
497.79	36400.01
497.97	35583.16
498.14	36308.73
498.32	36701.94
498.50	36718.32
498.67	36842.37
498.85	36889.18
499.03	37235.58
499.20	37254.31
499.38	37724.75
499.56	37287.07
499.73	37614.75
499.91	38085.20
500.08	38078.18
500.26	37904.98
500.44	37757.52
500.61	38522.88
500.79	38150.73
500.97	38345.00
501.14	38948.85
501.32	39201.63
501.49	38981.62
501.67	39037.80
501.84	39281.21
502.02	39220.36
502.20	39700.17
502.37	39487.18
502.55	39856.98
502.72	40084.01
502.90	40217.43
503.07	39728.25
503.25	40594.25
503.43	40278.28
503.60	41022.57
503.78	40636.38
503.95	40758.09
504.13	40989.80
504.30	41488.34
504.48	40950.01
504.65	41013.21
504.83	41577.28
505.01	41766.86
505.18	41752.82
505.36	42314.55
505.53	41535.15
505.71	41710.69
505.88	42164.75
506.06	42021.98
506.23	42625.84
506.41	42284.12
506.58	42653.92
506.76	42883.30
506.93	42763.93
507.11	42831.80
507.28	43002.66
507.46	43423.96
507.63	43583.12
507.81	43800.79
507.98	43545.67
508.16	43618.22
508.33	44156.55
508.50	43941.22
508.68	44549.76
508.85	43999.73
509.03	43990.37
509.20	43943.56
509.38	44992.12
509.55	45008.50
509.73	45261.28
509.90	45043.61
510.08	44968.71
510.25	45258.94
510.42	45265.96
510.60	45642.79
510.77	45935.35
510.95	45787.90
511.12	45558.53
511.30	45823.01
511.47	45902.59
511.64	45544.48
511.82	46251.33
511.99	45975.14
512.17	46560.28
512.34	46504.10
512.51	47054.13
512.69	46728.80
512.86	46902.00
513.04	46967.53
513.21	46967.53
513.38	47297.55
513.56	47288.18
513.73	47136.05
513.90	47468.40
514.08	47540.96
514.25	47763.31
514.43	48311.00
514.60	48051.20
514.77	47973.96
514.95	48406.96
515.12	48217.38
515.29	48083.97
515.47	48322.70
515.64	48828.26
515.81	48463.13
515.99	48488.88
516.16	48729.95
516.33	48980.39
516.51	49301.04
516.68	48758.04
516.85	48891.45
517.03	49537.44
517.20	49499.99
517.37	49226.15
517.54	49364.24
517.72	49450.84
517.89	49441.48
518.06	49579.57
518.24	49567.87
518.41	50026.61
518.58	49750.43
518.75	49633.40
518.93	50092.15
519.10	50089.80
519.27	50040.65
519.45	49930.65
519.62	50497.06
519.79	50508.76
519.96	50188.11
520.14	50754.52
520.31	50688.98
520.48	50993.25
520.65	50665.58
520.83	50965.17
521.00	51278.80
521.17	51110.28
521.34	51196.88
521.52	51072.83
521.69	51019.00
521.86	51466.04
522.03	51866.27
522.20	51739.88
522.38	51987.98
522.55	51627.54
522.72	51784.35
522.89	51758.61
523.07	52175.22
523.24	51580.73
523.41	52027.77
523.58	51964.57
523.75	52332.04
523.92	52369.49
524.10	52285.23
524.27	52458.43
524.44	52406.94
524.61	52685.46
524.78	52823.55
524.96	52608.22
525.13	52701.84
525.30	52891.43
525.47	52952.28
525.64	52961.64
525.81	53205.06
525.98	52987.39
526.16	53001.43
526.33	52963.98
526.50	53525.71
526.67	53118.46
526.84	53347.83
527.01	53198.04
527.18	53209.74
527.36	53649.76
527.53	53420.39
527.70	53715.29
527.87	53822.96
528.04	53539.75
528.21	53537.41
528.38	53682.53
528.55	53780.83
528.72	53710.61
528.89	53979.78
529.07	53556.14
529.24	53958.71
529.41	54101.48
529.58	53939.99
529.75	53837.00
529.92	54319.15
530.09	54255.96
530.26	54305.11
530.43	54436.18
530.60	54038.29
530.77	54110.85
530.94	54501.71
531.11	54569.59
531.28	54316.81
531.46	54534.48
531.63	54747.47
531.80	54555.55
531.97	54885.56
532.14	54827.05
532.31	55065.78
532.48	54857.48
532.65	55082.17
532.82	54588.31
532.99	54937.05
533.16	54965.14
533.33	55023.65
533.50	55440.27
533.67	55112.59
533.84	54813.01
534.01	55152.38
534.18	55199.19
534.35	55611.13
534.52	55501.12
534.69	55767.94
534.86	55800.71
535.03	55571.34
535.20	55503.46
535.37	55487.08
535.54	55585.38
535.71	55402.82
535.88	55613.47
536.05	55751.56
536.22	56069.87
536.38	55739.86
536.55	56030.08
536.72	55920.08
536.89	55760.92
537.06	55763.26
537.23	56271.16
537.40	55863.91
537.57	56121.37
537.74	56296.91
537.91	56301.59
538.08	56191.58
538.25	56219.67
538.42	56292.22
538.59	56671.39
538.75	56334.35
538.92	56292.22
539.09	56399.89
539.26	56231.37
539.43	56629.26
539.60	56626.92
539.77	56378.82
539.94	56708.84
540.11	56640.96
540.28	56685.43
540.44	56891.40
540.61	56727.56
540.78	56910.13
540.95	56687.78
541.12	56694.80
541.29	56453.72
541.46	57062.26
541.62	56858.63
541.79	57099.71
541.96	56589.47
542.13	56718.20
542.30	56823.53
542.47	57078.64
542.63	57202.69
542.80	57403.98
542.97	57462.49
543.14	57490.58
543.31	57420.36
543.48	57684.84
543.64	57832.30
543.81	57682.50
543.98	57675.48
544.15	57574.84
544.32	57860.38
544.48	57663.78
544.65	57748.04
544.82	57743.36
544.99	57682.50
545.16	57724.63
545.32	57701.23
545.49	57935.28
545.66	57986.77
545.83	57989.11
546.00	57958.69
546.16	58007.84
546.33	57670.80
546.50	57813.57
546.67	57888.47
546.83	57694.21
547.00	58218.49
547.17	58127.20
547.34	57909.53
547.50	58298.06
547.67	58398.71
547.84	58291.04
548.00	58298.06
548.17	58585.95
548.34	58499.35
548.51	58445.52
548.67	58747.45
548.84	58597.65
549.01	58375.30
549.18	58410.41
549.34	58548.50
549.51	58616.38
549.68	58489.99
549.84	58712.34
550.01	58859.79
550.18	58838.73
550.34	58796.60
550.51	58848.09
550.68	58674.89
550.84	58578.93
551.01	58873.84
551.18	58691.27
551.34	58937.03
551.51	58885.54
551.68	59011.93
551.84	59009.59
552.01	58731.06
552.18	59068.10
552.34	58899.58
552.51	59103.21
552.68	58841.07
552.84	58913.62
553.01	59267.05
553.18	59189.81
553.34	59210.87
553.51	59021.29
553.67	59210.87
553.84	59255.34
554.01	59217.89
554.17	59271.73
554.34	59388.75
554.51	59346.62
554.67	59229.60
554.84	59126.61
555.00	59143.00
555.17	59484.72
555.33	59334.92
555.50	59341.94
555.67	59175.76
555.83	59042.35
556.00	59290.45
556.16	59508.12
556.33	59615.79
556.50	59480.03
556.66	59622.81
556.83	59311.52
556.99	59847.50
557.16	60058.15
557.32	59700.04
557.49	59812.39
557.65	59695.36
557.82	59704.73
557.98	59667.28
558.15	59533.87
558.32	59882.61
558.48	59671.96
558.65	59739.83
558.81	59772.60
558.98	59950.48
559.14	59959.84
559.31	59763.24
559.47	59992.61
559.64	59910.69
559.80	60055.81
559.97	60116.66
560.13	59779.62
560.30	59903.67
560.46	60130.70
560.63	60191.56
560.79	60144.75
560.96	60142.41
561.12	60069.85
561.29	60154.11
561.45	60236.03
561.61	60069.85
561.78	60041.76
561.94	60133.04
562.11	60339.01
562.27	60149.43
562.44	60413.91
562.60	60313.26
562.77	60130.70
562.93	60179.85
563.10	60128.36
563.26	59997.29
563.42	60456.04
563.59	60303.90
563.75	60196.24
563.92	60336.67
564.08	60130.70
564.24	60423.27
564.41	60470.08
564.57	60507.53
564.74	60343.69
564.90	60465.40
565.07	60481.78
565.23	60446.68
565.39	60460.72
565.56	60439.65
565.72	60519.23
565.88	60505.19
566.05	60559.02
566.21	60357.74
566.38	60519.23
566.54	60411.57
566.70	60498.17
566.87	60622.22
567.03	60519.23
567.19	60739.24
567.36	60575.40
567.52	60453.70
567.68	60547.32
567.85	60519.23
568.01	60748.60
568.17	60542.64
568.34	60690.09
568.50	60797.76
568.66	60617.53
568.83	60533.28
568.99	60676.05
569.15	60615.19
569.32	60741.58
569.48	60484.12
569.64	60823.50
569.81	60598.81
569.97	60802.44
570.13	60692.43
570.30	60594.13
570.46	60704.13
570.62	60959.25
570.78	60800.10
570.95	60736.90
571.11	60973.30
571.27	60870.31
571.43	60905.42
571.60	60992.02
571.76	60589.45
571.92	60992.02
572.09	60914.78
572.25	60846.91
572.41	60636.26
572.57	60926.49
572.74	61106.71
572.90	60961.59
573.06	60903.08
573.22	61050.53
573.38	60856.27
573.55	61041.17
573.71	61095.00
573.87	61050.53
574.03	60947.55
574.20	60903.08
574.36	60975.64
574.52	60910.10
574.68	60940.53
574.84	61162.88
575.01	61188.63
575.17	61052.87
575.33	61017.77
575.49	61006.06
575.65	60987.34
575.82	61008.40
575.98	61069.26
576.14	61207.35
576.30	61139.47
576.46	60940.53
576.62	60989.68
576.79	61064.58
576.95	61006.06
577.11	61104.37
577.27	61230.75
577.43	61195.65
577.59	60849.25
577.75	60921.80
577.92	60959.25
578.08	61111.39
578.24	61190.97
578.40	61296.29
578.56	61340.76
578.72	61055.21
578.88	61366.51
579.04	61361.82
579.21	61202.67
579.37	61322.04
579.53	61181.60
579.69	60870.31
579.85	61193.31
580.01	61069.26
580.17	61066.92
580.33	61059.90
580.49	61153.52
580.65	61205.01
580.82	60947.55
580.98	61174.58
581.14	60907.76
581.30	61331.40
581.46	61354.80
581.62	61277.57
581.78	61186.28
581.94	61528.00
582.10	61195.65
582.26	61162.88
582.42	61050.53
582.58	61118.41
582.74	61055.21
582.90	61132.45
583.06	61275.22
583.22	60900.74
583.38	61172.24
583.54	61275.22
583.70	61385.23
583.86	61249.48
584.02	60919.46
584.18	61310.33
584.34	61169.90
584.50	61181.60
584.66	61038.83
584.82	61095.00
584.98	61331.40
585.14	61284.59
585.30	61214.37
585.46	61064.58
585.62	61284.59
585.78	61406.30
585.94	61212.03
586.10	61282.25
586.26	61305.65
586.42	61350.12
586.58	61382.89
586.74	61230.75
586.90	61219.05
587.06	61223.73
587.22	61256.50
587.38	61462.47
587.54	61586.52
587.70	61502.26
587.86	61333.74
588.02	61242.46
588.18	61509.28
588.34	61441.40
588.49	61455.45
