SpectraSuite Data File
++++++++++++++++++++++++++++++++++++
Date: Fri Oct 25 11:23:16 EDT 2013
User: price-jones
Dark Spectrum Present: No
Reference Spectrum Present: No
Number of Sampled Component Spectra: 1
Spectrometers: USB2+H05261
Integration Time (usec): 100000 (USB2+H05261)
Spectra Averaged: 1 (USB2+H05261)
Boxcar Smoothing: 0 (USB2+H05261)
Correct for Electrical Dark: No (USB2+H05261)
Strobe/Lamp Enabled: No (USB2+H05261)
Correct for Detector Non-linearity: No (USB2+H05261)
Correct for Stray Light: No (USB2+H05261)
Number of Pixels in Processed Spectrum: 2048
>>>>>Begin Processed Spectral Data<<<<<
365.73	198.95
365.92	198.95
366.12	198.95
366.32	159.16
366.52	140.43
366.72	147.45
366.91	154.48
367.11	126.39
367.31	128.73
367.51	102.98
367.70	105.32
367.90	86.60
368.10	88.94
368.30	182.56
368.49	138.09
368.69	198.95
368.89	147.45
369.09	60.85
369.28	128.73
369.48	133.41
369.68	177.88
369.87	208.31
370.07	215.33
370.27	205.97
370.47	308.95
370.66	566.41
370.86	615.56
371.06	638.97
371.25	683.44
371.45	716.20
371.65	662.37
371.84	676.41
372.04	657.69
372.24	732.59
372.44	741.95
372.63	767.70
372.83	751.31
373.03	765.36
373.22	777.06
373.42	786.42
373.62	802.80
373.81	795.78
374.01	779.40
374.21	671.73
374.40	772.38
374.60	849.61
374.79	861.32
374.99	814.51
375.19	847.27
375.38	830.89
375.58	894.08
375.78	851.96
375.97	868.34
376.17	889.40
376.37	786.42
376.56	851.96
376.76	849.61
376.95	830.89
377.15	924.51
377.35	926.85
377.54	819.19
377.74	870.68
377.93	866.00
378.13	945.58
378.33	990.05
378.52	931.53
378.72	966.64
378.91	917.49
379.11	992.39
379.31	922.17
379.50	950.26
379.70	1034.52
379.89	894.08
380.09	1015.79
380.28	1048.56
380.48	1022.81
380.68	943.24
380.87	1046.22
381.07	1015.79
381.26	999.41
381.46	1027.50
381.65	1015.79
381.85	1135.16
382.04	1116.44
382.24	1013.45
382.43	1139.84
382.63	1022.81
382.83	1048.56
383.02	1167.93
383.22	1078.99
383.41	1118.78
383.61	1081.33
383.80	1240.48
384.00	1142.18
384.19	1076.65
384.39	1172.61
384.58	1179.63
384.78	1158.57
384.97	1137.50
385.17	1139.84
385.36	1203.04
385.56	1107.07
385.75	1144.52
385.95	1137.50
386.14	1151.54
386.34	1165.59
386.53	1207.72
386.72	1207.72
386.92	1289.64
387.11	1142.18
387.31	1348.15
387.50	1315.38
387.70	1235.80
387.89	1327.08
388.09	1231.12
388.28	1284.95
388.48	1327.08
388.67	1303.68
388.86	1336.45
389.06	1371.55
389.25	1270.91
389.45	1308.36
389.64	1397.30
389.84	1334.11
390.03	1418.36
390.22	1331.76
390.42	1341.13
390.61	1313.04
390.81	1420.71
391.00	1488.58
391.19	1458.15
391.39	1425.39
391.58	1514.33
391.78	1380.92
391.97	1423.05
392.16	1343.47
392.36	1544.75
392.55	1551.78
392.75	1591.56
392.94	1568.16
393.13	1603.27
393.33	1570.50
393.52	1533.05
393.71	1668.80
393.91	1629.01
394.10	1537.73
394.29	1614.97
394.49	1549.43
394.68	1633.69
394.88	1626.67
395.07	1717.95
395.26	1685.19
395.46	1781.15
395.65	1762.42
395.84	1734.34
396.04	1760.08
396.23	1914.56
396.42	1727.32
396.62	1767.10
396.81	1757.74
397.00	1900.52
397.19	1734.34
397.39	1802.21
397.58	1872.43
397.77	1806.89
397.97	1956.69
398.16	1823.28
398.35	1928.60
398.55	1816.26
398.74	1970.73
398.93	1963.71
399.12	2017.54
399.32	2012.86
399.51	1952.01
399.70	2099.46
399.90	2005.84
400.09	2101.80
400.28	2062.01
400.47	2101.80
400.67	2059.67
400.86	2040.95
401.05	1991.80
401.24	2122.87
401.44	2122.87
401.63	2181.38
401.82	2174.36
402.01	2050.31
402.21	2289.04
402.40	2244.57
402.59	2188.40
402.78	2232.87
402.97	2310.11
403.17	2190.74
403.36	2190.74
403.55	2232.87
403.74	2284.36
403.93	2394.37
404.13	2387.35
404.32	2389.69
404.51	2422.45
404.70	2438.84
404.89	2495.01
405.09	2630.76
405.28	2455.22
405.47	2478.63
405.66	2478.63
405.85	2525.44
406.05	2459.90
406.24	2509.05
406.43	2586.29
406.62	2555.86
406.81	2766.51
407.00	2555.86
407.20	2480.97
407.39	2712.68
407.58	2722.04
407.77	2757.15
407.96	2780.56
408.15	2827.37
408.34	2892.90
408.54	2733.75
408.73	2841.41
408.92	2995.89
409.11	2979.50
409.30	2899.92
409.49	2881.20
409.68	2864.82
409.87	2925.67
410.07	2970.14
410.26	3133.98
410.45	3014.61
410.64	3145.68
410.83	3117.59
411.02	3169.09
411.21	3089.51
411.40	3136.32
411.59	3220.58
411.78	3112.91
411.98	3229.94
412.17	3307.18
412.36	3351.65
412.55	3400.80
412.74	3480.38
412.93	3506.12
413.12	3379.73
413.31	3585.70
413.50	3389.10
413.69	3487.40
413.88	3555.27
414.07	3548.25
414.26	3646.55
414.45	3576.34
414.64	3716.77
414.83	3735.50
415.02	3920.40
415.22	3861.88
415.41	3908.69
415.60	4009.34
415.79	3936.78
415.98	4011.68
416.17	4037.42
416.36	3992.95
416.55	3941.46
416.74	4060.83
416.93	4072.53
417.12	4173.18
417.31	4196.58
417.50	4175.52
417.69	4404.89
417.88	4196.58
418.07	4292.54
418.26	4259.78
418.45	4271.48
418.64	4667.03
418.83	4615.54
419.02	4470.42
419.21	4468.08
419.39	4486.81
419.58	4411.91
419.77	4517.23
419.96	4655.33
420.15	4685.75
420.34	4657.67
420.53	4699.80
420.72	4730.22
420.91	4636.60
421.10	4847.25
421.29	4947.89
421.48	4697.46
421.67	4690.43
421.86	4828.53
422.05	4880.02
422.24	4779.37
422.43	4910.44
422.61	4868.31
422.80	4884.70
422.99	4964.28
423.18	5022.79
423.37	4961.94
423.56	5055.56
423.75	4894.06
423.94	4964.28
424.13	4610.86
424.32	4903.42
424.50	5034.49
424.69	5074.28
424.88	5071.94
425.07	5006.41
425.26	4912.78
425.45	5069.60
425.64	5050.88
425.83	5064.92
426.01	5050.88
426.20	5004.07
426.39	5128.11
426.58	4947.89
426.77	5057.90
426.96	5193.65
427.15	5289.61
427.33	5217.05
427.52	5334.08
427.71	5369.19
427.90	5270.89
428.09	5408.98
428.28	5432.38
428.46	5467.49
428.65	5486.22
428.84	5657.07
429.03	5614.95
429.22	5390.25
429.40	5582.18
429.59	5598.56
429.78	5289.61
429.97	5308.34
430.16	5495.58
430.34	5607.92
430.53	5764.74
430.72	5558.77
430.91	5760.06
431.10	5790.49
431.28	5865.38
431.47	5809.21
431.66	5888.79
431.85	5755.38
432.03	5909.85
432.22	6111.14
432.41	6122.84
432.60	5881.77
432.79	5970.71
432.97	6043.26
433.16	6143.91
433.35	6083.05
433.54	6237.53
433.72	6150.93
433.91	6047.94
434.10	6228.17
434.28	6230.51
434.47	6232.85
434.66	6406.05
434.85	6387.32
435.03	6466.90
435.22	6359.24
435.41	6602.65
435.59	6473.92
435.78	6534.78
435.97	6619.04
436.16	6504.35
436.34	6436.47
436.53	6597.97
436.72	6644.78
436.90	6504.35
437.09	6700.95
437.28	6569.88
437.46	6754.79
437.65	6553.50
437.84	6848.41
438.02	6913.94
438.21	6789.89
438.40	6782.87
438.58	7002.88
438.77	6984.16
438.96	6946.71
439.14	7124.59
439.33	7229.91
439.52	7098.84
439.70	7157.36
439.89	7426.52
440.08	7424.18
440.26	7452.27
440.45	7410.14
440.63	7545.89
440.82	7559.93
441.01	7616.10
441.19	7651.21
441.38	7843.14
441.57	7765.90
441.75	7829.09
441.94	8025.70
442.12	7995.27
442.31	7976.55
442.50	8107.62
442.68	7990.59
442.87	8084.21
443.05	7936.76
443.24	8336.99
443.43	8205.92
443.61	8390.82
443.80	8535.93
443.98	8023.36
444.17	7976.55
444.35	8271.45
444.54	8428.27
444.73	8479.76
444.91	8358.05
445.10	8477.42
445.28	8217.62
445.47	8234.00
445.65	8369.76
445.84	8531.25
446.02	8568.70
446.21	8458.70
446.39	8652.96
446.58	8496.14
446.77	8650.62
446.95	8329.97
447.14	8461.04
447.32	8652.96
447.51	8571.04
447.69	8533.59
447.88	8652.96
448.06	8615.51
448.25	8395.50
448.43	8805.10
448.62	8486.78
448.80	8669.34
448.99	8746.58
449.17	8795.73
449.36	8823.82
449.54	8973.61
449.73	8954.89
449.91	8973.61
450.10	9118.73
450.28	9200.65
450.46	8999.36
450.65	8926.80
450.83	9018.08
451.02	8990.00
451.20	9233.41
451.39	9406.61
451.57	9132.77
451.76	9217.03
451.94	9289.59
452.13	9617.26
452.31	9469.81
452.49	9177.24
452.68	9364.48
452.86	9607.90
453.05	9657.05
453.23	9493.21
453.42	9584.49
453.60	9174.90
453.78	9458.10
453.97	9509.60
454.15	9549.39
454.34	9565.77
454.52	9757.69
454.70	9666.41
454.89	9619.60
455.07	9989.41
455.26	9923.87
455.44	10150.90
455.62	10047.92
455.81	9949.62
455.99	10272.61
456.17	10157.92
456.36	9860.68
456.54	10136.86
456.73	10303.04
456.91	10518.37
457.09	10401.34
457.28	10429.43
457.46	10218.78
457.64	10672.84
457.83	10621.35
458.01	10691.57
458.19	10843.70
458.38	10614.33
458.56	10934.98
458.74	10913.92
458.93	10698.59
459.11	10743.06
459.29	10813.28
459.48	10974.77
459.66	10696.25
459.84	10663.48
460.03	11257.98
460.21	11154.99
460.39	11084.78
460.57	11126.91
460.76	11328.19
460.94	11227.55
461.12	11414.79
461.31	11122.23
461.49	11260.32
461.67	11297.77
461.85	11595.01
462.04	11349.26
462.22	11482.67
462.40	11733.11
462.59	11810.34
462.77	11662.89
462.95	11676.93
463.13	11775.24
463.32	11868.86
463.50	11857.15
463.68	11843.11
463.86	11960.14
464.05	11630.12
464.23	11969.50
464.41	11908.65
464.59	11882.90
464.78	12065.46
464.96	12077.16
465.14	11866.52
465.32	12180.15
465.50	12233.98
465.69	12376.75
465.87	12163.76
466.05	12355.69
466.23	12343.99
466.41	12243.34
466.60	12517.18
466.78	12140.36
466.96	12304.20
467.14	12346.33
467.32	12615.49
467.51	12666.98
467.69	12255.04
467.87	12575.70
468.05	12704.43
468.23	12706.77
468.41	12695.07
468.60	12802.73
468.78	12973.59
468.96	12505.48
469.14	12929.12
469.32	12945.50
469.50	12772.30
469.69	12856.56
469.87	13259.13
470.05	13235.73
470.23	13373.82
470.41	13193.60
470.59	13364.46
470.77	13378.50
470.95	13366.80
471.14	13752.99
471.32	13015.72
471.50	13778.73
471.68	13968.32
471.86	13935.55
472.04	13841.93
472.22	14008.11
472.40	13689.79
472.58	13717.88
472.77	14237.48
472.95	14127.47
473.13	14658.78
473.31	14225.78
473.49	14080.66
473.67	14340.46
473.85	14415.36
474.03	14789.85
474.21	14855.38
474.39	15051.99
474.57	14780.48
474.75	15021.56
474.93	15147.95
475.12	15049.64
475.30	15330.51
475.48	15250.93
475.66	15431.15
475.84	15274.34
476.02	15407.75
476.20	15597.33
476.38	15836.06
476.56	16240.98
476.74	16252.68
476.92	16112.25
477.10	15875.85
477.28	16313.53
477.46	16435.24
477.64	16336.94
477.82	16788.66
478.00	17294.22
478.18	16952.50
478.36	17104.64
478.54	17497.84
478.72	17216.98
478.90	17846.58
479.08	17572.74
479.26	17858.29
479.44	17937.87
479.62	17855.95
479.80	18169.58
479.98	18527.68
480.16	18703.22
480.34	18527.68
480.52	18705.56
480.70	18813.23
480.88	18579.17
481.06	19012.17
481.24	19178.35
481.41	19019.19
481.59	19592.62
481.77	19548.15
481.95	19726.04
482.13	19826.68
482.31	19894.55
482.49	20610.76
482.67	20556.93
482.85	20790.98
483.03	20844.81
483.21	20973.54
483.39	21277.81
483.57	20870.56
483.74	21268.45
483.92	21509.52
484.10	21429.94
484.28	21820.81
484.46	21979.97
484.64	22644.68
484.82	22265.52
485.00	22640.00
485.18	22895.12
485.35	22998.10
485.53	23257.90
485.71	23403.02
485.89	23821.97
486.07	23396.00
486.25	23777.50
486.43	23875.80
486.61	24161.35
486.78	24507.75
486.96	24528.81
487.14	24800.32
487.32	24606.05
487.50	25439.28
487.68	25301.19
487.85	25495.46
488.03	25635.89
488.21	26101.65
488.39	25764.62
488.57	26471.46
488.75	26719.56
488.92	26251.45
489.10	26822.54
489.28	26820.20
489.46	27091.70
489.64	27108.08
489.81	27892.16
489.99	28102.81
490.17	28238.56
490.35	28292.40
490.53	28315.80
490.70	28753.48
490.88	28575.60
491.06	29266.06
491.24	28964.13
491.41	29577.35
491.59	29467.34
491.77	29734.17
491.95	30036.09
492.13	30181.21
492.30	30504.20
492.48	30431.65
492.66	30204.61
492.84	30302.92
493.01	31009.76
493.19	30756.98
493.37	31323.39
493.54	31601.91
493.72	31861.71
493.90	31807.88
494.08	32250.24
494.25	32407.06
494.43	32662.18
494.61	33067.09
494.79	32760.48
494.96	32830.69
495.14	33436.89
495.32	33832.44
495.49	33209.86
495.67	33682.65
495.85	34033.73
496.02	33818.40
496.20	33897.98
496.38	34356.72
496.55	34113.31
496.73	35627.63
496.91	35065.91
497.09	35180.59
497.26	35026.12
497.44	35248.47
497.62	35735.30
497.79	36231.49
497.97	35634.66
498.14	35903.82
498.32	36493.63
498.50	36704.28
498.67	36933.65
498.85	36964.08
499.03	37156.00
499.20	37294.10
499.38	37436.87
499.56	37493.04
499.73	37329.20
499.91	37972.85
500.08	38337.98
500.26	37909.66
500.44	38082.86
500.61	38045.41
500.79	38141.37
500.97	38213.93
501.14	39047.16
501.32	38728.84
501.49	39035.45
501.67	39119.71
501.84	39079.92
502.02	39246.10
502.20	39524.63
502.37	39431.01
502.55	39477.82
502.72	40055.93
502.90	40079.33
503.07	40184.66
503.25	40147.21
503.43	40589.57
503.60	40664.47
503.78	40666.81
503.95	40748.73
504.13	40928.95
504.30	40823.62
504.48	40959.38
504.65	40980.44
504.83	41317.48
505.01	41811.33
505.18	41511.74
505.36	41621.75
505.53	40924.27
505.71	42096.88
505.88	42146.03
506.06	41734.09
506.23	42649.24
506.41	42127.30
506.58	42314.55
506.76	42492.43
506.93	42927.77
507.11	42787.33
507.28	42794.36
507.46	43409.92
507.63	43255.44
507.81	43650.99
507.98	43281.19
508.16	43412.26
508.33	43782.06
508.50	44376.56
508.68	44179.95
508.85	44449.11
509.03	44102.71
509.20	44481.88
509.38	44924.24
509.55	44793.17
509.73	44650.40
509.90	44692.53
510.08	45336.18
510.25	45008.50
510.42	45322.13
510.60	45411.07
510.77	45537.46
510.95	45750.45
511.12	45413.41
511.30	45439.16
511.47	45752.79
511.64	45862.80
511.82	46206.86
511.99	46328.56
512.17	46419.84
512.34	46124.94
512.51	46911.36
512.69	46515.81
512.86	46866.89
513.04	47028.38
513.21	46946.47
513.38	46850.50
513.56	47201.58
513.73	47054.13
513.90	47470.75
514.08	47372.44
514.25	47550.32
514.43	47573.73
514.60	47873.32
514.77	47920.13
514.95	48266.53
515.12	48095.67
515.29	48020.77
515.47	48048.86
515.64	48659.74
515.81	48523.99
515.99	48273.55
516.16	48736.98
516.33	48699.53
516.51	48940.60
516.68	49050.61
516.85	48669.10
517.03	49317.43
517.20	49525.74
517.37	49312.75
517.54	49125.50
517.72	49450.84
517.89	49745.75
518.06	49689.57
518.24	49502.33
518.41	49825.32
518.58	49705.96
518.75	49581.91
518.93	50181.09
519.10	49825.32
519.27	50042.99
519.45	50176.40
519.62	50471.31
519.79	50354.29
519.96	50365.99
520.14	50438.54
520.31	50625.79
520.48	51150.07
520.65	50738.13
520.83	51058.79
521.00	51243.69
521.17	50976.87
521.34	51112.62
521.52	50972.19
521.69	50923.04
521.86	51377.10
522.03	51459.02
522.20	51501.15
522.38	51753.93
522.55	51688.39
522.72	51805.42
522.89	51906.06
523.07	51950.53
523.24	51941.17
523.41	51997.34
523.58	51796.06
523.75	52233.74
523.92	52205.65
524.10	52505.24
524.27	52615.24
524.44	52310.97
524.61	52376.51
524.78	52491.19
524.96	52446.72
525.13	52615.24
525.30	53041.22
525.47	52849.30
525.64	52779.08
525.81	52889.09
525.98	52931.22
526.16	53165.27
526.33	52879.72
526.50	53209.74
526.67	53162.93
526.84	53162.93
527.01	53216.76
527.18	53003.77
527.36	53326.77
527.53	53289.32
527.70	53567.84
527.87	53710.61
528.04	53221.44
528.21	53696.57
528.38	53705.93
528.55	53640.40
528.72	53680.19
528.89	53542.10
529.07	53792.53
529.24	53654.44
529.41	54157.66
529.58	53783.17
529.75	53993.82
529.92	54248.94
530.09	54258.30
530.26	54167.02
530.43	54356.60
530.60	53932.96
530.77	54216.17
530.94	54389.37
531.11	54176.38
531.28	54548.53
531.46	54501.71
531.63	54684.28
531.80	54478.31
531.97	54740.45
532.14	54693.64
532.31	54843.43
532.48	54955.78
532.65	55007.27
532.82	54883.22
532.99	54981.52
533.16	54913.65
533.33	54930.03
533.50	55138.34
533.67	55042.38
533.84	54686.62
534.01	55325.58
534.18	55241.32
534.35	55543.25
534.52	55613.47
534.69	55671.98
534.86	55704.75
535.03	55304.52
535.20	55257.71
535.37	55533.89
535.54	55798.37
535.71	55597.09
535.88	55690.71
536.05	55856.88
536.22	55915.40
536.38	55959.87
536.55	55882.63
536.72	55728.16
536.89	55861.57
537.06	55859.23
537.23	56095.62
537.40	56086.26
537.57	55910.72
537.74	56161.15
537.91	56170.52
538.08	56130.73
538.25	55884.97
538.42	56243.07
538.59	56467.76
538.75	56016.04
538.92	56254.78
539.09	56397.55
539.26	56343.72
539.43	56523.94
539.60	56680.75
539.77	56392.87
539.94	56830.55
540.11	56664.37
540.28	56807.14
540.44	56772.03
540.61	56589.47
540.78	56640.96
540.95	56626.92
541.12	56549.68
541.29	56905.44
541.46	56741.61
541.62	56858.63
541.79	57038.86
541.96	56542.66
542.13	56673.73
542.30	57120.77
542.47	57111.41
542.63	57207.37
542.80	57293.97
542.97	57338.44
543.14	57291.63
543.31	57403.98
543.48	57532.71
543.64	57602.92
543.81	57546.75
543.98	57303.34
544.15	57628.67
544.32	57851.02
544.48	57675.48
544.65	57528.03
544.82	57724.63
544.99	57497.60
545.16	57848.68
545.32	57593.56
545.49	58033.58
545.66	57911.88
545.83	58056.99
546.00	58035.92
546.16	57968.05
546.33	57799.53
546.50	57586.54
546.67	58021.88
546.83	57783.15
547.00	57818.25
547.17	58003.16
547.34	58080.39
547.50	58286.36
547.67	58164.65
547.84	58190.40
548.00	58288.70
548.17	58471.26
548.34	58379.98
548.51	58461.90
548.67	58295.72
548.84	58417.43
549.01	58286.36
549.18	58607.01
549.34	58365.94
549.51	58628.08
549.68	58724.04
549.84	58646.80
550.01	58468.92
550.18	58424.45
550.34	58649.14
550.51	58805.96
550.68	58623.40
550.84	58489.99
551.01	58731.06
551.18	58803.62
551.34	58810.64
551.51	58672.55
551.68	58845.75
551.84	58981.50
552.01	58803.62
552.18	58974.48
552.34	58864.47
552.51	58918.31
552.68	58946.39
552.84	59044.69
553.01	59262.36
553.18	59194.49
553.34	59250.66
553.51	58993.20
553.67	59025.97
553.84	59154.70
554.01	59285.77
554.17	59166.40
554.34	59311.52
554.51	59173.42
554.67	59236.62
554.84	59313.86
555.00	59330.24
555.17	59292.79
555.33	59384.07
555.50	59054.06
555.67	59379.39
555.83	59154.70
556.00	59344.28
556.16	59620.47
556.33	59566.63
556.50	59540.89
556.66	59669.62
556.83	59353.65
556.99	59753.88
557.16	59753.88
557.32	59749.20
557.49	59882.61
557.65	59491.74
557.82	59634.51
557.98	59550.25
558.15	59655.57
558.32	59721.11
558.48	59606.42
558.65	59643.87
558.81	59583.02
558.98	59791.33
559.14	59910.69
559.31	60062.83
559.47	60044.10
559.64	60074.53
559.80	59985.59
559.97	60107.30
560.13	59884.95
560.30	59903.67
560.46	60104.96
560.63	60079.21
560.79	60119.00
560.96	60275.82
561.12	60041.76
561.29	60060.49
561.45	60083.89
561.61	60093.25
561.78	60137.72
561.94	60119.00
562.11	60151.77
562.27	60135.38
562.44	60161.13
562.60	60161.13
562.77	60275.82
562.93	59983.25
563.10	60453.70
563.26	60147.09
563.42	60474.76
563.59	60100.28
563.75	60329.65
563.92	60233.69
564.08	60282.84
564.24	60418.59
564.41	60432.63
564.57	60357.74
564.74	60402.21
564.90	60308.58
565.07	60395.18
565.23	60296.88
565.39	60460.72
565.56	60432.63
565.72	60350.71
565.88	60371.78
566.05	60362.42
566.21	60416.25
566.38	60556.68
566.54	60645.62
566.70	60596.47
566.87	60739.24
567.03	60432.63
567.19	60376.46
567.36	60633.92
567.52	60537.96
567.68	60764.99
567.85	60427.95
568.01	60666.69
568.17	60552.00
568.34	60753.29
568.50	60500.51
568.66	60381.14
568.83	60477.10
568.99	60549.66
569.15	60676.05
569.32	60622.22
569.48	60692.43
569.64	60734.56
569.81	60786.05
569.97	60718.18
570.13	60566.04
570.30	60654.98
570.46	60748.60
570.62	60519.23
570.78	60832.86
570.95	60741.58
571.11	61015.43
571.27	60725.20
571.43	60699.45
571.60	60856.27
571.76	60968.61
571.92	60884.36
572.09	60708.82
572.25	60926.49
572.41	60704.13
572.57	60809.46
572.74	61076.28
572.90	60900.74
573.06	60959.25
573.22	60767.33
573.38	60975.64
573.55	60867.97
573.71	60956.91
573.87	61001.38
574.03	60828.18
574.20	60910.10
574.36	60956.91
574.52	60882.02
574.68	61151.18
574.84	60963.93
575.01	60945.21
575.17	61062.24
575.33	60779.03
575.49	60818.82
575.65	61113.73
575.82	61076.28
575.98	61066.92
576.14	61205.01
576.30	61083.30
576.46	61022.45
576.62	60999.04
576.79	60917.12
576.95	60858.61
577.11	61055.21
577.27	61279.91
577.43	61202.67
577.59	60914.78
577.75	61123.09
577.92	60942.87
578.08	61013.08
578.24	61169.90
578.40	61233.10
578.56	61151.18
578.72	60893.72
578.88	61223.73
579.04	61371.19
579.21	61289.27
579.37	61286.93
579.53	61041.17
579.69	60816.48
579.85	61036.49
580.01	61116.07
580.17	60980.32
580.33	61247.14
580.49	61197.99
580.65	61263.52
580.82	61017.77
580.98	60919.46
581.14	61078.62
581.30	61181.60
581.46	61181.60
581.62	61048.19
581.78	61116.07
581.94	61293.95
582.10	61144.16
582.26	61216.71
582.42	61258.84
582.58	61226.07
582.74	61202.67
582.90	60954.57
583.06	61289.27
583.22	61132.45
583.38	61375.87
583.54	61190.97
583.70	61113.73
583.86	61336.08
584.02	61022.45
584.18	61251.82
584.34	61195.65
584.50	61087.98
584.66	61029.47
584.82	61113.73
584.98	61408.64
585.14	61242.46
585.30	61162.88
585.46	61043.51
585.62	61293.95
585.78	61427.36
585.94	61137.13
586.10	61279.91
586.26	61078.62
586.42	61340.76
586.58	61212.03
586.74	61371.19
586.90	61272.88
587.06	61249.48
587.22	61188.63
587.38	61375.87
587.54	61289.27
587.70	61429.70
587.86	61214.37
588.02	61357.14
588.18	61490.55
588.34	61181.60
