SpectraSuite Data File
++++++++++++++++++++++++++++++++++++
Date: Fri Oct 25 10:44:22 EDT 2013
User: price-jones
Dark Spectrum Present: No
Reference Spectrum Present: No
Number of Sampled Component Spectra: 1
Spectrometers: USB2+H05261
Integration Time (usec): 100000 (USB2+H05261)
Spectra Averaged: 1 (USB2+H05261)
Boxcar Smoothing: 0 (USB2+H05261)
Correct for Electrical Dark: No (USB2+H05261)
Strobe/Lamp Enabled: No (USB2+H05261)
Correct for Detector Non-linearity: No (USB2+H05261)
Correct for Stray Light: No (USB2+H05261)
Number of Pixels in Processed Spectrum: 2048
>>>>>Begin Processed Spectral Data<<<<<
365.73	138.09
365.92	138.09
366.12	138.09
366.32	42.13
366.52	14.04
366.72	7.02
366.91	0.00
367.11	88.94
367.31	56.17
367.51	9.36
367.70	79.58
367.90	14.04
368.10	7.02
368.30	46.81
368.49	0.00
368.69	35.11
368.89	39.79
369.09	0.00
369.28	0.00
369.48	88.94
369.68	51.49
369.87	39.79
370.07	140.43
370.27	182.56
370.47	180.22
370.66	393.21
370.86	463.43
371.06	493.85
371.25	514.92
371.45	447.04
371.65	451.72
371.84	437.68
372.04	444.70
372.24	482.15
372.44	418.96
372.63	477.47
372.83	545.34
373.03	594.50
373.22	610.88
373.42	571.09
373.62	484.49
373.81	503.22
374.01	531.30
374.21	568.75
374.40	641.31
374.60	617.90
374.79	475.13
374.99	564.07
375.19	617.90
375.38	594.50
375.58	589.82
375.78	622.58
375.97	599.18
376.17	606.20
376.37	660.03
376.56	578.11
376.76	603.86
376.95	601.52
377.15	615.56
377.35	601.52
377.54	624.92
377.74	601.52
377.93	653.01
378.13	741.95
378.33	706.84
378.52	645.99
378.72	636.63
378.91	662.37
379.11	641.31
379.31	617.90
379.50	634.29
379.70	746.63
379.89	697.48
380.09	786.42
380.28	711.52
380.48	716.20
380.68	763.01
380.87	779.40
381.07	753.65
381.26	683.44
381.46	758.33
381.65	657.69
381.85	702.16
382.04	741.95
382.24	784.08
382.43	779.40
382.63	732.59
382.83	704.50
383.02	702.16
383.22	779.40
383.41	718.54
383.61	777.06
383.80	798.12
384.00	767.70
384.19	795.78
384.39	802.80
384.58	725.57
384.78	809.83
384.97	854.30
385.17	819.19
385.36	844.93
385.56	779.40
385.75	842.59
385.95	739.61
386.14	809.83
386.34	844.93
386.53	905.79
386.72	812.17
386.92	884.72
387.11	875.36
387.31	880.04
387.50	945.58
387.70	830.89
387.89	863.66
388.09	844.93
388.28	833.23
388.48	924.51
388.67	1039.20
388.86	978.34
389.06	966.64
389.25	1060.26
389.45	961.96
389.64	931.53
389.84	1020.47
390.03	945.58
390.22	1121.12
390.42	992.39
390.61	1093.03
390.81	1048.56
391.00	1125.80
391.19	1071.97
391.39	1139.84
391.58	1153.88
391.78	1088.35
391.97	1025.15
392.16	1060.26
392.36	1053.24
392.55	1048.56
392.75	1036.86
392.94	910.47
393.13	999.41
393.33	1032.18
393.52	1090.69
393.71	1097.71
393.91	1219.42
394.10	1214.74
394.29	1172.61
394.49	1174.95
394.68	1179.63
394.88	1313.04
395.07	1327.08
395.26	1336.45
395.46	1287.29
395.65	1273.25
395.84	1238.14
396.04	1277.93
396.23	1193.67
396.42	1270.91
396.62	1301.34
396.81	1334.11
397.00	1221.76
397.19	1233.46
397.39	1373.89
397.58	1502.62
397.77	1331.76
397.97	1453.47
398.16	1481.56
398.35	1537.73
398.55	1577.52
398.74	1650.08
398.93	1556.46
399.12	1467.52
399.32	1598.59
399.51	1533.05
399.70	1652.42
399.90	1554.12
400.09	1657.10
400.28	1657.10
400.47	1678.16
400.67	1701.57
400.86	1687.53
401.05	1650.08
401.24	1636.03
401.44	1811.57
401.63	1703.91
401.82	1760.08
402.01	1760.08
402.21	1856.04
402.40	1825.62
402.59	1872.43
402.78	1884.13
402.97	1781.15
403.17	1991.80
403.36	1872.43
403.55	1820.94
403.74	1858.39
403.93	1984.77
404.13	1820.94
404.32	1954.35
404.51	1937.96
404.70	1973.07
404.89	1954.35
405.09	2050.31
405.28	2047.97
405.47	1923.92
405.66	1996.48
405.85	2120.53
406.05	2047.97
406.24	2118.18
406.43	2223.51
406.62	2134.57
406.81	2293.72
407.00	2172.02
407.20	2043.29
407.39	2146.27
407.58	2260.96
407.77	2260.96
407.96	2225.85
408.15	2279.68
408.34	2275.00
408.54	2377.98
408.73	2324.15
408.92	2399.05
409.11	2452.88
409.30	2389.69
409.49	2373.30
409.68	2331.17
409.87	2361.60
410.07	2408.41
410.26	2525.44
410.45	2457.56
410.64	2579.27
410.83	2654.17
411.02	2717.36
411.21	2642.46
411.40	2726.72
411.59	2679.91
411.78	2738.43
411.98	2796.94
412.17	2775.88
412.36	2724.38
412.55	2792.26
412.74	2895.24
412.93	2841.41
413.12	2773.53
413.31	2892.90
413.50	2967.80
413.69	2993.55
413.88	3040.36
414.07	3166.74
414.26	3208.87
414.45	3112.91
414.64	3178.45
414.83	3222.92
415.02	3234.62
415.22	3241.64
415.41	3148.02
415.60	3220.58
415.79	3389.10
415.98	3335.26
416.17	3419.52
416.36	3335.26
416.55	3344.63
416.74	3363.35
416.93	3445.27
417.12	3552.93
417.31	3421.86
417.50	3398.46
417.69	3410.16
417.88	3426.54
418.07	3590.38
418.26	3611.45
418.45	3595.06
418.64	3822.09
418.83	3794.01
419.02	3758.90
419.21	3674.64
419.39	3705.07
419.58	3885.29
419.77	3684.00
419.96	3719.11
420.15	3763.58
420.34	3751.88
420.53	3985.93
420.72	4084.23
420.91	4009.34
421.10	4037.42
421.29	4070.19
421.48	3988.27
421.67	4121.68
421.86	4107.64
422.05	3918.06
422.24	3896.99
422.43	4011.68
422.61	4018.70
422.80	4070.19
422.99	4058.49
423.18	4042.11
423.37	4028.06
423.56	4067.85
423.75	4030.40
423.94	3946.14
424.13	3763.58
424.32	3955.51
424.50	4145.09
424.69	4184.88
424.88	4175.52
425.07	4051.47
425.26	4002.32
425.45	4182.54
425.64	4007.00
425.83	4163.81
426.01	4360.42
426.20	4301.90
426.39	4173.18
426.58	4109.98
426.77	4025.72
426.96	4133.39
427.15	4063.17
427.33	4131.05
427.52	4297.22
427.71	4306.59
427.90	4341.69
428.09	4280.84
428.28	4348.72
428.46	4215.30
428.65	4402.55
428.84	4418.93
429.03	4440.00
429.22	4344.03
429.40	4287.86
429.59	4250.41
429.78	4222.33
429.97	4037.42
430.16	4177.86
430.34	4184.88
430.53	4301.90
430.72	4407.23
430.91	4353.40
431.10	4533.62
431.28	4744.27
431.47	4643.62
431.66	4772.35
431.85	4699.80
432.03	4812.14
432.22	4868.31
432.41	4802.78
432.60	4931.51
432.79	4891.72
432.97	4844.91
433.16	4933.85
433.35	4933.85
433.54	4727.88
433.72	4795.76
433.91	4823.84
434.10	4961.94
434.28	5064.92
434.47	5032.15
434.66	5062.58
434.85	5090.67
435.03	5210.03
435.22	5153.86
435.41	5308.34
435.59	5289.61
435.78	5224.08
435.97	5493.24
436.16	5392.59
436.34	5273.23
436.53	5397.28
436.72	5390.25
436.90	5212.37
437.09	5455.79
437.28	5427.70
437.46	5270.89
437.65	5280.25
437.84	5406.64
438.02	5313.02
438.21	5373.87
438.40	5341.10
438.58	5638.35
438.77	5451.11
438.96	5570.48
439.14	5699.20
439.33	5785.80
439.52	5944.96
439.70	5841.98
439.89	5792.83
440.08	5832.62
440.26	5736.65
440.45	5926.24
440.63	6029.22
440.82	6031.56
441.01	6181.35
441.19	6190.72
441.38	6464.56
441.57	6349.87
441.75	6431.79
441.94	6476.26
442.12	6387.32
442.31	6586.27
442.50	6562.86
442.68	6686.91
442.87	6441.15
443.05	6780.53
443.24	6775.85
443.43	6888.20
443.61	6853.09
443.80	6916.28
443.98	6649.46
444.17	6581.59
444.35	6635.42
444.54	6871.81
444.73	6595.63
444.91	6757.13
445.10	6628.40
445.28	6654.14
445.47	6562.86
445.65	6649.46
445.84	6696.27
446.02	6829.68
446.21	6841.39
446.39	6874.15
446.58	6960.75
446.77	6794.58
446.95	6785.21
447.14	6876.49
447.32	7035.65
447.51	6927.99
447.69	6827.34
447.88	6902.24
448.06	6974.80
448.25	7091.82
448.43	7164.38
448.62	6995.86
448.80	6972.46
448.99	7061.40
449.17	7115.23
449.36	7026.29
449.54	7328.22
449.73	7382.05
449.91	7400.77
450.10	7459.29
450.28	7454.61
450.46	7588.02
450.65	7389.07
450.83	7541.21
451.02	7480.35
451.20	7569.29
451.39	7555.25
451.57	7372.69
451.76	7262.68
451.94	7456.95
452.13	7688.66
452.31	7609.08
452.49	7356.30
452.68	7559.93
452.86	7581.00
453.05	7693.34
453.23	7770.58
453.42	7590.36
453.60	7566.95
453.78	7552.91
453.97	7651.21
454.15	7639.51
454.34	7742.49
454.52	7824.41
454.70	7793.98
454.89	7908.67
455.07	7749.51
455.26	7925.05
455.44	7925.05
455.62	7850.16
455.81	8074.85
455.99	8086.55
456.17	8067.83
456.36	8297.20
456.54	8479.76
456.73	8234.00
456.91	8390.82
457.09	8322.94
457.28	8540.61
457.46	8376.78
457.64	8512.53
457.83	8444.65
458.01	8308.90
458.19	8514.87
458.38	8402.52
458.56	8706.79
458.74	8379.12
458.93	8547.64
459.11	8727.86
459.29	8704.45
459.48	8578.06
459.66	8683.39
459.84	8643.60
460.03	8961.91
460.21	8973.61
460.39	8917.44
460.57	8812.12
460.76	8634.24
460.94	9240.44
461.12	9048.51
461.31	8833.18
461.49	9004.04
461.67	8957.23
461.85	9167.88
462.04	8973.61
462.22	9240.44
462.40	9191.28
462.59	9301.29
462.77	9383.21
462.95	9280.22
463.13	9341.08
463.32	9226.39
463.50	9268.52
463.68	9399.59
463.86	9411.29
464.05	9355.12
464.23	9184.26
464.41	9266.18
464.59	9121.07
464.78	9568.11
464.96	9467.47
465.14	9275.54
465.32	9540.02
465.50	9631.30
465.69	9654.71
465.87	9575.13
466.05	9528.32
466.23	9420.66
466.41	9617.26
466.60	9619.60
466.78	9493.21
466.96	9549.39
467.14	9774.08
467.32	9769.40
467.51	9689.82
467.69	9514.28
467.87	9537.68
468.05	9996.43
468.23	9771.74
468.41	9783.44
468.60	9912.17
468.78	9891.10
468.96	10031.54
469.14	10061.96
469.32	10045.58
469.50	9902.81
469.69	10008.13
469.87	10326.44
470.05	10298.36
470.23	10153.24
470.41	9963.66
470.59	10359.21
470.77	10235.16
470.95	10438.79
471.14	10504.32
471.32	10272.61
471.50	10576.88
471.68	10576.88
471.86	10628.37
472.04	10600.29
472.22	10930.30
472.40	10572.20
472.58	10700.93
472.77	10909.24
472.95	11215.85
473.13	11208.83
473.31	10932.64
473.49	10754.76
473.67	10981.79
473.85	11162.01
474.03	11405.43
474.21	11487.35
474.39	11307.13
474.57	11489.69
474.75	11583.31
474.93	11667.57
475.12	11449.90
475.30	11548.20
475.48	11534.16
475.66	11836.09
475.84	11660.55
476.02	11723.74
476.20	11939.07
476.38	12018.65
476.56	12322.92
476.74	12245.68
476.92	12016.31
477.10	12212.92
477.28	12372.07
477.46	12561.66
477.64	12840.18
477.82	12692.73
478.00	12992.31
478.18	13097.64
478.36	13090.62
478.54	13128.06
478.72	13109.34
478.90	13359.78
479.08	13532.98
479.26	13549.36
479.44	13584.47
479.62	13891.08
479.80	13785.76
479.98	13893.42
480.16	14335.78
480.34	13919.17
480.52	14127.47
480.70	14178.97
480.88	14003.43
481.06	14450.47
481.24	14485.58
481.41	14633.03
481.59	14752.40
481.77	14932.62
481.95	15077.73
482.13	15159.65
482.31	15051.99
482.49	15382.00
482.67	15318.81
482.85	15393.70
483.03	15503.71
483.21	15695.63
483.39	15941.39
483.57	15962.45
483.74	16145.02
483.92	16301.83
484.10	16395.45
484.28	16437.58
484.46	16662.27
484.64	16882.28
484.82	16872.92
485.00	16940.80
485.18	16886.97
485.35	16896.33
485.53	16769.94
485.71	16657.59
485.89	16910.37
486.07	16760.58
486.25	17158.47
486.43	17406.56
486.61	17490.82
486.78	17867.65
486.96	18080.64
487.14	18312.35
487.32	18427.04
487.50	18506.62
487.68	18586.19
487.85	18993.45
488.03	19171.33
488.21	19161.97
488.39	19204.10
488.57	19070.68
488.75	19342.19
488.92	19915.62
489.10	19871.15
489.28	20039.67
489.46	20201.16
489.64	20259.68
489.81	20971.20
489.99	20699.70
490.17	20924.39
490.35	21034.39
490.53	20858.85
490.70	21095.25
490.88	21259.09
491.06	21647.61
491.24	21525.91
491.41	21394.84
491.59	21633.57
491.77	21479.10
491.95	21729.53
492.13	21830.18
492.30	22305.31
492.48	22370.84
492.66	22876.40
492.84	22604.89
493.01	22803.84
493.19	22745.33
493.37	22721.92
493.54	23122.15
493.72	23311.74
493.90	23372.59
494.08	23864.10
494.25	23503.66
494.43	23953.04
494.61	24016.24
494.79	24231.57
494.96	23971.77
495.14	24201.14
495.32	24329.87
495.49	24418.81
495.67	24641.16
495.85	25146.72
496.02	25247.36
496.20	25003.94
496.38	25392.47
496.55	25453.33
496.73	25720.15
496.91	25853.56
497.09	25811.43
497.26	26106.34
497.44	25575.03
497.62	26061.87
497.79	26068.89
497.97	26183.57
498.14	26225.70
498.32	26520.61
498.50	26597.85
498.67	26946.59
498.85	26515.93
499.03	26881.05
499.20	27056.59
499.38	26892.76
499.56	27304.69
499.73	27520.02
499.91	27562.15
500.08	27330.44
500.26	27042.55
500.44	27632.36
500.61	27517.68
500.79	27812.59
500.97	27983.44
501.14	28084.09
501.32	27871.10
501.49	27901.53
501.67	27917.91
501.84	28128.56
502.02	28182.39
502.20	28716.03
502.37	28620.07
502.55	28489.00
502.72	29104.56
502.90	28917.32
503.07	29001.58
503.25	29111.58
503.43	28659.86
503.60	28968.81
503.78	28980.51
503.95	28898.59
504.13	29280.10
504.30	29497.77
504.48	29649.91
504.65	29708.42
504.83	29558.63
505.01	29970.56
505.18	30066.52
505.36	30572.08
505.53	30473.78
505.71	30536.97
505.88	30773.36
506.06	29949.50
506.23	30494.84
506.41	30782.73
506.58	30691.44
506.76	30761.66
506.93	30831.88
507.11	30895.07
507.28	31026.14
507.46	30953.58
507.63	30998.06
507.81	31145.51
507.98	30909.11
508.16	31585.53
508.33	31407.65
508.50	31838.31
508.68	31852.35
508.85	32107.47
509.03	31812.56
509.20	31981.08
509.38	32472.59
509.55	32341.52
509.73	32329.82
509.90	32261.94
510.08	32081.72
510.25	32009.17
510.42	32636.43
510.60	32474.93
510.77	32875.16
510.95	32926.66
511.12	33301.14
511.30	33078.79
511.47	33474.34
511.64	33247.31
511.82	33261.35
511.99	33144.33
512.17	33207.52
512.34	33001.55
512.51	33720.10
512.69	33598.39
512.86	33530.51
513.04	34019.69
513.21	33614.77
513.38	33652.22
513.56	34115.65
513.73	34017.35
513.90	34132.03
514.08	33675.63
514.25	34075.86
514.43	34134.37
514.60	34057.14
514.77	33752.87
514.95	34150.76
515.12	34588.44
515.29	34464.39
515.47	34895.05
515.64	34707.80
515.81	34771.00
515.99	34691.42
516.16	34462.05
516.33	34314.59
516.51	34167.14
516.68	34352.04
516.85	34307.57
517.03	34370.77
517.20	34841.21
517.37	35119.74
517.54	35328.05
517.72	35328.05
517.89	34890.37
518.06	34672.70
518.24	34892.71
518.41	34995.69
518.58	35489.54
518.75	35491.88
518.93	35770.41
519.10	36093.40
519.27	35576.14
519.45	36163.62
519.62	35971.69
519.79	36687.90
519.96	36428.10
520.14	36418.74
520.31	36304.05
520.48	36554.49
520.65	36243.20
520.83	37017.91
521.00	37338.57
521.17	37113.87
521.34	37453.25
521.52	37048.34
521.69	37240.26
521.86	37413.46
522.03	37076.43
522.20	37102.17
522.38	37383.04
522.55	37333.89
522.72	37148.98
522.89	37170.05
523.07	37736.46
523.24	37589.00
523.41	37855.82
523.58	37626.45
523.75	38373.08
523.92	38359.04
524.10	38295.85
524.27	38366.06
524.44	38284.14
524.61	38653.95
524.78	38473.73
524.96	38754.59
525.13	38836.51
525.30	38691.40
525.47	38792.04
525.64	38476.07
525.81	38014.98
525.98	38405.85
526.16	38249.03
526.33	38637.56
526.50	38609.48
526.67	37886.25
526.84	38281.80
527.01	38150.73
527.18	38902.04
527.36	39182.91
527.53	39136.10
527.70	39475.48
527.87	39613.57
528.04	39566.76
528.21	39332.70
528.38	39445.05
528.55	39889.75
528.72	39739.96
528.89	40320.41
529.07	40044.23
529.24	39562.08
529.41	40069.97
529.58	39702.51
529.75	39328.02
529.92	40680.85
530.09	40266.58
530.26	40245.51
530.43	40222.11
530.60	40224.45
530.77	40119.12
530.94	40849.37
531.11	40362.54
531.28	40327.43
531.46	40540.42
531.63	41015.55
531.80	40079.33
531.97	39922.52
532.14	40278.28
532.31	39950.60
532.48	40446.80
532.65	40755.75
532.82	40395.31
532.99	40964.06
533.16	40919.59
533.33	40879.80
533.50	41347.90
533.67	40987.46
533.84	41139.60
534.01	41188.75
534.18	41057.68
534.35	41394.71
534.52	41123.21
534.69	41462.59
534.86	41521.10
535.03	41265.99
535.20	41596.00
535.37	42134.32
535.54	42447.96
535.71	41797.29
535.88	41619.41
536.05	41794.95
536.22	42073.47
536.38	41830.05
536.55	42026.66
536.72	41954.10
536.89	41942.40
537.06	41722.39
537.23	41949.42
537.40	41677.92
537.57	42295.82
537.74	41951.76
537.91	42572.00
538.08	42206.88
538.25	42099.22
538.42	42466.68
538.59	42284.12
538.75	42232.63
538.92	41949.42
539.09	42506.47
539.26	42391.78
539.43	42569.66
539.60	42600.09
539.77	42354.33
539.94	42473.70
540.11	42106.24
540.28	42295.82
540.44	42768.61
540.61	42302.84
540.78	42766.27
540.95	42504.13
541.12	42237.31
541.29	42759.25
541.46	42782.65
541.62	42909.04
541.79	43103.31
541.96	42525.19
542.13	42719.46
542.30	42848.19
542.47	43447.36
542.63	43264.80
542.80	43414.60
542.97	43643.97
543.14	43585.46
543.31	43913.13
543.48	43800.79
543.64	44486.56
543.81	43971.64
543.98	43854.62
544.15	43641.63
544.32	43931.86
544.48	43887.39
544.65	44076.97
544.82	44121.44
544.99	43611.20
545.16	44105.06
545.32	43711.84
545.49	44086.33
545.66	44762.75
545.83	44467.84
546.00	44758.06
546.16	44142.50
546.33	43716.53
546.50	44121.44
546.67	44376.56
546.83	44285.28
547.00	44411.67
547.17	44247.83
547.34	44215.06
547.50	44481.88
547.67	44856.37
547.84	45141.91
548.00	44732.32
548.17	44903.18
548.34	44573.16
548.51	45048.29
548.67	44748.70
548.84	44685.51
549.01	44949.99
549.18	44802.53
549.34	44540.39
549.51	44648.06
549.68	44844.66
549.84	44830.62
550.01	45104.46
550.18	44779.13
550.34	44800.19
550.51	44634.02
550.68	44704.23
550.84	45045.95
551.01	45247.24
551.18	44992.12
551.34	45214.47
551.51	45500.01
551.68	45237.87
551.84	45249.58
552.01	45003.82
552.18	44737.00
552.34	45069.36
552.51	45106.80
552.68	45392.35
552.84	45720.02
553.01	45951.74
553.18	45691.94
553.34	45647.47
553.51	45397.03
553.67	45336.18
553.84	45839.39
554.01	45773.86
554.17	45958.76
554.34	45743.43
554.51	45937.69
554.67	45773.86
554.84	45780.88
555.00	45888.54
555.17	45841.73
555.33	45675.55
555.50	45755.13
555.67	45670.87
555.83	45631.08
556.00	45923.65
556.16	46085.15
556.33	45703.64
556.50	45544.48
556.66	45736.41
556.83	45839.39
556.99	46227.92
557.16	46272.39
557.32	46082.81
557.49	46010.25
557.65	45916.63
557.82	46024.29
557.98	46265.37
558.15	46075.79
558.32	46096.85
558.48	45923.65
558.65	46017.27
558.81	45975.14
558.98	45888.54
559.14	46021.95
559.31	45982.16
559.47	46316.86
559.64	46398.78
559.80	46466.66
559.97	46506.44
560.13	45776.20
560.30	46298.14
560.46	45890.88
560.63	46408.14
560.79	46377.72
560.96	46586.02
561.12	46419.84
561.29	46396.44
561.45	46382.40
561.61	46274.73
561.78	46686.67
561.94	46375.37
562.11	46330.90
562.27	46415.16
562.44	46230.26
562.60	46195.15
562.77	46738.16
562.93	46415.16
563.10	46806.03
563.26	45911.95
563.42	46344.95
563.59	46099.19
563.75	46520.49
563.92	46712.41
564.08	46660.92
564.24	46981.57
564.41	46422.19
564.57	46721.77
564.74	46246.65
564.90	46656.24
565.07	46953.49
565.23	46597.73
565.39	46129.62
565.56	46813.05
565.72	46628.15
565.88	46480.70
566.05	46794.33
566.21	46614.11
566.38	46859.87
566.54	46447.93
566.70	46883.27
566.87	47000.30
567.03	47058.81
567.19	47370.10
567.36	46887.95
567.52	46354.31
567.68	46946.47
567.85	46721.77
568.01	47044.77
568.17	46813.05
568.34	46635.17
568.50	47044.77
568.66	46829.44
568.83	47089.24
568.99	46848.16
569.15	47161.79
569.32	46302.82
569.48	46415.16
569.64	46880.93
569.81	46707.73
569.97	46644.54
570.13	46913.70
570.30	46461.97
570.46	46403.46
570.62	46260.69
570.78	46689.01
570.95	46717.09
571.11	46691.35
571.27	46714.75
571.43	47122.01
571.60	46440.91
571.76	46534.53
571.92	46806.03
572.09	47075.19
572.25	46944.12
572.41	46635.17
572.57	47388.83
572.74	47318.61
572.90	47000.30
573.06	46834.12
573.22	46986.25
573.38	46494.74
573.55	47026.04
573.71	46735.82
573.87	46724.11
574.03	46679.64
574.20	46993.28
574.36	47154.77
574.52	46976.89
574.68	46948.81
574.84	47274.14
575.01	46810.71
575.17	46604.75
575.33	46667.94
575.49	46941.78
575.65	46920.72
575.82	46958.17
575.98	47213.29
576.14	47222.65
576.30	47131.37
576.46	46614.11
576.62	46632.83
576.79	46974.55
576.95	46988.60
577.11	46927.74
577.27	47077.54
577.43	46902.00
577.59	46969.87
577.75	46852.84
577.92	46347.29
578.08	46691.35
578.24	46707.73
578.40	47030.72
578.56	46953.49
578.72	46918.38
578.88	47519.90
579.04	47159.45
579.21	46777.95
579.37	47173.50
579.53	47143.07
579.69	46724.11
579.85	46864.55
580.01	46869.23
580.17	46948.81
580.33	47051.79
580.49	46906.68
580.65	46967.53
580.82	47033.07
580.98	47000.30
581.14	46836.46
581.30	47288.18
581.46	47063.49
581.62	47065.83
581.78	47138.39
581.94	47168.82
582.10	47110.30
582.26	47072.85
582.42	47224.99
582.58	47014.34
582.74	47140.73
582.90	47189.88
583.06	47622.88
583.22	47447.34
583.38	47264.78
583.54	47524.58
583.70	47161.79
583.86	47285.84
584.02	47180.52
584.18	47363.08
584.34	47084.56
584.50	47065.83
584.66	46836.46
584.82	46684.33
584.98	47243.71
585.14	47510.53
585.30	47159.45
585.46	47302.23
585.62	46897.31
585.78	46923.06
585.94	46658.58
586.10	46838.80
586.26	46995.62
586.42	47337.33
586.58	47295.21
586.74	47180.52
586.90	46958.17
587.06	46761.56
587.22	47122.01
587.38	46782.63
587.54	47323.29
587.70	47105.62
587.86	47196.90
588.02	46775.61
588.18	46841.14
588.34	46857.52
588.49	46831.78
588.65	46838.80
588.81	46445.59
588.97	46731.14
589.13	46394.10
589.29	46419.84
589.45	46979.23
589.61	46904.34
589.77	47012.00
589.93	47047.11
