SpectraSuite Data File
++++++++++++++++++++++++++++++++++++
Date: Fri Oct 25 10:43:19 EDT 2013
User: price-jones
Dark Spectrum Present: No
Reference Spectrum Present: No
Number of Sampled Component Spectra: 1
Spectrometers: USB2+H05261
Integration Time (usec): 100000 (USB2+H05261)
Spectra Averaged: 1 (USB2+H05261)
Boxcar Smoothing: 0 (USB2+H05261)
Correct for Electrical Dark: No (USB2+H05261)
Strobe/Lamp Enabled: No (USB2+H05261)
Correct for Detector Non-linearity: No (USB2+H05261)
Correct for Stray Light: No (USB2+H05261)
Number of Pixels in Processed Spectrum: 2048
>>>>>Begin Processed Spectral Data<<<<<
365.73	133.41
365.92	133.41
366.12	133.41
366.32	84.26
366.52	9.36
366.72	56.17
366.91	49.15
367.11	0.00
367.31	58.51
367.51	74.90
367.70	67.88
367.90	14.04
368.10	7.02
368.30	21.06
368.49	56.17
368.69	65.54
368.89	0.00
369.09	70.22
369.28	77.24
369.48	49.15
369.68	93.62
369.87	81.92
370.07	98.30
370.27	114.69
370.47	201.29
370.66	454.06
370.86	477.47
371.06	510.24
371.25	493.85
371.45	468.11
371.65	482.15
371.84	386.19
372.04	416.62
372.24	425.98
372.44	463.43
372.63	468.11
372.83	533.64
373.03	547.69
373.22	498.53
373.42	458.74
373.62	594.50
373.81	573.43
374.01	524.28
374.21	535.98
374.40	500.87
374.60	554.71
374.79	557.05
374.99	582.79
375.19	613.22
375.38	578.11
375.58	664.71
375.78	624.92
375.97	571.09
376.17	629.60
376.37	610.88
376.56	610.88
376.76	643.65
376.95	545.34
377.15	631.94
377.35	601.52
377.54	664.71
377.74	741.95
377.93	653.01
378.13	547.69
378.33	676.41
378.52	662.37
378.72	727.91
378.91	650.67
379.11	674.07
379.31	622.58
379.50	641.31
379.70	748.97
379.89	720.88
380.09	681.10
380.28	669.39
380.48	695.14
380.68	678.76
380.87	636.63
381.07	798.12
381.26	678.76
381.46	751.31
381.65	779.40
381.85	697.48
382.04	734.93
382.24	716.20
382.43	720.88
382.63	662.37
382.83	669.39
383.02	727.91
383.22	718.54
383.41	753.65
383.61	730.25
383.80	720.88
384.00	730.25
384.19	779.40
384.39	748.97
384.58	807.48
384.78	753.65
384.97	802.80
385.17	802.80
385.36	795.78
385.56	755.99
385.75	798.12
385.95	840.25
386.14	819.19
386.34	802.80
386.53	795.78
386.72	772.38
386.92	851.96
387.11	919.83
387.31	863.66
387.50	812.17
387.70	835.57
387.89	833.23
388.09	854.30
388.28	784.08
388.48	812.17
388.67	950.26
388.86	919.83
389.06	908.13
389.25	903.45
389.45	905.79
389.64	931.53
389.84	968.98
390.03	1076.65
390.22	1137.50
390.42	971.32
390.61	1081.33
390.81	1046.22
391.00	999.41
391.19	1067.28
391.39	971.32
391.58	1029.84
391.78	1027.50
391.97	1076.65
392.16	938.55
392.36	1043.88
392.55	1041.54
392.75	959.62
392.94	1071.97
393.13	957.28
393.33	954.94
393.52	950.26
393.71	1118.78
393.91	1142.18
394.10	1093.03
394.29	1170.27
394.49	1142.18
394.68	1188.99
394.88	1181.97
395.07	1277.93
395.26	1191.33
395.46	1252.19
395.65	1224.10
395.84	1196.01
396.04	1261.55
396.23	1165.59
396.42	1156.22
396.62	1109.41
396.81	1109.41
397.00	1142.18
397.19	1254.53
397.39	1373.89
397.58	1315.38
397.77	1329.42
397.97	1371.55
398.16	1430.07
398.35	1453.47
398.55	1488.58
398.74	1394.96
398.93	1614.97
399.12	1430.07
399.32	1434.75
399.51	1423.05
399.70	1633.69
399.90	1549.43
400.09	1579.86
400.28	1554.12
400.47	1619.65
400.67	1598.59
400.86	1610.29
401.05	1696.89
401.24	1610.29
401.44	1687.53
401.63	1727.32
401.82	1706.25
402.01	1657.10
402.21	1696.89
402.40	1720.29
402.59	1764.76
402.78	1736.68
402.97	1776.47
403.17	1811.57
403.36	1724.97
403.55	1757.74
403.74	1853.70
403.93	1774.13
404.13	1823.28
404.32	1837.32
404.51	1900.52
404.70	1842.00
404.89	1802.21
405.09	1905.20
405.28	1966.05
405.47	1909.88
405.66	1970.73
405.85	1954.35
406.05	1937.96
406.24	2026.90
406.43	1970.73
406.62	2024.56
406.81	2106.48
407.00	2019.88
407.20	2003.50
407.39	2090.10
407.58	2202.44
407.77	2111.16
407.96	2090.10
408.15	2104.14
408.34	2214.15
408.54	2167.34
408.73	2228.19
408.92	2377.98
409.11	2275.00
409.30	2251.60
409.49	2265.64
409.68	2209.47
409.87	2214.15
410.07	2319.47
410.26	2321.81
410.45	2270.32
410.64	2429.48
410.83	2389.69
411.02	2455.22
411.21	2534.80
411.40	2609.70
411.59	2579.27
411.78	2619.06
411.98	2555.86
412.17	2658.85
412.36	2597.99
412.55	2717.36
412.74	2642.46
412.93	2815.66
413.12	2663.53
413.31	2878.86
413.50	2916.31
413.69	2822.69
413.88	2897.58
414.07	2963.12
414.26	2864.82
414.45	2942.05
414.64	2818.00
414.83	3000.57
415.02	2972.48
415.22	2958.44
415.41	3019.29
415.60	3229.94
415.79	3262.71
415.98	3281.43
416.17	3138.66
416.36	3293.13
416.55	3225.26
416.74	3150.36
416.93	3330.58
417.12	3241.64
417.31	3372.71
417.50	3272.07
417.69	3370.37
417.88	3300.16
418.07	3375.05
418.26	3445.27
418.45	3520.17
418.64	3653.58
418.83	3548.25
419.02	3578.68
419.21	3618.47
419.39	3625.49
419.58	3531.87
419.77	3494.42
419.96	3541.23
420.15	3686.34
420.34	3695.71
420.53	3758.90
420.72	3772.94
420.91	3691.02
421.10	3786.99
421.29	3812.73
421.48	3669.96
421.67	3810.39
421.86	3758.90
422.05	3775.28
422.24	3705.07
422.43	3737.84
422.61	3726.13
422.80	3939.12
422.99	3885.29
423.18	3833.80
423.37	3906.35
423.56	3875.93
423.75	4011.68
423.94	3782.31
424.13	3606.77
424.32	3733.15
424.50	3990.61
424.69	3974.23
424.88	4014.02
425.07	3906.35
425.26	3873.59
425.45	3889.97
425.64	3887.63
425.83	3829.12
426.01	3995.29
426.20	3943.80
426.39	3946.14
426.58	3885.29
426.77	3871.25
426.96	3822.09
427.15	3913.38
427.33	4051.47
427.52	3894.65
427.71	4259.78
427.90	4140.41
428.09	4152.11
428.28	4140.41
428.46	4203.60
428.65	4156.79
428.84	4255.09
429.03	4358.08
429.22	4135.73
429.40	4131.05
429.59	4081.89
429.78	3875.93
429.97	3747.20
430.16	3864.22
430.34	4117.00
430.53	4081.89
430.72	4182.54
430.91	4229.35
431.10	4227.01
431.28	4266.80
431.47	4538.30
431.66	4657.67
431.85	4451.70
432.03	4627.24
432.22	4713.84
432.41	4505.53
432.60	4662.35
432.79	4550.00
432.97	4634.26
433.16	4767.67
433.35	4664.69
433.54	4617.88
433.72	4683.41
433.91	4695.11
434.10	4774.69
434.28	4751.29
434.47	4994.70
434.66	4915.12
434.85	4954.91
435.03	4894.06
435.22	4826.18
435.41	4936.19
435.59	5130.45
435.78	5093.01
435.97	5088.32
436.16	5032.15
436.34	5074.28
436.53	5104.71
436.72	5245.14
436.90	4954.91
437.09	5109.39
437.28	5043.85
437.46	5203.01
437.65	5102.37
437.84	5214.71
438.02	5153.86
438.21	5151.52
438.40	5210.03
438.58	5256.84
438.77	5350.46
438.96	5378.55
439.14	5423.02
439.33	5469.83
439.52	5572.82
439.70	5561.11
439.89	5743.67
440.08	5614.95
440.26	5685.16
440.45	5558.77
440.63	5769.42
440.82	5968.37
441.01	5806.87
441.19	5914.53
441.38	6153.27
441.57	6085.39
441.75	6033.90
441.94	6183.70
442.12	6129.86
442.31	6340.51
442.50	6380.30
442.68	6347.53
442.87	6300.72
443.05	6260.93
443.24	6296.04
443.43	6366.26
443.61	6413.07
443.80	6527.75
443.98	6314.77
444.17	6223.48
444.35	6527.75
444.54	6621.38
444.73	6427.11
444.91	6450.52
445.10	6392.00
445.28	6541.80
445.47	6347.53
445.65	6441.15
445.84	6438.81
446.02	6509.03
446.21	6492.65
446.39	6471.58
446.58	6635.42
446.77	6729.04
446.95	6492.65
447.14	6490.31
447.32	6665.85
447.51	6712.66
447.69	6612.01
447.88	6733.72
448.06	6677.55
448.25	6565.20
448.43	6698.61
448.62	6686.91
448.80	6525.41
448.99	6740.74
449.17	6729.04
449.36	6766.49
449.54	7007.56
449.73	6960.75
449.91	7101.19
450.10	7000.54
450.28	7166.72
450.46	7124.59
450.65	7140.97
450.83	7098.84
451.02	7197.15
451.20	7260.34
451.39	7243.96
451.57	7164.38
451.76	7199.49
451.94	7155.02
452.13	7227.57
452.31	7033.31
452.49	7108.21
452.68	7269.70
452.86	7101.19
453.05	7243.96
453.23	7185.44
453.42	7136.29
453.60	7234.60
453.78	7288.43
453.97	7288.43
454.15	7363.33
454.34	7325.88
454.52	7286.09
454.70	7665.25
454.89	7513.12
455.07	7613.76
455.26	7620.78
455.44	7756.54
455.62	7559.93
455.81	7705.04
455.99	7681.64
456.17	7693.34
456.36	7658.23
456.54	7894.63
456.73	7887.61
456.91	8142.72
457.09	8016.33
457.28	8112.30
457.46	8046.76
457.64	8112.30
457.83	8053.78
458.01	8053.78
458.19	8128.68
458.38	7976.55
458.56	8234.00
458.74	8208.26
458.93	8243.37
459.11	8306.56
459.29	8177.83
459.48	8397.84
459.66	8278.47
459.84	8416.57
460.03	8437.63
460.21	8435.29
460.39	8461.04
460.57	8535.93
460.76	8404.86
460.94	8482.10
461.12	8545.30
461.31	8423.59
461.49	8643.60
461.67	8568.70
461.85	8854.25
462.04	8765.31
462.22	9104.68
462.40	8896.38
462.59	8643.60
462.77	8828.50
462.95	8919.78
463.13	8980.64
463.32	8835.52
463.50	9109.36
463.68	8779.35
463.86	9111.71
464.05	8762.97
464.23	8877.65
464.41	8980.64
464.59	8915.10
464.78	9128.09
464.96	9085.96
465.14	8926.80
465.32	9158.52
465.50	9001.70
465.69	9291.93
465.87	9121.07
466.05	9235.75
466.23	8910.42
466.41	9256.82
466.60	9495.55
466.78	9001.70
466.96	9221.71
467.14	9095.32
467.32	9184.26
467.51	9432.36
467.69	9270.86
467.87	9530.66
468.05	9465.13
468.23	9315.33
468.41	9202.99
468.60	9437.04
468.78	9486.19
468.96	9434.70
469.14	9554.07
469.32	9628.96
469.50	9544.70
469.69	9415.98
469.87	9687.48
470.05	9652.37
470.23	9853.66
470.41	9958.98
470.59	9935.57
470.77	9713.22
470.95	9928.55
471.14	10071.33
471.32	9961.32
471.50	10279.63
471.68	10164.95
471.86	10235.16
472.04	10331.12
472.22	10391.98
472.40	10113.45
472.58	10331.12
472.77	10373.25
472.95	10537.09
473.13	10855.40
473.31	10478.58
473.49	10462.19
473.67	10413.04
473.85	10703.27
474.03	10864.77
474.21	10796.89
474.39	10855.40
474.57	10874.13
474.75	10960.73
474.93	11318.83
475.12	11213.51
475.30	11096.48
475.48	11005.20
475.66	11304.79
475.84	11105.84
476.02	11276.70
476.20	11424.15
476.38	11576.29
476.56	11648.85
476.74	11595.01
476.92	11683.95
477.10	11482.67
477.28	12030.35
477.46	11985.88
477.64	12285.47
477.82	12161.42
478.00	12325.26
478.18	12606.13
478.36	12383.77
478.54	12620.17
478.72	12528.89
478.90	12884.65
479.08	12980.61
479.26	13095.30
479.44	12915.08
479.62	13050.83
479.80	13219.35
479.98	13373.82
480.16	13298.92
480.34	13327.01
480.52	13699.16
480.70	13741.29
480.88	13554.04
481.06	13893.42
481.24	13935.55
481.41	14033.85
481.59	14321.74
481.77	14150.88
481.95	14363.87
482.13	14452.81
482.31	14523.02
482.49	14787.50
482.67	14862.40
482.85	14864.74
483.03	15037.94
483.21	15356.25
483.39	15091.77
483.57	15068.37
483.74	15456.90
483.92	15772.87
484.10	15440.51
484.28	15609.03
484.46	16065.44
484.64	16119.27
484.82	15679.25
485.00	15936.71
485.18	16329.92
485.35	16545.25
485.53	16084.16
485.71	16243.32
485.89	16308.85
486.07	16500.78
486.25	16608.44
486.43	16685.68
486.61	16814.41
486.78	17186.55
486.96	17188.89
487.14	17441.67
487.32	17694.45
487.50	17715.51
487.68	18001.06
487.85	18066.60
488.03	18153.20
488.21	18420.02
488.39	18480.87
488.57	18780.46
488.75	18427.04
488.92	18817.91
489.10	18984.09
489.28	19463.90
489.46	19702.63
489.64	19772.85
489.81	19915.62
489.99	20044.35
490.17	20156.69
490.35	20383.73
490.53	20308.83
490.70	20503.09
490.88	20463.30
491.06	20510.11
491.24	20362.66
491.41	20404.79
491.59	20493.73
491.77	20690.34
491.95	20886.94
492.13	21523.57
492.30	21357.39
492.48	21561.02
492.66	21942.52
492.84	21607.83
493.01	22066.57
493.19	21802.09
493.37	22024.44
493.54	22080.61
493.72	22345.09
493.90	22462.12
494.08	22623.62
494.25	22686.81
494.43	22663.41
494.61	23087.04
494.79	22904.48
494.96	23262.58
495.14	23625.37
495.32	23456.85
495.49	23517.70
495.67	23927.30
495.85	23833.68
496.02	23927.30
496.20	24254.97
496.38	24496.05
496.55	24182.42
496.73	25053.09
496.91	24978.20
497.09	24606.05
497.26	24898.62
497.44	24863.51
497.62	24575.62
497.79	25497.80
497.97	24676.27
498.14	25156.08
498.32	25418.22
498.50	25376.09
498.67	25909.73
498.85	25839.51
499.03	26080.59
499.20	26178.89
499.38	25738.87
499.56	26010.37
499.73	26235.06
499.91	26417.63
500.08	26195.28
500.26	26349.75
500.44	26656.36
500.61	26333.37
500.79	26504.23
500.97	26813.18
501.14	26644.66
501.32	26703.17
501.49	27040.21
501.67	27316.39
501.84	27330.44
502.02	27150.21
502.20	27248.52
502.37	27386.61
502.55	27388.95
502.72	27529.38
502.90	27887.48
503.07	27541.08
503.25	27882.80
503.43	27637.05
503.60	27901.53
503.78	27709.60
503.95	27735.35
504.13	28416.44
504.30	28545.17
504.48	28439.85
504.65	28573.26
504.83	28690.29
505.01	28793.27
505.18	28926.68
505.36	29263.72
505.53	29439.26
505.71	29453.30
505.88	29275.42
506.06	28912.64
506.23	29425.22
506.41	29254.36
506.58	29502.45
506.76	29905.02
506.93	29493.09
507.11	30059.50
507.28	29811.40
507.46	29558.63
507.63	29797.36
507.81	29963.54
507.98	29455.64
508.16	30185.89
508.33	30637.61
508.50	30429.30
508.68	30150.78
508.85	30904.43
509.03	30756.98
509.20	30972.31
509.38	30855.28
509.55	31110.40
509.73	31108.06
509.90	31281.26
510.08	31049.55
510.25	31285.94
510.42	31117.42
510.60	31658.09
510.77	31864.05
510.95	31899.16
511.12	32067.68
511.30	31805.54
511.47	32404.72
511.64	31976.40
511.82	32275.99
511.99	31676.81
512.17	32404.72
512.34	31896.82
512.51	32407.06
512.69	32409.40
512.86	32004.49
513.04	32460.89
513.21	32783.88
513.38	32568.55
513.56	32268.97
513.73	32542.81
513.90	32472.59
514.08	32535.79
514.25	32940.70
514.43	32842.40
514.60	32533.45
514.77	32587.28
514.95	33191.14
515.12	33097.52
515.29	33001.55
515.47	34092.24
515.64	33790.31
515.81	33546.90
515.99	33991.60
516.16	33324.55
516.33	33500.09
516.51	33802.02
516.68	33146.67
516.85	33020.28
517.03	33436.89
517.20	33479.02
517.37	33968.19
517.54	34092.24
517.72	34015.01
517.89	33848.83
518.06	33696.69
518.24	33860.53
518.41	34110.97
518.58	34300.55
518.75	33902.66
518.93	34754.61
519.10	34359.06
519.27	35037.82
519.45	34820.15
519.62	35084.63
519.79	35019.10
519.96	35229.74
520.14	35119.74
520.31	34883.34
520.48	35033.14
520.65	34749.93
520.83	35622.95
521.00	35742.32
521.17	35337.41
521.34	35941.27
521.52	35868.71
521.69	35903.82
521.86	35718.92
522.03	35674.45
522.20	36191.70
522.38	35964.67
522.55	36432.78
522.72	36013.82
522.89	36116.81
523.07	36411.71
523.24	36634.06
523.41	36692.58
523.58	36196.38
523.75	37177.07
523.92	37212.18
524.10	37249.63
524.27	36753.43
524.44	37003.87
524.61	36893.86
524.78	37050.68
524.96	37179.41
525.13	36886.84
525.30	37626.45
525.47	37663.90
525.64	37631.13
525.81	37535.17
525.98	37376.01
526.16	36940.68
526.33	36961.74
526.50	37123.24
526.67	36779.18
526.84	37450.91
527.01	37163.03
527.18	37759.86
527.36	37605.39
527.53	37806.67
527.70	38061.79
527.87	38010.30
528.04	37610.07
528.21	38094.56
528.38	38096.90
528.55	38195.20
528.72	38330.95
528.89	38312.23
529.07	38277.12
529.24	38279.46
529.41	38443.30
529.58	38464.36
529.75	38684.37
529.92	38319.25
530.09	38890.34
530.26	38827.15
530.43	38178.82
530.60	39063.54
530.77	38747.57
530.94	39164.18
531.11	39281.21
531.28	39196.95
531.46	39150.14
531.63	39161.84
531.80	39056.52
531.97	38974.60
532.14	38742.89
532.31	38916.09
532.48	39278.87
532.65	38976.94
532.82	38962.90
532.99	39583.14
533.16	39318.66
533.33	40002.10
533.50	40196.36
533.67	39672.08
533.84	39646.33
534.01	39505.90
534.18	39871.03
534.35	40526.38
534.52	39744.64
534.69	39929.54
534.86	39852.30
535.03	40074.65
535.20	40428.07
535.37	40392.97
535.54	40561.48
535.71	40044.23
535.88	40252.53
536.05	40088.70
536.22	40568.51
536.38	40570.85
536.55	40362.54
536.72	40318.07
536.89	40034.86
537.06	40224.45
537.23	40781.49
537.40	40699.58
537.57	41001.50
537.74	40961.72
537.91	40762.77
538.08	41132.57
538.25	40718.30
538.42	40783.83
538.59	41017.89
538.75	40928.95
538.92	41029.59
539.09	40921.93
539.26	41163.00
539.43	41022.57
539.60	41170.02
539.77	40975.76
539.94	40938.31
540.11	41394.71
540.28	41450.89
540.44	41291.73
540.61	41106.83
540.78	40870.43
540.95	41163.00
541.12	41074.06
541.29	41560.89
541.46	41497.70
541.62	41357.27
541.79	41652.17
541.96	41373.65
542.13	41357.27
542.30	41493.02
542.47	41844.10
542.63	41698.98
542.80	42359.02
542.97	41823.03
543.14	42155.39
543.31	41827.71
543.48	41958.78
543.64	42637.54
543.81	42794.36
543.98	42469.02
544.15	41986.87
544.32	42859.89
544.48	42784.99
544.65	42515.83
544.82	42827.12
544.99	42518.17
545.16	42396.46
545.32	42265.39
545.49	42944.15
545.66	43264.80
545.83	42553.28
546.00	42829.46
546.16	42710.10
546.33	42679.67
546.50	42777.97
546.67	43213.31
546.83	42401.14
547.00	43084.58
547.17	42876.27
547.34	42583.71
547.50	42983.94
547.67	43576.09
547.84	43023.73
548.00	43636.95
548.17	43538.65
548.34	43515.24
548.51	43459.07
548.67	43793.76
548.84	43313.95
549.01	42822.44
549.18	43445.02
549.34	44046.54
549.51	43641.63
549.68	43484.81
549.84	43557.37
550.01	43744.61
550.18	43571.41
550.34	43952.92
550.51	43782.06
550.68	43285.87
550.84	43313.95
551.01	43737.59
551.18	43863.98
551.34	43730.57
551.51	43892.07
551.68	43737.59
551.84	43709.50
552.01	43552.69
552.18	43917.81
552.34	43306.93
552.51	43871.00
552.68	43770.36
552.84	44072.29
553.01	44243.15
553.18	43826.53
553.34	44294.64
553.51	44130.80
553.67	43910.79
553.84	44788.49
554.01	44685.51
554.17	44451.45
554.34	44474.86
554.51	44245.49
554.67	44416.35
554.84	44362.51
555.00	44350.81
555.17	44060.58
555.33	44315.70
555.50	44369.54
555.67	45034.25
555.83	44432.73
556.00	44474.86
556.16	44825.94
556.33	44542.74
556.50	44818.92
556.66	44507.63
556.83	44484.22
556.99	44516.99
557.16	44949.99
557.32	44318.04
557.49	44406.98
557.65	44275.91
557.82	44418.69
557.98	44631.68
558.15	44807.22
558.32	44289.96
558.48	44493.58
558.65	44535.71
558.81	44526.35
558.98	44535.71
559.14	44725.30
559.31	44800.19
559.47	44690.19
559.64	45048.29
559.80	45137.23
559.97	44861.05
560.13	44463.16
560.30	44657.42
560.46	45291.71
560.63	45013.18
560.79	45130.21
560.96	45792.58
561.12	45001.48
561.29	44935.95
561.45	45125.53
561.61	45158.30
561.78	44896.16
561.94	44783.81
562.11	44907.86
562.27	45404.05
562.44	44992.12
562.60	45801.94
562.77	45324.47
562.93	45280.00
563.10	45331.50
563.26	44655.08
563.42	45043.61
563.59	45298.73
563.75	45137.23
563.92	45373.63
564.08	45244.90
564.24	45766.84
564.41	45015.52
564.57	45497.67
564.74	45364.26
564.90	45038.93
565.07	45265.96
565.23	45467.25
565.39	45162.98
565.56	45450.86
565.72	45137.23
565.88	45380.65
566.05	45118.51
566.21	45411.07
566.38	44996.80
566.54	45535.12
566.70	45659.17
566.87	45481.29
567.03	45336.18
567.19	45935.35
567.36	45930.67
567.52	45750.45
567.68	45731.73
567.85	44940.63
568.01	45738.75
568.17	45748.11
568.34	45815.99
568.50	45144.25
568.66	45642.79
568.83	45619.38
568.99	45483.63
569.15	45331.50
569.32	45422.78
569.48	45626.40
569.64	45619.38
569.81	45556.19
569.97	45780.88
570.13	45558.53
570.30	45237.87
570.46	45408.73
570.62	44837.64
570.78	45001.48
570.95	45188.72
571.11	45319.79
571.27	45471.93
571.43	45638.11
571.60	45628.74
571.76	44942.97
571.92	45638.11
572.09	45808.96
572.25	45666.19
572.41	45675.55
572.57	45818.33
572.74	45979.82
572.90	45684.92
573.06	45619.38
573.22	45467.25
573.38	45888.54
573.55	45504.70
573.71	45790.24
573.87	45612.36
574.03	45455.54
574.20	45787.90
574.36	45385.33
574.52	45603.00
574.68	45392.35
574.84	45240.21
575.01	45450.86
575.17	45603.00
575.33	45469.59
575.49	45212.13
575.65	45708.32
575.82	45649.81
575.98	45453.20
576.14	45628.74
576.30	45933.01
576.46	46043.02
576.62	45570.23
576.79	45202.77
576.95	45958.76
577.11	45713.00
577.27	45516.40
577.43	45558.53
577.59	45645.13
577.75	45537.46
577.92	45015.52
578.08	45682.58
578.24	45048.29
578.40	45769.18
578.56	45722.37
578.72	45689.60
578.88	45617.04
579.04	45794.92
579.21	45282.34
579.37	45801.94
579.53	45762.15
579.69	45471.93
579.85	45886.20
580.01	45705.98
580.17	45556.19
580.33	46047.70
580.49	45684.92
580.65	45642.79
580.82	45289.37
580.98	45736.41
581.14	45755.13
581.30	46160.05
581.46	45703.64
581.62	45745.77
581.78	45563.21
581.94	45874.50
582.10	46028.98
582.26	45834.71
582.42	45750.45
582.58	45511.72
582.74	45785.56
582.90	46185.79
583.06	45979.82
583.22	45581.93
583.38	46005.57
583.54	46183.45
583.70	46014.93
583.86	45991.53
584.02	45504.70
584.18	46192.81
584.34	45848.75
584.50	45921.31
584.66	45811.31
584.82	45738.75
584.98	45853.44
585.14	46019.61
585.30	45893.22
585.46	45766.84
585.62	45233.19
585.78	45572.57
585.94	45223.83
586.10	45682.58
586.26	45553.85
586.42	45970.46
586.58	46052.38
586.74	45689.60
586.90	45530.44
587.06	45649.81
587.22	45865.14
587.38	45551.51
587.54	45998.55
587.70	45523.42
587.86	45619.38
588.02	45546.82
588.18	46000.89
588.34	45530.44
588.49	45062.33
588.65	45031.91
588.81	45202.77
588.97	45680.24
589.13	45677.90
589.29	45380.65
589.45	45347.88
589.61	45942.38
589.77	45720.02
589.93	45907.27
590.08	45581.93
