SpectraSuite Data File
++++++++++++++++++++++++++++++++++++
Date: Fri Oct 25 10:43:33 EDT 2013
User: price-jones
Dark Spectrum Present: No
Reference Spectrum Present: No
Number of Sampled Component Spectra: 1
Spectrometers: USB2+H05261
Integration Time (usec): 100000 (USB2+H05261)
Spectra Averaged: 1 (USB2+H05261)
Boxcar Smoothing: 0 (USB2+H05261)
Correct for Electrical Dark: No (USB2+H05261)
Strobe/Lamp Enabled: No (USB2+H05261)
Correct for Detector Non-linearity: No (USB2+H05261)
Correct for Stray Light: No (USB2+H05261)
Number of Pixels in Processed Spectrum: 2048
>>>>>Begin Processed Spectral Data<<<<<
365.73	102.98
365.92	102.98
366.12	102.98
366.32	25.75
366.52	56.17
366.72	112.35
366.91	49.15
367.11	0.00
367.31	14.04
367.51	0.00
367.70	2.34
367.90	0.00
368.10	42.13
368.30	0.00
368.49	21.06
368.69	35.11
368.89	11.70
369.09	79.58
369.28	42.13
369.48	35.11
369.68	46.81
369.87	100.64
370.07	86.60
370.27	135.75
370.47	222.35
370.66	425.98
370.86	407.25
371.06	447.04
371.25	461.09
371.45	353.42
371.65	500.87
371.84	454.06
372.04	397.89
372.24	463.43
372.44	521.94
372.63	498.53
372.83	624.92
373.03	465.77
373.22	470.45
373.42	538.32
373.62	503.22
373.81	561.73
374.01	603.86
374.21	526.62
374.40	557.05
374.60	550.03
374.79	587.47
374.99	580.45
375.19	704.50
375.38	561.73
375.58	552.37
375.78	533.64
375.97	589.82
376.17	601.52
376.37	592.16
376.56	585.13
376.76	557.05
376.95	543.00
377.15	622.58
377.35	608.54
377.54	688.12
377.74	709.18
377.93	636.63
378.13	624.92
378.33	709.18
378.52	674.07
378.72	601.52
378.91	660.03
379.11	650.67
379.31	690.46
379.50	641.31
379.70	713.86
379.89	741.95
380.09	573.43
380.28	697.48
380.48	711.52
380.68	671.73
380.87	704.50
381.07	741.95
381.26	751.31
381.46	608.54
381.65	589.82
381.85	587.47
382.04	781.74
382.24	634.29
382.43	709.18
382.63	692.80
382.83	699.82
383.02	681.10
383.22	763.01
383.41	692.80
383.61	706.84
383.80	751.31
384.00	753.65
384.19	774.72
384.39	809.83
384.58	753.65
384.78	793.44
384.97	805.14
385.17	842.59
385.36	805.14
385.56	823.87
385.75	777.06
385.95	821.53
386.14	873.02
386.34	910.47
386.53	868.34
386.72	807.48
386.92	800.46
387.11	882.38
387.31	828.55
387.50	833.23
387.70	828.55
387.89	828.55
388.09	809.83
388.28	887.06
388.48	957.28
388.67	1001.75
388.86	947.92
389.06	903.45
389.25	910.47
389.45	985.37
389.64	999.41
389.84	1013.45
390.03	954.94
390.22	1006.43
390.42	1011.11
390.61	978.34
390.81	1022.81
391.00	1032.18
391.19	1057.92
391.39	1025.15
391.58	1114.10
391.78	997.07
391.97	1102.39
392.16	1029.84
392.36	1008.77
392.55	1029.84
392.75	999.41
392.94	1027.50
393.13	1015.79
393.33	919.83
393.52	1004.09
393.71	1071.97
393.91	1083.67
394.10	1203.04
394.29	1214.74
394.49	1160.91
394.68	1193.67
394.88	1235.80
395.07	1343.47
395.26	1212.40
395.46	1224.10
395.65	1158.57
395.84	1261.55
396.04	1254.53
396.23	1259.21
396.42	1114.10
396.62	1160.91
396.81	1277.93
397.00	1233.46
397.19	1275.59
397.39	1287.29
397.58	1341.13
397.77	1366.87
397.97	1317.72
398.16	1357.51
398.35	1465.18
398.55	1455.81
398.74	1507.30
398.93	1472.20
399.12	1577.52
399.32	1425.39
399.51	1558.80
399.70	1621.99
399.90	1561.14
400.09	1607.95
400.28	1729.66
400.47	1652.42
400.67	1621.99
400.86	1694.55
401.05	1629.01
401.24	1652.42
401.44	1675.82
401.63	1720.29
401.82	1741.36
402.01	1713.27
402.21	1813.92
402.40	1682.85
402.59	1727.32
402.78	1792.85
402.97	1792.85
403.17	1823.28
403.36	1954.35
403.55	1837.32
403.74	1886.47
403.93	1952.01
404.13	1919.24
404.32	1842.00
404.51	1905.20
404.70	1926.26
404.89	1914.56
405.09	2012.86
405.28	1900.52
405.47	1970.73
405.66	1987.11
405.85	2033.93
406.05	1973.07
406.24	2047.97
406.43	2050.31
406.62	2036.27
406.81	2230.53
407.00	2017.54
407.20	2108.82
407.39	2073.71
407.58	2153.29
407.77	2228.19
407.96	2267.98
408.15	2317.13
408.34	2230.53
408.54	2347.56
408.73	2282.02
408.92	2331.17
409.11	2413.09
409.30	2363.94
409.49	2305.43
409.68	2132.23
409.87	2363.94
410.07	2464.58
410.26	2427.14
410.45	2413.09
410.64	2366.28
410.83	2502.03
411.02	2509.05
411.21	2642.46
411.40	2588.63
411.59	2719.70
411.78	2619.06
411.98	2708.00
412.17	2736.09
412.36	2789.92
412.55	2736.09
412.74	2902.26
412.93	2942.05
413.12	2754.81
413.31	3002.91
413.50	2850.77
413.69	2963.12
413.88	2946.73
414.07	3009.93
414.26	2991.20
414.45	2937.37
414.64	3000.57
414.83	2860.13
415.02	3080.14
415.22	3101.21
415.41	3208.87
415.60	3199.51
415.79	3173.77
415.98	3307.18
416.17	3304.84
416.36	3084.83
416.55	3300.16
416.74	3269.73
416.93	3251.00
417.12	3300.16
417.31	3445.27
417.50	3492.08
417.69	3368.03
417.88	3442.93
418.07	3496.76
418.26	3454.63
418.45	3494.42
418.64	3632.51
418.83	3590.38
419.02	3459.31
419.21	3693.37
419.39	3698.05
419.58	3522.51
419.77	3719.11
419.96	3719.11
420.15	3655.92
420.34	3854.86
420.53	3754.22
420.72	3810.39
420.91	3758.90
421.10	3751.88
421.29	3857.20
421.48	4009.34
421.67	4002.32
421.86	3674.64
422.05	3845.50
422.24	3768.26
422.43	4039.76
422.61	3850.18
422.80	3857.20
422.99	3908.69
423.18	3995.29
423.37	4135.73
423.56	3971.89
423.75	3967.21
423.94	3995.29
424.13	3768.26
424.32	3852.52
424.50	4039.76
424.69	4107.64
424.88	3943.80
425.07	3836.14
425.26	3843.16
425.45	4053.81
425.64	3929.76
425.83	3964.87
426.01	4128.70
426.20	4126.36
426.39	4145.09
426.58	3999.98
426.77	3995.29
426.96	3976.57
427.15	3971.89
427.33	4079.55
427.52	4067.85
427.71	4259.78
427.90	4102.96
428.09	4156.79
428.28	4201.26
428.46	4105.30
428.65	4278.50
428.84	4257.43
429.03	4203.60
429.22	4159.13
429.40	4182.54
429.59	4149.77
429.78	4032.74
429.97	3927.42
430.16	4107.64
430.34	4023.38
430.53	4248.07
430.72	4306.59
430.91	4360.42
431.10	4325.31
431.28	4645.96
431.47	4542.98
431.66	4676.39
431.85	4564.04
432.03	4531.28
432.22	4730.22
432.41	4589.79
432.60	4652.98
432.79	4652.98
432.97	4851.93
433.16	4835.55
433.35	4706.82
433.54	4641.28
433.72	4634.26
433.91	4697.46
434.10	4891.72
434.28	4767.67
434.47	4849.59
434.66	4894.06
434.85	4894.06
435.03	4994.70
435.22	4926.83
435.41	5291.95
435.59	5228.76
435.78	5158.54
435.97	5153.86
436.16	5170.24
436.34	5137.48
436.53	5093.01
436.72	5352.81
436.90	5069.60
437.09	5259.18
437.28	5195.99
437.46	5254.50
437.65	5247.48
437.84	5221.74
438.02	5146.84
438.21	5177.26
438.40	5149.18
438.58	5451.11
438.77	5317.70
438.96	5481.53
439.14	5535.37
439.33	5568.13
439.52	5570.48
439.70	5577.50
439.89	5914.53
440.08	5776.44
440.26	5832.62
440.45	5841.98
440.63	5914.53
440.82	6157.95
441.01	6008.16
441.19	6207.10
441.38	6218.80
441.57	6101.78
441.75	6267.95
441.94	6249.23
442.12	6384.98
442.31	6387.32
442.50	6434.13
442.68	6324.13
442.87	6267.95
443.05	6443.49
443.24	6494.99
443.43	6436.47
443.61	6497.33
443.80	6691.59
443.98	6459.88
444.17	6366.26
444.35	6691.59
444.54	6782.87
444.73	6600.31
444.91	6579.25
445.10	6600.31
445.28	6480.94
445.47	6672.87
445.65	6417.75
445.84	6548.82
446.02	6642.44
446.21	6616.69
446.39	6747.76
446.58	6785.21
446.77	6710.32
446.95	6623.72
447.14	6691.59
447.32	6817.98
447.51	6576.91
447.69	6761.81
447.88	6696.27
448.06	6925.65
448.25	7005.22
448.43	6885.86
448.62	6745.42
448.80	6705.63
448.99	6775.85
449.17	6974.80
449.36	6778.19
449.54	6986.50
449.73	7199.49
449.91	7080.12
450.10	7021.61
450.28	7229.91
450.46	7323.54
450.65	7400.77
450.83	7178.42
451.02	7351.62
451.20	7442.90
451.39	7585.68
451.57	7419.50
451.76	7211.19
451.94	7351.62
452.13	7346.94
452.31	7243.96
452.49	7129.27
452.68	7318.86
452.86	7258.00
453.05	7431.20
453.23	7328.22
453.42	7400.77
453.60	7482.69
453.78	7637.17
453.97	7332.90
454.15	7459.29
454.34	7459.29
454.52	7421.84
454.70	7382.05
454.89	7824.41
455.07	7740.15
455.26	7775.26
455.44	7880.58
455.62	7868.88
455.81	7714.41
455.99	8166.13
456.17	7887.61
456.36	7943.78
456.54	7939.10
456.73	8119.32
456.91	8021.02
457.09	8271.45
457.28	8273.79
457.46	8006.97
457.64	8339.33
457.83	8388.48
458.01	8049.10
458.19	8372.10
458.38	8395.50
458.56	8348.69
458.74	8400.18
458.93	8177.83
459.11	8327.63
459.29	8248.05
459.48	8383.80
459.66	8348.69
459.84	8512.53
460.03	8587.43
460.21	8692.75
460.39	8507.85
460.57	8634.24
460.76	8732.54
460.94	8648.28
461.12	8819.14
461.31	8762.97
461.49	8692.75
461.67	8786.37
461.85	9008.72
462.04	8697.43
462.22	9418.32
462.40	9057.87
462.59	8917.44
462.77	8940.85
462.95	9048.51
463.13	8915.10
463.32	8940.85
463.50	9160.86
463.68	9076.60
463.86	9102.34
464.05	9102.34
464.23	9111.71
464.41	9057.87
464.59	8840.20
464.78	9156.18
464.96	9102.34
465.14	9137.45
465.32	9270.86
465.50	9415.98
465.69	9423.00
465.87	9390.23
466.05	9348.10
466.23	9254.48
466.41	9397.25
466.60	9514.28
466.78	9336.40
466.96	9502.58
467.14	9373.85
467.32	9537.68
467.51	9458.10
467.69	9352.78
467.87	9617.26
468.05	9483.85
468.23	9404.27
468.41	9535.34
468.60	9549.39
468.78	9809.19
468.96	9696.84
469.14	10017.49
469.32	9635.99
469.50	9523.64
469.69	9710.88
469.87	9947.28
470.05	9937.91
470.23	9977.70
470.41	9717.90
470.59	10047.92
470.77	9996.43
470.95	10087.71
471.14	10263.25
471.32	9956.64
471.50	10291.34
471.68	10349.85
471.86	10539.43
472.04	10544.11
472.22	10792.21
472.40	10396.66
472.58	10597.95
472.77	10462.19
472.95	10729.02
473.13	11026.26
473.31	10705.61
473.49	10602.63
473.67	10824.98
473.85	10679.86
474.03	11180.74
474.21	11131.59
474.39	11084.78
474.57	11133.93
474.75	11297.77
474.93	11351.60
475.12	11304.79
475.30	11456.92
475.48	11297.77
475.66	11236.91
475.84	11623.10
476.02	11398.41
476.20	11564.59
476.38	11737.79
476.56	11789.28
476.74	11843.11
476.92	12044.40
477.10	11597.35
477.28	12212.92
477.46	12166.10
477.64	12198.87
477.82	12343.99
478.00	12428.24
478.18	12578.04
478.36	12542.93
478.54	12861.24
478.72	13013.38
478.90	13088.28
479.08	13263.82
479.26	13219.35
479.44	13181.90
479.62	13209.98
479.80	13385.52
479.98	13437.02
480.16	13673.41
480.34	13650.00
480.52	13886.40
480.70	14043.21
480.88	13895.76
481.06	13928.53
481.24	14218.75
481.41	14235.14
481.59	14679.84
481.77	14717.29
481.95	14656.43
482.13	14689.20
482.31	14731.33
482.49	15028.58
482.67	14829.63
482.85	15002.83
483.03	15286.04
483.21	15353.91
483.39	15363.28
483.57	15407.75
483.74	15578.61
483.92	15873.51
484.10	15817.34
484.28	15882.88
484.46	16245.66
484.64	16423.54
484.82	16308.85
485.00	16290.13
485.18	16519.50
485.35	16390.77
485.53	16077.14
485.71	16372.05
485.89	16556.95
486.07	16432.90
486.25	16472.69
486.43	16868.24
486.61	17064.85
486.78	17303.58
486.96	17582.10
487.14	17977.65
487.32	17940.21
487.50	17788.07
487.68	18176.60
487.85	18508.96
488.03	18455.12
488.21	18735.99
488.39	18803.86
488.57	18967.70
488.75	18906.85
488.92	19548.15
489.10	19508.37
489.28	19676.88
489.46	19648.80
489.64	19845.40
489.81	20357.98
489.99	20229.25
490.17	20421.17
490.35	20255.00
490.53	20589.69
490.70	20606.08
490.88	20355.64
491.06	21298.88
491.24	20755.87
491.41	20985.24
491.59	20959.50
491.77	20762.89
491.95	21139.72
492.13	21088.23
492.30	21722.51
492.48	22061.89
492.66	22253.81
492.84	21825.50
493.01	22216.36
493.19	22295.94
493.37	22043.17
493.54	22607.23
493.72	22717.24
493.90	22764.05
494.08	22895.12
494.25	23159.60
494.43	23360.89
494.61	23625.37
494.79	23531.75
494.96	23466.21
495.14	23550.47
495.32	23672.18
495.49	23700.26
495.67	24016.24
495.85	24421.15
496.02	24238.59
496.20	24767.55
496.38	24713.72
496.55	24507.75
496.73	25252.04
496.91	24975.86
497.09	25261.40
497.26	25495.46
497.44	25312.89
497.62	25319.92
497.79	25832.49
497.97	25404.17
498.14	25694.40
498.32	25773.98
498.50	25703.76
498.67	26370.82
498.85	25982.29
499.03	26513.59
499.20	26300.60
499.38	26253.79
499.56	26742.96
499.73	26611.89
499.91	26859.99
500.08	26628.27
500.26	26178.89
500.44	26431.67
500.61	27094.04
500.79	26754.66
500.97	26909.14
501.14	26972.33
501.32	26906.80
501.49	27494.27
501.67	27229.79
501.84	26972.33
502.02	28091.11
502.20	27709.60
502.37	28046.64
502.55	27772.80
502.72	28119.20
502.90	28126.22
503.07	28116.86
503.25	28343.89
503.43	28168.35
503.60	28465.60
503.78	28247.93
503.95	28400.06
504.13	28332.18
504.30	29074.13
504.48	28847.10
504.65	28924.34
504.83	29193.50
505.01	29120.95
505.18	29099.88
505.36	29617.14
505.53	29415.85
505.71	29738.85
505.88	29996.31
506.06	29626.50
506.23	30178.87
506.41	29425.22
506.58	30384.83
506.76	30319.30
506.93	30146.10
507.11	30265.47
507.28	30010.35
507.46	30258.45
507.63	29790.34
507.81	30478.46
507.98	30157.80
508.16	30499.52
508.33	30780.39
508.50	30642.29
508.68	30881.03
508.85	31452.12
509.03	31281.26
509.20	31440.42
509.38	31281.26
509.55	31325.73
509.73	31524.68
509.90	31409.99
510.08	31295.30
510.25	31353.82
510.42	31922.57
510.60	31938.95
510.77	32369.61
510.95	31983.42
511.12	31990.44
511.30	32020.87
511.47	32636.43
511.64	32570.90
511.82	32837.72
511.99	32079.38
512.17	32215.13
512.34	32224.50
512.51	32692.60
512.69	33003.89
512.86	32781.54
513.04	32989.85
513.21	33184.12
513.38	32716.01
513.56	32826.01
513.73	32657.49
513.90	33343.27
514.08	33317.53
514.25	33081.13
514.43	33495.41
514.60	33226.24
514.77	33237.95
514.95	33827.76
515.12	33809.04
515.29	33858.19
515.47	33778.61
515.64	34298.21
515.81	34209.27
515.99	33846.49
516.16	33883.94
516.33	33603.07
516.51	33745.84
516.68	33434.55
516.85	33383.06
517.03	33755.21
517.20	34251.40
517.37	34375.45
517.54	34689.08
517.72	34225.65
517.89	33846.49
518.06	34075.86
518.24	33951.81
518.41	34663.33
518.58	34756.96
518.75	34609.50
518.93	35056.54
519.10	35126.76
519.27	35044.84
519.45	35171.23
519.62	35234.42
519.79	35442.73
519.96	35587.85
520.14	35747.00
520.31	35424.01
520.48	35765.73
520.65	35716.58
520.83	36247.88
521.00	36114.47
521.17	36044.25
521.34	35770.41
521.52	36191.70
521.69	36650.45
521.86	36847.05
522.03	36362.56
522.20	36325.11
522.38	36388.31
522.55	36854.08
522.72	36673.85
522.89	36657.47
523.07	36898.55
523.24	36664.49
523.41	37301.12
523.58	36912.59
523.75	37376.01
523.92	37642.84
524.10	37652.20
524.27	37003.87
524.44	37624.11
524.61	37500.06
524.78	37092.81
524.96	37544.53
525.13	37596.03
525.30	37958.81
525.47	38017.32
525.64	37699.01
525.81	37823.06
525.98	37469.64
526.16	37532.83
526.33	37574.96
526.50	37757.52
526.67	37628.79
526.84	37401.76
527.01	37743.48
527.18	37846.46
527.36	38354.36
527.53	38410.53
527.70	38885.66
527.87	38586.07
528.04	38066.47
528.21	38405.85
528.38	38742.89
528.55	39206.31
528.72	38770.97
528.89	38852.89
529.07	38972.26
529.24	38841.19
529.41	38637.56
529.58	38707.78
529.75	38998.01
529.92	39051.84
530.09	39533.99
530.26	39538.67
530.43	39533.99
530.60	38913.75
530.77	39234.40
530.94	39358.45
531.11	39505.90
531.28	39772.72
531.46	39597.18
531.63	39658.04
531.80	39957.63
531.97	39515.26
532.14	39353.77
532.31	39180.57
532.48	39463.77
532.65	39456.75
532.82	39278.87
532.99	39370.15
533.16	39784.43
533.33	39927.20
533.50	40144.87
533.67	39828.90
533.84	40130.83
534.01	40194.02
534.18	40236.15
534.35	40713.62
534.52	40297.00
534.69	40313.39
534.86	41148.96
535.03	40713.62
535.20	41013.21
535.37	41043.63
535.54	41530.47
535.71	41076.40
535.88	40851.71
536.05	40942.99
536.22	41275.35
536.38	40938.31
536.55	40641.06
536.72	41027.25
536.89	40570.85
537.06	40624.68
537.23	41045.97
537.40	41322.16
537.57	41294.07
537.74	40840.01
537.91	41467.27
538.08	41593.66
538.25	41060.02
538.42	41036.61
538.59	41808.99
538.75	41223.86
538.92	41254.28
539.09	41818.35
539.26	41544.51
539.43	41558.55
539.60	41446.21
539.77	41769.20
539.94	41567.91
540.11	40966.40
540.28	41640.47
540.44	41663.88
540.61	41418.12
540.78	41621.75
540.95	41684.94
541.12	41478.97
541.29	41701.32
541.46	41703.67
541.62	41682.60
541.79	41965.81
541.96	41591.32
542.13	42340.29
542.30	41846.44
542.47	42344.97
542.63	42564.98
542.80	42174.11
542.97	42684.35
543.14	42361.36
543.31	42059.43
543.48	42515.83
543.64	43166.50
543.81	43129.05
543.98	42829.46
544.15	42754.57
544.32	43030.75
544.48	43681.42
544.65	43299.91
544.82	42738.18
544.99	42679.67
545.16	42693.71
545.32	42789.67
545.49	43611.20
545.66	43283.53
545.83	43414.60
546.00	43466.09
546.16	43407.58
546.33	42904.36
546.50	42948.83
546.67	43491.83
546.83	42815.42
547.00	43491.83
547.17	43091.60
547.34	42913.72
547.50	43519.92
547.67	43283.53
547.84	43576.09
548.00	43739.93
548.17	43723.55
548.34	44079.31
548.51	44343.79
548.67	44313.36
548.84	43702.48
549.01	43650.99
549.18	43643.97
549.34	43859.30
549.51	44072.29
549.68	43845.26
549.84	44006.75
550.01	44032.50
550.18	44020.80
550.34	43988.03
550.51	43798.44
550.68	43821.85
550.84	43564.39
551.01	44144.84
551.18	44098.03
551.34	44072.29
551.51	44264.21
551.68	44301.66
551.84	44257.19
552.01	43938.88
552.18	44414.01
552.34	43892.07
552.51	44692.53
552.68	44453.79
552.84	44315.70
553.01	44470.18
553.18	44542.74
553.34	44528.69
553.51	44582.52
553.67	44350.81
553.84	45251.92
554.01	44905.52
554.17	44961.69
554.34	44898.50
554.51	44896.16
554.67	44945.31
554.84	44753.38
555.00	44641.04
555.17	44547.42
555.33	44914.88
555.50	44861.05
555.67	44854.03
555.83	44645.72
556.00	45258.94
556.16	44945.31
556.33	44957.01
556.50	45083.40
556.66	44886.79
556.83	44769.77
556.99	45048.29
557.16	45235.53
557.32	45146.59
557.49	45380.65
557.65	44832.96
557.82	45497.67
557.98	45326.81
558.15	45031.91
558.32	44917.22
558.48	45048.29
558.65	45191.06
558.81	45254.26
558.98	44903.18
559.14	45062.33
559.31	45195.74
559.47	45280.00
559.64	45656.83
559.80	45436.82
559.97	45090.42
560.13	44807.22
560.30	45205.11
560.46	45544.48
560.63	45443.84
560.79	45598.32
560.96	46239.62
561.12	45083.40
561.29	45013.18
561.45	45820.67
561.61	45427.46
561.78	45631.08
561.94	45228.51
562.11	44816.58
562.27	45378.31
562.44	45427.46
562.60	45584.27
562.77	45497.67
562.93	45764.49
563.10	46113.23
563.26	45141.91
563.42	45815.99
563.59	45177.02
563.75	45563.21
563.92	45649.81
564.08	45488.31
564.24	46040.68
564.41	45577.25
564.57	45956.42
564.74	45425.12
564.90	45715.34
565.07	45965.78
565.23	45628.74
565.39	45663.85
565.56	46188.13
565.72	45724.71
565.88	45612.36
566.05	45420.44
566.21	45708.32
566.38	45839.39
566.54	45881.52
566.70	45787.90
566.87	46504.10
567.03	45895.56
567.19	46330.90
567.36	46012.59
567.52	45752.79
567.68	46248.99
567.85	45492.99
568.01	45851.09
568.17	45748.11
568.34	46202.18
568.50	45668.53
568.66	45464.91
568.83	46131.96
568.99	45797.26
569.15	45378.31
569.32	45947.06
569.48	45380.65
569.64	45972.80
569.81	45769.18
569.97	46403.46
570.13	45743.43
570.30	45687.26
570.46	46153.02
570.62	45165.32
570.78	45481.29
570.95	45535.12
571.11	45668.53
571.27	45628.74
571.43	46005.57
571.60	45823.01
571.76	45996.21
571.92	45865.14
572.09	45916.63
572.25	45691.94
572.41	46351.97
572.57	46438.57
572.74	46253.67
572.90	46183.45
573.06	45972.80
573.22	46122.60
573.38	46061.74
573.55	45986.85
573.71	46658.58
573.87	46071.10
574.03	45869.82
574.20	45989.19
574.36	45951.74
574.52	46220.90
574.68	46188.13
574.84	45865.14
575.01	45731.73
575.17	46057.06
575.33	46085.15
575.49	45371.28
575.65	46244.30
575.82	46288.77
575.98	46031.32
576.14	45961.10
576.30	46504.10
576.46	46059.40
576.62	45907.27
576.79	45977.48
576.95	45776.20
577.11	46319.20
577.27	46064.08
577.43	45883.86
577.59	45741.09
577.75	46120.26
577.92	45535.12
578.08	45846.41
578.24	45535.12
578.40	46110.89
578.56	46066.42
578.72	46003.23
578.88	46567.30
579.04	46014.93
579.21	46253.67
579.37	46031.32
579.53	45968.12
579.69	45626.40
579.85	46445.59
580.01	46005.57
580.17	45722.37
580.33	46490.06
580.49	46433.89
580.65	46167.07
580.82	46518.15
580.98	46155.36
581.14	45785.56
581.30	46328.56
581.46	45965.78
581.62	46644.54
581.78	46178.77
581.94	46586.02
582.10	46085.15
582.26	46494.74
582.42	46368.35
582.58	46520.49
582.74	46401.12
582.90	46150.68
583.06	46340.27
583.22	46281.75
583.38	46398.78
583.54	46483.04
583.70	46220.90
583.86	46436.23
584.02	46398.78
584.18	46248.99
584.34	46216.22
584.50	46216.22
584.66	46518.15
584.82	46071.10
584.98	46113.23
585.14	46176.43
585.30	46003.23
585.46	45925.99
585.62	45713.00
585.78	46031.32
585.94	45879.18
586.10	46082.81
586.26	46089.83
586.42	46525.17
586.58	46438.57
586.74	46050.04
586.90	46141.32
587.06	46321.54
587.22	46323.88
587.38	46171.75
587.54	46382.40
587.70	46583.68
587.86	46321.54
588.02	46239.62
588.18	46499.42
588.34	46162.39
588.49	45450.86
588.65	45729.39
588.81	45736.41
588.97	45523.42
589.13	45670.87
589.29	45404.05
589.45	45928.33
589.61	45886.20
589.77	46270.05
589.93	46436.23
