SpectraSuite Data File
++++++++++++++++++++++++++++++++++++
Date: Fri Oct 25 11:33:21 EDT 2013
User: price-jones
Dark Spectrum Present: No
Reference Spectrum Present: No
Number of Sampled Component Spectra: 1
Spectrometers: USB2+H05261
Integration Time (usec): 100000 (USB2+H05261)
Spectra Averaged: 1 (USB2+H05261)
Boxcar Smoothing: 0 (USB2+H05261)
Correct for Electrical Dark: No (USB2+H05261)
Strobe/Lamp Enabled: No (USB2+H05261)
Correct for Detector Non-linearity: No (USB2+H05261)
Correct for Stray Light: No (USB2+H05261)
Number of Pixels in Processed Spectrum: 2048
>>>>>Begin Processed Spectral Data<<<<<
365.73	259.80
365.92	259.80
366.12	259.80
366.32	243.42
366.52	138.09
366.72	241.08
366.91	149.79
367.11	98.30
367.31	182.56
367.51	220.01
367.70	159.16
367.90	301.93
368.10	163.84
368.30	140.43
368.49	210.65
368.69	189.58
368.89	152.13
369.09	212.99
369.28	187.24
369.48	170.86
369.68	201.29
369.87	217.67
370.07	318.31
370.27	306.61
370.47	301.93
370.66	465.77
370.86	580.45
371.06	550.03
371.25	507.90
371.45	521.94
371.65	564.07
371.84	585.13
372.04	535.98
372.24	575.77
372.44	582.79
372.63	592.16
372.83	578.11
373.03	622.58
373.22	645.99
373.42	617.90
373.62	629.60
373.81	552.37
374.01	702.16
374.21	599.18
374.40	603.86
374.60	716.20
374.79	681.10
374.99	561.73
375.19	592.16
375.38	688.12
375.58	716.20
375.78	671.73
375.97	617.90
376.17	709.18
376.37	606.20
376.56	653.01
376.76	585.13
376.95	645.99
377.15	699.82
377.35	751.31
377.54	697.48
377.74	664.71
377.93	643.65
378.13	657.69
378.33	739.61
378.52	788.76
378.72	709.18
378.91	744.29
379.11	772.38
379.31	601.52
379.50	648.33
379.70	727.91
379.89	723.23
380.09	660.03
380.28	702.16
380.48	718.54
380.68	669.39
380.87	739.61
381.07	786.42
381.26	739.61
381.46	826.21
381.65	746.63
381.85	779.40
382.04	763.01
382.24	770.04
382.43	690.46
382.63	779.40
382.83	767.70
383.02	800.46
383.22	833.23
383.41	697.48
383.61	788.76
383.80	809.83
384.00	866.00
384.19	819.19
384.39	912.81
384.58	830.89
384.78	856.64
384.97	793.44
385.17	765.36
385.36	784.08
385.56	807.48
385.75	884.72
385.95	847.27
386.14	854.30
386.34	809.83
386.53	873.02
386.72	915.15
386.92	929.19
387.11	875.36
387.31	894.08
387.50	816.85
387.70	851.96
387.89	898.77
388.09	978.34
388.28	933.87
388.48	868.34
388.67	933.87
388.86	851.96
389.06	861.32
389.25	983.02
389.45	903.45
389.64	931.53
389.84	1043.88
390.03	1008.77
390.22	1015.79
390.42	999.41
390.61	1034.52
390.81	950.26
391.00	931.53
391.19	990.05
391.39	938.55
391.58	997.07
391.78	983.02
391.97	1057.92
392.16	1086.01
392.36	1034.52
392.55	1043.88
392.75	1067.28
392.94	1128.14
393.13	1046.22
393.33	1043.88
393.52	992.39
393.71	1029.84
393.91	1090.69
394.10	1123.46
394.29	1088.35
394.49	1116.44
394.68	1196.01
394.88	1207.72
395.07	1090.69
395.26	1146.86
395.46	1132.82
395.65	1214.74
395.84	1212.40
396.04	1270.91
396.23	1217.08
396.42	1210.06
396.62	1205.38
396.81	1254.53
397.00	1207.72
397.19	1282.61
397.39	1191.33
397.58	1224.10
397.77	1231.12
397.97	1203.04
398.16	1294.32
398.35	1240.48
398.55	1240.48
398.74	1263.89
398.93	1252.19
399.12	1331.76
399.32	1313.04
399.51	1270.91
399.70	1343.47
399.90	1334.11
400.09	1380.92
400.28	1434.75
400.47	1378.58
400.67	1434.75
400.86	1406.66
401.05	1427.73
401.24	1401.98
401.44	1411.34
401.63	1446.45
401.82	1528.37
402.01	1507.30
402.21	1369.21
402.40	1430.07
402.59	1528.37
402.78	1523.69
402.97	1511.99
403.17	1596.25
403.36	1530.71
403.55	1673.48
403.74	1596.25
403.93	1600.93
404.13	1668.80
404.32	1600.93
404.51	1624.33
404.70	1528.37
404.89	1661.78
405.09	1710.93
405.28	1729.66
405.47	1647.74
405.66	1739.02
405.85	1788.17
406.05	1720.29
406.24	1633.69
406.43	1666.46
406.62	1806.89
406.81	1933.28
407.00	1863.07
407.20	1696.89
407.39	1713.27
407.58	1909.88
407.77	1909.88
407.96	1863.07
408.15	1762.42
408.34	1860.73
408.54	1947.33
408.73	1963.71
408.92	2036.27
409.11	1935.62
409.30	2026.90
409.49	1975.41
409.68	2001.16
409.87	1982.43
410.07	2059.67
410.26	2080.74
410.45	2099.46
410.64	2181.38
410.83	2160.31
411.02	2176.70
411.21	2050.31
411.40	2197.76
411.59	2183.72
411.78	2239.89
411.98	2169.68
412.17	2275.00
412.36	2303.09
412.55	2272.66
412.74	2431.82
412.93	2293.72
413.12	2380.32
413.31	2534.80
413.50	2373.30
413.69	2363.94
413.88	2518.42
414.07	2509.05
414.26	2427.14
414.45	2544.16
414.64	2623.74
414.83	2539.48
415.02	2614.38
415.22	2658.85
415.41	2647.15
415.60	2651.83
415.79	2696.30
415.98	2703.32
416.17	2738.43
416.36	2654.17
416.55	2726.72
416.74	2827.37
416.93	2825.03
417.12	2780.56
417.31	2825.03
417.50	2888.22
417.69	2853.11
417.88	2897.58
418.07	3000.57
418.26	2895.24
418.45	3016.95
418.64	3089.51
418.83	2944.39
419.02	3133.98
419.21	3192.49
419.39	3005.25
419.58	3155.04
419.77	3026.31
419.96	3164.40
420.15	3176.11
420.34	3047.38
420.53	3208.87
420.72	3155.04
420.91	3190.15
421.10	3403.14
421.29	3344.63
421.48	3166.74
421.67	3358.67
421.86	3215.90
422.05	3304.84
422.24	3318.88
422.43	3368.03
422.61	3391.44
422.80	3379.73
422.99	3353.99
423.18	3438.25
423.37	3684.00
423.56	3351.65
423.75	3365.69
423.94	3318.88
424.13	3148.02
424.32	3213.56
424.50	3456.97
424.69	3590.38
424.88	3382.07
425.07	3386.76
425.26	3611.45
425.45	3489.74
425.64	3468.67
425.83	3391.44
426.01	3524.85
426.20	3475.70
426.39	3510.80
426.58	3339.94
426.77	3520.17
426.96	3562.30
427.15	3534.21
427.33	3466.33
427.52	3669.96
427.71	3625.49
427.90	3758.90
428.09	3665.28
428.28	3906.35
428.46	3768.26
428.65	3735.50
428.84	3730.81
429.03	3833.80
429.22	3660.60
429.40	3730.81
429.59	3723.79
429.78	3625.49
429.97	3569.32
430.16	3779.97
430.34	3831.46
430.53	3831.46
430.72	3929.76
430.91	3955.51
431.10	3927.42
431.28	3948.48
431.47	3904.01
431.66	4124.02
431.85	3962.53
432.03	4243.39
432.22	4203.60
432.41	4107.64
432.60	3915.72
432.79	4044.45
432.97	4229.35
433.16	4212.96
433.35	4004.66
433.54	4198.92
433.72	4138.07
433.91	4273.82
434.10	4161.47
434.28	4353.40
434.47	4222.33
434.66	4329.99
434.85	4383.82
435.03	4362.76
435.22	4388.50
435.41	4472.76
435.59	4329.99
435.78	4372.12
435.97	4414.25
436.16	4482.13
436.34	4442.34
436.53	4432.97
436.72	4606.17
436.90	4533.62
437.09	4524.26
437.28	4432.97
437.46	4430.63
437.65	4550.00
437.84	4629.58
438.02	4524.26
438.21	4753.63
438.40	4589.79
438.58	4795.76
438.77	4884.70
438.96	4746.61
439.14	4795.76
439.33	4816.82
439.52	4891.72
439.70	4973.64
439.89	5146.84
440.08	5179.61
440.26	4980.66
440.45	5153.86
440.63	5142.16
440.82	5301.31
441.01	5135.14
441.19	5146.84
441.38	5256.84
441.57	5153.86
441.75	5383.23
441.94	5453.45
442.12	5451.11
442.31	5383.23
442.50	5554.09
442.68	5317.70
442.87	5387.91
443.05	5682.82
443.24	5640.69
443.43	5671.12
443.61	5568.13
443.80	5760.06
443.98	5516.64
444.17	5432.38
444.35	5523.66
444.54	5668.78
444.73	5738.99
444.91	5792.83
445.10	5694.52
445.28	5743.67
445.47	5600.90
445.65	5537.71
445.84	5675.80
446.02	5633.67
446.21	5692.18
446.39	5811.55
446.58	5830.27
446.77	5806.87
446.95	5837.30
447.14	5673.46
447.32	5872.40
447.51	5806.87
447.69	5685.16
447.88	5811.55
448.06	5827.93
448.25	5933.26
448.43	5928.58
448.62	5785.80
448.80	5877.09
448.99	5933.26
449.17	5926.24
449.36	5668.78
449.54	6043.26
449.73	6179.01
449.91	6319.45
450.10	5977.73
450.28	6195.40
450.46	6314.77
450.65	6321.79
450.83	6115.82
451.02	6141.57
451.20	6370.94
451.39	6293.70
451.57	6209.44
451.76	6127.52
451.94	6328.81
452.13	6354.55
452.31	6310.08
452.49	6253.91
452.68	6410.73
452.86	6277.32
453.05	6464.56
453.23	6511.37
453.42	6319.45
453.60	6410.73
453.78	6649.46
453.97	6406.05
454.15	6658.82
454.34	6434.13
454.52	6700.95
454.70	6689.25
454.89	6654.14
455.07	6651.80
455.26	6569.88
455.44	6853.09
455.62	6740.74
455.81	6761.81
455.99	6663.51
456.17	6733.72
456.36	6794.58
456.54	6820.32
456.73	6942.03
456.91	6867.13
457.09	7267.36
457.28	7140.97
457.46	7014.59
457.64	7061.40
457.83	6984.16
458.01	7077.78
458.19	7152.68
458.38	6972.46
458.56	7190.13
458.74	7101.19
458.93	7258.00
459.11	7236.94
459.29	7396.09
459.48	7232.26
459.66	7344.60
459.84	7550.57
460.03	7557.59
460.21	7440.56
460.39	7480.35
460.57	7384.39
460.76	7452.27
460.94	7370.35
461.12	7431.20
461.31	7634.83
461.49	7550.57
461.67	7620.78
461.85	7639.51
462.04	7740.15
462.22	8116.98
462.40	7756.54
462.59	7822.07
462.77	7866.54
462.95	7950.80
463.13	7700.36
463.32	7824.41
463.50	7915.69
463.68	7918.03
463.86	7962.50
464.05	7962.50
464.23	7892.29
464.41	7955.48
464.59	7936.76
464.78	8070.17
464.96	8095.91
465.14	7913.35
465.32	8212.94
465.50	8250.39
465.69	8072.51
465.87	8285.50
466.05	8236.35
466.23	8374.44
466.41	8177.83
466.60	8346.35
466.78	8285.50
466.96	8290.18
467.14	8334.65
467.32	8320.60
467.51	8493.80
467.69	8255.07
467.87	8329.97
468.05	8479.76
468.23	8360.39
468.41	8290.18
468.60	8505.51
468.78	8484.44
468.96	8690.41
469.14	8559.34
469.32	8788.71
469.50	8369.76
469.69	8922.12
469.87	8786.37
470.05	8908.08
470.23	8730.20
470.41	8840.20
470.59	8905.74
470.77	8966.59
470.95	9011.06
471.14	9146.81
471.32	8807.44
471.50	9114.05
471.68	9092.98
471.86	9125.75
472.04	9207.67
472.22	9334.06
472.40	9132.77
472.58	9467.47
472.77	9275.54
472.95	9525.98
473.13	9785.78
473.31	9708.54
473.49	9235.75
473.67	9378.53
473.85	9458.10
474.03	9673.43
474.21	9710.88
474.39	9813.87
474.57	9764.72
474.75	9909.83
474.93	10141.54
475.12	9790.46
475.30	10043.24
475.48	10052.60
475.66	10134.52
475.84	10038.56
476.02	10307.72
476.20	10319.42
476.38	10649.44
476.56	10902.22
476.74	10518.37
476.92	10518.37
477.10	10714.97
477.28	10623.69
477.46	10984.13
477.64	11002.86
477.82	11014.56
478.00	11499.05
478.18	11215.85
478.36	11295.43
478.54	11527.14
478.72	11527.14
478.90	11564.59
479.08	11669.91
479.26	11789.28
479.44	11789.28
479.62	11885.24
479.80	12189.51
479.98	12191.85
480.16	12329.94
480.34	12243.34
480.52	12032.69
480.70	12215.26
480.88	12238.66
481.06	12678.68
481.24	12704.43
481.41	12416.54
481.59	12910.40
481.77	13004.02
481.95	13039.12
482.13	13074.23
482.31	13004.02
482.49	13422.97
482.67	13523.62
482.85	13575.11
483.03	13652.34
483.21	13631.28
483.39	14101.73
483.57	13841.93
483.74	13823.20
483.92	14401.32
484.10	14190.67
484.28	14487.92
484.46	14768.78
484.64	14902.19
484.82	14541.75
485.00	14853.04
485.18	14906.87
485.35	15171.35
485.53	15028.58
485.71	15283.70
485.89	15676.91
486.07	15571.58
486.25	15529.45
486.43	15569.24
486.61	15756.49
486.78	16128.63
486.96	15932.03
487.14	16116.93
487.32	16313.53
487.50	16152.04
487.68	16681.00
487.85	17132.72
488.03	16835.47
488.21	16999.31
488.39	17036.76
488.57	17181.87
488.75	17011.01
488.92	17572.74
489.10	17827.86
489.28	17790.41
489.46	17783.39
489.64	17972.97
489.81	18097.02
489.99	18345.12
490.17	18302.99
490.35	18548.75
490.53	18710.24
490.70	18881.10
490.88	19026.21
491.06	19005.15
491.24	18881.10
491.41	19103.45
491.59	19461.55
491.77	19379.64
491.95	19613.69
492.13	19679.22
492.30	19697.95
492.48	19634.75
492.66	19784.55
492.84	19878.17
493.01	20320.53
493.19	20070.09
493.37	20411.81
493.54	20407.13
493.72	20666.93
493.90	20964.18
494.08	20819.07
494.25	21514.20
494.43	21076.52
494.61	21420.58
494.79	21380.79
494.96	21060.14
495.14	21514.20
495.32	21799.75
495.49	21872.31
495.67	22115.72
495.85	22225.73
496.02	22403.61
496.20	22852.99
496.38	22771.07
496.55	22235.09
496.73	22991.08
496.91	22724.26
497.09	22988.74
497.26	22974.70
497.44	23246.20
497.62	23452.17
497.79	23548.13
497.97	23653.45
498.14	23718.99
498.32	23843.04
498.50	23901.55
498.67	23992.83
498.85	23976.45
499.03	24030.28
499.20	24257.31
499.38	24243.27
499.56	24594.35
499.73	24592.01
499.91	25160.76
500.08	24992.24
500.26	24748.82
500.44	25179.48
500.61	25027.35
500.79	24978.20
500.97	25170.12
501.14	25446.30
501.32	25551.63
501.49	25443.96
501.67	25607.80
501.84	25671.00
502.02	26038.46
502.20	26022.08
502.37	25642.91
502.55	25635.89
502.72	26361.45
502.90	26061.87
503.07	26045.48
503.25	26522.95
503.43	26328.69
503.60	26742.96
503.78	26654.02
503.95	26689.13
504.13	26663.38
504.30	27035.53
504.48	27075.32
504.65	26977.01
504.83	27351.50
505.01	27328.10
505.18	27475.55
505.36	27503.64
505.53	27012.12
505.71	27524.70
505.88	28119.20
506.06	27508.32
506.23	27828.97
506.41	27782.16
506.58	28273.67
506.76	27978.76
506.93	28229.20
507.11	28360.27
507.28	28212.82
507.46	28610.71
507.63	28556.88
507.81	28498.36
507.98	28526.45
508.16	28507.72
508.33	28732.42
508.50	29130.31
508.68	28907.96
508.85	29291.80
509.03	29221.59
509.20	29441.60
509.38	29511.81
509.55	29469.69
509.73	29682.67
509.90	29743.53
510.08	29715.44
510.25	29614.80
510.42	29851.19
510.60	30015.03
510.77	30174.19
510.95	30352.07
511.12	29881.62
511.30	30342.70
511.47	30543.99
511.64	30382.49
511.82	30693.79
511.99	30536.97
512.17	30707.83
512.34	30916.14
512.51	30871.67
512.69	30986.35
512.86	31180.62
513.04	31206.36
513.21	31281.26
513.38	31388.92
513.56	31225.09
513.73	31344.45
513.90	31615.96
514.08	31627.66
514.25	31955.33
514.43	31597.23
514.60	31943.63
514.77	31754.05
514.95	32144.92
515.12	32247.90
515.29	32238.54
515.47	32275.99
515.64	32760.48
515.81	32465.57
515.99	32662.18
516.16	32769.84
516.33	32980.49
516.51	32886.87
516.68	32725.37
516.85	32472.59
517.03	33036.66
517.20	33172.41
517.37	32872.82
517.54	32854.10
517.72	33247.31
517.89	33263.69
518.06	33535.20
518.24	33359.66
518.41	33160.71
518.58	33446.26
518.75	33462.64
518.93	33750.52
519.10	33661.58
519.27	33818.40
519.45	33886.28
519.62	34033.73
519.79	34150.76
519.96	34373.11
520.14	33872.23
520.31	34101.61
520.48	34225.65
520.65	34609.50
520.83	34698.44
521.00	34810.79
521.17	34782.70
521.34	34656.31
521.52	35182.93
521.69	35079.95
521.86	34752.27
522.03	34920.79
522.20	35290.60
522.38	35264.85
522.55	35164.21
522.72	35672.10
522.89	34981.65
523.07	35646.36
523.24	35665.08
523.41	35709.55
523.58	35615.93
523.75	35686.15
523.92	35548.06
524.10	36091.06
524.27	35826.58
524.44	35754.02
524.61	35824.24
524.78	36456.18
524.96	35997.44
525.13	36226.81
525.30	36680.88
525.47	36715.98
525.64	36521.72
525.81	36535.76
525.98	36542.78
526.16	36776.84
526.33	36299.37
526.50	36994.51
526.67	36825.99
526.84	36954.72
527.01	36935.99
527.18	37240.26
527.36	37195.79
527.53	37233.24
527.70	37294.10
527.87	37722.41
528.04	37186.43
528.21	37413.46
528.38	37654.54
528.55	37481.34
528.72	37308.14
528.89	37654.54
529.07	37778.59
529.24	37200.47
529.41	37961.15
529.58	37528.15
529.75	37799.65
529.92	37663.90
530.09	37792.63
530.26	37752.84
530.43	37975.19
530.60	38127.33
530.77	37951.79
530.94	38019.66
531.11	38134.35
531.28	38220.95
531.46	38160.09
531.63	38506.49
531.80	38602.46
531.97	38909.07
532.14	39253.12
532.31	38380.10
532.48	39159.50
532.65	39295.25
532.82	38735.87
532.99	38815.44
533.16	38955.88
533.33	38836.51
533.50	38897.36
533.67	38717.14
533.84	39019.07
534.01	39264.83
534.18	39058.86
534.35	39550.37
534.52	39414.62
534.69	39814.85
534.86	39899.11
535.03	39826.56
535.20	39629.95
535.37	39421.64
535.54	39849.96
535.71	39784.43
535.88	40236.15
536.05	39784.43
536.22	39889.75
536.38	39611.23
536.55	39981.03
536.72	40198.70
536.89	40252.53
537.06	39988.05
537.23	40758.09
537.40	40383.60
537.57	39791.45
537.74	40411.69
537.91	40722.98
538.08	40477.22
538.25	40315.73
538.42	40573.19
538.59	40861.07
538.75	40594.25
538.92	40832.99
539.09	40868.09
539.26	40884.48
539.43	40577.87
539.60	40884.48
539.77	40987.46
539.94	41579.62
540.11	40912.56
540.28	40931.29
540.44	41443.87
540.61	40664.47
540.78	41078.74
540.95	41375.99
541.12	41446.21
541.29	41137.26
541.46	41076.40
541.62	41282.37
541.79	41652.17
541.96	41226.20
542.13	41242.58
542.30	41511.74
542.47	41844.10
542.63	42279.44
542.80	41806.65
542.97	42316.89
543.14	42195.18
543.31	42253.69
543.48	41755.16
543.64	42766.27
543.81	42251.35
543.98	42665.63
544.15	42373.06
544.32	42515.83
544.48	42918.40
544.65	42534.56
544.82	42256.03
544.99	41998.57
545.16	43035.43
545.32	42457.32
545.49	43299.91
545.66	43098.62
545.83	42639.88
546.00	43012.02
546.16	43248.42
546.33	42946.49
546.50	42588.39
546.67	43049.47
546.83	42815.42
547.00	42710.10
547.17	42564.98
547.34	43171.18
547.50	43419.28
547.67	43452.05
547.84	43192.25
548.00	43707.16
548.17	43732.91
548.34	43526.94
548.51	43461.41
548.67	43585.46
548.84	43826.53
549.01	43227.35
549.18	43973.98
549.34	43620.56
549.51	43849.94
549.68	43580.78
549.84	43625.25
550.01	44098.03
550.18	43318.64
550.34	43962.28
550.51	44023.14
550.68	44414.01
550.84	43805.47
551.01	44320.38
551.18	43826.53
551.34	43997.39
551.51	44397.62
551.68	44034.84
551.84	44076.97
552.01	43845.26
552.18	44612.95
552.34	43973.98
552.51	44465.50
552.68	44268.89
552.84	44493.58
553.01	44774.45
553.18	44123.78
553.34	44898.50
553.51	44507.63
553.67	44889.13
553.84	44535.71
554.01	44933.60
554.17	44292.30
554.34	44711.25
554.51	44659.76
554.67	45177.02
554.84	45008.50
555.00	44708.91
555.17	45050.63
555.33	44975.73
555.50	44739.34
555.67	45102.12
555.83	44811.90
556.00	45123.19
556.16	45787.90
556.33	45401.71
556.50	44727.64
556.66	45308.09
556.83	44868.07
556.99	45233.19
557.16	45881.52
557.32	45317.45
557.49	45820.67
557.65	45280.00
557.82	45504.70
557.98	45301.07
558.15	45490.65
558.32	45624.06
558.48	45291.71
558.65	45366.60
558.81	45516.40
558.98	45705.98
559.14	45406.39
559.31	45720.02
559.47	45647.47
559.64	46057.06
559.80	45668.53
559.97	45846.41
560.13	45750.45
560.30	45841.73
560.46	45923.65
560.63	45937.69
560.79	46258.35
560.96	46358.99
561.12	46131.96
561.29	46127.28
561.45	46141.32
561.61	46057.06
561.78	46010.25
561.94	45815.99
562.11	46045.36
562.27	45830.03
562.44	46110.89
562.60	46382.40
562.77	46363.67
562.93	45392.35
563.10	46312.18
563.26	46188.13
563.42	46642.20
563.59	46244.30
563.75	46417.50
563.92	46440.91
564.08	46054.72
564.24	46642.20
564.41	46461.97
564.57	46237.28
564.74	46492.40
564.90	46225.58
565.07	46178.77
565.23	46415.16
565.39	46326.22
565.56	46674.96
565.72	46583.68
565.88	46787.31
566.05	46483.04
566.21	46485.38
566.38	46398.78
566.54	46941.78
566.70	46440.91
566.87	46780.29
567.03	46464.32
567.19	46602.41
567.36	46562.62
567.52	46904.34
567.68	46813.05
567.85	46782.63
568.01	46927.74
568.17	46480.70
568.34	47105.62
568.50	46894.97
568.66	46745.18
568.83	47147.75
568.99	47129.03
569.15	47023.70
569.32	46436.23
569.48	46330.90
569.64	46909.02
569.81	47206.26
569.97	46890.29
570.13	47145.41
570.30	46625.81
570.46	47421.59
570.62	46831.78
570.78	46871.57
570.95	46958.17
571.11	47285.84
571.27	46843.48
571.43	46780.29
571.60	46644.54
571.76	46887.95
571.92	47100.94
572.09	47119.66
572.25	47278.82
572.41	47079.88
572.57	47374.78
572.74	47236.69
572.90	47026.04
573.06	47435.64
573.22	47065.83
573.38	47400.53
573.55	47180.52
573.71	47569.05
573.87	47643.94
574.03	47110.30
574.20	47751.61
574.36	47075.19
574.52	47547.98
574.68	47171.16
574.84	47433.30
575.01	47374.78
575.17	46997.96
575.33	47325.63
575.49	46948.81
575.65	47482.45
575.82	47498.83
575.98	47222.65
576.14	47690.76
576.30	47346.70
576.46	47501.17
576.62	47098.60
576.79	47297.55
576.95	47477.77
577.11	47140.73
577.27	47103.28
577.43	47337.33
577.59	47243.71
577.75	46918.38
577.92	47367.76
578.08	47407.55
578.24	47391.17
578.40	47461.38
578.56	47789.06
578.72	47606.50
578.88	47337.33
579.04	47676.71
579.21	47395.85
579.37	47765.65
579.53	47580.75
579.69	47224.99
579.85	47154.77
580.01	47454.36
580.17	47203.92
580.33	47428.62
580.49	47505.85
580.65	47447.34
580.82	47559.69
580.98	47051.79
581.14	47353.72
581.30	47070.51
581.46	47370.10
581.62	47714.16
581.78	47173.50
581.94	47475.43
582.10	47592.45
582.26	47522.24
582.42	48095.67
582.58	47814.80
582.74	47585.43
582.90	47704.80
583.06	47569.05
583.22	47622.88
583.38	47585.43
583.54	47686.07
583.70	47646.29
583.86	47725.86
584.02	47779.70
584.18	47885.02
584.34	48093.33
584.50	47852.25
584.66	47681.39
584.82	47695.44
584.98	48182.27
585.14	48163.54
585.30	47351.38
585.46	47875.66
585.62	47526.92
585.78	47796.08
585.94	47161.79
586.10	48072.26
586.26	47622.88
586.42	47365.42
586.58	47983.32
586.74	47620.54
586.90	47730.54
587.06	47686.07
587.22	48168.22
587.38	47480.11
587.54	47995.03
587.70	48336.74
587.86	47704.80
588.02	47562.03
588.18	47491.81
588.34	47824.17
588.49	48058.22
588.65	47606.50
588.81	47842.89
588.97	47948.21
589.13	47735.23
589.29	48006.73
589.45	47964.60
589.61	47749.27
589.77	47901.40
589.93	48360.15
590.08	48161.20
