SpectraSuite Data File
++++++++++++++++++++++++++++++++++++
Date: Fri Oct 25 10:47:47 EDT 2013
User: price-jones
Dark Spectrum Present: No
Reference Spectrum Present: No
Number of Sampled Component Spectra: 1
Spectrometers: USB2+H05261
Integration Time (usec): 100000 (USB2+H05261)
Spectra Averaged: 1 (USB2+H05261)
Boxcar Smoothing: 0 (USB2+H05261)
Correct for Electrical Dark: No (USB2+H05261)
Strobe/Lamp Enabled: No (USB2+H05261)
Correct for Detector Non-linearity: No (USB2+H05261)
Correct for Stray Light: No (USB2+H05261)
Number of Pixels in Processed Spectrum: 2048
>>>>>Begin Processed Spectral Data<<<<<
365.73	91.28
365.92	91.28
366.12	91.28
366.32	28.09
366.52	23.41
366.72	0.00
366.91	44.47
367.11	0.00
367.31	32.77
367.51	102.98
367.70	0.00
367.90	77.24
368.10	0.00
368.30	30.43
368.49	0.00
368.69	79.58
368.89	14.04
369.09	81.92
369.28	88.94
369.48	84.26
369.68	107.66
369.87	65.54
370.07	131.07
370.27	121.71
370.47	149.79
370.66	386.19
370.86	365.12
371.06	463.43
371.25	465.77
371.45	437.68
371.65	447.04
371.84	418.96
372.04	500.87
372.24	514.92
372.44	482.15
372.63	526.62
372.83	461.09
373.03	477.47
373.22	561.73
373.42	594.50
373.62	543.00
373.81	526.62
374.01	610.88
374.21	580.45
374.40	519.60
374.60	613.22
374.79	545.34
374.99	578.11
375.19	388.53
375.38	566.41
375.58	456.40
375.78	603.86
375.97	510.24
376.17	603.86
376.37	620.24
376.56	545.34
376.76	564.07
376.95	608.54
377.15	596.84
377.35	636.63
377.54	573.43
377.74	657.69
377.93	624.92
378.13	599.18
378.33	601.52
378.52	603.86
378.72	613.22
378.91	629.60
379.11	697.48
379.31	645.99
379.50	624.92
379.70	594.50
379.89	683.44
380.09	617.90
380.28	650.67
380.48	669.39
380.68	638.97
380.87	624.92
381.07	678.76
381.26	641.31
381.46	695.14
381.65	664.71
381.85	648.33
382.04	674.07
382.24	669.39
382.43	692.80
382.63	674.07
382.83	688.12
383.02	727.91
383.22	753.65
383.41	622.58
383.61	741.95
383.80	784.08
384.00	779.40
384.19	751.31
384.39	718.54
384.58	664.71
384.78	753.65
384.97	709.18
385.17	844.93
385.36	678.76
385.56	716.20
385.75	692.80
385.95	823.87
386.14	819.19
386.34	777.06
386.53	835.57
386.72	746.63
386.92	793.44
387.11	812.17
387.31	898.77
387.50	823.87
387.70	802.80
387.89	844.93
388.09	798.12
388.28	826.21
388.48	873.02
388.67	826.21
388.86	837.91
389.06	849.61
389.25	931.53
389.45	866.00
389.64	856.64
389.84	971.32
390.03	938.55
390.22	922.17
390.42	964.30
390.61	894.08
390.81	976.00
391.00	938.55
391.19	931.53
391.39	933.87
391.58	922.17
391.78	961.96
391.97	938.55
392.16	912.81
392.36	973.66
392.55	1034.52
392.75	990.05
392.94	992.39
393.13	954.94
393.33	898.77
393.52	976.00
393.71	1004.09
393.91	994.73
394.10	950.26
394.29	999.41
394.49	1057.92
394.68	997.07
394.88	1071.97
395.07	1048.56
395.26	1130.48
395.46	1116.44
395.65	1114.10
395.84	1188.99
396.04	1282.61
396.23	1104.73
396.42	1100.05
396.62	1074.31
396.81	1135.16
397.00	1153.88
397.19	1210.06
397.39	1259.21
397.58	1128.14
397.77	1235.80
397.97	1296.66
398.16	1177.29
398.35	1280.27
398.55	1322.40
398.74	1275.59
398.93	1329.42
399.12	1369.21
399.32	1355.17
399.51	1430.07
399.70	1411.34
399.90	1350.49
400.09	1357.51
400.28	1462.83
400.47	1483.90
400.67	1411.34
400.86	1434.75
401.05	1448.79
401.24	1427.73
401.44	1507.30
401.63	1497.94
401.82	1577.52
402.01	1549.43
402.21	1568.16
402.40	1493.26
402.59	1500.28
402.78	1519.01
402.97	1544.75
403.17	1563.48
403.36	1626.67
403.55	1603.27
403.74	1650.08
403.93	1617.31
404.13	1732.00
404.32	1640.72
404.51	1661.78
404.70	1633.69
404.89	1659.44
405.09	1750.72
405.28	1853.70
405.47	1748.38
405.66	1713.27
405.85	1682.85
406.05	1715.61
406.24	1727.32
406.43	1797.53
406.62	1856.04
406.81	1942.64
407.00	1774.13
407.20	1792.85
407.39	1856.04
407.58	1944.99
407.77	1891.15
407.96	1989.46
408.15	1900.52
408.34	1963.71
408.54	2052.65
408.73	1956.69
408.92	2097.12
409.11	2015.20
409.30	2134.57
409.49	2146.27
409.68	2080.74
409.87	1949.67
410.07	2118.18
410.26	2129.89
410.45	2235.21
410.64	2195.42
410.83	2307.77
411.02	2174.36
411.21	2349.90
411.40	2349.90
411.59	2289.04
411.78	2246.91
411.98	2291.38
412.17	2333.51
412.36	2373.30
412.55	2448.20
412.74	2443.52
412.93	2422.45
413.12	2420.11
413.31	2504.37
413.50	2424.80
413.69	2492.67
413.88	2621.40
414.07	2597.99
414.26	2581.61
414.45	2588.63
414.64	2518.42
414.83	2630.76
415.02	2628.42
415.22	2738.43
415.41	2843.75
415.60	2736.09
415.79	2815.66
415.98	2906.95
416.17	2841.41
416.36	2902.26
416.55	2888.22
416.74	2958.44
416.93	2881.20
417.12	3021.63
417.31	2932.69
417.50	2960.78
417.69	2967.80
417.88	3009.93
418.07	3152.70
418.26	3131.64
418.45	3049.72
418.64	3234.62
418.83	3211.22
419.02	3054.40
419.21	3052.06
419.39	3279.09
419.58	3227.60
419.77	3232.28
419.96	3262.71
420.15	3194.83
420.34	3290.79
420.53	3269.73
420.72	3524.85
420.91	3524.85
421.10	3382.07
421.29	3424.20
421.48	3339.94
421.67	3466.33
421.86	3379.73
422.05	3375.05
422.24	3501.44
422.43	3440.59
422.61	3515.48
422.80	3684.00
422.99	3545.91
423.18	3398.46
423.37	3468.67
423.56	3529.53
423.75	3503.78
423.94	3506.12
424.13	3391.44
424.32	3407.82
424.50	3583.36
424.69	3618.47
424.88	3658.26
425.07	3471.01
425.26	3524.85
425.45	3564.64
425.64	3515.48
425.83	3515.48
426.01	3606.77
426.20	3681.66
426.39	3627.83
426.58	3564.64
426.77	3492.08
426.96	3581.02
427.15	3620.81
427.33	3632.51
427.52	3660.60
427.71	3887.63
427.90	3838.48
428.09	3794.01
428.28	3674.64
428.46	3911.04
428.65	3777.62
428.84	3815.07
429.03	3990.61
429.22	3772.94
429.40	3763.58
429.59	3810.39
429.78	3515.48
429.97	3599.74
430.16	3772.94
430.34	3840.82
430.53	3866.56
430.72	3768.26
430.91	3826.78
431.10	3971.89
431.28	4070.19
431.47	4032.74
431.66	4135.73
431.85	4159.13
432.03	4208.28
432.22	4269.14
432.41	4121.68
432.60	4229.35
432.79	4159.13
432.97	4266.80
433.16	4346.37
433.35	4283.18
433.54	4311.27
433.72	4114.66
433.91	4269.14
434.10	4372.12
434.28	4346.37
434.47	4400.21
434.66	4292.54
434.85	4461.06
435.03	4587.45
435.22	4444.68
435.41	4798.10
435.59	4629.58
435.78	4540.64
435.97	4620.22
436.16	4465.74
436.34	4547.66
436.53	4634.26
436.72	4741.93
436.90	4568.73
437.09	4622.56
437.28	4472.76
437.46	4645.96
437.65	4578.09
437.84	4606.17
438.02	4671.71
438.21	4758.31
438.40	4737.24
438.58	5001.72
438.77	4877.68
438.96	4954.91
439.14	5118.75
439.33	4943.21
439.52	5203.01
439.70	5224.08
439.89	5118.75
440.08	5137.48
440.26	5186.63
440.45	5121.09
440.63	5158.54
440.82	5338.76
441.01	5430.04
441.19	5423.02
441.38	5371.53
441.57	5355.15
441.75	5563.45
441.94	5584.52
442.12	5476.85
442.31	5664.10
442.50	5722.61
442.68	5591.54
442.87	5696.86
443.05	5619.63
443.24	5961.34
443.43	5781.12
443.61	5762.40
443.80	6010.50
443.98	5565.79
444.17	5640.69
444.35	5785.80
444.54	6033.90
444.73	6003.47
444.91	5837.30
445.10	5664.10
445.28	5769.42
445.47	5746.02
445.65	5762.40
445.84	6005.81
446.02	6015.18
446.21	5806.87
446.39	5799.85
446.58	5935.60
446.77	6026.88
446.95	5975.39
447.14	5921.56
447.32	6024.54
447.51	6017.52
447.69	6001.13
447.88	6108.80
448.06	5982.41
448.25	5804.53
448.43	6022.20
448.62	6223.48
448.80	5991.77
448.99	6181.35
449.17	6148.59
449.36	6036.24
449.54	6354.55
449.73	6251.57
449.91	6396.68
450.10	6382.64
450.28	6375.62
450.46	6370.94
450.65	6483.28
450.83	6321.79
451.02	6195.40
451.20	6607.33
451.39	6497.33
451.57	6246.89
451.76	6249.23
451.94	6417.75
452.13	6658.82
452.31	6384.98
452.49	6296.04
452.68	6473.92
452.86	6396.68
453.05	6689.25
453.23	6612.01
453.42	6452.86
453.60	6623.72
453.78	6597.97
453.97	6658.82
454.15	6722.02
454.34	6604.99
454.52	6834.36
454.70	6792.23
454.89	6836.70
455.07	6782.87
455.26	6918.62
455.44	6878.83
455.62	6977.14
455.81	6923.30
455.99	6958.41
456.17	7059.06
456.36	6883.52
456.54	7187.79
456.73	7131.61
456.91	7379.71
457.09	7360.98
457.28	7368.01
457.46	7194.81
457.64	7372.69
457.83	7410.14
458.01	7227.57
458.19	7510.78
458.38	7253.32
458.56	7473.33
458.74	7311.83
458.93	7545.89
459.11	7382.05
459.29	7534.18
459.48	7375.03
459.66	7527.16
459.84	7606.74
460.03	7611.42
460.21	7609.08
460.39	7808.03
460.57	7573.97
460.76	7634.83
460.94	7819.73
461.12	7606.74
461.31	7859.52
461.49	7927.39
461.67	7571.63
461.85	7981.23
462.04	7772.92
462.22	8446.99
462.40	7957.82
462.59	8173.15
462.77	8018.68
462.95	8201.24
463.13	8138.04
463.32	7913.35
463.50	8156.77
463.68	8161.45
463.86	8264.43
464.05	8208.26
464.23	8135.70
464.41	8156.77
464.59	7990.59
464.78	8138.04
464.96	8163.79
465.14	8016.33
465.32	8224.64
465.50	8292.52
465.69	8500.83
465.87	8290.18
466.05	8119.32
466.23	8414.23
466.41	8376.78
466.60	8655.30
466.78	8402.52
466.96	8400.18
467.14	8353.37
467.32	8475.08
467.51	8627.21
467.69	8388.48
467.87	8582.74
468.05	8751.26
468.23	8706.79
468.41	8461.04
468.60	8781.69
468.78	8765.31
468.96	8678.71
469.14	8652.96
469.32	8854.25
469.50	8554.66
469.69	8898.72
469.87	9036.81
470.05	8872.97
470.23	9067.24
470.41	8879.99
470.59	8950.21
470.77	9006.38
470.95	9231.07
471.14	9270.86
471.32	9060.21
471.50	9195.96
471.68	9231.07
471.86	9441.72
472.04	9401.93
472.22	9596.20
472.40	9149.15
472.58	9432.36
472.77	9481.51
472.95	9572.79
473.13	10029.20
473.31	9448.74
473.49	9593.86
473.67	9572.79
473.85	9654.71
474.03	9994.09
474.21	9827.91
474.39	9930.89
474.57	10178.99
474.75	10012.81
474.93	10207.08
475.12	10043.24
475.30	10310.06
475.48	10303.04
475.66	10452.83
475.84	10244.52
476.02	10289.00
476.20	10382.62
476.38	10373.25
476.56	10616.67
476.74	10885.83
476.92	10904.56
477.10	10871.79
477.28	10743.06
477.46	10970.09
477.64	11112.86
477.82	11281.38
478.00	11201.80
478.18	11257.98
478.36	11335.21
478.54	11754.17
478.72	11606.72
478.90	11892.26
479.08	11871.20
479.26	11988.22
479.44	11892.26
479.62	11896.94
479.80	12182.49
479.98	12343.99
480.16	12341.64
480.34	12222.28
480.52	12430.59
480.70	12592.08
480.88	12435.27
481.06	12423.56
481.24	12685.70
481.41	13032.10
481.59	13130.41
481.77	12999.34
481.95	13111.68
482.13	13418.29
482.31	13252.11
482.49	13586.81
482.67	13352.76
482.85	13834.91
483.03	13668.73
483.21	13898.10
483.39	14017.47
483.57	13895.76
483.74	14272.59
483.92	14265.57
484.10	14160.24
484.28	14499.62
484.46	14600.26
484.64	15213.48
484.82	14670.48
485.00	14841.34
485.18	15096.46
485.35	15112.84
485.53	15021.56
485.71	15047.30
485.89	15293.06
486.07	15218.16
486.25	15370.30
486.43	15529.45
486.61	15824.36
486.78	15878.19
486.96	15861.81
487.14	16224.59
487.32	16137.99
487.50	16713.77
487.68	16526.52
487.85	16996.97
488.03	16989.95
488.21	16992.29
488.39	17011.01
488.57	17338.69
488.75	17465.08
488.92	17617.21
489.10	17909.78
489.28	17729.56
489.46	17898.08
489.64	18160.22
489.81	18567.47
489.99	18654.07
490.17	18333.42
490.35	18951.32
490.53	18562.79
490.70	18796.84
490.88	18855.36
491.06	19037.92
491.24	18988.77
491.41	19119.84
491.59	19187.71
491.77	19063.66
491.95	19580.92
492.13	19627.73
492.30	19690.93
492.48	19997.54
492.66	20182.44
492.84	19913.28
493.01	20383.73
493.19	20273.72
493.37	20418.83
493.54	20734.81
493.72	20828.43
493.90	20943.11
494.08	21186.53
494.25	21205.25
494.43	21252.06
494.61	21341.00
494.79	21242.70
494.96	21542.29
495.14	21558.67
495.32	21912.10
495.49	21846.56
495.67	22045.51
495.85	21813.79
496.02	22349.78
496.20	22375.52
496.38	22181.26
496.55	22342.75
496.73	23250.88
496.91	22871.72
497.09	22838.95
497.26	23206.41
497.44	23084.70
497.62	22902.14
497.79	23491.96
497.97	23133.86
498.14	23487.28
498.32	23639.41
498.50	23901.55
498.67	24271.36
498.85	23948.36
499.03	24053.69
499.20	24016.24
499.38	23990.49
499.56	24479.66
499.73	24128.58
499.91	24615.41
500.08	24479.66
500.26	24039.64
500.44	25053.09
500.61	24891.60
500.79	24992.24
500.97	24929.05
501.14	25275.45
501.32	25385.45
501.49	25642.91
501.67	25427.58
501.84	25380.77
502.02	25500.14
502.20	25663.97
502.37	25687.38
502.55	25701.42
502.72	25685.04
502.90	26108.68
503.07	25905.05
503.25	26092.29
503.43	26120.38
503.60	26129.74
503.78	25839.51
503.95	26120.38
504.13	26457.42
504.30	26998.08
504.48	26338.05
504.65	26618.91
504.83	26979.36
505.01	27197.02
505.18	26986.38
505.36	27520.02
505.53	27398.31
505.71	27414.69
505.88	27805.56
506.06	26962.97
506.23	27580.87
506.41	27363.20
506.58	27543.42
506.76	27548.11
506.93	27967.06
507.11	27697.90
507.28	27859.40
507.46	28261.97
507.63	28252.61
507.81	28161.33
507.98	28264.31
508.16	28266.65
508.33	28170.69
508.50	28528.79
508.68	28648.16
508.85	28870.51
509.03	28589.64
509.20	29233.29
509.38	28936.04
509.55	29177.12
509.73	29249.67
509.90	29127.97
510.08	29142.01
510.25	29205.20
510.42	29778.64
510.60	29380.74
510.77	29575.01
510.95	29916.73
511.12	29862.90
511.30	29816.08
511.47	30370.79
511.64	30082.91
511.82	30590.80
511.99	30064.18
512.17	30265.47
512.34	30160.14
512.51	30331.00
512.69	30972.31
512.86	30426.96
513.04	30764.00
513.21	30801.45
513.38	30866.98
513.56	30602.50
513.73	30691.44
513.90	31131.47
514.08	30572.08
514.25	31122.10
514.43	30955.93
514.60	30756.98
514.77	30541.65
514.95	31585.53
515.12	31189.98
515.29	31459.14
515.47	31618.30
515.64	32170.66
515.81	31700.22
515.99	31576.17
516.16	31611.28
516.33	31854.69
516.51	31770.43
516.68	31716.60
516.85	31716.60
517.03	31709.58
517.20	32121.51
517.37	32147.26
517.54	32156.62
517.72	32488.98
517.89	32079.38
518.06	32294.71
518.24	32283.01
518.41	32648.13
518.58	32371.95
518.75	32369.61
518.93	32870.48
519.10	32732.39
519.27	32877.51
519.45	33088.15
519.62	33132.62
519.79	33333.91
519.96	33270.72
520.14	33247.31
520.31	33163.05
520.48	33532.86
520.65	33450.94
520.83	33479.02
521.00	33450.94
521.17	33369.02
521.34	33708.40
521.52	34040.75
521.69	33811.38
521.86	33937.77
522.03	34024.37
522.20	33968.19
522.38	34724.19
522.55	34284.17
522.72	34279.49
522.89	34522.90
523.07	34532.26
523.24	34403.53
523.41	34558.01
523.58	34644.61
523.75	35161.87
523.92	34771.00
524.10	35541.03
524.27	35180.59
524.44	35260.17
524.61	34794.40
524.78	35248.47
524.96	35379.54
525.13	35414.65
525.30	35477.84
525.47	35948.29
525.64	35536.35
525.81	35454.44
525.98	35182.93
526.16	35154.85
526.33	35683.81
526.50	35215.70
526.67	35676.79
526.84	35644.02
527.01	35903.82
527.18	35770.41
527.36	35690.83
527.53	36196.38
527.70	36292.35
527.87	36418.74
528.04	36126.17
528.21	36306.39
528.38	36301.71
528.55	36690.24
528.72	36627.04
528.89	36786.20
529.07	36884.50
529.24	36201.07
529.41	36943.02
529.58	37074.09
529.75	36671.51
529.92	37003.87
530.09	37195.79
530.26	36856.42
530.43	37071.75
530.60	36708.96
530.77	37088.13
530.94	37748.16
531.11	36896.20
531.28	37235.58
531.46	37357.29
531.63	37474.32
531.80	37078.77
531.97	37514.11
532.14	37228.56
532.31	37270.69
532.48	37490.70
532.65	37663.90
532.82	38024.34
532.99	38033.71
533.16	37509.43
533.33	37462.61
533.50	38047.75
533.67	37654.54
533.84	37926.04
534.01	37968.17
534.18	37839.44
534.35	38089.88
534.52	38227.97
534.69	38515.86
534.86	38625.86
535.03	38082.86
535.20	38239.67
535.37	38967.58
535.54	38707.78
535.71	38429.26
535.88	38621.18
536.05	38918.43
536.22	39023.75
536.38	38941.83
536.55	38897.36
536.72	38895.02
536.89	38057.11
537.06	38471.39
537.23	38937.15
537.40	38803.74
537.57	38658.63
537.74	39119.71
537.91	39257.81
538.08	39136.10
538.25	38859.91
538.42	39185.25
538.59	39281.21
538.75	38787.36
538.92	39585.48
539.09	39208.65
539.26	39110.35
539.43	39784.43
539.60	39555.05
539.77	39660.38
539.94	39641.65
540.11	38876.30
540.28	39398.24
540.44	39639.31
540.61	39746.98
540.78	39351.43
540.95	39562.08
541.12	39468.45
541.29	39849.96
541.46	39571.44
541.62	40011.46
541.79	40233.81
541.96	39667.40
542.13	40107.42
542.30	39789.11
542.47	39665.06
542.63	39901.45
542.80	40058.27
542.97	40037.20
543.14	40877.46
543.31	40886.82
543.48	40437.44
543.64	40999.16
543.81	40540.42
543.98	40456.16
544.15	40699.58
544.32	41226.20
544.48	41013.21
544.65	40910.22
544.82	41118.53
544.99	40692.55
545.16	41481.31
545.32	40732.34
545.49	40795.54
545.66	41031.93
545.83	40961.72
546.00	41345.56
546.16	41038.95
546.33	40786.18
546.50	40650.42
546.67	41277.69
546.83	40868.09
547.00	40938.31
547.17	41123.21
547.34	41209.81
547.50	41687.28
547.67	41474.29
547.84	41846.44
548.00	41846.44
548.17	42108.58
548.34	41645.15
548.51	41755.16
548.67	41586.64
548.84	41975.17
549.01	41577.28
549.18	41743.45
549.34	41652.17
549.51	41682.60
549.68	42061.77
549.84	41883.89
550.01	42546.26
550.18	41607.70
550.34	42082.83
550.51	42017.30
550.68	41918.99
550.84	41411.10
551.01	42286.46
551.18	41940.06
551.34	42270.08
551.51	42199.86
551.68	42047.72
551.84	42162.41
552.01	42349.65
552.18	42347.31
552.34	42220.92
552.51	42342.63
552.68	42106.24
552.84	42532.22
553.01	42693.71
553.18	42190.50
553.34	42241.99
553.51	42216.24
553.67	42429.23
553.84	42913.72
554.01	42773.29
554.17	43220.33
554.34	42899.68
554.51	43136.07
554.67	43264.80
554.84	42817.76
555.00	42740.52
555.17	42792.01
555.33	43093.94
555.50	42742.86
555.67	43037.77
555.83	42679.67
556.00	43196.93
556.16	43416.94
556.33	42990.96
556.50	42717.12
556.66	43494.18
556.83	43243.74
556.99	43328.00
557.16	43248.42
557.32	43379.49
557.49	43452.05
557.65	42616.47
557.82	43309.27
557.98	43110.33
558.15	43433.32
558.32	43185.22
558.48	43171.18
558.65	43288.21
558.81	43468.43
558.98	43232.04
559.14	43262.46
559.31	43236.72
559.47	43447.36
559.64	43524.60
559.80	43775.04
559.97	43524.60
560.13	43138.41
560.30	43714.19
560.46	43866.32
560.63	43571.41
560.79	43913.13
560.96	43807.81
561.12	43524.60
561.29	43821.85
561.45	43489.49
561.61	43777.38
561.78	43782.06
561.94	43903.77
562.11	43917.81
562.27	43819.51
562.44	43674.40
562.60	43763.34
562.77	43847.60
562.93	43690.78
563.10	43629.93
563.26	43838.23
563.42	44013.77
563.59	43807.81
563.75	43768.02
563.92	43882.70
564.08	44140.16
564.24	44278.25
564.41	44250.17
564.57	44065.27
564.74	44128.46
564.90	43831.21
565.07	44044.20
565.23	43763.34
565.39	44100.37
565.56	44201.02
565.72	43885.04
565.88	44289.96
566.05	44392.94
566.21	44210.38
566.38	44346.13
566.54	44051.22
566.70	44339.11
566.87	44694.87
567.03	44280.60
567.19	44392.94
567.36	44313.36
567.52	44002.07
567.68	44395.28
567.85	44526.35
568.01	44318.04
568.17	44011.43
568.34	44341.45
568.50	44282.94
568.66	44247.83
568.83	44926.58
568.99	44006.75
569.15	44299.32
569.32	44257.19
569.48	43868.66
569.64	44755.72
569.81	44369.54
569.97	44072.29
570.13	44671.46
570.30	44041.86
570.46	44147.18
570.62	43840.57
570.78	44219.74
570.95	44353.15
571.11	44222.08
571.27	43833.55
571.43	44343.79
571.60	44421.03
571.76	44304.00
571.92	44182.29
572.09	44411.67
572.25	44552.10
572.41	44151.87
572.57	44203.36
572.74	45251.92
572.90	44390.60
573.06	44201.02
573.22	44357.83
573.38	44793.17
573.55	44439.75
573.71	44973.39
573.87	44570.82
574.03	44264.21
574.20	44458.48
574.36	44449.11
574.52	44751.04
574.68	44687.85
574.84	44877.43
575.01	44531.03
575.17	44631.68
575.33	44491.24
575.49	44409.32
575.65	45006.16
575.82	45006.16
575.98	44758.06
576.14	44545.08
576.30	44519.33
576.46	44275.91
576.62	44149.53
576.79	44533.37
576.95	44306.34
577.11	44526.35
577.27	44360.17
577.43	44657.42
577.59	44737.00
577.75	44516.99
577.92	44404.64
578.08	43985.69
578.24	44559.12
578.40	44526.35
578.56	44266.55
578.72	44776.79
578.88	45228.51
579.04	44825.94
579.21	44339.11
579.37	44699.55
579.53	44479.54
579.69	44638.70
579.85	44655.08
580.01	44732.32
580.17	44924.24
580.33	44818.92
580.49	45177.02
580.65	44493.58
580.82	44491.24
580.98	44804.88
581.14	44589.55
581.30	44746.36
581.46	44975.73
581.62	44636.36
581.78	44479.54
581.94	45153.62
582.10	44942.97
582.26	44842.32
582.42	45041.27
582.58	44774.45
582.74	44666.78
582.90	44947.65
583.06	44720.62
583.22	44884.45
583.38	45109.14
583.54	44994.46
583.70	44631.68
583.86	44715.93
584.02	44655.08
584.18	44931.26
584.34	45249.58
584.50	44884.45
584.66	44751.04
584.82	44540.39
584.98	45511.72
585.14	44823.60
585.30	44933.60
585.46	44605.93
585.62	44591.89
585.78	44509.97
585.94	44610.61
586.10	44938.29
586.26	44774.45
586.42	44999.14
586.58	44603.59
586.74	45027.23
586.90	44500.61
587.06	44549.76
587.22	44802.53
587.38	44584.86
587.54	45193.40
587.70	45083.40
587.86	45205.11
588.02	44842.32
588.18	44938.29
588.34	44584.86
588.49	44339.11
588.65	44451.45
588.81	44465.50
588.97	44474.86
589.13	44678.49
589.29	44526.35
589.45	44701.89
589.61	45064.67
589.77	44856.37
589.93	45092.76
590.08	44577.84
590.24	45233.19
590.40	45319.79
