SpectraSuite Data File
++++++++++++++++++++++++++++++++++++
Date: Fri Oct 25 11:33:42 EDT 2013
User: price-jones
Dark Spectrum Present: No
Reference Spectrum Present: No
Number of Sampled Component Spectra: 1
Spectrometers: USB2+H05261
Integration Time (usec): 100000 (USB2+H05261)
Spectra Averaged: 1 (USB2+H05261)
Boxcar Smoothing: 0 (USB2+H05261)
Correct for Electrical Dark: No (USB2+H05261)
Strobe/Lamp Enabled: No (USB2+H05261)
Correct for Detector Non-linearity: No (USB2+H05261)
Correct for Stray Light: No (USB2+H05261)
Number of Pixels in Processed Spectrum: 2048
>>>>>Begin Processed Spectral Data<<<<<
365.73	241.08
365.92	241.08
366.12	241.08
366.32	184.90
366.52	159.16
366.72	194.26
366.91	245.76
367.11	187.24
367.31	124.05
367.51	147.45
367.70	198.95
367.90	163.84
368.10	217.67
368.30	262.14
368.49	245.76
368.69	266.82
368.89	222.35
369.09	229.37
369.28	297.25
369.48	210.65
369.68	266.82
369.87	283.20
370.07	229.37
370.27	337.04
370.47	339.38
370.66	456.40
370.86	500.87
371.06	547.69
371.25	578.11
371.45	531.30
371.65	489.17
371.84	526.62
372.04	528.96
372.24	655.35
372.44	571.09
372.63	559.39
372.83	606.20
373.03	550.03
373.22	561.73
373.42	596.84
373.62	631.94
373.81	627.26
374.01	624.92
374.21	674.07
374.40	671.73
374.60	627.26
374.79	648.33
374.99	678.76
375.19	645.99
375.38	748.97
375.58	615.56
375.78	641.31
375.97	669.39
376.17	730.25
376.37	697.48
376.56	716.20
376.76	692.80
376.95	641.31
377.15	671.73
377.35	664.71
377.54	711.52
377.74	667.05
377.93	695.14
378.13	683.44
378.33	763.01
378.52	723.23
378.72	746.63
378.91	734.93
379.11	718.54
379.31	720.88
379.50	643.65
379.70	702.16
379.89	681.10
380.09	727.91
380.28	622.58
380.48	706.84
380.68	744.29
380.87	702.16
381.07	774.72
381.26	748.97
381.46	779.40
381.65	727.91
381.85	840.25
382.04	784.08
382.24	748.97
382.43	716.20
382.63	763.01
382.83	870.68
383.02	828.55
383.22	800.46
383.41	723.23
383.61	784.08
383.80	777.06
384.00	746.63
384.19	793.44
384.39	887.06
384.58	887.06
384.78	847.27
384.97	884.72
385.17	786.42
385.36	912.81
385.56	842.59
385.75	809.83
385.95	931.53
386.14	884.72
386.34	805.14
386.53	814.51
386.72	926.85
386.92	919.83
387.11	905.79
387.31	950.26
387.50	823.87
387.70	819.19
387.89	858.98
388.09	903.45
388.28	983.02
388.48	898.77
388.67	945.58
388.86	875.36
389.06	943.24
389.25	990.05
389.45	1008.77
389.64	1025.15
389.84	1001.75
390.03	1022.81
390.22	933.87
390.42	924.51
390.61	983.02
390.81	976.00
391.00	947.92
391.19	1076.65
391.39	976.00
391.58	1048.56
391.78	1036.86
391.97	1078.99
392.16	1001.75
392.36	1011.11
392.55	1027.50
392.75	1022.81
392.94	1046.22
393.13	1114.10
393.33	1095.37
393.52	1081.33
393.71	1046.22
393.91	1151.54
394.10	1057.92
394.29	1034.52
394.49	1083.67
394.68	1109.41
394.88	1137.50
395.07	1151.54
395.26	1107.07
395.46	1123.46
395.65	1160.91
395.84	1203.04
396.04	1226.44
396.23	1151.54
396.42	1174.95
396.62	1160.91
396.81	1275.59
397.00	1282.61
397.19	1310.70
397.39	1282.61
397.58	1242.82
397.77	1235.80
397.97	1231.12
398.16	1261.55
398.35	1282.61
398.55	1282.61
398.74	1296.66
398.93	1296.66
399.12	1397.30
399.32	1362.19
399.51	1327.08
399.70	1369.21
399.90	1331.76
400.09	1322.40
400.28	1430.07
400.47	1341.13
400.67	1338.79
400.86	1404.32
401.05	1465.18
401.24	1369.21
401.44	1476.88
401.63	1509.65
401.82	1465.18
402.01	1497.94
402.21	1481.56
402.40	1453.47
402.59	1504.96
402.78	1547.09
402.97	1523.69
403.17	1488.58
403.36	1584.54
403.55	1453.47
403.74	1598.59
403.93	1575.18
404.13	1528.37
404.32	1547.09
404.51	1678.16
404.70	1699.23
404.89	1645.40
405.09	1739.02
405.28	1706.25
405.47	1556.46
405.66	1664.12
405.85	1636.03
406.05	1713.27
406.24	1753.06
406.43	1715.61
406.62	1804.55
406.81	1884.13
407.00	1769.44
407.20	1795.19
407.39	1746.04
407.58	1834.98
407.77	1760.08
407.96	1930.94
408.15	1872.43
408.34	1851.36
408.54	1891.15
408.73	1870.09
408.92	1886.47
409.11	1982.43
409.30	2003.50
409.49	2010.52
409.68	1975.41
409.87	2111.16
410.07	2073.71
410.26	2017.54
410.45	2150.95
410.64	2120.53
410.83	2069.03
411.02	2047.97
411.21	2157.97
411.40	2050.31
411.59	2284.36
411.78	2209.47
411.98	2186.06
412.17	2218.83
412.36	2225.85
412.55	2167.34
412.74	2455.22
412.93	2385.01
413.12	2200.10
413.31	2502.03
413.50	2483.31
413.69	2422.45
413.88	2565.23
414.07	2401.39
414.26	2441.18
414.45	2504.37
414.64	2513.74
414.83	2581.61
415.02	2572.25
415.22	2679.91
415.41	2689.28
415.60	2642.46
415.79	2715.02
415.98	2686.94
416.17	2752.47
416.36	2761.83
416.55	2745.45
416.74	2857.79
416.93	2860.13
417.12	2853.11
417.31	2853.11
417.50	2780.56
417.69	2965.46
417.88	2979.50
418.07	2960.78
418.26	3056.74
418.45	2888.22
418.64	3052.06
418.83	2951.42
419.02	3166.74
419.21	3007.59
419.39	3129.30
419.58	3131.64
419.77	3075.46
419.96	3215.90
420.15	3103.55
420.34	3192.49
420.53	3241.64
420.72	3185.47
420.91	3243.98
421.10	3173.77
421.29	3227.60
421.48	3246.32
421.67	3232.28
421.86	3330.58
422.05	3389.10
422.24	3199.51
422.43	3426.54
422.61	3379.73
422.80	3494.42
422.99	3342.28
423.18	3513.14
423.37	3492.08
423.56	3428.88
423.75	3445.27
423.94	3419.52
424.13	3239.30
424.32	3255.69
424.50	3377.39
424.69	3419.52
424.88	3459.31
425.07	3431.23
425.26	3365.69
425.45	3351.65
425.64	3330.58
425.83	3426.54
426.01	3536.55
426.20	3501.44
426.39	3611.45
426.58	3545.91
426.77	3527.19
426.96	3597.40
427.15	3506.12
427.33	3468.67
427.52	3503.78
427.71	3592.72
427.90	3662.94
428.09	3702.73
428.28	3789.33
428.46	3733.15
428.65	3655.92
428.84	3812.73
429.03	3719.11
429.22	3686.34
429.40	3791.67
429.59	3801.03
429.78	3852.52
429.97	3632.51
430.16	3639.53
430.34	3875.93
430.53	3976.57
430.72	3920.40
430.91	3836.14
431.10	3955.51
431.28	3920.40
431.47	4044.45
431.66	4039.76
431.85	3920.40
432.03	4044.45
432.22	4243.39
432.41	4039.76
432.60	4112.32
432.79	4004.66
432.97	4039.76
433.16	4081.89
433.35	4262.12
433.54	4023.38
433.72	4259.78
433.91	4189.56
434.10	4238.71
434.28	4255.09
434.47	4194.24
434.66	4180.20
434.85	4283.18
435.03	4252.75
435.22	4365.10
435.41	4348.72
435.59	4404.89
435.78	4451.70
435.97	4376.80
436.16	4491.49
436.34	4414.25
436.53	4463.40
436.72	4552.34
436.90	4416.59
437.09	4578.09
437.28	4475.10
437.46	4512.55
437.65	4578.09
437.84	4652.98
438.02	4615.54
438.21	4575.75
438.40	4528.94
438.58	4636.60
438.77	4830.87
438.96	4875.34
439.14	4793.42
439.33	4762.99
439.52	4873.00
439.70	4905.76
439.89	5067.26
440.08	5064.92
440.26	4968.96
440.45	4905.76
440.63	4983.00
440.82	5238.12
441.01	5139.82
441.19	5247.48
441.38	5270.89
441.57	5100.03
441.75	5390.25
441.94	5259.18
442.12	5296.63
442.31	5509.62
442.50	5500.26
442.68	5401.96
442.87	5493.24
443.05	5451.11
443.24	5647.71
443.43	5282.59
443.61	5694.52
443.80	5926.24
443.98	5542.39
444.17	5275.57
444.35	5577.50
444.54	5790.49
444.73	5767.08
444.91	5664.10
445.10	5731.97
445.28	5638.35
445.47	5731.97
445.65	5881.77
445.84	5776.44
446.02	5708.57
446.21	5701.54
446.39	5696.86
446.58	5769.42
446.77	5743.67
446.95	5717.93
447.14	5708.57
447.32	5804.53
447.51	5673.46
447.69	5762.40
447.88	5881.77
448.06	5914.53
448.25	5666.44
448.43	5694.52
448.62	5832.62
448.80	5792.83
448.99	5961.34
449.17	5984.75
449.36	5785.80
449.54	5970.71
449.73	6101.78
449.91	5980.07
450.10	6090.07
450.28	6195.40
450.46	6139.23
450.65	6029.22
450.83	6139.23
451.02	6097.10
451.20	6270.30
451.39	6176.67
451.57	6153.27
451.76	6207.10
451.94	6312.42
452.13	6274.98
452.31	6232.85
452.49	6230.51
452.68	6452.86
452.86	6300.72
453.05	6340.51
453.23	6436.47
453.42	6429.45
453.60	6502.01
453.78	6441.15
453.97	6448.18
454.15	6455.20
454.34	6370.94
454.52	6513.71
454.70	6668.19
454.89	6567.54
455.07	6649.46
455.26	6633.08
455.44	6768.83
455.62	6726.70
455.81	6705.63
455.99	6686.91
456.17	6857.77
456.36	6719.68
456.54	6815.64
456.73	6913.94
456.91	7068.42
457.09	6902.24
457.28	7091.82
457.46	6942.03
457.64	7002.88
457.83	7084.80
458.01	6979.48
458.19	7250.98
458.38	7211.19
458.56	7211.19
458.74	7190.13
458.93	7396.09
459.11	7262.68
459.29	7318.86
459.48	7314.17
459.66	7288.43
459.84	7456.95
460.03	7274.38
460.21	7337.58
460.39	7506.10
460.57	7492.05
460.76	7534.18
460.94	7536.52
461.12	7489.71
461.31	7693.34
461.49	7573.97
461.67	7456.95
461.85	7667.60
462.04	7487.37
462.22	8011.65
462.40	7819.73
462.59	7838.45
462.77	7695.68
462.95	7889.95
463.13	7854.84
463.32	7815.05
463.50	7985.91
463.68	7838.45
463.86	7920.37
464.05	7843.14
464.23	7889.95
464.41	8205.92
464.59	7911.01
464.78	8060.80
464.96	7939.10
465.14	8093.57
465.32	8032.72
465.50	8194.22
465.69	8210.60
465.87	8102.93
466.05	8234.00
466.23	8245.71
466.41	8053.78
466.60	8294.86
466.78	8234.00
466.96	8065.49
467.14	8276.13
467.32	8346.35
467.51	8386.14
467.69	8266.77
467.87	8414.23
468.05	8461.04
468.23	8365.07
468.41	8451.67
468.60	8517.21
468.78	8636.58
468.96	8344.01
469.14	8739.56
469.32	8655.30
469.50	8451.67
469.69	8718.50
469.87	8662.32
470.05	8613.17
470.23	8690.41
470.41	8706.79
470.59	8896.38
470.77	8887.01
470.95	8910.42
471.14	9055.53
471.32	8952.55
471.50	8959.57
471.68	9128.09
471.86	9104.68
472.04	9252.14
472.22	9280.22
472.40	9064.89
472.58	9151.49
472.77	9366.82
472.95	9315.33
473.13	9666.41
473.31	9327.03
473.49	9612.58
473.67	9643.01
473.85	9652.37
474.03	9930.89
474.21	9757.69
474.39	9776.42
474.57	9813.87
474.75	9886.42
474.93	9891.10
475.12	9951.96
475.30	10097.07
475.48	10076.01
475.66	10256.23
475.84	10036.22
476.02	10171.97
476.20	10157.92
476.38	10424.75
476.56	10569.86
476.74	10675.18
476.92	10581.56
477.10	10499.64
477.28	10752.42
477.46	10775.83
477.64	10867.11
477.82	10946.69
478.00	11344.58
478.18	11185.42
478.36	11309.47
478.54	11454.58
478.72	11300.11
478.90	11587.99
479.08	11667.57
479.26	11676.93
479.44	11672.25
479.62	11920.35
479.80	11726.08
479.98	11932.05
480.16	12294.83
480.34	12292.49
480.52	12269.09
480.70	12248.02
480.88	12018.65
481.06	12280.79
481.24	12573.36
481.41	12805.07
481.59	12879.97
481.77	12779.32
481.95	12798.05
482.13	12992.31
482.31	12968.91
482.49	13376.16
482.67	13399.57
482.85	13294.24
483.03	13673.41
483.21	13556.38
483.39	13685.11
483.57	13884.06
483.74	13989.38
483.92	13937.89
484.10	14024.49
484.28	14752.40
484.46	14560.47
484.64	14909.21
484.82	14583.88
485.00	14750.06
485.18	14984.11
485.35	14979.43
485.53	14932.62
485.71	15426.47
485.89	15721.38
486.07	15520.09
486.25	15475.62
486.43	15779.89
486.61	15667.55
486.78	16025.65
486.96	16170.76
487.14	16379.07
487.32	16219.91
487.50	16276.09
487.68	16540.57
487.85	16786.32
488.03	16767.60
488.21	17231.02
488.39	17043.78
488.57	17451.03
488.75	17111.66
488.92	17294.22
489.10	17579.76
489.28	17586.79
489.46	17706.15
489.64	17881.69
489.81	18246.82
489.99	18122.77
490.17	18225.75
490.35	18487.89
490.53	18434.06
490.70	18544.06
490.88	18403.63
491.06	18967.70
491.24	18806.20
491.41	19075.37
491.59	19173.67
491.77	19173.67
491.95	19384.32
492.13	19634.75
492.30	19852.42
492.48	19852.42
492.66	19770.51
492.84	19997.54
493.01	20140.31
493.19	20182.44
493.37	20531.18
493.54	20233.93
493.72	20856.51
493.90	20671.61
494.08	21195.89
494.25	20807.36
494.43	21146.74
494.61	21153.76
494.79	21425.26
494.96	21333.98
495.14	21305.90
495.32	21724.85
495.49	21998.70
495.67	22104.02
495.85	21982.31
496.02	22260.84
496.20	22464.46
496.38	22618.94
496.55	22324.03
496.73	22738.30
496.91	22822.56
497.09	22984.06
497.26	22796.82
497.44	23098.75
497.62	23206.41
497.79	23281.31
497.97	23351.52
498.14	23342.16
498.32	23779.84
498.50	23824.31
498.67	24245.61
498.85	23697.92
499.03	23978.79
499.20	24102.84
499.38	24343.91
499.56	24376.68
499.73	24451.58
499.91	24599.03
500.08	25111.61
500.26	24482.00
500.44	24952.45
500.61	24678.61
500.79	24994.58
500.97	25357.36
501.14	25259.06
501.32	25273.10
501.49	25661.63
501.67	25195.87
501.84	25909.73
502.02	25542.27
502.20	25584.40
502.37	26120.38
502.55	25577.37
502.72	25984.63
502.90	26068.89
503.07	26195.28
503.25	26228.04
503.43	26155.49
503.60	26593.17
503.78	26885.73
503.95	26408.26
504.13	26665.72
504.30	26473.80
504.48	27215.75
504.65	27187.66
504.83	26934.88
505.01	27101.06
505.18	27131.49
505.36	27597.26
505.53	27564.49
505.71	27459.16
505.88	27529.38
506.06	27658.11
506.23	27828.97
506.41	27302.35
506.58	27768.12
506.76	27646.41
506.93	28500.70
507.11	27742.37
507.28	28519.43
507.46	28254.95
507.63	28030.26
507.81	28861.15
507.98	28119.20
508.16	28830.72
508.33	28896.25
508.50	28608.37
508.68	29015.62
508.85	29097.54
509.03	28835.40
509.20	29298.83
509.38	29312.87
509.55	29708.42
509.73	29518.84
509.90	29596.07
510.08	29359.68
510.25	30024.39
510.42	29757.57
510.60	29872.26
510.77	30047.80
510.95	30270.15
511.12	30012.69
511.30	30148.44
511.47	29998.65
511.64	30008.01
511.82	30412.92
511.99	30621.23
512.17	30323.98
512.34	30485.48
512.51	30859.96
512.69	30979.33
512.86	30960.61
513.04	31007.42
513.21	31316.37
513.38	31304.67
513.56	31477.86
513.73	31353.82
513.90	31538.72
514.08	31187.64
514.25	32055.98
514.43	31798.52
514.60	32032.57
514.77	31576.17
514.95	31859.37
515.12	31714.26
515.29	31967.04
515.47	32142.58
515.64	32353.23
515.81	31974.06
515.99	32362.59
516.16	32217.47
516.33	32163.64
516.51	32521.74
516.68	32879.85
516.85	32627.07
517.03	33024.96
517.20	33041.34
517.37	32856.44
517.54	32655.15
517.72	33172.41
517.89	33041.34
518.06	33233.27
518.24	33001.55
518.41	33137.30
518.58	33537.54
518.75	33336.25
518.93	33577.33
519.10	33296.46
519.27	33834.78
519.45	33743.50
519.62	34426.94
519.79	33947.13
519.96	34153.10
520.14	34052.45
520.31	33656.90
520.48	34340.34
520.65	34401.19
520.83	34433.96
521.00	34422.26
521.17	34202.25
521.34	34384.81
521.52	34717.17
521.69	34639.93
521.86	34508.86
522.03	34794.40
522.20	35309.32
522.38	35047.18
522.55	35283.58
522.72	35400.60
522.89	35248.47
523.07	35454.44
523.24	35489.54
523.41	35683.81
523.58	35234.42
523.75	36093.40
523.92	35587.85
524.10	35519.97
524.27	35728.28
524.44	36095.74
524.61	36233.83
524.78	35747.00
524.96	36297.03
525.13	36282.98
525.30	36402.35
525.47	36355.54
525.64	36318.09
525.81	36591.94
525.98	36751.09
526.16	36493.63
526.33	36669.17
526.50	36713.64
526.67	36280.64
526.84	36760.45
527.01	36847.05
527.18	36943.02
527.36	36797.90
527.53	36954.72
527.70	37387.72
527.87	37741.14
528.04	37202.82
528.21	37184.09
528.38	37282.39
528.55	37294.10
528.72	37427.51
528.89	37455.59
529.07	37450.91
529.24	37125.58
529.41	37633.47
529.58	37481.34
529.75	37511.77
529.92	37968.17
530.09	37771.57
530.26	37715.39
530.43	37677.94
530.60	37731.78
530.77	37977.53
530.94	38085.20
531.11	38284.14
531.28	38153.07
531.46	37904.98
531.63	38359.04
531.80	38347.34
531.97	38349.68
532.14	38576.71
532.31	38373.08
532.48	38504.15
532.65	38979.28
532.82	38548.62
532.99	38635.22
533.16	38536.92
533.33	39316.32
533.50	39115.03
533.67	39054.18
533.84	38813.10
534.01	39030.77
534.18	39194.61
534.35	39557.39
534.52	39487.18
534.69	39363.13
534.86	40076.99
535.03	39304.62
535.20	39686.12
535.37	39512.92
535.54	39861.66
535.71	39321.00
535.88	40322.75
536.05	39990.39
536.22	39768.04
536.38	39929.54
536.55	39756.34
536.72	39868.69
536.89	39817.19
537.06	39983.37
537.23	40294.66
537.40	40179.98
537.57	40086.36
537.74	40158.91
537.91	40102.74
538.08	40467.86
538.25	40257.21
538.42	40517.01
538.59	40439.78
538.75	40165.93
538.92	40781.49
539.09	40608.29
539.26	40275.94
539.43	40624.68
539.60	40889.16
539.77	40580.21
539.94	41177.04
540.11	40385.94
540.28	41090.44
540.44	41041.29
540.61	40907.88
540.78	40793.20
540.95	41151.30
541.12	40919.59
541.29	40840.01
541.46	41074.06
541.62	40821.28
541.79	41205.13
541.96	41017.89
542.13	41071.72
542.30	40849.37
542.47	41158.32
542.63	41574.94
542.80	41804.31
542.97	42281.78
543.14	41876.86
543.31	41834.74
543.48	41947.08
543.64	41897.93
543.81	42232.63
543.98	41858.14
544.15	42064.11
544.32	42253.69
544.48	42394.12
544.65	42223.26
544.82	42321.57
544.99	41923.68
545.16	42714.78
545.32	42520.51
545.49	43070.54
545.66	42937.13
545.83	42368.38
546.00	42721.80
546.16	42642.22
546.33	43086.92
546.50	42609.45
546.67	43203.95
546.83	42794.36
547.00	42635.20
547.17	42988.62
547.34	42808.40
547.50	43143.09
547.67	43229.69
547.84	43335.02
548.00	43295.23
548.17	43875.68
548.34	43328.00
548.51	43723.55
548.67	43370.13
548.84	43412.26
549.01	43555.03
549.18	43222.67
549.34	43470.77
549.51	43988.03
549.68	44006.75
549.84	43658.01
550.01	43632.27
550.18	43157.14
550.34	43845.26
550.51	43723.55
550.68	43856.96
550.84	43756.32
551.01	43924.83
551.18	43662.69
551.34	43814.83
551.51	44250.17
551.68	44165.91
551.84	44191.65
552.01	44018.46
552.18	44268.89
552.34	43370.13
552.51	44086.33
552.68	43819.51
552.84	44411.67
553.01	44477.20
553.18	44194.00
553.34	44739.34
553.51	44589.55
553.67	44362.51
553.84	44659.76
554.01	44568.48
554.17	44547.42
554.34	44666.78
554.51	44701.89
554.67	45329.16
554.84	44795.51
555.00	44701.89
555.17	44470.18
555.33	44875.09
555.50	44758.06
555.67	45074.04
555.83	44491.24
556.00	45167.66
556.16	45137.23
556.33	45038.93
556.50	44781.47
556.66	45010.84
556.83	45095.10
556.99	45167.66
557.16	45705.98
557.32	45111.49
557.49	45193.40
557.65	44999.14
557.82	45216.81
557.98	45104.46
558.15	45139.57
558.32	45277.66
558.48	45287.03
558.65	45146.59
558.81	45544.48
558.98	45495.33
559.14	45476.61
559.31	45347.88
559.47	45174.68
559.64	45504.70
559.80	45390.01
559.97	45471.93
560.13	45481.29
560.30	45722.37
560.46	45654.49
560.63	45797.26
560.79	45647.47
560.96	45750.45
561.12	45397.03
561.29	45663.85
561.45	46197.49
561.61	46064.08
561.78	45722.37
561.94	45275.32
562.11	46146.00
562.27	45860.46
562.44	45713.00
562.60	45516.40
562.77	45865.14
562.93	45743.43
563.10	46417.50
563.26	45759.81
563.42	46525.17
563.59	45902.59
563.75	46157.70
563.92	46438.57
564.08	46136.64
564.24	46171.75
564.41	46340.27
564.57	46492.40
564.74	46068.76
564.90	45991.53
565.07	45846.41
565.23	46651.56
565.39	46316.86
565.56	46630.49
565.72	46087.49
565.88	46515.81
566.05	46124.94
566.21	46377.72
566.38	46239.62
566.54	46204.52
566.70	46096.85
566.87	46291.12
567.03	46483.04
567.19	46337.93
567.36	46316.86
567.52	46749.86
567.68	46621.13
567.85	46791.99
568.01	46850.50
568.17	46330.90
568.34	46719.43
568.50	46920.72
568.66	46124.94
568.83	46358.99
568.99	46326.22
569.15	46651.56
569.32	46452.61
569.48	46459.63
569.64	47147.75
569.81	46911.36
569.97	46742.84
570.13	47351.38
570.30	46405.80
570.46	46939.44
570.62	47007.32
570.78	46742.84
570.95	46614.11
571.11	46941.78
571.27	46911.36
571.43	46490.06
571.60	46499.42
571.76	46691.35
571.92	46595.38
572.09	46705.39
572.25	46698.37
572.41	46623.47
572.57	46967.53
572.74	47122.01
572.90	46705.39
573.06	46719.43
573.22	47154.77
573.38	46689.01
573.55	47136.05
573.71	47325.63
573.87	47175.84
574.03	47311.59
574.20	47178.18
574.36	46916.04
574.52	47007.32
574.68	47232.01
574.84	47442.66
575.01	47187.54
575.17	47538.62
575.33	47082.22
575.49	46883.27
575.65	47147.75
575.82	47330.31
575.98	46703.05
576.14	47358.40
576.30	47107.96
576.46	47175.84
576.62	47016.68
576.79	47452.02
576.95	46735.82
577.11	46831.78
577.27	47512.88
577.43	46869.23
577.59	46969.87
577.75	47147.75
577.92	47152.43
578.08	47107.96
578.24	47012.00
578.40	47276.48
578.56	47681.39
578.72	47232.01
578.88	47606.50
579.04	47311.59
579.21	46630.49
579.37	47306.91
579.53	47150.09
579.69	46981.57
579.85	47150.09
580.01	47739.91
580.17	47468.40
580.33	47236.69
580.49	47545.64
580.65	47337.33
580.82	47356.06
580.98	47040.09
581.14	46887.95
581.30	47503.51
581.46	46997.96
581.62	47166.48
581.78	47281.16
581.94	47470.75
582.10	47344.36
582.26	47327.97
582.42	47580.75
582.58	47480.11
582.74	47217.97
582.90	47330.31
583.06	48090.99
583.22	47496.49
583.38	47810.12
583.54	47498.83
583.70	47615.86
583.86	47662.67
584.02	47398.19
584.18	47941.19
584.34	47648.63
584.50	47363.08
584.66	47896.72
584.82	47665.01
584.98	47533.94
585.14	47742.25
585.30	47393.51
585.46	47543.30
585.62	47440.32
585.78	47618.20
585.94	47325.63
586.10	47356.06
586.26	47384.15
586.42	47323.29
586.58	47573.73
586.74	47442.66
586.90	47337.33
587.06	47758.63
587.22	47714.16
587.38	47140.73
587.54	47812.46
587.70	48158.86
587.86	47751.61
588.02	47632.24
588.18	47660.33
588.34	47695.44
588.49	47606.50
588.65	47594.79
588.81	47552.66
588.97	47920.13
589.13	47157.11
589.29	47358.40
589.45	47908.43
589.61	48011.41
589.77	48119.07
589.93	47796.08
