SpectraSuite Data File
++++++++++++++++++++++++++++++++++++
Date: Fri Oct 25 11:23:19 EDT 2013
User: price-jones
Dark Spectrum Present: No
Reference Spectrum Present: No
Number of Sampled Component Spectra: 1
Spectrometers: USB2+H05261
Integration Time (usec): 100000 (USB2+H05261)
Spectra Averaged: 1 (USB2+H05261)
Boxcar Smoothing: 0 (USB2+H05261)
Correct for Electrical Dark: No (USB2+H05261)
Strobe/Lamp Enabled: No (USB2+H05261)
Correct for Detector Non-linearity: No (USB2+H05261)
Correct for Stray Light: No (USB2+H05261)
Number of Pixels in Processed Spectrum: 2048
>>>>>Begin Processed Spectral Data<<<<<
365.73	257.46
365.92	257.46
366.12	257.46
366.32	133.41
366.52	170.86
366.72	177.88
366.91	142.77
367.11	133.41
367.31	121.71
367.51	112.35
367.70	147.45
367.90	91.28
368.10	159.16
368.30	138.09
368.49	107.66
368.69	133.41
368.89	191.92
369.09	107.66
369.28	163.84
369.48	173.20
369.68	198.95
369.87	77.24
370.07	227.03
370.27	245.76
370.47	308.95
370.66	524.28
370.86	622.58
371.06	681.10
371.25	704.50
371.45	720.88
371.65	688.12
371.84	732.59
372.04	681.10
372.24	709.18
372.44	725.57
372.63	711.52
372.83	678.76
373.03	739.61
373.22	777.06
373.42	767.70
373.62	812.17
373.81	760.67
374.01	828.55
374.21	840.25
374.40	800.46
374.60	816.85
374.79	814.51
374.99	809.83
375.19	926.85
375.38	781.74
375.58	847.27
375.78	844.93
375.97	856.64
376.17	922.17
376.37	915.15
376.56	847.27
376.76	880.04
376.95	830.89
377.15	994.73
377.35	873.02
377.54	919.83
377.74	910.47
377.93	957.28
378.13	954.94
378.33	968.98
378.52	880.04
378.72	929.19
378.91	908.13
379.11	961.96
379.31	861.32
379.50	992.39
379.70	961.96
379.89	1011.11
380.09	933.87
380.28	1067.28
380.48	966.64
380.68	973.66
380.87	973.66
381.07	1041.54
381.26	1090.69
381.46	1050.90
381.65	1095.37
381.85	1067.28
382.04	1081.33
382.24	1118.78
382.43	1039.20
382.63	985.37
382.83	1109.41
383.02	1067.28
383.22	1149.20
383.41	1046.22
383.61	1046.22
383.80	1060.26
384.00	1132.82
384.19	1116.44
384.39	1149.20
384.58	1116.44
384.78	1130.48
384.97	1053.24
385.17	1104.73
385.36	1170.27
385.56	1146.86
385.75	1167.93
385.95	1200.69
386.14	1160.91
386.34	1142.18
386.53	1252.19
386.72	1188.99
386.92	1214.74
387.11	1256.87
387.31	1263.89
387.50	1238.14
387.70	1247.51
387.89	1245.16
388.09	1235.80
388.28	1310.70
388.48	1364.53
388.67	1359.85
388.86	1320.06
389.06	1308.36
389.25	1357.51
389.45	1366.87
389.64	1196.01
389.84	1315.38
390.03	1376.24
390.22	1397.30
390.42	1409.00
390.61	1418.36
390.81	1334.11
391.00	1423.05
391.19	1469.86
391.39	1523.69
391.58	1535.39
391.78	1549.43
391.97	1542.41
392.16	1453.47
392.36	1547.09
392.55	1507.30
392.75	1558.80
392.94	1535.39
393.13	1540.07
393.33	1432.41
393.52	1584.54
393.71	1657.10
393.91	1542.41
394.10	1549.43
394.29	1619.65
394.49	1621.99
394.68	1561.14
394.88	1661.78
395.07	1671.14
395.26	1638.38
395.46	1757.74
395.65	1624.33
395.84	1713.27
396.04	1746.04
396.23	1685.19
396.42	1823.28
396.62	1837.32
396.81	1837.32
397.00	1696.89
397.19	1748.38
397.39	1865.41
397.58	1832.64
397.77	1846.68
397.97	1867.75
398.16	1736.68
398.35	1874.77
398.55	1849.02
398.74	1722.63
398.93	1996.48
399.12	1933.28
399.32	1930.94
399.51	1942.64
399.70	1940.30
399.90	1968.39
400.09	2026.90
400.28	2174.36
400.47	1987.11
400.67	2148.61
400.86	2146.27
401.05	2139.25
401.24	2036.27
401.44	2101.80
401.63	2146.27
401.82	2139.25
402.01	2099.46
402.21	2143.93
402.40	2197.76
402.59	2321.81
402.78	2246.91
402.97	2275.00
403.17	2284.36
403.36	2293.72
403.55	2263.30
403.74	2324.15
403.93	2319.47
404.13	2331.17
404.32	2317.13
404.51	2401.39
404.70	2466.92
404.89	2410.75
405.09	2359.26
405.28	2427.14
405.47	2476.29
405.66	2410.75
405.85	2541.82
406.05	2544.16
406.24	2553.52
406.43	2633.10
406.62	2700.98
406.81	2630.76
407.00	2534.80
407.20	2518.42
407.39	2576.93
407.58	2743.11
407.77	2778.22
407.96	2719.70
408.15	2747.79
408.34	2668.21
408.54	2881.20
408.73	2916.31
408.92	2888.22
409.11	2928.01
409.30	2836.73
409.49	2890.56
409.68	3047.38
409.87	2878.86
410.07	3030.99
410.26	2995.89
410.45	2916.31
410.64	3204.19
410.83	3145.68
411.02	3150.36
411.21	3117.59
411.40	3143.34
411.59	3155.04
411.78	3318.88
411.98	3265.05
412.17	3260.37
412.36	3379.73
412.55	3400.80
412.74	3513.14
412.93	3506.12
413.12	3314.20
413.31	3758.90
413.50	3485.06
413.69	3529.53
413.88	3576.34
414.07	3676.98
414.26	3595.06
414.45	3655.92
414.64	3651.24
414.83	3859.54
415.02	3850.18
415.22	3779.97
415.41	3882.95
415.60	3934.44
415.79	3911.04
415.98	3943.80
416.17	4072.53
416.36	4053.81
416.55	3913.38
416.74	4095.94
416.93	4112.32
417.12	4166.15
417.31	4219.99
417.50	4044.45
417.69	4358.08
417.88	4322.97
418.07	4196.58
418.26	4365.10
418.45	4255.09
418.64	4538.30
418.83	4400.21
419.02	4390.84
419.21	4575.75
419.39	4753.63
419.58	4461.06
419.77	4498.51
419.96	4620.22
420.15	4486.81
420.34	4571.07
420.53	4746.61
420.72	4830.87
420.91	4748.95
421.10	4807.46
421.29	4926.83
421.48	4732.56
421.67	5001.72
421.86	4816.82
422.05	4788.74
422.24	4812.14
422.43	4795.76
422.61	4901.08
422.80	4903.42
422.99	4854.27
423.18	4929.17
423.37	5085.98
423.56	5006.41
423.75	4964.28
423.94	4854.27
424.13	4599.15
424.32	4933.85
424.50	5057.90
424.69	5034.49
424.88	5107.05
425.07	5172.58
425.26	4957.25
425.45	5186.63
425.64	4964.28
425.83	5116.41
426.01	4992.36
426.20	5095.35
426.39	5041.51
426.58	5020.45
426.77	5048.54
426.96	5212.37
427.15	5217.05
427.33	5242.80
427.52	5214.71
427.71	5348.12
427.90	5214.71
428.09	5387.91
428.28	5416.00
428.46	5526.00
428.65	5301.31
428.84	5554.09
429.03	5530.69
429.22	5425.36
429.40	5607.92
429.59	5624.31
429.78	5364.51
429.97	5118.75
430.16	5600.90
430.34	5598.56
430.53	5652.39
430.72	5724.95
430.91	5668.78
431.10	5708.57
431.28	5870.06
431.47	5834.96
431.66	5816.23
431.85	5806.87
432.03	6099.44
432.22	5935.60
432.41	6001.13
432.60	6001.13
432.79	5954.32
432.97	5987.09
433.16	6052.63
433.35	6148.59
433.54	6328.81
433.72	6230.51
433.91	6015.18
434.10	6251.57
434.28	6073.69
434.47	6408.39
434.66	6333.49
434.85	6420.09
435.03	6473.92
435.22	6352.21
435.41	6504.35
435.59	6539.46
435.78	6548.82
435.97	6553.50
436.16	6471.58
436.34	6314.77
436.53	6509.03
436.72	6574.56
436.90	6389.66
437.09	6738.40
437.28	6314.77
437.46	6399.02
437.65	6637.76
437.84	6965.43
438.02	6806.28
438.21	6876.49
438.40	6848.41
438.58	6986.50
438.77	7159.70
438.96	6995.86
439.14	7157.36
439.33	7169.06
439.52	7136.29
439.70	7262.68
439.89	7403.11
440.08	7407.80
440.26	7501.42
440.45	7492.05
440.63	7552.91
440.82	7447.58
441.01	7494.40
441.19	7829.09
441.38	7583.34
441.57	7672.28
441.75	7808.03
441.94	7861.86
442.12	7922.71
442.31	7955.48
442.50	8269.11
442.68	8142.72
442.87	8051.44
443.05	8095.91
443.24	8304.22
443.43	8135.70
443.61	8301.88
443.80	8348.69
443.98	8079.53
444.17	8021.02
444.35	8194.22
444.54	8348.69
444.73	8425.93
444.91	8425.93
445.10	8318.26
445.28	8402.52
445.47	8264.43
445.65	8493.80
445.84	8582.74
446.02	8500.83
446.21	8652.96
446.39	8437.63
446.58	8472.74
446.77	8444.65
446.95	8381.46
447.14	8674.03
447.32	8524.23
447.51	8734.88
447.69	8636.58
447.88	8643.60
448.06	8594.45
448.25	8496.14
448.43	8659.98
448.62	8697.43
448.80	8676.37
448.99	8727.86
449.17	9006.38
449.36	8713.81
449.54	8781.69
449.73	9050.85
449.91	9074.26
450.10	9034.47
450.28	9217.03
450.46	8929.14
450.65	9104.68
450.83	9174.90
451.02	9210.01
451.20	9273.20
451.39	9071.92
451.57	9383.21
451.76	9149.15
451.94	9376.19
452.13	9460.45
452.31	9305.97
452.49	9167.88
452.68	9666.41
452.86	9547.05
453.05	9474.49
453.23	9495.55
453.42	9453.42
453.60	9467.47
453.78	9392.57
453.97	9423.00
454.15	9521.30
454.34	9654.71
454.52	9708.54
454.70	9806.84
454.89	9863.02
455.07	9785.78
455.26	10038.56
455.44	10157.92
455.62	9921.53
455.81	9916.85
455.99	9832.59
456.17	10071.33
456.36	9980.04
456.54	10265.59
456.73	10223.46
456.91	10490.28
457.09	10401.34
457.28	10647.10
457.46	10289.00
457.64	10619.01
457.83	10593.26
458.01	10459.85
458.19	10738.38
458.38	10541.77
458.56	10860.09
458.74	10726.68
458.93	10967.75
459.11	10911.58
459.29	10874.13
459.48	10916.26
459.66	10986.47
459.84	10832.00
460.03	11358.62
460.21	11150.31
460.39	10981.79
460.57	11049.67
460.76	11044.99
460.94	11283.72
461.12	11494.37
461.31	11211.17
461.49	11077.76
461.67	11183.08
461.85	11564.59
462.04	11506.07
462.22	11363.30
462.40	11585.65
462.59	11508.41
462.77	11585.65
462.95	11749.49
463.13	11573.95
463.32	11676.93
463.50	11716.72
463.68	11756.51
463.86	11962.48
464.05	11637.14
464.23	11747.15
464.41	12023.33
464.59	11698.00
464.78	12173.13
464.96	12145.04
465.14	12011.63
465.32	12084.19
465.50	12166.10
465.69	12283.13
465.87	12362.71
466.05	12367.39
466.23	12168.45
466.41	12067.80
466.60	12446.97
466.78	12259.73
466.96	12430.59
467.14	12439.95
467.32	12437.61
467.51	12709.11
467.69	12276.11
467.87	12585.06
468.05	13095.30
468.23	12491.44
468.41	12421.22
468.60	12709.11
468.78	13048.49
468.96	12833.16
469.14	12830.82
469.32	13209.98
469.50	12706.77
469.69	13090.62
469.87	13371.48
470.05	13184.24
470.23	13139.77
470.41	13256.79
470.59	13371.48
470.77	13338.71
470.95	13415.95
471.14	13422.97
471.32	13296.58
471.50	13736.60
471.68	13830.23
471.86	13914.48
472.04	13987.04
472.22	14244.50
472.40	13760.01
472.58	13994.06
472.77	13970.66
472.95	14288.97
473.13	14555.79
473.31	14162.58
473.49	14244.50
473.67	14574.52
473.85	14663.46
474.03	14717.29
474.21	14707.93
474.39	14745.38
474.57	14682.18
474.75	15082.41
474.93	15061.35
475.12	15145.61
475.30	15272.00
475.48	15016.88
475.66	15403.07
475.84	15379.66
476.02	15559.88
476.20	15482.64
476.38	15901.60
476.56	16177.78
476.74	15985.86
476.92	16032.67
477.10	15845.43
477.28	16353.32
477.46	16414.18
477.64	16486.73
477.82	16718.45
478.00	17149.11
478.18	17043.78
478.36	16809.73
478.54	17165.49
478.72	17362.09
478.90	17631.26
479.08	17869.99
479.26	18153.20
479.44	17893.40
479.62	17837.22
479.80	18106.38
479.98	18223.41
480.16	18871.74
480.34	18370.86
480.52	18937.27
480.70	18728.97
480.88	18558.11
481.06	18792.16
481.24	18988.77
481.41	19262.61
481.59	19384.32
481.77	19871.15
481.95	19995.20
482.13	20006.90
482.31	19812.63
482.49	20559.27
482.67	20383.73
482.85	20699.70
483.03	20826.09
483.21	20734.81
483.39	21008.65
483.57	20957.16
483.74	21511.86
483.92	21441.65
484.10	21247.38
484.28	22024.44
484.46	22043.17
484.64	22555.74
484.82	22448.08
485.00	22377.86
485.18	22955.97
485.35	23309.40
485.53	23056.62
485.71	23349.18
485.89	23700.26
486.07	23583.24
486.25	23784.52
486.43	23962.40
486.61	23974.11
486.78	23906.23
486.96	24606.05
487.14	24863.51
487.32	24985.22
487.50	24943.09
487.68	25027.35
487.85	25465.03
488.03	25626.53
488.21	26113.36
488.39	26029.10
488.57	26188.25
488.75	26726.58
488.92	26843.60
489.10	26712.53
489.28	27014.46
489.46	27342.14
489.64	27117.45
489.81	28205.80
489.99	28016.21
490.17	27845.35
490.35	28629.43
490.53	28804.97
490.70	28856.46
490.88	28212.82
491.06	29132.65
491.24	29104.56
491.41	29315.21
491.59	29415.85
491.77	29663.95
491.95	30281.85
492.13	30057.16
492.30	30195.25
492.48	30700.81
492.66	30639.95
492.84	30766.34
493.01	31040.18
493.19	30972.31
493.37	31433.39
493.54	31175.94
493.72	31775.11
493.90	31625.32
494.08	32196.41
494.25	32144.92
494.43	32322.80
494.61	32704.31
494.79	32727.71
494.96	32875.16
495.14	33158.37
495.32	33399.44
495.49	33352.63
495.67	33556.26
495.85	33874.57
496.02	34024.37
496.20	34471.41
496.38	34281.83
496.55	34309.91
496.73	35150.17
496.91	34677.38
497.09	35084.63
497.26	35428.69
497.44	35187.61
497.62	35384.22
497.79	36320.43
497.97	35957.65
498.14	36554.49
498.32	36409.37
498.50	36739.39
498.67	36650.45
498.85	36676.19
499.03	36858.76
499.20	37216.86
499.38	37221.54
499.56	37020.25
499.73	37820.72
499.91	37907.32
500.08	37783.27
500.26	37846.46
500.44	37942.42
500.61	38059.45
500.79	38017.32
500.97	38370.74
501.14	39077.58
501.32	39185.25
501.49	39192.27
501.67	38724.16
501.84	38998.01
502.02	39196.95
502.20	39709.53
502.37	39681.44
502.55	39414.62
502.72	40074.65
502.90	39901.45
503.07	39920.18
503.25	40105.08
503.43	40435.10
503.60	40364.88
503.78	40512.33
503.95	40701.92
504.13	40521.69
504.30	41071.72
504.48	40748.73
504.65	41067.04
504.83	41294.07
505.01	41628.77
505.18	41715.37
505.36	42227.95
505.53	41392.37
505.71	42342.63
505.88	42153.05
506.06	41624.09
506.23	42389.44
506.41	42143.69
506.58	42218.58
506.76	42476.04
506.93	42579.03
507.11	42759.25
507.28	42855.21
507.46	42899.68
507.63	43288.21
507.81	44105.06
507.98	43622.90
508.16	43597.16
508.33	44137.82
508.50	43695.46
508.68	44348.47
508.85	44261.87
509.03	44006.75
509.20	44053.56
509.38	44308.68
509.55	44666.78
509.73	44748.70
509.90	45165.32
510.08	44332.09
510.25	44779.13
510.42	45270.64
510.60	45106.80
510.77	45918.97
510.95	45514.06
511.12	45598.32
511.30	45635.77
511.47	45647.47
511.64	46003.23
511.82	46124.94
511.99	46160.05
512.17	46581.34
512.34	46026.63
512.51	46621.13
512.69	46703.05
512.86	46738.16
513.04	47180.52
513.21	46955.83
513.38	47182.86
513.56	47398.19
513.73	46990.94
513.90	47309.25
514.08	47562.03
514.25	47299.89
514.43	47515.22
514.60	47730.54
514.77	47550.32
514.95	47847.57
515.12	48076.94
515.29	47838.21
515.47	48474.84
515.64	48591.86
515.81	48060.56
515.99	48559.09
516.16	48734.63
516.33	48470.15
516.51	48676.12
516.68	48762.72
516.85	49177.00
517.03	49223.81
517.20	49221.47
517.37	49158.27
517.54	49113.80
517.72	49366.58
517.89	49226.15
518.06	49535.10
518.24	49439.14
518.41	49696.59
518.58	49560.84
518.75	50038.31
518.93	49998.52
519.10	49998.52
519.27	50330.88
519.45	50426.84
519.62	50230.24
519.79	50361.31
519.96	50185.77
520.14	50501.74
520.31	50316.84
520.48	50824.73
520.65	50719.41
520.83	50979.21
521.00	50913.67
521.17	50981.55
521.34	50948.78
521.52	50920.70
521.69	51351.35
521.86	51145.39
522.03	51391.14
522.20	51707.12
522.38	51524.55
522.55	51517.53
522.72	51437.95
522.89	51831.16
523.07	52121.39
523.24	51569.02
523.41	52002.02
523.58	51828.82
523.75	52030.11
523.92	52041.81
524.10	51952.87
524.27	52353.10
524.44	52296.93
524.61	52303.95
524.78	52505.24
524.96	52652.69
525.13	52837.59
525.30	52701.84
525.47	52989.73
525.64	52837.59
525.81	53095.05
525.98	52842.27
526.16	52949.94
526.33	52907.81
526.50	53626.35
526.67	53048.24
526.84	53057.60
527.01	53223.78
527.18	53174.63
527.36	53361.87
527.53	53404.00
527.70	53797.21
527.87	53530.39
528.04	53284.64
528.21	53511.67
528.38	53715.29
528.55	53649.76
528.72	53815.94
528.89	53806.58
529.07	53712.95
529.24	53708.27
529.41	54110.85
529.58	54019.56
529.75	53811.26
529.92	54174.04
530.09	54131.91
530.26	54110.85
530.43	54396.39
530.60	54134.25
530.77	54082.76
530.94	54377.67
531.11	54499.37
531.28	54480.65
531.46	54625.76
531.63	54649.17
531.80	54342.56
531.97	54684.28
532.14	54777.90
532.31	54787.26
532.48	55030.68
532.65	54899.61
532.82	54745.13
532.99	55077.49
533.16	54857.48
533.33	55171.11
533.50	55267.07
533.67	55281.11
533.84	54892.58
534.01	55098.55
534.18	55253.03
534.35	55444.95
534.52	55400.48
534.69	55505.80
534.86	55421.55
535.03	55660.28
535.20	55604.11
535.37	55847.52
535.54	55707.09
535.71	55627.51
535.88	55842.84
536.05	55714.11
536.22	55884.97
536.38	55952.85
536.55	55884.97
536.72	55826.46
536.89	55767.94
537.06	55767.94
537.23	56123.71
537.40	55877.95
537.57	55842.84
537.74	56079.24
537.91	56470.11
538.08	56074.55
538.25	55931.78
538.42	56292.22
538.59	56350.74
538.75	56144.77
538.92	56142.43
539.09	56346.06
539.26	56301.59
539.43	56364.78
539.60	56425.64
539.77	56404.57
539.94	56924.17
540.11	56594.15
540.28	56807.14
540.44	56926.51
540.61	56633.94
540.78	56818.84
540.95	56697.14
541.12	56647.99
541.29	56498.19
541.46	57043.54
541.62	56900.76
541.79	56804.80
541.96	56914.81
542.13	56856.29
542.30	56938.21
542.47	57076.30
542.63	57041.20
542.80	57102.05
542.97	57308.02
543.14	57616.97
543.31	57401.64
543.48	57614.63
543.64	57750.38
543.81	57705.91
543.98	57729.31
544.15	57523.35
544.32	57661.44
544.48	57872.09
544.65	57640.37
544.82	57834.64
544.99	57551.43
545.16	57755.06
545.32	57640.37
545.49	57928.26
545.66	57951.66
545.83	58049.97
546.00	58038.26
546.16	57932.94
546.33	57937.62
546.50	57785.49
546.67	57890.81
546.83	57577.18
547.00	58148.27
547.17	57946.98
547.34	57956.35
547.50	58298.06
547.67	58379.98
547.84	58279.34
548.00	58557.86
548.17	58550.84
548.34	58370.62
548.51	58518.07
548.67	58482.97
548.84	58382.32
549.01	58220.83
549.18	58410.41
549.34	58447.86
549.51	58681.91
549.68	58639.78
549.84	58468.92
550.01	58635.10
550.18	58494.67
550.34	58630.42
550.51	58745.11
550.68	58681.91
550.84	58599.99
551.01	58763.83
551.18	58681.91
551.34	58777.87
551.51	58815.32
551.68	58773.19
551.84	58597.65
552.01	58777.87
552.18	59063.42
552.34	58827.02
552.51	59093.85
552.68	58831.71
552.84	58967.46
553.01	59278.75
553.18	58948.73
553.34	59100.87
553.51	58782.55
553.67	59044.69
553.84	59206.19
554.01	59150.02
554.17	59372.37
554.34	59358.33
554.51	59201.51
554.67	59409.82
554.84	59285.77
555.00	59398.12
555.17	59327.90
555.33	59334.92
555.50	59201.51
555.67	59309.18
555.83	59433.22
556.00	59363.01
556.16	59681.32
556.33	59414.50
556.50	59400.46
556.66	59508.12
556.83	59330.24
556.99	59477.69
557.16	59845.16
557.32	59718.77
557.49	59838.14
557.65	59688.34
557.82	59559.61
557.98	59641.53
558.15	59571.32
558.32	59618.13
558.48	59487.06
558.65	59594.72
558.81	59718.77
558.98	59786.64
559.14	59852.18
559.31	59704.73
559.47	59863.88
559.64	59906.01
559.80	59791.33
559.97	59873.24
560.13	59674.30
560.30	60123.68
560.46	59980.91
560.63	60009.00
560.79	59709.41
560.96	60303.90
561.12	60034.74
561.29	59997.29
561.45	59994.95
561.61	60041.76
561.78	60261.77
561.94	60196.24
562.11	60123.68
562.27	60088.57
562.44	60261.77
562.60	60280.50
562.77	60292.20
562.93	60083.89
563.10	60224.32
563.26	60259.43
563.42	60542.64
563.59	60331.99
563.75	60247.73
563.92	60074.53
564.08	60212.62
564.24	60329.65
564.41	60299.22
564.57	60355.39
564.74	60474.76
564.90	60299.22
565.07	60374.12
565.23	60339.01
565.39	60474.76
565.56	60441.99
565.72	60346.03
565.88	60411.57
566.05	60331.99
566.21	60519.23
566.38	60432.63
566.54	60547.32
566.70	60458.38
566.87	60390.50
567.03	60388.16
567.19	60549.66
567.36	60451.36
567.52	60271.14
567.68	60533.28
567.85	60563.70
568.01	60617.53
568.17	60671.37
568.34	60769.67
568.50	60582.43
568.66	60736.90
568.83	60718.18
568.99	60659.66
569.15	60474.76
569.32	60652.64
569.48	60645.62
569.64	60736.90
569.81	60591.79
569.97	60449.02
570.13	60746.26
570.30	60570.72
570.46	60713.50
570.62	60666.69
570.78	60692.43
570.95	60739.24
571.11	60816.48
571.27	60622.22
571.43	60853.93
571.60	61073.94
571.76	60715.84
571.92	60912.44
572.09	60830.52
572.25	60917.12
572.41	60647.96
572.57	60823.50
572.74	61003.72
572.90	60755.63
573.06	60905.42
573.22	61078.62
573.38	60877.33
573.55	60867.97
573.71	60968.61
573.87	60760.31
574.03	60725.20
574.20	60807.12
574.36	60823.50
574.52	60970.96
574.68	60940.53
574.84	61013.08
575.01	61090.32
575.17	61045.85
575.33	60985.00
575.49	60893.72
575.65	61043.51
575.82	60994.36
575.98	61048.19
576.14	61064.58
576.30	61073.94
576.46	60970.96
576.62	61015.43
576.79	60921.80
576.95	60877.33
577.11	60994.36
577.27	61022.45
577.43	60797.76
577.59	60870.31
577.75	60931.17
577.92	60893.72
578.08	60837.54
578.24	60977.98
578.40	61151.18
578.56	61162.88
578.72	61113.73
578.88	61174.58
579.04	61265.86
579.21	61029.47
579.37	61200.33
579.53	61279.91
579.69	61116.07
579.85	61179.26
580.01	61020.11
580.17	60963.93
580.33	61205.01
580.49	61364.17
580.65	61095.00
580.82	60996.70
580.98	61092.66
581.14	60886.70
581.30	61193.31
581.46	61073.94
581.62	61221.39
581.78	60985.00
581.94	61160.54
582.10	61284.59
582.26	61062.24
582.42	61048.19
582.58	61076.28
582.74	61123.09
582.90	61160.54
583.06	60832.86
583.22	60952.23
583.38	61272.88
583.54	61258.84
583.70	61258.84
583.86	61284.59
584.02	60999.04
584.18	61127.77
584.34	61228.41
584.50	61221.39
584.66	60912.44
584.82	60999.04
584.98	61396.93
585.14	61134.79
585.30	61286.93
585.46	61324.38
585.62	61059.90
585.78	61528.00
585.94	60956.91
586.10	61214.37
586.26	61251.82
586.42	61439.06
586.58	61242.46
586.74	61235.44
586.90	61165.22
587.06	61031.81
587.22	61310.33
587.38	61275.22
587.54	61324.38
587.70	61478.85
587.86	61284.59
588.02	61567.79
588.18	61392.25
588.34	61415.66
588.49	61097.34
