SpectraSuite Data File
++++++++++++++++++++++++++++++++++++
Date: Fri Oct 25 10:48:16 EDT 2013
User: price-jones
Dark Spectrum Present: No
Reference Spectrum Present: No
Number of Sampled Component Spectra: 1
Spectrometers: USB2+H05261
Integration Time (usec): 100000 (USB2+H05261)
Spectra Averaged: 1 (USB2+H05261)
Boxcar Smoothing: 0 (USB2+H05261)
Correct for Electrical Dark: No (USB2+H05261)
Strobe/Lamp Enabled: No (USB2+H05261)
Correct for Detector Non-linearity: No (USB2+H05261)
Correct for Stray Light: No (USB2+H05261)
Number of Pixels in Processed Spectrum: 2048
>>>>>Begin Processed Spectral Data<<<<<
365.73	135.75
365.92	135.75
366.12	135.75
366.32	0.00
366.52	93.62
366.72	58.51
366.91	0.00
367.11	37.45
367.31	53.83
367.51	49.15
367.70	105.32
367.90	49.15
368.10	0.00
368.30	0.00
368.49	56.17
368.69	44.47
368.89	46.81
369.09	0.00
369.28	84.26
369.48	152.13
369.68	128.73
369.87	88.94
370.07	142.77
370.27	159.16
370.47	290.23
370.66	404.91
370.86	449.38
371.06	421.30
371.25	451.72
371.45	491.51
371.65	470.45
371.84	463.43
372.04	505.56
372.24	596.84
372.44	533.64
372.63	528.96
372.83	554.71
373.03	482.15
373.22	603.86
373.42	557.05
373.62	486.83
373.81	535.98
374.01	660.03
374.21	653.01
374.40	435.34
374.60	603.86
374.79	582.79
374.99	648.33
375.19	540.66
375.38	610.88
375.58	547.69
375.78	547.69
375.97	638.97
376.17	573.43
376.37	620.24
376.56	610.88
376.76	601.52
376.95	613.22
377.15	561.73
377.35	566.41
377.54	585.13
377.74	578.11
377.93	676.41
378.13	692.80
378.33	631.94
378.52	638.97
378.72	617.90
378.91	699.82
379.11	641.31
379.31	662.37
379.50	704.50
379.70	688.12
379.89	711.52
380.09	718.54
380.28	648.33
380.48	667.05
380.68	716.20
380.87	678.76
381.07	723.23
381.26	751.31
381.46	730.25
381.65	704.50
381.85	723.23
382.04	706.84
382.24	690.46
382.43	753.65
382.63	774.72
382.83	641.31
383.02	683.44
383.22	723.23
383.41	683.44
383.61	676.41
383.80	819.19
384.00	723.23
384.19	777.06
384.39	823.87
384.58	805.14
384.78	844.93
384.97	833.23
385.17	819.19
385.36	791.10
385.56	849.61
385.75	781.74
385.95	788.76
386.14	908.13
386.34	758.33
386.53	861.32
386.72	849.61
386.92	856.64
387.11	753.65
387.31	753.65
387.50	868.34
387.70	821.53
387.89	898.77
388.09	880.04
388.28	847.27
388.48	866.00
388.67	992.39
388.86	968.98
389.06	929.19
389.25	990.05
389.45	908.13
389.64	912.81
389.84	1032.18
390.03	966.64
390.22	973.66
390.42	929.19
390.61	968.98
390.81	1004.09
391.00	999.41
391.19	1053.24
391.39	1025.15
391.58	1029.84
391.78	997.07
391.97	940.90
392.16	961.96
392.36	1036.86
392.55	992.39
392.75	1116.44
392.94	1060.26
393.13	990.05
393.33	992.39
393.52	1025.15
393.71	1008.77
393.91	1053.24
394.10	1057.92
394.29	1198.35
394.49	1170.27
394.68	1266.23
394.88	1214.74
395.07	1207.72
395.26	1196.01
395.46	1188.99
395.65	1177.29
395.84	1284.95
396.04	1249.85
396.23	1149.20
396.42	1165.59
396.62	1217.08
396.81	1219.42
397.00	1167.93
397.19	1308.36
397.39	1254.53
397.58	1397.30
397.77	1399.64
397.97	1329.42
398.16	1329.42
398.35	1481.56
398.55	1310.70
398.74	1462.83
398.93	1465.18
399.12	1509.65
399.32	1469.86
399.51	1511.99
399.70	1519.01
399.90	1526.03
400.09	1514.33
400.28	1572.84
400.47	1530.71
400.67	1600.93
400.86	1629.01
401.05	1621.99
401.24	1687.53
401.44	1661.78
401.63	1612.63
401.82	1650.08
402.01	1556.46
402.21	1703.91
402.40	1739.02
402.59	1668.80
402.78	1678.16
402.97	1696.89
403.17	1790.51
403.36	1739.02
403.55	1757.74
403.74	1734.34
403.93	1816.26
404.13	1863.07
404.32	1825.62
404.51	1678.16
404.70	1853.70
404.89	1785.83
405.09	1930.94
405.28	1771.79
405.47	1811.57
405.66	1849.02
405.85	1888.81
406.05	1844.34
406.24	1851.36
406.43	1877.11
406.62	1989.46
406.81	2087.76
407.00	2076.06
407.20	1909.88
407.39	1970.73
407.58	2015.20
407.77	2097.12
407.96	2143.93
408.15	2076.06
408.34	2136.91
408.54	2204.78
408.73	2190.74
408.92	2293.72
409.11	2246.91
409.30	2265.64
409.49	2125.21
409.68	2275.00
409.87	2223.51
410.07	2200.10
410.26	2251.60
410.45	2270.32
410.64	2385.01
410.83	2399.05
411.02	2403.73
411.21	2392.03
411.40	2431.82
411.59	2450.54
411.78	2438.84
411.98	2548.84
412.17	2527.78
412.36	2476.29
412.55	2649.49
412.74	2534.80
412.93	2616.72
413.12	2616.72
413.31	2794.60
413.50	2647.15
413.69	2635.44
413.88	2918.65
414.07	2806.30
414.26	2825.03
414.45	2773.53
414.64	2785.24
414.83	2883.54
415.02	2867.16
415.22	3014.61
415.41	3103.55
415.60	3077.80
415.79	3028.65
415.98	3131.64
416.17	3014.61
416.36	3061.42
416.55	3190.15
416.74	3159.72
416.93	3089.51
417.12	3066.10
417.31	3183.13
417.50	3145.68
417.69	3290.79
417.88	3288.45
418.07	3346.97
418.26	3309.52
418.45	3386.76
418.64	3424.20
418.83	3330.58
419.02	3517.83
419.21	3435.91
419.39	3473.36
419.58	3379.73
419.77	3393.78
419.96	3405.48
420.15	3686.34
420.34	3555.27
420.53	3517.83
420.72	3714.43
420.91	3611.45
421.10	3707.41
421.29	3653.58
421.48	3653.58
421.67	3700.39
421.86	3801.03
422.05	3644.21
422.24	3653.58
422.43	3679.32
422.61	3777.62
422.80	3632.51
422.99	3712.09
423.18	3723.79
423.37	3794.01
423.56	3705.07
423.75	3882.95
423.94	3733.15
424.13	3597.40
424.32	3585.70
424.50	3920.40
424.69	3864.22
424.88	3714.43
425.07	3838.48
425.26	3889.97
425.45	3674.64
425.64	3913.38
425.83	3960.19
426.01	3981.25
426.20	3892.31
426.39	3913.38
426.58	3948.48
426.77	3864.22
426.96	3920.40
427.15	3859.54
427.33	3885.29
427.52	3934.44
427.71	3885.29
427.90	3922.74
428.09	3960.19
428.28	3913.38
428.46	4018.70
428.65	4016.36
428.84	4011.68
429.03	4201.26
429.22	4084.23
429.40	3997.64
429.59	4065.51
429.78	3859.54
429.97	3913.38
430.16	3927.42
430.34	4147.43
430.53	4079.55
430.72	3992.95
430.91	4016.36
431.10	4135.73
431.28	4435.32
431.47	4358.08
431.66	4486.81
431.85	4358.08
432.03	4451.70
432.22	4475.10
432.41	4585.11
432.60	4510.21
432.79	4449.36
432.97	4669.37
433.16	4540.64
433.35	4531.28
433.54	4613.20
433.72	4496.17
433.91	4699.80
434.10	4631.92
434.28	4498.51
434.47	4697.46
434.66	4702.14
434.85	4809.80
435.03	4706.82
435.22	4685.75
435.41	4917.47
435.59	4767.67
435.78	4924.49
435.97	4961.94
436.16	5025.13
436.34	5022.79
436.53	4898.74
436.72	5102.37
436.90	4919.81
437.09	4861.29
437.28	4865.97
437.46	5027.47
437.65	5018.11
437.84	4997.04
438.02	4929.17
438.21	5032.15
438.40	4922.15
438.58	5238.12
438.77	5247.48
438.96	5252.16
439.14	5277.91
439.33	5486.22
439.52	5383.23
439.70	5437.06
439.89	5467.49
440.08	5441.75
440.26	5413.66
440.45	5348.12
440.63	5495.58
440.82	5727.29
441.01	5806.87
441.19	5771.76
441.38	5860.70
441.57	5905.17
441.75	5893.47
441.94	6076.03
442.12	5944.96
442.31	6146.25
442.50	6221.14
442.68	5984.75
442.87	6012.84
443.05	6012.84
443.24	6284.34
443.43	6282.00
443.61	6143.91
443.80	6235.19
443.98	6108.80
444.17	6230.51
444.35	6349.87
444.54	6291.36
444.73	6249.23
444.91	6282.00
445.10	6200.08
445.28	6118.16
445.47	6286.68
445.65	6076.03
445.84	6406.05
446.02	6291.36
446.21	6480.94
446.39	6394.34
446.58	6396.68
446.77	6394.34
446.95	6326.47
447.14	6319.45
447.32	6420.09
447.51	6363.92
447.69	6342.85
447.88	6370.94
448.06	6333.49
448.25	6504.35
448.43	6518.39
448.62	6333.49
448.80	6633.08
448.99	6670.53
449.17	6565.20
449.36	6595.63
449.54	6649.46
449.73	6506.69
449.91	6913.94
450.10	6820.32
450.28	7164.38
450.46	6946.71
450.65	6874.15
450.83	6841.39
451.02	6899.90
451.20	6953.73
451.39	7012.24
451.57	6995.86
451.76	6857.77
451.94	7014.59
452.13	6993.52
452.31	6932.67
452.49	6925.65
452.68	6932.67
452.86	7098.84
453.05	7045.01
453.23	7068.42
453.42	6874.15
453.60	7014.59
453.78	7140.97
453.97	7239.28
454.15	7019.27
454.34	7140.97
454.52	7222.89
454.70	7227.57
454.89	7300.13
455.07	7384.39
455.26	7412.48
455.44	7543.55
455.62	7321.20
455.81	7616.10
455.99	7599.72
456.17	7578.65
456.36	7566.95
456.54	7606.74
456.73	7714.41
456.91	7960.16
457.09	7646.53
457.28	8030.38
457.46	7576.31
457.64	7796.32
457.83	8042.08
458.01	7712.07
458.19	7985.91
458.38	7871.22
458.56	7913.35
458.74	7896.97
458.93	7803.35
459.11	7981.23
459.29	7817.39
459.48	8004.63
459.66	8077.19
459.84	8056.12
460.03	8109.96
460.21	8285.50
460.39	8292.52
460.57	8292.52
460.76	8191.88
460.94	8397.84
461.12	8402.52
461.31	8425.93
461.49	8250.39
461.67	8456.36
461.85	8444.65
462.04	8449.33
462.22	8924.46
462.40	8674.03
462.59	8500.83
462.77	8627.21
462.95	8706.79
463.13	8664.66
463.32	8903.40
463.50	8592.11
463.68	8636.58
463.86	8835.52
464.05	8486.78
464.23	8540.61
464.41	8655.30
464.59	8683.39
464.78	8669.34
464.96	8821.48
465.14	8798.07
465.32	8901.06
465.50	8982.98
465.69	9011.06
465.87	8835.52
466.05	8961.91
466.23	8781.69
466.41	8982.98
466.60	9088.30
466.78	8982.98
466.96	9163.20
467.14	8961.91
467.32	9097.66
467.51	8961.91
467.69	8961.91
467.87	9069.58
468.05	9198.31
468.23	9341.08
468.41	9062.55
468.60	9210.01
468.78	9425.34
468.96	9369.16
469.14	9235.75
469.32	9418.32
469.50	9312.99
469.69	9383.21
469.87	9547.05
470.05	9453.42
470.23	9605.56
470.41	9380.87
470.59	9509.60
470.77	9570.45
470.95	9486.19
471.14	9909.83
471.32	9549.39
471.50	9991.75
471.68	9935.57
471.86	9860.68
472.04	9877.06
472.22	10169.63
472.40	9912.17
472.58	9984.73
472.77	10200.05
472.95	10190.69
473.13	10558.16
473.31	10115.80
473.49	10340.49
473.67	10424.75
473.85	10356.87
474.03	10530.07
474.21	10780.51
474.39	10679.86
474.57	10930.30
474.75	10810.93
474.93	10920.94
475.12	10867.11
475.30	10967.75
475.48	10984.13
475.66	11023.92
475.84	10925.62
476.02	10988.82
476.20	11014.56
476.38	11265.00
476.56	11442.88
476.74	11580.97
476.92	11421.81
477.10	11709.70
477.28	11683.95
477.46	11871.20
477.64	11562.25
477.82	11817.36
478.00	12294.83
478.18	11913.33
478.36	12299.52
478.54	12313.56
478.72	12018.65
478.90	12470.37
479.08	12409.52
479.26	12739.54
479.44	12723.15
479.62	12833.16
479.80	12999.34
479.98	13170.19
480.16	13408.93
480.34	12961.89
480.52	13369.14
480.70	13296.58
480.88	13181.90
481.06	13174.88
481.24	13411.27
481.41	13818.52
481.59	13970.66
481.77	13841.93
481.95	13916.83
482.13	14148.54
482.31	14080.66
482.49	14352.16
482.67	14675.16
482.85	14408.34
483.03	14506.64
483.21	14752.40
483.39	15129.22
483.57	14857.72
483.74	14953.68
483.92	15157.31
484.10	15138.58
484.28	15309.44
484.46	15447.54
484.64	15555.20
484.82	15742.44
485.00	15894.58
485.18	15850.11
485.35	16086.50
485.53	15981.18
485.71	15807.98
485.89	16175.44
486.07	15932.03
486.25	16456.31
486.43	16269.06
486.61	16716.11
486.78	16886.97
486.96	16872.92
487.14	17298.90
487.32	17205.28
487.50	17319.96
487.68	17575.08
487.85	17607.85
488.03	17788.07
488.21	18218.73
488.39	17771.69
488.57	18162.56
488.75	18246.82
488.92	18530.02
489.10	18939.62
489.28	18890.46
489.46	18822.59
489.64	18848.33
489.81	19637.09
489.99	19723.69
490.17	19440.49
490.35	19814.98
490.53	20098.18
490.70	19711.99
490.88	19957.75
491.06	20236.27
491.24	20004.56
491.41	20318.19
491.59	20166.06
491.77	20203.50
491.95	20795.66
492.13	20765.23
492.30	21156.10
492.48	21177.17
492.66	21399.52
492.84	21294.19
493.01	21525.91
493.19	21418.24
493.37	21551.65
493.54	22008.06
493.72	21577.40
493.90	21926.14
494.08	21893.37
494.25	22476.16
494.43	22707.88
494.61	23026.19
494.79	22717.24
494.96	22696.17
495.14	22932.57
495.32	23339.82
495.49	23466.21
495.67	22927.89
495.85	23555.15
496.02	23616.01
496.20	23716.65
496.38	23527.06
496.55	23676.86
496.73	24458.60
496.91	24142.63
497.09	24339.23
497.26	24318.17
497.44	24381.36
497.62	24617.75
497.79	24683.29
497.97	24542.86
498.14	24931.39
498.32	24812.02
498.50	25280.13
498.67	25507.16
498.85	25378.43
499.03	25560.99
499.20	25715.47
499.38	25479.07
499.56	25514.18
499.73	25806.75
499.91	25635.89
500.08	25764.62
500.26	25544.61
500.44	25898.03
500.61	26286.56
500.79	25694.40
500.97	26436.35
501.14	26611.89
501.32	26761.69
501.49	26555.72
501.67	26672.74
501.84	26948.93
502.02	26862.33
502.20	27042.55
502.37	27182.98
502.55	27042.55
502.72	27262.56
502.90	26946.59
503.07	27129.15
503.25	27131.49
503.43	27407.67
503.60	27529.38
503.78	27496.61
503.95	27744.71
504.13	28135.58
504.30	27934.29
504.48	27875.78
504.65	28056.00
504.83	28280.69
505.01	28638.80
505.18	28524.11
505.36	28816.68
505.53	28844.76
505.71	29092.86
505.88	29170.10
506.06	28467.94
506.23	28865.83
506.41	28783.91
506.58	29046.05
506.76	29024.98
506.93	29436.92
507.11	28893.91
507.28	29518.84
507.46	29364.36
507.63	29230.95
507.81	29795.02
507.98	29720.12
508.16	29631.18
508.33	29991.62
508.50	29993.97
508.68	30005.67
508.85	30293.55
509.03	30183.55
509.20	29883.96
509.38	30469.09
509.55	30181.21
509.73	30632.93
509.90	30967.63
510.08	30703.15
510.25	30621.23
510.42	30855.28
510.60	30972.31
510.77	31297.64
510.95	31335.09
511.12	31449.78
511.30	31622.98
511.47	31873.42
511.64	31768.09
511.82	31529.36
511.99	31477.86
512.17	31812.56
512.34	31730.64
512.51	31819.58
512.69	32187.05
512.86	31814.90
513.04	32259.60
513.21	32112.15
513.38	32126.19
513.56	32346.20
513.73	32285.35
513.90	32306.41
514.08	32395.35
514.25	32547.49
514.43	32577.92
514.60	32610.68
514.77	32678.56
514.95	33305.82
515.12	32678.56
515.29	32996.87
515.47	32961.76
515.64	33247.31
515.81	33106.88
515.99	32919.63
516.16	33390.08
516.33	33097.52
516.51	33219.22
516.68	33205.18
516.85	32713.67
517.03	33205.18
517.20	33425.19
517.37	33109.22
517.54	33682.65
517.72	33467.32
517.89	33593.71
518.06	33436.89
518.24	33457.96
518.41	33764.57
518.58	33825.42
518.75	34038.41
518.93	34501.84
519.10	34064.16
519.27	34382.47
519.45	34237.36
519.62	34565.03
519.79	34649.29
519.96	34913.77
520.14	35026.12
520.31	34768.66
520.48	34899.73
520.65	35058.88
520.83	35241.45
521.00	35103.35
521.17	34948.88
521.34	34972.28
521.52	35739.98
521.69	35470.82
521.86	35859.35
522.03	35491.88
522.20	35592.53
522.38	35349.11
522.55	35913.18
522.72	35739.98
522.89	35952.97
523.07	35718.92
523.24	35779.77
523.41	36367.24
523.58	36072.34
523.75	36804.92
523.92	36156.60
524.10	36318.09
524.27	36568.53
524.44	36247.88
524.61	36779.18
524.78	36767.48
524.96	36715.98
525.13	37041.32
525.30	37254.31
525.47	37378.36
525.64	37034.30
525.81	36603.64
525.98	36671.51
526.16	36811.95
526.33	36790.88
526.50	37408.78
526.67	36973.44
526.84	37076.43
527.01	36793.22
527.18	37628.79
527.36	37422.83
527.53	37722.41
527.70	37897.95
527.87	37787.95
528.04	37839.44
528.21	38106.26
528.38	37860.51
528.55	38513.52
528.72	37687.31
528.89	38286.48
529.07	37607.73
529.24	38520.54
529.41	37750.50
529.58	38038.39
529.75	38139.03
529.92	38466.70
530.09	38014.98
530.26	38300.53
530.43	38604.80
530.60	38342.66
530.77	38300.53
530.94	38866.94
531.11	38855.23
531.28	38717.14
531.46	38696.08
531.63	39079.92
531.80	39007.37
531.97	39040.14
532.14	39082.27
532.31	38763.95
532.48	38916.09
532.65	38813.10
532.82	38944.17
532.99	39482.50
533.16	38976.94
533.33	39274.19
533.50	39491.86
533.67	39274.19
533.84	39082.27
534.01	39618.25
534.18	39391.22
534.35	39777.40
534.52	39498.88
534.69	39653.36
534.86	39791.45
535.03	39452.07
535.20	40067.63
535.37	40423.39
535.54	40308.71
535.71	40074.65
535.88	39903.79
536.05	39917.84
536.22	39936.56
536.38	40201.04
536.55	40055.93
536.72	40261.90
536.89	40163.59
537.06	40123.80
537.23	40563.82
537.40	40231.47
537.57	40383.60
537.74	40451.48
537.91	40804.90
538.08	40584.89
538.25	40275.94
538.42	40465.52
538.59	40673.83
538.75	40669.15
538.92	40762.77
539.09	40664.47
539.26	41003.85
539.43	40718.30
539.60	40865.75
539.77	40886.82
539.94	40849.37
540.11	40615.32
540.28	40739.36
540.44	41088.10
540.61	40896.18
540.78	40968.74
540.95	40481.91
541.12	40783.83
541.29	41067.04
541.46	41261.30
541.62	41422.80
541.79	41848.78
541.96	41163.00
542.13	41490.68
542.30	41380.67
542.47	41619.41
542.63	41596.00
542.80	41729.41
542.97	42164.75
543.14	42555.62
543.31	41998.57
543.48	42052.41
543.64	42632.86
543.81	42284.12
543.98	42454.98
544.15	41794.95
544.32	42354.33
544.48	42478.38
544.65	42234.97
544.82	42637.54
544.99	42209.22
545.16	42562.64
545.32	42419.87
545.49	42384.76
545.66	42520.51
545.83	42572.00
546.00	42983.94
546.16	42515.83
546.33	42328.59
546.50	42265.39
546.67	42513.49
546.83	41991.55
547.00	42314.55
547.17	42689.03
547.34	42616.47
547.50	43138.41
547.67	43061.18
547.84	42834.14
548.00	42923.08
548.17	43058.84
548.34	42953.51
548.51	43674.40
548.67	43449.70
548.84	42967.55
549.01	43445.02
549.18	43086.92
549.34	43217.99
549.51	43068.20
549.68	43159.48
549.84	43063.52
550.01	43791.42
550.18	43531.62
550.34	43456.73
550.51	43381.83
550.68	43480.13
550.84	43311.61
551.01	43491.83
551.18	43721.21
551.34	43625.25
551.51	44299.32
551.68	43475.45
551.84	44018.46
552.01	43714.19
552.18	43686.10
552.34	43536.30
552.51	43945.90
552.68	43814.83
552.84	43983.35
553.01	44191.65
553.18	44091.01
553.34	43931.86
553.51	43838.23
553.67	44465.50
553.84	44545.08
554.01	44694.87
554.17	44378.90
554.34	44231.44
554.51	44233.78
554.67	44123.78
554.84	43927.17
555.00	43892.07
555.17	44112.08
555.33	44542.74
555.50	44484.22
555.67	43995.05
555.83	44406.98
556.00	44479.54
556.16	44463.16
556.33	44257.19
556.50	44453.79
556.66	44519.33
556.83	44105.06
556.99	44900.84
557.16	44680.83
557.32	44538.05
557.49	44957.01
557.65	44498.26
557.82	44690.19
557.98	44437.41
558.15	44416.35
558.32	45010.84
558.48	44666.78
558.65	44575.50
558.81	44765.09
558.98	44488.90
559.14	44865.73
559.31	45319.79
559.47	44678.49
559.64	45305.75
559.80	45287.03
559.97	45043.61
560.13	44793.17
560.30	44680.83
560.46	45081.06
560.63	44957.01
560.79	45333.84
560.96	45294.05
561.12	45301.07
561.29	45015.52
561.45	45095.10
561.61	45029.57
561.78	45289.37
561.94	45184.04
562.11	45287.03
562.27	45258.94
562.44	44886.79
562.60	45612.36
562.77	45649.81
562.93	45113.83
563.10	45333.84
563.26	44531.03
563.42	45078.72
563.59	44999.14
563.75	45123.19
563.92	45507.04
564.08	45315.11
564.24	45530.44
564.41	45420.44
564.57	45464.91
564.74	45500.01
564.90	45422.78
565.07	45404.05
565.23	45741.09
565.39	45340.86
565.56	45366.60
565.72	45076.38
565.88	45518.74
566.05	45642.79
566.21	44928.92
566.38	45530.44
566.54	45078.72
566.70	45773.86
566.87	45668.53
567.03	45684.92
567.19	45785.56
567.36	45588.95
567.52	45406.39
567.68	45219.15
567.85	45331.50
568.01	45525.76
568.17	45116.17
568.34	45352.56
568.50	45544.48
568.66	45874.50
568.83	45663.85
568.99	45478.95
569.15	45354.90
569.32	45659.17
569.48	45638.11
569.64	45888.54
569.81	45734.07
569.97	45530.44
570.13	45841.73
570.30	45287.03
570.46	45038.93
570.62	45392.35
570.78	45296.39
570.95	45132.55
571.11	45860.46
571.27	45787.90
571.43	45481.29
571.60	45478.95
571.76	45413.41
571.92	45617.04
572.09	45900.25
572.25	45448.52
572.41	45867.48
572.57	46082.81
572.74	46040.68
572.90	45984.51
573.06	46321.54
573.22	45975.14
573.38	45710.66
573.55	45727.05
573.71	45984.51
573.87	45577.25
574.03	45713.00
574.20	45904.93
574.36	45350.22
574.52	45937.69
574.68	46052.38
574.84	45998.55
575.01	46087.49
575.17	45619.38
575.33	45593.64
575.49	45771.52
575.65	46253.67
575.82	45827.69
575.98	46054.72
576.14	46295.80
576.30	45640.45
576.46	45567.89
576.62	45855.78
576.79	45865.14
576.95	45502.35
577.11	45518.74
577.27	46120.26
577.43	46190.47
577.59	45736.41
577.75	45888.54
577.92	45120.85
578.08	45237.87
578.24	45588.95
578.40	45312.77
578.56	45771.52
578.72	45556.19
578.88	46162.39
579.04	45734.07
579.21	45764.49
579.37	46096.85
579.53	45944.72
579.69	45336.18
579.85	45698.96
580.01	45947.06
580.17	45322.13
580.33	45715.34
580.49	45535.12
580.65	45991.53
580.82	45591.30
580.98	45750.45
581.14	45766.84
581.30	45787.90
581.46	46321.54
581.62	45783.22
581.78	45787.90
581.94	46461.97
582.10	45780.88
582.26	46150.68
582.42	46529.85
582.58	46047.70
582.74	46284.09
582.90	46103.87
583.06	46354.31
583.22	46148.34
583.38	46412.82
583.54	45900.25
583.70	45872.16
583.86	46405.80
584.02	46146.00
584.18	46021.95
584.34	45895.56
584.50	46110.89
584.66	45827.69
584.82	46019.61
584.98	46405.80
585.14	46185.79
585.30	45766.84
585.46	45982.16
585.62	45698.96
585.78	45481.29
585.94	45764.49
586.10	45663.85
586.26	45958.76
586.42	46272.39
586.58	46096.85
586.74	45918.97
586.90	45530.44
587.06	45806.62
587.22	45963.44
587.38	45914.29
587.54	46129.62
587.70	46127.28
587.86	46277.07
588.02	46045.36
588.18	46192.81
588.34	45923.65
588.49	45525.76
588.65	45460.23
588.81	45617.04
588.97	45827.69
589.13	45289.37
589.29	46080.47
589.45	45710.66
589.61	45998.55
589.77	46295.80
589.93	46014.93
590.08	46337.93
