SpectraSuite Data File
++++++++++++++++++++++++++++++++++++
Date: Fri Oct 25 11:34:20 EDT 2013
User: price-jones
Dark Spectrum Present: No
Reference Spectrum Present: No
Number of Sampled Component Spectra: 1
Spectrometers: USB2+H05261
Integration Time (usec): 100000 (USB2+H05261)
Spectra Averaged: 1 (USB2+H05261)
Boxcar Smoothing: 0 (USB2+H05261)
Correct for Electrical Dark: No (USB2+H05261)
Strobe/Lamp Enabled: No (USB2+H05261)
Correct for Detector Non-linearity: No (USB2+H05261)
Correct for Stray Light: No (USB2+H05261)
Number of Pixels in Processed Spectrum: 2048
>>>>>Begin Processed Spectral Data<<<<<
365.73	236.39
365.92	236.39
366.12	236.39
366.32	194.26
366.52	222.35
366.72	210.65
366.91	189.58
367.11	189.58
367.31	234.05
367.51	138.09
367.70	196.60
367.90	117.03
368.10	222.35
368.30	166.18
368.49	154.48
368.69	224.69
368.89	208.31
369.09	117.03
369.28	255.12
369.48	191.92
369.68	191.92
369.87	189.58
370.07	241.08
370.27	287.89
370.47	353.42
370.66	578.11
370.86	454.06
371.06	547.69
371.25	564.07
371.45	512.58
371.65	526.62
371.84	503.22
372.04	538.32
372.24	559.39
372.44	643.65
372.63	603.86
372.83	613.22
373.03	561.73
373.22	580.45
373.42	617.90
373.62	617.90
373.81	622.58
374.01	669.39
374.21	613.22
374.40	596.84
374.60	695.14
374.79	624.92
374.99	643.65
375.19	690.46
375.38	671.73
375.58	650.67
375.78	727.91
375.97	655.35
376.17	676.41
376.37	594.50
376.56	636.63
376.76	685.78
376.95	671.73
377.15	631.94
377.35	629.60
377.54	706.84
377.74	669.39
377.93	592.16
378.13	634.29
378.33	645.99
378.52	723.23
378.72	711.52
378.91	727.91
379.11	702.16
379.31	763.01
379.50	704.50
379.70	718.54
379.89	713.86
380.09	669.39
380.28	737.27
380.48	706.84
380.68	695.14
380.87	692.80
381.07	725.57
381.26	713.86
381.46	767.70
381.65	777.06
381.85	723.23
382.04	734.93
382.24	748.97
382.43	727.91
382.63	823.87
382.83	753.65
383.02	858.98
383.22	823.87
383.41	823.87
383.61	795.78
383.80	863.66
384.00	744.29
384.19	814.51
384.39	744.29
384.58	802.80
384.78	819.19
384.97	870.68
385.17	819.19
385.36	809.83
385.56	833.23
385.75	856.64
385.95	858.98
386.14	833.23
386.34	873.02
386.53	875.36
386.72	828.55
386.92	898.77
387.11	873.02
387.31	863.66
387.50	840.25
387.70	926.85
387.89	884.72
388.09	903.45
388.28	837.91
388.48	915.15
388.67	940.90
388.86	858.98
389.06	905.79
389.25	1004.09
389.45	990.05
389.64	933.87
389.84	943.24
390.03	943.24
390.22	917.49
390.42	898.77
390.61	938.55
390.81	910.47
391.00	861.32
391.19	1020.47
391.39	950.26
391.58	1022.81
391.78	985.37
391.97	954.94
392.16	971.32
392.36	1069.62
392.55	1041.54
392.75	1039.20
392.94	1022.81
393.13	1008.77
393.33	1004.09
393.52	978.34
393.71	1057.92
393.91	1053.24
394.10	1043.88
394.29	1074.31
394.49	1076.65
394.68	1083.67
394.88	1050.90
395.07	1062.60
395.26	959.62
395.46	1102.39
395.65	1188.99
395.84	1181.97
396.04	1184.31
396.23	1256.87
396.42	1174.95
396.62	1191.33
396.81	1254.53
397.00	1163.25
397.19	1158.57
397.39	1219.42
397.58	1224.10
397.77	1135.16
397.97	1261.55
398.16	1273.25
398.35	1280.27
398.55	1231.12
398.74	1233.46
398.93	1174.95
399.12	1294.32
399.32	1196.01
399.51	1334.11
399.70	1329.42
399.90	1362.19
400.09	1310.70
400.28	1366.87
400.47	1394.96
400.67	1336.45
400.86	1376.24
401.05	1345.81
401.24	1369.21
401.44	1411.34
401.63	1472.20
401.82	1399.64
402.01	1373.89
402.21	1355.17
402.40	1460.49
402.59	1474.54
402.78	1444.11
402.97	1448.79
403.17	1483.90
403.36	1563.48
403.55	1467.52
403.74	1561.14
403.93	1582.20
404.13	1624.33
404.32	1586.88
404.51	1516.67
404.70	1563.48
404.89	1612.63
405.09	1568.16
405.28	1729.66
405.47	1619.65
405.66	1636.03
405.85	1647.74
406.05	1636.03
406.24	1753.06
406.43	1678.16
406.62	1734.34
406.81	1797.53
407.00	1680.50
407.20	1678.16
407.39	1757.74
407.58	1891.15
407.77	1788.17
407.96	1837.32
408.15	1856.04
408.34	1736.68
408.54	1874.77
408.73	1867.75
408.92	1872.43
409.11	1977.75
409.30	1900.52
409.49	1928.60
409.68	1975.41
409.87	1937.96
410.07	1947.33
410.26	1935.62
410.45	1961.37
410.64	2008.18
410.83	2045.63
411.02	2050.31
411.21	2118.18
411.40	2003.50
411.59	2172.02
411.78	2087.76
411.98	2172.02
412.17	2190.74
412.36	2225.85
412.55	2218.83
412.74	2317.13
412.93	2267.98
413.12	2256.28
413.31	2450.54
413.50	2452.88
413.69	2413.09
413.88	2396.71
414.07	2455.22
414.26	2331.17
414.45	2450.54
414.64	2480.97
414.83	2504.37
415.02	2583.95
415.22	2569.91
415.41	2691.62
415.60	2656.51
415.79	2722.04
415.98	2576.93
416.17	2703.32
416.36	2691.62
416.55	2703.32
416.74	2698.64
416.93	2813.32
417.12	2801.62
417.31	2731.41
417.50	2841.41
417.69	2930.35
417.88	2885.88
418.07	2738.43
418.26	2848.43
418.45	2928.01
418.64	3054.40
418.83	2946.73
419.02	2881.20
419.21	2984.18
419.39	3087.17
419.58	2972.48
419.77	2848.43
419.96	3101.21
420.15	2991.20
420.34	3112.91
420.53	3077.80
420.72	3108.23
420.91	3173.77
421.10	3187.81
421.29	3330.58
421.48	3122.27
421.67	3190.15
421.86	3103.55
422.05	3201.85
422.24	3159.72
422.43	3227.60
422.61	3293.13
422.80	3342.28
422.99	3215.90
423.18	3370.37
423.37	3442.93
423.56	3248.66
423.75	3363.35
423.94	3262.71
424.13	3096.53
424.32	3169.09
424.50	3417.18
424.69	3489.74
424.88	3328.24
425.07	3311.86
425.26	3302.50
425.45	3351.65
425.64	3335.26
425.83	3323.56
426.01	3351.65
426.20	3382.07
426.39	3356.33
426.58	3389.10
426.77	3403.14
426.96	3562.30
427.15	3494.42
427.33	3445.27
427.52	3618.47
427.71	3524.85
427.90	3349.31
428.09	3492.08
428.28	3552.93
428.46	3630.17
428.65	3538.89
428.84	3742.52
429.03	3679.32
429.22	3522.51
429.40	3719.11
429.59	3672.30
429.78	3590.38
429.97	3529.53
430.16	3686.34
430.34	3705.07
430.53	3836.14
430.72	3693.37
430.91	3740.18
431.10	3801.03
431.28	3866.56
431.47	3962.53
431.66	3829.12
431.85	3880.61
432.03	3936.78
432.22	3995.29
432.41	3960.19
432.60	3939.12
432.79	4063.17
432.97	4030.40
433.16	4105.30
433.35	3953.16
433.54	4037.42
433.72	4128.70
433.91	4109.98
434.10	4002.32
434.28	3969.55
434.47	4145.09
434.66	4095.94
434.85	4121.68
435.03	4117.00
435.22	4308.93
435.41	4201.26
435.59	4234.03
435.78	4205.94
435.97	4322.97
436.16	4234.03
436.34	4271.48
436.53	4386.16
436.72	4386.16
436.90	4308.93
437.09	4447.02
437.28	4280.84
437.46	4341.69
437.65	4283.18
437.84	4456.38
438.02	4552.34
438.21	4449.36
438.40	4482.13
438.58	4582.77
438.77	4627.24
438.96	4512.55
439.14	4702.14
439.33	4901.08
439.52	4624.90
439.70	4901.08
439.89	4793.42
440.08	4795.76
440.26	4760.65
440.45	4760.65
440.63	4917.47
440.82	5067.26
441.01	4858.95
441.19	5046.20
441.38	5097.69
441.57	5217.05
441.75	5165.56
441.94	5261.52
442.12	5334.08
442.31	5362.17
442.50	5469.83
442.68	5210.03
442.87	5348.12
443.05	5476.85
443.24	5390.25
443.43	5284.93
443.61	5331.74
443.80	5610.26
443.98	5357.49
444.17	5174.92
444.35	5401.96
444.54	5359.83
444.73	5420.68
444.91	5451.11
445.10	5561.11
445.28	5493.24
445.47	5500.26
445.65	5474.51
445.84	5448.77
446.02	5675.80
446.21	5666.44
446.39	5556.43
446.58	5666.44
446.77	5659.42
446.95	5446.43
447.14	5455.79
447.32	5565.79
447.51	5636.01
447.69	5575.16
447.88	5659.42
448.06	5703.89
448.25	5657.07
448.43	5710.91
448.62	5689.84
448.80	5671.12
448.99	5804.53
449.17	5717.93
449.36	5678.14
449.54	5788.14
449.73	6040.92
449.91	5764.74
450.10	5905.17
450.28	5951.98
450.46	5982.41
450.65	5977.73
450.83	6050.28
451.02	6106.46
451.20	5947.30
451.39	5980.07
451.57	6024.54
451.76	5792.83
451.94	6108.80
452.13	6127.52
452.31	6078.37
452.49	6008.16
452.68	6157.95
452.86	6043.26
453.05	6321.79
453.23	6274.98
453.42	6052.63
453.60	6115.82
453.78	6244.55
453.97	6139.23
454.15	6228.17
454.34	6174.33
454.52	6354.55
454.70	6324.13
454.89	6541.80
455.07	6274.98
455.26	6373.28
455.44	6511.37
455.62	6520.73
455.81	6497.33
455.99	6665.85
456.17	6691.59
456.36	6803.94
456.54	6719.68
456.73	6576.91
456.91	6970.12
457.09	6892.88
457.28	6991.18
457.46	6621.38
457.64	6918.62
457.83	7007.56
458.01	6759.47
458.19	7098.84
458.38	6846.07
458.56	6937.35
458.74	7108.21
458.93	6963.09
459.11	7108.21
459.29	7005.22
459.48	7098.84
459.66	7049.69
459.84	7108.21
460.03	7190.13
460.21	7197.15
460.39	7164.38
460.57	7353.96
460.76	7302.47
460.94	7337.58
461.12	7229.91
461.31	7421.84
461.49	7304.81
461.67	7234.60
461.85	7543.55
462.04	7272.04
462.22	7735.47
462.40	7414.82
462.59	7421.84
462.77	7571.63
462.95	7618.44
463.13	7707.38
463.32	7515.46
463.50	7597.38
463.68	7786.96
463.86	7770.58
464.05	7508.44
464.23	7660.57
464.41	7854.84
464.59	7552.91
464.78	7948.46
464.96	7784.62
465.14	7747.17
465.32	7693.34
465.50	7925.05
465.69	7819.73
465.87	7737.81
466.05	7854.84
466.23	7681.64
466.41	7822.07
466.60	8065.49
466.78	7843.14
466.96	7899.31
467.14	7833.77
467.32	8025.70
467.51	8128.68
467.69	8081.87
467.87	8236.35
468.05	8107.62
468.23	8084.21
468.41	8006.97
468.60	8301.88
468.78	8418.91
468.96	8383.80
469.14	8418.91
469.32	8498.49
469.50	7957.82
469.69	8409.54
469.87	8564.02
470.05	8519.55
470.23	8442.31
470.41	8372.10
470.59	8683.39
470.77	8505.51
470.95	8439.97
471.14	8924.46
471.32	8521.89
471.50	8840.20
471.68	8638.92
471.86	8837.86
472.04	8854.25
472.22	9191.28
472.40	8889.35
472.58	8992.34
472.77	8924.46
472.95	9039.15
473.13	9359.80
473.31	9184.26
473.49	8994.68
473.67	9008.72
473.85	9350.44
474.03	9242.78
474.21	9418.32
474.39	9465.13
474.57	9430.02
474.75	9724.93
474.93	9657.05
475.12	9523.64
475.30	9542.36
475.48	9614.92
475.66	9762.37
475.84	9823.23
476.02	9816.21
476.20	9984.73
476.38	10008.13
476.56	10352.19
476.74	10286.65
476.92	10232.82
477.10	10188.35
477.28	10471.56
477.46	10345.17
477.64	10319.42
477.82	10595.61
478.00	10846.04
478.18	10640.08
478.36	10850.72
478.54	11117.54
478.72	10839.02
478.90	11232.23
479.08	11335.21
479.26	11257.98
479.44	11433.52
479.62	11295.43
479.80	11318.83
479.98	11461.60
480.16	11672.25
480.34	11662.89
480.52	11719.06
480.70	11997.59
480.88	11836.09
481.06	11936.73
481.24	12028.01
481.41	12018.65
481.59	12351.01
481.77	12409.52
481.95	12566.34
482.13	12521.87
482.31	12833.16
482.49	12791.03
482.67	13078.91
482.85	13032.10
483.03	13036.78
483.21	13282.54
483.39	13305.95
483.57	13394.89
483.74	13411.27
483.92	13701.50
484.10	13621.92
484.28	13912.14
484.46	14064.28
484.64	14118.11
484.82	13991.72
485.00	14024.49
485.18	14415.36
485.35	14647.07
485.53	14532.39
485.71	14740.69
485.89	14848.36
486.07	15051.99
486.25	14953.68
486.43	15133.90
486.61	15300.08
486.78	15487.32
486.96	15578.61
487.14	15552.86
487.32	15749.46
487.50	15747.12
487.68	15941.39
487.85	16353.32
488.03	16365.03
488.21	16563.97
488.39	16549.93
488.57	16645.89
488.75	16582.70
488.92	16648.23
489.10	16996.97
489.28	17099.95
489.46	17350.39
489.64	17085.91
489.81	17525.93
489.99	17341.03
490.17	17610.19
490.35	17961.27
490.53	18153.20
490.70	17998.72
490.88	18216.39
491.06	18246.82
491.24	18455.12
491.41	18443.42
491.59	18572.15
491.77	18869.40
491.95	18824.93
492.13	18813.23
492.30	18843.65
492.48	19360.91
492.66	19213.46
492.84	19356.23
493.01	19330.48
493.19	19407.72
493.37	19349.21
493.54	19442.83
493.72	20037.33
493.90	20056.05
494.08	20142.65
494.25	20390.75
494.43	20451.60
494.61	20449.26
494.79	20664.59
494.96	20648.21
495.14	20683.31
495.32	20884.60
495.49	21268.45
495.67	21181.85
495.85	21296.53
496.02	21362.07
496.20	21731.87
496.38	21841.88
496.55	21488.46
496.73	22319.35
496.91	22068.91
497.09	22120.40
497.26	21930.82
497.44	22061.89
497.62	22125.08
497.79	22684.47
497.97	22586.17
498.14	22824.90
498.32	22965.34
498.50	23105.77
498.67	23087.04
498.85	23012.15
499.03	23126.83
499.20	23461.53
499.38	23278.97
499.56	23494.30
499.73	23536.43
499.91	23892.19
500.08	23817.29
500.26	23599.62
500.44	23934.32
500.61	23934.32
500.79	24154.33
500.97	24280.72
501.14	24615.41
501.32	24329.87
501.49	24477.32
501.67	24505.41
501.84	24659.88
502.02	24912.66
502.20	25013.31
502.37	25172.46
502.55	24905.64
502.72	25029.69
502.90	24912.66
503.07	24858.83
503.25	25467.37
503.43	25366.73
503.60	25638.23
503.78	25352.68
503.95	25661.63
504.13	25743.55
504.30	25771.64
504.48	25881.64
504.65	25961.22
504.83	26377.84
505.01	26401.24
505.18	26101.65
505.36	26417.63
505.53	26211.66
505.71	26499.55
505.88	26562.74
506.06	26466.78
506.23	27040.21
506.41	26899.78
506.58	26913.82
506.76	26981.70
506.93	27178.30
507.11	27124.47
507.28	27147.87
507.46	27491.93
507.63	27573.85
507.81	27487.25
507.98	27634.71
508.16	27571.51
508.33	27770.46
508.50	27917.91
508.68	28081.75
508.85	28212.82
509.03	27960.04
509.20	28135.58
509.38	28601.35
509.55	28107.49
509.73	28290.06
509.90	28453.89
510.08	28650.50
510.25	28367.29
510.42	28584.96
510.60	28758.16
510.77	28900.94
510.95	29198.18
511.12	29170.10
511.30	29088.18
511.47	29095.20
511.64	29181.80
511.82	29593.73
511.99	29401.81
512.17	29521.18
512.34	29663.95
512.51	29961.20
512.69	30064.18
512.86	30003.33
513.04	29743.53
513.21	29687.36
513.38	30143.76
513.56	30101.63
513.73	30148.44
513.90	30572.08
514.08	30167.16
514.25	30714.85
514.43	30375.47
514.60	30562.72
514.77	30719.53
514.95	30314.62
515.12	30962.95
515.29	30918.48
515.47	30918.48
515.64	31431.05
515.81	30778.04
515.99	31206.36
516.16	31496.59
516.33	31426.37
516.51	31604.25
516.68	31250.83
516.85	31660.43
517.03	31630.00
517.20	31896.82
517.37	32006.83
517.54	32217.47
517.72	31786.82
517.89	31789.16
518.06	32252.58
518.24	31821.92
518.41	31978.74
518.58	32189.39
518.75	32102.79
518.93	31924.91
519.10	32243.22
519.27	32154.28
519.45	32362.59
519.62	32697.28
519.79	32849.42
519.96	32390.67
520.14	32952.40
520.31	32833.04
520.48	32849.42
520.65	32929.00
520.83	33020.28
521.00	33256.67
521.17	33338.59
521.34	33240.29
521.52	33296.46
521.69	33017.94
521.86	33659.24
522.03	33584.35
522.20	33570.30
522.38	33970.54
522.55	33982.24
522.72	33872.23
522.89	33947.13
523.07	34464.39
523.24	34103.95
523.41	34305.23
523.58	33912.02
523.75	34637.59
523.92	34242.04
524.10	34185.86
524.27	34476.09
524.44	34735.89
524.61	34581.42
524.78	34766.32
524.96	34890.37
525.13	35005.05
525.30	34995.69
525.47	35229.74
525.64	34965.26
525.81	34955.90
525.98	35166.55
526.16	35393.58
526.33	34836.53
526.50	35381.88
526.67	34981.65
526.84	35379.54
527.01	35480.18
527.18	35065.91
527.36	35962.33
527.53	35239.11
527.70	35786.79
527.87	35789.13
528.04	35601.89
528.21	35945.95
528.38	35707.21
528.55	36109.78
528.72	36116.81
528.89	36395.33
529.07	36236.17
529.24	35903.82
529.41	36308.73
529.58	36556.83
529.75	36416.40
529.92	36203.41
530.09	36732.37
530.26	36421.08
530.43	36666.83
530.60	36472.57
530.77	36264.26
530.94	36804.92
531.11	36306.39
531.28	36685.56
531.46	36669.17
531.63	36900.89
531.80	36737.05
531.97	37048.34
532.14	37624.11
532.31	37364.31
532.48	36978.12
532.65	37357.29
532.82	37268.35
532.99	37497.72
533.16	37024.93
533.33	37589.00
533.50	37111.53
533.67	37378.36
533.84	37420.48
534.01	37923.70
534.18	37778.59
534.35	38075.84
534.52	38419.89
534.69	38267.76
534.86	38293.50
535.03	38436.28
535.20	38389.47
535.37	38033.71
535.54	38506.49
535.71	38286.48
535.88	38726.50
536.05	38574.37
536.22	38635.22
536.38	38822.47
536.55	38536.92
536.72	38382.45
536.89	38363.72
537.06	38433.94
537.23	39007.37
537.40	38424.57
537.57	38920.77
537.74	38719.48
537.91	38909.07
538.08	38792.04
538.25	38834.17
538.42	38888.00
538.59	39608.89
538.75	39210.99
538.92	39419.30
539.09	39627.61
539.26	39313.98
539.43	39299.94
539.60	39070.56
539.77	39566.76
539.94	39405.26
540.11	39463.77
540.28	39318.66
540.44	39512.92
540.61	39402.92
540.78	39543.35
540.95	39636.97
541.12	39742.30
541.29	39826.56
541.46	39901.45
541.62	39686.12
541.79	40149.55
541.96	39491.86
542.13	39838.26
542.30	39519.95
542.47	39908.47
542.63	40268.92
542.80	40385.94
542.97	40299.34
543.14	40879.80
543.31	40421.05
543.48	40208.06
543.64	40591.91
543.81	40898.52
543.98	40559.14
544.15	40320.41
544.32	40793.20
544.48	41186.41
544.65	40559.14
544.82	41008.53
544.99	40704.26
545.16	40971.08
545.32	40842.35
545.49	40851.71
545.66	41848.78
545.83	41312.80
546.00	41455.57
546.16	41055.34
546.33	41188.75
546.50	41031.93
546.67	41394.71
546.83	40992.14
547.00	41179.39
547.17	41439.18
547.34	41469.61
547.50	41771.54
547.67	42101.56
547.84	41858.14
548.00	41979.85
548.17	41755.16
548.34	41792.61
548.51	41921.34
548.67	42239.65
548.84	41764.52
549.01	41507.06
549.18	42153.05
549.34	42569.66
549.51	42113.26
549.68	42351.99
549.84	41860.48
550.01	41893.25
550.18	42117.94
550.34	42234.97
550.51	42115.60
550.68	42714.78
550.84	41911.97
551.01	42330.93
551.18	42398.80
551.34	42176.45
551.51	42534.56
551.68	42747.54
551.84	42796.70
552.01	42213.90
552.18	42749.88
552.34	42335.61
552.51	42871.59
552.68	42813.08
552.84	42714.78
553.01	42387.10
553.18	42735.84
553.34	42536.90
553.51	42672.65
553.67	42857.55
553.84	42986.28
554.01	43131.39
554.17	43187.56
554.34	43168.84
554.51	42644.56
554.67	43578.43
554.84	43332.68
555.00	43072.88
555.17	43227.35
555.33	43072.88
555.50	43267.14
555.67	43377.15
555.83	43269.48
556.00	43440.34
556.16	43915.47
556.33	43316.29
556.50	43763.34
556.66	43545.67
556.83	43552.69
556.99	43569.07
557.16	43969.30
557.32	43999.73
557.49	44067.61
557.65	43548.01
557.82	43805.47
557.98	43161.82
558.15	43990.37
558.32	43601.84
558.48	43597.16
558.65	44076.97
558.81	43786.74
558.98	43536.30
559.14	43571.41
559.31	43718.87
559.47	43634.61
559.64	43906.11
559.80	44067.61
559.97	44011.43
560.13	43770.36
560.30	44304.00
560.46	44645.72
560.63	44252.51
560.79	43995.05
560.96	44524.01
561.12	44198.68
561.29	44442.09
561.45	44147.18
561.61	44245.49
561.78	44238.47
561.94	44299.32
562.11	44514.65
562.27	44355.49
562.44	43913.13
562.60	44201.02
562.77	44395.28
562.93	44123.78
563.10	44704.23
563.26	44617.63
563.42	44823.60
563.59	44612.95
563.75	44404.64
563.92	44772.11
564.08	44505.29
564.24	44879.77
564.41	44619.97
564.57	44273.57
564.74	44596.57
564.90	44514.65
565.07	44666.78
565.23	44952.33
565.39	44758.06
565.56	44889.13
565.72	44664.44
565.88	45109.14
566.05	44535.71
566.21	44957.01
566.38	44814.24
566.54	44947.65
566.70	45155.96
566.87	44966.37
567.03	44596.57
567.19	45216.81
567.36	45209.79
567.52	44631.68
567.68	45319.79
567.85	45041.27
568.01	45326.81
568.17	44872.75
568.34	45228.51
568.50	44694.87
568.66	44765.09
568.83	45113.83
568.99	44954.67
569.15	44758.06
569.32	44601.25
569.48	45385.33
569.64	45244.90
569.81	45235.53
569.97	45207.45
570.13	45298.73
570.30	44968.71
570.46	45528.10
570.62	45120.85
570.78	45340.86
570.95	45448.52
571.11	45244.90
571.27	45324.47
571.43	45289.37
571.60	45364.26
571.76	45411.07
571.92	45593.64
572.09	45397.03
572.25	44945.31
572.41	45394.69
572.57	45565.55
572.74	45216.81
572.90	45394.69
573.06	45165.32
573.22	45991.53
573.38	45371.28
573.55	45275.32
573.71	45930.67
573.87	45764.49
574.03	45385.33
574.20	45373.63
574.36	45525.76
574.52	45588.95
574.68	45820.67
574.84	45427.46
575.01	45600.66
575.17	45799.60
575.33	45771.52
575.49	45755.13
575.65	45792.58
575.82	45612.36
575.98	45532.78
576.14	45979.82
576.30	46291.12
576.46	45495.33
576.62	45624.06
576.79	45904.93
576.95	45088.08
577.11	45663.85
577.27	45748.11
577.43	45385.33
577.59	45649.81
577.75	45191.06
577.92	45797.26
578.08	45144.25
578.24	46110.89
578.40	45769.18
578.56	46071.10
578.72	46028.98
578.88	45989.19
579.04	45949.40
579.21	45607.68
579.37	45996.21
579.53	46092.17
579.69	45684.92
579.85	45666.19
580.01	45897.91
580.17	45855.78
580.33	46024.29
580.49	45834.71
580.65	46295.80
580.82	45720.02
580.98	45759.81
581.14	45853.44
581.30	45855.78
581.46	45848.75
581.62	45626.40
581.78	45570.23
581.94	45865.14
582.10	45748.11
582.26	45895.56
582.42	45633.42
582.58	46017.27
582.74	45935.35
582.90	45773.86
583.06	45750.45
583.22	45656.83
583.38	45736.41
583.54	46075.79
583.70	46103.87
583.86	46108.55
584.02	45717.68
584.18	46141.32
584.34	46298.14
584.50	46256.01
584.66	46122.60
584.82	46017.27
584.98	46103.87
585.14	46164.73
585.30	46160.05
585.46	46234.94
585.62	45691.94
585.78	46085.15
585.94	45401.71
586.10	45888.54
586.26	45972.80
586.42	45401.71
586.58	45918.97
586.74	46024.29
586.90	45610.02
587.06	45907.27
587.22	46204.52
587.38	45687.26
587.54	46127.28
587.70	46672.62
587.86	46286.43
588.02	45972.80
588.18	46300.48
588.34	45750.45
588.49	45900.25
588.65	45661.51
588.81	46314.52
588.97	46452.61
589.13	46206.86
589.29	46164.73
589.45	46190.47
589.61	45996.21
589.77	46302.82
589.93	45956.42
590.08	46291.12
