SpectraSuite Data File
++++++++++++++++++++++++++++++++++++
Date: Fri Oct 25 11:25:14 EDT 2013
User: price-jones
Dark Spectrum Present: No
Reference Spectrum Present: No
Number of Sampled Component Spectra: 1
Spectrometers: USB2+H05261
Integration Time (usec): 100000 (USB2+H05261)
Spectra Averaged: 1 (USB2+H05261)
Boxcar Smoothing: 0 (USB2+H05261)
Correct for Electrical Dark: No (USB2+H05261)
Strobe/Lamp Enabled: No (USB2+H05261)
Correct for Detector Non-linearity: No (USB2+H05261)
Correct for Stray Light: No (USB2+H05261)
Number of Pixels in Processed Spectrum: 2048
>>>>>Begin Processed Spectral Data<<<<<
365.73	330.02
365.92	330.02
366.12	330.02
366.32	142.77
366.52	117.03
366.72	168.52
366.91	67.88
367.11	114.69
367.31	159.16
367.51	189.58
367.70	180.22
367.90	177.88
368.10	119.37
368.30	79.58
368.49	138.09
368.69	142.77
368.89	112.35
369.09	205.97
369.28	173.20
369.48	215.33
369.68	184.90
369.87	175.54
370.07	173.20
370.27	229.37
370.47	330.02
370.66	554.71
370.86	653.01
371.06	676.41
371.25	704.50
371.45	697.48
371.65	685.78
371.84	699.82
372.04	751.31
372.24	725.57
372.44	688.12
372.63	744.29
372.83	681.10
373.03	814.51
373.22	720.88
373.42	805.14
373.62	744.29
373.81	786.42
374.01	851.96
374.21	791.10
374.40	723.23
374.60	851.96
374.79	793.44
374.99	842.59
375.19	805.14
375.38	896.43
375.58	814.51
375.78	858.98
375.97	826.21
376.17	957.28
376.37	936.21
376.56	891.74
376.76	837.91
376.95	931.53
377.15	933.87
377.35	868.34
377.54	929.19
377.74	837.91
377.93	908.13
378.13	950.26
378.33	952.60
378.52	870.68
378.72	847.27
378.91	973.66
379.11	854.30
379.31	959.62
379.50	910.47
379.70	915.15
379.89	915.15
380.09	894.08
380.28	908.13
380.48	987.71
380.68	987.71
380.87	961.96
381.07	1029.84
381.26	1008.77
381.46	950.26
381.65	1032.18
381.85	1001.75
382.04	1011.11
382.24	1046.22
382.43	1004.09
382.63	959.62
382.83	1078.99
383.02	1160.91
383.22	1156.22
383.41	1062.60
383.61	1060.26
383.80	1046.22
384.00	1100.05
384.19	1132.82
384.39	1100.05
384.58	1128.14
384.78	1137.50
384.97	1156.22
385.17	1107.07
385.36	1252.19
385.56	1231.12
385.75	1144.52
385.95	1118.78
386.14	1137.50
386.34	1132.82
386.53	1146.86
386.72	1132.82
386.92	1158.57
387.11	1226.44
387.31	1200.69
387.50	1256.87
387.70	1217.08
387.89	1219.42
388.09	1247.51
388.28	1226.44
388.48	1277.93
388.67	1261.55
388.86	1296.66
389.06	1322.40
389.25	1385.60
389.45	1345.81
389.64	1322.40
389.84	1383.26
390.03	1378.58
390.22	1320.06
390.42	1439.43
390.61	1226.44
390.81	1383.26
391.00	1378.58
391.19	1355.17
391.39	1458.15
391.58	1488.58
391.78	1500.28
391.97	1483.90
392.16	1348.15
392.36	1523.69
392.55	1577.52
392.75	1495.60
392.94	1514.33
393.13	1483.90
393.33	1521.35
393.52	1434.75
393.71	1504.96
393.91	1633.69
394.10	1572.84
394.29	1633.69
394.49	1619.65
394.68	1703.91
394.88	1551.78
395.07	1640.72
395.26	1717.95
395.46	1638.38
395.65	1593.90
395.84	1664.12
396.04	1760.08
396.23	1687.53
396.42	1668.80
396.62	1748.38
396.81	1781.15
397.00	1713.27
397.19	1802.21
397.39	1767.10
397.58	1830.30
397.77	1820.94
397.97	1839.66
398.16	1760.08
398.35	1912.22
398.55	1809.23
398.74	1874.77
398.93	1935.62
399.12	1870.09
399.32	1905.20
399.51	1905.20
399.70	1977.75
399.90	1898.17
400.09	2026.90
400.28	2031.58
400.47	2033.93
400.67	2045.63
400.86	1947.33
401.05	1947.33
401.24	2015.20
401.44	2162.66
401.63	2120.53
401.82	2040.95
402.01	2106.48
402.21	2197.76
402.40	2167.34
402.59	2113.50
402.78	2230.53
402.97	2235.21
403.17	2328.83
403.36	2202.44
403.55	2272.66
403.74	2401.39
403.93	2363.94
404.13	2476.29
404.32	2319.47
404.51	2263.30
404.70	2359.26
404.89	2359.26
405.09	2520.76
405.28	2377.98
405.47	2333.51
405.66	2422.45
405.85	2450.54
406.05	2436.50
406.24	2590.97
406.43	2483.31
406.62	2523.10
406.81	2574.59
407.00	2546.50
407.20	2567.57
407.39	2579.27
407.58	2661.19
407.77	2593.31
407.96	2803.96
408.15	2815.66
408.34	2857.79
408.54	2684.59
408.73	2766.51
408.92	2803.96
409.11	2928.01
409.30	2855.45
409.49	2810.98
409.68	2822.69
409.87	2855.45
410.07	2960.78
410.26	2998.23
410.45	2963.12
410.64	2995.89
410.83	3028.65
411.02	3023.97
411.21	3208.87
411.40	3052.06
411.59	3227.60
411.78	3164.40
411.98	3222.92
412.17	3311.86
412.36	3239.30
412.55	3332.92
412.74	3358.67
412.93	3356.33
413.12	3328.24
413.31	3454.63
413.50	3585.70
413.69	3449.95
413.88	3595.06
414.07	3597.40
414.26	3625.49
414.45	3674.64
414.64	3559.95
414.83	3616.13
415.02	3836.14
415.22	3810.39
415.41	3754.22
415.60	3824.44
415.79	3922.74
415.98	3964.87
416.17	3838.48
416.36	3899.33
416.55	3889.97
416.74	4032.74
416.93	4105.30
417.12	4037.42
417.31	4189.56
417.50	4212.96
417.69	4264.46
417.88	4290.20
418.07	4292.54
418.26	4252.75
418.45	4306.59
418.64	4327.65
418.83	4395.53
419.02	4470.42
419.21	4482.13
419.39	4442.34
419.58	4489.15
419.77	4528.94
419.96	4479.79
420.15	4390.84
420.34	4468.08
420.53	4561.70
420.72	4641.28
420.91	4730.22
421.10	4697.46
421.29	4660.01
421.48	4760.65
421.67	4812.14
421.86	4695.11
422.05	4884.70
422.24	4643.62
422.43	4964.28
422.61	4826.18
422.80	4910.44
422.99	4957.25
423.18	4856.61
423.37	4933.85
423.56	4905.76
423.75	4830.87
423.94	4903.42
424.13	4716.18
424.32	4678.73
424.50	4898.74
424.69	5018.11
424.88	5053.22
425.07	4964.28
425.26	4882.36
425.45	4905.76
425.64	4931.51
425.83	4980.66
426.01	4957.25
426.20	4971.30
426.39	5081.30
426.58	4994.70
426.77	4950.23
426.96	5128.11
427.15	5053.22
427.33	5050.88
427.52	5130.45
427.71	5170.24
427.90	5109.39
428.09	5210.03
428.28	5444.09
428.46	5327.06
428.65	5355.15
428.84	5322.38
429.03	5493.24
429.22	5221.74
429.40	5317.70
429.59	5582.18
429.78	5275.57
429.97	5207.69
430.16	5338.76
430.34	5659.42
430.53	5603.24
430.72	5647.71
430.91	5437.06
431.10	5357.49
431.28	5671.12
431.47	5851.34
431.66	5823.25
431.85	5811.55
432.03	5900.49
432.22	5956.66
432.41	5863.04
432.60	5846.66
432.79	5813.89
432.97	6001.13
433.16	6029.22
433.35	6043.26
433.54	6012.84
433.72	6019.86
433.91	6029.22
434.10	6169.65
434.28	6122.84
434.47	6136.88
434.66	6092.41
434.85	6328.81
435.03	6122.84
435.22	6209.44
435.41	6445.84
435.59	6349.87
435.78	6235.19
435.97	6429.45
436.16	6289.02
436.34	6342.85
436.53	6583.93
436.72	6619.04
436.90	6509.03
437.09	6619.04
437.28	6438.81
437.46	6464.56
437.65	6593.29
437.84	6635.42
438.02	6799.26
438.21	6747.76
438.40	6562.86
438.58	6827.34
438.77	7000.54
438.96	6794.58
439.14	6993.52
439.33	7222.89
439.52	6953.73
439.70	7129.27
439.89	7344.60
440.08	7126.93
440.26	7220.55
440.45	7253.32
440.63	7440.56
440.82	7391.41
441.01	7492.05
441.19	7506.10
441.38	7595.04
441.57	7531.84
441.75	7744.83
441.94	7826.75
442.12	7939.10
442.31	7772.92
442.50	7960.16
442.68	7964.84
442.87	7885.26
443.05	8032.72
443.24	8280.82
443.43	8013.99
443.61	8109.96
443.80	8463.38
443.98	7981.23
444.17	7815.05
444.35	8168.47
444.54	8358.05
444.73	8489.12
444.91	8243.37
445.10	8360.39
445.28	8212.94
445.47	8397.84
445.65	8381.46
445.84	8334.65
446.02	8313.58
446.21	8280.82
446.39	8180.17
446.58	8273.79
446.77	8301.88
446.95	8205.92
447.14	8468.06
447.32	8428.27
447.51	8215.28
447.69	8346.35
447.88	8297.20
448.06	8322.94
448.25	8503.17
448.43	8383.80
448.62	8603.81
448.80	8390.82
448.99	8547.64
449.17	8538.27
449.36	8592.11
449.54	8557.00
449.73	8891.70
449.91	8940.85
450.10	8915.10
450.28	8919.78
450.46	8973.61
450.65	9046.17
450.83	9128.09
451.02	9027.45
451.20	9121.07
451.39	9029.79
451.57	8952.55
451.76	8978.30
451.94	8990.00
452.13	9291.93
452.31	9139.79
452.49	9163.20
452.68	9256.82
452.86	9362.14
453.05	9511.94
453.23	9366.82
453.42	9399.59
453.60	9277.88
453.78	9411.29
453.97	9474.49
454.15	9280.22
454.34	9322.35
454.52	9439.38
454.70	9467.47
454.89	9713.22
455.07	9638.33
455.26	9724.93
455.44	9699.18
455.62	9682.80
455.81	10010.47
455.99	9825.57
456.17	10111.11
456.36	9923.87
456.54	10080.69
456.73	10024.51
456.91	10373.25
457.09	10431.77
457.28	10487.94
457.46	10167.29
457.64	10333.47
457.83	10480.92
458.01	10406.02
458.19	10775.83
458.38	10487.94
458.56	10633.05
458.74	10406.02
458.93	10572.20
459.11	10504.32
459.29	10647.10
459.48	10714.97
459.66	10855.40
459.84	10902.22
460.03	10806.25
460.21	10860.09
460.39	10705.61
460.57	11007.54
460.76	11068.39
460.94	11108.18
461.12	11096.48
461.31	11218.19
461.49	10885.83
461.67	11014.56
461.85	11335.21
462.04	11267.34
462.22	11609.06
462.40	11403.09
462.59	11379.68
462.77	11372.66
462.95	11623.10
463.13	11473.31
463.32	11639.48
463.50	11726.08
463.68	11569.27
463.86	11580.97
464.05	11728.42
464.23	11705.02
464.41	11730.76
464.59	11716.72
464.78	11962.48
464.96	11852.47
465.14	11964.82
465.32	12065.46
465.50	11953.12
465.69	12042.06
465.87	12173.13
466.05	12142.70
466.23	12128.66
466.41	12039.72
466.60	12304.20
466.78	11927.37
466.96	12203.55
467.14	11981.20
467.32	12435.27
467.51	12334.62
467.69	11864.18
467.87	12196.53
468.05	12585.06
468.23	12301.86
468.41	12461.01
468.60	12465.69
468.78	12732.51
468.96	12369.73
469.14	12692.73
469.32	13006.36
469.50	12280.79
469.69	12774.64
469.87	12987.63
470.05	13057.85
470.23	12879.97
470.41	13055.51
470.59	13266.16
470.77	12980.61
470.95	13013.38
471.14	13195.94
471.32	12903.37
471.50	13446.38
471.68	13537.66
471.86	13364.46
472.04	13626.60
472.22	13710.86
472.40	13572.77
472.58	13713.20
472.77	13830.23
472.95	13944.91
473.13	14487.92
473.31	13724.90
473.49	13987.04
473.67	14223.44
473.85	14174.28
474.03	14429.40
474.21	14487.92
474.39	14459.83
474.57	14483.24
474.75	14572.18
474.93	15000.49
475.12	14904.53
475.30	15075.39
475.48	14965.39
475.66	15005.17
475.84	14707.93
476.02	15475.62
476.20	15325.83
476.38	15363.28
476.56	16030.33
476.74	15868.83
476.92	15962.45
477.10	15810.32
477.28	15859.47
477.46	15817.34
477.64	16079.48
477.82	16472.69
478.00	16528.86
478.18	16475.03
478.36	16748.87
478.54	16999.31
478.72	17123.36
478.90	16980.59
479.08	17231.02
479.26	17429.97
479.44	17621.89
479.62	17631.26
479.80	17881.69
479.98	17998.72
480.16	18401.29
480.34	18237.45
480.52	18841.31
480.70	18434.06
480.88	18118.09
481.06	18665.77
481.24	18562.79
481.41	18817.91
481.59	18813.23
481.77	19351.55
481.95	19424.11
482.13	19499.00
482.31	19332.82
482.49	20065.41
482.67	19967.11
482.85	20123.93
483.03	20568.63
483.21	20737.15
483.39	20751.19
483.57	20491.39
483.74	20833.11
483.92	21099.93
484.10	21081.21
484.28	21345.69
484.46	22064.23
484.64	22253.81
484.82	21823.16
485.00	22256.15
485.18	22342.75
485.35	22780.43
485.53	22642.34
485.71	22792.14
485.89	23124.49
486.07	23187.69
486.25	23115.13
486.43	23325.78
486.61	23864.10
486.78	23889.85
486.96	23990.49
487.14	24229.23
487.32	24503.07
487.50	24716.06
487.68	24615.41
487.85	24982.88
488.03	25544.61
488.21	25762.28
488.39	25427.58
488.57	25883.98
488.75	26176.55
488.92	26302.94
489.10	26534.65
489.28	26352.09
489.46	26944.25
489.64	26714.87
489.81	27445.12
489.99	27332.78
490.17	27534.06
490.35	28084.09
490.53	28170.69
490.70	27854.72
490.88	28037.28
491.06	28559.22
491.24	28503.04
491.41	28849.44
491.59	28762.84
491.77	29120.95
491.95	29076.48
492.13	29352.66
492.30	29537.56
492.48	29832.47
492.66	29752.89
492.84	29921.41
493.01	30693.79
493.19	30433.99
493.37	30883.37
493.54	30808.47
493.72	31269.56
493.90	31417.01
494.08	31391.26
494.25	31470.84
494.43	31489.57
494.61	32095.77
494.79	32418.76
494.96	31920.23
495.14	32694.94
495.32	32474.93
495.49	33113.90
495.67	33010.92
495.85	33097.52
496.02	33273.06
496.20	33750.52
496.38	33900.32
496.55	34202.25
496.73	34618.86
496.91	34483.11
497.09	34630.57
497.26	34761.64
497.44	34398.85
497.62	34672.70
497.79	35229.74
497.97	35548.06
498.14	35653.38
498.32	36133.19
498.50	36074.68
498.67	36318.09
498.85	36411.71
499.03	36226.81
499.20	36774.50
499.38	36842.37
499.56	36814.29
499.73	36643.43
499.91	36870.46
500.08	37572.62
500.26	37345.59
500.44	37544.53
500.61	37752.84
500.79	37579.64
500.97	37914.34
501.14	38330.95
501.32	38293.50
501.49	38017.32
501.67	38534.58
501.84	38490.11
502.02	39131.42
502.20	38836.51
502.37	38838.85
502.55	38792.04
502.72	39295.25
502.90	39180.57
503.07	39012.05
503.25	39466.11
503.43	39374.83
503.60	39749.32
503.78	40245.51
503.95	40201.04
504.13	40280.62
504.30	40163.59
504.48	40320.41
504.65	40577.87
504.83	40587.23
505.01	40722.98
505.18	40758.09
505.36	41532.81
505.53	41188.75
505.71	40786.18
505.88	41652.17
506.06	41443.87
506.23	41415.78
506.41	41350.24
506.58	41701.32
506.76	41738.77
506.93	42312.20
507.11	41551.53
507.28	41886.23
507.46	42267.73
507.63	42834.14
507.81	42777.97
507.98	42658.60
508.16	42586.05
508.33	42845.85
508.50	43735.25
508.68	42911.38
508.85	43414.60
509.03	43669.72
509.20	43533.96
509.38	44170.59
509.55	44222.08
509.73	44692.53
509.90	44067.61
510.08	44177.61
510.25	44095.69
510.42	44439.75
510.60	44914.88
510.77	44821.26
510.95	45118.51
511.12	44383.58
511.30	45092.76
511.47	45237.87
511.64	45530.44
511.82	45687.26
511.99	45064.67
512.17	45801.94
512.34	45715.34
512.51	45865.14
512.69	45799.60
512.86	45902.59
513.04	46234.94
513.21	46398.78
513.38	46251.33
513.56	46745.18
513.73	45986.85
513.90	46436.23
514.08	46681.98
514.25	46639.86
514.43	47035.41
514.60	47004.98
514.77	46698.37
514.95	47327.97
515.12	47545.64
515.29	47241.37
515.47	47517.56
515.64	47737.57
515.81	47714.16
515.99	47913.11
516.16	48292.27
516.33	47657.99
516.51	48093.33
516.68	47854.59
516.85	48432.71
517.03	48409.30
517.20	48774.42
517.37	48453.77
517.54	48430.36
517.72	48575.48
517.89	48898.47
518.06	48678.46
518.24	49066.99
518.41	48877.41
518.58	48989.75
518.75	49237.85
518.93	49186.36
519.10	48987.41
519.27	49198.06
519.45	49427.43
519.62	49305.73
519.79	49830.01
519.96	49532.76
520.14	49902.56
520.31	49579.57
520.48	49762.13
520.65	50389.39
520.83	50293.43
521.00	50424.50
521.17	50253.64
521.34	50370.67
521.52	50644.51
521.69	50270.03
521.86	50674.94
522.03	51079.85
522.20	51033.04
522.38	51112.62
522.55	50918.35
522.72	50855.16
522.89	50719.41
523.07	51629.88
523.24	51531.57
523.41	51206.24
523.58	51030.70
523.75	51966.91
523.92	51571.36
524.10	51622.86
524.27	51407.53
524.44	51772.65
524.61	51695.41
524.78	51786.69
524.96	52090.96
525.13	52053.51
525.30	52112.03
525.47	52175.22
525.64	52240.76
525.81	52357.78
525.98	52247.78
526.16	52624.60
526.33	52193.95
526.50	52802.49
526.67	52385.87
526.84	52507.58
527.01	52493.54
527.18	52397.57
527.36	52769.72
527.53	52832.91
527.70	53057.60
527.87	53020.16
528.04	53076.33
528.21	52893.77
528.38	52949.94
528.55	53146.54
528.72	53099.73
528.89	53319.74
529.07	52879.72
529.24	53205.06
529.41	53584.22
529.58	53478.90
529.75	53563.16
529.92	53483.58
530.09	53645.08
530.26	53553.80
530.43	53785.51
530.60	53420.39
530.77	53476.56
530.94	53839.34
531.11	53673.16
531.28	53734.02
531.46	53916.58
531.63	54092.12
531.80	53827.64
531.97	54213.83
532.14	54145.95
532.31	54248.94
532.48	54176.38
532.65	54408.09
532.82	54270.00
532.99	54635.13
533.16	54405.75
533.33	54850.45
533.50	54721.72
533.67	54506.40
533.84	54387.03
534.01	54733.43
534.18	54681.94
534.35	55089.19
534.52	54843.43
534.69	54883.22
534.86	54979.18
535.03	54731.09
535.20	54885.56
535.37	55086.85
535.54	55051.74
535.71	54775.56
535.88	55086.85
536.05	55187.49
536.22	55377.08
536.38	55206.22
536.55	55187.49
536.72	55309.20
536.89	55391.12
537.06	55391.12
537.23	55571.34
537.40	55391.12
537.57	55660.28
537.74	55592.40
537.91	55859.23
538.08	55641.56
538.25	55337.29
538.42	55793.69
538.59	55964.55
538.75	55515.17
538.92	55845.18
539.09	55723.47
539.26	55910.72
539.43	55789.01
539.60	55959.87
539.77	55899.01
539.94	56250.09
540.11	56079.24
540.28	56133.07
540.44	56467.76
540.61	56016.04
540.78	56259.46
540.95	56154.13
541.12	56044.13
541.29	56392.87
541.46	56477.13
541.62	56296.91
541.79	56573.09
541.96	56348.40
542.13	56261.80
542.30	56282.86
542.47	56776.72
542.63	56388.19
542.80	56687.78
542.97	56835.23
543.14	56893.74
543.31	57013.11
543.48	56722.88
543.64	56949.92
543.81	57347.81
543.98	57174.61
544.15	57066.94
544.32	57038.86
544.48	57258.87
544.65	57127.80
544.82	57467.17
544.99	56947.57
545.16	57024.81
545.32	57165.24
545.49	57691.86
545.66	57544.41
545.83	57436.75
546.00	57551.43
546.16	57434.41
546.33	57289.29
546.50	57113.75
546.67	57464.83
546.83	57160.56
547.00	57483.56
547.17	57261.21
547.34	57499.94
547.50	57605.26
547.67	57972.73
547.84	57865.06
548.00	57790.17
548.17	58021.88
548.34	58049.97
548.51	57874.43
548.67	58305.09
548.84	57804.21
549.01	57804.21
549.18	57839.32
549.34	58141.25
549.51	57942.30
549.68	58284.02
549.84	58166.99
550.01	58281.68
550.18	57879.11
550.34	58230.19
550.51	58262.96
550.68	58227.85
550.84	58134.23
551.01	58330.83
551.18	58166.99
551.34	58178.70
551.51	58258.27
551.68	58321.47
551.84	58356.58
552.01	58370.62
552.18	58501.69
552.34	58342.53
552.51	58803.62
552.68	58326.15
552.84	58611.70
553.01	58784.90
553.18	58714.68
553.34	58714.68
553.51	58459.56
553.67	58670.21
553.84	58642.12
554.01	58653.82
554.17	58885.54
554.34	58927.67
554.51	58766.17
554.67	59000.22
554.84	58930.01
555.00	58564.88
555.17	58838.73
555.33	58948.73
555.50	58761.49
555.67	59018.95
555.83	58944.05
556.00	59096.19
556.16	59107.89
556.33	59040.01
556.50	58948.73
556.66	59224.92
556.83	59025.97
556.99	59025.97
557.16	59007.25
557.32	59365.35
557.49	59426.20
557.65	59070.44
557.82	59353.65
557.98	59138.32
558.15	59213.21
558.32	59407.48
558.48	59297.47
558.65	59353.65
558.81	59231.94
558.98	59489.40
559.14	59508.12
559.31	59508.12
559.47	59440.24
559.64	59494.08
559.80	59503.44
559.97	59381.73
560.13	59468.33
560.30	59435.56
560.46	59524.50
560.63	59695.36
560.79	59545.57
560.96	59641.53
561.12	59772.60
561.29	59508.12
561.45	59772.60
561.61	59639.19
561.78	59704.73
561.94	59709.41
562.11	59545.57
562.27	59423.86
562.44	59716.43
562.60	59875.58
562.77	59810.05
562.93	59723.45
563.10	59737.49
563.26	59643.87
563.42	60100.28
563.59	59805.37
563.75	59704.73
563.92	59817.07
564.08	59786.64
564.24	60081.55
564.41	59945.80
564.57	60046.44
564.74	59803.03
564.90	59786.64
565.07	59973.89
565.23	59826.43
565.39	59859.20
565.56	60027.72
565.72	59807.71
565.88	60023.04
566.05	60090.91
566.21	59901.33
566.38	60102.62
566.54	60233.69
566.70	60392.84
566.87	60009.00
567.03	59889.63
567.19	60247.73
567.36	60018.36
567.52	59957.50
567.68	60374.12
567.85	60018.36
568.01	60236.03
568.17	60048.78
568.34	60507.53
568.50	60090.91
568.66	60151.77
568.83	60224.32
568.99	60039.42
569.15	60339.01
569.32	60191.56
569.48	59962.18
569.64	60212.62
569.81	60385.82
569.97	59873.24
570.13	60273.48
570.30	60030.06
570.46	60402.21
570.62	60486.46
570.78	60516.89
570.95	60294.54
571.11	60514.55
571.27	60303.90
571.43	60441.99
571.60	60266.45
571.76	60144.75
571.92	60418.59
572.09	60266.45
572.25	60399.86
572.41	60212.62
572.57	60526.25
572.74	60629.24
572.90	60329.65
573.06	60306.24
573.22	60285.18
573.38	60495.83
573.55	60348.37
573.71	60676.05
573.87	60463.06
574.03	60390.50
574.20	60650.30
574.36	60523.91
574.52	60537.96
574.68	60526.25
574.84	60757.97
575.01	60465.40
575.17	60430.29
575.33	60331.99
575.49	60418.59
575.65	60652.64
575.82	60542.64
575.98	60575.40
576.14	60615.19
576.30	60708.82
576.46	60542.64
576.62	60666.69
576.79	60652.64
576.95	60584.77
577.11	60657.32
577.27	60687.75
577.43	60573.06
577.59	60582.43
577.75	60622.22
577.92	60470.08
578.08	60584.77
578.24	60589.45
578.40	60830.52
578.56	60645.62
578.72	60720.52
578.88	60879.67
579.04	60867.97
579.21	60582.43
579.37	60844.57
579.53	60912.44
579.69	60427.95
579.85	60612.85
580.01	60704.13
580.17	60559.02
580.33	60821.16
580.49	60736.90
580.65	60479.44
580.82	60362.42
580.98	60671.37
581.14	60645.62
581.30	60760.31
581.46	60748.60
581.62	60743.92
581.78	60729.88
581.94	60676.05
582.10	60699.45
582.26	60694.77
582.42	60814.14
582.58	60968.61
582.74	60884.36
582.90	60743.92
583.06	60699.45
583.22	60849.25
583.38	60666.69
583.54	60811.80
583.70	60617.53
583.86	60844.57
584.02	60561.36
584.18	60898.40
584.34	60863.29
584.50	60935.85
584.66	60687.75
584.82	60484.12
584.98	60956.91
585.14	60856.27
585.30	60779.03
585.46	60753.29
585.62	60720.52
585.78	61073.94
585.94	60650.30
586.10	60767.33
586.26	60839.89
586.42	60910.10
586.58	60860.95
586.74	60949.89
586.90	60999.04
587.06	60720.52
587.22	60898.40
587.38	60830.52
587.54	60879.67
587.70	61197.99
587.86	60776.69
588.02	60788.39
588.18	60940.53
588.34	60818.82
588.49	60814.14
