SpectraSuite Data File
++++++++++++++++++++++++++++++++++++
Date: Fri Oct 25 11:22:40 EDT 2013
User: price-jones
Dark Spectrum Present: No
Reference Spectrum Present: No
Number of Sampled Component Spectra: 1
Spectrometers: USB2+H05261
Integration Time (usec): 100000 (USB2+H05261)
Spectra Averaged: 1 (USB2+H05261)
Boxcar Smoothing: 0 (USB2+H05261)
Correct for Electrical Dark: No (USB2+H05261)
Strobe/Lamp Enabled: No (USB2+H05261)
Correct for Detector Non-linearity: No (USB2+H05261)
Correct for Stray Light: No (USB2+H05261)
Number of Pixels in Processed Spectrum: 2048
>>>>>Begin Processed Spectral Data<<<<<
365.73	208.31
365.92	208.31
366.12	208.31
366.32	126.39
366.52	100.64
366.72	84.26
366.91	98.30
367.11	110.01
367.31	74.90
367.51	88.94
367.70	46.81
367.90	140.43
368.10	159.16
368.30	98.30
368.49	121.71
368.69	142.77
368.89	126.39
369.09	175.54
369.28	189.58
369.48	168.52
369.68	212.99
369.87	152.13
370.07	205.97
370.27	175.54
370.47	262.14
370.66	566.41
370.86	594.50
371.06	667.05
371.25	613.22
371.45	683.44
371.65	683.44
371.84	732.59
372.04	739.61
372.24	753.65
372.44	695.14
372.63	730.25
372.83	800.46
373.03	748.97
373.22	777.06
373.42	763.01
373.62	709.18
373.81	765.36
374.01	828.55
374.21	840.25
374.40	744.29
374.60	709.18
374.79	793.44
374.99	856.64
375.19	828.55
375.38	774.72
375.58	851.96
375.78	847.27
375.97	896.43
376.17	847.27
376.37	884.72
376.56	851.96
376.76	912.81
376.95	898.77
377.15	840.25
377.35	875.36
377.54	875.36
377.74	922.17
377.93	903.45
378.13	976.00
378.33	950.26
378.52	947.92
378.72	954.94
378.91	868.34
379.11	964.30
379.31	938.55
379.50	973.66
379.70	1008.77
379.89	926.85
380.09	1057.92
380.28	992.39
380.48	980.68
380.68	971.32
380.87	940.90
381.07	994.73
381.26	936.21
381.46	1011.11
381.65	973.66
381.85	1102.39
382.04	1057.92
382.24	987.71
382.43	1022.81
382.63	1116.44
382.83	1041.54
383.02	1055.58
383.22	1137.50
383.41	1029.84
383.61	1076.65
383.80	1090.69
384.00	1125.80
384.19	1177.29
384.39	1240.48
384.58	1123.46
384.78	1128.14
384.97	1226.44
385.17	1146.86
385.36	1165.59
385.56	1165.59
385.75	1090.69
385.95	1200.69
386.14	1205.38
386.34	1135.16
386.53	1177.29
386.72	1277.93
386.92	1165.59
387.11	1214.74
387.31	1273.25
387.50	1284.95
387.70	1207.72
387.89	1160.91
388.09	1308.36
388.28	1249.85
388.48	1327.08
388.67	1200.69
388.86	1315.38
389.06	1357.51
389.25	1420.71
389.45	1280.27
389.64	1334.11
389.84	1364.53
390.03	1380.92
390.22	1313.04
390.42	1320.06
390.61	1336.45
390.81	1397.30
391.00	1427.73
391.19	1444.11
391.39	1406.66
391.58	1418.36
391.78	1385.60
391.97	1493.26
392.16	1376.24
392.36	1568.16
392.55	1516.67
392.75	1638.38
392.94	1537.73
393.13	1542.41
393.33	1614.97
393.52	1509.65
393.71	1500.28
393.91	1526.03
394.10	1533.05
394.29	1591.56
394.49	1575.18
394.68	1671.14
394.88	1680.50
395.07	1640.72
395.26	1685.19
395.46	1633.69
395.65	1685.19
395.84	1741.36
396.04	1739.02
396.23	1776.47
396.42	1853.70
396.62	1760.08
396.81	1837.32
397.00	1762.42
397.19	1785.83
397.39	1762.42
397.58	1830.30
397.77	1762.42
397.97	1886.47
398.16	1783.49
398.35	1881.79
398.55	1856.04
398.74	1912.22
398.93	1830.30
399.12	1891.15
399.32	1886.47
399.51	1926.26
399.70	1921.58
399.90	2010.52
400.09	2106.48
400.28	2059.67
400.47	2045.63
400.67	2132.23
400.86	2097.12
401.05	2097.12
401.24	2057.33
401.44	2050.31
401.63	2193.08
401.82	2083.08
402.01	2050.31
402.21	2200.10
402.40	2186.06
402.59	2031.58
402.78	2139.25
402.97	2246.91
403.17	2197.76
403.36	2319.47
403.55	2289.04
403.74	2235.21
403.93	2321.81
404.13	2345.22
404.32	2361.60
404.51	2345.22
404.70	2471.61
404.89	2305.43
405.09	2408.41
405.28	2485.65
405.47	2466.92
405.66	2448.20
405.85	2497.35
406.05	2420.11
406.24	2656.51
406.43	2656.51
406.62	2558.21
406.81	2651.83
407.00	2562.89
407.20	2623.74
407.39	2555.86
407.58	2672.89
407.77	2766.51
407.96	2841.41
408.15	2857.79
408.34	2616.72
408.54	2813.32
408.73	2759.49
408.92	2745.45
409.11	2958.44
409.30	2834.39
409.49	2988.86
409.68	2916.31
409.87	2953.76
410.07	3075.46
410.26	3019.29
410.45	3080.14
410.64	3028.65
410.83	2970.14
411.02	3143.34
411.21	3119.93
411.40	3108.23
411.59	3143.34
411.78	3096.53
411.98	3218.24
412.17	3307.18
412.36	3337.60
412.55	3365.69
412.74	3506.12
412.93	3274.41
413.12	3471.01
413.31	3499.10
413.50	3442.93
413.69	3485.06
413.88	3632.51
414.07	3583.36
414.26	3590.38
414.45	3679.32
414.64	3782.31
414.83	3693.37
415.02	3714.43
415.22	3831.46
415.41	3871.25
415.60	4002.32
415.79	3950.82
415.98	4011.68
416.17	3981.25
416.36	4072.53
416.55	4004.66
416.74	4133.39
416.93	4128.70
417.12	4004.66
417.31	4081.89
417.50	4149.77
417.69	4393.19
417.88	4327.65
418.07	4311.27
418.26	4318.29
418.45	4238.71
418.64	4332.33
418.83	4428.29
419.02	4463.40
419.21	4629.58
419.39	4540.64
419.58	4615.54
419.77	4507.87
419.96	4568.73
420.15	4660.01
420.34	4528.94
420.53	4823.84
420.72	4777.03
420.91	4587.45
421.10	4851.93
421.29	4887.04
421.48	4683.41
421.67	4861.29
421.86	4929.17
422.05	4896.40
422.24	4690.43
422.43	4919.81
422.61	4966.62
422.80	5048.54
422.99	5006.41
423.18	5015.77
423.37	5221.74
423.56	5025.13
423.75	4933.85
423.94	4915.12
424.13	4589.79
424.32	4807.46
424.50	4990.02
424.69	5093.01
424.88	5076.62
425.07	5076.62
425.26	5067.26
425.45	4985.34
425.64	4997.04
425.83	4983.00
426.01	5048.54
426.20	5041.51
426.39	5027.47
426.58	5039.17
426.77	4940.87
426.96	5139.82
427.15	5268.55
427.33	5303.65
427.52	5069.60
427.71	5261.52
427.90	5327.06
428.09	5305.99
428.28	5371.53
428.46	5341.10
428.65	5334.08
428.84	5497.92
429.03	5500.26
429.22	5385.57
429.40	5523.66
429.59	5497.92
429.78	5210.03
429.97	5425.36
430.16	5521.32
430.34	5717.93
430.53	5722.61
430.72	5565.79
430.91	5425.36
431.10	5603.24
431.28	5701.54
431.47	5823.25
431.66	5870.06
431.85	5692.18
432.03	6022.20
432.22	6003.47
432.41	5926.24
432.60	5977.73
432.79	5926.24
432.97	6015.18
433.16	6047.94
433.35	6277.32
433.54	6164.97
433.72	6087.73
433.91	6202.42
434.10	6127.52
434.28	6207.10
434.47	6218.80
434.66	6424.77
434.85	6427.11
435.03	6382.64
435.22	6415.41
435.41	6506.69
435.59	6424.77
435.78	6511.37
435.97	6473.92
436.16	6502.01
436.34	6284.34
436.53	6623.72
436.72	6789.89
436.90	6382.64
437.09	6757.13
437.28	6420.09
437.46	6553.50
437.65	6588.61
437.84	6815.64
438.02	6857.77
438.21	6876.49
438.40	6775.85
438.58	7028.63
438.77	6998.20
438.96	6988.84
439.14	7171.40
439.33	7152.68
439.52	7145.66
439.70	7328.22
439.89	7318.86
440.08	7506.10
440.26	7508.44
440.45	7246.30
440.63	7293.11
440.82	7644.19
441.01	7550.57
441.19	7564.61
441.38	7770.58
441.57	7632.49
441.75	7847.82
441.94	7985.91
442.12	7967.18
442.31	8124.00
442.50	8116.98
442.68	8105.28
442.87	8088.89
443.05	8126.34
443.24	8395.50
443.43	8114.64
443.61	8208.26
443.80	8470.40
443.98	8018.68
444.17	7786.96
444.35	8341.67
444.54	8486.78
444.73	8484.44
444.91	8329.97
445.10	8580.40
445.28	8365.07
445.47	8301.88
445.65	8374.44
445.84	8564.02
446.02	8566.36
446.21	8395.50
446.39	8486.78
446.58	8568.70
446.77	8704.45
446.95	8215.28
447.14	8554.66
447.32	8856.59
447.51	8479.76
447.69	8411.89
447.88	8428.27
448.06	8547.64
448.25	8514.87
448.43	8655.30
448.62	8589.77
448.80	8564.02
448.99	8784.03
449.17	8678.71
449.36	8645.94
449.54	8730.20
449.73	9041.49
449.91	9151.49
450.10	8847.22
450.28	9060.21
450.46	9235.75
450.65	9310.65
450.83	9207.67
451.02	9078.94
451.20	9214.69
451.39	9249.80
451.57	9308.31
451.76	9144.47
451.94	9200.65
452.13	9444.06
452.31	9486.19
452.49	9188.94
452.68	9458.10
452.86	9334.06
453.05	9408.95
453.23	9521.30
453.42	9362.14
453.60	9460.45
453.78	9727.27
453.97	9537.68
454.15	9827.91
454.34	9533.00
454.52	9748.33
454.70	9858.34
454.89	9659.39
455.07	9650.03
455.26	9741.31
455.44	9764.72
455.62	10033.88
455.81	9937.91
455.99	10090.05
456.17	10120.48
456.36	10076.01
456.54	10387.30
456.73	10455.17
456.91	10387.30
457.09	10354.53
457.28	10525.39
457.46	10270.27
457.64	10691.57
457.83	10619.01
458.01	10494.96
458.19	10946.69
458.38	10672.84
458.56	10736.04
458.74	10644.76
458.93	10576.88
459.11	10817.96
459.29	10757.10
459.48	10836.68
459.66	11002.86
459.84	10998.18
460.03	11239.25
460.21	11103.50
460.39	11049.67
460.57	11124.57
460.76	11073.07
460.94	11485.01
461.12	11454.58
461.31	11084.78
461.49	11337.56
461.67	11166.70
461.85	11611.40
462.04	11398.41
462.22	11894.60
462.40	11679.27
462.59	11719.06
462.77	11517.78
462.95	11517.78
463.13	11681.61
463.32	11632.46
463.50	11885.24
463.68	11887.58
463.86	12081.85
464.05	11686.29
464.23	11772.89
464.41	11946.09
464.59	11826.73
464.78	12053.76
464.96	12133.34
465.14	11948.43
465.32	12128.66
465.50	12123.98
465.69	12297.17
465.87	12351.01
466.05	12299.52
466.23	12065.46
466.41	12540.59
466.60	12315.90
466.78	12161.42
466.96	12191.85
467.14	12475.06
467.32	12479.74
467.51	12589.74
467.69	12215.26
467.87	12634.21
468.05	12805.07
468.23	12549.95
468.41	12442.29
468.60	12669.32
468.78	12573.36
468.96	12678.68
469.14	12931.46
469.32	12919.76
469.50	12741.88
469.69	13020.40
469.87	13020.40
470.05	13284.88
470.23	13209.98
470.41	13001.68
470.59	13355.10
470.77	13418.29
470.95	13617.24
471.14	13301.26
471.32	13146.79
471.50	13366.80
471.68	13734.26
471.86	13710.86
472.04	13872.36
472.22	14183.65
472.40	13834.91
472.58	13757.67
472.77	13968.32
472.95	13944.91
473.13	14930.28
473.31	14129.81
473.49	14225.78
473.67	14291.31
473.85	14284.29
474.03	14726.65
474.21	14593.24
474.39	14871.76
474.57	14696.22
474.75	15246.25
474.93	14967.73
475.12	15023.90
475.30	15253.27
475.48	15012.20
475.66	15293.06
475.84	15461.58
476.02	15487.32
476.20	15599.67
476.38	15992.88
476.56	16037.35
476.74	16046.71
476.92	16105.23
477.10	15875.85
477.28	16166.08
477.46	16472.69
477.64	16411.84
477.82	16402.47
478.00	17106.98
478.18	16910.37
478.36	16919.73
478.54	17165.49
478.72	17282.52
478.90	17558.70
479.08	17612.53
479.26	17930.84
479.44	17659.34
479.62	18157.88
479.80	18232.77
479.98	17954.25
480.16	18576.83
480.34	18562.79
480.52	18637.69
480.70	18792.16
480.88	18565.13
481.06	18977.06
481.24	18932.59
481.41	19199.41
481.59	19552.84
481.77	19719.01
481.95	19770.51
482.13	20004.56
482.31	19892.21
482.49	20395.43
482.67	20573.31
482.85	20360.32
483.03	20599.05
483.21	21125.68
483.39	21139.72
483.57	21092.91
483.74	21378.45
483.92	21649.96
484.10	21366.75
484.28	21717.83
484.46	22209.34
484.64	22586.17
484.82	21972.95
485.00	22349.78
485.18	23267.27
485.35	23124.49
485.53	22916.19
485.71	23183.01
485.89	23412.38
486.07	23571.54
486.25	23718.99
486.43	23730.69
486.61	24126.24
486.78	24376.68
486.96	24311.14
487.14	24765.21
487.32	24863.51
487.50	25146.72
487.68	24985.22
487.85	25397.15
488.03	25668.66
488.21	26199.96
488.39	25935.48
488.57	26314.64
488.75	26476.14
488.92	26806.16
489.10	26799.13
489.28	26899.78
489.46	27314.05
489.64	27190.00
489.81	27917.91
489.99	27955.36
490.17	28182.39
490.35	28350.91
490.53	28505.38
490.70	28538.15
490.88	28580.28
491.06	29125.63
491.24	29095.20
491.41	29336.27
491.59	29546.92
491.77	29434.58
491.95	29977.58
492.13	30391.86
492.30	29968.22
492.48	30057.16
492.66	30316.96
492.84	30895.07
493.01	31168.91
493.19	30974.65
493.37	31065.93
493.54	31288.28
493.72	31796.18
493.90	31976.40
494.08	31686.17
494.25	32371.95
494.43	32259.60
494.61	32802.61
494.79	32524.08
494.96	32999.21
495.14	33127.94
495.32	33366.68
495.49	33078.79
495.67	33507.11
495.85	33706.05
496.02	34366.09
496.20	34417.58
496.38	34197.57
496.55	34146.08
496.73	35267.19
496.91	34820.15
497.09	35030.80
497.26	34852.92
497.44	35028.46
497.62	35590.19
497.79	36102.76
497.97	35601.89
498.14	36673.85
498.32	36519.38
498.50	36718.32
498.67	37202.82
498.85	36645.77
499.03	36900.89
499.20	37088.13
499.38	37401.76
499.56	37675.60
499.73	37493.04
499.91	37570.28
500.08	38082.86
500.26	37626.45
500.44	38129.67
500.61	37909.66
500.79	37996.26
500.97	38595.43
501.14	39138.44
501.32	38869.28
501.49	39292.91
501.67	38850.55
501.84	39653.36
502.02	39543.35
502.20	39323.34
502.37	40119.12
502.55	39428.66
502.72	39779.74
502.90	39880.39
503.07	39906.13
503.25	40268.92
503.43	40203.38
503.60	40472.54
503.78	40545.10
503.95	40781.49
504.13	40828.30
504.30	40311.05
504.48	40481.91
504.65	41076.40
504.83	41502.38
505.01	41776.22
505.18	41773.88
505.36	41909.63
505.53	41696.64
505.71	41911.97
505.88	41911.97
506.06	41975.17
506.23	42099.22
506.41	42007.94
506.58	42440.93
506.76	42541.58
506.93	43140.75
507.11	42164.75
507.28	42848.19
507.46	43063.52
507.63	43138.41
507.81	43253.10
507.98	43430.98
508.16	43629.93
508.33	43716.53
508.50	43917.81
508.68	44130.80
508.85	44245.49
509.03	44465.50
509.20	44472.52
509.38	44341.45
509.55	44638.70
509.73	44758.06
509.90	44364.85
510.08	44779.13
510.25	44898.50
510.42	45277.66
510.60	45113.83
510.77	45214.47
510.95	45780.88
511.12	45207.45
511.30	45329.16
511.47	45830.03
511.64	45668.53
511.82	45773.86
511.99	46000.89
512.17	46679.64
512.34	46043.02
512.51	46691.35
512.69	46735.82
512.86	46440.91
513.04	47246.05
513.21	46988.60
513.38	46637.51
513.56	47349.04
513.73	47363.08
513.90	47311.59
514.08	47138.39
514.25	47540.96
514.43	47566.71
514.60	48332.06
514.77	47688.42
514.95	47859.27
515.12	48055.88
515.29	47531.60
515.47	47903.74
515.64	48451.43
515.81	48336.74
515.99	48729.95
516.16	49006.14
516.33	49226.15
516.51	49195.72
516.68	48968.69
516.85	48975.71
517.03	48996.77
517.20	49263.60
517.37	49551.48
517.54	49153.59
517.72	49057.63
517.89	49305.73
518.06	49593.61
518.24	49832.35
518.41	49455.52
518.58	49570.21
518.75	49303.38
518.93	49839.37
519.10	49539.78
519.27	49876.82
519.45	49872.14
519.62	50110.87
519.79	50344.92
519.96	49911.92
520.14	50295.77
520.31	50129.59
520.48	50571.96
520.65	50623.45
520.83	50916.01
521.00	50749.84
521.17	50576.64
521.34	51098.58
521.52	51047.08
521.69	51241.35
521.86	51096.24
522.03	51318.59
522.20	51540.94
522.38	51751.59
522.55	51746.90
522.72	51805.42
522.89	51657.96
523.07	51477.74
523.24	51620.52
523.41	52165.86
523.58	51849.89
523.75	52020.75
523.92	52058.20
524.10	51987.98
524.27	52472.47
524.44	52332.04
524.61	52151.82
524.78	52317.99
524.96	52596.52
525.13	52762.70
525.30	52893.77
525.47	52484.17
525.64	52636.31
525.81	52893.77
525.98	52914.83
526.16	52928.87
526.33	53085.69
526.50	53272.93
526.67	53193.36
526.84	53506.99
527.01	52928.87
527.18	52868.02
527.36	53179.31
527.53	53111.44
527.70	53514.01
527.87	53581.88
528.04	53195.70
528.21	53717.64
528.38	53822.96
528.55	53947.01
528.72	53567.84
528.89	53858.07
529.07	53635.72
529.24	53731.68
529.41	54293.41
529.58	54040.63
529.75	53813.60
529.92	54131.91
530.09	54127.23
530.26	54471.29
530.43	54143.61
530.60	54054.67
530.77	53813.60
530.94	54621.08
531.11	54019.56
531.28	54387.03
531.46	54618.74
531.63	54555.55
531.80	54597.68
531.97	54695.98
532.14	54782.58
532.31	54803.64
532.48	54850.45
532.65	54827.05
532.82	54548.53
532.99	54965.14
533.16	54733.43
533.33	55283.45
533.50	55047.06
533.67	54897.27
533.84	55224.94
534.01	55194.51
534.18	54880.88
534.35	55749.22
534.52	55255.37
534.69	55320.90
534.86	55344.31
535.03	55627.51
535.20	55473.04
535.37	55739.86
535.54	55641.56
535.71	55540.91
535.88	55625.17
536.05	55466.02
536.22	55777.31
536.38	55814.76
536.55	55835.82
536.72	55854.54
536.89	55744.54
537.06	55894.33
537.23	56095.62
537.40	55884.97
537.57	55807.73
537.74	56074.55
537.91	56123.71
538.08	56360.10
538.25	55952.85
538.42	56367.12
538.59	56247.75
538.75	56271.16
538.92	56278.18
539.09	56413.93
539.26	56493.51
539.43	56385.85
539.60	56491.17
539.77	56512.23
539.94	56573.09
540.11	56554.36
540.28	56559.05
540.44	56638.62
540.61	56521.60
540.78	56381.16
540.95	56624.58
541.12	56652.67
541.29	56776.72
541.46	56982.68
541.62	57013.11
541.79	56676.07
541.96	56619.90
542.13	56853.95
542.30	56774.37
542.47	57080.98
542.63	57116.09
542.80	57111.41
542.97	57301.00
543.14	57359.51
543.31	57399.30
543.48	57331.42
543.64	57654.42
543.81	57497.60
543.98	57396.96
544.15	57511.64
544.32	57525.69
544.48	57956.35
544.65	57703.57
544.82	57453.13
544.99	57364.19
545.16	57691.86
545.32	57483.56
545.49	57759.74
545.66	57865.06
545.83	57694.21
546.00	57813.57
546.16	58101.46
546.33	57834.64
546.50	57808.89
546.67	58005.50
546.83	57881.45
547.00	57951.66
547.17	57748.04
547.34	58064.01
547.50	58031.24
547.67	58248.91
547.84	58155.29
548.00	58337.85
548.17	58595.31
548.34	58337.85
548.51	58220.83
548.67	58534.46
548.84	58307.43
549.01	58106.14
549.18	58429.13
549.34	58358.92
549.51	58298.06
549.68	58365.94
549.84	58635.10
550.01	58497.01
550.18	58649.14
550.34	58609.35
550.51	58686.59
550.68	58597.65
550.84	58319.13
551.01	58644.46
551.18	58810.64
551.34	58831.71
551.51	58850.43
551.68	58642.12
551.84	58777.87
552.01	58611.70
552.18	58740.42
552.34	58726.38
552.51	59021.29
552.68	58885.54
552.84	58890.22
553.01	59145.34
553.18	58932.35
553.34	59079.80
553.51	58803.62
553.67	59096.19
553.84	59330.24
554.01	59105.55
554.17	59269.39
554.34	59344.28
554.51	58962.78
554.67	59220.23
554.84	59124.27
555.00	59377.05
555.17	59070.44
555.33	59180.45
555.50	59152.36
555.67	59253.00
555.83	59114.91
556.00	59292.79
556.16	59765.58
556.33	59451.95
556.50	59442.59
556.66	59634.51
556.83	59299.81
556.99	59667.28
557.16	59515.14
557.32	59709.41
557.49	59842.82
557.65	59363.01
557.82	59428.54
557.98	59554.93
558.15	59660.26
558.32	59765.58
558.48	59465.99
558.65	59515.14
558.81	59538.55
558.98	59613.44
559.14	59847.50
559.31	59730.47
559.47	59873.24
559.64	59880.27
559.80	59952.82
559.97	59819.41
560.13	59854.52
560.30	59718.77
560.46	59889.63
560.63	59852.18
560.79	60088.57
560.96	60107.30
561.12	60081.55
561.29	60097.94
561.45	60076.87
561.61	60039.42
561.78	59976.23
561.94	60060.49
562.11	60069.85
562.27	60142.41
562.44	60205.60
562.60	60186.88
562.77	60261.77
562.93	59859.20
563.10	59957.50
563.26	60186.88
563.42	60486.46
563.59	60158.79
563.75	60018.36
563.92	60252.41
564.08	60203.26
564.24	60299.22
564.41	60336.67
564.57	60186.88
564.74	60500.51
564.90	60214.96
565.07	60303.90
565.23	60348.37
565.39	60474.76
565.56	60292.20
565.72	60264.11
565.88	60308.58
566.05	60161.13
566.21	60289.86
566.38	60474.76
566.54	60217.30
566.70	60493.49
566.87	60603.49
567.03	60329.65
567.19	60477.10
567.36	60444.33
567.52	60418.59
567.68	60687.75
567.85	60465.40
568.01	60505.19
568.17	60589.45
568.34	60727.54
568.50	60530.93
568.66	60535.62
568.83	60580.09
568.99	60430.29
569.15	60647.96
569.32	60662.00
569.48	60537.96
569.64	60699.45
569.81	60640.94
569.97	60713.50
570.13	60739.24
570.30	60575.40
570.46	60832.86
570.62	60722.86
570.78	60570.72
570.95	60666.69
571.11	60905.42
571.27	60736.90
571.43	60793.07
571.60	60837.54
571.76	60739.24
571.92	60835.20
572.09	60884.36
572.25	60949.89
572.41	60767.33
572.57	60755.63
572.74	61071.60
572.90	60692.43
573.06	60711.16
573.22	60874.99
573.38	60793.07
573.55	60830.52
573.71	61106.71
573.87	60720.52
574.03	60650.30
574.20	60779.03
574.36	60671.37
574.52	60767.33
574.68	61066.92
574.84	61024.79
575.01	61020.11
575.17	60619.88
575.33	60889.04
575.49	60870.31
575.65	60842.23
575.82	61095.00
575.98	61183.94
576.14	61230.75
576.30	61048.19
576.46	60800.10
576.62	60968.61
576.79	60996.70
576.95	60757.97
577.11	60996.70
577.27	60872.65
577.43	61132.45
577.59	60757.97
577.75	60884.36
577.92	60954.57
578.08	60898.40
578.24	60996.70
578.40	61179.26
578.56	61146.50
578.72	60921.80
578.88	61146.50
579.04	61102.03
579.21	60959.25
579.37	61169.90
579.53	61099.68
579.69	60877.33
579.85	61052.87
580.01	60970.96
580.17	60786.05
580.33	61172.24
580.49	61106.71
580.65	61289.27
580.82	60884.36
580.98	60870.31
581.14	60844.57
581.30	61256.50
581.46	60968.61
581.62	61247.14
581.78	60982.66
581.94	61223.73
582.10	61099.68
582.26	61118.41
582.42	61207.35
582.58	61221.39
582.74	60975.64
582.90	61216.71
583.06	61237.78
583.22	60989.68
583.38	61062.24
583.54	61186.28
583.70	61233.10
583.86	61200.33
584.02	60863.29
584.18	61242.46
584.34	61181.60
584.50	61076.28
584.66	61087.98
584.82	60982.66
584.98	61188.63
585.14	61265.86
585.30	61073.94
585.46	61085.64
585.62	61169.90
585.78	61399.27
585.94	60982.66
586.10	61003.72
586.26	60949.89
586.42	61338.42
586.58	61378.21
586.74	61069.26
586.90	61123.09
587.06	61130.11
587.22	61296.29
587.38	61296.29
587.54	61396.93
587.70	61380.55
587.86	61284.59
588.02	61331.40
588.18	61401.61
588.34	61277.57
588.49	61230.75
