SpectraSuite Data File
++++++++++++++++++++++++++++++++++++
Date: Fri Oct 25 10:43:59 EDT 2013
User: price-jones
Dark Spectrum Present: No
Reference Spectrum Present: No
Number of Sampled Component Spectra: 1
Spectrometers: USB2+H05261
Integration Time (usec): 100000 (USB2+H05261)
Spectra Averaged: 1 (USB2+H05261)
Boxcar Smoothing: 0 (USB2+H05261)
Correct for Electrical Dark: No (USB2+H05261)
Strobe/Lamp Enabled: No (USB2+H05261)
Correct for Detector Non-linearity: No (USB2+H05261)
Correct for Stray Light: No (USB2+H05261)
Number of Pixels in Processed Spectrum: 2048
>>>>>Begin Processed Spectral Data<<<<<
365.73	138.09
365.92	138.09
366.12	138.09
366.32	81.92
366.52	49.15
366.72	16.38
366.91	0.00
367.11	2.34
367.31	21.06
367.51	58.51
367.70	0.00
367.90	91.28
368.10	14.04
368.30	0.00
368.49	84.26
368.69	77.24
368.89	93.62
369.09	51.49
369.28	21.06
369.48	98.30
369.68	86.60
369.87	44.47
370.07	60.85
370.27	88.94
370.47	208.31
370.66	341.72
370.86	442.36
371.06	390.87
371.25	437.68
371.45	397.89
371.65	503.22
371.84	454.06
372.04	421.30
372.24	400.23
372.44	505.56
372.63	500.87
372.83	421.30
373.03	484.49
373.22	491.51
373.42	533.64
373.62	552.37
373.81	585.13
374.01	622.58
374.21	608.54
374.40	601.52
374.60	559.39
374.79	559.39
374.99	620.24
375.19	580.45
375.38	606.20
375.58	547.69
375.78	662.37
375.97	606.20
376.17	566.41
376.37	580.45
376.56	606.20
376.76	617.90
376.95	582.79
377.15	603.86
377.35	620.24
377.54	617.90
377.74	671.73
377.93	596.84
378.13	685.78
378.33	627.26
378.52	653.01
378.72	662.37
378.91	669.39
379.11	662.37
379.31	671.73
379.50	615.56
379.70	631.94
379.89	678.76
380.09	620.24
380.28	713.86
380.48	704.50
380.68	671.73
380.87	622.58
381.07	711.52
381.26	732.59
381.46	753.65
381.65	744.29
381.85	746.63
382.04	657.69
382.24	751.31
382.43	744.29
382.63	739.61
382.83	671.73
383.02	793.44
383.22	690.46
383.41	772.38
383.61	671.73
383.80	774.72
384.00	734.93
384.19	727.91
384.39	819.19
384.58	734.93
384.78	809.83
384.97	781.74
385.17	826.21
385.36	826.21
385.56	805.14
385.75	866.00
385.95	814.51
386.14	765.36
386.34	849.61
386.53	887.06
386.72	844.93
386.92	889.40
387.11	882.38
387.31	894.08
387.50	849.61
387.70	873.02
387.89	828.55
388.09	908.13
388.28	936.21
388.48	844.93
388.67	875.36
388.86	887.06
389.06	978.34
389.25	994.73
389.45	987.71
389.64	992.39
389.84	1057.92
390.03	950.26
390.22	999.41
390.42	980.68
390.61	978.34
390.81	1032.18
391.00	1116.44
391.19	1064.94
391.39	929.19
391.58	1090.69
391.78	978.34
391.97	1062.60
392.16	950.26
392.36	1060.26
392.55	1015.79
392.75	1034.52
392.94	1006.43
393.13	1015.79
393.33	945.58
393.52	1034.52
393.71	1102.39
393.91	1074.31
394.10	1135.16
394.29	1256.87
394.49	1219.42
394.68	1188.99
394.88	1207.72
395.07	1315.38
395.26	1219.42
395.46	1294.32
395.65	1280.27
395.84	1275.59
396.04	1249.85
396.23	1184.31
396.42	1156.22
396.62	1212.40
396.81	1261.55
397.00	1196.01
397.19	1376.24
397.39	1355.17
397.58	1242.82
397.77	1383.26
397.97	1413.68
398.16	1434.75
398.35	1460.49
398.55	1404.32
398.74	1521.35
398.93	1565.82
399.12	1516.67
399.32	1476.88
399.51	1563.48
399.70	1568.16
399.90	1645.40
400.09	1610.29
400.28	1640.72
400.47	1659.44
400.67	1572.84
400.86	1703.91
401.05	1654.76
401.24	1666.46
401.44	1727.32
401.63	1804.55
401.82	1678.16
402.01	1823.28
402.21	1797.53
402.40	1825.62
402.59	1741.36
402.78	1760.08
402.97	1724.97
403.17	1888.81
403.36	1837.32
403.55	1830.30
403.74	1893.49
403.93	1858.39
404.13	1851.36
404.32	1919.24
404.51	1870.09
404.70	1961.37
404.89	1842.00
405.09	2022.22
405.28	2022.22
405.47	1980.09
405.66	1977.75
405.85	2038.61
406.05	1973.07
406.24	2092.44
406.43	1970.73
406.62	2108.82
406.81	2090.10
407.00	2036.27
407.20	1998.82
407.39	2064.35
407.58	2129.89
407.77	2244.57
407.96	2218.83
408.15	2272.66
408.34	2193.08
408.54	2319.47
408.73	2307.77
408.92	2363.94
409.11	2263.30
409.30	2349.90
409.49	2211.81
409.68	2221.17
409.87	2370.96
410.07	2354.58
410.26	2438.84
410.45	2314.79
410.64	2530.12
410.83	2558.21
411.02	2464.58
411.21	2672.89
411.40	2726.72
411.59	2710.34
411.78	2677.57
411.98	2548.84
412.17	2630.76
412.36	2818.00
412.55	2661.19
412.74	2726.72
412.93	2640.12
413.12	2607.36
413.31	2885.88
413.50	2766.51
413.69	3042.70
413.88	2855.45
414.07	2874.18
414.26	2899.92
414.45	2965.46
414.64	2871.84
414.83	3148.02
415.02	3087.17
415.22	3122.27
415.41	3038.02
415.60	3075.46
415.79	3201.85
415.98	3295.47
416.17	3321.22
416.36	3094.19
416.55	3194.83
416.74	3342.28
416.93	3400.80
417.12	3318.88
417.31	3260.37
417.50	3346.97
417.69	3440.59
417.88	3442.93
418.07	3405.48
418.26	3618.47
418.45	3597.40
418.64	3585.70
418.83	3590.38
419.02	3798.69
419.21	3662.94
419.39	3435.91
419.58	3606.77
419.77	3576.34
419.96	3609.11
420.15	3698.05
420.34	3646.55
420.53	3754.22
420.72	3929.76
420.91	3913.38
421.10	3812.73
421.29	3749.54
421.48	3889.97
421.67	3939.12
421.86	3826.78
422.05	3875.93
422.24	3794.01
422.43	3815.07
422.61	3913.38
422.80	3866.56
422.99	3817.41
423.18	3815.07
423.37	4028.06
423.56	4072.53
423.75	3971.89
423.94	4039.76
424.13	3691.02
424.32	3901.67
424.50	3878.27
424.69	3995.29
424.88	4063.17
425.07	3941.46
425.26	3948.48
425.45	3985.93
425.64	3892.31
425.83	4156.79
426.01	3985.93
426.20	4039.76
426.39	4084.23
426.58	4011.68
426.77	4044.45
426.96	4018.70
427.15	4091.26
427.33	4051.47
427.52	4121.68
427.71	4023.38
427.90	4161.47
428.09	4203.60
428.28	4290.20
428.46	4283.18
428.65	4311.27
428.84	4243.39
429.03	4231.69
429.22	4100.62
429.40	4152.11
429.59	4119.34
429.78	3925.08
429.97	3936.78
430.16	3964.87
430.34	4032.74
430.53	4109.98
430.72	4313.61
430.91	4262.12
431.10	4329.99
431.28	4526.60
431.47	4582.77
431.66	4678.73
431.85	4627.24
432.03	4594.47
432.22	4762.99
432.41	4697.46
432.60	4758.31
432.79	4702.14
432.97	4739.58
433.16	4734.90
433.35	4718.52
433.54	4873.00
433.72	4741.93
433.91	4660.01
434.10	4816.82
434.28	4887.04
434.47	4854.27
434.66	5043.85
434.85	5022.79
435.03	4952.57
435.22	5088.32
435.41	5100.03
435.59	5144.50
435.78	5109.39
435.97	5085.98
436.16	5184.29
436.34	5221.74
436.53	5228.76
436.72	5373.87
436.90	5186.63
437.09	5057.90
437.28	5327.06
437.46	5174.92
437.65	5357.49
437.84	5411.32
438.02	5221.74
438.21	5158.54
438.40	5135.14
438.58	5352.81
438.77	5406.64
438.96	5462.81
439.14	5526.00
439.33	5706.23
439.52	5589.20
439.70	5764.74
439.89	5678.14
440.08	5668.78
440.26	5652.39
440.45	5734.31
440.63	5816.23
440.82	5830.27
441.01	5928.58
441.19	5966.03
441.38	6164.97
441.57	6342.85
441.75	6331.15
441.94	6429.45
442.12	6242.21
442.31	6319.45
442.50	6464.56
442.68	6532.44
442.87	6394.34
443.05	6328.81
443.24	6436.47
443.43	6499.67
443.61	6572.22
443.80	6722.02
443.98	6321.79
444.17	6211.78
444.35	6483.28
444.54	6707.98
444.73	6590.95
444.91	6574.56
445.10	6490.31
445.28	6480.94
445.47	6406.05
445.65	6359.24
445.84	6595.63
446.02	6607.33
446.21	6630.74
446.39	6438.81
446.58	6729.04
446.77	6867.13
446.95	6733.72
447.14	6661.16
447.32	6825.00
447.51	6534.78
447.69	6817.98
447.88	6825.00
448.06	6808.62
448.25	6759.47
448.43	6726.70
448.62	6864.79
448.80	6712.66
448.99	6853.09
449.17	6951.39
449.36	6764.15
449.54	6953.73
449.73	7155.02
449.91	7300.13
450.10	7077.78
450.28	7311.83
450.46	7405.46
450.65	7304.81
450.83	7358.64
451.02	7260.34
451.20	7290.77
451.39	7239.28
451.57	7258.00
451.76	7253.32
451.94	7265.02
452.13	7461.63
452.31	7353.96
452.49	7157.36
452.68	7265.02
452.86	7208.85
453.05	7332.90
453.23	7424.18
453.42	7506.10
453.60	7522.48
453.78	7541.21
453.97	7482.69
454.15	7463.97
454.34	7447.58
454.52	7625.47
454.70	7452.27
454.89	7700.36
455.07	7609.08
455.26	7538.87
455.44	7763.56
455.62	7716.75
455.81	7950.80
455.99	7896.97
456.17	7955.48
456.36	7918.03
456.54	7913.35
456.73	7892.29
456.91	8173.15
457.09	8116.98
457.28	8341.67
457.46	8138.04
457.64	8353.37
457.83	8255.07
458.01	8086.55
458.19	8243.37
458.38	8280.82
458.56	8446.99
458.74	8414.23
458.93	8138.04
459.11	8430.61
459.29	8493.80
459.48	8393.16
459.66	8360.39
459.84	8498.49
460.03	8514.87
460.21	8599.13
460.39	8571.04
460.57	8641.26
460.76	8603.81
460.94	8868.29
461.12	8858.93
461.31	8819.14
461.49	8716.16
461.67	8779.35
461.85	8816.80
462.04	8947.87
462.22	9029.79
462.40	8964.25
462.59	8865.95
462.77	8903.40
462.95	9125.75
463.13	9139.79
463.32	8990.00
463.50	8999.36
463.68	9231.07
463.86	9235.75
464.05	9067.24
464.23	8994.68
464.41	9135.11
464.59	8903.40
464.78	9383.21
464.96	9467.47
465.14	9240.44
465.32	9219.37
465.50	9198.31
465.69	9284.91
465.87	9036.81
466.05	9254.48
466.23	9104.68
466.41	9289.59
466.60	9312.99
466.78	9048.51
466.96	9399.59
467.14	9390.23
467.32	9537.68
467.51	9535.34
467.69	9439.38
467.87	9446.40
468.05	9584.49
468.23	9495.55
468.41	9633.64
468.60	9364.48
468.78	9858.34
468.96	9579.81
469.14	9961.32
469.32	9951.96
469.50	9572.79
469.69	9727.27
469.87	9809.19
470.05	9872.38
470.23	9806.84
470.41	10054.94
470.59	9853.66
470.77	9797.48
470.95	10164.95
471.14	10438.79
471.32	10038.56
471.50	10380.28
471.68	10382.62
471.86	10284.31
472.04	10345.17
472.22	10689.23
472.40	10377.94
472.58	10382.62
472.77	10586.24
472.95	10551.14
473.13	10949.03
473.31	10635.39
473.49	10567.52
473.67	10684.55
473.85	10604.97
474.03	11145.63
474.21	11080.10
474.39	11274.36
474.57	11272.02
474.75	11218.19
474.93	11250.96
475.12	11143.29
475.30	11370.32
475.48	11215.85
475.66	11375.00
475.84	11562.25
476.02	11651.19
476.20	11730.76
476.38	11625.44
476.56	11733.11
476.74	11789.28
476.92	11939.07
477.10	12116.95
477.28	12133.34
477.46	12123.98
477.64	12451.65
477.82	12430.59
478.00	12837.84
478.18	12725.49
478.36	12718.47
478.54	12713.79
478.72	12781.67
478.90	13046.15
479.08	13394.89
479.26	13123.38
479.44	13408.93
479.62	13322.33
479.80	13486.17
479.98	13394.89
480.16	13713.20
480.34	13729.58
480.52	13998.74
480.70	13762.35
480.88	13603.19
481.06	14054.92
481.24	14083.00
481.41	14305.35
481.59	14249.18
481.77	14633.03
481.95	14363.87
482.13	14764.10
482.31	14471.53
482.49	15236.89
482.67	15009.86
482.85	14913.89
483.03	15332.85
483.21	15222.84
483.39	15433.49
483.57	15492.01
483.74	15740.10
483.92	15896.92
484.10	15484.98
484.28	16042.03
484.46	16327.58
484.64	16283.11
484.82	16095.86
485.00	16257.36
485.18	16472.69
485.35	16645.89
485.53	16346.30
485.71	16039.69
485.89	16463.33
486.07	16458.65
486.25	16650.57
486.43	16774.62
486.61	17364.43
486.78	17348.05
486.96	17502.53
487.14	17617.21
487.32	17745.94
487.50	18157.88
487.68	18434.06
487.85	18572.15
488.03	18595.56
488.21	18834.29
488.39	18745.35
488.57	18988.77
488.75	18726.63
488.92	19307.08
489.10	19403.04
489.28	19634.75
489.46	20126.27
489.64	19885.19
489.81	20142.65
489.99	20177.76
490.17	20353.30
490.35	20475.01
490.53	20577.99
490.70	20521.82
490.88	20306.49
491.06	20919.71
491.24	20877.58
491.41	21057.80
491.59	20678.63
491.77	21064.82
491.95	21181.85
492.13	21617.19
492.30	21708.47
492.48	21860.60
492.66	22052.53
492.84	22274.88
493.01	22544.04
493.19	22057.21
493.37	22228.07
493.54	22616.60
493.72	23080.02
493.90	22932.57
494.08	23410.04
494.25	23264.92
494.43	23260.24
494.61	23784.52
494.79	24081.77
494.96	23489.62
495.14	23616.01
495.32	23850.06
495.49	23814.95
495.67	23929.64
495.85	24294.76
496.02	24538.18
496.20	24730.10
496.38	24662.22
496.55	24872.87
496.73	25207.57
496.91	25151.40
497.09	25303.53
497.26	25151.40
497.44	25378.43
497.62	25270.76
497.79	25731.85
497.97	25296.51
498.14	25685.04
498.32	25727.17
498.50	25951.86
498.67	26291.24
498.85	26511.25
499.03	26799.13
499.20	26230.38
499.38	26834.24
499.56	26508.91
499.73	26738.28
499.91	26792.11
500.08	27002.76
500.26	26326.35
500.44	27014.46
500.61	27014.46
500.79	26824.88
500.97	27091.70
501.14	27470.87
501.32	27283.62
501.49	27414.69
501.67	27529.38
501.84	27826.63
502.02	27482.57
502.20	27765.78
502.37	27990.47
502.55	27868.76
502.72	28432.83
502.90	28219.84
503.07	28264.31
503.25	28194.09
503.43	27964.72
503.60	28685.61
503.78	28587.30
503.95	28453.89
504.13	28790.93
504.30	28968.81
504.48	28797.95
504.65	29481.39
504.83	29422.87
505.01	29247.33
505.18	28985.19
505.36	29764.59
505.53	29422.87
505.71	30059.50
505.88	29692.04
506.06	29631.18
506.23	30188.23
506.41	29720.12
506.58	30436.33
506.76	30284.19
506.93	30698.47
507.11	30223.34
507.28	30302.92
507.46	30307.60
507.63	30256.11
507.81	30169.51
507.98	30218.66
508.16	30499.52
508.33	30918.48
508.50	31131.47
508.68	31150.19
508.85	31281.26
509.03	31225.09
509.20	31473.18
509.38	31449.78
509.55	31299.98
509.73	31473.18
509.90	31772.77
510.08	31337.43
510.25	31225.09
510.42	31688.51
510.60	32245.56
510.77	32023.21
510.95	32072.36
511.12	32638.77
511.30	32268.97
511.47	32673.88
511.64	32811.97
511.82	32526.42
511.99	32472.59
512.17	32744.09
512.34	32545.15
512.51	32795.59
512.69	33092.83
512.86	32914.95
513.04	32989.85
513.21	32713.67
513.38	33376.04
513.56	33106.88
513.73	32933.68
513.90	33401.79
514.08	33069.43
514.25	33249.65
514.43	33479.02
514.60	33493.07
514.77	33289.44
514.95	34192.89
515.12	34054.79
515.29	33879.25
515.47	34251.40
515.64	34106.29
515.81	33682.65
515.99	34213.95
516.16	34096.92
516.33	33546.90
516.51	34005.64
516.68	33518.81
516.85	33628.82
517.03	33577.33
517.20	34408.22
517.37	34604.82
517.54	34550.99
517.72	34408.22
517.89	34174.16
518.06	33860.53
518.24	34253.74
518.41	34581.42
518.58	34569.71
518.75	34279.49
518.93	34761.64
519.10	35262.51
519.27	35065.91
519.45	35421.67
519.62	35283.58
519.79	35377.20
519.96	35653.38
520.14	35601.89
520.31	35573.80
520.48	36247.88
520.65	35562.10
520.83	35983.40
521.00	36203.41
521.17	36378.95
521.34	36339.16
521.52	36339.16
521.69	36685.56
521.86	36610.66
522.03	36591.94
522.20	36793.22
522.38	36622.36
522.55	36811.95
522.72	36762.79
522.89	36474.91
523.07	37383.04
523.24	36411.71
523.41	37359.63
523.58	37296.44
523.75	37535.17
523.92	37216.86
524.10	37773.91
524.27	37607.73
524.44	37703.69
524.61	37916.68
524.78	37275.37
524.96	37261.33
525.13	37642.84
525.30	38005.62
525.47	38237.33
525.64	38054.77
525.81	37886.25
525.98	37408.78
526.16	37371.33
526.33	37752.84
526.50	37717.73
526.67	37422.83
526.84	37397.08
527.01	37783.27
527.18	38473.73
527.36	38246.69
527.53	38513.52
527.70	38686.71
527.87	38742.89
528.04	38300.53
528.21	38754.59
528.38	39063.54
528.55	38995.67
528.72	39138.44
528.89	39157.16
529.07	38794.38
529.24	39407.60
529.41	39555.05
529.58	38890.34
529.75	39150.14
529.92	38974.60
530.09	39592.50
530.26	39468.45
530.43	39875.71
530.60	39541.01
530.77	39393.56
530.94	39718.89
531.11	39496.54
531.28	39442.71
531.46	39754.00
531.63	39611.23
531.80	39835.92
531.97	39512.92
532.14	39754.00
532.31	38850.55
532.48	39754.00
532.65	40034.86
532.82	39817.19
532.99	40060.61
533.16	39852.30
533.33	39943.58
533.50	40514.67
533.67	40114.44
533.84	40002.10
534.01	40423.39
534.18	40271.26
534.35	40479.57
534.52	40650.42
534.69	40327.43
534.86	40659.79
535.03	40952.35
535.20	41188.75
535.37	41198.11
535.54	40910.22
535.71	40744.05
535.88	41228.54
536.05	40830.65
536.22	41375.99
536.38	41081.08
536.55	40634.04
536.72	41294.07
536.89	40498.29
537.06	40832.99
537.23	41144.28
537.40	41439.18
537.57	41750.48
537.74	41104.49
537.91	41839.42
538.08	41691.96
538.25	41198.11
538.42	41675.58
538.59	41701.32
538.75	41031.93
538.92	41610.04
539.09	41553.87
539.26	41785.58
539.43	41825.37
539.60	41998.57
539.77	41776.22
539.94	41675.58
540.11	41340.88
540.28	41598.34
540.44	41837.08
540.61	41996.23
540.78	41383.01
540.95	41888.57
541.12	41483.66
541.29	41799.63
541.46	42129.64
541.62	42351.99
541.79	42553.28
541.96	42260.71
542.13	42143.69
542.30	41940.06
542.47	42307.52
542.63	41881.55
542.80	42373.06
542.97	42738.18
543.14	43119.69
543.31	42754.57
543.48	42691.37
543.64	43126.71
543.81	43358.42
543.98	42887.98
544.15	43178.20
544.32	43206.29
544.48	43594.82
544.65	43526.94
544.82	43475.45
544.99	42848.19
545.16	43033.09
545.32	43079.90
545.49	43262.46
545.66	43356.08
545.83	43660.35
546.00	43529.28
546.16	43662.69
546.33	43381.83
546.50	43028.41
546.67	43906.11
546.83	42932.45
547.00	43683.76
547.17	43559.71
547.34	43650.99
547.50	43714.19
547.67	43658.01
547.84	44149.53
548.00	44460.82
548.17	44215.06
548.34	43971.64
548.51	44406.98
548.67	44121.44
548.84	43646.31
549.01	44144.84
549.18	44404.64
549.34	44254.85
549.51	44378.90
549.68	44053.56
549.84	44430.39
550.01	44605.93
550.18	43938.88
550.34	44313.36
550.51	44561.46
550.68	44292.30
550.84	43885.04
551.01	44355.49
551.18	44383.58
551.34	44655.08
551.51	44390.60
551.68	44893.82
551.84	44776.79
552.01	44582.52
552.18	44353.15
552.34	44467.84
552.51	44451.45
552.68	45043.61
552.84	44737.00
553.01	45244.90
553.18	44797.85
553.34	44547.42
553.51	44683.17
553.67	45085.74
553.84	45015.52
554.01	45109.14
554.17	44657.42
554.34	44996.80
554.51	45352.56
554.67	45125.53
554.84	45111.49
555.00	44898.50
555.17	45111.49
555.33	45141.91
555.50	44942.97
555.67	45186.38
555.83	45165.32
556.00	44989.78
556.16	45209.79
556.33	44989.78
556.50	44914.88
556.66	44715.93
556.83	44891.48
556.99	45092.76
557.16	45277.66
557.32	45059.99
557.49	45385.33
557.65	45205.11
557.82	45247.24
557.98	45598.32
558.15	45247.24
558.32	45516.40
558.48	45345.54
558.65	45240.21
558.81	44767.43
558.98	45495.33
559.14	45476.61
559.31	45326.81
559.47	45441.50
559.64	45603.00
559.80	45593.64
559.97	45614.70
560.13	45492.99
560.30	45647.47
560.46	45696.62
560.63	45736.41
560.79	45806.62
560.96	46190.47
561.12	45881.52
561.29	45490.65
561.45	45799.60
561.61	45528.10
561.78	45617.04
561.94	45165.32
562.11	45549.17
562.27	45130.21
562.44	45701.30
562.60	45961.10
562.77	45851.09
562.93	45923.65
563.10	46506.44
563.26	45514.06
563.42	45982.16
563.59	46026.63
563.75	45485.97
563.92	46085.15
564.08	46089.83
564.24	45846.41
564.41	45876.84
564.57	46108.55
564.74	46012.59
564.90	45872.16
565.07	46113.23
565.23	45738.75
565.39	45638.11
565.56	45605.34
565.72	45530.44
565.88	46024.29
566.05	45694.28
566.21	45745.77
566.38	45715.34
566.54	45993.87
566.70	46202.18
566.87	46363.67
567.03	46199.83
567.19	46281.75
567.36	46148.34
567.52	45900.25
567.68	46150.68
567.85	45844.07
568.01	46499.42
568.17	45893.22
568.34	46267.71
568.50	46050.04
568.66	46033.66
568.83	46216.22
568.99	45413.41
569.15	45731.73
569.32	45942.38
569.48	46218.56
569.64	45909.61
569.81	45958.76
569.97	46223.24
570.13	45799.60
570.30	45736.41
570.46	45951.74
570.62	45656.83
570.78	46373.03
570.95	45338.52
571.11	45986.85
571.27	46230.26
571.43	45560.87
571.60	46267.71
571.76	46440.91
571.92	46330.90
572.09	46103.87
572.25	45991.53
572.41	46394.10
572.57	46644.54
572.74	46735.82
572.90	46246.65
573.06	46286.43
573.22	46543.89
573.38	46286.43
573.55	46195.15
573.71	46469.00
573.87	45979.82
574.03	46349.63
574.20	46155.36
574.36	46522.83
574.52	46403.46
574.68	46127.28
574.84	46239.62
575.01	45811.31
575.17	46302.82
575.33	46277.07
575.49	45668.53
575.65	46555.60
575.82	46677.30
575.98	46375.37
576.14	46232.60
576.30	46590.70
576.46	46230.26
576.62	45972.80
576.79	46342.61
576.95	45984.51
577.11	46527.51
577.27	46506.44
577.43	46405.80
577.59	46066.42
577.75	46401.12
577.92	45947.06
578.08	46127.28
578.24	46014.93
578.40	46232.60
578.56	46197.49
578.72	45993.87
578.88	46403.46
579.04	46328.56
579.21	46188.13
579.37	46270.05
579.53	46272.39
579.69	46237.28
579.85	46377.72
580.01	46490.06
580.17	46667.94
580.33	46270.05
580.49	46689.01
580.65	46684.33
580.82	46672.62
580.98	46398.78
581.14	46239.62
581.30	46857.52
581.46	46349.63
581.62	46684.33
581.78	46424.53
581.94	46433.89
582.10	46244.30
582.26	46681.98
582.42	46057.06
582.58	46726.46
582.74	46391.76
582.90	46944.12
583.06	47072.85
583.22	46579.00
583.38	46511.13
583.54	46555.60
583.70	46822.42
583.86	46831.78
584.02	46340.27
584.18	46326.22
584.34	46527.51
584.50	46483.04
584.66	46501.76
584.82	46232.60
584.98	46248.99
585.14	46370.69
585.30	46719.43
585.46	46511.13
585.62	46197.49
585.78	46445.59
585.94	46108.55
586.10	46227.92
586.26	46094.51
586.42	46859.87
586.58	46752.20
586.74	46703.05
586.90	46251.33
587.06	46326.22
587.22	46485.38
587.38	46494.74
587.54	46394.10
587.70	46258.35
587.86	46698.37
588.02	46321.54
588.18	46672.62
588.34	46436.23
588.49	45600.66
588.65	45713.00
588.81	46150.68
588.97	46050.04
589.13	45631.08
589.29	46045.36
589.45	46618.79
589.61	46241.96
589.77	46057.06
589.93	46525.17
590.08	46689.01
