SpectraSuite Data File
++++++++++++++++++++++++++++++++++++
Date: Fri Oct 25 11:26:40 EDT 2013
User: price-jones
Dark Spectrum Present: No
Reference Spectrum Present: No
Number of Sampled Component Spectra: 1
Spectrometers: USB2+H05261
Integration Time (usec): 100000 (USB2+H05261)
Spectra Averaged: 1 (USB2+H05261)
Boxcar Smoothing: 0 (USB2+H05261)
Correct for Electrical Dark: No (USB2+H05261)
Strobe/Lamp Enabled: No (USB2+H05261)
Correct for Detector Non-linearity: No (USB2+H05261)
Correct for Stray Light: No (USB2+H05261)
Number of Pixels in Processed Spectrum: 2048
>>>>>Begin Processed Spectral Data<<<<<
365.73	283.20
365.92	283.20
366.12	283.20
366.32	166.18
366.52	152.13
366.72	215.33
366.91	126.39
367.11	173.20
367.31	112.35
367.51	163.84
367.70	23.41
367.90	184.90
368.10	100.64
368.30	147.45
368.49	196.60
368.69	210.65
368.89	170.86
369.09	121.71
369.28	154.48
369.48	154.48
369.68	177.88
369.87	189.58
370.07	212.99
370.27	234.05
370.47	374.49
370.66	528.96
370.86	615.56
371.06	610.88
371.25	690.46
371.45	709.18
371.65	802.80
371.84	688.12
372.04	739.61
372.24	704.50
372.44	641.31
372.63	746.63
372.83	702.16
373.03	697.48
373.22	788.76
373.42	767.70
373.62	800.46
373.81	837.91
374.01	861.32
374.21	833.23
374.40	814.51
374.60	889.40
374.79	751.31
374.99	854.30
375.19	791.10
375.38	844.93
375.58	873.02
375.78	819.19
375.97	823.87
376.17	905.79
376.37	868.34
376.56	976.00
376.76	858.98
376.95	912.81
377.15	870.68
377.35	851.96
377.54	954.94
377.74	875.36
377.93	870.68
378.13	929.19
378.33	954.94
378.52	851.96
378.72	966.64
378.91	884.72
379.11	964.30
379.31	940.90
379.50	880.04
379.70	1081.33
379.89	926.85
380.09	933.87
380.28	1013.45
380.48	1011.11
380.68	1018.13
380.87	971.32
381.07	997.07
381.26	1081.33
381.46	894.08
381.65	999.41
381.85	1088.35
382.04	1025.15
382.24	1090.69
382.43	1020.47
382.63	1107.07
382.83	1025.15
383.02	1128.14
383.22	1228.78
383.41	1090.69
383.61	1203.04
383.80	1104.73
384.00	1160.91
384.19	1167.93
384.39	1186.65
384.58	1191.33
384.78	1174.95
384.97	1221.76
385.17	1191.33
385.36	1078.99
385.56	1261.55
385.75	1167.93
385.95	1245.16
386.14	1196.01
386.34	1174.95
386.53	1291.98
386.72	1235.80
386.92	1261.55
387.11	1261.55
387.31	1242.82
387.50	1174.95
387.70	1277.93
387.89	1247.51
388.09	1392.62
388.28	1245.16
388.48	1411.34
388.67	1387.94
388.86	1306.02
389.06	1345.81
389.25	1364.53
389.45	1296.66
389.64	1303.68
389.84	1394.96
390.03	1406.66
390.22	1401.98
390.42	1416.02
390.61	1441.77
390.81	1427.73
391.00	1474.54
391.19	1483.90
391.39	1432.41
391.58	1572.84
391.78	1516.67
391.97	1401.98
392.16	1458.15
392.36	1497.94
392.55	1460.49
392.75	1612.63
392.94	1519.01
393.13	1542.41
393.33	1504.96
393.52	1528.37
393.71	1645.40
393.91	1530.71
394.10	1563.48
394.29	1675.82
394.49	1558.80
394.68	1692.21
394.88	1591.56
395.07	1708.59
395.26	1706.25
395.46	1640.72
395.65	1734.34
395.84	1685.19
396.04	1760.08
396.23	1717.95
396.42	1732.00
396.62	1769.44
396.81	1790.51
397.00	1799.87
397.19	1849.02
397.39	1720.29
397.58	1860.73
397.77	1877.11
397.97	1837.32
398.16	1860.73
398.35	1984.77
398.55	1877.11
398.74	1905.20
398.93	1966.05
399.12	1935.62
399.32	1959.03
399.51	1973.07
399.70	2022.22
399.90	1991.80
400.09	2057.33
400.28	2090.10
400.47	2040.95
400.67	2132.23
400.86	2026.90
401.05	2080.74
401.24	2172.02
401.44	2132.23
401.63	2160.31
401.82	2141.59
402.01	2099.46
402.21	2223.51
402.40	2127.55
402.59	2218.83
402.78	2239.89
402.97	2129.89
403.17	2282.02
403.36	2225.85
403.55	2335.85
403.74	2356.92
403.93	2363.94
404.13	2354.58
404.32	2424.80
404.51	2356.92
404.70	2502.03
404.89	2359.26
405.09	2548.84
405.28	2452.88
405.47	2502.03
405.66	2518.42
405.85	2525.44
406.05	2415.43
406.24	2663.53
406.43	2595.65
406.62	2658.85
406.81	2654.17
407.00	2626.08
407.20	2644.81
407.39	2593.31
407.58	2726.72
407.77	2710.34
407.96	2761.83
408.15	2857.79
408.34	2775.88
408.54	2740.77
408.73	2853.11
408.92	2850.77
409.11	2913.97
409.30	2949.08
409.49	2963.12
409.68	3089.51
409.87	3000.57
410.07	3084.83
410.26	2988.86
410.45	2984.18
410.64	3033.33
410.83	3042.70
411.02	3084.83
411.21	3162.06
411.40	3201.85
411.59	3300.16
411.78	3262.71
411.98	3108.23
412.17	3204.19
412.36	3243.98
412.55	3337.60
412.74	3377.39
412.93	3393.78
413.12	3253.34
413.31	3545.91
413.50	3555.27
413.69	3447.61
413.88	3597.40
414.07	3606.77
414.26	3623.15
414.45	3693.37
414.64	3840.82
414.83	3833.80
415.02	3805.71
415.22	3908.69
415.41	4011.68
415.60	3840.82
415.79	3915.72
415.98	3976.57
416.17	3920.40
416.36	3990.61
416.55	4201.26
416.74	4088.92
416.93	4128.70
417.12	4053.81
417.31	4131.05
417.50	4161.47
417.69	4339.35
417.88	4383.82
418.07	4224.67
418.26	4297.22
418.45	4334.67
418.64	4521.92
418.83	4547.66
419.02	4463.40
419.21	4390.84
419.39	4554.68
419.58	4554.68
419.77	4496.17
419.96	4510.21
420.15	4716.18
420.34	4535.96
420.53	4697.46
420.72	4596.81
420.91	4720.86
421.10	4777.03
421.29	4833.21
421.48	4667.03
421.67	4884.70
421.86	4826.18
422.05	5004.07
422.24	4791.08
422.43	4844.91
422.61	4868.31
422.80	5015.77
422.99	5053.22
423.18	4943.21
423.37	5144.50
423.56	5053.22
423.75	4978.32
423.94	4741.93
424.13	4542.98
424.32	4755.97
424.50	4952.57
424.69	5191.31
424.88	5121.09
425.07	4947.89
425.26	5034.49
425.45	5008.75
425.64	5053.22
425.83	4947.89
426.01	5069.60
426.20	5020.45
426.39	5020.45
426.58	5081.30
426.77	5137.48
426.96	5153.86
427.15	5198.33
427.33	5233.44
427.52	5083.64
427.71	5191.31
427.90	5315.36
428.09	5247.48
428.28	5446.43
428.46	5385.57
428.65	5434.72
428.84	5607.92
429.03	5682.82
429.22	5392.59
429.40	5357.49
429.59	5514.30
429.78	5266.21
429.97	5270.89
430.16	5465.15
430.34	5549.41
430.53	5762.40
430.72	5533.03
430.91	5776.44
431.10	5907.51
431.28	5781.12
431.47	5722.61
431.66	5865.38
431.85	5734.31
432.03	5888.79
432.22	6003.47
432.41	5912.19
432.60	5877.09
432.79	5839.64
432.97	6076.03
433.16	5980.07
433.35	5879.43
433.54	6083.05
433.72	6270.30
433.91	6040.92
434.10	6242.21
434.28	6162.63
434.47	6115.82
434.66	6277.32
434.85	6195.40
435.03	6382.64
435.22	6399.02
435.41	6572.22
435.59	6485.62
435.78	6530.09
435.97	6502.01
436.16	6340.51
436.34	6340.51
436.53	6754.79
436.72	6499.67
436.90	6394.34
437.09	6614.35
437.28	6466.90
437.46	6761.81
437.65	6647.12
437.84	6792.23
438.02	6813.30
438.21	6761.81
438.40	6764.15
438.58	6927.99
438.77	6958.41
438.96	7063.74
439.14	7162.04
439.33	7073.10
439.52	7152.68
439.70	7222.89
439.89	7246.30
440.08	7351.62
440.26	7389.07
440.45	7470.99
440.63	7499.08
440.82	7599.72
441.01	7517.80
441.19	7618.44
441.38	7829.09
441.57	7889.95
441.75	7992.93
441.94	7983.57
442.12	7861.86
442.31	8121.66
442.50	7967.18
442.68	8142.72
442.87	7976.55
443.05	8074.85
443.24	8388.48
443.43	8018.68
443.61	8524.23
443.80	8498.49
443.98	8163.79
444.17	7936.76
444.35	8374.44
444.54	8395.50
444.73	8535.93
444.91	8294.86
445.10	8294.86
445.28	8358.05
445.47	8346.35
445.65	8290.18
445.84	8645.94
446.02	8477.42
446.21	8428.27
446.39	8397.84
446.58	8613.17
446.77	8559.34
446.95	8313.58
447.14	8402.52
447.32	8545.30
447.51	8454.02
447.69	8439.97
447.88	8458.70
448.06	8531.25
448.25	8531.25
448.43	8631.90
448.62	8734.88
448.80	8613.17
448.99	8816.80
449.17	8798.07
449.36	8592.11
449.54	8912.76
449.73	9064.89
449.91	9085.96
450.10	8898.72
450.28	9128.09
450.46	9137.45
450.65	8943.19
450.83	9118.73
451.02	9195.96
451.20	9193.62
451.39	9270.86
451.57	9289.59
451.76	9055.53
451.94	9385.55
452.13	9366.82
452.31	9252.14
452.49	9371.50
452.68	9261.50
452.86	9312.99
453.05	9600.88
453.23	9451.08
453.42	9472.15
453.60	9408.95
453.78	9631.30
453.97	9432.36
454.15	9577.47
454.34	9366.82
454.52	9643.01
454.70	9699.18
454.89	9799.82
455.07	9736.63
455.26	9912.17
455.44	10064.30
455.62	9783.44
455.81	9923.87
455.99	9998.77
456.17	10136.86
456.36	10122.82
456.54	10090.05
456.73	10384.96
456.91	10361.55
457.09	10387.30
457.28	10445.81
457.46	10422.41
457.64	10780.51
457.83	10476.24
458.01	10391.98
458.19	10832.00
458.38	10815.62
458.56	10518.37
458.74	10764.12
458.93	10799.23
459.11	10906.90
459.29	10712.63
459.48	10836.68
459.66	10754.76
459.84	11105.84
460.03	11126.91
460.21	10927.96
460.39	11194.78
460.57	11023.92
460.76	11096.48
460.94	11272.02
461.12	11176.06
461.31	11253.30
461.49	11131.59
461.67	11389.05
461.85	11569.27
462.04	11190.10
462.22	11475.65
462.40	11679.27
462.59	11564.59
462.77	11639.48
462.95	11721.40
463.13	11630.12
463.32	11644.17
463.50	11798.64
463.68	11934.39
463.86	12023.33
464.05	11686.29
464.23	11800.98
464.41	11927.37
464.59	11896.94
464.78	12198.87
464.96	12006.95
465.14	11981.20
465.32	12276.11
465.50	12294.83
465.69	12297.17
465.87	12376.75
466.05	12168.45
466.23	12351.01
466.41	12416.54
466.60	12507.82
466.78	12072.48
466.96	12383.77
467.14	12409.52
467.32	12411.86
467.51	12683.36
467.69	12351.01
467.87	12400.16
468.05	12561.66
468.23	12400.16
468.41	12276.11
468.60	12723.15
468.78	12638.89
468.96	12823.80
469.14	12648.26
469.32	12950.18
469.50	12650.60
469.69	12931.46
469.87	13226.37
470.05	13160.83
470.23	13242.75
470.41	13256.79
470.59	13184.24
470.77	12931.46
470.95	13097.64
471.14	13832.57
471.32	13483.83
471.50	13542.34
471.68	13724.90
471.86	13626.60
472.04	13980.02
472.22	14176.62
472.40	13893.42
472.58	13860.65
472.77	14143.86
472.95	14253.86
473.13	14607.28
473.31	14148.54
473.49	14328.76
473.67	14310.04
473.85	14284.29
474.03	14839.00
474.21	14888.15
474.39	14888.15
474.57	14363.87
474.75	15140.93
474.93	15154.97
475.12	15021.56
475.30	15183.06
475.48	15073.05
475.66	15178.37
475.84	15129.22
476.02	15510.73
476.20	15372.64
476.38	15688.61
476.56	16297.15
476.74	15955.43
476.92	15807.98
477.10	15854.79
477.28	16264.38
477.46	16198.85
477.64	16276.09
477.82	16702.06
478.00	16964.20
478.18	17078.89
478.36	16877.60
478.54	17490.82
478.72	17172.51
478.90	17444.01
479.08	17680.41
479.26	17736.58
479.44	17626.57
479.62	17916.80
479.80	18178.94
479.98	18499.59
480.16	18658.75
480.34	18415.34
480.52	18640.03
480.70	18904.51
480.88	18501.93
481.06	18967.70
481.24	18665.77
481.41	19066.00
481.59	19456.87
481.77	19648.80
481.95	19702.63
482.13	19695.61
482.31	19838.38
482.49	20175.42
482.67	20154.35
482.85	20528.84
483.03	20648.21
483.21	20776.94
483.39	21205.25
483.57	21109.29
483.74	21050.78
483.92	21523.57
484.10	21460.37
484.28	21902.73
484.46	22228.07
484.64	22499.57
484.82	22045.51
485.00	22361.48
485.18	22988.74
485.35	23016.83
485.53	22869.37
485.71	23094.07
485.89	23410.04
486.07	23679.20
486.25	23915.59
486.43	23711.97
486.61	23953.04
486.78	24456.26
486.96	24348.59
487.14	24669.25
487.32	24830.74
487.50	24982.88
487.68	24980.54
487.85	25392.47
488.03	25678.02
488.21	26031.44
488.39	26015.05
488.57	26270.17
488.75	26176.55
488.92	26787.43
489.10	26862.33
489.28	26724.24
489.46	27459.16
489.64	27014.46
489.81	27814.93
489.99	27779.82
490.17	27873.44
490.35	28353.25
490.53	28334.53
490.70	28636.45
490.88	28446.87
491.06	29120.95
491.24	28917.32
491.41	29146.69
491.59	29296.49
491.77	28933.70
491.95	29310.53
492.13	29663.95
492.30	30150.78
492.48	30246.74
492.66	30244.40
492.84	30431.65
493.01	30848.26
493.19	30824.86
493.37	30941.88
493.54	31484.89
493.72	31796.18
493.90	31718.94
494.08	32032.57
494.25	32074.70
494.43	32367.27
494.61	32161.30
494.79	32858.78
494.96	33163.05
495.14	33090.49
495.32	33268.37
495.49	33263.69
495.67	33333.91
495.85	33935.43
496.02	33942.45
496.20	34178.84
496.38	33996.28
496.55	34029.05
496.73	34679.72
496.91	34787.38
497.09	35185.27
497.26	35033.14
497.44	34976.97
497.62	35271.87
497.79	36006.80
497.97	35456.78
498.14	36311.07
498.32	36701.94
498.50	36107.44
498.67	36809.61
498.85	36236.17
499.03	36849.39
499.20	36975.78
499.38	36882.16
499.56	37195.79
499.73	37483.68
499.91	37486.02
500.08	37956.47
500.26	37748.16
500.44	37589.00
500.61	37890.93
500.79	38279.46
500.97	38171.80
501.14	38841.19
501.32	38740.55
501.49	38925.45
501.67	38625.86
501.84	39140.78
502.02	39508.24
502.20	38827.15
502.37	39711.87
502.55	39232.06
502.72	39618.25
502.90	39814.85
503.07	39959.97
503.25	39529.31
503.43	39709.53
503.60	40149.55
503.78	40479.57
503.95	40212.74
504.13	41155.98
504.30	40444.46
504.48	40582.55
504.65	41048.32
504.83	41041.29
505.01	41340.88
505.18	41273.01
505.36	41649.83
505.53	41481.31
505.71	41530.47
505.88	41813.67
506.06	41696.64
506.23	42155.39
506.41	42160.07
506.58	42155.39
506.76	42246.67
506.93	42117.94
507.11	42546.26
507.28	42667.97
507.46	42913.72
507.63	43166.50
507.81	43459.07
507.98	42878.61
508.16	43660.35
508.33	43569.07
508.50	43496.52
508.68	43814.83
508.85	43866.32
509.03	43789.08
509.20	44212.72
509.38	44428.05
509.55	44453.79
509.73	44591.89
509.90	44931.26
510.08	44816.58
510.25	45153.62
510.42	44996.80
510.60	45251.92
510.77	45324.47
510.95	45411.07
511.12	45329.16
511.30	45263.62
511.47	45982.16
511.64	45422.78
511.82	45968.12
511.99	45808.96
512.17	46358.99
512.34	46033.66
512.51	46794.33
512.69	46260.69
512.86	46431.55
513.04	47002.64
513.21	46579.00
513.38	47196.90
513.56	47311.59
513.73	47023.70
513.90	47091.58
514.08	46859.87
514.25	47316.27
514.43	47166.48
514.60	47805.44
514.77	47232.01
514.95	47840.55
515.12	48149.50
515.29	47758.63
515.47	47957.58
515.64	48332.06
515.81	48193.97
515.99	48039.50
516.16	48484.20
516.33	48732.29
516.51	48905.49
516.68	48491.22
516.85	48741.66
517.03	49263.60
517.20	49034.22
517.37	48704.21
517.54	49389.98
517.72	49146.57
517.89	49617.02
518.06	49446.16
518.24	49560.84
518.41	48945.28
518.58	49712.98
518.75	49776.17
518.93	49904.90
519.10	49654.47
519.27	49989.16
519.45	49771.49
519.62	50178.75
519.79	50188.11
519.96	50335.56
520.14	50143.64
520.31	50031.29
520.48	50440.89
520.65	50438.54
520.83	50761.54
521.00	50688.98
521.17	50719.41
521.34	50967.51
521.52	50939.42
521.69	51112.62
521.86	51026.02
522.03	51278.80
522.20	51386.46
522.38	51344.33
522.55	51620.52
522.72	51234.33
522.89	51606.47
523.07	51503.49
523.24	51543.28
523.41	51934.15
523.58	51924.78
523.75	52142.45
523.92	51859.25
524.10	52163.52
524.27	52123.73
524.44	52123.73
524.61	52030.11
524.78	52528.64
524.96	52289.91
525.13	52310.97
525.30	52378.85
525.47	52685.46
525.64	52266.50
525.81	52678.44
525.98	52612.90
526.16	52821.21
526.33	52676.10
526.50	53357.19
526.67	52959.30
526.84	52889.09
527.01	52910.15
527.18	53027.18
527.36	53162.93
527.53	53134.84
527.70	53682.53
527.87	53467.20
528.04	53443.79
528.21	53406.34
528.38	53485.92
528.55	53785.51
528.72	53509.33
528.89	53532.73
529.07	53415.71
529.24	53619.33
529.41	53996.16
529.58	53970.41
529.75	53785.51
529.92	53956.37
530.09	54138.93
530.26	54120.21
530.43	54223.19
530.60	54003.18
530.77	54178.72
530.94	54394.05
531.11	53874.45
531.28	54396.39
531.46	54445.54
531.63	54361.28
531.80	54220.85
531.97	54396.39
532.14	54361.28
532.31	54499.37
532.48	54520.44
532.65	54742.79
532.82	54703.00
532.99	54951.10
533.16	54784.92
533.33	54904.29
533.50	55220.26
533.67	54869.18
533.84	54927.69
534.01	55187.49
534.18	55021.31
534.35	55409.84
534.52	55133.66
534.69	55241.32
534.86	55327.92
535.03	55229.62
535.20	55178.13
535.37	55466.02
535.54	55543.25
535.71	55466.02
535.88	55430.91
536.05	55625.17
536.22	55512.83
536.38	55639.22
536.55	55770.28
536.72	55566.66
536.89	55601.77
537.06	56027.74
537.23	55763.26
537.40	55711.77
537.57	55781.99
537.74	56011.36
537.91	56179.88
538.08	56076.90
538.25	55880.29
538.42	56247.75
538.59	56397.55
538.75	56151.79
538.92	56231.37
539.09	56179.88
539.26	56336.69
539.43	56203.28
539.60	56191.58
539.77	56243.07
539.94	56521.60
540.11	56367.12
540.28	56505.21
540.44	56575.43
540.61	56633.94
540.78	56413.93
540.95	56521.60
541.12	56774.37
541.29	56507.55
541.46	56659.69
541.62	56596.49
541.79	56821.19
541.96	56418.61
542.13	56893.74
542.30	56718.20
542.47	57036.51
542.63	56921.83
542.80	57167.58
542.97	57165.24
543.14	57312.70
543.31	57237.80
543.48	57193.33
543.64	57593.56
543.81	57467.17
543.98	57308.02
544.15	57467.17
544.32	57303.34
544.48	57612.29
544.65	57815.91
544.82	57535.05
544.99	57478.88
545.16	57560.79
545.32	57331.42
545.49	57855.70
545.66	57865.06
545.83	57703.57
546.00	57682.50
546.16	57633.35
546.33	57612.29
546.50	57705.91
546.67	57979.75
546.83	57488.24
547.00	57712.93
547.17	57654.42
547.34	57928.26
547.50	58127.20
547.67	58251.25
547.84	58211.46
548.00	58066.35
548.17	58368.28
548.34	58237.21
548.51	58396.37
548.67	58464.24
548.84	58274.66
549.01	58162.31
549.18	58356.58
549.34	58457.22
549.51	58466.58
549.68	58419.77
549.84	58309.77
550.01	58555.52
550.18	58279.34
550.34	58581.27
550.51	58546.16
550.68	58660.85
550.84	58349.56
551.01	58426.79
551.18	58445.52
551.34	58679.57
551.51	58763.83
551.68	58651.48
551.84	58597.65
552.01	58660.85
552.18	58784.90
552.34	58663.19
552.51	58710.00
552.68	58585.95
552.84	58719.36
553.01	58979.16
553.18	58749.79
553.34	59267.05
553.51	59068.10
553.67	58920.65
553.84	58873.84
554.01	58951.07
554.17	59271.73
554.34	59318.54
554.51	59180.45
554.67	59112.57
554.84	59056.40
555.00	59143.00
555.17	59089.16
555.33	59072.78
555.50	59150.02
555.67	58962.78
555.83	59098.53
556.00	59276.41
556.16	59444.93
556.33	59203.85
556.50	59217.89
556.66	59381.73
556.83	59276.41
556.99	59601.74
557.16	59557.27
557.32	59564.29
557.49	59557.27
557.65	59442.59
557.82	59386.41
557.98	59512.80
558.15	59613.44
558.32	59686.00
558.48	59482.37
558.65	59515.14
558.81	59636.85
558.98	59543.23
559.14	59573.66
559.31	59669.62
559.47	59702.38
559.64	59746.86
559.80	59791.33
559.97	59723.45
560.13	59683.66
560.30	59686.00
560.46	59728.13
560.63	59896.65
560.79	59901.33
560.96	59863.88
561.12	59870.90
561.29	59941.12
561.45	59821.75
561.61	59700.04
561.78	59945.80
561.94	59753.88
562.11	59817.07
562.27	59882.61
562.44	59978.57
562.60	60147.09
562.77	60058.15
562.93	59810.05
563.10	60210.28
563.26	59936.44
563.42	60331.99
563.59	60051.12
563.75	60257.09
563.92	60240.71
564.08	60130.70
564.24	60385.82
564.41	60339.01
564.57	60395.18
564.74	60402.21
564.90	60434.97
565.07	60168.15
565.23	60252.41
565.39	60229.01
565.56	60285.18
565.72	60411.57
565.88	60460.72
566.05	60203.26
566.21	60280.50
566.38	60495.83
566.54	60156.45
566.70	60364.76
566.87	60598.81
567.03	60172.83
567.19	60519.23
567.36	60285.18
567.52	60224.32
567.68	60612.85
567.85	60577.75
568.01	60540.30
568.17	60313.26
568.34	60439.65
568.50	60296.88
568.66	60528.59
568.83	60502.85
568.99	60348.37
569.15	60580.09
569.32	60598.81
569.48	60453.70
569.64	60477.10
569.81	60378.80
569.97	60563.70
570.13	60512.21
570.30	60418.59
570.46	60676.05
570.62	60554.34
570.78	60734.56
570.95	60685.41
571.11	60753.29
571.27	60430.29
571.43	60589.45
571.60	60886.70
571.76	60495.83
571.92	60596.47
572.09	60713.50
572.25	60683.07
572.41	60629.24
572.57	60683.07
572.74	60975.64
572.90	60727.54
573.06	60851.59
573.22	60694.77
573.38	60603.49
573.55	60603.49
573.71	60774.35
573.87	60877.33
574.03	60711.16
574.20	60650.30
574.36	60701.79
574.52	60905.42
574.68	60807.12
574.84	60931.17
575.01	60940.53
575.17	60891.38
575.33	60760.31
575.49	60683.07
575.65	60800.10
575.82	60999.04
575.98	60767.33
576.14	60928.83
576.30	60828.18
576.46	60753.29
576.62	60774.35
576.79	60699.45
576.95	60786.05
577.11	60865.63
577.27	60835.20
577.43	61062.24
577.59	60867.97
577.75	60996.70
577.92	60729.88
578.08	60844.57
578.24	60903.08
578.40	61116.07
578.56	61085.64
578.72	60926.49
578.88	61153.52
579.04	61240.12
579.21	60764.99
579.37	60940.53
579.53	60977.98
579.69	60781.37
579.85	60891.38
580.01	60872.65
580.17	60741.58
580.33	61034.15
580.49	61083.30
580.65	61087.98
580.82	60996.70
580.98	60924.14
581.14	60872.65
581.30	61099.68
581.46	61003.72
581.62	60992.02
581.78	60816.48
581.94	60992.02
582.10	61109.05
582.26	60903.08
582.42	61118.41
582.58	60907.76
582.74	60956.91
582.90	61024.79
583.06	60968.61
583.22	60938.19
583.38	60931.17
583.54	60905.42
583.70	61073.94
583.86	61116.07
584.02	61006.06
584.18	61045.85
584.34	61092.66
584.50	61130.11
584.66	60954.57
584.82	60900.74
584.98	61202.67
585.14	61256.50
585.30	60886.70
585.46	61127.77
585.62	61095.00
585.78	61134.79
585.94	60942.87
586.10	61008.40
586.26	61113.73
586.42	61041.17
586.58	61160.54
586.74	61045.85
586.90	61186.28
587.06	60992.02
587.22	61511.62
587.38	61153.52
587.54	61237.78
587.70	61450.77
587.86	61270.54
588.02	61148.84
588.18	61300.97
588.34	61322.04
588.49	61223.73
