SpectraSuite Data File
++++++++++++++++++++++++++++++++++++
Date: Fri Oct 25 11:23:33 EDT 2013
User: price-jones
Dark Spectrum Present: No
Reference Spectrum Present: No
Number of Sampled Component Spectra: 1
Spectrometers: USB2+H05261
Integration Time (usec): 100000 (USB2+H05261)
Spectra Averaged: 1 (USB2+H05261)
Boxcar Smoothing: 0 (USB2+H05261)
Correct for Electrical Dark: No (USB2+H05261)
Strobe/Lamp Enabled: No (USB2+H05261)
Correct for Detector Non-linearity: No (USB2+H05261)
Correct for Stray Light: No (USB2+H05261)
Number of Pixels in Processed Spectrum: 2048
>>>>>Begin Processed Spectral Data<<<<<
365.73	311.29
365.92	311.29
366.12	311.29
366.32	70.22
366.52	128.73
366.72	166.18
366.91	142.77
367.11	128.73
367.31	110.01
367.51	84.26
367.70	105.32
367.90	142.77
368.10	149.79
368.30	154.48
368.49	95.96
368.69	196.60
368.89	168.52
369.09	147.45
369.28	166.18
369.48	86.60
369.68	142.77
369.87	198.95
370.07	191.92
370.27	180.22
370.47	369.80
370.66	592.16
370.86	674.07
371.06	697.48
371.25	770.04
371.45	667.05
371.65	664.71
371.84	713.86
372.04	655.35
372.24	725.57
372.44	697.48
372.63	697.48
372.83	816.85
373.03	786.42
373.22	758.33
373.42	793.44
373.62	763.01
373.81	863.66
374.01	793.44
374.21	802.80
374.40	786.42
374.60	788.76
374.79	744.29
374.99	849.61
375.19	840.25
375.38	784.08
375.58	849.61
375.78	908.13
375.97	830.89
376.17	947.92
376.37	898.77
376.56	868.34
376.76	800.46
376.95	833.23
377.15	861.32
377.35	835.57
377.54	922.17
377.74	945.58
377.93	873.02
378.13	905.79
378.33	968.98
378.52	877.70
378.72	971.32
378.91	961.96
379.11	971.32
379.31	985.37
379.50	957.28
379.70	1004.09
379.89	978.34
380.09	1022.81
380.28	966.64
380.48	1004.09
380.68	1001.75
380.87	1011.11
381.07	968.98
381.26	1041.54
381.46	1048.56
381.65	1011.11
381.85	985.37
382.04	1008.77
382.24	1050.90
382.43	1078.99
382.63	1074.31
382.83	999.41
383.02	1172.61
383.22	1036.86
383.41	1053.24
383.61	1104.73
383.80	1191.33
384.00	1130.48
384.19	1163.25
384.39	1186.65
384.58	1116.44
384.78	1114.10
384.97	1160.91
385.17	1158.57
385.36	1100.05
385.56	1188.99
385.75	1231.12
385.95	1179.63
386.14	1203.04
386.34	1188.99
386.53	1200.69
386.72	1121.12
386.92	1247.51
387.11	1242.82
387.31	1235.80
387.50	1249.85
387.70	1233.46
387.89	1315.38
388.09	1240.48
388.28	1275.59
388.48	1228.78
388.67	1315.38
388.86	1219.42
389.06	1324.74
389.25	1266.23
389.45	1343.47
389.64	1343.47
389.84	1430.07
390.03	1406.66
390.22	1451.13
390.42	1490.92
390.61	1315.38
390.81	1320.06
391.00	1289.64
391.19	1348.15
391.39	1385.60
391.58	1406.66
391.78	1378.58
391.97	1535.39
392.16	1514.33
392.36	1535.39
392.55	1507.30
392.75	1561.14
392.94	1434.75
393.13	1586.88
393.33	1507.30
393.52	1572.84
393.71	1577.52
393.91	1540.07
394.10	1575.18
394.29	1589.22
394.49	1621.99
394.68	1636.03
394.88	1582.20
395.07	1661.78
395.26	1722.63
395.46	1680.50
395.65	1727.32
395.84	1739.02
396.04	1837.32
396.23	1778.81
396.42	1682.85
396.62	1886.47
396.81	1795.19
397.00	1750.72
397.19	1830.30
397.39	1797.53
397.58	1851.36
397.77	1837.32
397.97	1762.42
398.16	1785.83
398.35	1952.01
398.55	1928.60
398.74	1907.54
398.93	1980.09
399.12	1980.09
399.32	1937.96
399.51	1968.39
399.70	1975.41
399.90	1982.43
400.09	2026.90
400.28	2073.71
400.47	2071.37
400.67	2132.23
400.86	2036.27
401.05	2111.16
401.24	2031.58
401.44	2118.18
401.63	2122.87
401.82	2214.15
402.01	2134.57
402.21	2127.55
402.40	2200.10
402.59	2122.87
402.78	2352.24
402.97	2235.21
403.17	2267.98
403.36	2314.79
403.55	2284.36
403.74	2310.11
403.93	2300.75
404.13	2232.87
404.32	2406.07
404.51	2361.60
404.70	2448.20
404.89	2450.54
405.09	2518.42
405.28	2413.09
405.47	2506.71
405.66	2630.76
405.85	2532.46
406.05	2518.42
406.24	2485.65
406.43	2576.93
406.62	2637.78
406.81	2541.82
407.00	2612.04
407.20	2586.29
407.39	2583.95
407.58	2654.17
407.77	2806.30
407.96	2752.47
408.15	2803.96
408.34	2810.98
408.54	2745.45
408.73	2885.88
408.92	2850.77
409.11	2757.15
409.30	2813.32
409.49	2935.03
409.68	2904.60
409.87	2930.35
410.07	2965.46
410.26	3061.42
410.45	2906.95
410.64	2979.50
410.83	2960.78
411.02	3091.85
411.21	3157.38
411.40	3073.12
411.59	3173.77
411.78	3194.83
411.98	3265.05
412.17	3365.69
412.36	3225.26
412.55	3328.24
412.74	3344.63
412.93	3344.63
413.12	3325.90
413.31	3562.30
413.50	3389.10
413.69	3562.30
413.88	3604.42
414.07	3545.91
414.26	3709.75
414.45	3782.31
414.64	3681.66
414.83	3693.37
415.02	3829.12
415.22	3918.06
415.41	3871.25
415.60	3882.95
415.79	3971.89
415.98	3857.20
416.17	4063.17
416.36	3962.53
416.55	4032.74
416.74	4105.30
416.93	4042.11
417.12	4273.82
417.31	4107.64
417.50	4217.65
417.69	4203.60
417.88	4142.75
418.07	4131.05
418.26	4245.73
418.45	4470.42
418.64	4437.66
418.83	4526.60
419.02	4437.66
419.21	4503.19
419.39	4554.68
419.58	4521.92
419.77	4393.19
419.96	4566.39
420.15	4676.39
420.34	4648.30
420.53	4697.46
420.72	4711.50
420.91	4683.41
421.10	4643.62
421.29	4802.78
421.48	4727.88
421.67	4734.90
421.86	4676.39
422.05	4784.06
422.24	4774.69
422.43	4858.95
422.61	4947.89
422.80	4990.02
422.99	4765.33
423.18	4947.89
423.37	5013.43
423.56	5160.88
423.75	4880.02
423.94	4912.78
424.13	4648.30
424.32	4805.12
424.50	5006.41
424.69	5153.86
424.88	5130.45
425.07	4851.93
425.26	4975.98
425.45	5006.41
425.64	4945.55
425.83	4891.72
426.01	4943.21
426.20	4990.02
426.39	5074.28
426.58	4910.44
426.77	5100.03
426.96	5053.22
427.15	5153.86
427.33	5177.26
427.52	4997.04
427.71	5352.81
427.90	5298.97
428.09	5315.36
428.28	5242.80
428.46	5495.58
428.65	5303.65
428.84	5348.12
429.03	5530.69
429.22	5383.23
429.40	5572.82
429.59	5636.01
429.78	5249.82
429.97	5268.55
430.16	5350.46
430.34	5589.20
430.53	5554.09
430.72	5568.13
430.91	5731.97
431.10	5647.71
431.28	5877.09
431.47	5879.43
431.66	5912.19
431.85	5767.08
432.03	5830.27
432.22	5921.56
432.41	5830.27
432.60	5949.64
432.79	5834.96
432.97	5970.71
433.16	6148.59
433.35	5984.75
433.54	6045.60
433.72	6033.90
433.91	6038.58
434.10	6188.38
434.28	6064.33
434.47	6200.08
434.66	6183.70
434.85	6382.64
435.03	6345.19
435.22	6193.06
435.41	6448.18
435.59	6480.94
435.78	6403.71
435.97	6462.22
436.16	6420.09
436.34	6434.13
436.53	6487.96
436.72	6558.18
436.90	6401.37
437.09	6668.19
437.28	6471.58
437.46	6654.14
437.65	6586.27
437.84	6740.74
438.02	6731.38
438.21	6712.66
438.40	6670.53
438.58	7007.56
438.77	6986.50
438.96	6977.14
439.14	7056.72
439.33	7201.83
439.52	7194.81
439.70	7302.47
439.89	7157.36
440.08	7358.64
440.26	7215.87
440.45	7365.67
440.63	7576.31
440.82	7616.10
441.01	7543.55
441.19	7726.11
441.38	7730.79
441.57	7885.26
441.75	7747.17
441.94	7889.95
442.12	7906.33
442.31	8138.04
442.50	8224.64
442.68	8067.83
442.87	8021.02
443.05	8098.25
443.24	8226.98
443.43	8084.21
443.61	8128.68
443.80	8236.35
443.98	8074.85
444.17	7840.79
444.35	8315.92
444.54	8327.63
444.73	8294.86
444.91	8226.98
445.10	8458.70
445.28	8280.82
445.47	8250.39
445.65	8374.44
445.84	8432.95
446.02	8603.81
446.21	8430.61
446.39	8484.44
446.58	8533.59
446.77	8374.44
446.95	8369.76
447.14	8449.33
447.32	8629.56
447.51	8306.56
447.69	8358.05
447.88	8491.46
448.06	8461.04
448.25	8451.67
448.43	8643.60
448.62	8470.40
448.80	8554.66
448.99	8645.94
449.17	8716.16
449.36	8695.09
449.54	8844.88
449.73	8702.11
449.91	8999.36
450.10	8767.65
450.28	8994.68
450.46	9111.71
450.65	9004.04
450.83	9132.77
451.02	9296.61
451.20	9322.35
451.39	9088.30
451.57	9013.40
451.76	9151.49
451.94	9172.56
452.13	9259.16
452.31	9352.78
452.49	9125.75
452.68	9423.00
452.86	9074.26
453.05	9439.38
453.23	9530.66
453.42	9415.98
453.60	9341.08
453.78	9621.94
453.97	9528.32
454.15	9378.53
454.34	9633.64
454.52	9628.96
454.70	9715.56
454.89	9898.13
455.07	9703.86
455.26	10026.86
455.44	10022.17
455.62	9942.60
455.81	9954.30
455.99	10043.24
456.17	10164.95
456.36	10099.41
456.54	10106.43
456.73	10317.08
456.91	10506.66
457.09	10349.85
457.28	10516.03
457.46	10413.04
457.64	10483.26
457.83	10459.85
458.01	10452.83
458.19	10726.68
458.38	10342.83
458.56	10810.93
458.74	10518.37
458.93	10621.35
459.11	10698.59
459.29	10768.80
459.48	10764.12
459.66	10740.72
459.84	10949.03
460.03	10871.79
460.21	11082.44
460.39	10733.70
460.57	10916.26
460.76	11073.07
460.94	11166.70
461.12	11185.42
461.31	11136.27
461.49	11115.20
461.67	11152.65
461.85	11323.51
462.04	11204.14
462.22	11857.15
462.40	11721.40
462.59	11562.25
462.77	11548.20
462.95	11676.93
463.13	11293.08
463.32	11562.25
463.50	11552.88
463.68	11950.78
463.86	11925.03
464.05	11683.95
464.23	11676.93
464.41	12028.01
464.59	11812.68
464.78	12264.41
464.96	11953.12
465.14	11915.67
465.32	12131.00
465.50	11885.24
465.69	12147.38
465.87	12070.14
466.05	12149.72
466.23	12315.90
466.41	12147.38
466.60	12320.58
466.78	12180.15
466.96	12306.54
467.14	12236.32
467.32	12528.89
467.51	12545.27
467.69	12224.62
467.87	12423.56
468.05	12479.74
468.23	12329.94
468.41	12346.33
468.60	12561.66
468.78	12910.40
468.96	12587.40
469.14	12716.13
469.32	12833.16
469.50	12631.87
469.69	13046.15
469.87	13041.46
470.05	13027.42
470.23	13261.48
470.41	13364.46
470.59	13439.36
470.77	13289.56
470.95	13256.79
471.14	13577.45
471.32	13174.88
471.50	13441.70
471.68	13556.38
471.86	13720.22
472.04	13823.20
472.22	13874.70
472.40	13661.71
472.58	13888.74
472.77	13970.66
472.95	14263.22
473.13	14595.58
473.31	13832.57
473.49	14026.83
473.67	14148.54
473.85	14331.10
474.03	14782.82
474.21	14656.43
474.39	14850.70
474.57	14581.54
474.75	15105.82
474.93	15208.80
475.12	14867.08
475.30	15012.20
475.48	15229.87
475.66	15087.09
475.84	15082.41
476.02	15131.56
476.20	15117.52
476.38	15618.39
476.56	16121.61
476.74	16018.63
476.92	15793.94
477.10	16051.39
477.28	16308.85
477.46	16257.36
477.64	16404.81
477.82	16446.94
478.00	16786.32
478.18	16727.81
478.36	17123.36
478.54	17041.44
478.72	17224.00
478.90	17355.07
479.08	17579.76
479.26	17848.93
479.44	17867.65
479.62	17806.80
479.80	17949.57
479.98	18405.97
480.16	18324.05
480.34	18359.16
480.52	18445.76
480.70	18661.09
480.88	18078.30
481.06	18941.96
481.24	18778.12
481.41	19150.26
481.59	19590.28
481.77	19548.15
481.95	19407.72
482.13	19522.41
482.31	19819.66
482.49	20634.16
482.67	20046.69
482.85	20217.55
483.03	20683.31
483.21	20720.76
483.39	21008.65
483.57	21085.89
483.74	21106.95
483.92	21427.60
484.10	21170.15
484.28	21682.72
484.46	22181.26
484.64	22073.59
484.82	21865.28
485.00	22122.74
485.18	22789.80
485.35	22845.97
485.53	22869.37
485.71	23044.91
485.89	23674.52
486.07	23435.78
486.25	23484.94
486.43	23983.47
486.61	24182.42
486.78	23908.57
486.96	23920.28
487.14	24833.08
487.32	24657.54
487.50	24669.25
487.68	24802.66
487.85	25041.39
488.03	25584.40
488.21	25535.24
488.39	25642.91
488.57	25926.11
488.75	26302.94
488.92	26644.66
489.10	26817.86
489.28	27044.89
489.46	27356.18
489.64	27225.11
489.81	27676.83
489.99	27707.26
490.17	27491.93
490.35	28074.73
490.53	28212.82
490.70	28362.61
490.88	28327.50
491.06	28694.97
491.24	28772.21
491.41	29017.96
491.59	28992.22
491.77	29116.26
491.95	29790.34
492.13	29813.74
492.30	30110.99
492.48	30213.98
492.66	30370.79
492.84	30628.25
493.01	30838.90
493.19	30391.86
493.37	31164.23
493.54	31386.58
493.72	31665.11
493.90	31232.11
494.08	31740.00
494.25	32184.71
494.43	32163.64
494.61	32648.13
494.79	32254.92
494.96	32617.71
495.14	32685.58
495.32	33109.22
495.49	33064.75
495.67	33118.58
495.85	33755.21
496.02	33668.61
496.20	34382.47
496.38	34073.52
496.55	34363.75
496.73	35110.38
496.91	34742.91
497.09	34869.30
497.26	35091.65
497.44	34913.77
497.62	35140.80
497.79	35913.18
497.97	35674.45
498.14	35665.08
498.32	36432.78
498.50	36126.17
498.67	36449.16
498.85	36332.14
499.03	36830.67
499.20	36701.94
499.38	36992.17
499.56	36964.08
499.73	37446.23
499.91	37378.36
500.08	37567.94
500.26	37640.50
500.44	37743.48
500.61	37907.32
500.79	37488.36
500.97	38436.28
501.14	38756.93
501.32	38270.10
501.49	39054.18
501.67	38986.30
501.84	38848.21
502.02	38967.58
502.20	39159.50
502.37	39526.97
502.55	39503.56
502.72	39351.43
502.90	39817.19
503.07	39328.02
503.25	40055.93
503.43	40142.53
503.60	40102.74
503.78	40004.44
503.95	40313.39
504.13	40755.75
504.30	40570.85
504.48	40542.76
504.65	40914.90
504.83	40999.16
505.01	41256.62
505.18	41233.22
505.36	41280.03
505.53	41074.06
505.71	41698.98
505.88	41771.54
506.06	41684.94
506.23	41872.18
506.41	41785.58
506.58	42131.98
506.76	42391.78
506.93	42536.90
507.11	42080.49
507.28	42838.83
507.46	42871.59
507.63	43299.91
507.81	43489.49
507.98	42763.93
508.16	43253.10
508.33	43367.79
508.50	43501.20
508.68	43894.41
508.85	44039.52
509.03	43739.93
509.20	43875.68
509.38	44266.55
509.55	44268.89
509.73	44453.79
509.90	44758.06
510.08	44882.11
510.25	44734.66
510.42	45008.50
510.60	44896.16
510.77	45574.91
510.95	45226.17
511.12	45251.92
511.30	45404.05
511.47	45467.25
511.64	45675.55
511.82	45614.70
511.99	45677.90
512.17	45830.03
512.34	45998.55
512.51	46630.49
512.69	46529.85
512.86	46412.82
513.04	46623.47
513.21	46691.35
513.38	46740.50
513.56	47224.99
513.73	46539.21
513.90	47112.64
514.08	46934.76
514.25	47316.27
514.43	47519.90
514.60	47358.40
514.77	47171.16
514.95	47770.33
515.12	47484.79
515.29	47765.65
515.47	47838.21
515.64	47866.30
515.81	47608.84
515.99	48406.96
516.16	48479.52
516.33	48313.34
516.51	48982.73
516.68	48418.66
516.85	48374.19
517.03	48952.30
517.20	48809.53
517.37	48800.17
517.54	49116.14
517.72	48889.11
517.89	49179.34
518.06	49397.01
518.24	49371.26
518.41	49223.81
518.58	49628.72
518.75	49116.14
518.93	49474.24
519.10	49329.13
519.27	49656.81
519.45	49947.03
519.62	50099.17
519.79	50120.23
519.96	49893.20
520.14	50213.85
520.31	49738.72
520.48	50770.90
520.65	50403.44
520.83	50843.46
521.00	50504.08
521.17	50391.73
521.34	50719.41
521.52	50990.91
521.69	50593.02
521.86	51145.39
522.03	51140.71
522.20	51320.93
522.38	51487.10
522.55	51152.41
522.72	51594.77
522.89	50899.63
523.07	51739.88
523.24	51395.82
523.41	51849.89
523.58	51611.15
523.75	51774.99
523.92	51929.47
524.10	52020.75
524.27	52025.43
524.44	52102.67
524.61	52399.91
524.78	52280.55
524.96	51791.37
525.13	52402.25
525.30	52285.23
525.47	52505.24
525.64	52715.89
525.81	52853.98
525.98	52657.37
526.16	52673.76
526.33	52605.88
526.50	53095.05
526.67	52933.56
526.84	52767.38
527.01	53071.65
527.18	52790.78
527.36	53045.90
527.53	53162.93
527.70	53418.05
527.87	53471.88
528.04	53036.54
528.21	53120.80
528.38	53172.29
528.55	53645.08
528.72	53233.14
528.89	53631.04
529.07	53404.00
529.24	53439.11
529.41	53717.64
529.58	53928.28
529.75	53602.95
529.92	53951.69
530.09	53972.75
530.26	53996.16
530.43	54073.40
530.60	53666.14
530.77	53829.98
530.94	54234.89
531.11	54068.72
531.28	54145.95
531.46	54047.65
531.63	54347.24
531.80	54157.66
531.97	54401.07
532.14	54740.45
532.31	54651.51
532.48	54651.51
532.65	54602.36
532.82	54382.35
532.99	54791.94
533.16	54520.44
533.33	54780.24
533.50	55011.95
533.67	54967.48
533.84	54555.55
534.01	55028.34
534.18	55098.55
534.35	55405.16
534.52	55119.62
534.69	55388.78
534.86	55241.32
535.03	55278.77
535.20	55150.04
535.37	55475.38
535.54	55330.26
535.71	55054.08
535.88	55601.77
536.05	55435.59
536.22	55615.81
536.38	55728.16
536.55	55594.74
536.72	55683.69
536.89	55304.52
537.06	55901.36
537.23	55702.41
537.40	55702.41
537.57	55807.73
537.74	55781.99
537.91	55948.17
538.08	55934.12
538.25	55646.24
538.42	56041.79
538.59	56371.80
538.75	55941.14
538.92	55723.47
539.09	56222.01
539.26	56140.09
539.43	56254.78
539.60	56285.20
539.77	56191.58
539.94	56416.27
540.11	56343.72
540.28	56636.28
540.44	56442.02
540.61	56573.09
540.78	56533.30
540.95	56397.55
541.12	56280.52
541.29	56537.98
541.46	56629.26
541.62	56577.77
541.79	56868.00
541.96	56491.17
542.13	56507.55
542.30	56657.35
542.47	56765.01
542.63	56968.64
542.80	56856.29
542.97	57020.13
543.14	57319.72
543.31	57132.48
543.48	57174.61
543.64	57687.18
543.81	57439.09
543.98	57240.14
544.15	57233.12
544.32	57567.82
544.48	57429.72
544.65	57226.10
544.82	57602.92
544.99	57315.04
545.16	57666.12
545.32	57563.14
545.49	57556.11
545.66	58064.01
545.83	57698.89
546.00	58087.42
546.16	57687.18
546.33	57598.24
546.50	57345.47
546.67	57815.91
546.83	57450.79
547.00	57937.62
547.17	57631.01
547.34	58021.88
547.50	57946.98
547.67	58061.67
547.84	58314.45
548.00	58326.15
548.17	58232.53
548.34	58248.91
548.51	58576.59
548.67	58312.11
548.84	58433.81
549.01	58138.91
549.18	58033.58
549.34	58539.14
549.51	58372.96
549.68	58372.96
549.84	58188.06
550.01	58475.94
550.18	58356.58
550.34	58410.41
550.51	58632.76
550.68	58564.88
550.84	58368.28
551.01	58637.44
551.18	58679.57
551.34	58731.06
551.51	58527.44
551.68	58581.27
551.84	58777.87
552.01	58642.12
552.18	58731.06
552.34	58461.90
552.51	58972.14
552.68	58567.23
552.84	58789.58
553.01	59054.06
553.18	58951.07
553.34	58897.24
553.51	58756.81
553.67	58946.39
553.84	58862.13
554.01	58836.39
554.17	59290.45
554.34	58836.39
554.51	59037.67
554.67	59147.68
554.84	59180.45
555.00	59126.61
555.17	59004.91
555.33	59061.08
555.50	59152.36
555.67	59000.22
555.83	58937.03
556.00	59222.58
556.16	59533.87
556.33	59260.02
556.50	59063.42
556.66	59276.41
556.83	59124.27
556.99	59484.72
557.16	59510.46
557.32	59503.44
557.49	59512.80
557.65	59430.88
557.82	59543.23
557.98	59402.80
558.15	59491.74
558.32	59463.65
558.48	59618.13
558.65	59473.01
558.81	59599.40
558.98	59587.70
559.14	59653.23
559.31	59590.04
559.47	59833.46
559.64	59601.74
559.80	59639.19
559.97	59831.11
560.13	59611.10
560.30	59777.28
560.46	59920.05
560.63	59735.15
560.79	59653.23
560.96	59948.14
561.12	59805.37
561.29	59894.31
561.45	59840.48
561.61	59863.88
561.78	59678.98
561.94	59959.84
562.11	59800.69
562.27	59882.61
562.44	59957.50
562.60	60046.44
562.77	60175.17
562.93	59770.26
563.10	59980.91
563.26	59709.41
563.42	60278.16
563.59	59896.65
563.75	60058.15
563.92	60268.79
564.08	59971.55
564.24	60170.49
564.41	60081.55
564.57	59948.14
564.74	60009.00
564.90	60147.09
565.07	60214.96
565.23	60093.25
565.39	60186.88
565.56	60285.18
565.72	60165.81
565.88	60238.37
566.05	60151.77
566.21	60046.44
566.38	60287.52
566.54	60196.24
566.70	60420.93
566.87	60514.55
567.03	60067.51
567.19	60479.44
567.36	60275.82
567.52	60320.29
567.68	60463.06
567.85	60186.88
568.01	60374.12
568.17	60441.99
568.34	60521.57
568.50	60460.72
568.66	60343.69
568.83	60598.81
568.99	60474.76
569.15	60622.22
569.32	60175.17
569.48	60402.21
569.64	60701.79
569.81	60346.03
569.97	60343.69
570.13	60547.32
570.30	60336.67
570.46	60500.51
570.62	60608.17
570.78	60615.19
570.95	60453.70
571.11	60622.22
571.27	60418.59
571.43	60577.75
571.60	60804.78
571.76	60465.40
571.92	60760.31
572.09	60727.54
572.25	60561.36
572.41	60619.88
572.57	60725.20
572.74	60764.99
572.90	60444.33
573.06	60552.00
573.22	60729.88
573.38	60837.54
573.55	60748.60
573.71	60788.39
573.87	60748.60
574.03	60481.78
574.20	60729.88
574.36	60708.82
574.52	60753.29
574.68	60837.54
574.84	60849.25
575.01	60769.67
575.17	60580.09
575.33	60893.72
575.49	60713.50
575.65	60734.56
575.82	60844.57
575.98	60729.88
576.14	61113.73
576.30	60963.93
576.46	60853.93
576.62	60715.84
576.79	60825.84
576.95	60622.22
577.11	60797.76
577.27	60898.40
577.43	60835.20
577.59	60837.54
577.75	60769.67
577.92	60662.00
578.08	60800.10
578.24	60807.12
578.40	61099.68
578.56	60867.97
578.72	60832.86
578.88	61020.11
579.04	61085.64
579.21	60912.44
579.37	61085.64
579.53	60989.68
579.69	60877.33
579.85	60776.69
580.01	60891.38
580.17	60917.12
580.33	61008.40
580.49	61095.00
580.65	60966.27
580.82	60940.53
580.98	60877.33
581.14	60849.25
581.30	61017.77
581.46	60851.59
581.62	61123.09
581.78	60832.86
581.94	61179.26
582.10	61144.16
582.26	60919.46
582.42	60849.25
582.58	61080.96
582.74	60903.08
582.90	60886.70
583.06	61006.06
583.22	60811.80
583.38	61029.47
583.54	61022.45
583.70	61134.79
583.86	61006.06
584.02	60821.16
584.18	61193.31
584.34	60973.30
584.50	61052.87
584.66	60977.98
584.82	60849.25
584.98	61209.69
585.14	60947.55
585.30	60828.18
585.46	61095.00
585.62	61132.45
585.78	61329.06
585.94	60961.59
586.10	61027.13
586.26	60996.70
586.42	61048.19
586.58	61125.43
586.74	61085.64
586.90	61078.62
587.06	60942.87
587.22	61188.63
587.38	61174.58
587.54	61345.44
587.70	61071.60
587.86	61183.94
588.02	61169.90
588.18	61064.58
588.34	61001.38
588.49	61052.87
