SpectraSuite Data File
++++++++++++++++++++++++++++++++++++
Date: Fri Oct 25 10:44:48 EDT 2013
User: price-jones
Dark Spectrum Present: No
Reference Spectrum Present: No
Number of Sampled Component Spectra: 1
Spectrometers: USB2+H05261
Integration Time (usec): 100000 (USB2+H05261)
Spectra Averaged: 1 (USB2+H05261)
Boxcar Smoothing: 0 (USB2+H05261)
Correct for Electrical Dark: No (USB2+H05261)
Strobe/Lamp Enabled: No (USB2+H05261)
Correct for Detector Non-linearity: No (USB2+H05261)
Correct for Stray Light: No (USB2+H05261)
Number of Pixels in Processed Spectrum: 2048
>>>>>Begin Processed Spectral Data<<<<<
365.73	95.96
365.92	95.96
366.12	95.96
366.32	18.72
366.52	21.06
366.72	37.45
366.91	0.00
367.11	58.51
367.31	14.04
367.51	23.41
367.70	58.51
367.90	58.51
368.10	2.34
368.30	0.00
368.49	60.85
368.69	0.00
368.89	49.15
369.09	46.81
369.28	84.26
369.48	98.30
369.68	88.94
369.87	124.05
370.07	86.60
370.27	100.64
370.47	280.86
370.66	374.49
370.86	433.00
371.06	430.66
371.25	409.59
371.45	458.74
371.65	479.81
371.84	451.72
372.04	437.68
372.24	444.70
372.44	421.30
372.63	484.49
372.83	491.51
373.03	519.60
373.22	503.22
373.42	505.56
373.62	517.26
373.81	503.22
374.01	585.13
374.21	594.50
374.40	482.15
374.60	503.22
374.79	636.63
374.99	596.84
375.19	603.86
375.38	571.09
375.58	540.66
375.78	545.34
375.97	550.03
376.17	622.58
376.37	514.92
376.56	610.88
376.76	573.43
376.95	608.54
377.15	564.07
377.35	582.79
377.54	629.60
377.74	580.45
377.93	594.50
378.13	638.97
378.33	587.47
378.52	566.41
378.72	610.88
378.91	634.29
379.11	617.90
379.31	617.90
379.50	582.79
379.70	559.39
379.89	699.82
380.09	624.92
380.28	528.96
380.48	643.65
380.68	613.22
380.87	519.60
381.07	645.99
381.26	631.94
381.46	592.16
381.65	592.16
381.85	662.37
382.04	594.50
382.24	622.58
382.43	571.09
382.63	627.26
382.83	650.67
383.02	706.84
383.22	734.93
383.41	760.67
383.61	748.97
383.80	702.16
384.00	629.60
384.19	716.20
384.39	720.88
384.58	737.27
384.78	699.82
384.97	718.54
385.17	746.63
385.36	795.78
385.56	821.53
385.75	763.01
385.95	786.42
386.14	837.91
386.34	741.95
386.53	692.80
386.72	704.50
386.92	784.08
387.11	723.23
387.31	774.72
387.50	760.67
387.70	716.20
387.89	866.00
388.09	823.87
388.28	849.61
388.48	821.53
388.67	866.00
388.86	877.70
389.06	814.51
389.25	856.64
389.45	966.64
389.64	884.72
389.84	891.74
390.03	894.08
390.22	884.72
390.42	947.92
390.61	814.51
390.81	933.87
391.00	929.19
391.19	994.73
391.39	959.62
391.58	997.07
391.78	945.58
391.97	898.77
392.16	933.87
392.36	968.98
392.55	1043.88
392.75	870.68
392.94	954.94
393.13	961.96
393.33	1048.56
393.52	957.28
393.71	1050.90
393.91	1055.58
394.10	1011.11
394.29	1001.75
394.49	1053.24
394.68	1043.88
394.88	1020.47
395.07	1095.37
395.26	1114.10
395.46	1137.50
395.65	1184.31
395.84	1104.73
396.04	1179.63
396.23	1078.99
396.42	1076.65
396.62	1146.86
396.81	1174.95
397.00	1170.27
397.19	1118.78
397.39	1128.14
397.58	1228.78
397.77	1245.16
397.97	1240.48
398.16	1270.91
398.35	1310.70
398.55	1284.95
398.74	1299.00
398.93	1355.17
399.12	1338.79
399.32	1369.21
399.51	1324.74
399.70	1371.55
399.90	1392.62
400.09	1362.19
400.28	1437.09
400.47	1444.11
400.67	1394.96
400.86	1476.88
401.05	1425.39
401.24	1483.90
401.44	1537.73
401.63	1523.69
401.82	1558.80
402.01	1446.45
402.21	1502.62
402.40	1661.78
402.59	1432.41
402.78	1568.16
402.97	1528.37
403.17	1633.69
403.36	1598.59
403.55	1549.43
403.74	1645.40
403.93	1650.08
404.13	1659.44
404.32	1673.48
404.51	1736.68
404.70	1659.44
404.89	1774.13
405.09	1799.87
405.28	1680.50
405.47	1783.49
405.66	1778.81
405.85	1748.38
406.05	1788.17
406.24	1825.62
406.43	1792.85
406.62	1949.67
406.81	1816.26
407.00	1886.47
407.20	1783.49
407.39	1785.83
407.58	1963.71
407.77	1966.05
407.96	1928.60
408.15	1984.77
408.34	1973.07
408.54	1989.46
408.73	1987.11
408.92	2031.58
409.11	2043.29
409.30	2179.04
409.49	2019.88
409.68	2054.99
409.87	2083.08
410.07	2085.42
410.26	2211.81
410.45	2059.67
410.64	2122.87
410.83	2211.81
411.02	2200.10
411.21	2366.28
411.40	2284.36
411.59	2228.19
411.78	2396.71
411.98	2235.21
412.17	2420.11
412.36	2401.39
412.55	2363.94
412.74	2385.01
412.93	2382.67
413.12	2480.97
413.31	2565.23
413.50	2520.76
413.69	2551.18
413.88	2635.44
414.07	2558.21
414.26	2684.59
414.45	2642.46
414.64	2619.06
414.83	2700.98
415.02	2693.96
415.22	2686.94
415.41	2715.02
415.60	2757.15
415.79	2846.09
415.98	2825.03
416.17	2745.45
416.36	2916.31
416.55	2902.26
416.74	2925.67
416.93	2904.60
417.12	2810.98
417.31	3035.67
417.50	3030.99
417.69	3052.06
417.88	3084.83
418.07	2949.08
418.26	3066.10
418.45	3059.08
418.64	3365.69
418.83	3297.81
419.02	3194.83
419.21	3248.66
419.39	3173.77
419.58	3152.70
419.77	3150.36
419.96	3323.56
420.15	3213.56
420.34	3279.09
420.53	3323.56
420.72	3372.71
420.91	3243.98
421.10	3435.91
421.29	3375.05
421.48	3445.27
421.67	3349.31
421.86	3398.46
422.05	3302.50
422.24	3398.46
422.43	3456.97
422.61	3466.33
422.80	3529.53
422.99	3466.33
423.18	3541.23
423.37	3618.47
423.56	3506.12
423.75	3599.74
423.94	3344.63
424.13	3208.87
424.32	3351.65
424.50	3747.20
424.69	3581.02
424.88	3473.36
425.07	3564.64
425.26	3414.84
425.45	3463.99
425.64	3426.54
425.83	3571.66
426.01	3576.34
426.20	3581.02
426.39	3449.95
426.58	3574.00
426.77	3604.42
426.96	3510.80
427.15	3538.89
427.33	3679.32
427.52	3691.02
427.71	3681.66
427.90	3761.24
428.09	3758.90
428.28	3768.26
428.46	3871.25
428.65	3875.93
428.84	3922.74
429.03	3953.16
429.22	3737.84
429.40	3772.94
429.59	3822.09
429.78	3688.68
429.97	3597.40
430.16	3637.19
430.34	3847.84
430.53	3808.05
430.72	4002.32
430.91	3981.25
431.10	4028.06
431.28	4009.34
431.47	4252.75
431.66	4063.17
431.85	3990.61
432.03	4187.22
432.22	4189.56
432.41	4021.04
432.60	4198.92
432.79	4290.20
432.97	4194.24
433.16	4332.33
433.35	4210.62
433.54	4297.22
433.72	4271.48
433.91	4203.60
434.10	4273.82
434.28	4470.42
434.47	4379.14
434.66	4311.27
434.85	4306.59
435.03	4575.75
435.22	4500.85
435.41	4463.40
435.59	4535.96
435.78	4664.69
435.97	4657.67
436.16	4622.56
436.34	4496.17
436.53	4655.33
436.72	4837.89
436.90	4559.36
437.09	4671.71
437.28	4634.26
437.46	4697.46
437.65	4582.77
437.84	4674.05
438.02	4643.62
438.21	4748.95
438.40	4685.75
438.58	4966.62
438.77	5046.20
438.96	4894.06
439.14	4987.68
439.33	4933.85
439.52	5053.22
439.70	5282.59
439.89	5097.69
440.08	5125.77
440.26	5170.24
440.45	5064.92
440.63	5195.99
440.82	5427.70
441.01	5397.28
441.19	5476.85
441.38	5493.24
441.57	5418.34
441.75	5481.53
441.94	5813.89
442.12	5628.99
442.31	5717.93
442.50	5785.80
442.68	5673.46
442.87	5547.07
443.05	5778.78
443.24	5977.73
443.43	5706.23
443.61	5804.53
443.80	5851.34
443.98	5706.23
444.17	5500.26
444.35	5816.23
444.54	5914.53
444.73	5694.52
444.91	5760.06
445.10	5884.11
445.28	5652.39
445.47	5750.70
445.65	6160.29
445.84	5968.37
446.02	5853.68
446.21	6024.54
446.39	5940.28
446.58	6050.28
446.77	6202.42
446.95	5851.34
447.14	6003.47
447.32	6200.08
447.51	6115.82
447.69	5991.77
447.88	6052.63
448.06	5980.07
448.25	6054.97
448.43	6054.97
448.62	6038.58
448.80	5977.73
448.99	6003.47
449.17	6076.03
449.36	5926.24
449.54	6408.39
449.73	6136.88
449.91	6319.45
450.10	6415.41
450.28	6452.86
450.46	6293.70
450.65	6434.13
450.83	6464.56
451.02	6345.19
451.20	6539.46
451.39	6523.07
451.57	6459.88
451.76	6490.31
451.94	6504.35
452.13	6640.10
452.31	6679.89
452.49	6415.41
452.68	6525.41
452.86	6633.08
453.05	6490.31
453.23	6422.43
453.42	6478.60
453.60	6417.75
453.78	6525.41
453.97	6693.93
454.15	6668.19
454.34	6647.12
454.52	6738.40
454.70	6670.53
454.89	6740.74
455.07	6677.55
455.26	6792.23
455.44	6897.56
455.62	7007.56
455.81	7045.01
455.99	7136.29
456.17	6932.67
456.36	7063.74
456.54	7258.00
456.73	7178.42
456.91	7094.16
457.09	7122.25
457.28	7506.10
457.46	7049.69
457.64	7360.98
457.83	7262.68
458.01	7164.38
458.19	7573.97
458.38	7323.54
458.56	7520.14
458.74	7473.33
458.93	7529.50
459.11	7426.52
459.29	7442.90
459.48	7735.47
459.66	7597.38
459.84	7639.51
460.03	7604.40
460.21	7581.00
460.39	7602.06
460.57	7716.75
460.76	7695.68
460.94	7618.44
461.12	7705.04
461.31	7726.11
461.49	7918.03
461.67	7665.25
461.85	7929.74
462.04	7882.92
462.22	8065.49
462.40	8095.91
462.59	8093.57
462.77	8121.66
462.95	8308.90
463.13	7920.37
463.32	8067.83
463.50	8266.77
463.68	8224.64
463.86	7955.48
464.05	8149.75
464.23	8142.72
464.41	8156.77
464.59	8259.75
464.78	8376.78
464.96	8212.94
465.14	8208.26
465.32	8241.03
465.50	8297.20
465.69	8489.12
465.87	8269.11
466.05	8325.29
466.23	8119.32
466.41	8365.07
466.60	8559.34
466.78	8311.24
466.96	8290.18
467.14	8545.30
467.32	8411.89
467.51	8559.34
467.69	8491.46
467.87	8514.87
468.05	8542.96
468.23	8557.00
468.41	8542.96
468.60	8744.24
468.78	8809.78
468.96	8734.88
469.14	8723.18
469.32	8968.93
469.50	8674.03
469.69	8891.70
469.87	8828.50
470.05	8833.18
470.23	8821.48
470.41	8922.12
470.59	9043.83
470.77	9097.66
470.95	9069.58
471.14	9104.68
471.32	9034.47
471.50	9160.86
471.68	9233.41
471.86	9504.92
472.04	9338.74
472.22	9558.75
472.40	9212.35
472.58	9518.96
472.77	9551.73
472.95	9514.28
473.13	9893.44
473.31	9675.77
473.49	9500.23
473.67	9785.78
473.85	9769.40
474.03	9895.78
474.21	9685.14
474.39	10017.49
474.57	9912.17
474.75	10031.54
474.93	10160.27
475.12	10164.95
475.30	10303.04
475.48	10256.23
475.66	10291.34
475.84	10237.50
476.02	10487.94
476.20	10251.55
476.38	10546.45
476.56	10988.82
476.74	10806.25
476.92	10792.21
477.10	10719.65
477.28	10965.41
477.46	10918.60
477.64	11082.44
477.82	11243.93
478.00	11335.21
478.18	11421.81
478.36	11342.24
478.54	11522.46
478.72	11459.26
478.90	11768.21
479.08	11936.73
479.26	11850.13
479.44	12072.48
479.62	12049.08
479.80	12072.48
479.98	12318.24
480.16	12533.57
480.34	12318.24
480.52	12784.01
480.70	12517.18
480.88	12573.36
481.06	12772.30
481.24	12685.70
481.41	12945.50
481.59	12971.25
481.77	13261.48
481.95	12945.50
482.13	13137.43
482.31	13202.96
482.49	13650.00
482.67	13804.48
482.85	13853.63
483.03	13919.17
483.21	13879.38
483.39	14115.77
483.57	14277.27
483.74	14310.04
483.92	14565.15
484.10	14157.90
484.28	14691.54
484.46	14745.38
484.64	14846.02
484.82	14494.94
485.00	14944.32
485.18	15386.68
485.35	15098.80
485.53	15115.18
485.71	15089.43
485.89	15379.66
486.07	15302.42
486.25	15538.82
486.43	15459.24
486.61	15903.94
486.78	16006.92
486.96	15927.35
487.14	16482.05
487.32	16311.19
487.50	16343.96
487.68	16451.63
487.85	16945.48
488.03	16971.22
488.21	17022.72
488.39	17132.72
488.57	17568.06
488.75	17380.82
488.92	17469.76
489.10	17884.03
489.28	17837.22
489.46	17809.14
489.64	17958.93
489.81	18211.71
489.99	18052.55
490.17	18602.58
490.35	18689.18
490.53	18775.78
490.70	18714.92
490.88	18967.70
491.06	19232.18
491.24	19201.76
491.41	19178.35
491.59	19311.76
491.77	19552.84
491.95	19168.99
492.13	20020.94
492.30	19786.89
492.48	19822.00
492.66	19782.21
492.84	19983.49
493.01	20299.47
493.19	20168.40
493.37	20458.62
493.54	20650.55
493.72	20610.76
493.90	20676.29
494.08	20760.55
494.25	21319.94
494.43	21233.34
494.61	21397.18
494.79	21619.53
494.96	21399.52
495.14	21575.06
495.32	21806.77
495.49	21926.14
495.67	21839.54
495.85	22045.51
496.02	22214.02
496.20	22408.29
496.38	22595.53
496.55	22464.46
496.73	22927.89
496.91	22836.61
497.09	22981.72
497.26	23218.11
497.44	22911.50
497.62	23023.85
497.79	23449.83
497.97	23274.29
498.14	23627.71
498.32	23386.63
498.50	23814.95
498.67	23946.02
498.85	23985.81
499.03	24100.50
499.20	24259.65
499.38	24673.93
499.56	24650.52
499.73	24503.07
499.91	24535.84
500.08	24760.53
500.26	24477.32
500.44	24601.37
500.61	24877.55
500.79	24847.13
500.97	24837.76
501.14	25111.61
501.32	25291.83
501.49	25472.05
501.67	25298.85
501.84	25415.88
502.02	25689.72
502.20	25287.15
502.37	25921.43
502.55	25860.58
502.72	26075.91
502.90	26195.28
503.07	25682.70
503.25	25930.80
503.43	26099.31
503.60	26183.57
503.78	26508.91
503.95	26384.86
504.13	26558.06
504.30	26895.10
504.48	26483.16
504.65	26974.67
504.83	27051.91
505.01	27220.43
505.18	27035.53
505.36	27424.06
505.53	27105.74
505.71	27316.39
505.88	27548.11
506.06	27229.79
506.23	27620.66
506.41	27718.96
506.58	27564.49
506.76	27688.54
506.93	28070.04
507.11	27632.36
507.28	27796.20
507.46	27810.25
507.63	28011.53
507.81	28430.49
507.98	28161.33
508.16	28479.64
508.33	28636.45
508.50	28769.86
508.68	28643.48
508.85	29006.26
509.03	28772.21
509.20	28816.68
509.38	28905.62
509.55	29338.62
509.73	29010.94
509.90	29710.76
510.08	29151.37
510.25	29081.16
510.42	29378.40
510.60	29420.53
510.77	29436.92
510.95	30031.41
511.12	29673.31
511.30	30136.74
511.47	30174.19
511.64	30061.84
511.82	30195.25
511.99	29961.20
512.17	30003.33
512.34	30129.72
512.51	30490.16
512.69	30562.72
512.86	30457.39
513.04	30665.70
513.21	30731.23
513.38	30576.76
513.56	30513.56
513.73	30485.48
513.90	30455.05
514.08	30878.69
514.25	31220.41
514.43	30857.62
514.60	30745.28
514.77	31131.47
514.95	31590.21
515.12	31264.88
515.29	31454.46
515.47	32074.70
515.64	31655.75
515.81	31346.79
515.99	31571.49
516.16	32037.25
516.33	31651.06
516.51	32027.89
516.68	31365.52
516.85	31274.24
517.03	31920.23
517.20	31796.18
517.37	32126.19
517.54	32329.82
517.72	32025.55
517.89	31896.82
518.06	32147.26
518.24	32306.41
518.41	32217.47
518.58	32528.77
518.75	32477.27
518.93	32552.17
519.10	32528.77
519.27	32980.49
519.45	32980.49
519.62	33071.77
519.79	33111.56
519.96	32907.93
520.14	33158.37
520.31	33282.42
520.48	33535.20
520.65	33287.10
520.83	33518.81
521.00	33626.48
521.17	33830.10
521.34	34066.50
521.52	33804.36
521.69	33860.53
521.86	34188.21
522.03	34082.88
522.20	33970.54
522.38	34113.31
522.55	34305.23
522.72	34176.50
522.89	34253.74
523.07	34307.57
523.24	34181.18
523.41	34759.30
523.58	34389.49
523.75	34703.12
523.92	34822.49
524.10	35108.04
524.27	35119.74
524.44	35262.51
524.61	35208.68
524.78	35136.12
524.96	35346.77
525.13	35344.43
525.30	35468.48
525.47	35747.00
525.64	35594.87
525.81	35683.81
525.98	35796.15
526.16	35335.07
526.33	35152.51
526.50	35550.40
526.67	35337.41
526.84	34883.34
527.01	35463.80
527.18	36048.93
527.36	36273.62
527.53	35945.95
527.70	36212.77
527.87	36133.19
528.04	36161.28
528.21	36376.61
528.38	36030.21
528.55	36697.26
528.72	36676.19
528.89	36605.98
529.07	36322.77
529.24	36151.91
529.41	36786.20
529.58	36505.34
529.75	36306.39
529.92	36704.28
530.09	36648.11
530.26	36896.20
530.43	36772.16
530.60	37359.63
530.77	37003.87
530.94	36959.40
531.11	36605.98
531.28	37511.77
531.46	37273.03
531.63	37146.64
531.80	37479.00
531.97	37333.89
532.14	37310.48
532.31	37095.15
532.48	37284.73
532.65	37794.97
532.82	37504.74
532.99	37867.53
533.16	37635.81
533.33	37717.73
533.50	37860.51
533.67	37720.07
533.84	37574.96
534.01	38024.34
534.18	37801.99
534.35	38752.25
534.52	38129.67
534.69	38085.20
534.86	38513.52
535.03	38022.00
535.20	38686.71
535.37	38429.26
535.54	38632.88
535.71	38218.61
535.88	38464.36
536.05	38148.39
536.22	38923.11
536.38	38560.33
536.55	38806.08
536.72	38349.68
536.89	38347.34
537.06	38672.67
537.23	38967.58
537.40	38857.57
537.57	39093.97
537.74	38892.68
537.91	39360.79
538.08	38883.32
538.25	38649.27
538.42	38663.31
538.59	38946.51
538.75	38815.44
538.92	38628.20
539.09	39356.11
539.26	39196.95
539.43	39157.16
539.60	39201.63
539.77	39309.30
539.94	39622.93
540.11	39325.68
540.28	39278.87
540.44	39475.48
540.61	39143.12
540.78	39253.12
540.95	40081.67
541.12	38946.51
541.29	39271.85
541.46	39351.43
541.62	39543.35
541.79	40140.19
541.96	39372.49
542.13	39501.22
542.30	39402.92
542.47	40404.67
542.63	39693.15
542.80	40264.24
542.97	40451.48
543.14	40287.64
543.31	40395.31
543.48	40617.66
543.64	41298.75
543.81	40999.16
543.98	40528.72
544.15	40587.23
544.32	40837.67
544.48	40734.68
544.65	40673.83
544.82	41013.21
544.99	40404.67
545.16	40959.38
545.32	40458.50
545.49	41029.59
545.66	41041.29
545.83	41113.85
546.00	40926.61
546.16	41294.07
546.33	41120.87
546.50	41055.34
546.67	40952.35
546.83	40753.41
547.00	41139.60
547.17	41223.86
547.34	41060.02
547.50	41542.17
547.67	41682.60
547.84	41811.33
548.00	41663.88
548.17	41780.90
548.34	41432.16
548.51	41862.82
548.67	42239.65
548.84	41954.10
549.01	41256.62
549.18	41790.27
549.34	41675.58
549.51	41844.10
549.68	41918.99
549.84	41691.96
550.01	41893.25
550.18	41783.24
550.34	41811.33
550.51	42003.25
550.68	42014.96
550.84	41570.25
551.01	42014.96
551.18	42014.96
551.34	42328.59
551.51	42061.77
551.68	42431.57
551.84	41998.57
552.01	41951.76
552.18	42148.37
552.34	41832.39
552.51	42471.36
552.68	42375.40
552.84	42834.14
553.01	42768.61
553.18	42635.20
553.34	42178.79
553.51	42213.90
553.67	42291.14
553.84	43077.56
554.01	42679.67
554.17	42873.93
554.34	42656.26
554.51	42834.14
554.67	42745.20
554.84	42522.85
555.00	43147.78
555.17	42653.92
555.33	42689.03
555.50	42965.21
555.67	42672.65
555.83	42918.40
556.00	42951.17
556.16	43590.14
556.33	43051.81
556.50	42794.36
556.66	42838.83
556.83	42607.11
556.99	42829.46
557.16	43136.07
557.32	43388.85
557.49	43096.28
557.65	42721.80
557.82	43477.79
557.98	43168.84
558.15	42990.96
558.32	43276.51
558.48	43075.22
558.65	43370.13
558.81	43037.77
558.98	42986.28
559.14	43253.10
559.31	43262.46
559.47	43456.73
559.64	43573.75
559.80	43400.55
559.97	43054.15
560.13	43138.41
560.30	43210.97
560.46	43356.08
560.63	43559.71
560.79	43313.95
560.96	44086.33
561.12	43681.42
561.29	43332.68
561.45	43421.62
561.61	43318.64
561.78	43440.34
561.94	43503.54
562.11	43395.87
562.27	43487.15
562.44	43374.81
562.60	43924.83
562.77	43854.62
562.93	43571.41
563.10	43782.06
563.26	43452.05
563.42	43777.38
563.59	43264.80
563.75	43742.27
563.92	43777.38
564.08	43906.11
564.24	44027.82
564.41	43768.02
564.57	43711.84
564.74	43728.23
564.90	43650.99
565.07	43871.00
565.23	43709.50
565.39	43922.49
565.56	44046.54
565.72	43604.18
565.88	43814.83
566.05	43618.22
566.21	44140.16
566.38	44093.35
566.54	44074.63
566.70	44109.74
566.87	44414.01
567.03	44282.94
567.19	44519.33
567.36	44006.75
567.52	44254.85
567.68	44243.15
567.85	43927.17
568.01	44184.63
568.17	43964.62
568.34	43997.39
568.50	44002.07
568.66	43688.44
568.83	44446.77
568.99	43805.47
569.15	43423.96
569.32	43590.14
569.48	43789.08
569.64	44549.76
569.81	44189.31
569.97	44280.60
570.13	44367.20
570.30	44367.20
570.46	43952.92
570.62	43863.98
570.78	43746.95
570.95	43941.22
571.11	44442.09
571.27	44374.22
571.43	44205.70
571.60	44172.93
571.76	43990.37
571.92	44186.97
572.09	44294.64
572.25	44346.13
572.41	44009.09
572.57	44009.09
572.74	44098.03
572.90	44673.81
573.06	44514.65
573.22	44325.07
573.38	44294.64
573.55	44219.74
573.71	44257.19
573.87	44137.82
574.03	44023.14
574.20	44353.15
574.36	44479.54
574.52	44301.66
574.68	44020.80
574.84	44062.93
575.01	44261.87
575.17	44149.53
575.33	44346.13
575.49	44048.88
575.65	44423.37
575.82	44381.24
575.98	44690.19
576.14	44680.83
576.30	44289.96
576.46	44369.54
576.62	44388.26
576.79	44229.10
576.95	44325.07
577.11	44254.85
577.27	44577.84
577.43	44425.71
577.59	44076.97
577.75	44355.49
577.92	43917.81
578.08	44444.43
578.24	44037.18
578.40	44116.76
578.56	44271.23
578.72	44706.57
578.88	44549.76
579.04	44580.18
579.21	44573.16
579.37	44495.92
579.53	44552.10
579.69	43973.98
579.85	44409.32
580.01	44409.32
580.17	44774.45
580.33	44224.42
580.49	44898.50
580.65	44807.22
580.82	44959.35
580.98	44655.08
581.14	44900.84
581.30	44626.99
581.46	44423.37
581.62	44222.08
581.78	44353.15
581.94	44587.21
582.10	44603.59
582.26	44444.43
582.42	44034.84
582.58	44474.86
582.74	44641.04
582.90	44753.38
583.06	44725.30
583.22	44725.30
583.38	44811.90
583.54	44854.03
583.70	44615.29
583.86	44938.29
584.02	44428.05
584.18	44861.05
584.34	44814.24
584.50	44535.71
584.66	44212.72
584.82	44034.84
584.98	44678.49
585.14	44994.46
585.30	44566.14
585.46	44421.03
585.62	44336.77
585.78	45048.29
585.94	44395.28
586.10	44390.60
586.26	44486.56
586.42	44996.80
586.58	44973.39
586.74	44821.26
586.90	44161.23
587.06	44385.92
587.22	44626.99
587.38	44545.08
587.54	44619.97
587.70	44545.08
587.86	44596.57
588.02	44706.57
588.18	44598.91
588.34	44732.32
588.49	44360.17
588.65	44191.65
588.81	44388.26
588.97	44720.62
589.13	44882.11
589.29	44847.00
589.45	44924.24
589.61	44680.83
589.77	45027.23
589.93	44786.15
590.08	45132.55
590.24	44816.58
590.40	44896.16
