SpectraSuite Data File
++++++++++++++++++++++++++++++++++++
Date: Fri Oct 25 10:43:37 EDT 2013
User: price-jones
Dark Spectrum Present: No
Reference Spectrum Present: No
Number of Sampled Component Spectra: 1
Spectrometers: USB2+H05261
Integration Time (usec): 100000 (USB2+H05261)
Spectra Averaged: 1 (USB2+H05261)
Boxcar Smoothing: 0 (USB2+H05261)
Correct for Electrical Dark: No (USB2+H05261)
Strobe/Lamp Enabled: No (USB2+H05261)
Correct for Detector Non-linearity: No (USB2+H05261)
Correct for Stray Light: No (USB2+H05261)
Number of Pixels in Processed Spectrum: 2048
>>>>>Begin Processed Spectral Data<<<<<
365.73	149.79
365.92	149.79
366.12	149.79
366.32	119.37
366.52	133.41
366.72	0.00
366.91	16.38
367.11	21.06
367.31	14.04
367.51	0.00
367.70	18.72
367.90	0.00
368.10	28.09
368.30	18.72
368.49	77.24
368.69	81.92
368.89	67.88
369.09	23.41
369.28	28.09
369.48	102.98
369.68	102.98
369.87	86.60
370.07	72.56
370.27	79.58
370.47	189.58
370.66	395.55
370.86	528.96
371.06	454.06
371.25	489.17
371.45	407.25
371.65	472.79
371.84	470.45
372.04	449.38
372.24	514.92
372.44	482.15
372.63	479.81
372.83	528.96
373.03	433.00
373.22	437.68
373.42	559.39
373.62	514.92
373.81	561.73
374.01	496.19
374.21	571.09
374.40	566.41
374.60	596.84
374.79	528.96
374.99	650.67
375.19	575.77
375.38	655.35
375.58	678.76
375.78	624.92
375.97	660.03
376.17	692.80
376.37	594.50
376.56	692.80
376.76	624.92
376.95	610.88
377.15	690.46
377.35	667.05
377.54	674.07
377.74	690.46
377.93	688.12
378.13	636.63
378.33	671.73
378.52	667.05
378.72	711.52
378.91	702.16
379.11	683.44
379.31	655.35
379.50	720.88
379.70	716.20
379.89	807.48
380.09	751.31
380.28	704.50
380.48	716.20
380.68	690.46
380.87	713.86
381.07	699.82
381.26	678.76
381.46	720.88
381.65	760.67
381.85	690.46
382.04	746.63
382.24	765.36
382.43	692.80
382.63	704.50
382.83	713.86
383.02	744.29
383.22	739.61
383.41	727.91
383.61	739.61
383.80	823.87
384.00	770.04
384.19	737.27
384.39	835.57
384.58	795.78
384.78	835.57
384.97	842.59
385.17	828.55
385.36	798.12
385.56	770.04
385.75	819.19
385.95	793.44
386.14	821.53
386.34	903.45
386.53	851.96
386.72	849.61
386.92	849.61
387.11	819.19
387.31	961.96
387.50	875.36
387.70	866.00
387.89	870.68
388.09	826.21
388.28	877.70
388.48	891.74
388.67	1036.86
388.86	912.81
389.06	1015.79
389.25	978.34
389.45	1043.88
389.64	1018.13
389.84	1097.71
390.03	1032.18
390.22	1043.88
390.42	1008.77
390.61	938.55
390.81	1071.97
391.00	1048.56
391.19	1097.71
391.39	1050.90
391.58	1025.15
391.78	1043.88
391.97	1102.39
392.16	976.00
392.36	1102.39
392.55	1048.56
392.75	1078.99
392.94	980.68
393.13	1027.50
393.33	1001.75
393.52	1053.24
393.71	1128.14
393.91	1095.37
394.10	1242.82
394.29	1118.78
394.49	1130.48
394.68	1231.12
394.88	1207.72
395.07	1249.85
395.26	1184.31
395.46	1167.93
395.65	1261.55
395.84	1249.85
396.04	1242.82
396.23	1165.59
396.42	1104.73
396.62	1114.10
396.81	1188.99
397.00	1256.87
397.19	1345.81
397.39	1357.51
397.58	1364.53
397.77	1352.83
397.97	1458.15
398.16	1425.39
398.35	1476.88
398.55	1446.45
398.74	1500.28
398.93	1554.12
399.12	1469.86
399.32	1561.14
399.51	1629.01
399.70	1619.65
399.90	1519.01
400.09	1579.86
400.28	1739.02
400.47	1678.16
400.67	1631.35
400.86	1659.44
401.05	1706.25
401.24	1792.85
401.44	1694.55
401.63	1842.00
401.82	1902.86
402.01	1727.32
402.21	1891.15
402.40	1713.27
402.59	1706.25
402.78	1743.70
402.97	1689.87
403.17	1858.39
403.36	1816.26
403.55	1858.39
403.74	1973.07
403.93	1961.37
404.13	1863.07
404.32	1877.11
404.51	1905.20
404.70	1916.90
404.89	2024.56
405.09	2029.24
405.28	1984.77
405.47	1970.73
405.66	2113.50
405.85	2090.10
406.05	1940.30
406.24	2069.03
406.43	2019.88
406.62	2202.44
406.81	2188.40
407.00	2064.35
407.20	2047.97
407.39	2052.65
407.58	2275.00
407.77	2246.91
407.96	2307.77
408.15	2246.91
408.34	2200.10
408.54	2253.94
408.73	2214.15
408.92	2293.72
409.11	2471.61
409.30	2392.03
409.49	2277.34
409.68	2258.62
409.87	2216.49
410.07	2307.77
410.26	2471.61
410.45	2502.03
410.64	2504.37
410.83	2530.12
411.02	2607.36
411.21	2705.66
411.40	2574.59
411.59	2637.78
411.78	2612.04
411.98	2700.98
412.17	2752.47
412.36	2717.36
412.55	2794.60
412.74	2761.83
412.93	2794.60
413.12	2715.02
413.31	2822.69
413.50	2904.60
413.69	2803.96
413.88	2935.03
414.07	2998.23
414.26	2981.84
414.45	2972.48
414.64	2993.55
414.83	3103.55
415.02	3063.76
415.22	3145.68
415.41	3155.04
415.60	3152.70
415.79	3234.62
415.98	3234.62
416.17	3300.16
416.36	3382.07
416.55	3318.88
416.74	3332.92
416.93	3328.24
417.12	3349.31
417.31	3522.51
417.50	3496.76
417.69	3552.93
417.88	3501.44
418.07	3358.67
418.26	3475.70
418.45	3531.87
418.64	3634.85
418.83	3585.70
419.02	3644.21
419.21	3695.71
419.39	3655.92
419.58	3602.08
419.77	3620.81
419.96	3676.98
420.15	3770.60
420.34	3812.73
420.53	3803.37
420.72	3927.42
420.91	3927.42
421.10	3822.09
421.29	3915.72
421.48	3878.27
421.67	3857.20
421.86	3936.78
422.05	3852.52
422.24	3836.14
422.43	3798.69
422.61	3999.98
422.80	3985.93
422.99	4002.32
423.18	3948.48
423.37	4070.19
423.56	4119.34
423.75	4042.11
423.94	3906.35
424.13	3857.20
424.32	3840.82
424.50	4067.85
424.69	4163.81
424.88	4004.66
425.07	4074.87
425.26	3861.88
425.45	3957.85
425.64	4021.04
425.83	3962.53
426.01	4149.77
426.20	4121.68
426.39	4121.68
426.58	4028.06
426.77	3946.14
426.96	4058.49
427.15	4060.83
427.33	4063.17
427.52	4187.22
427.71	4229.35
427.90	4114.66
428.09	4234.03
428.28	4184.88
428.46	4175.52
428.65	4208.28
428.84	4255.09
429.03	4219.99
429.22	4273.82
429.40	4318.29
429.59	4126.36
429.78	3880.61
429.97	4109.98
430.16	4091.26
430.34	4086.58
430.53	4149.77
430.72	4173.18
430.91	4273.82
431.10	4287.86
431.28	4678.73
431.47	4674.05
431.66	4596.81
431.85	4564.04
432.03	4744.27
432.22	4704.48
432.41	4781.71
432.60	4917.47
432.79	4741.93
432.97	4772.35
433.16	4908.10
433.35	4727.88
433.54	4798.10
433.72	4699.80
433.91	4685.75
434.10	4772.35
434.28	4856.61
434.47	4983.00
434.66	5041.51
434.85	4858.95
435.03	4919.81
435.22	4971.30
435.41	5104.71
435.59	5011.09
435.78	5088.32
435.97	5238.12
436.16	5090.67
436.34	5291.95
436.53	5273.23
436.72	5308.34
436.90	5125.77
437.09	5252.16
437.28	5149.18
437.46	5303.65
437.65	5408.98
437.84	5284.93
438.02	5097.69
438.21	5261.52
438.40	5231.10
438.58	5540.05
438.77	5561.11
438.96	5624.31
439.14	5645.37
439.33	5657.07
439.52	5778.78
439.70	5682.82
439.89	5813.89
440.08	5783.46
440.26	5734.31
440.45	5858.36
440.63	5966.03
440.82	6162.63
441.01	6090.07
441.19	6024.54
441.38	6122.84
441.57	6258.59
441.75	6303.06
441.94	6335.83
442.12	6396.68
442.31	6392.00
442.50	6356.90
442.68	6300.72
442.87	6431.79
443.05	6406.05
443.24	6544.14
443.43	6607.33
443.61	6504.35
443.80	6590.95
443.98	6502.01
444.17	6459.88
444.35	6633.08
444.54	6820.32
444.73	6555.84
444.91	6511.37
445.10	6499.67
445.28	6588.61
445.47	6401.37
445.65	6583.93
445.84	6487.96
446.02	6778.19
446.21	6626.06
446.39	6745.42
446.58	6761.81
446.77	6836.70
446.95	6628.40
447.14	6906.92
447.32	6932.67
447.51	6731.38
447.69	6628.40
447.88	6942.03
448.06	6743.08
448.25	6801.60
448.43	6855.43
448.62	6895.22
448.80	6817.98
448.99	6906.92
449.17	7084.80
449.36	7028.63
449.54	7253.32
449.73	7206.51
449.91	7096.50
450.10	7239.28
450.28	7449.93
450.46	7272.04
450.65	7466.31
450.83	7365.67
451.02	7356.30
451.20	7283.75
451.39	7236.94
451.57	7339.92
451.76	7328.22
451.94	7276.73
452.13	7323.54
452.31	7396.09
452.49	7236.94
452.68	7290.77
452.86	7325.88
453.05	7353.96
453.23	7215.87
453.42	7307.15
453.60	7363.33
453.78	7705.04
453.97	7480.35
454.15	7473.33
454.34	7419.50
454.52	7543.55
454.70	7527.16
454.89	7588.02
455.07	7751.85
455.26	7810.37
455.44	7793.98
455.62	7644.19
455.81	7873.56
455.99	7995.27
456.17	7850.16
456.36	7992.93
456.54	8131.02
456.73	8189.53
456.91	8243.37
457.09	8072.51
457.28	8533.59
457.46	8116.98
457.64	7943.78
457.83	8198.90
458.01	8023.36
458.19	8222.30
458.38	8208.26
458.56	8224.64
458.74	8428.27
458.93	8439.97
459.11	8320.60
459.29	8304.22
459.48	8435.29
459.66	8414.23
459.84	8383.80
460.03	8512.53
460.21	8713.81
460.39	8699.77
460.57	8540.61
460.76	8910.42
460.94	8760.63
461.12	8879.99
461.31	8730.20
461.49	8711.47
461.67	8725.52
461.85	8865.95
462.04	8938.51
462.22	9415.98
462.40	9060.21
462.59	8992.34
462.77	9043.83
462.95	9057.87
463.13	9088.30
463.32	9111.71
463.50	8940.85
463.68	9027.45
463.86	9291.93
464.05	9114.05
464.23	8922.12
464.41	9217.03
464.59	8875.31
464.78	9289.59
464.96	9156.18
465.14	9205.33
465.32	9191.28
465.50	9315.33
465.69	9390.23
465.87	9500.23
466.05	9312.99
466.23	9415.98
466.41	9280.22
466.60	9561.09
466.78	9329.38
466.96	9320.01
467.14	9451.08
467.32	9427.68
467.51	9635.99
467.69	9378.53
467.87	9486.19
468.05	9565.77
468.23	9675.77
468.41	9511.94
468.60	9525.98
468.78	9579.81
468.96	9736.63
469.14	9881.74
469.32	10036.22
469.50	9582.15
469.69	9956.64
469.87	9954.30
470.05	9970.68
470.23	9886.42
470.41	10024.51
470.59	9961.32
470.77	10141.54
470.95	10045.58
471.14	10349.85
471.32	10003.45
471.50	10354.53
471.68	10225.80
471.86	10614.33
472.04	10661.14
472.22	10707.95
472.40	10401.34
472.58	10321.76
472.77	10724.33
472.95	10714.97
473.13	11037.97
473.31	10560.50
473.49	10703.27
473.67	10841.36
473.85	11000.52
474.03	11056.69
474.21	11002.86
474.39	11049.67
474.57	11513.10
474.75	11466.28
474.93	11276.70
475.12	11417.13
475.30	11529.48
475.48	11215.85
475.66	11520.12
475.84	11393.73
476.02	11562.25
476.20	11623.10
476.38	11782.26
476.56	12056.10
476.74	11990.56
476.92	11997.59
477.10	12091.21
477.28	12020.99
477.46	12238.66
477.64	12470.37
477.82	12652.94
478.00	12894.01
478.18	12706.77
478.36	12695.07
478.54	12718.47
478.72	12718.47
478.90	13027.42
479.08	13092.96
479.26	13465.10
479.44	13310.63
479.62	13266.16
479.80	13413.61
479.98	13554.04
480.16	13799.80
480.34	13675.75
480.52	13874.70
480.70	14054.92
480.88	14045.55
481.06	14066.62
481.24	14300.67
481.41	14389.61
481.59	14494.94
481.77	14398.98
481.95	14597.92
482.13	14998.15
482.31	14923.26
482.49	14932.62
482.67	14984.11
482.85	15227.53
483.03	15475.62
483.21	15468.60
483.39	15426.47
483.57	15538.82
483.74	15927.35
483.92	15868.83
484.10	15653.50
484.28	16308.85
484.46	16161.40
484.64	16655.25
484.82	16465.67
485.00	16662.27
485.18	16446.94
485.35	16830.79
485.53	16348.64
485.71	16194.17
485.89	16383.75
486.07	16465.67
486.25	16861.22
486.43	17018.04
486.61	17074.21
486.78	17444.01
486.96	17596.15
487.14	17902.76
487.32	17994.04
487.50	18274.90
487.68	18394.27
487.85	18352.14
488.03	18719.60
488.21	18869.40
488.39	18878.76
488.57	19042.60
488.75	19035.58
488.92	19566.88
489.10	19676.88
489.28	19412.40
489.46	19669.86
489.64	19936.68
489.81	20180.10
489.99	20678.63
490.17	20446.92
490.35	20627.14
490.53	20255.00
490.70	20711.40
490.88	20734.81
491.06	21226.32
491.24	20912.69
491.41	21120.99
491.59	21188.87
491.77	20968.86
491.95	21465.05
492.13	21642.93
492.30	21614.85
492.48	21834.86
492.66	21715.49
492.84	22232.75
493.01	22537.02
493.19	22462.12
493.37	22581.49
493.54	22651.70
493.72	22644.68
493.90	22857.67
494.08	22955.97
494.25	23531.75
494.43	23398.34
494.61	23775.16
494.79	23620.69
494.96	23431.10
495.14	23700.26
495.32	24095.82
495.49	23592.60
495.67	23882.83
495.85	24381.36
496.02	24610.73
496.20	24889.26
496.38	24187.10
496.55	24683.29
496.73	25366.73
496.91	25102.25
497.09	25380.77
497.26	25579.71
497.44	25233.32
497.62	25507.16
497.79	25364.39
497.97	25238.00
498.14	25729.51
498.32	25933.14
498.50	26017.40
498.67	26106.34
498.85	26415.29
499.03	26820.20
499.20	26403.58
499.38	26515.93
499.56	26815.52
499.73	26497.20
499.91	26817.86
500.08	26864.67
500.26	26647.00
500.44	26892.76
500.61	26941.91
500.79	26902.12
500.97	27117.45
501.14	27314.05
501.32	27058.93
501.49	27234.47
501.67	27608.96
501.84	27552.79
502.02	27442.78
502.20	27735.35
502.37	27997.49
502.55	28247.93
502.72	28271.33
502.90	28301.76
503.07	28240.90
503.25	28404.74
503.43	28336.87
503.60	28444.53
503.78	28851.78
503.95	28624.75
504.13	28505.38
504.30	28556.88
504.48	29095.20
504.65	29120.95
504.83	29294.14
505.01	29544.58
505.18	29582.03
505.36	29745.87
505.53	29425.22
505.71	30057.16
505.88	29905.02
506.06	30047.80
506.23	29942.47
506.41	29944.81
506.58	29907.37
506.76	29867.58
506.93	30443.35
507.11	29984.60
507.28	30221.00
507.46	30010.35
507.63	30398.88
507.81	30356.75
507.98	30314.62
508.16	30764.00
508.33	31101.04
508.50	31335.09
508.68	31019.12
508.85	31431.05
509.03	31189.98
509.20	31505.95
509.38	31512.97
509.55	31658.09
509.73	31519.99
509.90	31676.81
510.08	31459.14
510.25	31601.91
510.42	32271.31
510.60	32100.45
510.77	32163.64
510.95	32053.64
511.12	32348.54
511.30	32566.21
511.47	32486.64
511.64	32580.26
511.82	32388.33
511.99	32638.77
512.17	32631.75
512.34	32329.82
512.51	32706.65
512.69	33153.69
512.86	32636.43
513.04	33523.49
513.21	33467.32
513.38	33387.74
513.56	33230.93
513.73	33034.32
513.90	33024.96
514.08	33263.69
514.25	33535.20
514.43	33130.28
514.60	33244.97
514.77	33743.50
514.95	34120.33
515.12	34232.68
515.29	33813.72
515.47	34256.08
515.64	34462.05
515.81	34057.14
515.99	34267.78
516.16	33795.00
516.33	33572.64
516.51	33598.39
516.68	33890.96
516.85	33624.14
517.03	33940.11
517.20	34352.04
517.37	34653.97
517.54	34869.30
517.72	34312.25
517.89	34361.40
518.06	33949.47
518.24	34583.76
518.41	34696.10
518.58	35005.05
518.75	34799.08
518.93	34927.81
519.10	35122.08
519.27	35218.04
519.45	35318.68
519.62	35971.69
519.79	36016.16
519.96	35583.16
520.14	35480.18
520.31	35735.30
520.48	36304.05
520.65	35910.84
520.83	36268.94
521.00	36252.56
521.17	35859.35
521.34	36126.17
521.52	36114.47
521.69	36140.21
521.86	36687.90
522.03	36634.06
522.20	36212.77
522.38	37120.90
522.55	37024.93
522.72	36463.21
522.89	36793.22
523.07	36985.15
523.24	36889.18
523.41	37151.32
523.58	37057.70
523.75	37607.73
523.92	37399.42
524.10	37727.10
524.27	37722.41
524.44	37546.87
524.61	37228.56
524.78	37846.46
524.96	37762.20
525.13	37731.78
525.30	38417.55
525.47	38012.64
525.64	37996.26
525.81	38195.20
525.98	37722.41
526.16	37984.55
526.33	37420.48
526.50	37956.47
526.67	37230.90
526.84	38099.24
527.01	37846.46
527.18	38258.40
527.36	38204.56
527.53	38298.19
527.70	38913.75
527.87	38698.42
528.04	38506.49
528.21	39161.84
528.38	39028.43
528.55	39173.55
528.72	39234.40
528.89	39302.28
529.07	39203.97
529.24	39019.07
529.41	38841.19
529.58	39339.72
529.75	39047.16
529.92	39466.11
530.09	39016.73
530.26	38923.11
530.43	39885.07
530.60	39337.38
530.77	39704.85
530.94	39494.20
531.11	39597.18
531.28	39744.64
531.46	39959.97
531.63	39597.18
531.80	39899.11
531.97	39842.94
532.14	39585.48
532.31	39393.56
532.48	39751.66
532.65	40231.47
532.82	39758.68
532.99	40037.20
533.16	40268.92
533.33	40027.84
533.50	40488.93
533.67	40404.67
533.84	40140.19
534.01	40212.74
534.18	40264.24
534.35	40390.62
534.52	40395.31
534.69	40898.52
534.86	41139.60
535.03	40664.47
535.20	41029.59
535.37	41268.33
535.54	41329.18
535.71	40882.14
535.88	41291.73
536.05	41352.58
536.22	40835.33
536.38	41277.69
536.55	41223.86
536.72	41118.53
536.89	40624.68
537.06	40638.72
537.23	41064.70
537.40	41031.93
537.57	41626.43
537.74	41031.93
537.91	41799.63
538.08	41610.04
538.25	41471.95
538.42	41677.92
538.59	41684.94
538.75	41448.55
538.92	41373.65
539.09	41413.44
539.26	41371.31
539.43	41944.74
539.60	41909.63
539.77	41474.29
539.94	41535.15
540.11	41698.98
540.28	41420.46
540.44	41750.48
540.61	42036.02
540.78	41612.38
540.95	42178.79
541.12	41598.34
541.29	41865.16
541.46	42527.53
541.62	42251.35
541.79	42663.28
541.96	41755.16
542.13	42171.77
542.30	42527.53
542.47	42522.85
542.63	42366.04
542.80	42534.56
542.97	42614.13
543.14	42925.42
543.31	42930.11
543.48	42586.05
543.64	43604.18
543.81	43356.08
543.98	43119.69
544.15	42869.25
544.32	43007.34
544.48	43320.98
544.65	43353.74
544.82	43217.99
544.99	42806.06
545.16	43304.59
545.32	42986.28
545.49	43709.50
545.66	43784.40
545.83	43669.72
546.00	43414.60
546.16	42836.48
546.33	43655.67
546.50	42756.91
546.67	43618.22
546.83	43533.96
547.00	43433.32
547.17	43639.29
547.34	43054.15
547.50	43636.95
547.67	43859.30
547.84	43583.12
548.00	43936.54
548.17	44163.57
548.34	43929.51
548.51	44353.15
548.67	44151.87
548.84	44128.46
549.01	43889.73
549.18	43856.96
549.34	43828.87
549.51	44020.80
549.68	44062.93
549.84	44009.09
550.01	44112.08
550.18	44182.29
550.34	43906.11
550.51	43878.02
550.68	43966.96
550.84	43723.55
551.01	44435.07
551.18	44311.02
551.34	44645.72
551.51	44692.53
551.68	44713.59
551.84	44884.45
552.01	44034.84
552.18	44795.51
552.34	44306.34
552.51	44638.70
552.68	44533.37
552.84	44484.22
553.01	45015.52
553.18	45027.23
553.34	45090.42
553.51	44940.63
553.67	44540.39
553.84	45277.66
554.01	45233.19
554.17	45354.90
554.34	45055.31
554.51	45280.00
554.67	45460.23
554.84	44924.24
555.00	44699.55
555.17	44818.92
555.33	45579.59
555.50	44861.05
555.67	45041.27
555.83	45146.59
556.00	44989.78
556.16	45453.20
556.33	44996.80
556.50	45265.96
556.66	44900.84
556.83	44973.39
556.99	45272.98
557.16	45361.92
557.32	45642.79
557.49	45382.99
557.65	45125.53
557.82	45251.92
557.98	45373.63
558.15	45815.99
558.32	45319.79
558.48	45366.60
558.65	45191.06
558.81	45013.18
558.98	45228.51
559.14	45502.35
559.31	45647.47
559.47	45242.56
559.64	45235.53
559.80	45755.13
559.97	45661.51
560.13	45387.67
560.30	45394.69
560.46	45741.09
560.63	46007.91
560.79	46082.81
560.96	45839.39
561.12	45481.29
561.29	45439.16
561.45	45705.98
561.61	45263.62
561.78	45633.42
561.94	45347.88
562.11	45137.23
562.27	45848.75
562.44	45696.62
562.60	46010.25
562.77	45467.25
562.93	45881.52
563.10	45778.54
563.26	45771.52
563.42	46096.85
563.59	45628.74
563.75	45677.90
563.92	46202.18
564.08	46209.20
564.24	45844.07
564.41	45647.47
564.57	45839.39
564.74	45427.46
564.90	45574.91
565.07	45923.65
565.23	45507.04
565.39	45530.44
565.56	46024.29
565.72	45792.58
565.88	45790.24
566.05	45544.48
566.21	45902.59
566.38	45727.05
566.54	46138.98
566.70	45993.87
566.87	46623.47
567.03	45918.97
567.19	46452.61
567.36	45970.46
567.52	46305.16
567.68	45918.97
567.85	45462.57
568.01	46094.51
568.17	45771.52
568.34	45991.53
568.50	46326.22
568.66	46068.76
568.83	45998.55
568.99	45881.52
569.15	46028.98
569.32	46333.24
569.48	46010.25
569.64	46178.77
569.81	46047.70
569.97	46302.82
570.13	46199.83
570.30	46075.79
570.46	46017.27
570.62	45661.51
570.78	45628.74
570.95	46003.23
571.11	46248.99
571.27	46277.07
571.43	45949.40
571.60	46328.56
571.76	46131.96
571.92	46501.76
572.09	46216.22
572.25	46354.31
572.41	46382.40
572.57	45968.12
572.74	46679.64
572.90	46143.66
573.06	46642.20
573.22	46396.44
573.38	46525.17
573.55	46019.61
573.71	46162.39
573.87	46543.89
574.03	46181.11
574.20	46012.59
574.36	46370.69
574.52	45832.37
574.68	46419.84
574.84	46635.17
575.01	46160.05
575.17	46136.64
575.33	46340.27
575.49	46038.34
575.65	46248.99
575.82	46284.09
575.98	46124.94
576.14	46663.26
576.30	46756.88
576.46	45961.10
576.62	45991.53
576.79	46431.55
576.95	46141.32
577.11	46923.06
577.27	46167.07
577.43	46361.33
577.59	45834.71
577.75	45638.11
577.92	45621.72
578.08	45722.37
578.24	46267.71
578.40	46408.14
578.56	46024.29
578.72	46258.35
578.88	46366.01
579.04	46366.01
579.21	46014.93
579.37	46178.77
579.53	46206.86
579.69	46061.74
579.85	46087.49
580.01	46134.30
580.17	45832.37
580.33	46197.49
580.49	46326.22
580.65	46796.67
580.82	46330.90
580.98	46122.60
581.14	46185.79
581.30	46511.13
581.46	46185.79
581.62	46588.36
581.78	46445.59
581.94	46506.44
582.10	46611.77
582.26	46136.64
582.42	46653.90
582.58	46494.74
582.74	46609.43
582.90	46642.20
583.06	46564.96
583.22	46546.23
583.38	46553.26
583.54	46932.42
583.70	46438.57
583.86	46595.38
584.02	46253.67
584.18	46667.94
584.34	46288.77
584.50	46218.56
584.66	46422.19
584.82	46225.58
584.98	46501.76
585.14	46731.14
585.30	45961.10
585.46	46351.97
585.62	46209.20
585.78	46148.34
585.94	46075.79
586.10	45837.05
586.26	46167.07
586.42	46621.13
586.58	46143.66
586.74	46611.77
586.90	46279.41
587.06	46436.23
587.22	46216.22
587.38	46461.97
587.54	46724.11
587.70	46593.04
587.86	46314.52
588.02	46459.63
588.18	46576.66
588.34	46337.93
588.49	45649.81
588.65	45441.50
588.81	45851.09
588.97	46113.23
589.13	45890.88
589.29	46211.54
589.45	45771.52
589.61	46094.51
589.77	46581.34
589.93	46714.75
