SpectraSuite Data File
++++++++++++++++++++++++++++++++++++
Date: Fri Oct 25 10:47:52 EDT 2013
User: price-jones
Dark Spectrum Present: No
Reference Spectrum Present: No
Number of Sampled Component Spectra: 1
Spectrometers: USB2+H05261
Integration Time (usec): 100000 (USB2+H05261)
Spectra Averaged: 1 (USB2+H05261)
Boxcar Smoothing: 0 (USB2+H05261)
Correct for Electrical Dark: No (USB2+H05261)
Strobe/Lamp Enabled: No (USB2+H05261)
Correct for Detector Non-linearity: No (USB2+H05261)
Correct for Stray Light: No (USB2+H05261)
Number of Pixels in Processed Spectrum: 2048
>>>>>Begin Processed Spectral Data<<<<<
365.73	138.09
365.92	138.09
366.12	138.09
366.32	72.56
366.52	79.58
366.72	117.03
366.91	4.68
367.11	44.47
367.31	65.54
367.51	42.13
367.70	14.04
367.90	0.00
368.10	0.00
368.30	58.51
368.49	18.72
368.69	42.13
368.89	39.79
369.09	0.00
369.28	117.03
369.48	88.94
369.68	70.22
369.87	44.47
370.07	124.05
370.27	147.45
370.47	201.29
370.66	322.99
370.86	393.21
371.06	390.87
371.25	479.81
371.45	444.70
371.65	475.13
371.84	465.77
372.04	498.53
372.24	496.19
372.44	465.77
372.63	486.83
372.83	519.60
373.03	489.17
373.22	505.56
373.42	535.98
373.62	500.87
373.81	559.39
374.01	521.94
374.21	503.22
374.40	489.17
374.60	582.79
374.79	512.58
374.99	603.86
375.19	559.39
375.38	587.47
375.58	603.86
375.78	521.94
375.97	596.84
376.17	648.33
376.37	601.52
376.56	638.97
376.76	521.94
376.95	580.45
377.15	655.35
377.35	627.26
377.54	589.82
377.74	617.90
377.93	578.11
378.13	613.22
378.33	699.82
378.52	610.88
378.72	615.56
378.91	610.88
379.11	603.86
379.31	629.60
379.50	643.65
379.70	627.26
379.89	631.94
380.09	650.67
380.28	699.82
380.48	664.71
380.68	660.03
380.87	634.29
381.07	683.44
381.26	692.80
381.46	634.29
381.65	624.92
381.85	662.37
382.04	709.18
382.24	702.16
382.43	683.44
382.63	744.29
382.83	664.71
383.02	732.59
383.22	706.84
383.41	753.65
383.61	594.50
383.80	770.04
384.00	720.88
384.19	681.10
384.39	751.31
384.58	835.57
384.78	791.10
384.97	795.78
385.17	692.80
385.36	763.01
385.56	849.61
385.75	786.42
385.95	791.10
386.14	844.93
386.34	833.23
386.53	868.34
386.72	784.08
386.92	800.46
387.11	830.89
387.31	854.30
387.50	816.85
387.70	835.57
387.89	772.38
388.09	882.38
388.28	767.70
388.48	816.85
388.67	805.14
388.86	880.04
389.06	837.91
389.25	877.70
389.45	915.15
389.64	915.15
389.84	964.30
390.03	954.94
390.22	912.81
390.42	915.15
390.61	961.96
390.81	931.53
391.00	957.28
391.19	1006.43
391.39	994.73
391.58	1036.86
391.78	1069.62
391.97	950.26
392.16	971.32
392.36	1015.79
392.55	905.79
392.75	957.28
392.94	1013.45
393.13	924.51
393.33	952.60
393.52	1053.24
393.71	1001.75
393.91	1050.90
394.10	1064.94
394.29	1053.24
394.49	1015.79
394.68	1121.12
394.88	1186.65
395.07	1153.88
395.26	1100.05
395.46	1146.86
395.65	1093.03
395.84	1050.90
396.04	1179.63
396.23	1090.69
396.42	1086.01
396.62	1111.75
396.81	1137.50
397.00	1064.94
397.19	1294.32
397.39	1102.39
397.58	1240.48
397.77	1259.21
397.97	1284.95
398.16	1214.74
398.35	1221.76
398.55	1266.23
398.74	1306.02
398.93	1345.81
399.12	1303.68
399.32	1299.00
399.51	1306.02
399.70	1371.55
399.90	1334.11
400.09	1387.94
400.28	1369.21
400.47	1385.60
400.67	1497.94
400.86	1521.35
401.05	1469.86
401.24	1416.02
401.44	1497.94
401.63	1416.02
401.82	1465.18
402.01	1593.90
402.21	1551.78
402.40	1488.58
402.59	1483.90
402.78	1446.45
402.97	1549.43
403.17	1596.25
403.36	1605.61
403.55	1600.93
403.74	1556.46
403.93	1654.76
404.13	1511.99
404.32	1563.48
404.51	1661.78
404.70	1820.94
404.89	1657.10
405.09	1753.06
405.28	1717.95
405.47	1675.82
405.66	1776.47
405.85	1783.49
406.05	1785.83
406.24	1797.53
406.43	1905.20
406.62	1774.13
406.81	1856.04
407.00	1790.51
407.20	1933.28
407.39	1888.81
407.58	1785.83
407.77	1919.24
407.96	1942.64
408.15	1937.96
408.34	1926.26
408.54	1949.67
408.73	1952.01
408.92	2136.91
409.11	2094.78
409.30	2097.12
409.49	2017.54
409.68	1991.80
409.87	2118.18
410.07	2132.23
410.26	2108.82
410.45	2146.27
410.64	2120.53
410.83	2228.19
411.02	2258.62
411.21	2260.96
411.40	2181.38
411.59	2263.30
411.78	2223.51
411.98	2263.30
412.17	2469.27
412.36	2380.32
412.55	2321.81
412.74	2326.49
412.93	2457.56
413.12	2385.01
413.31	2497.35
413.50	2509.05
413.69	2473.95
413.88	2399.05
414.07	2574.59
414.26	2555.86
414.45	2562.89
414.64	2654.17
414.83	2738.43
415.02	2649.49
415.22	2637.78
415.41	2825.03
415.60	2843.75
415.79	2806.30
415.98	2808.64
416.17	2935.03
416.36	2939.71
416.55	2801.62
416.74	2904.60
416.93	2864.82
417.12	2932.69
417.31	2949.08
417.50	2986.52
417.69	3117.59
417.88	3089.51
418.07	2991.20
418.26	2944.39
418.45	2981.84
418.64	3206.53
418.83	3162.06
419.02	3136.32
419.21	3143.34
419.39	3243.98
419.58	3126.96
419.77	3096.53
419.96	3286.11
420.15	3396.12
420.34	3337.60
420.53	3232.28
420.72	3393.78
420.91	3342.28
421.10	3480.38
421.29	3449.95
421.48	3314.20
421.67	3386.76
421.86	3482.72
422.05	3363.35
422.24	3283.77
422.43	3386.76
422.61	3461.65
422.80	3428.88
422.99	3637.19
423.18	3576.34
423.37	3524.85
423.56	3421.86
423.75	3548.25
423.94	3489.74
424.13	3314.20
424.32	3389.10
424.50	3501.44
424.69	3595.06
424.88	3564.64
425.07	3449.95
425.26	3480.38
425.45	3691.02
425.64	3524.85
425.83	3541.23
426.01	3585.70
426.20	3630.17
426.39	3630.17
426.58	3578.68
426.77	3585.70
426.96	3616.13
427.15	3688.68
427.33	3662.94
427.52	3733.15
427.71	3679.32
427.90	3744.86
428.09	3808.05
428.28	3824.44
428.46	3688.68
428.65	3812.73
428.84	3815.07
429.03	3882.95
429.22	3707.41
429.40	3796.35
429.59	3770.60
429.78	3632.51
429.97	3602.08
430.16	3845.50
430.34	3843.16
430.53	3801.03
430.72	3812.73
430.91	3712.09
431.10	3777.62
431.28	4156.79
431.47	4227.01
431.66	4086.58
431.85	3962.53
432.03	4131.05
432.22	4255.09
432.41	4170.83
432.60	4278.50
432.79	4152.11
432.97	4147.43
433.16	4348.72
433.35	4287.86
433.54	4187.22
433.72	4264.46
433.91	4189.56
434.10	4231.69
434.28	4173.18
434.47	4255.09
434.66	4428.29
434.85	4388.50
435.03	4386.16
435.22	4402.55
435.41	4601.49
435.59	4547.66
435.78	4538.30
435.97	4517.23
436.16	4447.02
436.34	4468.08
436.53	4669.37
436.72	4720.86
436.90	4587.45
437.09	4582.77
437.28	4379.14
437.46	4720.86
437.65	4695.11
437.84	4709.16
438.02	4564.04
438.21	4774.69
438.40	4636.60
438.58	4936.19
438.77	4919.81
438.96	5004.07
439.14	4997.04
439.33	5085.98
439.52	5158.54
439.70	5025.13
439.89	5231.10
440.08	5149.18
440.26	5219.39
440.45	5128.11
440.63	5305.99
440.82	5327.06
441.01	5245.14
441.19	5432.38
441.38	5394.93
441.57	5420.68
441.75	5462.81
441.94	5565.79
442.12	5671.12
442.31	5563.45
442.50	5678.14
442.68	5708.57
442.87	5523.66
443.05	5778.78
443.24	5872.40
443.43	5790.49
443.61	5717.93
443.80	5778.78
443.98	5572.82
444.17	5713.25
444.35	5849.00
444.54	5799.85
444.73	5816.23
444.91	5804.53
445.10	5771.76
445.28	5771.76
445.47	5874.74
445.65	5657.07
445.84	5806.87
446.02	5912.19
446.21	5884.11
446.39	5879.43
446.58	5921.56
446.77	6022.20
446.95	5734.31
447.14	5919.21
447.32	6022.20
447.51	5937.94
447.69	6010.50
447.88	6087.73
448.06	5919.21
448.25	6045.60
448.43	6155.61
448.62	5914.53
448.80	5996.45
448.99	6167.31
449.17	6033.90
449.36	6017.52
449.54	6244.55
449.73	6197.74
449.91	6464.56
450.10	6333.49
450.28	6459.88
450.46	6527.75
450.65	6223.48
450.83	6520.73
451.02	6483.28
451.20	6349.87
451.39	6502.01
451.57	6480.94
451.76	6422.43
451.94	6274.98
452.13	6338.17
452.31	6497.33
452.49	6445.84
452.68	6497.33
452.86	6366.26
453.05	6527.75
453.23	6670.53
453.42	6520.73
453.60	6794.58
453.78	6775.85
453.97	6574.56
454.15	6640.10
454.34	6546.48
454.52	6773.51
454.70	6527.75
454.89	6670.53
455.07	6729.04
455.26	6757.13
455.44	6832.02
455.62	6820.32
455.81	6820.32
455.99	7021.61
456.17	6890.54
456.36	7148.00
456.54	7131.61
456.73	7173.74
456.91	7222.89
457.09	7063.74
457.28	7293.11
457.46	7077.78
457.64	7396.09
457.83	7225.23
458.01	7269.70
458.19	7307.15
458.38	7368.01
458.56	7438.22
458.74	7447.58
458.93	7419.50
459.11	7571.63
459.29	7342.26
459.48	7452.27
459.66	7356.30
459.84	7494.40
460.03	7644.19
460.21	7817.39
460.39	7740.15
460.57	7674.62
460.76	7712.07
460.94	7728.45
461.12	7873.56
461.31	7779.94
461.49	7672.28
461.67	7494.40
461.85	7852.50
462.04	7889.95
462.22	8444.65
462.40	7953.14
462.59	8021.02
462.77	7829.09
462.95	8072.51
463.13	7889.95
463.32	7896.97
463.50	7882.92
463.68	8145.06
463.86	8135.70
464.05	7850.16
464.23	8152.09
464.41	8292.52
464.59	8039.74
464.78	8201.24
464.96	8278.47
465.14	8351.03
465.32	8292.52
465.50	8414.23
465.69	8463.38
465.87	8105.28
466.05	8287.84
466.23	8435.29
466.41	8414.23
466.60	8526.57
466.78	8566.36
466.96	8304.22
467.14	8379.12
467.32	8386.14
467.51	8613.17
467.69	8346.35
467.87	8381.46
468.05	8531.25
468.23	8351.03
468.41	8463.38
468.60	8519.55
468.78	8531.25
468.96	8404.86
469.14	8620.19
469.32	8856.59
469.50	8470.40
469.69	8849.57
469.87	9001.70
470.05	8905.74
470.23	9104.68
470.41	8826.16
470.59	9221.71
470.77	8922.12
470.95	8730.20
471.14	9252.14
471.32	9083.62
471.50	9327.03
471.68	9348.10
471.86	9432.36
472.04	9320.01
472.22	9654.71
472.40	9273.20
472.58	9188.94
472.77	9373.85
472.95	9563.43
473.13	9949.62
473.31	9469.81
473.49	9593.86
473.67	9549.39
473.85	9741.31
474.03	10015.15
474.21	9940.26
474.39	9954.30
474.57	9930.89
474.75	10122.82
474.93	10324.10
475.12	10078.35
475.30	10340.49
475.48	10274.95
475.66	10310.06
475.84	10296.02
476.02	10516.03
476.20	10389.64
476.38	10513.69
476.56	10860.09
476.74	10700.93
476.92	10726.68
477.10	10700.93
477.28	11054.35
477.46	10932.64
477.64	11009.88
477.82	11370.32
478.00	11302.45
478.18	11377.34
478.36	11449.90
478.54	11365.64
478.72	11576.29
478.90	11920.35
479.08	11871.20
479.26	11761.19
479.44	12042.06
479.62	12222.28
479.80	12135.68
479.98	12156.74
480.16	12428.24
480.34	12241.00
480.52	12437.61
480.70	12491.44
480.88	12484.42
481.06	12549.95
481.24	12662.30
481.41	12940.82
481.59	13144.45
481.77	13118.70
481.95	13163.17
482.13	13352.76
482.31	13111.68
482.49	13387.86
482.67	13493.19
482.85	13497.87
483.03	13951.93
483.21	13767.03
483.39	14036.19
483.57	14167.26
483.74	13912.14
483.92	14162.58
484.10	14279.61
484.28	14492.60
484.46	14565.15
484.64	14909.21
484.82	14569.83
485.00	14930.28
485.18	15098.80
485.35	14972.41
485.53	15122.20
485.71	14974.75
485.89	15332.85
486.07	15463.92
486.25	15433.49
486.43	15730.74
486.61	15782.23
486.78	15985.86
486.96	16011.60
487.14	16152.04
487.32	16360.34
487.50	16521.84
487.68	16526.52
487.85	16671.64
488.03	16863.56
488.21	17167.83
488.39	17106.98
488.57	17069.53
488.75	17362.09
488.92	17514.23
489.10	17584.44
489.28	17762.33
489.46	17940.21
489.64	17738.92
489.81	18300.65
489.99	18312.35
490.17	18438.74
490.35	18675.13
490.53	18572.15
490.70	18618.96
490.88	18808.54
491.06	18972.38
491.24	18970.04
491.41	18960.68
491.59	19187.71
491.77	19302.40
491.95	19499.00
492.13	19639.44
492.30	20030.30
492.48	19779.87
492.66	19864.13
492.84	19932.00
493.01	20081.80
493.19	20393.09
493.37	20329.89
493.54	20161.37
493.72	20650.55
493.90	20526.50
494.08	20779.28
494.25	21181.85
494.43	21259.09
494.61	21467.39
494.79	21518.89
494.96	21530.59
495.14	21486.12
495.32	21624.21
495.49	21774.00
495.67	21916.78
495.85	22176.58
496.02	22555.74
496.20	22118.06
496.38	22546.38
496.55	22750.01
496.73	23349.18
496.91	22525.32
497.09	22981.72
497.26	23096.41
497.44	22857.67
497.62	23262.58
497.79	23403.02
497.97	23028.53
498.14	23421.74
498.32	23850.06
498.50	23793.89
498.67	23866.44
498.85	23838.36
499.03	23983.47
499.20	24154.33
499.38	24467.96
499.56	24489.03
499.73	24224.54
499.91	24617.75
500.08	24077.09
500.26	24184.76
500.44	24486.68
500.61	24517.11
500.79	24797.98
500.97	24819.04
501.14	25362.04
501.32	25378.43
501.49	25181.82
501.67	25010.96
501.84	25757.60
502.02	25291.83
502.20	25242.68
502.37	25919.09
502.55	25645.25
502.72	25685.04
502.90	26125.06
503.07	25610.14
503.25	25851.22
503.43	26103.99
503.60	26218.68
503.78	26150.81
503.95	26405.92
504.13	26239.75
504.30	26740.62
504.48	26551.04
504.65	27164.26
504.83	26911.48
505.01	27192.34
505.18	26663.38
505.36	27206.39
505.53	27168.94
505.71	27543.42
505.88	27103.40
506.06	27070.64
506.23	27737.69
506.41	27407.67
506.58	27625.34
506.76	27761.09
506.93	27934.29
507.11	27873.44
507.28	27747.05
507.46	27634.71
507.63	27962.38
507.81	27810.25
507.98	27725.99
508.16	28292.40
508.33	28528.79
508.50	28676.24
508.68	28638.80
508.85	28725.39
509.03	28755.82
509.20	28900.94
509.38	29008.60
509.55	28891.57
509.73	29003.92
509.90	29134.99
510.08	29490.75
510.25	29467.34
510.42	29308.19
510.60	29537.56
510.77	29511.81
510.95	29790.34
511.12	29542.24
511.30	29893.32
511.47	29535.22
511.64	30080.56
511.82	30206.95
511.99	29830.13
512.17	30099.29
512.34	30300.58
512.51	30452.71
512.69	30618.89
512.86	30448.03
513.04	31033.16
513.21	30396.54
513.38	30359.09
513.56	30433.99
513.73	30735.92
513.90	30848.26
514.08	30824.86
514.25	30841.24
514.43	31108.06
514.60	30892.73
514.77	30866.98
514.95	31304.67
515.12	31199.34
515.29	31402.97
515.47	31667.45
515.64	31981.08
515.81	31740.00
515.99	31716.60
516.16	31770.43
516.33	31667.45
516.51	31754.05
516.68	31515.31
516.85	31637.02
517.03	31847.67
517.20	31587.87
517.37	31873.42
517.54	32360.25
517.72	32165.98
517.89	32032.57
518.06	32477.27
518.24	32308.76
518.41	32212.79
518.58	32519.40
518.75	32201.09
518.93	32830.69
519.10	32882.19
519.27	32889.21
519.45	32727.71
519.62	33205.18
519.79	33289.44
519.96	33378.38
520.14	33092.83
520.31	33401.79
520.48	33453.28
520.65	33507.11
520.83	33802.02
521.00	33179.43
521.17	33514.13
521.34	34087.56
521.52	33736.48
521.69	34094.58
521.86	33792.65
522.03	34195.23
522.20	34071.18
522.38	34256.08
522.55	34494.82
522.72	33982.24
522.89	34265.44
523.07	34506.52
523.24	34487.79
523.41	34352.04
523.58	34263.10
523.75	34852.92
523.92	34611.84
524.10	34651.63
524.27	34993.35
524.44	34911.43
524.61	34991.01
524.78	35012.07
524.96	35201.66
525.13	35218.04
525.30	35665.08
525.47	35194.64
525.64	35342.09
525.81	35335.07
525.98	35573.80
526.16	35454.44
526.33	35229.74
526.50	35798.49
526.67	35550.40
526.84	35651.04
527.01	35517.63
527.18	35531.67
527.36	35929.56
527.53	35922.54
527.70	36142.55
527.87	36664.49
528.04	36067.66
528.21	35967.01
528.38	36238.51
528.55	36503.00
528.72	36699.60
528.89	36390.65
529.07	36650.45
529.24	36407.03
529.41	36737.05
529.58	36306.39
529.75	36594.28
529.92	37273.03
530.09	36973.44
530.26	36933.65
530.43	36723.01
530.60	36652.79
530.77	36943.02
530.94	37228.56
531.11	37132.60
531.28	37287.07
531.46	37202.82
531.63	37184.09
531.80	37214.52
531.97	36973.44
532.14	37195.79
532.31	37273.03
532.48	37516.45
532.65	37720.07
532.82	37734.12
532.99	37507.08
533.16	37514.11
533.33	37820.72
533.50	37961.15
533.67	37930.72
533.84	37551.56
534.01	38284.14
534.18	37645.18
534.35	38377.76
534.52	38302.87
534.69	38026.68
534.86	38199.88
535.03	37715.39
535.20	38518.20
535.37	38373.08
535.54	38405.85
535.71	38361.38
535.88	38141.37
536.05	38639.90
536.22	38438.62
536.38	38527.56
536.55	38677.35
536.72	38515.86
536.89	38459.68
537.06	38820.13
537.23	39021.41
537.40	38321.59
537.57	38700.76
537.74	38930.13
537.91	39182.91
538.08	39019.07
538.25	38763.95
538.42	38838.85
538.59	39318.66
538.75	39150.14
538.92	39126.74
539.09	39660.38
539.26	39159.50
539.43	39152.48
539.60	39438.03
539.77	38873.96
539.94	39580.80
540.11	39435.69
540.28	39370.15
540.44	39306.96
540.61	39604.20
540.78	39503.56
540.95	39459.09
541.12	39075.24
541.29	39957.63
541.46	39459.09
541.62	39913.16
541.79	39665.06
541.96	39175.89
542.13	39901.45
542.30	40074.65
542.47	40196.36
542.63	40339.13
542.80	40435.10
542.97	40968.74
543.14	40371.90
543.31	40580.21
543.48	40772.13
543.64	40641.06
543.81	40582.55
543.98	40732.34
544.15	40554.46
544.32	40713.62
544.48	41034.27
544.65	40369.56
544.82	40851.71
544.99	41015.55
545.16	40868.09
545.32	40711.28
545.49	41366.63
545.66	40919.59
545.83	40615.32
546.00	40917.25
546.16	41375.99
546.33	40935.97
546.50	40886.82
546.67	41151.30
546.83	40818.94
547.00	41008.53
547.17	41254.28
547.34	40907.88
547.50	41663.88
547.67	41074.06
547.84	41174.70
548.00	41282.37
548.17	41649.83
548.34	41284.71
548.51	41757.50
548.67	42012.62
548.84	41617.07
549.01	41324.50
549.18	41614.72
549.34	41963.46
549.51	42391.78
549.68	41771.54
549.84	41642.81
550.01	42295.82
550.18	41762.18
550.34	42082.83
550.51	41869.84
550.68	41914.31
550.84	41408.76
551.01	41911.97
551.18	42263.05
551.34	41661.54
551.51	42417.53
551.68	42251.35
551.84	41876.86
552.01	42249.01
552.18	42536.90
552.34	41837.08
552.51	42384.76
552.68	42230.29
552.84	42857.55
553.01	42735.84
553.18	42370.72
553.34	42616.47
553.51	42366.04
553.67	42316.89
553.84	42564.98
554.01	42562.64
554.17	43248.42
554.34	43136.07
554.51	42976.92
554.67	43028.41
554.84	42719.46
555.00	42855.21
555.17	42829.46
555.33	43030.75
555.50	43035.43
555.67	43042.45
555.83	43124.37
556.00	42728.82
556.16	43110.33
556.33	43618.22
556.50	43091.60
556.66	43129.05
556.83	43016.71
556.99	43393.53
557.16	43454.39
557.32	43281.19
557.49	43627.59
557.65	43016.71
557.82	43093.94
557.98	43157.14
558.15	43316.29
558.32	43367.79
558.48	43248.42
558.65	43475.45
558.81	43185.22
558.98	43171.18
559.14	43072.88
559.31	43503.54
559.47	43613.54
559.64	43880.36
559.80	43641.63
559.97	43346.72
560.13	42990.96
560.30	43391.19
560.46	43618.22
560.63	43470.77
560.79	43606.52
560.96	43936.54
561.12	43552.69
561.29	43690.78
561.45	43807.81
561.61	43449.70
561.78	43393.53
561.94	43641.63
562.11	43374.81
562.27	43316.29
562.44	43477.79
562.60	43887.39
562.77	43854.62
562.93	43779.72
563.10	44048.88
563.26	43625.25
563.42	44266.55
563.59	43550.35
563.75	43899.09
563.92	44156.55
564.08	44308.68
564.24	44236.12
564.41	43611.20
564.57	44137.82
564.74	44004.41
564.90	44165.91
565.07	44325.07
565.23	44002.07
565.39	43721.21
565.56	43859.30
565.72	43978.67
565.88	43826.53
566.05	43728.23
566.21	44367.20
566.38	44245.49
566.54	44126.12
566.70	43976.33
566.87	44479.54
567.03	44432.73
567.19	44322.72
567.36	44158.89
567.52	43922.49
567.68	44383.58
567.85	44224.42
568.01	44189.31
568.17	43938.88
568.34	44463.16
568.50	44287.62
568.66	44116.76
568.83	44184.63
568.99	43969.30
569.15	43810.15
569.32	43777.38
569.48	43892.07
569.64	44414.01
569.81	44514.65
569.97	44552.10
570.13	44662.10
570.30	43854.62
570.46	43934.20
570.62	44018.46
570.78	44198.68
570.95	44411.67
571.11	44381.24
571.27	44186.97
571.43	44219.74
571.60	44226.76
571.76	44509.97
571.92	44130.80
572.09	44013.77
572.25	44266.55
572.41	44329.75
572.57	44872.75
572.74	44882.11
572.90	44933.60
573.06	44713.59
573.22	44210.38
573.38	44868.07
573.55	44402.30
573.71	44418.69
573.87	44254.85
574.03	44601.25
574.20	44514.65
574.36	44353.15
574.52	44554.44
574.68	44872.75
574.84	44729.98
575.01	44561.46
575.17	44428.05
575.33	44025.48
575.49	44608.27
575.65	44421.03
575.82	45230.85
575.98	44100.37
576.14	45029.57
576.30	44844.66
576.46	44346.13
576.62	44491.24
576.79	44732.32
576.95	44135.48
577.11	44804.88
577.27	44591.89
577.43	44683.17
577.59	44378.90
577.75	44765.09
577.92	44435.07
578.08	44406.98
578.24	44311.02
578.40	45029.57
578.56	44285.28
578.72	44465.50
578.88	44788.49
579.04	44945.31
579.21	44547.42
579.37	44547.42
579.53	44561.46
579.69	43969.30
579.85	44638.70
580.01	44669.12
580.17	44868.07
580.33	44584.86
580.49	44666.78
580.65	44828.28
580.82	44893.82
580.98	44488.90
581.14	44421.03
581.30	44851.69
581.46	44776.79
581.62	44992.12
581.78	44631.68
581.94	45071.70
582.10	44884.45
582.26	44942.97
582.42	44594.23
582.58	44472.52
582.74	44568.48
582.90	44591.89
583.06	45062.33
583.22	44823.60
583.38	44844.66
583.54	45085.74
583.70	44587.21
583.86	44292.30
584.02	44601.25
584.18	44903.18
584.34	44722.96
584.50	44858.71
584.66	44463.16
584.82	44729.98
584.98	44776.79
585.14	44985.10
585.30	44594.23
585.46	44851.69
585.62	44453.79
585.78	45052.97
585.94	44669.12
586.10	44783.81
586.26	44568.48
586.42	44495.92
586.58	44905.52
586.74	44961.69
586.90	44655.08
587.06	44486.56
587.22	44575.50
587.38	44570.82
587.54	44917.22
587.70	45109.14
587.86	45153.62
588.02	44795.51
588.18	44938.29
588.34	44793.17
588.49	44573.16
588.65	44362.51
588.81	44505.29
588.97	44154.21
589.13	44638.70
589.29	44425.71
589.45	44835.30
589.61	44879.77
589.77	45013.18
589.93	44715.93
590.08	45191.06
590.24	45226.17
