SpectraSuite Data File
++++++++++++++++++++++++++++++++++++
Date: Fri Oct 25 11:23:57 EDT 2013
User: price-jones
Dark Spectrum Present: No
Reference Spectrum Present: No
Number of Sampled Component Spectra: 1
Spectrometers: USB2+H05261
Integration Time (usec): 100000 (USB2+H05261)
Spectra Averaged: 1 (USB2+H05261)
Boxcar Smoothing: 0 (USB2+H05261)
Correct for Electrical Dark: No (USB2+H05261)
Strobe/Lamp Enabled: No (USB2+H05261)
Correct for Detector Non-linearity: No (USB2+H05261)
Correct for Stray Light: No (USB2+H05261)
Number of Pixels in Processed Spectrum: 2048
>>>>>Begin Processed Spectral Data<<<<<
365.73	173.20
365.92	173.20
366.12	173.20
366.32	161.50
366.52	147.45
366.72	110.01
366.91	84.26
367.11	93.62
367.31	114.69
367.51	140.43
367.70	72.56
367.90	91.28
368.10	154.48
368.30	133.41
368.49	161.50
368.69	154.48
368.89	145.11
369.09	112.35
369.28	255.12
369.48	133.41
369.68	182.56
369.87	210.65
370.07	182.56
370.27	177.88
370.47	379.17
370.66	580.45
370.86	582.79
371.06	660.03
371.25	681.10
371.45	608.54
371.65	650.67
371.84	641.31
372.04	660.03
372.24	755.99
372.44	669.39
372.63	723.23
372.83	793.44
373.03	786.42
373.22	718.54
373.42	716.20
373.62	711.52
373.81	795.78
374.01	858.98
374.21	774.72
374.40	919.83
374.60	835.57
374.79	809.83
374.99	788.76
375.19	774.72
375.38	741.95
375.58	875.36
375.78	882.38
375.97	868.34
376.17	943.24
376.37	816.85
376.56	807.48
376.76	788.76
376.95	917.49
377.15	922.17
377.35	891.74
377.54	936.21
377.74	896.43
377.93	844.93
378.13	922.17
378.33	978.34
378.52	980.68
378.72	919.83
378.91	933.87
379.11	959.62
379.31	945.58
379.50	861.32
379.70	940.90
379.89	1013.45
380.09	945.58
380.28	1004.09
380.48	1004.09
380.68	931.53
380.87	936.21
381.07	1041.54
381.26	1029.84
381.46	987.71
381.65	1025.15
381.85	1027.50
382.04	1008.77
382.24	1090.69
382.43	1057.92
382.63	1011.11
382.83	973.66
383.02	1207.72
383.22	1083.67
383.41	1102.39
383.61	1156.22
383.80	1191.33
384.00	1090.69
384.19	1191.33
384.39	1095.37
384.58	1076.65
384.78	1135.16
384.97	1102.39
385.17	1102.39
385.36	1160.91
385.56	1144.52
385.75	1188.99
385.95	1252.19
386.14	1196.01
386.34	1240.48
386.53	1111.75
386.72	1160.91
386.92	1205.38
387.11	1273.25
387.31	1191.33
387.50	1226.44
387.70	1245.16
387.89	1275.59
388.09	1310.70
388.28	1231.12
388.48	1355.17
388.67	1289.64
388.86	1280.27
389.06	1404.32
389.25	1327.08
389.45	1233.46
389.64	1331.76
389.84	1277.93
390.03	1282.61
390.22	1495.60
390.42	1380.92
390.61	1294.32
390.81	1380.92
391.00	1383.26
391.19	1474.54
391.39	1455.81
391.58	1481.56
391.78	1507.30
391.97	1500.28
392.16	1488.58
392.36	1533.05
392.55	1533.05
392.75	1521.35
392.94	1481.56
393.13	1486.24
393.33	1600.93
393.52	1596.25
393.71	1636.03
393.91	1610.29
394.10	1540.07
394.29	1631.35
394.49	1610.29
394.68	1647.74
394.88	1732.00
395.07	1617.31
395.26	1584.54
395.46	1659.44
395.65	1664.12
395.84	1652.42
396.04	1816.26
396.23	1750.72
396.42	1811.57
396.62	1771.79
396.81	1767.10
397.00	1870.09
397.19	1682.85
397.39	1727.32
397.58	1827.96
397.77	1830.30
397.97	1947.33
398.16	1926.26
398.35	1928.60
398.55	1776.47
398.74	1930.94
398.93	1891.15
399.12	2050.31
399.32	1839.66
399.51	2001.16
399.70	1949.67
399.90	1921.58
400.09	1952.01
400.28	2005.84
400.47	2038.61
400.67	2113.50
400.86	2031.58
401.05	2115.84
401.24	2052.65
401.44	2085.42
401.63	2214.15
401.82	2094.78
402.01	2141.59
402.21	2139.25
402.40	2221.17
402.59	2256.28
402.78	2267.98
402.97	2204.78
403.17	2253.94
403.36	2260.96
403.55	2225.85
403.74	2331.17
403.93	2392.03
404.13	2452.88
404.32	2436.50
404.51	2349.90
404.70	2483.31
404.89	2417.77
405.09	2478.63
405.28	2452.88
405.47	2436.50
405.66	2534.80
405.85	2546.50
406.05	2544.16
406.24	2546.50
406.43	2525.44
406.62	2656.51
406.81	2668.21
407.00	2551.18
407.20	2661.19
407.39	2661.19
407.58	2752.47
407.77	2766.51
407.96	2733.75
408.15	2836.73
408.34	2810.98
408.54	2710.34
408.73	2757.15
408.92	2899.92
409.11	2785.24
409.30	2846.09
409.49	2946.73
409.68	2853.11
409.87	3047.38
410.07	3080.14
410.26	3019.29
410.45	3005.25
410.64	3108.23
410.83	3112.91
411.02	3028.65
411.21	3187.81
411.40	3131.64
411.59	3101.21
411.78	3173.77
411.98	3236.96
412.17	3129.30
412.36	3290.79
412.55	3283.77
412.74	3503.78
412.93	3442.93
413.12	3403.14
413.31	3499.10
413.50	3438.25
413.69	3424.20
413.88	3616.13
414.07	3634.85
414.26	3702.73
414.45	3796.35
414.64	3625.49
414.83	3548.25
415.02	3681.66
415.22	3625.49
415.41	3751.88
415.60	3845.50
415.79	3941.46
415.98	3911.04
416.17	4009.34
416.36	3941.46
416.55	3948.48
416.74	4028.06
416.93	4018.70
417.12	4170.83
417.31	4161.47
417.50	4177.86
417.69	4290.20
417.88	4355.74
418.07	4311.27
418.26	4358.08
418.45	4418.93
418.64	4271.48
418.83	4465.74
419.02	4395.53
419.21	4568.73
419.39	4510.21
419.58	4311.27
419.77	4458.72
419.96	4519.57
420.15	4601.49
420.34	4528.94
420.53	4545.32
420.72	4685.75
420.91	4627.24
421.10	4706.82
421.29	4856.61
421.48	4561.70
421.67	4594.47
421.86	4809.80
422.05	4844.91
422.24	4917.47
422.43	4861.29
422.61	4784.06
422.80	4910.44
422.99	4924.49
423.18	5004.07
423.37	5116.41
423.56	4957.25
423.75	4950.23
423.94	4800.44
424.13	4585.11
424.32	4863.63
424.50	4936.19
424.69	5001.72
424.88	5039.17
425.07	5006.41
425.26	4910.44
425.45	4856.61
425.64	4840.23
425.83	4915.12
426.01	5228.76
426.20	5069.60
426.39	5100.03
426.58	5057.90
426.77	4994.70
426.96	5034.49
427.15	5109.39
427.33	5203.01
427.52	5151.52
427.71	5334.08
427.90	5195.99
428.09	5334.08
428.28	5320.04
428.46	5572.82
428.65	5359.83
428.84	5392.59
429.03	5509.62
429.22	5490.90
429.40	5621.97
429.59	5682.82
429.78	5198.33
429.97	5259.18
430.16	5584.52
430.34	5607.92
430.53	5645.37
430.72	5591.54
430.91	5605.58
431.10	5586.86
431.28	5788.14
431.47	5963.68
431.66	5909.85
431.85	5858.36
432.03	5975.39
432.22	6090.07
432.41	5865.38
432.60	6057.31
432.79	5994.11
432.97	6155.61
433.16	6050.28
433.35	5989.43
433.54	6104.12
433.72	5987.09
433.91	5963.68
434.10	6174.33
434.28	6003.47
434.47	6260.93
434.66	6043.26
434.85	6375.62
435.03	6399.02
435.22	6286.68
435.41	6530.09
435.59	6392.00
435.78	6476.26
435.97	6436.47
436.16	6328.81
436.34	6457.54
436.53	6303.06
436.72	6583.93
436.90	6457.54
437.09	6504.35
437.28	6427.11
437.46	6635.42
437.65	6579.25
437.84	6796.92
438.02	6808.62
438.21	6733.72
438.40	6923.30
438.58	6895.22
438.77	7009.90
438.96	6876.49
439.14	7045.01
439.33	7255.66
439.52	7410.14
439.70	7236.94
439.89	7208.85
440.08	7449.93
440.26	7360.98
440.45	7440.56
440.63	7421.84
440.82	7569.29
441.01	7494.40
441.19	7681.64
441.38	7712.07
441.57	7735.47
441.75	7990.59
441.94	7943.78
442.12	7934.42
442.31	7927.39
442.50	8191.88
442.68	8032.72
442.87	8119.32
443.05	8114.64
443.24	8166.13
443.43	8161.45
443.61	8313.58
443.80	8531.25
443.98	7903.99
444.17	8002.29
444.35	8252.73
444.54	8374.44
444.73	8222.30
444.91	8184.85
445.10	8414.23
445.28	8376.78
445.47	8287.84
445.65	8285.50
445.84	8571.04
446.02	8519.55
446.21	8521.89
446.39	8407.20
446.58	8524.23
446.77	8601.47
446.95	8280.82
447.14	8369.76
447.32	8535.93
447.51	8491.46
447.69	8603.81
447.88	8463.38
448.06	8475.08
448.25	8557.00
448.43	8795.73
448.62	8381.46
448.80	8390.82
448.99	8723.18
449.17	8812.12
449.36	8599.13
449.54	8903.40
449.73	8966.59
449.91	9205.33
450.10	8894.04
450.28	9041.49
450.46	8968.93
450.65	9083.62
450.83	9158.52
451.02	9020.42
451.20	9345.76
451.39	9130.43
451.57	9245.12
451.76	8980.64
451.94	9305.97
452.13	9406.61
452.31	9362.14
452.49	9322.35
452.68	9415.98
452.86	9383.21
453.05	9481.51
453.23	9612.58
453.42	9298.95
453.60	9467.47
453.78	9542.36
453.97	9619.60
454.15	9692.16
454.34	9483.85
454.52	9846.63
454.70	9701.52
454.89	9926.21
455.07	9856.00
455.26	9944.94
455.44	9853.66
455.62	9975.36
455.81	9874.72
455.99	9895.78
456.17	10111.11
456.36	10249.21
456.54	10099.41
456.73	10284.31
456.91	10590.92
457.09	10310.06
457.28	10626.03
457.46	10164.95
457.64	10480.92
457.83	10824.98
458.01	10499.64
458.19	10834.34
458.38	10780.51
458.56	10583.90
458.74	10707.95
458.93	10876.47
459.11	10878.81
459.29	10817.96
459.48	10822.64
459.66	10729.02
459.84	10803.91
460.03	11016.90
460.21	11056.69
460.39	11026.26
460.57	10986.47
460.76	11073.07
460.94	11384.37
461.12	11206.48
461.31	11119.89
461.49	11215.85
461.67	11295.43
461.85	11548.20
462.04	11370.32
462.22	11693.32
462.40	11625.44
462.59	11508.41
462.77	11630.12
462.95	11761.19
463.13	11805.66
463.32	11587.99
463.50	11669.91
463.68	11786.94
463.86	11861.84
464.05	11721.40
464.23	11695.66
464.41	11997.59
464.59	11733.11
464.78	12159.08
464.96	12065.46
465.14	11754.17
465.32	12093.55
465.50	11999.93
465.69	12107.59
465.87	12138.02
466.05	12116.95
466.23	12348.67
466.41	12173.13
466.60	12692.73
466.78	12126.32
466.96	12308.88
467.14	12414.20
467.32	12554.63
467.51	12400.16
467.69	12156.74
467.87	12468.03
468.05	12709.11
468.23	12432.93
468.41	12461.01
468.60	12393.14
468.78	12800.39
468.96	12704.43
469.14	12896.35
469.32	13167.85
469.50	12784.01
469.69	12989.97
469.87	13144.45
470.05	13151.47
470.23	13350.42
470.41	12947.84
470.59	13504.89
470.77	13029.76
470.95	13125.72
471.14	13661.71
471.32	13209.98
471.50	13514.25
471.68	13652.34
471.86	13923.85
472.04	13596.17
472.22	13961.30
472.40	13659.37
472.58	13851.29
472.77	14003.43
472.95	14019.81
473.13	14668.14
473.31	13994.06
473.49	14267.91
473.67	14083.00
473.85	14537.07
474.03	14616.65
474.21	14642.39
474.39	14579.20
474.57	14965.39
474.75	15007.52
474.93	15075.39
475.12	15239.23
475.30	15082.41
475.48	15349.23
475.66	15314.13
475.84	15367.96
476.02	15019.22
476.20	15253.27
476.38	15726.06
476.56	16273.74
476.74	16032.67
476.92	15716.70
477.10	15719.04
477.28	16166.08
477.46	16189.49
477.64	16215.23
477.82	16767.60
478.00	17071.87
478.18	16702.06
478.36	17179.53
478.54	17067.19
478.72	17322.30
478.90	17596.15
479.08	17715.51
479.26	17802.11
479.44	17818.50
479.62	17823.18
479.80	17762.33
479.98	17935.53
480.16	18654.07
480.34	18417.68
480.52	18801.52
480.70	18731.31
480.88	18420.02
481.06	18743.01
481.24	18831.95
481.41	18970.04
481.59	19723.69
481.77	19491.98
481.95	19419.42
482.13	19653.48
482.31	19609.01
482.49	20561.61
482.67	20657.57
482.85	20425.86
483.03	20549.90
483.21	21057.80
483.39	21003.97
483.57	21216.96
483.74	21191.21
483.92	21593.78
484.10	21263.77
484.28	21797.41
484.46	22197.64
484.64	22239.77
484.82	22214.02
485.00	22382.54
485.18	22714.90
485.35	22544.04
485.53	22913.84
485.71	23199.39
485.89	23658.14
486.07	23367.91
486.25	23494.30
486.43	23417.06
486.61	24067.73
486.78	24109.86
486.96	24465.62
487.14	24830.74
487.32	24638.82
487.50	24833.08
487.68	24933.73
487.85	25212.25
488.03	25436.94
488.21	25727.17
488.39	25752.91
488.57	25930.80
488.75	26202.30
488.92	26239.75
489.10	26630.62
489.28	26960.63
489.46	26813.18
489.64	27150.21
489.81	27864.08
489.99	27597.26
490.17	27920.25
490.35	28432.83
490.53	28088.77
490.70	28737.10
490.88	28414.10
491.06	29010.94
491.24	28748.80
491.41	29191.16
491.59	29261.38
491.77	29060.09
491.95	29621.82
492.13	29750.55
492.30	30043.12
492.48	30323.98
492.66	30345.05
492.84	30424.62
493.01	30707.83
493.19	30710.17
493.37	31115.08
493.54	31309.35
493.72	31627.66
493.90	31536.38
494.08	31665.11
494.25	32084.06
494.43	32168.32
494.61	32409.40
494.79	32137.90
494.96	32697.28
495.14	32767.50
495.32	33369.02
495.49	33088.15
495.67	33373.70
495.85	33783.29
496.02	33734.14
496.20	33762.23
496.38	33923.72
496.55	34368.43
496.73	35049.52
496.91	34445.66
497.09	35175.91
497.26	34883.34
497.44	34752.27
497.62	35131.44
497.79	36095.74
497.97	35688.49
498.14	36093.40
498.32	36196.38
498.50	36191.70
498.67	36905.57
498.85	36718.32
499.03	36751.09
499.20	36872.80
499.38	37046.00
499.56	37368.99
499.73	37242.60
499.91	37638.15
500.08	37649.86
500.26	37493.04
500.44	37696.67
500.61	37855.82
500.79	38122.65
500.97	37881.57
501.14	39119.71
501.32	38880.98
501.49	38412.87
501.67	38923.11
501.84	39576.12
502.02	38813.10
502.20	39587.82
502.37	39545.69
502.55	39409.94
502.72	39608.89
502.90	39866.34
503.07	39746.98
503.25	39688.46
503.43	39754.00
503.60	40034.86
503.78	40114.44
503.95	40268.92
504.13	40456.16
504.30	40872.78
504.48	40442.12
504.65	40870.43
504.83	41282.37
505.01	41394.71
505.18	41383.01
505.36	41958.78
505.53	41160.66
505.71	41727.07
505.88	41710.69
506.06	41397.06
506.23	42162.41
506.41	42382.42
506.58	41921.34
506.76	42391.78
506.93	42527.53
507.11	42436.25
507.28	42717.12
507.46	43133.73
507.63	43234.38
507.81	43545.67
507.98	43028.41
508.16	43316.29
508.33	43185.22
508.50	43421.62
508.68	43821.85
508.85	44151.87
509.03	43929.51
509.20	44339.11
509.38	44343.79
509.55	44238.47
509.73	44629.34
509.90	44982.76
510.08	44369.54
510.25	44889.13
510.42	45013.18
510.60	44659.76
510.77	45006.16
510.95	45612.36
511.12	45125.53
511.30	45378.31
511.47	45832.37
511.64	45823.01
511.82	45986.85
511.99	45832.37
512.17	46480.70
512.34	45720.02
512.51	46344.95
512.69	46672.62
512.86	46366.01
513.04	46775.61
513.21	46827.10
513.38	46703.05
513.56	47157.11
513.73	47051.79
513.90	47068.17
514.08	46681.98
514.25	47365.42
514.43	47304.57
514.60	47356.06
514.77	47393.51
514.95	47622.88
515.12	47508.19
515.29	47934.17
515.47	47915.45
515.64	48130.78
515.81	47985.66
515.99	48048.86
516.16	48271.21
516.33	48652.72
516.51	48406.96
516.68	48821.23
516.85	48470.15
517.03	49212.10
517.20	49015.50
517.37	49116.14
517.54	49340.83
517.72	48996.77
517.89	49258.91
518.06	49177.00
518.24	49652.12
518.41	49247.21
518.58	49546.80
518.75	49343.17
518.93	50005.55
519.10	49661.49
519.27	50110.87
519.45	49593.61
519.62	49837.03
519.79	50286.41
519.96	50160.02
520.14	50045.33
520.31	50298.11
520.48	50550.89
520.65	50255.98
520.83	51033.04
521.00	50864.52
521.17	50440.89
521.34	50686.64
521.52	50939.42
521.69	50749.84
521.86	51129.00
522.03	51166.45
522.20	51311.56
522.38	51409.87
522.55	51423.91
522.72	51409.87
522.89	51187.52
523.07	51800.74
523.24	51831.16
523.41	51704.77
523.58	51449.66
523.75	51938.83
523.92	51735.20
524.10	52116.71
524.27	52381.19
524.44	52280.55
524.61	52346.08
524.78	52500.56
524.96	52416.30
525.13	52378.85
525.30	52636.31
525.47	52439.70
525.64	52552.05
525.81	52701.84
525.98	52652.69
526.16	52409.28
526.33	52938.24
526.50	53106.76
526.67	52949.94
526.84	52978.03
527.01	53059.94
527.18	52832.91
527.36	52982.71
527.53	53326.77
527.70	53258.89
527.87	53336.13
528.04	53120.80
528.21	53453.15
528.38	53315.06
528.55	53577.20
528.72	53315.06
528.89	53748.06
529.07	53528.05
529.24	53467.20
529.41	54033.61
529.58	53595.93
529.75	53893.18
529.92	53909.56
530.09	54195.10
530.26	54218.51
530.43	53982.12
530.60	53989.14
530.77	54071.06
530.94	54101.48
531.11	54021.90
531.28	54419.80
531.46	54342.56
531.63	54192.76
531.80	54059.35
531.97	54445.54
532.14	54543.84
532.31	54321.49
532.48	54410.43
532.65	54841.09
532.82	54700.66
532.99	54747.47
533.16	54679.60
533.33	54782.58
533.50	55070.46
533.67	54768.54
533.84	54805.98
534.01	55107.91
534.18	54871.52
534.35	55531.55
534.52	55248.35
534.69	55304.52
534.86	55494.10
535.03	55117.28
535.20	55065.78
535.37	55421.55
535.54	55381.76
535.71	55386.44
535.88	55585.38
536.05	55578.36
536.22	55622.83
536.38	55721.13
536.55	55671.98
536.72	55789.01
536.89	55613.47
537.06	55622.83
537.23	55821.78
537.40	55730.50
537.57	55894.33
537.74	55983.27
537.91	56135.41
538.08	55887.31
538.25	55693.05
538.42	55910.72
538.59	56198.60
538.75	56090.94
538.92	56196.26
539.09	56301.59
539.26	56332.01
539.43	56383.51
539.60	56388.19
539.77	56376.48
539.94	56575.43
540.11	56645.65
540.28	56430.32
540.44	56437.34
540.61	56584.79
540.78	56481.81
540.95	56484.15
541.12	56250.09
541.29	56839.91
541.46	56303.93
541.62	56734.59
541.79	56779.06
541.96	56439.68
542.13	56629.26
542.30	56748.63
542.47	57045.88
542.63	56872.68
542.80	57151.20
542.97	57200.35
543.14	57275.25
543.31	57446.11
543.48	57481.22
543.64	57366.53
543.81	57577.18
543.98	57490.58
544.15	57429.72
544.32	57612.29
544.48	57623.99
544.65	57521.01
544.82	57560.79
544.99	57331.42
545.16	57684.84
545.32	57420.36
545.49	57715.27
545.66	57801.87
545.83	57715.27
546.00	57771.44
546.16	57588.88
546.33	57694.21
546.50	57705.91
546.67	57827.62
546.83	57537.39
547.00	57804.21
547.17	58014.86
547.34	57921.24
547.50	57813.57
547.67	58258.27
547.84	58241.89
548.00	58365.94
548.17	58351.90
548.34	58164.65
548.51	58342.53
548.67	58492.33
548.84	58166.99
549.01	58127.20
549.18	58094.44
549.34	58181.04
549.51	58461.90
549.68	58321.47
549.84	58398.71
550.01	58403.39
550.18	58466.58
550.34	58562.54
550.51	58588.29
550.68	58590.63
550.84	58527.44
551.01	58815.32
551.18	58651.48
551.34	58693.61
551.51	58735.74
551.68	58679.57
551.84	58688.93
552.01	58298.06
552.18	59047.04
552.34	58679.57
552.51	58693.61
552.68	58698.30
552.84	58707.66
553.01	59051.72
553.18	58908.94
553.34	58911.28
553.51	58770.85
553.67	58969.80
553.84	58913.62
554.01	58887.88
554.17	58866.81
554.34	59114.91
554.51	58862.13
554.67	59025.97
554.84	59131.29
555.00	58845.75
555.17	58974.48
555.33	59245.98
555.50	58913.62
555.67	58927.67
555.83	59070.44
556.00	59292.79
556.16	59576.00
556.33	59194.49
556.50	59334.92
556.66	59285.77
556.83	59206.19
556.99	59634.51
557.16	59381.73
557.32	59388.75
557.49	59707.07
557.65	59393.43
557.82	59508.12
557.98	59463.65
558.15	59353.65
558.32	59465.99
558.48	59433.22
558.65	59480.03
558.81	59526.84
558.98	59700.04
559.14	59906.01
559.31	59838.14
559.47	59906.01
559.64	59714.09
559.80	59828.77
559.97	59831.11
560.13	59538.55
560.30	59826.43
560.46	59870.90
560.63	59950.48
560.79	59868.56
560.96	60006.65
561.12	59929.42
561.29	59870.90
561.45	60001.97
561.61	59819.41
561.78	59774.94
561.94	59903.67
562.11	59990.27
562.27	59985.59
562.44	59999.63
562.60	60163.47
562.77	60109.64
562.93	59702.38
563.10	60034.74
563.26	59992.61
563.42	60308.58
563.59	60186.88
563.75	59917.71
563.92	60151.77
564.08	60051.12
564.24	60261.77
564.41	60299.22
564.57	60051.12
564.74	60254.75
564.90	60369.44
565.07	60266.45
565.23	60289.86
565.39	59990.27
565.56	60266.45
565.72	60362.42
565.88	60388.16
566.05	60193.90
566.21	60163.47
566.38	60413.91
566.54	60378.80
566.70	60343.69
566.87	60385.82
567.03	60301.56
567.19	60584.77
567.36	60411.57
567.52	60486.46
567.68	60601.15
567.85	60439.65
568.01	60566.04
568.17	60294.54
568.34	60533.28
568.50	60458.38
568.66	60243.05
568.83	60500.51
568.99	60367.10
569.15	60437.31
569.32	60465.40
569.48	60404.55
569.64	60610.51
569.81	60528.59
569.97	60561.36
570.13	60594.13
570.30	60364.76
570.46	60514.55
570.62	60533.28
570.78	60547.32
570.95	60472.42
571.11	60804.78
571.27	60530.93
571.43	60603.49
571.60	60669.03
571.76	60594.13
571.92	60671.37
572.09	60495.83
572.25	60664.35
572.41	60671.37
572.57	60664.35
572.74	60919.46
572.90	60598.81
573.06	60697.11
573.22	60800.10
573.38	60879.67
573.55	60669.03
573.71	60811.80
573.87	60846.91
574.03	60706.47
574.20	60678.39
574.36	60493.49
574.52	60772.01
574.68	60804.78
574.84	60779.03
575.01	60736.90
575.17	60905.42
575.33	60774.35
575.49	60542.64
575.65	60802.44
575.82	60903.08
575.98	60664.35
576.14	61052.87
576.30	60975.64
576.46	60704.13
576.62	60938.19
576.79	60629.24
576.95	60764.99
577.11	60760.31
577.27	60987.34
577.43	60977.98
577.59	60846.91
577.75	60706.47
577.92	60755.63
578.08	60809.46
578.24	60849.25
578.40	60982.66
578.56	61031.81
578.72	60772.01
578.88	61083.30
579.04	61272.88
579.21	60865.63
579.37	61069.26
579.53	61226.07
579.69	60725.20
579.85	60882.02
580.01	61087.98
580.17	60818.82
580.33	61059.90
580.49	60928.83
580.65	60996.70
580.82	60917.12
580.98	60970.96
581.14	60863.29
581.30	61235.44
581.46	60889.04
581.62	61102.03
581.78	61155.86
581.94	60907.76
582.10	61003.72
582.26	61001.38
582.42	60945.21
582.58	61233.10
582.74	61167.56
582.90	61043.51
583.06	61104.37
583.22	60999.04
583.38	61062.24
583.54	61102.03
583.70	61027.13
583.86	61073.94
584.02	60933.51
584.18	61050.53
584.34	61125.43
584.50	61207.35
584.66	60917.12
584.82	61078.62
584.98	61251.82
585.14	61329.06
585.30	60961.59
585.46	61013.08
585.62	61111.39
585.78	61270.54
585.94	60870.31
586.10	61205.01
586.26	61104.37
586.42	61104.37
586.58	61200.33
586.74	61141.81
586.90	61008.40
587.06	61212.03
587.22	61137.13
587.38	61041.17
587.54	61219.05
587.70	61197.99
587.86	61043.51
588.02	61153.52
588.18	61209.69
588.34	61151.18
588.49	61095.00
