SpectraSuite Data File
++++++++++++++++++++++++++++++++++++
Date: Fri Oct 25 11:33:52 EDT 2013
User: price-jones
Dark Spectrum Present: No
Reference Spectrum Present: No
Number of Sampled Component Spectra: 1
Spectrometers: USB2+H05261
Integration Time (usec): 100000 (USB2+H05261)
Spectra Averaged: 1 (USB2+H05261)
Boxcar Smoothing: 0 (USB2+H05261)
Correct for Electrical Dark: No (USB2+H05261)
Strobe/Lamp Enabled: No (USB2+H05261)
Correct for Detector Non-linearity: No (USB2+H05261)
Correct for Stray Light: No (USB2+H05261)
Number of Pixels in Processed Spectrum: 2048
>>>>>Begin Processed Spectral Data<<<<<
365.73	306.61
365.92	306.61
366.12	306.61
366.32	189.58
366.52	152.13
366.72	222.35
366.91	154.48
367.11	198.95
367.31	124.05
367.51	264.48
367.70	189.58
367.90	196.60
368.10	257.46
368.30	145.11
368.49	133.41
368.69	203.63
368.89	177.88
369.09	156.82
369.28	173.20
369.48	229.37
369.68	271.50
369.87	222.35
370.07	224.69
370.27	320.65
370.47	313.63
370.66	503.22
370.86	507.90
371.06	524.28
371.25	517.26
371.45	519.60
371.65	641.31
371.84	589.82
372.04	554.71
372.24	664.71
372.44	552.37
372.63	662.37
372.83	601.52
373.03	631.94
373.22	608.54
373.42	655.35
373.62	681.10
373.81	601.52
374.01	603.86
374.21	650.67
374.40	664.71
374.60	592.16
374.79	655.35
374.99	674.07
375.19	648.33
375.38	716.20
375.58	643.65
375.78	667.05
375.97	645.99
376.17	711.52
376.37	723.23
376.56	702.16
376.76	725.57
376.95	592.16
377.15	641.31
377.35	645.99
377.54	702.16
377.74	763.01
377.93	624.92
378.13	697.48
378.33	723.23
378.52	704.50
378.72	669.39
378.91	692.80
379.11	744.29
379.31	758.33
379.50	645.99
379.70	692.80
379.89	744.29
380.09	706.84
380.28	739.61
380.48	692.80
380.68	704.50
380.87	751.31
381.07	692.80
381.26	807.48
381.46	737.27
381.65	706.84
381.85	774.72
382.04	774.72
382.24	737.27
382.43	791.10
382.63	788.76
382.83	725.57
383.02	774.72
383.22	770.04
383.41	795.78
383.61	770.04
383.80	835.57
384.00	837.91
384.19	887.06
384.39	807.48
384.58	758.33
384.78	800.46
384.97	734.93
385.17	793.44
385.36	830.89
385.56	856.64
385.75	814.51
385.95	844.93
386.14	844.93
386.34	842.59
386.53	863.66
386.72	882.38
386.92	866.00
387.11	791.10
387.31	875.36
387.50	875.36
387.70	936.21
387.89	842.59
388.09	875.36
388.28	858.98
388.48	924.51
388.67	877.70
388.86	940.90
389.06	917.49
389.25	919.83
389.45	1001.75
389.64	931.53
389.84	954.94
390.03	940.90
390.22	922.17
390.42	990.05
390.61	980.68
390.81	903.45
391.00	968.98
391.19	1022.81
391.39	973.66
391.58	940.90
391.78	947.92
391.97	1048.56
392.16	1067.28
392.36	1022.81
392.55	1055.58
392.75	1083.67
392.94	1004.09
393.13	1020.47
393.33	1076.65
393.52	987.71
393.71	1130.48
393.91	1123.46
394.10	1046.22
394.29	1132.82
394.49	1048.56
394.68	1107.07
394.88	1104.73
395.07	1097.71
395.26	1104.73
395.46	1184.31
395.65	1203.04
395.84	1181.97
396.04	1219.42
396.23	1142.18
396.42	1193.67
396.62	1163.25
396.81	1231.12
397.00	1228.78
397.19	1242.82
397.39	1078.99
397.58	1259.21
397.77	1245.16
397.97	1191.33
398.16	1275.59
398.35	1336.45
398.55	1299.00
398.74	1434.75
398.93	1284.95
399.12	1196.01
399.32	1310.70
399.51	1343.47
399.70	1348.15
399.90	1352.83
400.09	1387.94
400.28	1376.24
400.47	1296.66
400.67	1331.76
400.86	1376.24
401.05	1385.60
401.24	1444.11
401.44	1359.85
401.63	1504.96
401.82	1390.28
402.01	1413.68
402.21	1476.88
402.40	1502.62
402.59	1453.47
402.78	1462.83
402.97	1556.46
403.17	1523.69
403.36	1479.22
403.55	1570.50
403.74	1554.12
403.93	1624.33
404.13	1577.52
404.32	1579.86
404.51	1584.54
404.70	1554.12
404.89	1605.61
405.09	1671.14
405.28	1696.89
405.47	1657.10
405.66	1631.35
405.85	1647.74
406.05	1767.10
406.24	1809.23
406.43	1792.85
406.62	1849.02
406.81	1753.06
407.00	1724.97
407.20	1799.87
407.39	1788.17
407.58	1874.77
407.77	1926.26
407.96	1923.92
408.15	1909.88
408.34	1907.54
408.54	1851.36
408.73	1930.94
408.92	2036.27
409.11	2022.22
409.30	1973.07
409.49	1984.77
409.68	2069.03
409.87	1928.60
410.07	2033.93
410.26	1970.73
410.45	1994.14
410.64	1987.11
410.83	2038.61
411.02	2179.04
411.21	2120.53
411.40	2167.34
411.59	2101.80
411.78	2090.10
411.98	2172.02
412.17	2335.85
412.36	2310.11
412.55	2202.44
412.74	2237.55
412.93	2408.41
413.12	2310.11
413.31	2363.94
413.50	2363.94
413.69	2380.32
413.88	2516.08
414.07	2420.11
414.26	2434.16
414.45	2583.95
414.64	2406.07
414.83	2539.48
415.02	2647.15
415.22	2656.51
415.41	2710.34
415.60	2588.63
415.79	2647.15
415.98	2717.36
416.17	2766.51
416.36	2654.17
416.55	2775.88
416.74	2754.81
416.93	2752.47
417.12	2792.26
417.31	2726.72
417.50	2923.33
417.69	2911.63
417.88	2820.35
418.07	2923.33
418.26	2946.73
418.45	2930.35
418.64	3066.10
418.83	3082.49
419.02	3105.89
419.21	3033.33
419.39	3166.74
419.58	3038.02
419.77	3054.40
419.96	3117.59
420.15	3218.24
420.34	3052.06
420.53	3152.70
420.72	3377.39
420.91	3276.75
421.10	3187.81
421.29	3304.84
421.48	3253.34
421.67	3234.62
421.86	3309.52
422.05	3337.60
422.24	3318.88
422.43	3325.90
422.61	3428.88
422.80	3398.46
422.99	3358.67
423.18	3391.44
423.37	3480.38
423.56	3480.38
423.75	3412.50
423.94	3279.09
424.13	3117.59
424.32	3222.92
424.50	3421.86
424.69	3459.31
424.88	3648.90
425.07	3342.28
425.26	3314.20
425.45	3396.12
425.64	3499.10
425.83	3368.03
426.01	3442.93
426.20	3552.93
426.39	3372.71
426.58	3438.25
426.77	3494.42
426.96	3503.78
427.15	3424.20
427.33	3487.40
427.52	3548.25
427.71	3581.02
427.90	3524.85
428.09	3562.30
428.28	3625.49
428.46	3648.90
428.65	3691.02
428.84	3866.56
429.03	3810.39
429.22	3817.41
429.40	3655.92
429.59	3796.35
429.78	3641.87
429.97	3634.85
430.16	3749.54
430.34	3784.65
430.53	3932.10
430.72	3906.35
430.91	3854.86
431.10	3946.14
431.28	3997.64
431.47	3964.87
431.66	4028.06
431.85	3941.46
432.03	4007.00
432.22	4152.11
432.41	4081.89
432.60	3978.91
432.79	3866.56
432.97	4042.11
433.16	4308.93
433.35	4227.01
433.54	4023.38
433.72	4154.45
433.91	4138.07
434.10	4142.75
434.28	4133.39
434.47	4365.10
434.66	4285.52
434.85	4306.59
435.03	4334.67
435.22	4219.99
435.41	4294.88
435.59	4397.87
435.78	4414.25
435.97	4540.64
436.16	4369.78
436.34	4360.42
436.53	4414.25
436.72	4568.73
436.90	4582.77
437.09	4500.85
437.28	4477.44
437.46	4545.32
437.65	4566.39
437.84	4493.83
438.02	4531.28
438.21	4627.24
438.40	4512.55
438.58	4681.07
438.77	4594.47
438.96	4823.84
439.14	4688.09
439.33	4835.55
439.52	5011.09
439.70	4919.81
439.89	5025.13
440.08	4940.87
440.26	5177.26
440.45	5027.47
440.63	5165.56
440.82	5343.44
441.01	5048.54
441.19	5170.24
441.38	5118.75
441.57	5390.25
441.75	5315.36
441.94	5291.95
442.12	5380.89
442.31	5441.75
442.50	5343.44
442.68	5338.76
442.87	5294.29
443.05	5540.05
443.24	5612.60
443.43	5582.18
443.61	5657.07
443.80	5511.96
443.98	5338.76
444.17	5303.65
444.35	5701.54
444.54	5668.78
444.73	5802.19
444.91	5659.42
445.10	5661.76
445.28	5682.82
445.47	5572.82
445.65	5657.07
445.84	5668.78
446.02	5504.94
446.21	5640.69
446.39	5600.90
446.58	5790.49
446.77	5727.29
446.95	5678.14
447.14	5696.86
447.32	5825.59
447.51	5659.42
447.69	5659.42
447.88	5607.92
448.06	5694.52
448.25	5841.98
448.43	5720.27
448.62	5757.72
448.80	5738.99
448.99	5734.31
449.17	5823.25
449.36	5797.51
449.54	5877.09
449.73	6134.54
449.91	5994.11
450.10	5944.96
450.28	6101.78
450.46	6157.95
450.65	6143.91
450.83	6267.95
451.02	6150.93
451.20	6307.74
451.39	6167.31
451.57	6169.65
451.76	6127.52
451.94	6200.08
452.13	6354.55
452.31	6157.95
452.49	6225.82
452.68	6466.90
452.86	6125.18
453.05	6338.17
453.23	6417.75
453.42	6286.68
453.60	6305.40
453.78	6272.64
453.97	6506.69
454.15	6366.26
454.34	6249.23
454.52	6464.56
454.70	6443.49
454.89	6560.52
455.07	6520.73
455.26	6696.27
455.44	6623.72
455.62	6562.86
455.81	6785.21
455.99	6771.17
456.17	6839.05
456.36	6668.19
456.54	6815.64
456.73	6960.75
456.91	6867.13
457.09	7009.90
457.28	7056.72
457.46	6874.15
457.64	7007.56
457.83	7056.72
458.01	7066.08
458.19	7119.91
458.38	7176.08
458.56	7262.68
458.74	7061.40
458.93	7014.59
459.11	7103.53
459.29	7157.36
459.48	7295.45
459.66	7037.99
459.84	7246.30
460.03	7389.07
460.21	7459.29
460.39	7424.18
460.57	7323.54
460.76	7379.71
460.94	7375.03
461.12	7386.73
461.31	7468.65
461.49	7555.25
461.67	7391.41
461.85	7810.37
462.04	7529.50
462.22	7943.78
462.40	7737.81
462.59	7749.51
462.77	7840.79
462.95	7733.13
463.13	7634.83
463.32	7468.65
463.50	7592.70
463.68	7859.52
463.86	7782.28
464.05	7911.01
464.23	7559.93
464.41	7925.05
464.59	7768.24
464.78	8039.74
464.96	8107.62
465.14	7934.42
465.32	8196.56
465.50	7871.22
465.69	7901.65
465.87	8018.68
466.05	8112.30
466.23	8241.03
466.41	8273.79
466.60	8365.07
466.78	8189.53
466.96	8109.96
467.14	8070.17
467.32	8262.09
467.51	8304.22
467.69	8215.28
467.87	8116.98
468.05	8292.52
468.23	8208.26
468.41	8133.36
468.60	8325.29
468.78	8461.04
468.96	8397.84
469.14	8528.91
469.32	8617.85
469.50	8470.40
469.69	8575.72
469.87	8830.84
470.05	8676.37
470.23	8730.20
470.41	8823.82
470.59	8798.07
470.77	8727.86
470.95	8898.72
471.14	9011.06
471.32	8758.28
471.50	9015.74
471.68	9004.04
471.86	9102.34
472.04	9100.00
472.22	9343.42
472.40	9121.07
472.58	9104.68
472.77	9338.74
472.95	9488.53
473.13	9467.47
473.31	9507.26
473.49	9350.44
473.67	9305.97
473.85	9521.30
474.03	9551.73
474.21	9820.89
474.39	9682.80
474.57	9802.16
474.75	9605.56
474.93	9975.36
475.12	9837.27
475.30	9853.66
475.48	9888.76
475.66	10197.71
475.84	9989.41
476.02	10221.12
476.20	10303.04
476.38	10340.49
476.56	10682.20
476.74	10530.07
476.92	10218.78
477.10	10242.18
477.28	10698.59
477.46	10698.59
477.64	10925.62
477.82	10705.61
478.00	11255.64
478.18	11152.65
478.36	11185.42
478.54	11283.72
478.72	11321.17
478.90	11346.92
479.08	11531.82
479.26	11756.51
479.44	11747.15
479.62	11726.08
479.80	11871.20
479.98	11948.43
480.16	12348.67
480.34	11908.65
480.52	11896.94
480.70	12074.82
480.88	12116.95
481.06	12432.93
481.24	12250.36
481.41	12720.81
481.59	12624.85
481.77	12751.24
481.95	12730.17
482.13	12964.23
482.31	13083.59
482.49	13338.71
482.67	13263.82
482.85	13315.31
483.03	13605.53
483.21	13650.00
483.39	13802.14
483.57	13490.85
483.74	13673.41
483.92	14125.13
484.10	13928.53
484.28	14342.80
484.46	14373.23
484.64	14853.04
484.82	14214.07
485.00	14513.66
485.18	14822.61
485.35	15323.49
485.53	15051.99
485.71	14956.02
485.89	15103.48
486.07	15108.16
486.25	15166.67
486.43	15536.48
486.61	15700.31
486.78	15695.63
486.96	15875.85
487.14	16306.51
487.32	15871.17
487.50	16390.77
487.68	16596.74
487.85	16725.47
488.03	16250.34
488.21	16980.59
488.39	16566.31
488.57	17060.16
488.75	17172.51
488.92	17245.07
489.10	17303.58
489.28	17418.27
489.46	17530.61
489.64	17605.51
489.81	17972.97
489.99	18045.53
490.17	17970.63
490.35	18232.77
490.53	18609.60
490.70	18801.52
490.88	18689.18
491.06	18836.63
491.24	18803.86
491.41	19101.11
491.59	19103.45
491.77	18958.34
491.95	19276.65
492.13	19145.58
492.30	19311.76
492.48	19740.08
492.66	19688.59
492.84	19955.41
493.01	20123.93
493.19	19838.38
493.37	20074.77
493.54	20393.09
493.72	20610.76
493.90	20746.51
494.08	21104.61
494.25	21020.35
494.43	20919.71
494.61	21165.46
494.79	20975.88
494.96	21383.13
495.14	21399.52
495.32	21792.73
495.49	21869.97
495.67	21783.37
495.85	21876.99
496.02	21827.84
496.20	22136.79
496.38	22281.90
496.55	22537.02
496.73	22576.81
496.91	22628.30
497.09	22537.02
497.26	22663.41
497.44	22827.24
497.62	22995.76
497.79	23498.98
497.97	23058.96
498.14	23501.32
498.32	23463.87
498.50	23468.55
498.67	23929.64
498.85	23608.98
499.03	23784.52
499.20	24114.54
499.38	24023.26
499.56	24224.54
499.73	24276.04
499.91	24500.73
500.08	24596.69
500.26	24329.87
500.44	24720.74
500.61	24402.43
500.79	24472.64
500.97	25046.07
501.14	25067.14
501.32	25298.85
501.49	24903.30
501.67	25298.85
501.84	25551.63
502.02	25556.31
502.20	25565.67
502.37	25446.30
502.55	25631.21
502.72	25769.30
502.90	25907.39
503.07	26085.27
503.25	25806.75
503.43	25757.60
503.60	26492.52
503.78	26183.57
503.95	26340.39
504.13	26434.01
504.30	26436.35
504.48	26424.65
504.65	26703.17
504.83	26639.98
505.01	26508.91
505.18	26888.07
505.36	27339.80
505.53	26974.67
505.71	27349.16
505.88	27173.62
506.06	27101.06
506.23	27445.12
506.41	27459.16
506.58	27358.52
506.76	27838.33
506.93	27730.67
507.11	27988.13
507.28	27768.12
507.46	27789.18
507.63	28364.95
507.81	28643.48
507.98	27936.63
508.16	28627.09
508.33	28580.28
508.50	28634.11
508.68	28636.45
508.85	29088.18
509.03	28514.75
509.20	28945.41
509.38	28898.59
509.55	29177.12
509.73	29181.80
509.90	29125.63
510.08	29181.80
510.25	29029.66
510.42	29198.18
510.60	29942.47
510.77	29942.47
510.95	29682.67
511.12	29579.69
511.30	29706.08
511.47	30000.99
511.64	30160.14
511.82	30108.65
511.99	29942.47
512.17	30464.41
512.34	30209.29
512.51	30555.69
512.69	30361.43
512.86	30326.32
513.04	30899.75
513.21	30724.21
513.38	30960.61
513.56	31023.80
513.73	30513.56
513.90	30974.65
514.08	31061.25
514.25	31026.14
514.43	31325.73
514.60	31175.94
514.77	31215.72
514.95	31515.31
515.12	31243.81
515.29	31466.16
515.47	31819.58
515.64	31674.47
515.81	31768.09
515.99	31716.60
516.16	32226.84
516.33	32161.30
516.51	32498.34
516.68	32161.30
516.85	32130.87
517.03	32374.29
517.20	32547.49
517.37	32395.35
517.54	32435.14
517.72	32713.67
517.89	32760.48
518.06	33036.66
518.24	32657.49
518.41	32870.48
518.58	33151.35
518.75	33167.73
518.93	33104.54
519.10	33600.73
519.27	33317.53
519.45	33467.32
519.62	33809.04
519.79	33521.15
519.96	33383.06
520.14	33464.98
520.31	33399.44
520.48	33923.72
520.65	33589.03
520.83	33731.80
521.00	34071.18
521.17	33923.72
521.34	34576.73
521.52	34440.98
521.69	34373.11
521.86	34181.18
522.03	34696.10
522.20	34586.10
522.38	34962.92
522.55	34766.32
522.72	34607.16
522.89	35426.35
523.07	35243.79
523.24	35140.80
523.41	35173.57
523.58	34969.94
523.75	35093.99
523.92	35356.13
524.10	35239.11
524.27	35285.92
524.44	35548.06
524.61	35311.66
524.78	35887.43
524.96	35620.61
525.13	36259.58
525.30	36168.30
525.47	35782.11
525.64	35653.38
525.81	35917.86
525.98	36456.18
526.16	36278.30
526.33	35983.40
526.50	36486.61
526.67	36435.12
526.84	36194.04
527.01	36245.54
527.18	36573.21
527.36	36556.83
527.53	36589.59
527.70	36730.03
527.87	36898.55
528.04	36608.32
528.21	36950.04
528.38	37170.05
528.55	37301.12
528.72	37120.90
528.89	36978.12
529.07	37481.34
529.24	36797.90
529.41	37214.52
529.58	37113.87
529.75	36833.01
529.92	37394.74
530.09	37432.19
530.26	37268.35
530.43	37635.81
530.60	37305.80
530.77	37326.86
530.94	37326.86
531.11	37488.36
531.28	37567.94
531.46	37825.40
531.63	37722.41
531.80	38143.71
531.97	38464.36
532.14	38129.67
532.31	37986.89
532.48	38649.27
532.65	38490.11
532.82	38579.05
532.99	38113.28
533.16	38361.38
533.33	38307.55
533.50	38761.61
533.67	38995.67
533.84	38342.66
534.01	38813.10
534.18	38426.92
534.35	38588.41
534.52	39005.03
534.69	39028.43
534.86	39026.09
535.03	39093.97
535.20	39423.98
535.37	39271.85
535.54	39367.81
535.71	39400.58
535.88	38958.22
536.05	39414.62
536.22	39501.22
536.38	39611.23
536.55	39428.66
536.72	39604.20
536.89	39693.15
537.06	39826.56
537.23	40470.20
537.40	39707.19
537.57	39599.52
537.74	39522.29
537.91	40002.10
538.08	39864.00
538.25	39676.76
538.42	40158.91
538.59	40306.37
538.75	39662.72
538.92	40444.46
539.09	40212.74
539.26	40013.80
539.43	40371.90
539.60	40084.01
539.77	40212.74
539.94	40935.97
540.11	40914.90
540.28	40823.62
540.44	40779.15
540.61	40259.55
540.78	40397.65
540.95	40807.24
541.12	40514.67
541.29	40573.19
541.46	41207.47
541.62	40081.67
541.79	41411.10
541.96	40421.05
542.13	40229.13
542.30	41060.02
542.47	41490.68
542.63	41155.98
542.80	41305.77
542.97	41490.68
543.14	41509.40
543.31	41443.87
543.48	41626.43
543.64	41933.04
543.81	41975.17
543.98	42099.22
544.15	41694.30
544.32	41769.20
544.48	42356.67
544.65	41874.52
544.82	42490.09
544.99	41598.34
545.16	41970.49
545.32	41876.86
545.49	42129.64
545.66	42436.25
545.83	42314.55
546.00	42337.95
546.16	42036.02
546.33	42244.33
546.50	42506.47
546.67	42962.87
546.83	41970.49
547.00	42616.47
547.17	42370.72
547.34	42188.16
547.50	43049.47
547.67	42892.66
547.84	42981.60
548.00	43166.50
548.17	42932.45
548.34	42845.85
548.51	43173.52
548.67	43016.71
548.84	43054.15
549.01	43110.33
549.18	43320.98
549.34	43278.85
549.51	43440.34
549.68	43461.41
549.84	43009.68
550.01	43051.81
550.18	42621.16
550.34	43409.92
550.51	43817.17
550.68	43599.50
550.84	43225.01
551.01	43487.15
551.18	43571.41
551.34	43299.91
551.51	43899.09
551.68	43430.98
551.84	43676.74
552.01	43304.59
552.18	44004.41
552.34	43569.07
552.51	43737.59
552.68	43430.98
552.84	43796.10
553.01	44154.21
553.18	44079.31
553.34	43892.07
553.51	43847.60
553.67	43594.82
553.84	44538.05
554.01	43840.57
554.17	44133.14
554.34	44577.84
554.51	44311.02
554.67	44292.30
554.84	44320.38
555.00	44399.96
555.17	44392.94
555.33	44301.66
555.50	44158.89
555.67	44444.43
555.83	44949.99
556.00	44692.53
556.16	44748.70
556.33	44514.65
556.50	44299.32
556.66	44615.29
556.83	44516.99
556.99	45015.52
557.16	45177.02
557.32	44765.09
557.49	44994.46
557.65	44521.67
557.82	44957.01
557.98	44505.29
558.15	44865.73
558.32	44999.14
558.48	44725.30
558.65	44886.79
558.81	45202.77
558.98	45336.18
559.14	44790.83
559.31	44781.47
559.47	44638.70
559.64	44889.13
559.80	44964.03
559.97	45305.75
560.13	44713.59
560.30	45268.30
560.46	45485.97
560.63	45500.01
560.79	45638.11
560.96	45497.67
561.12	45242.56
561.29	45579.59
561.45	45516.40
561.61	44877.43
561.78	45696.62
561.94	45317.45
562.11	45354.90
562.27	45392.35
562.44	45399.37
562.60	45567.89
562.77	45331.50
562.93	45715.34
563.10	45989.19
563.26	45296.39
563.42	46274.73
563.59	45436.82
563.75	45223.83
563.92	45595.98
564.08	45832.37
564.24	45933.01
564.41	45846.41
564.57	45839.39
564.74	45928.33
564.90	45450.86
565.07	45895.56
565.23	45764.49
565.39	46195.15
565.56	46272.39
565.72	45851.09
565.88	46185.79
566.05	46169.41
566.21	46021.95
566.38	45904.93
566.54	46457.29
566.70	46307.50
566.87	45893.22
567.03	45925.99
567.19	46288.77
567.36	46141.32
567.52	46232.60
567.68	46141.32
567.85	46651.56
568.01	46223.24
568.17	46045.36
568.34	46466.66
568.50	46160.05
568.66	45925.99
568.83	46033.66
568.99	46192.81
569.15	46220.90
569.32	45818.33
569.48	46209.20
569.64	46569.64
569.81	46787.31
569.97	45975.14
570.13	46501.76
570.30	46131.96
570.46	46492.40
570.62	46391.76
570.78	46452.61
570.95	46384.74
571.11	46403.46
571.27	46358.99
571.43	46281.75
571.60	46450.27
571.76	46270.05
571.92	46806.03
572.09	46178.77
572.25	46417.50
572.41	46356.65
572.57	46356.65
572.74	46927.74
572.90	46387.08
573.06	46454.95
573.22	46754.54
573.38	46469.00
573.55	46651.56
573.71	47107.96
573.87	47035.41
574.03	46667.94
574.20	47072.85
574.36	46656.24
574.52	46981.57
574.68	46897.31
574.84	46967.53
575.01	46735.82
575.17	46808.37
575.33	46841.14
575.49	46410.48
575.65	47047.11
575.82	46894.97
575.98	46284.09
576.14	47082.22
576.30	46976.89
576.46	46820.08
576.62	46784.97
576.79	47037.75
576.95	46394.10
577.11	46483.04
577.27	46422.19
577.43	46515.81
577.59	46499.42
577.75	46836.46
577.92	46422.19
578.08	46749.86
578.24	47166.48
578.40	47334.99
578.56	46937.10
578.72	46747.52
578.88	47096.26
579.04	46864.55
579.21	47051.79
579.37	46871.57
579.53	47105.62
579.69	46689.01
579.85	47105.62
580.01	47147.75
580.17	46459.63
580.33	47267.12
580.49	47327.97
580.65	46866.89
580.82	46653.90
580.98	46366.01
581.14	46494.74
581.30	46838.80
581.46	47051.79
581.62	46995.62
581.78	46880.93
581.94	46897.31
582.10	46955.83
582.26	47508.19
582.42	46567.30
582.58	47522.24
582.74	47093.92
582.90	46796.67
583.06	47054.13
583.22	46953.49
583.38	47241.37
583.54	47077.54
583.70	46909.02
583.86	47370.10
584.02	47098.60
584.18	47398.19
584.34	47349.04
584.50	47414.57
584.66	47276.48
584.82	46859.87
584.98	47746.93
585.14	46813.05
585.30	47061.15
585.46	46967.53
585.62	46988.60
585.78	47477.77
585.94	46689.01
586.10	47264.78
586.26	46820.08
586.42	47393.51
586.58	47566.71
586.74	46674.96
586.90	47154.77
587.06	46747.52
587.22	47224.99
587.38	46754.54
587.54	47604.16
587.70	47288.18
587.86	47206.26
588.02	47171.16
588.18	47068.17
588.34	47103.28
588.49	47416.91
588.65	47171.16
588.81	47276.48
588.97	47320.95
589.13	47133.71
589.29	47168.82
589.45	47648.63
589.61	47124.35
589.77	47735.23
589.93	47124.35
590.08	47814.80
