SpectraSuite Data File
++++++++++++++++++++++++++++++++++++
Date: Fri Oct 25 10:47:00 EDT 2013
User: price-jones
Dark Spectrum Present: No
Reference Spectrum Present: No
Number of Sampled Component Spectra: 1
Spectrometers: USB2+H05261
Integration Time (usec): 100000 (USB2+H05261)
Spectra Averaged: 1 (USB2+H05261)
Boxcar Smoothing: 0 (USB2+H05261)
Correct for Electrical Dark: No (USB2+H05261)
Strobe/Lamp Enabled: No (USB2+H05261)
Correct for Detector Non-linearity: No (USB2+H05261)
Correct for Stray Light: No (USB2+H05261)
Number of Pixels in Processed Spectrum: 2048
>>>>>Begin Processed Spectral Data<<<<<
365.73	124.05
365.92	124.05
366.12	124.05
366.32	49.15
366.52	53.83
366.72	32.77
366.91	44.47
367.11	4.68
367.31	44.47
367.51	0.00
367.70	11.70
367.90	35.11
368.10	9.36
368.30	23.41
368.49	63.19
368.69	49.15
368.89	35.11
369.09	74.90
369.28	98.30
369.48	37.45
369.68	72.56
369.87	79.58
370.07	44.47
370.27	161.50
370.47	175.54
370.66	383.85
370.86	341.72
371.06	440.02
371.25	482.15
371.45	407.25
371.65	557.05
371.84	496.19
372.04	470.45
372.24	451.72
372.44	447.04
372.63	451.72
372.83	451.72
373.03	461.09
373.22	547.69
373.42	505.56
373.62	491.51
373.81	540.66
374.01	557.05
374.21	498.53
374.40	559.39
374.60	660.03
374.79	561.73
374.99	606.20
375.19	564.07
375.38	685.78
375.58	552.37
375.78	631.94
375.97	578.11
376.17	683.44
376.37	564.07
376.56	564.07
376.76	594.50
376.95	594.50
377.15	650.67
377.35	627.26
377.54	578.11
377.74	631.94
377.93	547.69
378.13	575.77
378.33	702.16
378.52	608.54
378.72	681.10
378.91	678.76
379.11	753.65
379.31	676.41
379.50	610.88
379.70	702.16
379.89	685.78
380.09	669.39
380.28	697.48
380.48	702.16
380.68	751.31
380.87	699.82
381.07	727.91
381.26	755.99
381.46	634.29
381.65	720.88
381.85	589.82
382.04	678.76
382.24	737.27
382.43	678.76
382.63	629.60
382.83	706.84
383.02	713.86
383.22	753.65
383.41	681.10
383.61	725.57
383.80	730.25
384.00	793.44
384.19	767.70
384.39	732.59
384.58	814.51
384.78	814.51
384.97	809.83
385.17	915.15
385.36	835.57
385.56	767.70
385.75	725.57
385.95	791.10
386.14	812.17
386.34	908.13
386.53	851.96
386.72	854.30
386.92	819.19
387.11	875.36
387.31	849.61
387.50	938.55
387.70	826.21
387.89	823.87
388.09	807.48
388.28	823.87
388.48	840.25
388.67	896.43
388.86	938.55
389.06	964.30
389.25	880.04
389.45	870.68
389.64	952.60
389.84	856.64
390.03	884.72
390.22	877.70
390.42	929.19
390.61	957.28
390.81	990.05
391.00	933.87
391.19	1004.09
391.39	1015.79
391.58	936.21
391.78	898.77
391.97	987.71
392.16	999.41
392.36	919.83
392.55	1029.84
392.75	976.00
392.94	1015.79
393.13	1001.75
393.33	1022.81
393.52	985.37
393.71	1107.07
393.91	1114.10
394.10	1114.10
394.29	1107.07
394.49	1158.57
394.68	1247.51
394.88	1217.08
395.07	1156.22
395.26	1156.22
395.46	1177.29
395.65	1214.74
395.84	1221.76
396.04	1224.10
396.23	1200.69
396.42	1102.39
396.62	1116.44
396.81	1158.57
397.00	1174.95
397.19	1299.00
397.39	1217.08
397.58	1315.38
397.77	1373.89
397.97	1310.70
398.16	1313.04
398.35	1327.08
398.55	1291.98
398.74	1327.08
398.93	1404.32
399.12	1387.94
399.32	1451.13
399.51	1343.47
399.70	1526.03
399.90	1409.00
400.09	1493.26
400.28	1416.02
400.47	1502.62
400.67	1619.65
400.86	1511.99
401.05	1617.31
401.24	1535.39
401.44	1460.49
401.63	1584.54
401.82	1596.25
402.01	1479.22
402.21	1593.90
402.40	1593.90
402.59	1493.26
402.78	1607.95
402.97	1647.74
403.17	1593.90
403.36	1696.89
403.55	1713.27
403.74	1652.42
403.93	1764.76
404.13	1734.34
404.32	1675.82
404.51	1771.79
404.70	1739.02
404.89	1909.88
405.09	1865.41
405.28	1961.37
405.47	1774.13
405.66	1853.70
405.85	1902.86
406.05	1872.43
406.24	1818.60
406.43	1893.49
406.62	1930.94
406.81	2033.93
407.00	1907.54
407.20	1860.73
407.39	1827.96
407.58	1998.82
407.77	2062.01
407.96	2022.22
408.15	1921.58
408.34	2099.46
408.54	2167.34
408.73	2076.06
408.92	2069.03
409.11	2134.57
409.30	2071.37
409.49	2071.37
409.68	2118.18
409.87	2062.01
410.07	2181.38
410.26	2249.25
410.45	2246.91
410.64	2296.07
410.83	2300.75
411.02	2249.25
411.21	2326.49
411.40	2291.38
411.59	2443.52
411.78	2438.84
411.98	2452.88
412.17	2452.88
412.36	2361.60
412.55	2546.50
412.74	2466.92
412.93	2532.46
413.12	2576.93
413.31	2630.76
413.50	2689.28
413.69	2609.70
413.88	2661.19
414.07	2616.72
414.26	2630.76
414.45	2768.85
414.64	2761.83
414.83	2789.92
415.02	2843.75
415.22	2747.79
415.41	2829.71
415.60	3007.59
415.79	2925.67
415.98	2970.14
416.17	2984.18
416.36	2977.16
416.55	2970.14
416.74	3112.91
416.93	2916.31
417.12	3164.40
417.31	3038.02
417.50	3124.62
417.69	3332.92
417.88	3218.24
418.07	3206.53
418.26	3185.47
418.45	3260.37
418.64	3361.01
418.83	3417.18
419.02	3293.13
419.21	3379.73
419.39	3321.22
419.58	3281.43
419.77	3365.69
419.96	3569.32
420.15	3466.33
420.34	3405.48
420.53	3428.88
420.72	3492.08
420.91	3581.02
421.10	3566.98
421.29	3660.60
421.48	3414.84
421.67	3564.64
421.86	3545.91
422.05	3613.79
422.24	3506.12
422.43	3487.40
422.61	3611.45
422.80	3552.93
422.99	3726.13
423.18	3775.28
423.37	3765.92
423.56	3754.22
423.75	3688.68
423.94	3637.19
424.13	3440.59
424.32	3515.48
424.50	3721.45
424.69	3695.71
424.88	3779.97
425.07	3555.27
425.26	3604.42
425.45	3489.74
425.64	3728.47
425.83	3737.84
426.01	3866.56
426.20	3648.90
426.39	3840.82
426.58	3779.97
426.77	3681.66
426.96	3698.05
427.15	3693.37
427.33	3789.33
427.52	3894.65
427.71	4049.13
427.90	3889.97
428.09	3929.76
428.28	3857.20
428.46	3889.97
428.65	3934.44
428.84	4081.89
429.03	4105.30
429.22	3913.38
429.40	3969.55
429.59	4002.32
429.78	3637.19
429.97	3618.47
430.16	3908.69
430.34	3934.44
430.53	3894.65
430.72	4056.15
430.91	4037.42
431.10	4086.58
431.28	4292.54
431.47	4358.08
431.66	4428.29
431.85	4177.86
432.03	4353.40
432.22	4337.01
432.41	4285.52
432.60	4404.89
432.79	4311.27
432.97	4465.74
433.16	4320.63
433.35	4215.30
433.54	4358.08
433.72	4461.06
433.91	4320.63
434.10	4440.00
434.28	4547.66
434.47	4608.51
434.66	4683.41
434.85	4622.56
435.03	4699.80
435.22	4599.15
435.41	4667.03
435.59	4767.67
435.78	4702.14
435.97	4798.10
436.16	4870.65
436.34	4938.53
436.53	4856.61
436.72	4978.32
436.90	4610.86
437.09	4922.15
437.28	4793.42
437.46	4798.10
437.65	4795.76
437.84	4774.69
438.02	5001.72
438.21	4894.06
438.40	4793.42
438.58	5078.96
438.77	5102.37
438.96	5149.18
439.14	5151.52
439.33	5352.81
439.52	5217.05
439.70	5322.38
439.89	5406.64
440.08	5378.55
440.26	5439.40
440.45	5387.91
440.63	5575.16
440.82	5603.24
441.01	5533.03
441.19	5631.33
441.38	5652.39
441.57	5781.12
441.75	5720.27
441.94	5954.32
442.12	5825.59
442.31	5921.56
442.50	5788.14
442.68	5823.25
442.87	5912.19
443.05	5710.91
443.24	5989.43
443.43	5856.02
443.61	5966.03
443.80	6150.93
443.98	5933.26
444.17	5738.99
444.35	6043.26
444.54	6097.10
444.73	6101.78
444.91	5987.09
445.10	6157.95
445.28	6017.52
445.47	5982.41
445.65	5975.39
445.84	6176.67
446.02	6225.82
446.21	6244.55
446.39	6069.01
446.58	6305.40
446.77	6143.91
446.95	5930.92
447.14	6317.11
447.32	6352.21
447.51	6148.59
447.69	6169.65
447.88	6307.74
448.06	6216.46
448.25	6282.00
448.43	6211.78
448.62	6059.65
448.80	6221.14
448.99	6459.88
449.17	6502.01
449.36	6164.97
449.54	6511.37
449.73	6581.59
449.91	6623.72
450.10	6644.78
450.28	6743.08
450.46	6745.42
450.65	6647.12
450.83	6684.57
451.02	6705.63
451.20	6736.06
451.39	6897.56
451.57	6906.92
451.76	6820.32
451.94	6684.57
452.13	6829.68
452.31	6663.51
452.49	6668.19
452.68	6626.06
452.86	6668.19
453.05	6827.34
453.23	6974.80
453.42	6867.13
453.60	6874.15
453.78	7030.97
453.97	6808.62
454.15	6874.15
454.34	6913.94
454.52	7075.44
454.70	7066.08
454.89	7009.90
455.07	7166.72
455.26	7101.19
455.44	7197.15
455.62	7185.44
455.81	7300.13
455.99	7241.62
456.17	7478.01
456.36	7197.15
456.54	7386.73
456.73	7503.76
456.91	7557.59
457.09	7552.91
457.28	7562.27
457.46	7398.43
457.64	7513.12
457.83	7672.28
458.01	7581.00
458.19	7655.89
458.38	7630.15
458.56	7712.07
458.74	7674.62
458.93	7740.15
459.11	7698.02
459.29	7730.79
459.48	7735.47
459.66	8044.42
459.84	7845.48
460.03	7948.46
460.21	8126.34
460.39	8037.40
460.57	7913.35
460.76	8046.76
460.94	7981.23
461.12	7955.48
461.31	8053.78
461.49	7906.33
461.67	7880.58
461.85	8273.79
462.04	8063.15
462.22	8521.89
462.40	8259.75
462.59	8255.07
462.77	8294.86
462.95	8304.22
463.13	8531.25
463.32	8315.92
463.50	8606.15
463.68	8283.16
463.86	8510.19
464.05	8262.09
464.23	8271.45
464.41	8416.57
464.59	8411.89
464.78	8482.10
464.96	8498.49
465.14	8486.78
465.32	8706.79
465.50	8592.11
465.69	8631.90
465.87	8505.51
466.05	8650.62
466.23	8505.51
466.41	8404.86
466.60	8854.25
466.78	8575.72
466.96	8695.09
467.14	8784.03
467.32	8840.20
467.51	9064.89
467.69	8636.58
467.87	8786.37
468.05	8915.10
468.23	8835.52
468.41	8908.08
468.60	9006.38
468.78	9036.81
468.96	8980.64
469.14	8973.61
469.32	9179.58
469.50	8959.57
469.69	9053.19
469.87	8997.02
470.05	9205.33
470.23	9261.50
470.41	9163.20
470.59	9404.27
470.77	9343.42
470.95	9338.74
471.14	9582.15
471.32	9371.50
471.50	9694.50
471.68	9680.46
471.86	9738.97
472.04	9668.75
472.22	9853.66
472.40	9664.07
472.58	9745.99
472.77	9832.59
472.95	9963.66
473.13	10263.25
473.31	9898.13
473.49	9956.64
473.67	10045.58
473.85	9823.23
474.03	10401.34
474.21	10214.10
474.39	10391.98
474.57	10403.68
474.75	10429.43
474.93	10525.39
475.12	10377.94
475.30	10721.99
475.48	10558.16
475.66	10693.91
475.84	10401.34
476.02	11052.01
476.20	10810.93
476.38	10876.47
476.56	11243.93
476.74	11005.20
476.92	11101.16
477.10	11246.27
477.28	11295.43
477.46	11389.05
477.64	11414.79
477.82	11782.26
478.00	11737.79
478.18	11765.87
478.36	11859.49
478.54	11939.07
478.72	11985.88
478.90	11978.86
479.08	12215.26
479.26	12329.94
479.44	12407.18
479.62	12327.60
479.80	12358.03
479.98	12549.95
480.16	12702.09
480.34	12861.24
480.52	12835.50
480.70	12933.80
480.88	12868.27
481.06	13207.64
481.24	13128.06
481.41	13202.96
481.59	13460.42
481.77	13455.74
481.95	13607.87
482.13	13792.78
482.31	13680.43
482.49	13970.66
482.67	14080.66
482.85	14008.11
483.03	14342.80
483.21	14396.64
483.39	14686.86
483.57	14492.60
483.74	14843.68
483.92	14665.80
484.10	14609.62
484.28	14792.19
484.46	15267.31
484.64	15311.78
484.82	15262.63
485.00	15630.10
485.18	15510.73
485.35	15431.15
485.53	15484.98
485.71	15583.29
485.89	15887.56
486.07	15962.45
486.25	15864.15
486.43	16084.16
486.61	15932.03
486.78	16404.81
486.96	16666.95
487.14	16690.36
487.32	16734.83
487.50	16879.94
487.68	17350.39
487.85	17266.13
488.03	17977.65
488.21	17708.49
488.39	17483.80
488.57	17577.42
488.75	17696.79
488.92	18321.71
489.10	18200.01
489.28	18328.74
489.46	18635.35
489.64	18609.60
489.81	18668.11
489.99	19063.66
490.17	19239.20
490.35	19267.29
490.53	19220.48
490.70	19758.80
490.88	19468.58
491.06	19927.32
491.24	19662.84
491.41	19847.74
491.59	19690.93
491.77	19679.22
491.95	19784.55
492.13	20205.84
492.30	20517.14
492.48	20966.52
492.66	20922.05
492.84	20688.00
493.01	21102.27
493.19	20973.54
493.37	21123.33
493.54	21322.28
493.72	21448.67
493.90	21589.10
494.08	21853.58
494.25	21926.14
494.43	22015.08
494.61	22019.76
494.79	22132.11
494.96	22382.54
495.14	22207.00
495.32	22583.83
495.49	22335.73
495.67	22443.40
495.85	22892.78
496.02	23194.71
496.20	23154.92
496.38	22977.04
496.55	22721.92
496.73	23941.34
496.91	23452.17
497.09	23824.31
497.26	24205.82
497.44	23428.76
497.62	24037.30
497.79	24350.93
497.97	24060.71
498.14	24032.62
498.32	24245.61
498.50	24341.57
498.67	25067.14
498.85	24971.18
499.03	25081.18
499.20	24594.35
499.38	24945.43
499.56	24940.75
499.73	25273.10
499.91	25144.38
500.08	25301.19
500.26	25132.67
500.44	25319.92
500.61	25422.90
500.79	25172.46
500.97	25724.83
501.14	26029.10
501.32	25696.74
501.49	25734.19
501.67	25982.29
501.84	26721.90
502.02	26157.83
502.20	26300.60
502.37	26869.35
502.55	26298.26
502.72	26672.74
502.90	26684.45
503.07	26754.66
503.25	26829.56
503.43	26609.55
503.60	26855.31
503.78	27239.15
503.95	27098.72
504.13	27660.45
504.30	27587.89
504.48	27281.28
504.65	27665.13
504.83	28116.86
505.01	27938.97
505.18	27480.23
505.36	28212.82
505.53	28142.60
505.71	28236.22
505.88	28070.04
506.06	27946.00
506.23	28175.37
506.41	28109.83
506.58	28442.19
506.76	28725.39
506.93	28554.54
507.11	28793.27
507.28	28690.29
507.46	28685.61
507.63	28423.47
507.81	28741.78
507.98	28694.97
508.16	29048.39
508.33	29165.42
508.50	29457.98
508.68	29282.44
508.85	29799.70
509.03	29460.32
509.20	29977.58
509.38	29500.11
509.55	29914.39
509.73	30272.49
509.90	30040.78
510.08	30059.50
510.25	30022.05
510.42	30082.91
510.60	30588.46
510.77	30473.78
510.95	30675.06
511.12	30539.31
511.30	30724.21
511.47	30934.86
511.64	31133.81
511.82	30857.62
511.99	30806.13
512.17	31218.07
512.34	31131.47
512.51	31592.55
512.69	31592.55
512.86	31859.37
513.04	31777.45
513.21	32039.59
513.38	30759.32
513.56	31524.68
513.73	31461.48
513.90	31648.72
514.08	31634.68
514.25	31826.60
514.43	32091.09
514.60	31417.01
514.77	32070.02
514.95	32020.87
515.12	32161.30
515.29	32292.37
515.47	32718.35
515.64	32528.77
515.81	32236.20
515.99	32746.44
516.16	32552.17
516.33	32350.88
516.51	32662.18
516.68	32196.41
516.85	32208.11
517.03	32364.93
517.20	32933.68
517.37	32638.77
517.54	33015.60
517.72	33160.71
517.89	33034.32
518.06	33301.14
518.24	33261.35
518.41	33060.07
518.58	33116.24
518.75	32996.87
518.93	33493.07
519.10	33804.36
519.27	33937.77
519.45	33907.34
519.62	34092.24
519.79	34391.83
519.96	33865.21
520.14	34312.25
520.31	33827.76
520.48	34211.61
520.65	34141.39
520.83	34506.52
521.00	34436.30
521.17	34658.65
521.34	34550.99
521.52	34967.60
521.69	34724.19
521.86	34974.63
522.03	34583.76
522.20	35026.12
522.38	35061.22
522.55	35159.53
522.72	35056.54
522.89	35035.48
523.07	35171.23
523.24	35108.04
523.41	35681.47
523.58	35159.53
523.75	36278.30
523.92	35929.56
524.10	36065.31
524.27	35683.81
524.44	36205.75
524.61	35854.67
524.78	35857.01
524.96	36093.40
525.13	35992.76
525.30	36261.92
525.47	36652.79
525.64	36278.30
525.81	36264.26
525.98	36325.11
526.16	36250.22
526.33	36315.75
526.50	36547.47
526.67	36292.35
526.84	36091.06
527.01	36254.90
527.18	36416.40
527.36	36566.19
527.53	37064.72
527.70	37090.47
527.87	36966.42
528.04	37123.24
528.21	36861.10
528.38	37003.87
528.55	37050.68
528.72	37434.53
528.89	37357.29
529.07	37511.77
529.24	37326.86
529.41	37434.53
529.58	37394.74
529.75	37394.74
529.92	37656.88
530.09	37523.47
530.26	37813.70
530.43	38059.45
530.60	37230.90
530.77	37549.21
530.94	38277.12
531.11	37888.59
531.28	38190.52
531.46	38075.84
531.63	38572.03
531.80	38230.31
531.97	38527.56
532.14	38000.94
532.31	37970.51
532.48	38043.07
532.65	38384.79
532.82	38883.32
532.99	38508.83
533.16	38827.15
533.33	38532.24
533.50	38806.08
533.67	38476.07
533.84	38838.85
534.01	39047.16
534.18	38712.46
534.35	39086.95
534.52	39203.97
534.69	39229.72
534.86	39138.44
535.03	39152.48
535.20	38976.94
535.37	39510.58
535.54	39510.58
535.71	39215.68
535.88	39601.86
536.05	39276.53
536.22	39592.50
536.38	39583.14
536.55	39515.26
536.72	39346.75
536.89	39412.28
537.06	39323.34
537.23	39522.29
537.40	39667.40
537.57	39964.65
537.74	39248.44
537.91	39756.34
538.08	40308.71
538.25	39721.23
538.42	39840.60
538.59	40259.55
538.75	39828.90
538.92	39920.18
539.09	40282.96
539.26	40144.87
539.43	40158.91
539.60	40327.43
539.77	39828.90
539.94	40208.06
540.11	40282.96
540.28	40308.71
540.44	40201.04
540.61	40168.27
540.78	40034.86
540.95	39999.76
541.12	40179.98
541.29	39945.92
541.46	41146.62
541.62	40711.28
541.79	40999.16
541.96	40137.85
542.13	40725.32
542.30	40580.21
542.47	40816.60
542.63	40905.54
542.80	40802.56
542.97	41338.54
543.14	41139.60
543.31	41366.63
543.48	40985.12
543.64	41930.70
543.81	41605.36
543.98	41668.56
544.15	41507.06
544.32	42148.37
544.48	42043.04
544.65	41872.18
544.82	41750.48
544.99	41434.50
545.16	41916.65
545.32	41532.81
545.49	42021.98
545.66	41677.92
545.83	42274.76
546.00	42202.20
546.16	42089.85
546.33	42260.71
546.50	41825.37
546.67	41933.04
546.83	41876.86
547.00	41933.04
547.17	42024.32
547.34	42773.29
547.50	42471.36
547.67	42366.04
547.84	41991.55
548.00	42745.20
548.17	42632.86
548.34	42206.88
548.51	42995.64
548.67	42658.60
548.84	42595.41
549.01	42581.37
549.18	42499.45
549.34	42462.00
549.51	43044.79
549.68	42988.62
549.84	42424.55
550.01	43283.53
550.18	42590.73
550.34	42674.99
550.51	42621.16
550.68	43103.31
550.84	42902.02
551.01	42920.74
551.18	42527.53
551.34	42838.83
551.51	43000.32
551.68	42810.74
551.84	43349.06
552.01	43107.99
552.18	43154.80
552.34	43154.80
552.51	43236.72
552.68	43124.37
552.84	43428.64
553.01	43512.90
553.18	43290.55
553.34	43590.14
553.51	42806.06
553.67	43365.45
553.84	43625.25
554.01	43796.10
554.17	43309.27
554.34	43613.54
554.51	43775.04
554.67	43796.10
554.84	43681.42
555.00	43402.89
555.17	43276.51
555.33	43274.16
555.50	43838.23
555.67	43927.17
555.83	43763.34
556.00	43777.38
556.16	44081.65
556.33	43768.02
556.50	43948.24
556.66	44016.11
556.83	43913.13
556.99	44212.72
557.16	43927.17
557.32	44119.10
557.49	44203.36
557.65	43779.72
557.82	44168.25
557.98	43758.66
558.15	43985.69
558.32	44369.54
558.48	44205.70
558.65	43824.19
558.81	43587.80
558.98	43842.92
559.14	43981.01
559.31	44039.52
559.47	44463.16
559.64	44458.48
559.80	44481.88
559.97	44210.38
560.13	43995.05
560.30	44568.48
560.46	44109.74
560.63	44626.99
560.79	44755.72
560.96	44854.03
561.12	44322.72
561.29	44418.69
561.45	44477.20
561.61	44552.10
561.78	44189.31
561.94	44409.32
562.11	44250.17
562.27	44268.89
562.44	44720.62
562.60	44411.67
562.77	44657.42
562.93	44268.89
563.10	45092.76
563.26	44025.48
563.42	44587.21
563.59	44439.75
563.75	44858.71
563.92	45223.83
564.08	44877.43
564.24	44758.06
564.41	44931.26
564.57	44839.98
564.74	44718.28
564.90	44559.12
565.07	45167.66
565.23	45050.63
565.39	44666.78
565.56	44697.21
565.72	44634.02
565.88	44847.00
566.05	44680.83
566.21	44559.12
566.38	44662.10
566.54	45015.52
566.70	45261.28
566.87	44971.05
567.03	45010.84
567.19	45076.38
567.36	44921.90
567.52	44964.03
567.68	45329.16
567.85	44793.17
568.01	44776.79
568.17	44966.37
568.34	44872.75
568.50	44854.03
568.66	44718.28
568.83	44992.12
568.99	44891.48
569.15	45017.86
569.32	44687.85
569.48	44877.43
569.64	45118.51
569.81	45088.08
569.97	44858.71
570.13	44708.91
570.30	44858.71
570.46	44879.77
570.62	44748.70
570.78	44949.99
570.95	44568.48
571.11	45806.62
571.27	45565.55
571.43	44875.09
571.60	45132.55
571.76	44952.33
571.92	45237.87
572.09	45404.05
572.25	45382.99
572.41	44870.41
572.57	45029.57
572.74	45851.09
572.90	45207.45
573.06	44858.71
573.22	45282.34
573.38	45008.50
573.55	44751.04
573.71	45207.45
573.87	44928.92
574.03	45102.12
574.20	45127.87
574.36	45153.62
574.52	45390.01
574.68	44947.65
574.84	45256.60
575.01	45074.04
575.17	44999.14
575.33	45146.59
575.49	45357.24
575.65	45469.59
575.82	45336.18
575.98	45310.43
576.14	45617.04
576.30	45530.44
576.46	45162.98
576.62	45251.92
576.79	45212.13
576.95	45127.87
577.11	45361.92
577.27	45799.60
577.43	45422.78
577.59	45045.95
577.75	45177.02
577.92	45165.32
578.08	45429.80
578.24	44870.41
578.40	45324.47
578.56	45413.41
578.72	45287.03
578.88	45244.90
579.04	45347.88
579.21	45083.40
579.37	45045.95
579.53	45008.50
579.69	44875.09
579.85	45427.46
580.01	45731.73
580.17	45162.98
580.33	45743.43
580.49	45588.95
580.65	45701.30
580.82	45446.18
580.98	44971.05
581.14	45043.61
581.30	45277.66
581.46	45160.64
581.62	45429.80
581.78	45439.16
581.94	45436.82
582.10	45434.48
582.26	45432.14
582.42	45406.39
582.58	45359.58
582.74	45530.44
582.90	45422.78
583.06	45598.32
583.22	45729.39
583.38	45406.39
583.54	45280.00
583.70	45476.61
583.86	45333.84
584.02	45123.19
584.18	45233.19
584.34	45504.70
584.50	45284.68
584.66	45399.37
584.82	45207.45
584.98	45209.79
585.14	45710.66
585.30	45050.63
585.46	45399.37
585.62	45198.09
585.78	45347.88
585.94	45165.32
586.10	45464.91
586.26	45275.32
586.42	45607.68
586.58	45642.79
586.74	45446.18
586.90	45251.92
587.06	45443.84
587.22	45778.54
587.38	45284.68
587.54	45656.83
587.70	45713.00
587.86	45298.73
588.02	45425.12
588.18	45972.80
588.34	45413.41
588.49	45354.90
588.65	45296.39
588.81	45162.98
588.97	45181.70
589.13	45109.14
589.29	45277.66
589.45	45088.08
589.61	45340.86
589.77	45553.85
589.93	45904.93
590.08	46014.93
590.24	45778.54
