SpectraSuite Data File
++++++++++++++++++++++++++++++++++++
Date: Fri Oct 25 11:25:21 EDT 2013
User: price-jones
Dark Spectrum Present: No
Reference Spectrum Present: No
Number of Sampled Component Spectra: 1
Spectrometers: USB2+H05261
Integration Time (usec): 100000 (USB2+H05261)
Spectra Averaged: 1 (USB2+H05261)
Boxcar Smoothing: 0 (USB2+H05261)
Correct for Electrical Dark: No (USB2+H05261)
Strobe/Lamp Enabled: No (USB2+H05261)
Correct for Detector Non-linearity: No (USB2+H05261)
Correct for Stray Light: No (USB2+H05261)
Number of Pixels in Processed Spectrum: 2048
>>>>>Begin Processed Spectral Data<<<<<
365.73	287.89
365.92	287.89
366.12	287.89
366.32	198.95
366.52	112.35
366.72	170.86
366.91	72.56
367.11	79.58
367.31	117.03
367.51	147.45
367.70	72.56
367.90	149.79
368.10	152.13
368.30	133.41
368.49	124.05
368.69	138.09
368.89	187.24
369.09	163.84
369.28	117.03
369.48	135.75
369.68	182.56
369.87	140.43
370.07	168.52
370.27	238.73
370.47	327.68
370.66	587.47
370.86	608.54
371.06	662.37
371.25	615.56
371.45	638.97
371.65	688.12
371.84	655.35
372.04	681.10
372.24	660.03
372.44	671.73
372.63	760.67
372.83	816.85
373.03	774.72
373.22	816.85
373.42	772.38
373.62	781.74
373.81	816.85
374.01	819.19
374.21	851.96
374.40	788.76
374.60	784.08
374.79	849.61
374.99	870.68
375.19	807.48
375.38	840.25
375.58	791.10
375.78	847.27
375.97	795.78
376.17	802.80
376.37	870.68
376.56	875.36
376.76	823.87
376.95	844.93
377.15	887.06
377.35	835.57
377.54	936.21
377.74	901.11
377.93	866.00
378.13	926.85
378.33	938.55
378.52	875.36
378.72	924.51
378.91	898.77
379.11	966.64
379.31	957.28
379.50	938.55
379.70	1032.18
379.89	1034.52
380.09	954.94
380.28	894.08
380.48	997.07
380.68	1039.20
380.87	1043.88
381.07	973.66
381.26	1004.09
381.46	1039.20
381.65	983.02
381.85	999.41
382.04	1041.54
382.24	1039.20
382.43	1076.65
382.63	1048.56
382.83	997.07
383.02	1165.59
383.22	1163.25
383.41	1078.99
383.61	1177.29
383.80	1114.10
384.00	1088.35
384.19	1144.52
384.39	1128.14
384.58	1100.05
384.78	1137.50
384.97	1132.82
385.17	1158.57
385.36	1210.06
385.56	1231.12
385.75	1181.97
385.95	1214.74
386.14	1191.33
386.34	1191.33
386.53	1221.76
386.72	1252.19
386.92	1165.59
387.11	1245.16
387.31	1245.16
387.50	1128.14
387.70	1203.04
387.89	1228.78
388.09	1287.29
388.28	1359.85
388.48	1224.10
388.67	1320.06
388.86	1263.89
389.06	1308.36
389.25	1434.75
389.45	1310.70
389.64	1345.81
389.84	1383.26
390.03	1385.60
390.22	1416.02
390.42	1376.24
390.61	1378.58
390.81	1289.64
391.00	1378.58
391.19	1437.09
391.39	1350.49
391.58	1409.00
391.78	1362.19
391.97	1556.46
392.16	1448.79
392.36	1547.09
392.55	1479.22
392.75	1467.52
392.94	1455.81
393.13	1507.30
393.33	1427.73
393.52	1483.90
393.71	1596.25
393.91	1650.08
394.10	1547.09
394.29	1558.80
394.49	1535.39
394.68	1565.82
394.88	1591.56
395.07	1694.55
395.26	1659.44
395.46	1633.69
395.65	1703.91
395.84	1710.93
396.04	1757.74
396.23	1736.68
396.42	1708.59
396.62	1760.08
396.81	1701.57
397.00	1790.51
397.19	1685.19
397.39	1851.36
397.58	1792.85
397.77	1790.51
397.97	1710.93
398.16	1872.43
398.35	1921.58
398.55	1867.75
398.74	1879.45
398.93	1952.01
399.12	1846.68
399.32	1849.02
399.51	1879.45
399.70	1961.37
399.90	1935.62
400.09	1970.73
400.28	2064.35
400.47	2040.95
400.67	2066.69
400.86	1987.11
401.05	2031.58
401.24	1982.43
401.44	2083.08
401.63	2169.68
401.82	2150.95
402.01	2129.89
402.21	2106.48
402.40	2183.72
402.59	2265.64
402.78	2267.98
402.97	2143.93
403.17	2284.36
403.36	2253.94
403.55	2223.51
403.74	2319.47
403.93	2370.96
404.13	2321.81
404.32	2321.81
404.51	2394.37
404.70	2366.28
404.89	2361.60
405.09	2417.77
405.28	2497.35
405.47	2480.97
405.66	2434.16
405.85	2534.80
406.05	2502.03
406.24	2619.06
406.43	2614.38
406.62	2560.55
406.81	2642.46
407.00	2628.42
407.20	2530.12
407.39	2593.31
407.58	2780.56
407.77	2686.94
407.96	2715.02
408.15	2689.28
408.34	2696.30
408.54	2862.48
408.73	2883.54
408.92	2794.60
409.11	2862.48
409.30	2860.13
409.49	2850.77
409.68	2862.48
409.87	2972.48
410.07	3030.99
410.26	2991.20
410.45	2965.46
410.64	3192.49
410.83	3028.65
411.02	3019.29
411.21	3187.81
411.40	3035.67
411.59	3194.83
411.78	3141.00
411.98	3187.81
412.17	3124.62
412.36	3145.68
412.55	3272.07
412.74	3410.16
412.93	3318.88
413.12	3325.90
413.31	3482.72
413.50	3351.65
413.69	3463.99
413.88	3602.08
414.07	3648.90
414.26	3616.13
414.45	3585.70
414.64	3639.53
414.83	3679.32
415.02	3712.09
415.22	3805.71
415.41	3892.31
415.60	3758.90
415.79	3896.99
415.98	3955.51
416.17	3971.89
416.36	4030.40
416.55	3983.59
416.74	4091.26
416.93	3971.89
417.12	4056.15
417.31	4058.49
417.50	4077.21
417.69	4393.19
417.88	4243.39
418.07	4348.72
418.26	4203.60
418.45	4269.14
418.64	4381.48
418.83	4351.06
419.02	4454.04
419.21	4512.55
419.39	4491.49
419.58	4444.68
419.77	4447.02
419.96	4348.72
420.15	4559.36
420.34	4496.17
420.53	4608.51
420.72	4723.20
420.91	4631.92
421.10	4723.20
421.29	4786.40
421.48	4542.98
421.67	4723.20
421.86	4664.69
422.05	4713.84
422.24	4898.74
422.43	4880.02
422.61	4884.70
422.80	4929.17
422.99	4660.01
423.18	4896.40
423.37	5015.77
423.56	4901.08
423.75	4847.25
423.94	4758.31
424.13	4648.30
424.32	4589.79
424.50	5088.32
424.69	5055.56
424.88	5015.77
425.07	4868.31
425.26	4856.61
425.45	4961.94
425.64	4795.76
425.83	5046.20
426.01	5076.62
426.20	4992.36
426.39	4894.06
426.58	5081.30
426.77	4898.74
426.96	4990.02
427.15	5130.45
427.33	4985.34
427.52	5165.56
427.71	5114.07
427.90	5144.50
428.09	5167.90
428.28	5343.44
428.46	5359.83
428.65	5289.61
428.84	5469.83
429.03	5526.00
429.22	5301.31
429.40	5509.62
429.59	5575.16
429.78	5254.50
429.97	5472.17
430.16	5544.73
430.34	5654.73
430.53	5741.33
430.72	5617.29
430.91	5593.88
431.10	5708.57
431.28	5746.02
431.47	5769.42
431.66	5998.79
431.85	5823.25
432.03	5891.13
432.22	5914.53
432.41	5937.94
432.60	5895.81
432.79	6024.54
432.97	5895.81
433.16	6026.88
433.35	5919.21
433.54	5954.32
433.72	6122.84
433.91	6057.31
434.10	6054.97
434.28	5851.34
434.47	6132.20
434.66	6148.59
434.85	6249.23
435.03	6246.89
435.22	6209.44
435.41	6473.92
435.59	6494.99
435.78	6359.24
435.97	6499.67
436.16	6483.28
436.34	6399.02
436.53	6377.96
436.72	6717.34
436.90	6286.68
437.09	6455.20
437.28	6235.19
437.46	6808.62
437.65	6595.63
437.84	6607.33
438.02	6663.51
438.21	6541.80
438.40	6464.56
438.58	6979.48
438.77	6853.09
438.96	6860.11
439.14	7105.87
439.33	7190.13
439.52	7000.54
439.70	7063.74
439.89	7246.30
440.08	7265.02
440.26	7197.15
440.45	7206.51
440.63	7344.60
440.82	7548.23
441.01	7559.93
441.19	7564.61
441.38	7485.03
441.57	7557.59
441.75	7868.88
441.94	7796.32
442.12	7887.61
442.31	7955.48
442.50	7899.31
442.68	7824.41
442.87	7964.84
443.05	8077.19
443.24	8161.45
443.43	8093.57
443.61	8060.80
443.80	8437.63
443.98	7913.35
444.17	7698.02
444.35	8063.15
444.54	8322.94
444.73	8243.37
444.91	8353.37
445.10	8245.71
445.28	8208.26
445.47	8208.26
445.65	8402.52
445.84	8262.09
446.02	8451.67
446.21	8358.05
446.39	8105.28
446.58	8351.03
446.77	8568.70
446.95	8196.56
447.14	8229.32
447.32	8484.44
447.51	8315.92
447.69	8322.94
447.88	8446.99
448.06	8344.01
448.25	8486.78
448.43	8613.17
448.62	8769.99
448.80	8542.96
448.99	8599.13
449.17	8737.22
449.36	8519.55
449.54	8603.81
449.73	8875.31
449.91	8947.87
450.10	8713.81
450.28	9025.11
450.46	9041.49
450.65	9039.15
450.83	9193.62
451.02	9053.19
451.20	9195.96
451.39	8945.53
451.57	8887.01
451.76	8774.67
451.94	9149.15
452.13	9350.44
452.31	9198.31
452.49	9027.45
452.68	9320.01
452.86	9308.31
453.05	9291.93
453.23	9137.45
453.42	9378.53
453.60	9210.01
453.78	9467.47
453.97	9488.53
454.15	9420.66
454.34	9371.50
454.52	9430.02
454.70	9781.10
454.89	9547.05
455.07	9621.94
455.26	9682.80
455.44	9753.01
455.62	9825.57
455.81	9919.19
455.99	9813.87
456.17	10050.26
456.36	9905.15
456.54	10066.64
456.73	9996.43
456.91	10544.11
457.09	10303.04
457.28	10455.17
457.46	10382.62
457.64	10373.25
457.83	10403.68
458.01	10331.12
458.19	10527.73
458.38	10354.53
458.56	10630.71
458.74	10621.35
458.93	10649.44
459.11	10672.84
459.29	10630.71
459.48	10986.47
459.66	10703.27
459.84	10757.10
460.03	10949.03
460.21	10991.16
460.39	10906.90
460.57	10885.83
460.76	11082.44
460.94	11145.63
461.12	11030.94
461.31	10998.18
461.49	11192.44
461.67	11227.55
461.85	11339.90
462.04	10995.84
462.22	11901.62
462.40	11632.46
462.59	11485.01
462.77	11506.07
462.95	11815.02
463.13	11566.93
463.32	11676.93
463.50	11627.78
463.68	11590.33
463.86	11859.49
464.05	11672.25
464.23	11424.15
464.41	11847.79
464.59	11583.31
464.78	11887.58
464.96	11990.56
465.14	11967.16
465.32	11726.08
465.50	12025.67
465.69	12198.87
465.87	12245.68
466.05	11896.94
466.23	11864.18
466.41	12149.72
466.60	12273.77
466.78	12081.85
466.96	12039.72
467.14	12266.75
467.32	12348.67
467.51	12386.12
467.69	12095.89
467.87	12388.46
468.05	12273.77
468.23	12154.40
468.41	12702.09
468.60	12737.20
468.78	12580.38
468.96	12313.56
469.14	12552.29
469.32	12884.65
469.50	12631.87
469.69	12966.57
469.87	13181.90
470.05	13004.02
470.23	13163.17
470.41	13123.38
470.59	13006.36
470.77	13214.66
470.95	13207.64
471.14	13383.18
471.32	12954.87
471.50	13385.52
471.68	13565.74
471.86	13654.69
472.04	13509.57
472.22	14040.87
472.40	13687.45
472.58	13795.12
472.77	13848.95
472.95	13958.96
473.13	14391.95
473.31	13898.10
473.49	14080.66
473.67	14005.77
473.85	14258.54
474.03	14548.77
474.21	14548.77
474.39	14590.90
474.57	14441.11
474.75	14614.30
474.93	14974.75
475.12	14946.66
475.30	14946.66
475.48	14820.27
475.66	15272.00
475.84	15187.74
476.02	15293.06
476.20	15293.06
476.38	15573.92
476.56	15960.11
476.74	15548.18
476.92	15779.89
477.10	15442.85
477.28	16107.57
477.46	16051.39
477.64	16079.48
477.82	16446.94
478.00	16821.43
478.18	16500.78
478.36	16795.68
478.54	16957.18
478.72	16879.94
478.90	17366.78
479.08	17092.93
479.26	17528.27
479.44	17460.40
479.62	17631.26
479.80	17912.12
479.98	17968.29
480.16	18579.17
480.34	18274.90
480.52	18668.11
480.70	18551.09
480.88	18487.89
481.06	18532.36
481.24	18611.94
481.41	18827.27
481.59	19353.89
481.77	19531.77
481.95	19281.33
482.13	19527.09
482.31	19520.07
482.49	20046.69
482.67	19826.68
482.85	20285.42
483.03	20407.13
483.21	20868.22
483.39	20346.28
483.57	20865.88
483.74	20751.19
483.92	21226.32
484.10	21425.26
484.28	21605.49
484.46	21607.83
484.64	22150.83
484.82	21809.11
485.00	22054.87
485.18	22455.10
485.35	22623.62
485.53	22927.89
485.71	22827.24
485.89	23297.69
486.07	23290.67
486.25	23168.96
486.43	23344.50
486.61	23836.02
486.78	23377.27
486.96	24212.84
487.14	24147.31
487.32	24334.55
487.50	24514.77
487.68	24833.08
487.85	25039.05
488.03	25387.79
488.21	25633.55
488.39	25568.01
488.57	25542.27
488.75	26258.47
488.92	26047.82
489.10	26529.97
489.28	26436.35
489.46	26747.64
489.64	26728.92
489.81	27623.00
489.99	27868.76
490.17	27452.14
490.35	28158.99
490.53	28060.68
490.70	28109.83
490.88	28030.26
491.06	28760.50
491.24	28552.20
491.41	29008.60
491.59	28877.53
491.77	29001.58
491.95	29486.07
492.13	29378.40
492.30	29640.54
492.48	29792.68
492.66	30110.99
492.84	30295.89
493.01	30274.83
493.19	30366.11
493.37	30661.02
493.54	31194.66
493.72	31241.47
493.90	31124.44
494.08	31480.21
494.25	31632.34
494.43	31754.05
494.61	32568.55
494.79	32811.97
494.96	32065.34
495.14	32577.92
495.32	33134.96
495.49	33003.89
495.67	32992.19
495.85	32987.51
496.02	33525.83
496.20	33890.96
496.38	33949.47
496.55	34134.37
496.73	34478.43
496.91	34110.97
497.09	34576.73
497.26	35115.06
497.44	34520.56
497.62	35058.88
497.79	35512.95
497.97	35274.21
498.14	35510.61
498.32	35824.24
498.50	36271.28
498.67	36360.22
498.85	36388.31
499.03	36292.35
499.20	36547.47
499.38	36914.93
499.56	36804.92
499.73	37076.43
499.91	37099.83
500.08	37291.76
500.26	37081.11
500.44	37399.42
500.61	37755.18
500.79	37497.72
500.97	37773.91
501.14	38150.73
501.32	37961.15
501.49	38291.16
501.67	38480.75
501.84	38511.17
502.02	38960.56
502.20	39093.97
502.37	38635.22
502.55	38869.28
502.72	39299.94
502.90	39487.18
503.07	39189.93
503.25	39838.26
503.43	39463.77
503.60	39459.09
503.78	39775.06
503.95	40112.10
504.13	40362.54
504.30	40357.86
504.48	40289.98
504.65	40320.41
504.83	40975.76
505.01	41085.76
505.18	40779.15
505.36	41497.70
505.53	41263.64
505.71	41074.06
505.88	41275.35
506.06	41537.49
506.23	41509.40
506.41	41876.86
506.58	41748.14
506.76	42052.41
506.93	42178.79
507.11	41481.31
507.28	42457.32
507.46	42522.85
507.63	42794.36
507.81	42719.46
507.98	41942.40
508.16	42803.72
508.33	43044.79
508.50	43571.41
508.68	43381.83
508.85	43571.41
509.03	43512.90
509.20	43702.48
509.38	43512.90
509.55	44072.29
509.73	43915.47
509.90	44472.52
510.08	44210.38
510.25	44325.07
510.42	44240.81
510.60	44973.39
510.77	45031.91
510.95	45118.51
511.12	45141.91
511.30	45083.40
511.47	45282.34
511.64	45345.54
511.82	45558.53
511.99	45401.71
512.17	45736.41
512.34	45607.68
512.51	46014.93
512.69	45851.09
512.86	45888.54
513.04	46302.82
513.21	46117.92
513.38	46127.28
513.56	46384.74
513.73	46454.95
513.90	46700.71
514.08	46326.22
514.25	46714.75
514.43	47103.28
514.60	46918.38
514.77	47117.32
514.95	47482.45
515.12	47344.36
515.29	47178.18
515.47	47360.74
515.64	47585.43
515.81	47445.00
515.99	47550.32
516.16	48245.46
516.33	48208.01
516.51	48643.35
516.68	48353.13
516.85	48292.27
517.03	48519.31
517.20	48720.59
517.37	48409.30
517.54	48509.94
517.72	48671.44
517.89	48872.73
518.06	49200.40
518.24	48458.45
518.41	49167.63
518.58	48912.52
518.75	49095.08
518.93	49628.72
519.10	49404.03
519.27	49577.23
519.45	49275.30
519.62	49778.51
519.79	49876.82
519.96	49764.47
520.14	49780.85
520.31	49787.88
520.48	50185.77
520.65	50087.46
520.83	50438.54
521.00	50705.37
521.17	50382.37
521.34	50497.06
521.52	50667.92
521.69	50616.43
521.86	50628.13
522.03	50822.39
522.20	51040.06
522.38	51381.78
522.55	50625.79
522.72	51009.64
522.89	51152.41
523.07	51061.13
523.24	51011.98
523.41	51372.42
523.58	51182.84
523.75	51777.33
523.92	51341.99
524.10	51721.16
524.27	51716.48
524.44	51599.45
524.61	51894.36
524.78	52004.36
524.96	52058.20
525.13	52126.07
525.30	52137.77
525.47	52261.82
525.64	52114.37
525.81	52381.19
525.98	52449.06
526.16	52292.25
526.33	52615.24
526.50	52603.54
526.67	52430.34
526.84	52776.74
527.01	52727.59
527.18	52762.70
527.36	52704.18
527.53	52694.82
527.70	53186.33
527.87	52786.10
528.04	52987.39
528.21	53003.77
528.38	53151.23
528.55	53315.06
528.72	53029.52
528.89	53088.03
529.07	53148.88
529.24	53413.37
529.41	53467.20
529.58	53223.78
529.75	53282.30
529.92	53499.97
530.09	53294.00
530.26	53748.06
530.43	53724.66
530.60	53357.19
530.77	53558.48
530.94	54017.22
531.11	53642.74
531.28	54033.61
531.46	53991.48
531.63	53942.33
531.80	53944.67
531.97	54277.02
532.14	53944.67
532.31	54089.78
532.48	54042.97
532.65	54372.99
532.82	54314.47
532.99	54698.32
533.16	54377.67
533.33	54515.76
533.50	54805.98
533.67	54560.23
533.84	54560.23
534.01	54784.92
534.18	54532.14
534.35	55180.47
534.52	54726.41
534.69	54817.69
534.86	55281.11
535.03	54768.54
535.20	54983.86
535.37	55334.95
535.54	55140.68
535.71	54993.23
535.88	55196.85
536.05	55306.86
536.22	55515.17
536.38	55498.78
536.55	55470.70
536.72	55306.86
536.89	55215.58
537.06	55489.42
537.23	55571.34
537.40	55412.18
537.57	55524.53
537.74	55533.89
537.91	55629.85
538.08	55545.59
538.25	55449.63
538.42	55997.32
538.59	55793.69
538.75	55700.07
538.92	55994.98
539.09	55833.48
539.26	55873.27
539.43	56027.74
539.60	56025.40
539.77	55887.31
539.94	56259.46
540.11	56404.57
540.28	56158.81
540.44	56280.52
540.61	56273.50
540.78	55927.10
540.95	56278.18
541.12	56308.61
541.29	56353.08
541.46	56413.93
541.62	56484.15
541.79	56109.66
541.96	56231.37
542.13	56418.61
542.30	56479.47
542.47	56516.92
542.63	56748.63
542.80	56741.61
542.97	56959.28
543.14	56968.64
543.31	57041.20
543.48	57017.79
543.64	57247.16
543.81	57090.35
543.98	57050.56
544.15	57010.77
544.32	57324.40
544.48	57329.08
544.65	57181.63
544.82	57078.64
544.99	57162.90
545.16	57350.15
545.32	57434.41
545.49	57726.97
545.66	57483.56
545.83	57492.92
546.00	57338.44
546.16	57394.62
546.33	57411.00
546.50	57291.63
546.67	57448.45
546.83	57151.20
547.00	57593.56
547.17	57645.05
547.34	57464.83
547.50	57726.97
547.67	57935.28
547.84	57783.15
548.00	57897.83
548.17	57909.53
548.34	57691.86
548.51	58017.20
548.67	57949.32
548.84	58136.57
549.01	57925.92
549.18	58026.56
549.34	58066.35
549.51	58181.04
549.68	58019.54
549.84	58274.66
550.01	58452.54
550.18	57951.66
550.34	58504.03
550.51	58284.02
550.68	58188.06
550.84	58164.65
551.01	58265.30
551.18	58487.65
551.34	58255.93
551.51	58391.68
551.68	58415.09
551.84	58307.43
552.01	58300.40
552.18	58223.17
552.34	58216.14
552.51	58665.53
552.68	58328.49
552.84	58628.08
553.01	58827.02
553.18	58712.34
553.34	58639.78
553.51	58777.87
553.67	58656.17
553.84	59096.19
554.01	58642.12
554.17	58937.03
554.34	58798.94
554.51	58714.68
554.67	59049.38
554.84	58714.68
555.00	58822.34
555.17	58810.64
555.33	59000.22
555.50	58644.46
555.67	58798.94
555.83	58841.07
556.00	58967.46
556.16	59157.04
556.33	59180.45
556.50	59047.04
556.66	59187.47
556.83	59056.40
556.99	59187.47
557.16	59430.88
557.32	59367.69
557.49	59468.33
557.65	59217.89
557.82	59112.57
557.98	59348.96
558.15	59245.98
558.32	59405.14
558.48	59082.14
558.65	59264.70
558.81	59388.75
558.98	59414.50
559.14	59494.08
559.31	59377.05
559.47	59458.97
559.64	59571.32
559.80	59526.84
559.97	59704.73
560.13	59412.16
560.30	59199.17
560.46	59842.82
560.63	59732.81
560.79	59503.44
560.96	59678.98
561.12	59636.85
561.29	59583.02
561.45	59634.51
561.61	59629.83
561.78	59559.61
561.94	59564.29
562.11	59772.60
562.27	59643.87
562.44	59681.32
562.60	59906.01
562.77	59821.75
562.93	59714.09
563.10	59938.78
563.26	59664.94
563.42	60058.15
563.59	60037.08
563.75	59901.33
563.92	59859.20
564.08	59877.93
564.24	60058.15
564.41	59971.55
564.57	60093.25
564.74	60053.47
564.90	60119.00
565.07	60006.65
565.23	59859.20
565.39	60060.49
565.56	59894.31
565.72	60011.34
565.88	59859.20
566.05	59910.69
566.21	60046.44
566.38	60299.22
566.54	60023.04
566.70	60135.38
566.87	60093.25
567.03	59985.59
567.19	60247.73
567.36	60214.96
567.52	60163.47
567.68	60310.92
567.85	60348.37
568.01	60383.48
568.17	60233.69
568.34	60196.24
568.50	60369.44
568.66	60266.45
568.83	60095.60
568.99	60266.45
569.15	60463.06
569.32	60331.99
569.48	60154.11
569.64	60430.29
569.81	60271.14
569.97	60170.49
570.13	60404.55
570.30	60198.58
570.46	60385.82
570.62	60329.65
570.78	60292.20
570.95	60336.67
571.11	60329.65
571.27	60280.50
571.43	60303.90
571.60	60500.51
571.76	60439.65
571.92	60488.80
572.09	60357.74
572.25	60327.31
572.41	60402.21
572.57	60488.80
572.74	60610.51
572.90	60196.24
573.06	60587.11
573.22	60441.99
573.38	60392.84
573.55	60526.25
573.71	60676.05
573.87	60444.33
574.03	60566.04
574.20	60619.88
574.36	60413.91
574.52	60687.75
574.68	60470.08
574.84	60465.40
575.01	60505.19
575.17	60444.33
575.33	60430.29
575.49	60376.46
575.65	60549.66
575.82	60926.49
575.98	60732.22
576.14	60708.82
576.30	60570.72
576.46	60580.09
576.62	60530.93
576.79	60512.21
576.95	60559.02
577.11	60811.80
577.27	60701.79
577.43	60601.15
577.59	60589.45
577.75	60662.00
577.92	60465.40
578.08	60680.73
578.24	60631.58
578.40	60851.59
578.56	60697.11
578.72	60669.03
578.88	60891.38
579.04	60893.72
579.21	60849.25
579.37	60631.58
579.53	61055.21
579.69	60704.13
579.85	60612.85
580.01	60603.49
580.17	60528.59
580.33	60905.42
580.49	60760.31
580.65	60774.35
580.82	60900.74
580.98	60568.38
581.14	60441.99
581.30	60905.42
581.46	60624.56
581.62	60727.54
581.78	60718.18
581.94	60816.48
582.10	60535.62
582.26	60802.44
582.42	60692.43
582.58	60818.82
582.74	60659.66
582.90	60818.82
583.06	60718.18
583.22	60650.30
583.38	60825.84
583.54	60779.03
583.70	60886.70
583.86	61013.08
584.02	60622.22
584.18	61066.92
584.34	61041.17
584.50	60694.77
584.66	60654.98
584.82	60786.05
584.98	61017.77
585.14	60938.19
585.30	60835.20
585.46	60973.30
585.62	60800.10
585.78	61048.19
585.94	60654.98
586.10	60905.42
586.26	60870.31
586.42	61066.92
586.58	61015.43
586.74	60893.72
586.90	60764.99
587.06	60802.44
587.22	60814.14
587.38	60867.97
587.54	61165.22
587.70	61109.05
587.86	60729.88
588.02	60914.78
588.18	60952.23
588.34	60800.10
588.49	60786.05
