SpectraSuite Data File
++++++++++++++++++++++++++++++++++++
Date: Fri Oct 25 10:43:54 EDT 2013
User: price-jones
Dark Spectrum Present: No
Reference Spectrum Present: No
Number of Sampled Component Spectra: 1
Spectrometers: USB2+H05261
Integration Time (usec): 100000 (USB2+H05261)
Spectra Averaged: 1 (USB2+H05261)
Boxcar Smoothing: 0 (USB2+H05261)
Correct for Electrical Dark: No (USB2+H05261)
Strobe/Lamp Enabled: No (USB2+H05261)
Correct for Detector Non-linearity: No (USB2+H05261)
Correct for Stray Light: No (USB2+H05261)
Number of Pixels in Processed Spectrum: 2048
>>>>>Begin Processed Spectral Data<<<<<
365.73	159.16
365.92	159.16
366.12	159.16
366.32	9.36
366.52	23.41
366.72	124.05
366.91	39.79
367.11	51.49
367.31	46.81
367.51	14.04
367.70	0.00
367.90	77.24
368.10	0.00
368.30	9.36
368.49	16.38
368.69	25.75
368.89	30.43
369.09	67.88
369.28	0.00
369.48	30.43
369.68	112.35
369.87	49.15
370.07	77.24
370.27	117.03
370.47	170.86
370.66	390.87
370.86	465.77
371.06	449.38
371.25	465.77
371.45	505.56
371.65	411.93
371.84	437.68
372.04	454.06
372.24	472.79
372.44	463.43
372.63	496.19
372.83	540.66
373.03	505.56
373.22	451.72
373.42	557.05
373.62	571.09
373.81	526.62
374.01	596.84
374.21	507.90
374.40	557.05
374.60	573.43
374.79	559.39
374.99	608.54
375.19	636.63
375.38	613.22
375.58	594.50
375.78	592.16
375.97	566.41
376.17	688.12
376.37	662.37
376.56	650.67
376.76	692.80
376.95	603.86
377.15	727.91
377.35	692.80
377.54	704.50
377.74	660.03
377.93	634.29
378.13	758.33
378.33	720.88
378.52	622.58
378.72	732.59
378.91	674.07
379.11	660.03
379.31	636.63
379.50	678.76
379.70	638.97
379.89	739.61
380.09	758.33
380.28	760.67
380.48	709.18
380.68	734.93
380.87	748.97
381.07	777.06
381.26	763.01
381.46	718.54
381.65	697.48
381.85	711.52
382.04	685.78
382.24	706.84
382.43	746.63
382.63	697.48
382.83	835.57
383.02	875.36
383.22	772.38
383.41	807.48
383.61	753.65
383.80	746.63
384.00	908.13
384.19	772.38
384.39	840.25
384.58	835.57
384.78	791.10
384.97	891.74
385.17	877.70
385.36	858.98
385.56	781.74
385.75	802.80
385.95	851.96
386.14	856.64
386.34	830.89
386.53	844.93
386.72	866.00
386.92	919.83
387.11	858.98
387.31	959.62
387.50	851.96
387.70	910.47
387.89	854.30
388.09	908.13
388.28	880.04
388.48	971.32
388.67	978.34
388.86	882.38
389.06	903.45
389.25	926.85
389.45	994.73
389.64	978.34
389.84	992.39
390.03	1008.77
390.22	1004.09
390.42	1107.07
390.61	1029.84
390.81	1025.15
391.00	1121.12
391.19	1090.69
391.39	1198.35
391.58	1111.75
391.78	1025.15
391.97	1125.80
392.16	1107.07
392.36	1128.14
392.55	1086.01
392.75	1095.37
392.94	1008.77
393.13	968.98
393.33	1123.46
393.52	1081.33
393.71	1100.05
393.91	1163.25
394.10	1177.29
394.29	1249.85
394.49	1212.40
394.68	1268.57
394.88	1153.88
395.07	1331.76
395.26	1235.80
395.46	1296.66
395.65	1266.23
395.84	1245.16
396.04	1310.70
396.23	1205.38
396.42	1167.93
396.62	1217.08
396.81	1203.04
397.00	1294.32
397.19	1355.17
397.39	1306.02
397.58	1357.51
397.77	1390.28
397.97	1437.09
398.16	1551.78
398.35	1605.61
398.55	1551.78
398.74	1591.56
398.93	1666.46
399.12	1521.35
399.32	1511.99
399.51	1600.93
399.70	1732.00
399.90	1582.20
400.09	1633.69
400.28	1706.25
400.47	1717.95
400.67	1727.32
400.86	1706.25
401.05	1837.32
401.24	1748.38
401.44	1771.79
401.63	1767.10
401.82	1771.79
402.01	1713.27
402.21	1863.07
402.40	1785.83
402.59	1870.09
402.78	1923.92
402.97	1884.13
403.17	1912.22
403.36	1722.63
403.55	1959.03
403.74	2008.18
403.93	1867.75
404.13	2043.29
404.32	1907.54
404.51	2012.86
404.70	2087.76
404.89	2076.06
405.09	2024.56
405.28	2115.84
405.47	2024.56
405.66	2008.18
405.85	2162.66
406.05	2052.65
406.24	2125.21
406.43	2244.57
406.62	2253.94
406.81	2183.72
407.00	2146.27
407.20	2190.74
407.39	2153.29
407.58	2132.23
407.77	2221.17
407.96	2284.36
408.15	2345.22
408.34	2319.47
408.54	2427.14
408.73	2368.62
408.92	2434.16
409.11	2504.37
409.30	2469.27
409.49	2478.63
409.68	2373.30
409.87	2410.75
410.07	2349.90
410.26	2478.63
410.45	2593.31
410.64	2649.49
410.83	2595.65
411.02	2485.65
411.21	2740.77
411.40	2649.49
411.59	2691.62
411.78	2839.07
411.98	2799.28
412.17	2806.30
412.36	2794.60
412.55	2874.18
412.74	2857.79
412.93	2846.09
413.12	2813.32
413.31	2995.89
413.50	3009.93
413.69	2904.60
413.88	3028.65
414.07	2918.65
414.26	3105.89
414.45	3103.55
414.64	3124.62
414.83	3206.53
415.02	3094.19
415.22	3206.53
415.41	3176.11
415.60	3332.92
415.79	3311.86
415.98	3524.85
416.17	3501.44
416.36	3433.57
416.55	3534.21
416.74	3372.71
416.93	3442.93
417.12	3382.07
417.31	3494.42
417.50	3545.91
417.69	3695.71
417.88	3501.44
418.07	3524.85
418.26	3609.11
418.45	3630.17
418.64	3768.26
418.83	3751.88
419.02	3634.85
419.21	3796.35
419.39	3826.78
419.58	3761.24
419.77	3705.07
419.96	3712.09
420.15	3826.78
420.34	3644.21
420.53	3887.63
420.72	3936.78
420.91	3999.98
421.10	3990.61
421.29	4053.81
421.48	4014.02
421.67	4002.32
421.86	3899.33
422.05	4063.17
422.24	3901.67
422.43	3976.57
422.61	3957.85
422.80	4102.96
422.99	4091.26
423.18	4196.58
423.37	4212.96
423.56	4095.94
423.75	4149.77
423.94	3997.64
424.13	3815.07
424.32	3896.99
424.50	4194.24
424.69	4262.12
424.88	4191.90
425.07	4095.94
425.26	4021.04
425.45	4217.65
425.64	4091.26
425.83	4147.43
426.01	4229.35
426.20	4177.86
426.39	4067.85
426.58	4128.70
426.77	4119.34
426.96	4156.79
427.15	4093.60
427.33	4182.54
427.52	4285.52
427.71	4297.22
427.90	4208.28
428.09	4337.01
428.28	4442.34
428.46	4360.42
428.65	4395.53
428.84	4496.17
429.03	4437.66
429.22	4360.42
429.40	4248.07
429.59	4201.26
429.78	4051.47
429.97	4135.73
430.16	4161.47
430.34	4161.47
430.53	4327.65
430.72	4444.68
430.91	4329.99
431.10	4477.44
431.28	4741.93
431.47	4770.01
431.66	4648.30
431.85	4629.58
432.03	4896.40
432.22	4945.55
432.41	4835.55
432.60	4912.78
432.79	4997.04
432.97	5055.56
433.16	4943.21
433.35	4863.63
433.54	4851.93
433.72	4891.72
433.91	4835.55
434.10	4973.64
434.28	4795.76
434.47	5081.30
434.66	5083.64
434.85	5093.01
435.03	5233.44
435.22	5064.92
435.41	5451.11
435.59	5366.85
435.78	5383.23
435.97	5401.96
436.16	5383.23
436.34	5401.96
436.53	5371.53
436.72	5511.96
436.90	5324.72
437.09	5537.71
437.28	5352.81
437.46	5474.51
437.65	5458.13
437.84	5446.43
438.02	5313.02
438.21	5378.55
438.40	5390.25
438.58	5418.34
438.77	5853.68
438.96	5640.69
439.14	5867.72
439.33	5804.53
439.52	6052.63
439.70	5825.59
439.89	5944.96
440.08	6022.20
440.26	6115.82
440.45	6005.81
440.63	6263.27
440.82	6249.23
441.01	6122.84
441.19	6464.56
441.38	6274.98
441.57	6335.83
441.75	6434.13
441.94	6396.68
442.12	6544.14
442.31	6623.72
442.50	6619.04
442.68	6649.46
442.87	6595.63
443.05	6675.21
443.24	6743.08
443.43	6642.44
443.61	6719.68
443.80	6965.43
443.98	6785.21
444.17	6574.56
444.35	6801.60
444.54	6913.94
444.73	6862.45
444.91	6707.98
445.10	6731.38
445.28	6883.52
445.47	6738.40
445.65	6609.67
445.84	6832.02
446.02	6843.73
446.21	6700.95
446.39	6759.47
446.58	6820.32
446.77	6857.77
446.95	6958.41
447.14	6942.03
447.32	7012.24
447.51	6974.80
447.69	6883.52
447.88	6944.37
448.06	7110.55
448.25	6890.54
448.43	7173.74
448.62	7042.67
448.80	6951.39
448.99	7061.40
449.17	7293.11
449.36	6967.77
449.54	7365.67
449.73	7332.90
449.91	7445.24
450.10	7253.32
450.28	7625.47
450.46	7618.44
450.65	7541.21
450.83	7585.68
451.02	7384.39
451.20	7660.57
451.39	7735.47
451.57	7838.45
451.76	7630.15
451.94	7735.47
452.13	7712.07
452.31	7424.18
452.49	7344.60
452.68	7513.12
452.86	7480.35
453.05	7618.44
453.23	7700.36
453.42	7691.00
453.60	7555.25
453.78	7742.49
453.97	7810.37
454.15	7784.62
454.34	7571.63
454.52	7775.26
454.70	7983.57
454.89	7812.71
455.07	7997.61
455.26	8135.70
455.44	7992.93
455.62	8044.42
455.81	8138.04
455.99	8051.44
456.17	8163.79
456.36	8030.38
456.54	8114.64
456.73	8304.22
456.91	8358.05
457.09	8344.01
457.28	8510.19
457.46	8446.99
457.64	8491.46
457.83	8549.98
458.01	8397.84
458.19	8685.73
458.38	8446.99
458.56	8650.62
458.74	8566.36
458.93	8510.19
459.11	8540.61
459.29	8629.56
459.48	8718.50
459.66	8617.85
459.84	8753.60
460.03	8882.33
460.21	8777.01
460.39	9008.72
460.57	8856.59
460.76	9062.55
460.94	9142.13
461.12	9142.13
461.31	9076.60
461.49	9146.81
461.67	9062.55
461.85	9231.07
462.04	9224.05
462.22	9451.08
462.40	9315.33
462.59	9474.49
462.77	9317.67
462.95	9408.95
463.13	9097.66
463.32	9198.31
463.50	9378.53
463.68	9500.23
463.86	9577.47
464.05	9167.88
464.23	9163.20
464.41	9432.36
464.59	9296.61
464.78	9586.83
464.96	9451.08
465.14	9483.85
465.32	9462.79
465.50	9678.12
465.69	9708.54
465.87	9565.77
466.05	9554.07
466.23	9474.49
466.41	9633.64
466.60	9921.53
466.78	9500.23
466.96	9621.94
467.14	9710.88
467.32	9753.01
467.51	9984.73
467.69	9479.17
467.87	9617.26
468.05	9867.70
468.23	9863.02
468.41	9937.91
468.60	9839.61
468.78	10097.07
468.96	10036.22
469.14	9958.98
469.32	10150.90
469.50	9893.44
469.69	9958.98
469.87	10239.84
470.05	10167.29
470.23	10281.97
470.41	10298.36
470.59	10300.70
470.77	10375.59
470.95	10490.28
471.14	10619.01
471.32	10391.98
471.50	10644.76
471.68	10551.14
471.86	10949.03
472.04	10918.60
472.22	11087.12
472.40	10588.58
472.58	10878.81
472.77	10834.34
472.95	11052.01
473.13	11344.58
473.31	10939.66
473.49	10981.79
473.67	10993.50
473.85	11222.87
474.03	11510.75
474.21	11414.79
474.39	11662.89
474.57	11508.41
474.75	11534.16
474.93	11557.57
475.12	11655.87
475.30	11609.06
475.48	11599.70
475.66	11922.69
475.84	11735.45
476.02	11831.41
476.20	11967.16
476.38	12098.23
476.56	12367.39
476.74	12236.32
476.92	12383.77
477.10	12533.57
477.28	12805.07
477.46	12788.69
477.64	12727.83
477.82	12882.31
478.00	13219.35
478.18	12992.31
478.36	13128.06
478.54	13060.19
478.72	13261.48
478.90	13448.72
479.08	13577.45
479.26	13827.88
479.44	13710.86
479.62	13965.98
479.80	13724.90
479.98	13935.55
480.16	14298.33
480.34	14377.91
480.52	14153.22
480.70	14193.01
480.88	14242.16
481.06	14492.60
481.24	14628.35
481.41	14801.55
481.59	15089.43
481.77	14759.42
481.95	15124.54
482.13	15103.48
482.31	15005.17
482.49	15660.52
482.67	15246.25
482.85	15815.00
483.03	15735.42
483.21	15866.49
483.39	16074.80
483.57	15721.38
483.74	16154.38
483.92	16156.72
484.10	16248.00
484.28	16479.71
484.46	16975.91
484.64	16690.36
484.82	16823.77
485.00	16889.31
485.18	16936.12
485.35	16868.24
485.53	16594.40
485.71	16753.55
485.89	16952.50
486.07	16903.35
486.25	17181.87
486.43	17429.97
486.61	17727.22
486.78	17694.45
486.96	17818.50
487.14	18506.62
487.32	18310.01
487.50	18780.46
487.68	19077.71
487.85	19061.32
488.03	19164.31
488.21	19276.65
488.39	19124.52
488.57	19044.94
488.75	19239.20
488.92	19728.38
489.10	19845.40
489.28	20070.09
489.46	20629.48
489.64	20620.12
489.81	20634.16
489.99	20980.56
490.17	20982.90
490.35	21191.21
490.53	21184.19
490.70	21366.75
490.88	21280.15
491.06	21724.85
491.24	21535.27
491.41	21413.56
491.59	21626.55
491.77	21188.87
491.95	21745.92
492.13	21881.67
492.30	22485.53
492.48	22567.45
492.66	22651.70
492.84	22462.12
493.01	22829.59
493.19	22972.36
493.37	22850.65
493.54	22888.10
493.72	23412.38
493.90	23484.94
494.08	24009.22
494.25	24018.58
494.43	24144.97
494.61	24304.12
494.79	24341.57
494.96	24453.92
495.14	24510.09
495.32	24456.26
495.49	24737.12
495.67	24662.22
495.85	24706.70
496.02	24903.30
496.20	25385.45
496.38	25371.41
496.55	25776.32
496.73	25844.20
496.91	25469.71
497.09	25961.22
497.26	25937.82
497.44	25909.73
497.62	26232.72
497.79	26143.78
497.97	26136.76
498.14	26614.23
498.32	26356.77
498.50	26321.66
498.67	27061.27
498.85	26941.91
499.03	27358.52
499.20	27068.30
499.38	27402.99
499.56	27501.29
499.73	27288.31
499.91	27510.66
500.08	27358.52
500.26	27395.97
500.44	27405.33
500.61	27487.25
500.79	27529.38
500.97	27845.35
501.14	27845.35
501.32	28231.54
501.49	27992.81
501.67	27903.87
501.84	28542.83
502.02	28292.40
502.20	28491.34
502.37	28507.72
502.55	28718.37
502.72	29017.96
502.90	28896.25
503.07	29048.39
503.25	29174.78
503.43	29392.45
503.60	28790.93
503.78	29088.18
503.95	29343.30
504.13	29886.30
504.30	29682.67
504.48	29827.79
504.65	29942.47
504.83	29940.13
505.01	30120.35
505.18	30146.10
505.36	30185.89
505.53	30253.76
505.71	30693.79
505.88	30775.70
506.06	30525.27
506.23	30618.89
506.41	30810.81
506.58	31112.74
506.76	30881.03
506.93	30899.75
507.11	31124.44
507.28	31082.31
507.46	30621.23
507.63	31330.41
507.81	31087.00
507.98	31101.04
508.16	31145.51
508.33	31620.64
508.50	31700.22
508.68	32126.19
508.85	31899.16
509.03	32254.92
509.20	32297.05
509.38	31960.02
509.55	32533.45
509.73	32238.54
509.90	32526.42
510.08	32521.74
510.25	32414.08
510.42	32652.81
510.60	32870.48
510.77	32753.46
510.95	33156.03
511.12	32694.94
511.30	33240.29
511.47	33362.00
511.64	32936.02
511.82	33331.57
511.99	33404.13
512.17	33806.70
512.34	33062.41
512.51	33954.15
512.69	33834.78
512.86	33855.85
513.04	34185.86
513.21	34031.39
513.38	33628.82
513.56	33890.96
513.73	33626.48
513.90	34302.89
514.08	33888.62
514.25	34480.77
514.43	34581.42
514.60	34473.75
514.77	34677.38
514.95	34560.35
515.12	34593.12
515.29	34918.45
515.47	35269.53
515.64	34731.21
515.81	34913.77
515.99	34735.89
516.16	34555.67
516.33	34295.87
516.51	34543.97
516.68	34176.50
516.85	34333.32
517.03	34679.72
517.20	34866.96
517.37	35232.08
517.54	35566.78
517.72	35309.32
517.89	34918.45
518.06	35075.27
518.24	34972.28
518.41	35332.73
518.58	35484.86
518.75	35482.52
518.93	35667.42
519.10	35732.96
519.27	36421.08
519.45	35952.97
519.62	36334.48
519.79	36507.68
519.96	36395.33
520.14	36762.79
520.31	36271.28
520.48	36669.17
520.65	36641.09
520.83	37099.83
521.00	37031.96
521.17	36823.65
521.34	37043.66
521.52	37294.10
521.69	36889.18
521.86	37223.88
522.03	37710.71
522.20	37542.19
522.38	37305.80
522.55	37926.04
522.72	37666.24
522.89	37462.61
523.07	38019.66
523.24	37436.87
523.41	38096.90
523.58	37818.38
523.75	38499.47
523.92	38316.91
524.10	38366.06
524.27	38710.12
524.44	38447.98
524.61	38866.94
524.78	38450.32
524.96	38752.25
525.13	39065.88
525.30	38806.08
525.47	38969.92
525.64	38738.21
525.81	39075.24
525.98	38417.55
526.16	38209.25
526.33	38426.92
526.50	38403.51
526.67	38164.78
526.84	38429.26
527.01	38600.12
527.18	38962.90
527.36	39435.69
527.53	39129.08
527.70	39721.23
527.87	39409.94
528.04	39131.42
528.21	39412.28
528.38	39381.85
528.55	39632.29
528.72	40076.99
528.89	40023.16
529.07	39936.56
529.24	39824.22
529.41	39803.15
529.58	39817.19
529.75	40196.36
529.92	40130.83
530.09	40336.79
530.26	40130.83
530.43	40739.36
530.60	40484.25
530.77	40292.32
530.94	40559.14
531.11	40697.24
531.28	40641.06
531.46	40814.26
531.63	41198.11
531.80	40699.58
531.97	40760.43
532.14	40348.50
532.31	40107.42
532.48	40474.88
532.65	40430.41
532.82	40336.79
532.99	40561.48
533.16	40870.43
533.33	40816.60
533.50	41172.36
533.67	41120.87
533.84	40673.83
534.01	41003.85
534.18	41060.02
534.35	41148.96
534.52	41684.94
534.69	41509.40
534.86	41741.11
535.03	41776.22
535.20	41715.37
535.37	41926.02
535.54	41982.19
535.71	41972.83
535.88	42288.80
536.05	41750.48
536.22	41486.00
536.38	41614.72
536.55	41523.44
536.72	41596.00
536.89	41647.49
537.06	41729.41
537.23	42150.71
537.40	41649.83
537.57	42206.88
537.74	42501.79
537.91	42586.05
538.08	42333.27
538.25	42464.34
538.42	42480.72
538.59	42604.77
538.75	41605.36
538.92	42312.20
539.09	42347.31
539.26	42401.14
539.43	42445.62
539.60	42632.86
539.77	42188.16
539.94	42405.83
540.11	42417.53
540.28	42581.37
540.44	42344.97
540.61	42520.51
540.78	42398.80
540.95	42576.69
541.12	42817.76
541.29	42941.81
541.46	42932.45
541.62	43356.08
541.79	43040.11
541.96	42614.13
542.13	42967.55
542.30	42913.72
542.47	43454.39
542.63	43306.93
542.80	43440.34
542.97	43646.31
543.14	43910.79
543.31	43136.07
543.48	43227.35
543.64	44037.18
543.81	44222.08
543.98	44250.17
544.15	43985.69
544.32	43871.00
544.48	44109.74
544.65	43746.95
544.82	44027.82
544.99	43763.34
545.16	43620.56
545.32	43803.13
545.49	44463.16
545.66	44411.67
545.83	44222.08
546.00	44126.12
546.16	44168.25
546.33	44245.49
546.50	43749.29
546.67	44189.31
546.83	44105.06
547.00	44671.46
547.17	44210.38
547.34	44301.66
547.50	44114.42
547.67	44877.43
547.84	44629.34
548.00	44924.24
548.17	44854.03
548.34	44825.94
548.51	44903.18
548.67	45123.19
548.84	44430.39
549.01	44596.57
549.18	44690.19
549.34	44320.38
549.51	45167.66
549.68	45137.23
549.84	45088.08
550.01	45003.82
550.18	44807.22
550.34	44762.75
550.51	45270.64
550.68	45235.53
550.84	44465.50
551.01	45191.06
551.18	45315.11
551.34	45174.68
551.51	45083.40
551.68	45467.25
551.84	45057.65
552.01	45525.76
552.18	45247.24
552.34	45158.30
552.51	45556.19
552.68	44992.12
552.84	45113.83
553.01	45247.24
553.18	45645.13
553.34	45462.57
553.51	45806.62
553.67	45598.32
553.84	45865.14
554.01	45607.68
554.17	45462.57
554.34	45933.01
554.51	45731.73
554.67	45736.41
554.84	46213.88
555.00	45918.97
555.17	45642.79
555.33	45532.78
555.50	45928.33
555.67	45830.03
555.83	45799.60
556.00	45612.36
556.16	46354.31
556.33	45764.49
556.50	46117.92
556.66	46239.62
556.83	45340.86
556.99	46211.54
557.16	46199.83
557.32	46061.74
557.49	46321.54
557.65	45869.82
557.82	46291.12
557.98	45642.79
558.15	46382.40
558.32	46342.61
558.48	45984.51
558.65	45944.72
558.81	46188.13
558.98	46211.54
559.14	46218.56
559.31	46103.87
559.47	45991.53
559.64	46642.20
559.80	45729.39
559.97	46099.19
560.13	46012.59
560.30	46068.76
560.46	45799.60
560.63	46265.37
560.79	46464.32
560.96	46490.06
561.12	46176.43
561.29	46216.22
561.45	46199.83
561.61	46398.78
561.78	46487.72
561.94	46188.13
562.11	46389.42
562.27	46014.93
562.44	46387.08
562.60	46698.37
562.77	46366.01
562.93	46504.10
563.10	46639.86
563.26	46562.62
563.42	46642.20
563.59	46401.12
563.75	46286.43
563.92	46541.55
564.08	46845.82
564.24	46637.51
564.41	46911.36
564.57	46611.77
564.74	46366.01
564.90	46499.42
565.07	46611.77
565.23	46663.26
565.39	46101.53
565.56	46344.95
565.72	46625.81
565.88	46768.58
566.05	46780.29
566.21	46546.23
566.38	46195.15
566.54	46726.46
566.70	47388.83
566.87	46979.23
567.03	47096.26
567.19	46995.62
567.36	46766.24
567.52	46305.16
567.68	46822.42
567.85	46976.89
568.01	46876.25
568.17	46681.98
568.34	47129.03
568.50	46913.70
568.66	46824.76
568.83	46887.95
568.99	46579.00
569.15	46534.53
569.32	46777.95
569.48	46567.30
569.64	46923.06
569.81	46899.65
569.97	46483.04
570.13	46665.60
570.30	46457.29
570.46	46164.73
570.62	46171.75
570.78	46768.58
570.95	46476.02
571.11	46995.62
571.27	46766.24
571.43	46904.34
571.60	46993.28
571.76	46824.76
571.92	46927.74
572.09	47070.51
572.25	46820.08
572.41	46904.34
572.57	47178.18
572.74	46862.21
572.90	46784.97
573.06	47012.00
573.22	46887.95
573.38	46969.87
573.55	47360.74
573.71	47517.56
573.87	46831.78
574.03	46588.36
574.20	46829.44
574.36	46986.25
574.52	47028.38
574.68	46976.89
574.84	46829.44
575.01	46909.02
575.17	46625.81
575.33	46923.06
575.49	46756.88
575.65	47533.94
575.82	47068.17
575.98	46501.76
576.14	47232.01
576.30	46892.63
576.46	46742.84
576.62	46911.36
576.79	46684.33
576.95	46609.43
577.11	47203.92
577.27	47103.28
577.43	47168.82
577.59	46754.54
577.75	47063.49
577.92	46696.03
578.08	46660.92
578.24	46553.26
578.40	46782.63
578.56	46787.31
578.72	47035.41
578.88	47133.71
579.04	47241.37
579.21	46958.17
579.37	47194.56
579.53	46780.29
579.69	46836.46
579.85	46939.44
580.01	46705.39
580.17	46689.01
580.33	46883.27
580.49	47171.16
580.65	46752.20
580.82	46602.41
580.98	46539.21
581.14	46670.28
581.30	47353.72
581.46	46981.57
581.62	47068.17
581.78	47302.23
581.94	47232.01
582.10	47012.00
582.26	47482.45
582.42	46913.70
582.58	46909.02
582.74	47138.39
582.90	46981.57
583.06	47002.64
583.22	46969.87
583.38	46885.61
583.54	47210.95
583.70	47248.39
583.86	47459.04
584.02	46761.56
584.18	47367.76
584.34	47302.23
584.50	47040.09
584.66	46920.72
584.82	47189.88
584.98	47267.12
585.14	47445.00
585.30	47063.49
585.46	47271.80
585.62	46885.61
585.78	46883.27
585.94	46752.20
586.10	47330.31
586.26	46733.48
586.42	46923.06
586.58	47587.77
586.74	47199.24
586.90	47402.87
587.06	47302.23
587.22	46782.63
587.38	47035.41
587.54	47065.83
587.70	47615.86
587.86	46887.95
588.02	47346.70
588.18	47007.32
588.34	46885.61
588.49	46511.13
588.65	46202.18
588.81	46574.32
588.97	46791.99
589.13	46405.80
589.29	46560.28
589.45	46639.86
589.61	46930.08
589.77	47239.03
589.93	46997.96
