SpectraSuite Data File
++++++++++++++++++++++++++++++++++++
Date: Fri Oct 25 10:43:37 EDT 2013
User: price-jones
Dark Spectrum Present: No
Reference Spectrum Present: No
Number of Sampled Component Spectra: 1
Spectrometers: USB2+H05261
Integration Time (usec): 100000 (USB2+H05261)
Spectra Averaged: 1 (USB2+H05261)
Boxcar Smoothing: 0 (USB2+H05261)
Correct for Electrical Dark: No (USB2+H05261)
Strobe/Lamp Enabled: No (USB2+H05261)
Correct for Detector Non-linearity: No (USB2+H05261)
Correct for Stray Light: No (USB2+H05261)
Number of Pixels in Processed Spectrum: 2048
>>>>>Begin Processed Spectral Data<<<<<
365.73	119.37
365.92	119.37
366.12	119.37
366.32	39.79
366.52	21.06
366.72	60.85
366.91	0.00
367.11	86.60
367.31	28.09
367.51	70.22
367.70	0.00
367.90	0.00
368.10	0.00
368.30	14.04
368.49	4.68
368.69	18.72
368.89	7.02
369.09	23.41
369.28	14.04
369.48	21.06
369.68	67.88
369.87	39.79
370.07	28.09
370.27	84.26
370.47	88.94
370.66	315.97
370.86	362.78
371.06	545.34
371.25	498.53
371.45	468.11
371.65	463.43
371.84	423.64
372.04	433.00
372.24	484.49
372.44	465.77
372.63	543.00
372.83	564.07
373.03	465.77
373.22	486.83
373.42	521.94
373.62	486.83
373.81	589.82
374.01	547.69
374.21	484.49
374.40	552.37
374.60	566.41
374.79	606.20
374.99	603.86
375.19	528.96
375.38	575.77
375.58	580.45
375.78	580.45
375.97	566.41
376.17	634.29
376.37	636.63
376.56	638.97
376.76	629.60
376.95	552.37
377.15	699.82
377.35	650.67
377.54	615.56
377.74	643.65
377.93	758.33
378.13	683.44
378.33	688.12
378.52	641.31
378.72	629.60
378.91	561.73
379.11	657.69
379.31	627.26
379.50	690.46
379.70	692.80
379.89	601.52
380.09	653.01
380.28	716.20
380.48	716.20
380.68	737.27
380.87	704.50
381.07	683.44
381.26	683.44
381.46	758.33
381.65	685.78
381.85	744.29
382.04	617.90
382.24	711.52
382.43	788.76
382.63	774.72
382.83	697.48
383.02	798.12
383.22	781.74
383.41	631.94
383.61	657.69
383.80	781.74
384.00	851.96
384.19	767.70
384.39	809.83
384.58	849.61
384.78	891.74
384.97	828.55
385.17	784.08
385.36	805.14
385.56	814.51
385.75	833.23
385.95	894.08
386.14	915.15
386.34	863.66
386.53	880.04
386.72	823.87
386.92	826.21
387.11	894.08
387.31	917.49
387.50	917.49
387.70	901.11
387.89	826.21
388.09	816.85
388.28	830.89
388.48	877.70
388.67	894.08
388.86	931.53
389.06	943.24
389.25	980.68
389.45	1034.52
389.64	1018.13
389.84	1018.13
390.03	1011.11
390.22	985.37
390.42	1053.24
390.61	987.71
390.81	997.07
391.00	997.07
391.19	1111.75
391.39	1100.05
391.58	1008.77
391.78	1104.73
391.97	1090.69
392.16	1055.58
392.36	1064.94
392.55	1025.15
392.75	1015.79
392.94	954.94
393.13	943.24
393.33	976.00
393.52	973.66
393.71	1062.60
393.91	1107.07
394.10	1142.18
394.29	1156.22
394.49	1146.86
394.68	1334.11
394.88	1355.17
395.07	1235.80
395.26	1247.51
395.46	1245.16
395.65	1327.08
395.84	1156.22
396.04	1313.04
396.23	1252.19
396.42	1107.07
396.62	1184.31
396.81	1219.42
397.00	1249.85
397.19	1252.19
397.39	1397.30
397.58	1329.42
397.77	1406.66
397.97	1509.65
398.16	1540.07
398.35	1526.03
398.55	1458.15
398.74	1549.43
398.93	1540.07
399.12	1469.86
399.32	1535.39
399.51	1502.62
399.70	1619.65
399.90	1570.50
400.09	1607.95
400.28	1692.21
400.47	1572.84
400.67	1732.00
400.86	1687.53
401.05	1797.53
401.24	1724.97
401.44	1661.78
401.63	1823.28
401.82	1741.36
402.01	1596.25
402.21	1813.92
402.40	1778.81
402.59	1727.32
402.78	1834.98
402.97	1825.62
403.17	1825.62
403.36	1870.09
403.55	1942.64
403.74	1952.01
403.93	1949.67
404.13	1959.03
404.32	1933.28
404.51	2054.99
404.70	1989.46
404.89	1968.39
405.09	1996.48
405.28	1891.15
405.47	2015.20
405.66	2054.99
405.85	2057.33
406.05	1952.01
406.24	2047.97
406.43	2113.50
406.62	2186.06
406.81	2202.44
407.00	2017.54
407.20	2036.27
407.39	2127.55
407.58	2193.08
407.77	2267.98
407.96	2242.23
408.15	2218.83
408.34	2228.19
408.54	2277.34
408.73	2305.43
408.92	2312.45
409.11	2380.32
409.30	2380.32
409.49	2335.85
409.68	2305.43
409.87	2235.21
410.07	2392.03
410.26	2389.69
410.45	2406.07
410.64	2462.24
410.83	2572.25
411.02	2534.80
411.21	2665.87
411.40	2523.10
411.59	2663.53
411.78	2642.46
411.98	2626.08
412.17	2693.96
412.36	2773.53
412.55	2752.47
412.74	2761.83
412.93	2778.22
413.12	2670.55
413.31	3014.61
413.50	2871.84
413.69	2871.84
413.88	2932.69
414.07	2890.56
414.26	2988.86
414.45	2998.23
414.64	2846.09
414.83	3098.87
415.02	3098.87
415.22	3103.55
415.41	3129.30
415.60	3176.11
415.79	3101.21
415.98	3412.50
416.17	3255.69
416.36	3227.60
416.55	3328.24
416.74	3229.94
416.93	3211.22
417.12	3269.73
417.31	3459.31
417.50	3400.80
417.69	3485.06
417.88	3456.97
418.07	3435.91
418.26	3583.36
418.45	3578.68
418.64	3569.32
418.83	3566.98
419.02	3461.65
419.21	3543.57
419.39	3566.98
419.58	3559.95
419.77	3674.64
419.96	3644.21
420.15	3815.07
420.34	3791.67
420.53	3749.54
420.72	3946.14
420.91	3911.04
421.10	3899.33
421.29	3892.31
421.48	3892.31
421.67	3904.01
421.86	3840.82
422.05	3906.35
422.24	3770.60
422.43	3904.01
422.61	3808.05
422.80	3896.99
422.99	3955.51
423.18	4070.19
423.37	4039.76
423.56	3911.04
423.75	4051.47
423.94	4014.02
424.13	3749.54
424.32	3880.61
424.50	4093.60
424.69	4037.42
424.88	4170.83
425.07	4051.47
425.26	3882.95
425.45	3817.41
425.64	3873.59
425.83	4100.62
426.01	4138.07
426.20	4105.30
426.39	4166.15
426.58	3939.12
426.77	3995.29
426.96	4138.07
427.15	4142.75
427.33	4131.05
427.52	4018.70
427.71	4208.28
427.90	4023.38
428.09	4161.47
428.28	4259.78
428.46	4196.58
428.65	4292.54
428.84	4308.93
429.03	4320.63
429.22	4315.95
429.40	4269.14
429.59	4133.39
429.78	4074.87
429.97	4030.40
430.16	4177.86
430.34	4102.96
430.53	4140.41
430.72	4262.12
430.91	4278.50
431.10	4381.48
431.28	4638.94
431.47	4688.09
431.66	4690.43
431.85	4594.47
432.03	4650.64
432.22	4737.24
432.41	4643.62
432.60	4753.63
432.79	4737.24
432.97	4795.76
433.16	4854.27
433.35	4901.08
433.54	4610.86
433.72	4629.58
433.91	4884.70
434.10	4858.95
434.28	4856.61
434.47	4844.91
434.66	5036.83
434.85	5055.56
435.03	4933.85
435.22	4908.10
435.41	5144.50
435.59	5020.45
435.78	5125.77
435.97	5217.05
436.16	5142.16
436.34	5226.42
436.53	5266.21
436.72	5270.89
436.90	5050.88
437.09	5221.74
437.28	5256.84
437.46	5203.01
437.65	5184.29
437.84	5179.61
438.02	5270.89
438.21	5371.53
438.40	5170.24
438.58	5437.06
438.77	5432.38
438.96	5310.68
439.14	5621.97
439.33	5582.18
439.52	5724.95
439.70	5666.44
439.89	5549.41
440.08	5741.33
440.26	5858.36
440.45	5785.80
440.63	5893.47
440.82	6059.65
441.01	5975.39
441.19	6092.41
441.38	6099.44
441.57	6246.89
441.75	6153.27
441.94	6335.83
442.12	6401.37
442.31	6532.44
442.50	6532.44
442.68	6464.56
442.87	6537.12
443.05	6457.54
443.24	6670.53
443.43	6506.69
443.61	6382.64
443.80	6782.87
443.98	6562.86
444.17	6377.96
444.35	6462.22
444.54	6686.91
444.73	6541.80
444.91	6656.48
445.10	6406.05
445.28	6539.46
445.47	6590.95
445.65	6633.08
445.84	6516.05
446.02	6707.98
446.21	6438.81
446.39	6483.28
446.58	6895.22
446.77	6745.42
446.95	6675.21
447.14	6808.62
447.32	6782.87
447.51	6785.21
447.69	6771.17
447.88	6799.26
448.06	6965.43
448.25	6871.81
448.43	6832.02
448.62	6885.86
448.80	7007.56
448.99	6888.20
449.17	6965.43
449.36	7082.46
449.54	6881.18
449.73	7164.38
449.91	7232.26
450.10	7297.79
450.28	7428.86
450.46	7351.62
450.65	7225.23
450.83	7335.24
451.02	7351.62
451.20	7339.92
451.39	7480.35
451.57	7293.11
451.76	7300.13
451.94	7213.53
452.13	7384.39
452.31	7447.58
452.49	7201.83
452.68	7335.24
452.86	7300.13
453.05	7281.41
453.23	7440.56
453.42	7435.88
453.60	7346.94
453.78	7524.82
453.97	7597.38
454.15	7517.80
454.34	7541.21
454.52	7782.28
454.70	7620.78
454.89	7566.95
455.07	7581.00
455.26	7651.21
455.44	7798.66
455.62	7927.39
455.81	7831.43
455.99	7854.84
456.17	8070.17
456.36	7906.33
456.54	8175.49
456.73	8049.10
456.91	8315.92
457.09	8280.82
457.28	8184.85
457.46	8074.85
457.64	8301.88
457.83	8149.75
458.01	8119.32
458.19	8355.71
458.38	8079.53
458.56	8182.51
458.74	8269.11
458.93	8360.39
459.11	8299.54
459.29	8177.83
459.48	8461.04
459.66	8234.00
459.84	8409.54
460.03	8500.83
460.21	8435.29
460.39	8674.03
460.57	8667.00
460.76	8690.41
460.94	8725.52
461.12	8671.68
461.31	8793.39
461.49	8688.07
461.67	8947.87
461.85	8957.23
462.04	8858.93
462.22	9495.55
462.40	9130.43
462.59	8912.76
462.77	9043.83
462.95	9001.70
463.13	9057.87
463.32	8812.12
463.50	9191.28
463.68	9011.06
463.86	9090.64
464.05	8821.48
464.23	9008.72
464.41	9039.15
464.59	9050.85
464.78	9366.82
464.96	9231.07
465.14	9298.95
465.32	9331.72
465.50	9385.55
465.69	9387.89
465.87	9151.49
466.05	9191.28
466.23	9214.69
466.41	9088.30
466.60	9441.72
466.78	9296.61
466.96	9355.12
467.14	9425.34
467.32	9488.53
467.51	9619.60
467.69	9364.48
467.87	9444.06
468.05	9556.41
468.23	9528.32
468.41	9537.68
468.60	9540.02
468.78	9781.10
468.96	9621.94
469.14	9736.63
469.32	9865.36
469.50	9689.82
469.69	10068.98
469.87	9881.74
470.05	9914.51
470.23	9989.41
470.41	10169.63
470.59	10024.51
470.77	9984.73
470.95	9942.60
471.14	10413.04
471.32	10279.63
471.50	10237.50
471.68	10277.29
471.86	10572.20
472.04	10487.94
472.22	10700.93
472.40	10525.39
472.58	10464.54
472.77	10714.97
472.95	10658.80
473.13	10869.45
473.31	10553.48
473.49	10637.73
473.67	10787.53
473.85	10787.53
474.03	11052.01
474.21	11054.35
474.39	11157.33
474.57	11225.21
474.75	11250.96
474.93	11431.18
475.12	11304.79
475.30	11311.81
475.48	11360.96
475.66	11225.21
475.84	11372.66
476.02	11604.38
476.20	11618.42
476.38	11763.53
476.56	11950.78
476.74	11908.65
476.92	11927.37
477.10	11868.86
477.28	12233.98
477.46	12168.45
477.64	12409.52
477.82	12599.10
478.00	12784.01
478.18	12552.29
478.36	12802.73
478.54	12898.69
478.72	13043.81
478.90	13048.49
479.08	13327.01
479.26	13179.56
479.44	13329.35
479.62	13366.80
479.80	13266.16
479.98	13668.73
480.16	13912.14
480.34	13832.57
480.52	14223.44
480.70	13886.40
480.88	14045.55
481.06	14047.90
481.24	14171.94
481.41	14490.26
481.59	14525.36
481.77	14579.20
481.95	14621.33
482.13	14750.06
482.31	14551.11
482.49	15084.75
482.67	15183.06
482.85	15126.88
483.03	15260.29
483.21	15246.25
483.39	15433.49
483.57	15693.29
483.74	15379.66
483.92	15751.81
484.10	15934.37
484.28	15995.22
484.46	16238.64
484.64	16608.44
484.82	16067.78
485.00	16500.78
485.18	16685.68
485.35	16819.09
485.53	16156.72
485.71	16035.01
485.89	16613.12
486.07	16400.13
486.25	16690.36
486.43	16975.91
486.61	17380.82
486.78	17413.59
486.96	17373.80
487.14	17954.25
487.32	17933.18
487.50	18148.51
487.68	18249.16
487.85	18590.88
488.03	18810.89
488.21	18455.12
488.39	18993.45
488.57	18691.52
488.75	18768.76
488.92	19253.25
489.10	19590.28
489.28	19793.91
489.46	19524.75
489.64	19775.19
489.81	20393.09
489.99	20477.35
490.17	20259.68
490.35	20409.47
490.53	20283.08
490.70	20500.75
490.88	20828.43
491.06	21291.85
491.24	21013.33
491.41	21048.44
491.59	21015.67
491.77	20992.26
491.95	21284.83
492.13	21762.30
492.30	21523.57
492.48	22026.78
492.66	22019.76
492.84	22082.95
493.01	22305.31
493.19	22012.74
493.37	22630.64
493.54	22419.99
493.72	22932.57
493.90	22635.32
494.08	23101.09
494.25	23101.09
494.43	23356.21
494.61	23714.31
494.79	23653.45
494.96	23817.29
495.14	23672.18
495.32	23924.96
495.49	24154.33
495.67	23887.51
495.85	24070.07
496.02	24308.80
496.20	24716.06
496.38	24947.77
496.55	24753.51
496.73	25062.46
496.91	24631.80
497.09	25149.06
497.26	25436.94
497.44	25074.16
497.62	25207.57
497.79	25546.95
497.97	25289.49
498.14	25881.64
498.32	25853.56
498.50	25654.61
498.67	26150.81
498.85	26202.30
499.03	26225.70
499.20	26387.20
499.38	26740.62
499.56	26572.10
499.73	26897.44
499.91	26661.04
500.08	27147.87
500.26	26534.65
500.44	27110.43
500.61	26780.41
500.79	26932.54
500.97	26567.42
501.14	27487.25
501.32	27356.18
501.49	27276.60
501.67	27424.06
501.84	27917.91
502.02	27520.02
502.20	27852.38
502.37	27838.33
502.55	27864.08
502.72	28596.67
502.90	28451.55
503.07	27962.38
503.25	28568.58
503.43	27922.59
503.60	28533.47
503.78	28191.75
503.95	28439.85
504.13	28690.29
504.30	29046.05
504.48	28449.21
504.65	29095.20
504.83	29355.00
505.01	29867.58
505.18	29228.61
505.36	29523.52
505.53	29436.92
505.71	29923.75
505.88	29998.65
506.06	29507.13
506.23	30017.37
506.41	29708.42
506.58	30197.59
506.76	30052.48
506.93	30417.60
507.11	30555.69
507.28	30541.65
507.46	30242.06
507.63	30211.64
507.81	30373.13
507.98	30483.14
508.16	30794.43
508.33	31185.30
508.50	30988.69
508.68	30895.07
508.85	31344.45
509.03	31599.57
509.20	31262.54
509.38	31658.09
509.55	31749.37
509.73	30979.33
509.90	31587.87
510.08	31700.22
510.25	31672.13
510.42	31945.97
510.60	31955.33
510.77	32257.26
510.95	32292.37
511.12	32294.71
511.30	32622.39
511.47	33006.23
511.64	33001.55
511.82	32385.99
511.99	32346.20
512.17	32779.20
512.34	32500.68
512.51	32765.16
512.69	32978.15
512.86	32713.67
513.04	33614.77
513.21	32961.76
513.38	33380.72
513.56	32971.13
513.73	32797.93
513.90	33240.29
514.08	33401.79
514.25	33366.68
514.43	33633.50
514.60	33303.48
514.77	33443.91
514.95	33762.23
515.12	33715.42
515.29	34136.71
515.47	34464.39
515.64	34204.59
515.81	33958.83
515.99	34029.05
516.16	34073.52
516.33	33687.33
516.51	33912.02
516.68	33872.23
516.85	33680.31
517.03	33998.62
517.20	34209.27
517.37	34614.18
517.54	34597.80
517.72	34691.42
517.89	34181.18
518.06	34286.51
518.24	34408.22
518.41	34775.68
518.58	34890.37
518.75	34820.15
518.93	34920.79
519.10	35232.08
519.27	35150.17
519.45	35086.97
519.62	35873.39
519.79	35316.34
519.96	35938.93
520.14	35739.98
520.31	35416.99
520.48	35723.60
520.65	36048.93
520.83	36444.48
521.00	36065.31
521.17	36151.91
521.34	36486.61
521.52	36133.19
521.69	36414.05
521.86	36804.92
522.03	36704.28
522.20	36760.45
522.38	36290.01
522.55	36821.31
522.72	36683.22
522.89	36123.83
523.07	37198.13
523.24	36982.80
523.41	37258.99
523.58	36999.19
523.75	37689.65
523.92	37141.96
524.10	37287.07
524.27	37785.61
524.44	37521.13
524.61	37532.83
524.78	37516.45
524.96	37469.64
525.13	37762.20
525.30	37825.40
525.47	38101.58
525.64	37914.34
525.81	37722.41
525.98	38232.65
526.16	37617.09
526.33	37439.21
526.50	37809.01
526.67	37572.62
526.84	37811.35
527.01	37682.62
527.18	37710.71
527.36	38094.56
527.53	38410.53
527.70	38637.56
527.87	38686.71
528.04	38700.76
528.21	38747.57
528.38	38850.55
528.55	38749.91
528.72	39187.59
528.89	39210.99
529.07	39288.23
529.24	38873.96
529.41	39229.72
529.58	38749.91
529.75	39154.82
529.92	39210.99
530.09	39377.17
530.26	39236.74
530.43	39725.91
530.60	39168.87
530.77	39840.60
530.94	39868.69
531.11	39695.49
531.28	39435.69
531.46	40172.96
531.63	39807.83
531.80	39566.76
531.97	39440.37
532.14	39955.29
532.31	39686.12
532.48	39498.88
532.65	39966.99
532.82	39985.71
532.99	39831.24
533.16	39927.20
533.33	40252.53
533.50	40009.12
533.67	40163.59
533.84	40020.82
534.01	40369.56
534.18	40266.58
534.35	40528.72
534.52	40428.07
534.69	40299.34
534.86	40648.08
535.03	40772.13
535.20	40975.76
535.37	41055.34
535.54	41481.31
535.71	40783.83
535.88	41408.76
536.05	40704.26
536.22	41167.68
536.38	41240.24
536.55	41366.63
536.72	41226.20
536.89	40746.39
537.06	41069.38
537.23	41104.49
537.40	41420.46
537.57	41460.25
537.74	41319.82
537.91	41530.47
538.08	40971.08
538.25	41205.13
538.42	41340.88
538.59	41013.21
538.75	41270.67
538.92	41757.50
539.09	41605.36
539.26	41832.39
539.43	41691.96
539.60	41488.34
539.77	41296.41
539.94	41776.22
540.11	42000.91
540.28	41598.34
540.44	41603.02
540.61	41787.92
540.78	41607.70
540.95	42012.62
541.12	42064.11
541.29	42054.75
541.46	41837.08
541.62	42422.21
541.79	42061.77
541.96	42249.01
542.13	42113.26
542.30	42560.30
542.47	42239.65
542.63	41881.55
542.80	42471.36
542.97	43042.45
543.14	43250.76
543.31	42841.17
543.48	42543.92
543.64	43033.09
543.81	43126.71
543.98	43086.92
544.15	42740.52
544.32	43276.51
544.48	43435.66
544.65	43262.46
544.82	42916.06
544.99	42902.02
545.16	43058.84
545.32	42820.10
545.49	43842.92
545.66	43419.28
545.83	43608.86
546.00	43325.66
546.16	43590.14
546.33	43494.18
546.50	42717.12
546.67	43620.56
546.83	43016.71
547.00	43536.30
547.17	43440.34
547.34	43304.59
547.50	43519.92
547.67	43938.88
547.84	43824.19
548.00	43938.88
548.17	44172.93
548.34	43952.92
548.51	44334.43
548.67	44161.23
548.84	44142.50
549.01	43950.58
549.18	43873.34
549.34	43622.90
549.51	44163.57
549.68	44222.08
549.84	44041.86
550.01	44395.28
550.18	44053.56
550.34	44236.12
550.51	44425.71
550.68	43632.27
550.84	43697.80
551.01	44315.70
551.18	44240.81
551.34	44605.93
551.51	44435.07
551.68	44568.48
551.84	44533.37
552.01	44163.57
552.18	44683.17
552.34	44107.40
552.51	44608.27
552.68	44296.98
552.84	44687.85
553.01	44591.89
553.18	44547.42
553.34	44821.26
553.51	44732.32
553.67	44699.55
553.84	45088.08
554.01	45228.51
554.17	45193.40
554.34	45153.62
554.51	44980.42
554.67	44746.36
554.84	45556.19
555.00	44552.10
555.17	44872.75
555.33	45209.79
555.50	45172.34
555.67	44797.85
555.83	45125.53
556.00	45237.87
556.16	45457.88
556.33	44737.00
556.50	45256.60
556.66	45249.58
556.83	45078.72
556.99	45284.68
557.16	45247.24
557.32	45518.74
557.49	45434.48
557.65	45216.81
557.82	45242.56
557.98	45366.60
558.15	45263.62
558.32	45081.06
558.48	45151.27
558.65	45137.23
558.81	45240.21
558.98	45146.59
559.14	45284.68
559.31	45074.04
559.47	45448.52
559.64	45563.21
559.80	45364.26
559.97	45642.79
560.13	45006.16
560.30	45312.77
560.46	45851.09
560.63	45736.41
560.79	45965.78
560.96	45947.06
561.12	45610.02
561.29	45607.68
561.45	45413.41
561.61	45970.46
561.78	45366.60
561.94	45593.64
562.11	45404.05
562.27	45619.38
562.44	45748.11
562.60	45656.83
562.77	45684.92
562.93	45574.91
563.10	45813.65
563.26	45549.17
563.42	46003.23
563.59	45441.50
563.75	45792.58
563.92	46284.09
564.08	46108.55
564.24	46337.93
564.41	46075.79
564.57	45783.22
564.74	45757.47
564.90	45689.60
565.07	45713.00
565.23	45862.80
565.39	45947.06
565.56	46066.42
565.72	45312.77
565.88	45488.31
566.05	45605.34
566.21	45656.83
566.38	45804.28
566.54	46267.71
566.70	46040.68
566.87	46131.96
567.03	45970.46
567.19	46583.68
567.36	46476.02
567.52	46188.13
567.68	46300.48
567.85	45935.35
568.01	46108.55
568.17	45961.10
568.34	46511.13
568.50	45991.53
568.66	45687.26
568.83	46209.20
568.99	45598.32
569.15	45762.15
569.32	46197.49
569.48	46103.87
569.64	45998.55
569.81	46260.69
569.97	46171.75
570.13	46328.56
570.30	46028.98
570.46	46213.88
570.62	45507.04
570.78	45446.18
570.95	45680.24
571.11	45942.38
571.27	45832.37
571.43	46078.13
571.60	46127.28
571.76	46036.00
571.92	46391.76
572.09	46429.21
572.25	46351.97
572.41	46017.27
572.57	46487.72
572.74	46396.44
572.90	46384.74
573.06	46349.63
573.22	45928.33
573.38	46005.57
573.55	45670.87
573.71	46380.06
573.87	46534.53
574.03	46211.54
574.20	46092.17
574.36	46326.22
574.52	46321.54
574.68	46239.62
574.84	46363.67
575.01	46012.59
575.17	46024.29
575.33	46253.67
575.49	45624.06
575.65	46314.52
575.82	46021.95
575.98	45975.14
576.14	46307.50
576.30	46134.30
576.46	46167.07
576.62	45954.08
576.79	46485.38
576.95	45579.59
577.11	46415.16
577.27	46274.73
577.43	46071.10
577.59	45851.09
577.75	45970.46
577.92	45785.56
578.08	45778.54
578.24	45612.36
578.40	45998.55
578.56	46330.90
578.72	46429.21
578.88	46457.29
579.04	46340.27
579.21	45827.69
579.37	46412.82
579.53	46548.57
579.69	45989.19
579.85	46014.93
580.01	46382.40
580.17	46014.93
580.33	46136.64
580.49	46349.63
580.65	46043.02
580.82	46059.40
580.98	45801.94
581.14	46033.66
581.30	46335.59
581.46	46635.17
581.62	46043.02
581.78	46391.76
581.94	46979.23
582.10	46064.08
582.26	46333.24
582.42	46110.89
582.58	46251.33
582.74	46520.49
582.90	46220.90
583.06	47004.98
583.22	46277.07
583.38	46733.48
583.54	46281.75
583.70	46391.76
583.86	46216.22
584.02	46490.06
584.18	46717.09
584.34	46024.29
584.50	46366.01
584.66	46108.55
584.82	46326.22
584.98	46473.68
585.14	46726.46
585.30	46134.30
585.46	46504.10
585.62	45947.06
585.78	46211.54
585.94	45935.35
586.10	46248.99
586.26	46211.54
586.42	46450.27
586.58	46761.56
586.74	46426.87
586.90	46363.67
587.06	46480.70
587.22	46515.81
587.38	46506.44
587.54	46293.46
587.70	46351.97
587.86	46557.94
588.02	46057.06
588.18	46801.35
588.34	46279.41
588.49	46281.75
588.65	45633.42
588.81	45762.15
588.97	45979.82
589.13	46000.89
589.29	46026.63
589.45	46021.95
589.61	46291.12
589.77	46543.89
589.93	46698.37
590.08	46604.75
