SpectraSuite Data File
++++++++++++++++++++++++++++++++++++
Date: Fri Oct 25 10:43:49 EDT 2013
User: price-jones
Dark Spectrum Present: No
Reference Spectrum Present: No
Number of Sampled Component Spectra: 1
Spectrometers: USB2+H05261
Integration Time (usec): 100000 (USB2+H05261)
Spectra Averaged: 1 (USB2+H05261)
Boxcar Smoothing: 0 (USB2+H05261)
Correct for Electrical Dark: No (USB2+H05261)
Strobe/Lamp Enabled: No (USB2+H05261)
Correct for Detector Non-linearity: No (USB2+H05261)
Correct for Stray Light: No (USB2+H05261)
Number of Pixels in Processed Spectrum: 2048
>>>>>Begin Processed Spectral Data<<<<<
365.73	147.45
365.92	147.45
366.12	147.45
366.32	14.04
366.52	0.00
366.72	44.47
366.91	0.00
367.11	0.00
367.31	49.15
367.51	16.38
367.70	37.45
367.90	44.47
368.10	0.00
368.30	88.94
368.49	46.81
368.69	4.68
368.89	9.36
369.09	58.51
369.28	77.24
369.48	46.81
369.68	53.83
369.87	112.35
370.07	95.96
370.27	128.73
370.47	208.31
370.66	351.08
370.86	428.32
371.06	414.27
371.25	477.47
371.45	454.06
371.65	475.13
371.84	425.98
372.04	353.42
372.24	496.19
372.44	493.85
372.63	484.49
372.83	592.16
373.03	526.62
373.22	486.83
373.42	517.26
373.62	472.79
373.81	468.11
374.01	519.60
374.21	552.37
374.40	491.51
374.60	491.51
374.79	533.64
374.99	524.28
375.19	599.18
375.38	582.79
375.58	540.66
375.78	634.29
375.97	636.63
376.17	573.43
376.37	568.75
376.56	573.43
376.76	608.54
376.95	568.75
377.15	599.18
377.35	655.35
377.54	622.58
377.74	660.03
377.93	655.35
378.13	627.26
378.33	617.90
378.52	732.59
378.72	713.86
378.91	711.52
379.11	664.71
379.31	575.77
379.50	660.03
379.70	645.99
379.89	660.03
380.09	699.82
380.28	653.01
380.48	631.94
380.68	702.16
380.87	601.52
381.07	631.94
381.26	737.27
381.46	667.05
381.65	744.29
381.85	678.76
382.04	744.29
382.24	800.46
382.43	737.27
382.63	655.35
382.83	690.46
383.02	753.65
383.22	727.91
383.41	732.59
383.61	751.31
383.80	851.96
384.00	688.12
384.19	814.51
384.39	763.01
384.58	840.25
384.78	777.06
384.97	772.38
385.17	770.04
385.36	828.55
385.56	758.33
385.75	751.31
385.95	828.55
386.14	812.17
386.34	821.53
386.53	840.25
386.72	842.59
386.92	835.57
387.11	875.36
387.31	898.77
387.50	936.21
387.70	870.68
387.89	784.08
388.09	870.68
388.28	905.79
388.48	882.38
388.67	901.11
388.86	875.36
389.06	976.00
389.25	976.00
389.45	1048.56
389.64	1013.45
389.84	1090.69
390.03	980.68
390.22	1015.79
390.42	999.41
390.61	999.41
390.81	994.73
391.00	968.98
391.19	1067.28
391.39	968.98
391.58	1062.60
391.78	1078.99
391.97	1004.09
392.16	1055.58
392.36	1034.52
392.55	1036.86
392.75	1027.50
392.94	954.94
393.13	933.87
393.33	1046.22
393.52	1034.52
393.71	1020.47
393.91	1128.14
394.10	1160.91
394.29	1151.54
394.49	1062.60
394.68	1160.91
394.88	1116.44
395.07	1203.04
395.26	1177.29
395.46	1301.34
395.65	1224.10
395.84	1266.23
396.04	1191.33
396.23	1149.20
396.42	1165.59
396.62	1240.48
396.81	1200.69
397.00	1207.72
397.19	1345.81
397.39	1411.34
397.58	1394.96
397.77	1420.71
397.97	1458.15
398.16	1497.94
398.35	1448.79
398.55	1511.99
398.74	1437.09
398.93	1554.12
399.12	1516.67
399.32	1430.07
399.51	1472.20
399.70	1577.52
399.90	1462.83
400.09	1657.10
400.28	1638.38
400.47	1603.27
400.67	1549.43
400.86	1694.55
401.05	1563.48
401.24	1692.21
401.44	1722.63
401.63	1895.83
401.82	1687.53
402.01	1799.87
402.21	1685.19
402.40	1736.68
402.59	1736.68
402.78	1778.81
402.97	1701.57
403.17	1783.49
403.36	1795.19
403.55	1846.68
403.74	1935.62
403.93	1898.17
404.13	1902.86
404.32	1774.13
404.51	1809.23
404.70	1980.09
404.89	1856.04
405.09	1963.71
405.28	1879.45
405.47	1984.77
405.66	1973.07
405.85	1998.82
406.05	1998.82
406.24	2015.20
406.43	2043.29
406.62	2083.08
406.81	2104.14
407.00	1968.39
407.20	1998.82
407.39	2125.21
407.58	2066.69
407.77	2244.57
407.96	2305.43
408.15	2202.44
408.34	2157.97
408.54	2230.53
408.73	2216.49
408.92	2239.89
409.11	2282.02
409.30	2338.20
409.49	2181.38
409.68	2141.59
409.87	2267.98
410.07	2270.32
410.26	2307.77
410.45	2476.29
410.64	2396.71
410.83	2417.77
411.02	2534.80
411.21	2455.22
411.40	2502.03
411.59	2597.99
411.78	2656.51
411.98	2504.37
412.17	2696.30
412.36	2712.68
412.55	2743.11
412.74	2717.36
412.93	2740.77
413.12	2682.25
413.31	2792.26
413.50	2799.28
413.69	2874.18
413.88	2928.01
414.07	2806.30
414.26	2918.65
414.45	2888.22
414.64	3002.91
414.83	3012.27
415.02	3091.85
415.22	3075.46
415.41	3070.78
415.60	3133.98
415.79	3208.87
415.98	3269.73
416.17	3197.17
416.36	3215.90
416.55	3283.77
416.74	3201.85
416.93	3227.60
417.12	3190.15
417.31	3440.59
417.50	3386.76
417.69	3445.27
417.88	3386.76
418.07	3513.14
418.26	3391.44
418.45	3604.42
418.64	3513.14
418.83	3475.70
419.02	3515.48
419.21	3595.06
419.39	3424.20
419.58	3548.25
419.77	3442.93
419.96	3637.19
420.15	3641.87
420.34	3684.00
420.53	3772.94
420.72	3861.88
420.91	3896.99
421.10	3906.35
421.29	3747.20
421.48	3779.97
421.67	3882.95
421.86	3688.68
422.05	3756.56
422.24	3726.13
422.43	3758.90
422.61	3967.21
422.80	3824.44
422.99	3843.16
423.18	3943.80
423.37	3922.74
423.56	3955.51
423.75	3957.85
423.94	3794.01
424.13	3452.29
424.32	3744.86
424.50	4023.38
424.69	3983.59
424.88	3992.95
425.07	3859.54
425.26	3925.08
425.45	3974.23
425.64	3885.29
425.83	3939.12
426.01	4072.53
426.20	4065.51
426.39	4067.85
426.58	3957.85
426.77	3967.21
426.96	3845.50
427.15	3978.91
427.33	4105.30
427.52	4004.66
427.71	4135.73
427.90	4161.47
428.09	4100.62
428.28	4077.21
428.46	4205.94
428.65	4067.85
428.84	4142.75
429.03	4173.18
429.22	4030.40
429.40	4124.02
429.59	4081.89
429.78	3964.87
429.97	3852.52
430.16	3953.16
430.34	4163.81
430.53	4283.18
430.72	4166.15
430.91	4224.67
431.10	4217.65
431.28	4386.16
431.47	4589.79
431.66	4690.43
431.85	4559.36
432.03	4582.77
432.22	4449.36
432.41	4678.73
432.60	4629.58
432.79	4692.77
432.97	4779.37
433.16	4676.39
433.35	4631.92
433.54	4578.09
433.72	4657.67
433.91	4554.68
434.10	4699.80
434.28	4814.48
434.47	4814.48
434.66	5008.75
434.85	4812.14
435.03	4865.97
435.22	4943.21
435.41	5121.09
435.59	5078.96
435.78	5034.49
435.97	5153.86
436.16	5121.09
436.34	5001.72
436.53	5214.71
436.72	5322.38
436.90	5006.41
437.09	5259.18
437.28	5071.94
437.46	5163.22
437.65	5174.92
437.84	5144.50
438.02	5165.56
438.21	5200.67
438.40	5144.50
438.58	5334.08
438.77	5350.46
438.96	5329.40
439.14	5364.51
439.33	5579.84
439.52	5685.16
439.70	5610.26
439.89	5603.24
440.08	5600.90
440.26	5596.22
440.45	5792.83
440.63	5994.11
440.82	5980.07
441.01	5820.91
441.19	5980.07
441.38	6094.76
441.57	6141.57
441.75	6118.16
441.94	6235.19
442.12	6368.60
442.31	6286.68
442.50	6342.85
442.68	6384.98
442.87	6230.51
443.05	6092.41
443.24	6417.75
443.43	6448.18
443.61	6331.15
443.80	6502.01
443.98	6333.49
444.17	6232.85
444.35	6420.09
444.54	6661.16
444.73	6455.20
444.91	6471.58
445.10	6567.54
445.28	6616.69
445.47	6373.28
445.65	6298.38
445.84	6424.77
446.02	6492.65
446.21	6530.09
446.39	6700.95
446.58	6588.61
446.77	6530.09
446.95	6595.63
447.14	6766.49
447.32	6647.12
447.51	6817.98
447.69	6541.80
447.88	6661.16
448.06	6649.46
448.25	6679.89
448.43	6607.33
448.62	6555.84
448.80	6932.67
448.99	6726.70
449.17	6897.56
449.36	6717.34
449.54	6881.18
449.73	7077.78
449.91	7098.84
450.10	7208.85
450.28	7286.09
450.46	7119.91
450.65	7211.19
450.83	7272.04
451.02	7068.42
451.20	7304.81
451.39	7229.91
451.57	7101.19
451.76	7300.13
451.94	7323.54
452.13	7204.17
452.31	7138.63
452.49	7063.74
452.68	7272.04
452.86	7180.76
453.05	7372.69
453.23	7176.08
453.42	7164.38
453.60	7119.91
453.78	7571.63
453.97	7456.95
454.15	7342.26
454.34	7318.86
454.52	7552.91
454.70	7478.01
454.89	7623.12
455.07	7616.10
455.26	7632.49
455.44	7513.12
455.62	7573.97
455.81	7712.07
455.99	7906.33
456.17	7777.60
456.36	7777.60
456.54	7990.59
456.73	8065.49
456.91	8006.97
457.09	8042.08
457.28	8313.58
457.46	7964.84
457.64	8203.58
457.83	8124.00
458.01	8039.74
458.19	8189.53
458.38	8016.33
458.56	8290.18
458.74	8259.75
458.93	8226.98
459.11	8166.13
459.29	8428.27
459.48	8290.18
459.66	8362.73
459.84	8266.77
460.03	8674.03
460.21	8294.86
460.39	8552.32
460.57	8617.85
460.76	8383.80
460.94	8662.32
461.12	8688.07
461.31	8617.85
461.49	8549.98
461.67	8599.13
461.85	8865.95
462.04	8615.51
462.22	8917.44
462.40	8791.05
462.59	8847.22
462.77	8835.52
462.95	8898.72
463.13	8936.17
463.32	8861.27
463.50	8870.63
463.68	9132.77
463.86	9104.68
464.05	8865.95
464.23	8905.74
464.41	8950.21
464.59	8833.18
464.78	9041.49
464.96	8889.35
465.14	8905.74
465.32	9121.07
465.50	9191.28
465.69	9233.41
465.87	9301.29
466.05	9451.08
466.23	9310.65
466.41	9289.59
466.60	9441.72
466.78	9160.86
466.96	9249.80
467.14	9139.79
467.32	9523.64
467.51	9561.09
467.69	9006.38
467.87	9458.10
468.05	9525.98
468.23	9394.91
468.41	9392.57
468.60	9535.34
468.78	9425.34
468.96	9579.81
469.14	9720.24
469.32	9554.07
469.50	9331.72
469.69	9797.48
469.87	9830.25
470.05	9989.41
470.23	9647.69
470.41	9731.95
470.59	9851.31
470.77	9762.37
470.95	9898.13
471.14	10073.67
471.32	9996.43
471.50	10073.67
471.68	10253.89
471.86	10188.35
472.04	10298.36
472.22	10494.96
472.40	10239.84
472.58	10291.34
472.77	10480.92
472.95	10579.22
473.13	10733.70
473.31	10548.79
473.49	10600.29
473.67	10593.26
473.85	10815.62
474.03	10740.72
474.21	10944.34
474.39	11201.80
474.57	10988.82
474.75	11005.20
474.93	11157.33
475.12	11115.20
475.30	11375.00
475.48	11087.12
475.66	11456.92
475.84	11005.20
476.02	11232.23
476.20	11300.11
476.38	11669.91
476.56	12037.38
476.74	11665.23
476.92	11800.98
477.10	11845.45
477.28	12093.55
477.46	11824.39
477.64	12388.46
477.82	12388.46
478.00	12688.04
478.18	12425.90
478.36	12552.29
478.54	12807.41
478.72	12903.37
478.90	12964.23
479.08	12966.57
479.26	13074.23
479.44	13135.09
479.62	13022.74
479.80	13165.51
479.98	13401.91
480.16	13558.72
480.34	13631.28
480.52	13675.75
480.70	13549.36
480.88	13586.81
481.06	13701.50
481.24	13825.54
481.41	14207.05
481.59	14174.28
481.77	14295.99
481.95	14752.40
482.13	14635.37
482.31	14494.94
482.49	14766.44
482.67	14836.66
482.85	15122.20
483.03	15253.27
483.21	15468.60
483.39	15293.06
483.57	15133.90
483.74	15288.38
483.92	15803.30
484.10	15597.33
484.28	15768.19
484.46	15906.28
484.64	16367.37
484.82	16072.46
485.00	16152.04
485.18	16318.22
485.35	16451.63
485.53	16023.31
485.71	16121.61
485.89	16315.87
486.07	16552.27
486.25	16460.99
486.43	16741.85
486.61	17099.95
486.78	17268.47
486.96	17366.78
487.14	17549.34
487.32	17612.53
487.50	17769.35
487.68	18111.07
487.85	18321.71
488.03	18293.63
488.21	18771.10
488.39	18450.44
488.57	18675.13
488.75	18719.60
488.92	18855.36
489.10	19269.63
489.28	19227.50
489.46	19857.10
489.64	19564.54
489.81	19985.83
489.99	20421.17
490.17	19978.81
490.35	20060.73
490.53	19988.18
490.70	20224.57
490.88	20559.27
491.06	20442.24
491.24	20552.24
491.41	20704.38
491.59	20559.27
491.77	20706.72
491.95	20987.58
492.13	21303.56
492.30	21420.58
492.48	21745.92
492.66	21717.83
492.84	21631.23
493.01	22134.45
493.19	22036.14
493.37	21982.31
493.54	22253.81
493.72	22419.99
493.90	22623.62
494.08	22686.81
494.25	22960.66
494.43	23033.21
494.61	23559.83
494.79	23229.82
494.96	23367.91
495.14	23377.27
495.32	23365.57
495.49	23461.53
495.67	23838.36
495.85	23978.79
496.02	24367.32
496.20	23957.72
496.38	24643.50
496.55	24465.62
496.73	25003.94
496.91	24975.86
497.09	24884.58
497.26	24964.15
497.44	25046.07
497.62	25088.20
497.79	25518.86
497.97	25088.20
498.14	25504.82
498.32	25282.47
498.50	25504.82
498.67	25706.10
498.85	26064.21
499.03	25998.67
499.20	25792.70
499.38	26125.06
499.56	26483.16
499.73	26260.81
499.91	26541.68
500.08	26609.55
500.26	26253.79
500.44	26532.31
500.61	26820.20
500.79	26548.70
500.97	26448.05
501.14	27056.59
501.32	27042.55
501.49	26869.35
501.67	26960.63
501.84	27243.84
502.02	27260.22
502.20	27667.47
502.37	28084.09
502.55	27747.05
502.72	27920.25
502.90	28276.01
503.07	27578.53
503.25	27906.21
503.43	27665.13
503.60	27655.77
503.78	27756.41
503.95	28194.09
504.13	28833.06
504.30	28800.29
504.48	28318.14
504.65	28856.46
504.83	29261.38
505.01	29228.61
505.18	29050.73
505.36	29324.57
505.53	29198.18
505.71	29216.91
505.88	29509.47
506.06	29237.97
506.23	29804.38
506.41	29537.56
506.58	29507.13
506.76	29703.74
506.93	30157.80
507.11	29682.67
507.28	29834.81
507.46	29851.19
507.63	30022.05
507.81	30375.47
507.98	29986.94
508.16	30614.21
508.33	30707.83
508.50	30614.21
508.68	30679.74
508.85	30969.97
509.03	30672.72
509.20	31318.71
509.38	30859.96
509.55	31365.52
509.73	31227.43
509.90	31442.76
510.08	31311.69
510.25	31454.46
510.42	31377.22
510.60	31632.34
510.77	31452.12
510.95	31948.31
511.12	32011.51
511.30	32137.90
511.47	32421.10
511.64	32060.66
511.82	32451.53
511.99	32245.56
512.17	32381.31
512.34	31749.37
512.51	32325.14
512.69	32458.55
512.86	32393.01
513.04	32938.36
513.21	32437.48
513.38	32615.37
513.56	32643.45
513.73	32474.93
513.90	32753.46
514.08	32795.59
514.25	33015.60
514.43	32603.66
514.60	33078.79
514.77	33308.16
514.95	33574.98
515.12	33418.17
515.29	33682.65
515.47	33530.51
515.64	33998.62
515.81	33488.38
515.99	34209.27
516.16	33537.54
516.33	33312.84
516.51	33408.81
516.68	33132.62
516.85	33242.63
517.03	33703.71
517.20	34216.29
517.37	34218.63
517.54	34417.58
517.72	34033.73
517.89	33649.88
518.06	33577.33
518.24	34204.59
518.41	33916.70
518.58	34490.13
518.75	34436.30
518.93	34604.82
519.10	34656.31
519.27	34635.25
519.45	34813.13
519.62	34771.00
519.79	35363.15
519.96	34892.71
520.14	35129.10
520.31	34962.92
520.48	35236.77
520.65	35484.86
520.83	35477.84
521.00	35550.40
521.17	35910.84
521.34	35990.42
521.52	35938.93
521.69	36002.12
521.86	36165.96
522.03	36201.07
522.20	36285.33
522.38	36074.68
522.55	36339.16
522.72	36400.01
522.89	36428.10
523.07	36828.33
523.24	36591.94
523.41	36601.30
523.58	36842.37
523.75	37109.19
523.92	37411.12
524.10	37223.88
524.27	36783.86
524.44	36727.69
524.61	37544.53
524.78	37500.06
524.96	37223.88
525.13	37530.49
525.30	37783.27
525.47	37516.45
525.64	37406.44
525.81	37479.00
525.98	37270.69
526.16	37029.62
526.33	36947.70
526.50	37504.74
526.67	37387.72
526.84	37085.79
527.01	37546.87
527.18	37853.48
527.36	37935.40
527.53	38307.55
527.70	38625.86
527.87	38293.50
528.04	37956.47
528.21	38574.37
528.38	38497.13
528.55	38639.90
528.72	38539.26
528.89	38667.99
529.07	38141.37
529.24	38513.52
529.41	38658.63
529.58	38211.59
529.75	38710.12
529.92	38557.99
530.09	38562.67
530.26	38855.23
530.43	39175.89
530.60	39316.32
530.77	39136.10
530.94	39367.81
531.11	39035.45
531.28	39290.57
531.46	39508.24
531.63	39470.79
531.80	38953.54
531.97	39267.17
532.14	39374.83
532.31	39229.72
532.48	39077.58
532.65	39615.91
532.82	39428.66
532.99	39318.66
533.16	39508.24
533.33	39854.64
533.50	40112.10
533.67	39915.50
533.84	39969.33
534.01	40435.10
534.18	40135.51
534.35	40231.47
534.52	39672.08
534.69	40491.27
534.86	40264.24
535.03	40140.19
535.20	40821.28
535.37	41179.39
535.54	40870.43
535.71	40854.05
535.88	40870.43
536.05	40435.10
536.22	40657.45
536.38	40624.68
536.55	40502.97
536.72	40954.69
536.89	40168.27
537.06	40451.48
537.23	40793.20
537.40	40994.48
537.57	41214.49
537.74	41102.15
537.91	41146.62
538.08	40847.03
538.25	40638.72
538.42	40921.93
538.59	41116.19
538.75	40919.59
538.92	40856.39
539.09	41308.11
539.26	41060.02
539.43	41284.71
539.60	41551.53
539.77	41064.70
539.94	41083.42
540.11	41062.36
540.28	41130.23
540.44	41429.82
540.61	41378.33
540.78	41148.96
540.95	41792.61
541.12	41579.62
541.29	41888.57
541.46	41642.81
541.62	41614.72
541.79	42033.68
541.96	41312.80
542.13	41450.89
542.30	41764.52
542.47	41876.86
542.63	42038.36
542.80	41865.16
542.97	42211.56
543.14	42504.13
543.31	42417.53
543.48	42373.06
543.64	42646.90
543.81	42728.82
543.98	42522.85
544.15	42845.85
544.32	42490.09
544.48	42864.57
544.65	42829.46
544.82	42595.41
544.99	42777.97
545.16	43033.09
545.32	42307.52
545.49	43339.70
545.66	43016.71
545.83	43569.07
546.00	43278.85
546.16	43271.82
546.33	43000.32
546.50	42803.72
546.67	43082.24
546.83	42981.60
547.00	43047.13
547.17	42986.28
547.34	42902.02
547.50	43126.71
547.67	43590.14
547.84	43342.04
548.00	43943.56
548.17	44231.44
548.34	43632.27
548.51	43636.95
548.67	43592.48
548.84	43611.20
549.01	43253.10
549.18	43592.48
549.34	43475.45
549.51	43632.27
549.68	43573.75
549.84	44060.58
550.01	43871.00
550.18	43878.02
550.34	43786.74
550.51	43880.36
550.68	43718.87
550.84	43452.05
551.01	43992.71
551.18	43981.01
551.34	44044.20
551.51	44261.87
551.68	44083.99
551.84	44343.79
552.01	44027.82
552.18	44322.72
552.34	44123.78
552.51	44231.44
552.68	43973.98
552.84	44161.23
553.01	44378.90
553.18	44559.12
553.34	44315.70
553.51	44240.81
553.67	44467.84
553.84	44973.39
554.01	44587.21
554.17	44741.68
554.34	44322.72
554.51	44217.40
554.67	44858.71
554.84	44601.25
555.00	44385.92
555.17	44252.51
555.33	44835.30
555.50	44608.27
555.67	44535.71
555.83	44823.60
556.00	44664.44
556.16	45373.63
556.33	44816.58
556.50	44605.93
556.66	45139.57
556.83	44315.70
556.99	44985.10
557.16	44535.71
557.32	45425.12
557.49	45277.66
557.65	44603.59
557.82	45347.88
557.98	44788.49
558.15	44921.90
558.32	44591.89
558.48	44594.23
558.65	44734.66
558.81	44952.33
558.98	44985.10
559.14	45067.02
559.31	45104.46
559.47	45076.38
559.64	44793.17
559.80	45518.74
559.97	45401.71
560.13	44910.20
560.30	45282.34
560.46	45411.07
560.63	45301.07
560.79	45254.26
560.96	45394.69
561.12	45013.18
561.29	45017.86
561.45	45251.92
561.61	45464.91
561.78	45118.51
561.94	45221.49
562.11	45106.80
562.27	45240.21
562.44	45310.43
562.60	45713.00
562.77	45631.08
562.93	45055.31
563.10	45832.37
563.26	44832.96
563.42	45694.28
563.59	44776.79
563.75	45390.01
563.92	45727.05
564.08	45322.13
564.24	45911.95
564.41	45413.41
564.57	45680.24
564.74	45668.53
564.90	45654.49
565.07	45633.42
565.23	45329.16
565.39	45586.61
565.56	45689.60
565.72	45439.16
565.88	45605.34
566.05	45485.97
566.21	45535.12
566.38	45301.07
566.54	45455.54
566.70	45958.76
566.87	45797.26
567.03	45333.84
567.19	45989.19
567.36	45883.86
567.52	45509.38
567.68	45631.08
567.85	45614.70
568.01	45888.54
568.17	45366.60
568.34	45691.94
568.50	45780.88
568.66	45469.59
568.83	45853.44
568.99	45649.81
569.15	45846.41
569.32	45404.05
569.48	45352.56
569.64	45865.14
569.81	45947.06
569.97	45495.33
570.13	45628.74
570.30	45586.61
570.46	45441.50
570.62	45366.60
570.78	45574.91
570.95	45488.31
571.11	45872.16
571.27	45317.45
571.43	45392.35
571.60	46085.15
571.76	46054.72
571.92	45853.44
572.09	46012.59
572.25	45584.27
572.41	45918.97
572.57	46450.27
572.74	46103.87
572.90	46017.27
573.06	45560.87
573.22	46197.49
573.38	45977.48
573.55	45603.00
573.71	45783.22
573.87	45918.97
574.03	45815.99
574.20	46169.41
574.36	45933.01
574.52	45841.73
574.68	45879.18
574.84	46122.60
575.01	45514.06
575.17	45462.57
575.33	46054.72
575.49	45544.48
575.65	46174.09
575.82	46031.32
575.98	45766.84
576.14	46134.30
576.30	46417.50
576.46	45958.76
576.62	45921.31
576.79	45895.56
576.95	45610.02
577.11	46248.99
577.27	46169.41
577.43	45724.71
577.59	45682.58
577.75	45666.19
577.92	45588.95
578.08	45441.50
578.24	45429.80
578.40	46061.74
578.56	45904.93
578.72	46129.62
578.88	46040.68
579.04	46309.84
579.21	45830.03
579.37	45553.85
579.53	45876.84
579.69	45790.24
579.85	45825.35
580.01	46054.72
580.17	46014.93
580.33	46092.17
580.49	46087.49
580.65	46010.25
580.82	45876.84
580.98	45710.66
581.14	45675.55
581.30	46391.76
581.46	46021.95
581.62	45928.33
581.78	45940.04
581.94	46485.38
582.10	45841.73
582.26	46422.19
582.42	46026.63
582.58	46103.87
582.74	45949.40
582.90	46057.06
583.06	46366.01
583.22	45764.49
583.38	45883.86
583.54	46122.60
583.70	46094.51
583.86	46094.51
584.02	45904.93
584.18	46452.61
584.34	46108.55
584.50	46190.47
584.66	46094.51
584.82	45834.71
584.98	46134.30
585.14	46281.75
585.30	45823.01
585.46	46300.48
585.62	46202.18
585.78	46122.60
585.94	45539.80
586.10	46094.51
586.26	46124.94
586.42	45799.60
586.58	46267.71
586.74	46188.13
586.90	46026.63
587.06	46209.20
587.22	45635.77
587.38	46031.32
587.54	46363.67
587.70	46181.11
587.86	46174.09
588.02	46026.63
588.18	45923.65
588.34	45977.48
588.49	45420.44
588.65	45691.94
588.81	45574.91
588.97	45736.41
589.13	45785.56
589.29	45673.21
589.45	46141.32
589.61	45853.44
589.77	46026.63
589.93	46061.74
590.08	46005.57
