SpectraSuite Data File
++++++++++++++++++++++++++++++++++++
Date: Fri Oct 25 11:24:09 EDT 2013
User: price-jones
Dark Spectrum Present: No
Reference Spectrum Present: No
Number of Sampled Component Spectra: 1
Spectrometers: USB2+H05261
Integration Time (usec): 100000 (USB2+H05261)
Spectra Averaged: 1 (USB2+H05261)
Boxcar Smoothing: 0 (USB2+H05261)
Correct for Electrical Dark: No (USB2+H05261)
Strobe/Lamp Enabled: No (USB2+H05261)
Correct for Detector Non-linearity: No (USB2+H05261)
Correct for Stray Light: No (USB2+H05261)
Number of Pixels in Processed Spectrum: 2048
>>>>>Begin Processed Spectral Data<<<<<
365.73	229.37
365.92	229.37
366.12	229.37
366.32	72.56
366.52	138.09
366.72	159.16
366.91	135.75
367.11	159.16
367.31	166.18
367.51	121.71
367.70	208.31
367.90	117.03
368.10	135.75
368.30	133.41
368.49	227.03
368.69	145.11
368.89	173.20
369.09	149.79
369.28	133.41
369.48	177.88
369.68	248.10
369.87	138.09
370.07	210.65
370.27	208.31
370.47	381.51
370.66	554.71
370.86	650.67
371.06	596.84
371.25	653.01
371.45	610.88
371.65	718.54
371.84	624.92
372.04	713.86
372.24	664.71
372.44	671.73
372.63	730.25
372.83	695.14
373.03	678.76
373.22	828.55
373.42	777.06
373.62	777.06
373.81	814.51
374.01	788.76
374.21	823.87
374.40	720.88
374.60	816.85
374.79	861.32
374.99	858.98
375.19	880.04
375.38	856.64
375.58	882.38
375.78	861.32
375.97	807.48
376.17	966.64
376.37	898.77
376.56	861.32
376.76	924.51
376.95	884.72
377.15	889.40
377.35	901.11
377.54	919.83
377.74	922.17
377.93	915.15
378.13	889.40
378.33	875.36
378.52	952.60
378.72	931.53
378.91	1034.52
379.11	968.98
379.31	994.73
379.50	842.59
379.70	978.34
379.89	999.41
380.09	926.85
380.28	980.68
380.48	978.34
380.68	922.17
380.87	1069.62
381.07	1064.94
381.26	1022.81
381.46	985.37
381.65	1015.79
381.85	1064.94
382.04	1055.58
382.24	1029.84
382.43	1046.22
382.63	1050.90
382.83	1109.41
383.02	1086.01
383.22	1067.28
383.41	1130.48
383.61	1076.65
383.80	1226.44
384.00	1067.28
384.19	1093.03
384.39	1163.25
384.58	1132.82
384.78	1151.54
384.97	1167.93
385.17	1205.38
385.36	1256.87
385.56	1188.99
385.75	1062.60
385.95	1160.91
386.14	1139.84
386.34	1212.40
386.53	1259.21
386.72	1174.95
386.92	1137.50
387.11	1121.12
387.31	1242.82
387.50	1184.31
387.70	1268.57
387.89	1277.93
388.09	1240.48
388.28	1249.85
388.48	1390.28
388.67	1380.92
388.86	1296.66
389.06	1350.49
389.25	1348.15
389.45	1357.51
389.64	1296.66
389.84	1397.30
390.03	1364.53
390.22	1329.42
390.42	1355.17
390.61	1387.94
390.81	1376.24
391.00	1425.39
391.19	1446.45
391.39	1453.47
391.58	1570.50
391.78	1399.64
391.97	1465.18
392.16	1458.15
392.36	1511.99
392.55	1451.13
392.75	1530.71
392.94	1500.28
393.13	1530.71
393.33	1521.35
393.52	1600.93
393.71	1621.99
393.91	1519.01
394.10	1544.75
394.29	1591.56
394.49	1621.99
394.68	1575.18
394.88	1654.76
395.07	1774.13
395.26	1757.74
395.46	1722.63
395.65	1710.93
395.84	1626.67
396.04	1692.21
396.23	1722.63
396.42	1680.50
396.62	1820.94
396.81	1781.15
397.00	1825.62
397.19	1830.30
397.39	1785.83
397.58	1839.66
397.77	1830.30
397.97	1952.01
398.16	1851.36
398.35	1884.13
398.55	1891.15
398.74	1952.01
398.93	2092.44
399.12	1940.30
399.32	1940.30
399.51	1870.09
399.70	2071.37
399.90	2097.12
400.09	1954.35
400.28	1996.48
400.47	2008.18
400.67	2064.35
400.86	1982.43
401.05	2031.58
401.24	2005.84
401.44	2148.61
401.63	2186.06
401.82	2176.70
402.01	2080.74
402.21	2136.91
402.40	2307.77
402.59	2258.62
402.78	2284.36
402.97	2410.75
403.17	2289.04
403.36	2237.55
403.55	2272.66
403.74	2340.54
403.93	2328.83
404.13	2296.07
404.32	2324.15
404.51	2448.20
404.70	2502.03
404.89	2382.67
405.09	2530.12
405.28	2502.03
405.47	2637.78
405.66	2532.46
405.85	2506.71
406.05	2520.76
406.24	2558.21
406.43	2677.57
406.62	2523.10
406.81	2656.51
407.00	2605.02
407.20	2647.15
407.39	2565.23
407.58	2626.08
407.77	2712.68
407.96	2724.38
408.15	2794.60
408.34	2780.56
408.54	2658.85
408.73	2684.59
408.92	2906.95
409.11	2949.08
409.30	3016.95
409.49	2963.12
409.68	2944.39
409.87	2991.20
410.07	2972.48
410.26	3084.83
410.45	3000.57
410.64	3253.34
410.83	2923.33
411.02	3136.32
411.21	3190.15
411.40	3239.30
411.59	3342.28
411.78	3115.25
411.98	3288.45
412.17	3304.84
412.36	3309.52
412.55	3325.90
412.74	3459.31
412.93	3442.93
413.12	3295.47
413.31	3625.49
413.50	3604.42
413.69	3405.48
413.88	3634.85
414.07	3669.96
414.26	3529.53
414.45	3609.11
414.64	3705.07
414.83	3768.26
415.02	3782.31
415.22	3770.60
415.41	3812.73
415.60	3838.48
415.79	3992.95
415.98	3918.06
416.17	4023.38
416.36	3878.27
416.55	3875.93
416.74	4135.73
416.93	4032.74
417.12	4131.05
417.31	4196.58
417.50	4318.29
417.69	4194.24
417.88	4374.46
418.07	4255.09
418.26	4386.16
418.45	4365.10
418.64	4510.21
418.83	4477.44
419.02	4463.40
419.21	4564.04
419.39	4521.92
419.58	4472.76
419.77	4444.68
419.96	4449.36
420.15	4512.55
420.34	4531.28
420.53	4716.18
420.72	4791.08
420.91	4599.15
421.10	4744.27
421.29	4933.85
421.48	4758.31
421.67	4805.12
421.86	4779.37
422.05	4943.21
422.24	4826.18
422.43	4816.82
422.61	4978.32
422.80	4823.84
422.99	4840.23
423.18	4884.70
423.37	5034.49
423.56	4891.72
423.75	5001.72
423.94	4856.61
424.13	4685.75
424.32	4924.49
424.50	4997.04
424.69	5069.60
424.88	5074.28
425.07	4983.00
425.26	4952.57
425.45	4926.83
425.64	4856.61
425.83	5132.79
426.01	5160.88
426.20	5008.75
426.39	5167.90
426.58	4990.02
426.77	5132.79
426.96	5205.35
427.15	5057.90
427.33	5317.70
427.52	5146.84
427.71	5207.69
427.90	5364.51
428.09	5331.74
428.28	5350.46
428.46	5558.77
428.65	5329.40
428.84	5533.03
429.03	5558.77
429.22	5366.85
429.40	5458.13
429.59	5638.35
429.78	5399.62
429.97	5500.26
430.16	5537.71
430.34	5659.42
430.53	5764.74
430.72	5558.77
430.91	5750.70
431.10	5755.38
431.28	5722.61
431.47	5750.70
431.66	5844.32
431.85	5844.32
432.03	6003.47
432.22	5926.24
432.41	6057.31
432.60	6061.99
432.79	6012.84
432.97	6022.20
433.16	6113.48
433.35	6052.63
433.54	6106.46
433.72	6143.91
433.91	6193.06
434.10	6162.63
434.28	6104.12
434.47	6232.85
434.66	6310.08
434.85	6604.99
435.03	6392.00
435.22	6319.45
435.41	6614.35
435.59	6406.05
435.78	6523.07
435.97	6623.72
436.16	6569.88
436.34	6684.57
436.53	6672.87
436.72	6771.17
436.90	6562.86
437.09	6794.58
437.28	6572.22
437.46	6656.48
437.65	6609.67
437.84	6913.94
438.02	6736.06
438.21	6736.06
438.40	6799.26
438.58	6967.77
438.77	7009.90
438.96	7007.56
439.14	7133.95
439.33	7272.04
439.52	7466.31
439.70	7321.20
439.89	7494.40
440.08	7286.09
440.26	7424.18
440.45	7353.96
440.63	7503.76
440.82	7641.85
441.01	7613.76
441.19	7815.05
441.38	7747.17
441.57	7740.15
441.75	8023.36
441.94	7967.18
442.12	7871.22
442.31	8119.32
442.50	7990.59
442.68	8025.70
442.87	8217.62
443.05	8210.60
443.24	8035.06
443.43	8201.24
443.61	8388.48
443.80	8526.57
443.98	8131.02
444.17	7892.29
444.35	8379.12
444.54	8346.35
444.73	8407.20
444.91	8421.25
445.10	8566.36
445.28	8407.20
445.47	8519.55
445.65	8414.23
445.84	8379.12
446.02	8699.77
446.21	8592.11
446.39	8416.57
446.58	8559.34
446.77	8332.31
446.95	8318.26
447.14	8535.93
447.32	8744.24
447.51	8446.99
447.69	8428.27
447.88	8777.01
448.06	8573.38
448.25	8606.15
448.43	8664.66
448.62	8678.71
448.80	8517.21
448.99	8662.32
449.17	8762.97
449.36	8854.25
449.54	8908.08
449.73	9027.45
449.91	9107.02
450.10	8929.14
450.28	9273.20
450.46	9118.73
450.65	9280.22
450.83	9170.22
451.02	9144.47
451.20	9493.21
451.39	9100.00
451.57	9207.67
451.76	9186.60
451.94	9359.80
452.13	9406.61
452.31	9355.12
452.49	9277.88
452.68	9465.13
452.86	9364.48
453.05	9727.27
453.23	9591.52
453.42	9586.83
453.60	9577.47
453.78	9694.50
453.97	9537.68
454.15	9769.40
454.34	9624.28
454.52	9764.72
454.70	9748.33
454.89	9825.57
455.07	9865.36
455.26	9865.36
455.44	10202.40
455.62	9748.33
455.81	10064.30
455.99	10162.61
456.17	10164.95
456.36	10232.82
456.54	10410.70
456.73	10249.21
456.91	10445.81
457.09	10537.09
457.28	10630.71
457.46	10267.93
457.64	10609.65
457.83	10548.79
458.01	10361.55
458.19	10857.75
458.38	10499.64
458.56	10640.08
458.74	10782.85
458.93	10705.61
459.11	10834.34
459.29	10752.42
459.48	10934.98
459.66	10953.71
459.84	11208.83
460.03	11140.95
460.21	11007.54
460.39	11101.16
460.57	10916.26
460.76	11220.53
460.94	11096.48
461.12	11124.57
461.31	11297.77
461.49	11363.30
461.67	11192.44
461.85	11470.97
462.04	11428.84
462.22	11948.43
462.40	11595.01
462.59	11676.93
462.77	11499.05
462.95	11775.24
463.13	11639.48
463.32	11733.11
463.50	11749.49
463.68	11754.17
463.86	11941.41
464.05	11800.98
464.23	12023.33
464.41	12039.72
464.59	12035.03
464.78	12168.45
464.96	12023.33
465.14	11983.54
465.32	12255.04
465.50	12011.63
465.69	12201.21
465.87	12203.55
466.05	12231.64
466.23	12493.78
466.41	12205.89
466.60	12662.30
466.78	12517.18
466.96	12409.52
467.14	12170.79
467.32	12571.02
467.51	12627.19
467.69	12156.74
467.87	12699.75
468.05	12683.36
468.23	12535.91
468.41	12711.45
468.60	12784.01
468.78	12954.87
468.96	12901.03
469.14	13046.15
469.32	13160.83
469.50	12786.35
469.69	13022.74
469.87	13329.35
470.05	13034.44
470.23	13394.89
470.41	13324.67
470.59	13399.57
470.77	13327.01
470.95	13186.58
471.14	13841.93
471.32	13224.03
471.50	13928.53
471.68	13525.96
471.86	13741.29
472.04	13916.83
472.22	14029.17
472.40	13778.73
472.58	13799.80
472.77	13680.43
472.95	14181.31
473.13	14750.06
473.31	14242.16
473.49	14274.93
473.67	14284.29
473.85	14466.85
474.03	14544.09
474.21	14565.15
474.39	14824.95
474.57	14869.42
474.75	15211.14
474.93	15068.37
475.12	14881.13
475.30	15300.08
475.48	15199.44
475.66	15243.91
475.84	15391.36
476.02	15506.05
476.20	15737.76
476.38	15723.72
476.56	16107.57
476.74	16257.36
476.92	15758.83
477.10	16112.25
477.28	16432.90
477.46	16493.76
477.64	16781.64
477.82	16854.20
478.00	16802.71
478.18	16912.71
478.36	17139.74
478.54	17455.72
478.72	16924.41
478.90	17633.60
479.08	17825.52
479.26	17860.63
479.44	17879.35
479.62	18010.42
479.80	17940.21
479.98	18424.70
480.16	18876.42
480.34	18476.19
480.52	18843.65
480.70	18586.19
480.88	18359.16
481.06	18719.60
481.24	18981.74
481.41	19122.18
481.59	19541.13
481.77	19630.07
481.95	19552.84
482.13	19854.76
482.31	19941.36
482.49	20475.01
482.67	20336.91
482.85	20723.10
483.03	20641.18
483.21	21062.48
483.39	21036.74
483.57	20996.95
483.74	21638.25
483.92	21376.11
484.10	21411.22
484.28	21914.44
484.46	21996.35
484.64	22342.75
484.82	22178.92
485.00	22855.33
485.18	23019.17
485.35	23585.58
485.53	22757.03
485.71	23161.94
485.89	23639.41
486.07	23276.63
486.25	23496.64
486.43	23793.89
486.61	24098.16
486.78	24252.63
486.96	24669.25
487.14	24631.80
487.32	24943.09
487.50	25195.87
487.68	25233.32
487.85	25200.55
488.03	25717.81
488.21	26307.62
488.39	25965.90
488.57	26529.97
488.75	26335.71
488.92	26616.57
489.10	26867.01
489.28	26677.43
489.46	27290.65
489.64	27260.22
489.81	27833.65
489.99	27887.48
490.17	27803.22
490.35	28680.92
490.53	28393.04
490.70	28802.63
490.88	28334.53
491.06	28900.94
491.24	29202.86
491.41	29256.70
491.59	29888.64
491.77	29624.16
491.95	29652.25
492.13	30071.20
492.30	30026.73
492.48	30375.47
492.66	30359.09
492.84	30471.43
493.01	30878.69
493.19	31166.57
493.37	31580.85
493.54	31459.14
493.72	31700.22
493.90	31859.37
494.08	32016.19
494.25	32400.04
494.43	32135.56
494.61	32694.94
494.79	32945.38
494.96	32730.05
495.14	32540.47
495.32	33331.57
495.49	33221.56
495.67	33062.41
495.85	33715.42
496.02	33872.23
496.20	34134.37
496.38	34293.53
496.55	34817.81
496.73	35101.01
496.91	34782.70
497.09	34710.14
497.26	35744.66
497.44	35335.07
497.62	35475.50
497.79	35929.56
497.97	36149.57
498.14	36290.01
498.32	36474.91
498.50	36734.71
498.67	37060.04
498.85	36840.03
499.03	36751.09
499.20	37038.98
499.38	37317.50
499.56	36907.91
499.73	37411.12
499.91	38040.73
500.08	37638.15
500.26	37933.06
500.44	37940.08
500.61	38237.33
500.79	37825.40
500.97	38389.47
501.14	38770.97
501.32	38890.34
501.49	38948.85
501.67	38864.60
501.84	39409.94
502.02	39208.65
502.20	39215.68
502.37	39152.48
502.55	39519.95
502.72	39580.80
502.90	40023.16
503.07	40247.85
503.25	40243.17
503.43	40093.38
503.60	40346.15
503.78	40559.14
503.95	40367.22
504.13	40432.75
504.30	41095.13
504.48	40655.11
504.65	40687.87
504.83	41504.72
505.01	41729.41
505.18	41528.13
505.36	41965.81
505.53	41762.18
505.71	41867.50
505.88	41975.17
506.06	41858.14
506.23	42284.12
506.41	42272.42
506.58	42401.14
506.76	42586.05
506.93	42855.21
507.11	42454.98
507.28	42878.61
507.46	43164.16
507.63	43070.54
507.81	43274.16
507.98	43189.91
508.16	43110.33
508.33	43714.19
508.50	44086.33
508.68	44051.22
508.85	44222.08
509.03	44287.62
509.20	43999.73
509.38	44631.68
509.55	44870.41
509.73	44912.54
509.90	44980.42
510.08	44825.94
510.25	44942.97
510.42	45443.84
510.60	45289.37
510.77	45560.87
510.95	45659.17
511.12	45448.52
511.30	45567.89
511.47	45574.91
511.64	46167.07
511.82	46710.07
511.99	46078.13
512.17	46469.00
512.34	46382.40
512.51	46876.25
512.69	46731.14
512.86	46480.70
513.04	46768.58
513.21	46689.01
513.38	46944.12
513.56	46932.42
513.73	46906.68
513.90	47351.38
514.08	47257.76
514.25	47562.03
514.43	47611.18
514.60	48200.99
514.77	47498.83
514.95	47821.83
515.12	47760.97
515.29	48067.58
515.47	48364.83
515.64	48322.70
515.81	48587.18
515.99	48732.29
516.16	48992.09
516.33	48856.34
516.51	49228.49
516.68	48643.35
516.85	48968.69
517.03	49310.41
517.20	49581.91
517.37	49357.22
517.54	49179.34
517.72	49364.24
517.89	49268.28
518.06	50005.55
518.24	49663.83
518.41	50019.59
518.58	49617.02
518.75	49507.01
518.93	49949.37
519.10	49780.85
519.27	50653.87
519.45	50150.66
519.62	49930.65
519.79	50277.05
519.96	50232.58
520.14	50600.04
520.31	50609.40
520.48	50834.10
520.65	50316.84
520.83	50714.73
521.00	50880.91
521.17	50820.05
521.34	50684.30
521.52	50890.27
521.69	51330.29
521.86	51208.58
522.03	51330.29
522.20	51480.08
522.38	51650.94
522.55	51524.55
522.72	51660.30
522.89	51646.26
523.07	52315.65
523.24	51901.38
523.41	51924.78
523.58	51536.26
523.75	51948.19
523.92	51751.59
524.10	52009.04
524.27	52336.72
524.44	52320.34
524.61	52343.74
524.78	52210.33
524.96	52339.06
525.13	52526.30
525.30	52449.06
525.47	52598.86
525.64	52465.45
525.81	52903.13
525.98	52959.30
526.16	52837.59
526.33	52973.34
526.50	52992.07
526.67	53251.87
526.84	53329.11
527.01	52999.09
527.18	53169.95
527.36	53226.12
527.53	53099.73
527.70	53759.76
527.87	53584.22
528.04	53277.61
528.21	53724.66
528.38	53521.03
528.55	53902.54
528.72	53375.92
528.89	53647.42
529.07	53682.53
529.24	53694.23
529.41	54064.03
529.58	53956.37
529.75	54106.16
529.92	53939.99
530.09	54024.25
530.26	54286.39
530.43	54291.07
530.60	54227.87
530.77	54272.34
530.94	54548.53
531.11	54206.81
531.28	54485.33
531.46	54548.53
531.63	54344.90
531.80	54375.33
531.97	54714.70
532.14	54518.10
532.31	54768.54
532.48	54920.67
532.65	54904.29
532.82	54801.30
532.99	54869.18
533.16	54745.13
533.33	54955.78
533.50	55063.44
533.67	55002.59
533.84	55016.63
534.01	55107.91
534.18	55194.51
534.35	55304.52
534.52	55278.77
534.69	55550.27
534.86	55543.25
535.03	55437.93
535.20	55330.26
535.37	55693.05
535.54	55496.44
535.71	55522.19
535.88	55622.83
536.05	55669.64
536.22	55730.50
536.38	55922.42
536.55	55784.33
536.72	55796.03
536.89	55681.34
537.06	55627.51
537.23	56168.18
537.40	55840.50
537.57	55812.41
537.74	55922.42
537.91	55978.59
538.08	56355.42
538.25	55817.10
538.42	56046.47
538.59	56296.91
538.75	56191.58
538.92	56626.92
539.09	56573.09
539.26	56397.55
539.43	56177.54
539.60	56238.39
539.77	56491.17
539.94	56662.03
540.11	56526.28
540.28	56645.65
540.44	56736.93
540.61	56350.74
540.78	56692.46
540.95	56612.88
541.12	56390.53
541.29	56853.95
541.46	56697.14
541.62	56860.97
541.79	57010.77
541.96	56547.34
542.13	56748.63
542.30	56788.42
542.47	57109.07
542.63	56952.26
542.80	57153.54
542.97	57198.01
543.14	57134.82
543.31	57378.23
543.48	57359.51
543.64	57659.10
543.81	57535.05
543.98	57598.24
544.15	57443.77
544.32	57680.16
544.48	57846.34
544.65	57523.35
544.82	57783.15
544.99	57588.88
545.16	57724.63
545.32	57441.43
545.49	57963.37
545.66	57773.78
545.83	57755.06
546.00	57986.77
546.16	57881.45
546.33	57457.81
546.50	57535.05
546.67	58010.18
546.83	57946.98
547.00	58000.82
547.17	58047.63
547.34	58040.60
547.50	58164.65
547.67	58223.17
547.84	58195.08
548.00	58433.81
548.17	58429.13
548.34	58461.90
548.51	58258.27
548.67	58471.26
548.84	58471.26
549.01	58370.62
549.18	58405.73
549.34	58450.20
549.51	58501.69
549.68	58611.70
549.84	58677.23
550.01	58665.53
550.18	58035.92
550.34	58796.60
550.51	58670.21
550.68	58635.10
550.84	58379.98
551.01	58770.85
551.18	58782.55
551.34	58796.60
551.51	58808.30
551.68	58775.53
551.84	58775.53
552.01	58698.30
552.18	58948.73
552.34	58777.87
552.51	58960.44
552.68	58770.85
552.84	58852.77
553.01	59084.48
553.18	59007.25
553.34	59278.75
553.51	58918.31
553.67	58974.48
553.84	59007.25
554.01	59138.32
554.17	59288.11
554.34	59248.32
554.51	59138.32
554.67	59196.83
554.84	59227.26
555.00	58922.99
555.17	58969.80
555.33	59079.80
555.50	59154.70
555.67	59042.35
555.83	59215.55
556.00	59447.27
556.16	59524.50
556.33	59398.12
556.50	59538.55
556.66	59749.20
556.83	59522.16
556.99	59529.19
557.16	59664.94
557.32	59901.33
557.49	59929.42
557.65	59615.79
557.82	59690.68
557.98	59704.73
558.15	59662.60
558.32	59777.28
558.48	59543.23
558.65	59552.59
558.81	59859.20
558.98	59676.64
559.14	59732.81
559.31	60069.85
559.47	59800.69
559.64	60097.94
559.80	59821.75
559.97	60001.97
560.13	59648.55
560.30	59966.87
560.46	59845.16
560.63	59915.37
560.79	59969.21
560.96	60025.38
561.12	60156.45
561.29	59854.52
561.45	60027.72
561.61	60018.36
561.78	59894.31
561.94	59831.11
562.11	60207.94
562.27	59980.91
562.44	60212.62
562.60	60341.35
562.77	60016.02
562.93	59891.97
563.10	60259.43
563.26	59952.82
563.42	60329.65
563.59	60406.89
563.75	60156.45
563.92	60191.56
564.08	60186.88
564.24	60650.30
564.41	60292.20
564.57	60219.64
564.74	60470.08
564.90	60301.56
565.07	60346.03
565.23	60193.90
565.39	60165.81
565.56	60425.61
565.72	60247.73
565.88	60196.24
566.05	60327.31
566.21	60392.84
566.38	60336.67
566.54	60423.27
566.70	60645.62
566.87	60601.15
567.03	60383.48
567.19	60542.64
567.36	60460.72
567.52	60425.61
567.68	60697.11
567.85	60528.59
568.01	60643.28
568.17	60425.61
568.34	60404.55
568.50	60514.55
568.66	60491.15
568.83	60589.45
568.99	60481.78
569.15	60566.04
569.32	60622.22
569.48	60573.06
569.64	60701.79
569.81	60573.06
569.97	60589.45
570.13	60584.77
570.30	60458.38
570.46	60725.20
570.62	60699.45
570.78	60797.76
570.95	60601.15
571.11	60673.71
571.27	60612.85
571.43	60818.82
571.60	60886.70
571.76	60910.10
571.92	60966.27
572.09	60889.04
572.25	60711.16
572.41	60940.53
572.57	60938.19
572.74	61146.50
572.90	60750.94
573.06	60877.33
573.22	60924.14
573.38	60837.54
573.55	60933.51
573.71	61031.81
573.87	61001.38
574.03	60739.24
574.20	60928.83
574.36	60753.29
574.52	61118.41
574.68	60999.04
574.84	61057.56
575.01	60935.85
575.17	60870.31
575.33	60914.78
575.49	60872.65
575.65	60954.57
575.82	60753.29
575.98	60999.04
576.14	61303.31
576.30	61010.74
576.46	60853.93
576.62	60853.93
576.79	60987.34
576.95	60994.36
577.11	61017.77
577.27	60917.12
577.43	60966.27
577.59	60931.17
577.75	60814.14
577.92	60889.04
578.08	61043.51
578.24	60963.93
578.40	61197.99
578.56	61212.03
578.72	61106.71
578.88	61155.86
579.04	61130.11
579.21	61258.84
579.37	61373.53
579.53	60975.64
579.69	60718.18
579.85	60931.17
580.01	60947.55
580.17	60992.02
580.33	61139.47
580.49	61123.09
580.65	61132.45
580.82	61015.43
580.98	60954.57
581.14	61183.94
581.30	61146.50
581.46	61008.40
581.62	61006.06
581.78	61078.62
581.94	61125.43
582.10	61073.94
582.26	61106.71
582.42	61085.64
582.58	61059.90
582.74	60949.89
582.90	61092.66
583.06	61010.74
583.22	60889.04
583.38	60992.02
583.54	61240.12
583.70	61186.28
583.86	61172.24
584.02	60924.14
584.18	60989.68
584.34	61113.73
584.50	61188.63
584.66	60926.49
584.82	60816.48
584.98	61322.04
585.14	61212.03
585.30	61020.11
585.46	61324.38
585.62	61361.82
585.78	61197.99
585.94	61052.87
586.10	61148.84
586.26	61174.58
586.42	61293.95
586.58	61284.59
586.74	61279.91
586.90	61076.28
587.06	61188.63
587.22	61221.39
587.38	61221.39
587.54	61338.42
587.70	61427.36
587.86	61237.78
588.02	61305.65
588.18	61319.70
588.34	61212.03
