SpectraSuite Data File
++++++++++++++++++++++++++++++++++++
Date: Fri Oct 25 11:33:24 EDT 2013
User: price-jones
Dark Spectrum Present: No
Reference Spectrum Present: No
Number of Sampled Component Spectra: 1
Spectrometers: USB2+H05261
Integration Time (usec): 100000 (USB2+H05261)
Spectra Averaged: 1 (USB2+H05261)
Boxcar Smoothing: 0 (USB2+H05261)
Correct for Electrical Dark: No (USB2+H05261)
Strobe/Lamp Enabled: No (USB2+H05261)
Correct for Detector Non-linearity: No (USB2+H05261)
Correct for Stray Light: No (USB2+H05261)
Number of Pixels in Processed Spectrum: 2048
>>>>>Begin Processed Spectral Data<<<<<
365.73	276.18
365.92	276.18
366.12	276.18
366.32	187.24
366.52	147.45
366.72	173.20
366.91	168.52
367.11	182.56
367.31	187.24
367.51	191.92
367.70	196.60
367.90	220.01
368.10	201.29
368.30	217.67
368.49	182.56
368.69	138.09
368.89	215.33
369.09	210.65
369.28	201.29
369.48	217.67
369.68	210.65
369.87	205.97
370.07	187.24
370.27	259.80
370.47	339.38
370.66	470.45
370.86	440.02
371.06	533.64
371.25	596.84
371.45	540.66
371.65	498.53
371.84	547.69
372.04	524.28
372.24	552.37
372.44	645.99
372.63	653.01
372.83	662.37
373.03	596.84
373.22	643.65
373.42	688.12
373.62	580.45
373.81	615.56
374.01	533.64
374.21	620.24
374.40	596.84
374.60	685.78
374.79	688.12
374.99	676.41
375.19	629.60
375.38	631.94
375.58	606.20
375.78	704.50
375.97	648.33
376.17	777.06
376.37	688.12
376.56	650.67
376.76	667.05
376.95	669.39
377.15	648.33
377.35	734.93
377.54	695.14
377.74	732.59
377.93	669.39
378.13	697.48
378.33	723.23
378.52	706.84
378.72	748.97
378.91	664.71
379.11	704.50
379.31	777.06
379.50	704.50
379.70	725.57
379.89	788.76
380.09	690.46
380.28	692.80
380.48	716.20
380.68	760.67
380.87	688.12
381.07	807.48
381.26	798.12
381.46	814.51
381.65	763.01
381.85	746.63
382.04	807.48
382.24	800.46
382.43	826.21
382.63	823.87
382.83	678.76
383.02	870.68
383.22	760.67
383.41	664.71
383.61	763.01
383.80	791.10
384.00	814.51
384.19	833.23
384.39	837.91
384.58	849.61
384.78	821.53
384.97	826.21
385.17	821.53
385.36	823.87
385.56	753.65
385.75	819.19
385.95	840.25
386.14	868.34
386.34	877.70
386.53	793.44
386.72	866.00
386.92	908.13
387.11	870.68
387.31	833.23
387.50	945.58
387.70	905.79
387.89	863.66
388.09	889.40
388.28	931.53
388.48	875.36
388.67	908.13
388.86	992.39
389.06	940.90
389.25	880.04
389.45	922.17
389.64	985.37
389.84	1006.43
390.03	924.51
390.22	931.53
390.42	924.51
390.61	966.64
390.81	954.94
391.00	947.92
391.19	1004.09
391.39	994.73
391.58	1004.09
391.78	1013.45
391.97	1050.90
392.16	1036.86
392.36	1034.52
392.55	997.07
392.75	1064.94
392.94	1022.81
393.13	1090.69
393.33	1001.75
393.52	1076.65
393.71	1006.43
393.91	1100.05
394.10	1069.62
394.29	1086.01
394.49	1055.58
394.68	1081.33
394.88	1076.65
395.07	1203.04
395.26	1114.10
395.46	1144.52
395.65	1193.67
395.84	1231.12
396.04	1228.78
396.23	1252.19
396.42	1252.19
396.62	1261.55
396.81	1205.38
397.00	1212.40
397.19	1167.93
397.39	1170.27
397.58	1291.98
397.77	1284.95
397.97	1193.67
398.16	1224.10
398.35	1261.55
398.55	1210.06
398.74	1273.25
398.93	1350.49
399.12	1324.74
399.32	1336.45
399.51	1228.78
399.70	1385.60
399.90	1280.27
400.09	1418.36
400.28	1465.18
400.47	1369.21
400.67	1394.96
400.86	1427.73
401.05	1327.08
401.24	1399.64
401.44	1547.09
401.63	1448.79
401.82	1460.49
402.01	1441.77
402.21	1486.24
402.40	1425.39
402.59	1441.77
402.78	1500.28
402.97	1486.24
403.17	1593.90
403.36	1535.39
403.55	1570.50
403.74	1577.52
403.93	1631.35
404.13	1535.39
404.32	1519.01
404.51	1579.86
404.70	1633.69
404.89	1706.25
405.09	1729.66
405.28	1643.06
405.47	1671.14
405.66	1732.00
405.85	1809.23
406.05	1717.95
406.24	1834.98
406.43	1863.07
406.62	1757.74
406.81	1818.60
407.00	1776.47
407.20	1717.95
407.39	1767.10
407.58	1757.74
407.77	1949.67
407.96	1942.64
408.15	1856.04
408.34	1874.77
408.54	1792.85
408.73	1912.22
408.92	1916.90
409.11	1933.28
409.30	2003.50
409.49	2045.63
409.68	1987.11
409.87	1923.92
410.07	2015.20
410.26	2047.97
410.45	2122.87
410.64	2059.67
410.83	2136.91
411.02	2078.40
411.21	2122.87
411.40	2183.72
411.59	2064.35
411.78	2228.19
411.98	2317.13
412.17	2202.44
412.36	2256.28
412.55	2363.94
412.74	2431.82
412.93	2342.88
413.12	2349.90
413.31	2370.96
413.50	2354.58
413.69	2385.01
413.88	2387.35
414.07	2534.80
414.26	2469.27
414.45	2593.31
414.64	2385.01
414.83	2534.80
415.02	2609.70
415.22	2717.36
415.41	2635.44
415.60	2661.19
415.79	2691.62
415.98	2724.38
416.17	2761.83
416.36	2792.26
416.55	2768.85
416.74	2796.94
416.93	2848.43
417.12	2841.41
417.31	2925.67
417.50	2911.63
417.69	2963.12
417.88	3019.29
418.07	2867.16
418.26	2860.13
418.45	2958.44
418.64	3042.70
418.83	3084.83
419.02	2939.71
419.21	3129.30
419.39	3049.72
419.58	3063.76
419.77	3148.02
419.96	3192.49
420.15	3145.68
420.34	3152.70
420.53	3115.25
420.72	3173.77
420.91	3215.90
421.10	3258.03
421.29	3241.64
421.48	3136.32
421.67	3218.24
421.86	3180.79
422.05	3426.54
422.24	3218.24
422.43	3225.26
422.61	3335.26
422.80	3342.28
422.99	3314.20
423.18	3372.71
423.37	3428.88
423.56	3471.01
423.75	3286.11
423.94	3386.76
424.13	3176.11
424.32	3398.46
424.50	3400.80
424.69	3384.41
424.88	3405.48
425.07	3316.54
425.26	3318.88
425.45	3407.82
425.64	3473.36
425.83	3562.30
426.01	3496.76
426.20	3550.59
426.39	3548.25
426.58	3330.58
426.77	3606.77
426.96	3499.10
427.15	3529.53
427.33	3485.06
427.52	3559.95
427.71	3515.48
427.90	3667.62
428.09	3576.34
428.28	3665.28
428.46	3669.96
428.65	3653.58
428.84	3845.50
429.03	3728.47
429.22	3686.34
429.40	3786.99
429.59	3789.33
429.78	3693.37
429.97	3737.84
430.16	3749.54
430.34	3885.29
430.53	3894.65
430.72	3946.14
430.91	4023.38
431.10	3794.01
431.28	4049.13
431.47	3948.48
431.66	4046.79
431.85	4032.74
432.03	3906.35
432.22	4035.08
432.41	4138.07
432.60	4121.68
432.79	4091.26
432.97	4051.47
433.16	4322.97
433.35	4177.86
433.54	4152.11
433.72	4187.22
433.91	4395.53
434.10	4133.39
434.28	4294.88
434.47	4154.45
434.66	4311.27
434.85	4393.19
435.03	4276.16
435.22	4187.22
435.41	4421.27
435.59	4322.97
435.78	4189.56
435.97	4451.70
436.16	4322.97
436.34	4435.32
436.53	4592.13
436.72	4550.00
436.90	4491.49
437.09	4636.60
437.28	4348.72
437.46	4477.44
437.65	4468.08
437.84	4641.28
438.02	4557.02
438.21	4606.17
438.40	4624.90
438.58	4751.29
438.77	4758.31
438.96	4645.96
439.14	4912.78
439.33	5015.77
439.52	4905.76
439.70	4861.29
439.89	4947.89
440.08	4961.94
440.26	4975.98
440.45	5104.71
440.63	5097.69
440.82	5104.71
441.01	5088.32
441.19	5322.38
441.38	5240.46
441.57	5273.23
441.75	5392.59
441.94	5455.79
442.12	5432.38
442.31	5411.32
442.50	5448.77
442.68	5554.09
442.87	5444.09
443.05	5535.37
443.24	5469.83
443.43	5542.39
443.61	5504.94
443.80	5729.63
443.98	5427.70
444.17	5350.46
444.35	5481.53
444.54	5603.24
444.73	5650.05
444.91	5628.99
445.10	5795.17
445.28	5757.72
445.47	5706.23
445.65	5593.88
445.84	5792.83
446.02	5774.10
446.21	5729.63
446.39	5757.72
446.58	5933.26
446.77	5790.49
446.95	5465.15
447.14	5849.00
447.32	5687.50
447.51	5724.95
447.69	5818.57
447.88	5614.95
448.06	5738.99
448.25	5771.76
448.43	5884.11
448.62	5743.67
448.80	6012.84
448.99	6026.88
449.17	6022.20
449.36	5811.55
449.54	5989.43
449.73	6193.06
449.91	6300.72
450.10	5912.19
450.28	6335.83
450.46	6129.86
450.65	6282.00
450.83	6146.25
451.02	5966.03
451.20	6211.78
451.39	6120.50
451.57	6209.44
451.76	6015.18
451.94	6244.55
452.13	6179.01
452.31	6349.87
452.49	6279.66
452.68	6410.73
452.86	6319.45
453.05	6193.06
453.23	6492.65
453.42	6181.35
453.60	6356.90
453.78	6530.09
453.97	6565.20
454.15	6525.41
454.34	6422.43
454.52	6619.04
454.70	6445.84
454.89	6483.28
455.07	6539.46
455.26	6663.51
455.44	6637.76
455.62	6630.74
455.81	6710.32
455.99	6782.87
456.17	6740.74
456.36	6768.83
456.54	6913.94
456.73	6963.09
456.91	6963.09
457.09	7152.68
457.28	7187.79
457.46	6974.80
457.64	6899.90
457.83	7220.55
458.01	7054.37
458.19	7035.65
458.38	7183.10
458.56	7267.36
458.74	7150.34
458.93	7265.02
459.11	7162.04
459.29	7129.27
459.48	7265.02
459.66	7391.41
459.84	7360.98
460.03	7489.71
460.21	7538.87
460.39	7712.07
460.57	7344.60
460.76	7344.60
460.94	7545.89
461.12	7581.00
461.31	7419.50
461.49	7585.68
461.67	7494.40
461.85	7480.35
462.04	7569.29
462.22	8049.10
462.40	7831.43
462.59	7669.94
462.77	7723.77
462.95	7857.18
463.13	7871.22
463.32	7836.11
463.50	7880.58
463.68	7784.62
463.86	7831.43
464.05	7859.52
464.23	7833.77
464.41	7899.31
464.59	7707.38
464.78	8037.40
464.96	8028.04
465.14	7864.20
465.32	8058.46
465.50	8006.97
465.69	8140.38
465.87	8056.12
466.05	8234.00
466.23	8102.93
466.41	8124.00
466.60	8318.26
466.78	8329.97
466.96	8248.05
467.14	8245.71
467.32	8327.63
467.51	8416.57
467.69	8215.28
467.87	8351.03
468.05	8486.78
468.23	8355.71
468.41	8479.76
468.60	8365.07
468.78	8561.68
468.96	8524.23
469.14	8475.08
469.32	8779.35
469.50	8496.14
469.69	8765.31
469.87	8704.45
470.05	8786.37
470.23	8938.51
470.41	8781.69
470.59	9018.08
470.77	8898.72
470.95	9018.08
471.14	9165.54
471.32	8917.44
471.50	8849.57
471.68	8894.04
471.86	9083.62
472.04	9128.09
472.22	9397.25
472.40	9191.28
472.58	9479.17
472.77	9334.06
472.95	9582.15
473.13	9652.37
473.31	9364.48
473.49	9256.82
473.67	9465.13
473.85	9687.48
474.03	9837.27
474.21	9804.50
474.39	9820.89
474.57	9860.68
474.75	10022.17
474.93	9984.73
475.12	9994.09
475.30	10057.28
475.48	9909.83
475.66	10171.97
475.84	9914.51
476.02	10307.72
476.20	10176.65
476.38	10424.75
476.56	10387.30
476.74	10785.19
476.92	10462.19
477.10	10544.11
477.28	10719.65
477.46	10780.51
477.64	10892.85
477.82	11108.18
478.00	10951.37
478.18	11145.63
478.36	11267.34
478.54	11363.30
478.72	11405.43
478.90	11379.68
479.08	11620.76
479.26	11683.95
479.44	11826.73
479.62	11833.75
479.80	12009.29
479.98	12028.01
480.16	12280.79
480.34	12205.89
480.52	12238.66
480.70	12498.46
480.88	12159.08
481.06	12311.22
481.24	12453.99
481.41	12732.51
481.59	12821.45
481.77	12767.62
481.95	13032.10
482.13	13149.13
482.31	13032.10
482.49	13493.19
482.67	13448.72
482.85	13490.85
483.03	13682.77
483.21	13579.79
483.39	13982.36
483.57	13727.24
483.74	14052.58
483.92	14178.97
484.10	14143.86
484.28	14246.84
484.46	14576.86
484.64	14717.29
484.82	14483.24
485.00	14614.30
485.18	15059.01
485.35	15257.95
485.53	15091.77
485.71	15101.14
485.89	15393.70
486.07	15267.31
486.25	15365.62
486.43	15274.34
486.61	15599.67
486.78	16072.46
486.96	15847.77
487.14	16133.31
487.32	16362.69
487.50	16327.58
487.68	16482.05
487.85	16652.91
488.03	16683.34
488.21	16837.81
488.39	16982.93
488.57	17362.09
488.75	17163.15
488.92	17607.85
489.10	17642.96
489.28	17556.36
489.46	17771.69
489.64	18167.24
489.81	18368.52
489.99	18101.70
490.17	18239.79
490.35	18523.00
490.53	18567.47
490.70	18745.35
490.88	18693.86
491.06	19180.69
491.24	19070.68
491.41	19023.87
491.59	19241.54
491.77	19140.90
491.95	19346.87
492.13	19726.04
492.30	19786.89
492.48	19761.14
492.66	19709.65
492.84	20072.43
493.01	20116.90
493.19	20084.14
493.37	20252.66
493.54	20772.25
493.72	20535.86
493.90	20879.92
494.08	20870.56
494.25	21055.46
494.43	21422.92
494.61	20755.87
494.79	21378.45
494.96	21240.36
495.14	21345.69
495.32	21722.51
495.49	21827.84
495.67	21687.40
495.85	21923.80
496.02	22284.24
496.20	22647.02
496.38	22623.62
496.55	22871.72
496.73	22939.59
496.91	22747.67
497.09	23295.35
497.26	23199.39
497.44	23365.57
497.62	23035.55
497.79	23381.95
497.97	23199.39
498.14	23632.39
498.32	23819.63
498.50	23655.79
498.67	24049.00
498.85	24128.58
499.03	24180.07
499.20	24456.26
499.38	24180.07
499.56	24765.21
499.73	24425.83
499.91	24678.61
500.08	24816.70
500.26	24631.80
500.44	24755.85
500.61	25027.35
500.79	24746.48
500.97	25163.10
501.14	25326.94
501.32	25518.86
501.49	25420.56
501.67	24975.86
501.84	25647.59
502.02	25628.87
502.20	26160.17
502.37	25834.83
502.55	26047.82
502.72	26087.61
502.90	26129.74
503.07	25867.60
503.25	26405.92
503.43	26033.78
503.60	26415.29
503.78	26424.65
503.95	26319.32
504.13	26754.66
504.30	26955.95
504.48	26822.54
504.65	26504.23
504.83	27197.02
505.01	27199.37
505.18	27000.42
505.36	27431.08
505.53	27197.02
505.71	27548.11
505.88	27850.03
506.06	27302.35
506.23	27821.95
506.41	27814.93
506.58	27997.49
506.76	28182.39
506.93	28357.93
507.11	27962.38
507.28	28563.90
507.46	28002.17
507.63	28367.29
507.81	28573.26
507.98	28376.66
508.16	28259.63
508.33	28631.77
508.50	28922.00
508.68	28746.46
508.85	29102.22
509.03	28849.44
509.20	29404.15
509.38	29259.04
509.55	29495.43
509.73	29221.59
509.90	29509.47
510.08	29539.90
510.25	29535.22
510.42	29624.16
510.60	29727.14
510.77	29898.00
510.95	30263.13
511.12	29865.24
511.30	30103.97
511.47	30164.82
511.64	30288.87
511.82	30197.59
511.99	30452.71
512.17	30448.03
512.34	30450.37
512.51	30707.83
512.69	31136.15
512.86	30635.27
513.04	30974.65
513.21	30876.35
513.38	31253.17
513.56	31482.55
513.73	31061.25
513.90	31037.84
514.08	31115.08
514.25	31974.06
514.43	31658.09
514.60	31711.92
514.77	31737.66
514.95	32137.90
515.12	31564.46
515.29	32091.09
515.47	31978.74
515.64	32004.49
515.81	31976.40
515.99	32147.26
516.16	32755.80
516.33	32442.17
516.51	32818.99
516.68	32470.25
516.85	32411.74
517.03	32652.81
517.20	33345.61
517.37	33062.41
517.54	33104.54
517.72	32638.77
517.89	33055.39
518.06	33198.16
518.24	33326.89
518.41	33174.75
518.58	32964.10
518.75	33060.07
518.93	33518.81
519.10	33546.90
519.27	33298.80
519.45	33467.32
519.62	33853.51
519.79	33652.22
519.96	33378.38
520.14	33869.89
520.31	33710.74
520.48	33916.70
520.65	34321.62
520.83	34328.64
521.00	34574.39
521.17	34749.93
521.34	34476.09
521.52	34546.31
521.69	34733.55
521.86	34780.36
522.03	35037.82
522.20	34803.77
522.38	35416.99
522.55	35049.52
522.72	35292.94
522.89	35077.61
523.07	35386.56
523.24	35330.39
523.41	35583.16
523.58	35019.10
523.75	35761.05
523.92	35571.46
524.10	35615.93
524.27	35557.42
524.44	35681.47
524.61	35512.95
524.78	35838.28
524.96	36081.70
525.13	36205.75
525.30	36378.95
525.47	36112.13
525.64	36292.35
525.81	36119.15
525.98	36140.21
526.16	36402.35
526.33	36175.32
526.50	36851.73
526.67	36524.06
526.84	37125.58
527.01	36500.65
527.18	36889.18
527.36	36847.05
527.53	36816.63
527.70	37710.71
527.87	37324.52
528.04	37067.06
528.21	37163.03
528.38	37345.59
528.55	37504.74
528.72	37368.99
528.89	37347.93
529.07	37490.70
529.24	36966.42
529.41	37696.67
529.58	37205.16
529.75	37682.62
529.92	37923.70
530.09	37677.94
530.26	38132.01
530.43	38064.13
530.60	37818.38
530.77	37727.10
530.94	38096.90
531.11	38106.26
531.28	38155.41
531.46	38209.25
531.63	38146.05
531.80	38106.26
531.97	38263.08
532.14	38630.54
532.31	38478.41
532.48	38560.33
532.65	38686.71
532.82	38628.20
532.99	38749.91
533.16	38710.12
533.33	38763.95
533.50	39199.29
533.67	38651.61
533.84	39028.43
534.01	38843.53
534.18	39129.08
534.35	39590.16
534.52	39346.75
534.69	39585.48
534.86	39646.33
535.03	39157.16
535.20	39721.23
535.37	39761.02
535.54	40051.25
535.71	39613.57
535.88	39697.83
536.05	39526.97
536.22	39541.01
536.38	39812.51
536.55	39976.35
536.72	40182.32
536.89	39646.33
537.06	40013.80
537.23	40327.43
537.40	39859.32
537.57	39786.77
537.74	40112.10
537.91	40163.59
538.08	39941.24
538.25	40041.88
538.42	40278.28
538.59	40706.60
538.75	40208.06
538.92	40425.73
539.09	40807.24
539.26	40608.29
539.43	40844.69
539.60	41001.50
539.77	40575.53
539.94	41001.50
540.11	40627.02
540.28	40568.51
540.44	40612.98
540.61	40989.80
540.78	40865.75
540.95	40999.16
541.12	40811.92
541.29	40718.30
541.46	40940.65
541.62	41345.56
541.79	41415.78
541.96	40917.25
542.13	41188.75
542.30	41474.29
542.47	41397.06
542.63	41401.74
542.80	41572.60
542.97	41586.64
543.14	41706.01
543.31	41862.82
543.48	41806.65
543.64	42677.33
543.81	42043.04
543.98	42508.81
544.15	42167.09
544.32	42129.64
544.48	42838.83
544.65	42600.09
544.82	42424.55
544.99	42012.62
545.16	42628.18
545.32	42239.65
545.49	42712.44
545.66	42838.83
545.83	42529.87
546.00	42515.83
546.16	42464.34
546.33	42646.90
546.50	42340.29
546.67	43037.77
546.83	42642.22
547.00	43140.75
547.17	42469.02
547.34	42843.51
547.50	43402.89
547.67	43391.19
547.84	43470.77
548.00	43103.31
548.17	43690.78
548.34	43122.03
548.51	43213.31
548.67	43150.12
548.84	43138.41
549.01	43330.34
549.18	43131.39
549.34	43697.80
549.51	43522.26
549.68	43531.62
549.84	43466.09
550.01	43571.41
550.18	43452.05
550.34	44212.72
550.51	43758.66
550.68	43793.76
550.84	43353.74
551.01	43983.35
551.18	43571.41
551.34	43536.30
551.51	44093.35
551.68	43927.17
551.84	43971.64
552.01	44009.09
552.18	43929.51
552.34	43735.25
552.51	44189.31
552.68	43842.92
552.84	44091.01
553.01	44285.28
553.18	44364.85
553.34	44205.70
553.51	44119.10
553.67	44252.51
553.84	44610.61
554.01	44395.28
554.17	44615.29
554.34	44678.49
554.51	44830.62
554.67	44634.02
554.84	44896.16
555.00	44526.35
555.17	44392.94
555.33	45240.21
555.50	43936.54
555.67	44802.53
555.83	45045.95
556.00	44863.39
556.16	45373.63
556.33	45165.32
556.50	44744.02
556.66	45247.24
556.83	44491.24
556.99	45261.28
557.16	45436.82
557.32	45001.48
557.49	45502.35
557.65	45237.87
557.82	45022.54
557.98	44996.80
558.15	45305.75
558.32	45329.16
558.48	45109.14
558.65	45319.79
558.81	45275.32
558.98	45263.62
559.14	45345.54
559.31	45113.83
559.47	45457.88
559.64	45471.93
559.80	45319.79
559.97	45413.41
560.13	45553.85
560.30	45846.41
560.46	45528.10
560.63	45844.07
560.79	46164.73
560.96	45551.51
561.12	45610.02
561.29	45677.90
561.45	45666.19
561.61	45329.16
561.78	45675.55
561.94	45492.99
562.11	45820.67
562.27	45780.88
562.44	45801.94
562.60	45710.66
562.77	45947.06
562.93	45647.47
563.10	46064.08
563.26	45862.80
563.42	46279.41
563.59	46101.53
563.75	45759.81
563.92	45858.12
564.08	46012.59
564.24	46185.79
564.41	45867.48
564.57	46358.99
564.74	46305.16
564.90	46298.14
565.07	46108.55
565.23	46272.39
565.39	46471.34
565.56	46403.46
565.72	46574.32
565.88	46361.33
566.05	46539.21
566.21	46522.83
566.38	46358.99
566.54	46312.18
566.70	46497.08
566.87	46862.21
567.03	46429.21
567.19	46466.66
567.36	46445.59
567.52	46546.23
567.68	46745.18
567.85	46103.87
568.01	46679.64
568.17	46490.06
568.34	46777.95
568.50	46775.61
568.66	46403.46
568.83	46555.60
568.99	46691.35
569.15	46693.69
569.32	46349.63
569.48	46820.08
569.64	47178.18
569.81	47133.71
569.97	46639.86
570.13	46988.60
570.30	46759.22
570.46	46609.43
570.62	46799.01
570.78	46925.40
570.95	46576.66
571.11	47009.66
571.27	46461.97
571.43	46724.11
571.60	46740.50
571.76	47138.39
571.92	46635.17
572.09	46527.51
572.25	46756.88
572.41	46923.06
572.57	46747.52
572.74	47124.35
572.90	46883.27
573.06	47239.03
573.22	47044.77
573.38	47023.70
573.55	46820.08
573.71	47428.62
573.87	47475.43
574.03	46705.39
574.20	47112.64
574.36	47496.49
574.52	46918.38
574.68	47157.11
574.84	46871.57
575.01	47014.34
575.17	47283.50
575.33	47096.26
575.49	47063.49
575.65	47229.67
575.82	47419.25
575.98	47107.96
576.14	47246.05
576.30	47688.42
576.46	47599.47
576.62	47505.85
576.79	47133.71
576.95	46871.57
577.11	46766.24
577.27	47035.41
577.43	47028.38
577.59	47302.23
577.75	47119.66
577.92	47019.02
578.08	47517.56
578.24	47110.30
578.40	47372.44
578.56	47508.19
578.72	47250.74
578.88	47306.91
579.04	47175.84
579.21	47285.84
579.37	47075.19
579.53	47442.66
579.69	47021.36
579.85	47054.13
580.01	46894.97
580.17	47107.96
580.33	47285.84
580.49	47540.96
580.65	47323.29
580.82	47325.63
580.98	46892.63
581.14	46960.51
581.30	47484.79
581.46	47547.98
581.62	46962.85
581.78	47129.03
581.94	47400.53
582.10	47344.36
582.26	47461.38
582.42	47442.66
582.58	47777.36
582.74	47545.64
582.90	47213.29
583.06	47313.93
583.22	47620.54
583.38	47636.92
583.54	47543.30
583.70	47625.22
583.86	47105.62
584.02	47292.86
584.18	47737.57
584.34	47688.42
584.50	47653.31
584.66	47669.69
584.82	47468.40
584.98	47922.47
585.14	47985.66
585.30	47547.98
585.46	47409.89
585.62	47250.74
585.78	47622.88
585.94	47519.90
586.10	47473.09
586.26	47381.80
586.42	47257.76
586.58	47641.60
586.74	47426.28
586.90	47126.69
587.06	47569.05
587.22	47555.00
587.38	47557.35
587.54	47819.49
587.70	47840.55
587.86	47667.35
588.02	47878.00
588.18	47739.91
588.34	47257.76
588.49	47576.07
588.65	47775.02
588.81	47882.68
588.97	47751.61
589.13	47798.42
589.29	47653.31
589.45	48217.38
589.61	47580.75
589.77	48027.79
589.93	47742.25
590.08	47859.27
