SpectraSuite Data File
++++++++++++++++++++++++++++++++++++
Date: Fri Oct 25 11:26:38 EDT 2013
User: price-jones
Dark Spectrum Present: No
Reference Spectrum Present: No
Number of Sampled Component Spectra: 1
Spectrometers: USB2+H05261
Integration Time (usec): 100000 (USB2+H05261)
Spectra Averaged: 1 (USB2+H05261)
Boxcar Smoothing: 0 (USB2+H05261)
Correct for Electrical Dark: No (USB2+H05261)
Strobe/Lamp Enabled: No (USB2+H05261)
Correct for Detector Non-linearity: No (USB2+H05261)
Correct for Stray Light: No (USB2+H05261)
Number of Pixels in Processed Spectrum: 2048
>>>>>Begin Processed Spectral Data<<<<<
365.73	243.42
365.92	243.42
366.12	243.42
366.32	217.67
366.52	86.60
366.72	131.07
366.91	124.05
367.11	152.13
367.31	145.11
367.51	168.52
367.70	140.43
367.90	145.11
368.10	152.13
368.30	124.05
368.49	142.77
368.69	138.09
368.89	175.54
369.09	180.22
369.28	110.01
369.48	182.56
369.68	250.44
369.87	175.54
370.07	229.37
370.27	250.44
370.47	341.72
370.66	624.92
370.86	634.29
371.06	699.82
371.25	741.95
371.45	636.63
371.65	711.52
371.84	650.67
372.04	669.39
372.24	683.44
372.44	737.27
372.63	763.01
372.83	695.14
373.03	819.19
373.22	758.33
373.42	809.83
373.62	760.67
373.81	748.97
374.01	798.12
374.21	788.76
374.40	758.33
374.60	765.36
374.79	861.32
374.99	873.02
375.19	788.76
375.38	868.34
375.58	889.40
375.78	866.00
375.97	854.30
376.17	947.92
376.37	919.83
376.56	875.36
376.76	922.17
376.95	947.92
377.15	877.70
377.35	891.74
377.54	938.55
377.74	868.34
377.93	957.28
378.13	999.41
378.33	966.64
378.52	971.32
378.72	964.30
378.91	933.87
379.11	957.28
379.31	877.70
379.50	908.13
379.70	987.71
379.89	997.07
380.09	917.49
380.28	922.17
380.48	1006.43
380.68	1036.86
380.87	891.74
381.07	1067.28
381.26	947.92
381.46	1004.09
381.65	945.58
381.85	1043.88
382.04	1137.50
382.24	1093.03
382.43	1100.05
382.63	1172.61
382.83	1078.99
383.02	1160.91
383.22	1088.35
383.41	1074.31
383.61	1048.56
383.80	1090.69
384.00	1174.95
384.19	1132.82
384.39	1181.97
384.58	1217.08
384.78	1132.82
384.97	1153.88
385.17	1137.50
385.36	1193.67
385.56	1240.48
385.75	1123.46
385.95	1177.29
386.14	1238.14
386.34	1256.87
386.53	1247.51
386.72	1224.10
386.92	1245.16
387.11	1327.08
387.31	1270.91
387.50	1280.27
387.70	1219.42
387.89	1242.82
388.09	1277.93
388.28	1217.08
388.48	1266.23
388.67	1331.76
388.86	1308.36
389.06	1329.42
389.25	1329.42
389.45	1306.02
389.64	1280.27
389.84	1385.60
390.03	1430.07
390.22	1366.87
390.42	1324.74
390.61	1313.04
390.81	1355.17
391.00	1526.03
391.19	1411.34
391.39	1394.96
391.58	1455.81
391.78	1423.05
391.97	1476.88
392.16	1462.83
392.36	1486.24
392.55	1631.35
392.75	1479.22
392.94	1502.62
393.13	1476.88
393.33	1453.47
393.52	1528.37
393.71	1600.93
393.91	1570.50
394.10	1589.22
394.29	1523.69
394.49	1612.63
394.68	1671.14
394.88	1666.46
395.07	1734.34
395.26	1643.06
395.46	1596.25
395.65	1720.29
395.84	1694.55
396.04	1844.34
396.23	1678.16
396.42	1724.97
396.62	1764.76
396.81	1797.53
397.00	1811.57
397.19	1760.08
397.39	1827.96
397.58	1785.83
397.77	1781.15
397.97	1912.22
398.16	1881.79
398.35	1877.11
398.55	1865.41
398.74	1919.24
398.93	1926.26
399.12	1952.01
399.32	1984.77
399.51	1907.54
399.70	2047.97
399.90	1933.28
400.09	1977.75
400.28	2019.88
400.47	2029.24
400.67	2132.23
400.86	2054.99
401.05	2136.91
401.24	2062.01
401.44	2134.57
401.63	2148.61
401.82	2183.72
402.01	2097.12
402.21	2289.04
402.40	2165.00
402.59	2207.13
402.78	2218.83
402.97	2249.25
403.17	2284.36
403.36	2370.96
403.55	2317.13
403.74	2382.67
403.93	2321.81
404.13	2431.82
404.32	2326.49
404.51	2333.51
404.70	2436.50
404.89	2366.28
405.09	2565.23
405.28	2567.57
405.47	2443.52
405.66	2499.69
405.85	2504.37
406.05	2434.16
406.24	2572.25
406.43	2520.76
406.62	2626.08
406.81	2717.36
407.00	2740.77
407.20	2712.68
407.39	2700.98
407.58	2740.77
407.77	2743.11
407.96	2803.96
408.15	2850.77
408.34	2661.19
408.54	2794.60
408.73	2892.90
408.92	2913.97
409.11	2918.65
409.30	2906.95
409.49	2871.84
409.68	2930.35
409.87	2827.37
410.07	3061.42
410.26	3075.46
410.45	3002.91
410.64	3129.30
410.83	3119.93
411.02	2967.80
411.21	3150.36
411.40	3110.57
411.59	3307.18
411.78	3138.66
411.98	3096.53
412.17	3222.92
412.36	3288.45
412.55	3375.05
412.74	3396.12
412.93	3356.33
413.12	3337.60
413.31	3581.02
413.50	3487.40
413.69	3510.80
413.88	3574.00
414.07	3548.25
414.26	3468.67
414.45	3712.09
414.64	3721.45
414.83	3728.47
415.02	3911.04
415.22	3826.78
415.41	3964.87
415.60	3857.20
415.79	3953.16
415.98	4018.70
416.17	3974.23
416.36	3995.29
416.55	4011.68
416.74	4053.81
416.93	3999.98
417.12	4205.94
417.31	4138.07
417.50	4100.62
417.69	4341.69
417.88	4344.03
418.07	4365.10
418.26	4344.03
418.45	4306.59
418.64	4451.70
418.83	4444.68
419.02	4360.42
419.21	4571.07
419.39	4564.04
419.58	4507.87
419.77	4601.49
419.96	4519.57
420.15	4636.60
420.34	4657.67
420.53	4690.43
420.72	4648.30
420.91	4737.24
421.10	4550.00
421.29	4791.08
421.48	4835.55
421.67	4856.61
421.86	4713.84
422.05	4931.51
422.24	4758.31
422.43	4954.91
422.61	4957.25
422.80	5076.62
422.99	4947.89
423.18	5081.30
423.37	5048.54
423.56	4901.08
423.75	4924.49
423.94	4821.50
424.13	4643.62
424.32	4777.03
424.50	4957.25
424.69	5139.82
424.88	5109.39
425.07	5011.09
425.26	4983.00
425.45	4952.57
425.64	5001.72
425.83	4966.62
426.01	5034.49
426.20	4971.30
426.39	5015.77
426.58	5095.35
426.77	5184.29
426.96	5095.35
427.15	5177.26
427.33	5210.03
427.52	5160.88
427.71	5294.29
427.90	5104.71
428.09	5242.80
428.28	5345.78
428.46	5406.64
428.65	5390.25
428.84	5413.66
429.03	5605.58
429.22	5404.30
429.40	5460.47
429.59	5575.16
429.78	5313.02
429.97	5425.36
430.16	5434.72
430.34	5717.93
430.53	5598.56
430.72	5696.86
430.91	5633.67
431.10	5792.83
431.28	5853.68
431.47	5900.49
431.66	5806.87
431.85	5860.70
432.03	5895.81
432.22	5994.11
432.41	5884.11
432.60	5954.32
432.79	5959.00
432.97	5877.09
433.16	6129.86
433.35	5832.62
433.54	6183.70
433.72	6235.19
433.91	6251.57
434.10	6200.08
434.28	6080.71
434.47	6171.99
434.66	6239.87
434.85	6204.76
435.03	6417.75
435.22	6476.26
435.41	6555.84
435.59	6438.81
435.78	6436.47
435.97	6338.17
436.16	6502.01
436.34	6511.37
436.53	6612.01
436.72	6616.69
436.90	6478.60
437.09	6544.14
437.28	6502.01
437.46	6590.95
437.65	6757.13
437.84	6764.15
438.02	6757.13
438.21	6743.08
438.40	6600.31
438.58	6923.30
438.77	7143.32
438.96	7108.21
439.14	7091.82
439.33	7229.91
439.52	7208.85
439.70	7227.57
439.89	7309.49
440.08	7475.67
440.26	7391.41
440.45	7492.05
440.63	7538.87
440.82	7655.89
441.01	7761.22
441.19	7676.96
441.38	7838.45
441.57	7716.75
441.75	7756.54
441.94	8032.72
442.12	7927.39
442.31	8180.17
442.50	8030.38
442.68	8039.74
442.87	8013.99
443.05	8138.04
443.24	8297.20
443.43	8217.62
443.61	8187.19
443.80	8435.29
443.98	8128.68
444.17	7854.84
444.35	8145.06
444.54	8582.74
444.73	8318.26
444.91	8177.83
445.10	8512.53
445.28	8339.33
445.47	8273.79
445.65	8372.10
445.84	8325.29
446.02	8678.71
446.21	8528.91
446.39	8383.80
446.58	8517.21
446.77	8638.92
446.95	8257.41
447.14	8376.78
447.32	8528.91
447.51	8629.56
447.69	8622.53
447.88	8524.23
448.06	8631.90
448.25	8561.68
448.43	8709.13
448.62	8533.59
448.80	8589.77
448.99	8650.62
449.17	8788.71
449.36	8872.97
449.54	8917.44
449.73	8807.44
449.91	8985.32
450.10	8980.64
450.28	9212.35
450.46	9217.03
450.65	8952.55
450.83	9193.62
451.02	9060.21
451.20	9198.31
451.39	9015.74
451.57	9202.99
451.76	9305.97
451.94	9078.94
452.13	9303.63
452.31	9282.56
452.49	9348.10
452.68	9540.02
452.86	9423.00
453.05	9390.23
453.23	9708.54
453.42	9357.46
453.60	9446.40
453.78	9554.07
453.97	9589.17
454.15	9476.83
454.34	9628.96
454.52	9678.12
454.70	9816.21
454.89	9802.16
455.07	9701.52
455.26	9919.19
455.44	9781.10
455.62	10012.81
455.81	10078.35
455.99	10045.58
456.17	10195.37
456.36	9923.87
456.54	10263.25
456.73	10277.29
456.91	10506.66
457.09	10340.49
457.28	10473.90
457.46	10499.64
457.64	10518.37
457.83	10560.50
458.01	10469.22
458.19	10689.23
458.38	10429.43
458.56	10633.05
458.74	10757.10
458.93	10499.64
459.11	10616.67
459.29	10794.55
459.48	10675.18
459.66	10876.47
459.84	10820.30
460.03	11164.36
460.21	10984.13
460.39	10963.07
460.57	10937.32
460.76	11389.05
460.94	11520.12
461.12	11096.48
461.31	11199.46
461.49	11215.85
461.67	11232.23
461.85	11651.19
462.04	11250.96
462.22	11482.67
462.40	11461.60
462.59	11435.86
462.77	11747.15
462.95	11597.35
463.13	11424.15
463.32	11723.74
463.50	11829.07
463.68	11770.55
463.86	11770.55
464.05	11765.87
464.23	11693.32
464.41	11695.66
464.59	11756.51
464.78	12535.91
464.96	12006.95
465.14	11887.58
465.32	12149.72
465.50	12189.51
465.69	12257.39
465.87	12329.94
466.05	12259.73
466.23	12187.17
466.41	12152.06
466.60	12339.30
466.78	12386.12
466.96	12505.48
467.14	12367.39
467.32	12355.69
467.51	12587.40
467.69	12503.14
467.87	12582.72
468.05	12582.72
468.23	12233.98
468.41	12580.38
468.60	12776.98
468.78	12606.13
468.96	12552.29
469.14	12697.41
469.32	12854.22
469.50	12678.68
469.69	12938.48
469.87	12978.27
470.05	13324.67
470.23	13041.46
470.41	13195.94
470.59	13448.72
470.77	13219.35
470.95	13259.13
471.14	13650.00
471.32	13202.96
471.50	13858.31
471.68	13673.41
471.86	13654.69
472.04	13659.37
472.22	14061.94
472.40	13743.63
472.58	13743.63
472.77	14160.24
472.95	14066.62
473.13	14691.54
473.31	14160.24
473.49	14157.90
473.67	14132.15
473.85	14630.69
474.03	14382.59
474.21	14871.76
474.39	14764.10
474.57	14747.72
474.75	14733.67
474.93	15157.31
475.12	14693.88
475.30	14977.09
475.48	14986.45
475.66	15234.55
475.84	15393.70
476.02	15332.85
476.20	15569.24
476.38	15913.30
476.56	16042.03
476.74	16154.38
476.92	15845.43
477.10	16119.27
477.28	16271.40
477.46	16217.57
477.64	16208.21
477.82	16711.42
478.00	16652.91
478.18	16713.77
478.36	17076.55
478.54	17064.85
478.72	17439.33
478.90	17568.06
479.08	17654.66
479.26	18029.15
479.44	17649.98
479.62	17907.44
479.80	18153.20
479.98	18047.87
480.16	18621.30
480.34	18689.18
480.52	18284.26
480.70	18885.78
480.88	18464.49
481.06	18576.83
481.24	18876.42
481.41	19222.82
481.59	19367.93
481.77	19552.84
481.95	19571.56
482.13	19756.46
482.31	19775.19
482.49	20201.16
482.67	20222.23
482.85	20320.53
483.03	20622.46
483.21	20746.51
483.39	21223.98
483.57	20870.56
483.74	21200.57
483.92	21589.10
484.10	21118.65
484.28	22047.85
484.46	21935.50
484.64	22412.97
484.82	21907.41
485.00	22431.69
485.18	22869.37
485.35	22944.27
485.53	22974.70
485.71	23131.51
485.89	23639.41
486.07	23314.08
486.25	23618.35
486.43	23587.92
486.61	23562.17
486.78	24222.20
486.96	24259.65
487.14	24645.84
487.32	24444.56
487.50	24685.63
487.68	24985.22
487.85	25563.33
488.03	25191.19
488.21	25844.20
488.39	25979.95
488.57	26150.81
488.75	26396.56
488.92	26455.08
489.10	27077.66
489.28	26829.56
489.46	27112.77
489.64	27599.60
489.81	27784.50
489.99	27564.49
490.17	27676.83
490.35	28147.28
490.53	28287.71
490.70	28313.46
490.88	28379.00
491.06	29085.84
491.24	29010.94
491.41	29090.52
491.59	29340.96
491.77	29689.70
491.95	29654.59
492.13	29766.93
492.30	29916.73
492.48	30148.44
492.66	30122.69
492.84	30618.89
493.01	30766.34
493.19	30656.34
493.37	31248.49
493.54	31283.60
493.72	31239.13
493.90	31211.04
494.08	31751.71
494.25	32002.14
494.43	32306.41
494.61	31945.97
494.79	32535.79
494.96	32254.92
495.14	32950.06
495.32	33237.95
495.49	33230.93
495.67	33303.48
495.85	33748.18
496.02	33621.80
496.20	34026.71
496.38	34085.22
496.55	34204.59
496.73	34965.26
496.91	34689.08
497.09	34593.12
497.26	35342.09
497.44	35002.71
497.62	35332.73
497.79	35789.13
497.97	35548.06
498.14	36034.89
498.32	35941.27
498.50	36142.55
498.67	36538.10
498.85	36627.04
499.03	36701.94
499.20	36587.25
499.38	37120.90
499.56	37509.43
499.73	37228.56
499.91	37631.13
500.08	38068.81
500.26	37298.78
500.44	37656.88
500.61	38286.48
500.79	37956.47
500.97	38127.33
501.14	38653.95
501.32	38787.36
501.49	38352.02
501.67	39040.14
501.84	39065.88
502.02	38906.73
502.20	38969.92
502.37	39452.07
502.55	39131.42
502.72	39311.64
502.90	39943.58
503.07	39440.37
503.25	39634.63
503.43	39695.49
503.60	40119.12
503.78	40362.54
503.95	40304.02
504.13	41106.83
504.30	40825.96
504.48	40753.41
504.65	40612.98
504.83	41038.95
505.01	41804.31
505.18	41366.63
505.36	41455.57
505.53	41132.57
505.71	41591.32
505.88	41785.58
506.06	41181.73
506.23	42045.38
506.41	41556.21
506.58	42227.95
506.76	42251.35
506.93	42546.26
507.11	42265.39
507.28	42696.05
507.46	42906.70
507.63	43697.80
507.81	43056.50
507.98	43051.81
508.16	43072.88
508.33	43840.57
508.50	43662.69
508.68	43730.57
508.85	43672.06
509.03	43840.57
509.20	44196.34
509.38	44418.69
509.55	44921.90
509.73	44622.31
509.90	44636.36
510.08	44774.45
510.25	45029.57
510.42	45144.25
510.60	44727.64
510.77	45237.87
510.95	45530.44
511.12	45333.84
511.30	45071.70
511.47	45635.77
511.64	45385.33
511.82	46099.19
511.99	45865.14
512.17	46043.02
512.34	46007.91
512.51	46841.14
512.69	46707.73
512.86	46389.42
513.04	46691.35
513.21	46497.08
513.38	46586.02
513.56	47152.43
513.73	46876.25
513.90	47269.46
514.08	47056.47
514.25	47540.96
514.43	47501.17
514.60	47889.70
514.77	47260.10
514.95	47749.27
515.12	47302.23
515.29	47840.55
515.47	48105.03
515.64	48137.80
515.81	47751.61
515.99	48287.59
516.16	48519.31
516.33	48456.11
516.51	48474.84
516.68	48671.44
516.85	48301.64
517.03	48910.17
517.20	48973.37
517.37	48947.62
517.54	48917.20
517.72	49319.77
517.89	48872.73
518.06	49118.48
518.24	49095.08
518.41	49331.47
518.58	49406.37
518.75	49090.40
518.93	49888.52
519.10	49270.62
519.27	49729.36
519.45	49846.39
519.62	50241.94
519.79	50162.36
519.96	49993.84
520.14	50738.13
520.31	50358.97
520.48	50733.45
520.65	50380.03
520.83	50714.73
521.00	50911.33
521.17	50745.15
521.34	51065.81
521.52	50894.95
521.69	50698.34
521.86	50679.62
522.03	51203.90
522.20	51306.88
522.38	51585.41
522.55	51255.39
522.72	51400.50
522.89	51444.98
523.07	51805.42
523.24	51356.03
523.41	51805.42
523.58	51580.73
523.75	52083.94
523.92	51952.87
524.10	52105.01
524.27	52271.18
524.44	52184.58
524.61	52172.88
524.78	51990.32
524.96	52233.74
525.13	52313.31
525.30	52615.24
525.47	52669.08
525.64	52470.13
525.81	52746.31
525.98	52694.82
526.16	52453.75
526.33	52512.26
526.50	52980.37
526.67	52776.74
526.84	53081.01
527.01	52846.96
527.18	53191.01
527.36	53343.15
527.53	52872.70
527.70	53530.39
527.87	53345.49
528.04	53436.77
528.21	53684.87
528.38	53279.96
528.55	53698.91
528.72	53308.04
528.89	53659.12
529.07	53712.95
529.24	53176.97
529.41	54099.14
529.58	53736.36
529.75	53736.36
529.92	53902.54
530.09	53876.79
530.26	53923.60
530.43	54281.70
530.60	53921.26
530.77	53916.58
530.94	54101.48
531.11	54181.06
531.28	54241.92
531.46	54443.20
531.63	54340.22
531.80	54185.74
531.97	54174.04
532.14	54424.48
532.31	54450.22
532.48	54841.09
532.65	54770.88
532.82	54719.38
532.99	54878.54
533.16	54499.37
533.33	54927.69
533.50	55079.83
533.67	55058.76
533.84	55040.04
534.01	54749.81
534.18	55042.38
534.35	55386.44
534.52	54958.12
534.69	55480.06
534.86	55388.78
535.03	55084.51
535.20	55344.31
535.37	55348.99
535.54	55435.59
535.71	55306.86
535.88	55447.29
536.05	55515.17
536.22	55587.72
536.38	55583.04
536.55	55501.12
536.72	55901.36
536.89	55604.11
537.06	55512.83
537.23	55702.41
537.40	55812.41
537.57	55980.93
537.74	55936.46
537.91	56011.36
538.08	56062.85
538.25	55791.35
538.42	55833.48
538.59	55805.39
538.75	56076.90
538.92	56177.54
539.09	56376.48
539.26	56334.35
539.43	56327.33
539.60	56552.02
539.77	56472.45
539.94	56397.55
540.11	56287.54
540.28	56385.85
540.44	56601.18
540.61	56619.90
540.78	56741.61
540.95	56463.08
541.12	56683.09
541.29	56369.46
541.46	56718.20
541.62	56853.95
541.79	56687.78
541.96	56568.41
542.13	56722.88
542.30	56999.07
542.47	56790.76
542.63	56797.78
542.80	57069.28
542.97	57268.23
543.14	57228.44
543.31	57289.29
543.48	57263.55
543.64	57471.85
543.81	57504.62
543.98	57226.10
544.15	57167.58
544.32	57638.03
544.48	57689.52
544.65	57270.57
544.82	57584.20
544.99	57268.23
545.16	57460.15
545.32	57476.54
545.49	57799.53
545.66	57916.56
545.83	57691.86
546.00	57890.81
546.16	57591.22
546.33	57577.18
546.50	57425.04
546.67	57677.82
546.83	57748.04
547.00	57654.42
547.17	57874.43
547.34	57666.12
547.50	58129.54
547.67	58026.56
547.84	57907.19
548.00	58045.29
548.17	58237.21
548.34	58122.52
548.51	58356.58
548.67	58384.66
548.84	58347.21
549.01	58253.59
549.18	58347.21
549.34	58305.09
549.51	58314.45
549.68	58218.49
549.84	58251.25
550.01	58485.31
550.18	58316.79
550.34	58702.98
550.51	58592.97
550.68	58583.61
550.84	58281.68
551.01	58728.72
551.18	58358.92
551.34	58499.35
551.51	58681.91
551.68	58670.21
551.84	58735.74
552.01	58616.38
552.18	58721.70
552.34	58578.93
552.51	58691.27
552.68	58702.98
552.84	58651.48
553.01	58920.65
553.18	58784.90
553.34	58887.88
553.51	58752.13
553.67	58953.41
553.84	59049.38
554.01	59100.87
554.17	59117.25
554.34	58967.46
554.51	59105.55
554.67	59086.82
554.84	59110.23
555.00	59128.95
555.17	59068.10
555.33	59091.51
555.50	59007.25
555.67	59140.66
555.83	59166.40
556.00	59072.78
556.16	59414.50
556.33	59398.12
556.50	59264.70
556.66	59295.13
556.83	59201.51
556.99	59594.72
557.16	59491.74
557.32	59550.25
557.49	59491.74
557.65	59206.19
557.82	59545.57
557.98	59320.88
558.15	59367.69
558.32	59433.22
558.48	59412.16
558.65	59487.06
558.81	59496.42
558.98	59625.15
559.14	59620.47
559.31	59608.76
559.47	59480.03
559.64	59798.35
559.80	60004.31
559.97	59927.08
560.13	59739.83
560.30	59711.75
560.46	59814.73
560.63	59763.24
560.79	59910.69
560.96	59814.73
561.12	59753.88
561.29	60001.97
561.45	59824.09
561.61	60039.42
561.78	59934.10
561.94	59770.26
562.11	59803.03
562.27	59868.56
562.44	60018.36
562.60	59990.27
562.77	60004.31
562.93	59840.48
563.10	60271.14
563.26	59980.91
563.42	60126.02
563.59	59803.03
563.75	60004.31
563.92	60046.44
564.08	60107.30
564.24	60451.36
564.41	60423.27
564.57	60107.30
564.74	60254.75
564.90	60273.48
565.07	59966.87
565.23	60111.98
565.39	59976.23
565.56	60254.75
565.72	60081.55
565.88	60341.35
566.05	60229.01
566.21	60205.60
566.38	60182.19
566.54	60322.63
566.70	60177.51
566.87	60430.29
567.03	59999.63
567.19	60481.78
567.36	60566.04
567.52	60285.18
567.68	60500.51
567.85	60268.79
568.01	60416.25
568.17	60322.63
568.34	60507.53
568.50	60589.45
568.66	60397.52
568.83	60451.36
568.99	60378.80
569.15	60339.01
569.32	60411.57
569.48	60463.06
569.64	60526.25
569.81	60495.83
569.97	60296.88
570.13	60622.22
570.30	60514.55
570.46	60626.90
570.62	60601.15
570.78	60556.68
570.95	60549.66
571.11	60664.35
571.27	60516.89
571.43	60603.49
571.60	60430.29
571.76	60664.35
571.92	60690.09
572.09	60535.62
572.25	60484.12
572.41	60547.32
572.57	60537.96
572.74	60928.83
572.90	60402.21
573.06	60657.32
573.22	60622.22
573.38	60720.52
573.55	60713.50
573.71	60926.49
573.87	60910.10
574.03	60701.79
574.20	60832.86
574.36	60769.67
574.52	60818.82
574.68	60694.77
574.84	60776.69
575.01	60963.93
575.17	60903.08
575.33	60575.40
575.49	60528.59
575.65	60647.96
575.82	60959.25
575.98	60750.94
576.14	60921.80
576.30	61022.45
576.46	60664.35
576.62	60954.57
576.79	60786.05
576.95	60736.90
577.11	60767.33
577.27	60708.82
577.43	60800.10
577.59	60872.65
577.75	60828.18
577.92	60760.31
578.08	60727.54
578.24	60877.33
578.40	61006.06
578.56	60968.61
578.72	60891.38
578.88	61104.37
579.04	61221.39
579.21	61029.47
579.37	61057.56
579.53	60931.17
579.69	60769.67
579.85	60673.71
580.01	60910.10
580.17	60963.93
580.33	60889.04
580.49	61347.78
580.65	60867.97
580.82	61066.92
580.98	60802.44
581.14	60865.63
581.30	61139.47
581.46	60931.17
581.62	60867.97
581.78	60870.31
581.94	61113.73
582.10	60631.58
582.26	60732.22
582.42	60692.43
582.58	61078.62
582.74	60963.93
582.90	60935.85
583.06	60865.63
583.22	60917.12
583.38	60968.61
583.54	61076.28
583.70	61010.74
583.86	60975.64
584.02	61087.98
584.18	61109.05
584.34	60982.66
584.50	60966.27
584.66	60900.74
584.82	60849.25
584.98	61277.57
585.14	61155.86
585.30	61041.17
585.46	61017.77
585.62	60992.02
585.78	61059.90
585.94	60753.29
586.10	61050.53
586.26	61022.45
586.42	61165.22
586.58	61293.95
586.74	61240.12
586.90	60966.27
587.06	60994.36
587.22	61153.52
587.38	61209.69
587.54	61146.50
587.70	61195.65
587.86	61141.81
588.02	61176.92
588.18	61254.16
588.34	61181.60
588.49	61190.97
