SpectraSuite Data File
++++++++++++++++++++++++++++++++++++
Date: Fri Oct 25 10:47:09 EDT 2013
User: price-jones
Dark Spectrum Present: No
Reference Spectrum Present: No
Number of Sampled Component Spectra: 1
Spectrometers: USB2+H05261
Integration Time (usec): 100000 (USB2+H05261)
Spectra Averaged: 1 (USB2+H05261)
Boxcar Smoothing: 0 (USB2+H05261)
Correct for Electrical Dark: No (USB2+H05261)
Strobe/Lamp Enabled: No (USB2+H05261)
Correct for Detector Non-linearity: No (USB2+H05261)
Correct for Stray Light: No (USB2+H05261)
Number of Pixels in Processed Spectrum: 2048
>>>>>Begin Processed Spectral Data<<<<<
365.73	159.16
365.92	159.16
366.12	159.16
366.32	21.06
366.52	51.49
366.72	102.98
366.91	67.88
367.11	72.56
367.31	0.00
367.51	25.75
367.70	0.00
367.90	44.47
368.10	60.85
368.30	0.00
368.49	4.68
368.69	49.15
368.89	0.00
369.09	72.56
369.28	77.24
369.48	74.90
369.68	9.36
369.87	107.66
370.07	107.66
370.27	205.97
370.47	212.99
370.66	365.12
370.86	440.02
371.06	447.04
371.25	416.62
371.45	461.09
371.65	468.11
371.84	479.81
372.04	468.11
372.24	545.34
372.44	425.98
372.63	470.45
372.83	465.77
373.03	528.96
373.22	482.15
373.42	411.93
373.62	475.13
373.81	547.69
374.01	545.34
374.21	496.19
374.40	435.34
374.60	566.41
374.79	510.24
374.99	592.16
375.19	620.24
375.38	596.84
375.58	550.03
375.78	573.43
375.97	631.94
376.17	561.73
376.37	517.26
376.56	601.52
376.76	543.00
376.95	566.41
377.15	545.34
377.35	587.47
377.54	653.01
377.74	653.01
377.93	582.79
378.13	557.05
378.33	599.18
378.52	636.63
378.72	674.07
378.91	617.90
379.11	603.86
379.31	585.13
379.50	601.52
379.70	613.22
379.89	627.26
380.09	671.73
380.28	662.37
380.48	636.63
380.68	624.92
380.87	582.79
381.07	641.31
381.26	730.25
381.46	664.71
381.65	660.03
381.85	660.03
382.04	667.05
382.24	716.20
382.43	657.69
382.63	627.26
382.83	664.71
383.02	763.01
383.22	788.76
383.41	730.25
383.61	699.82
383.80	650.67
384.00	657.69
384.19	695.14
384.39	711.52
384.58	732.59
384.78	713.86
384.97	732.59
385.17	837.91
385.36	657.69
385.56	748.97
385.75	702.16
385.95	805.14
386.14	809.83
386.34	786.42
386.53	763.01
386.72	706.84
386.92	770.04
387.11	784.08
387.31	739.61
387.50	777.06
387.70	823.87
387.89	821.53
388.09	751.31
388.28	861.32
388.48	753.65
388.67	807.48
388.86	786.42
389.06	828.55
389.25	851.96
389.45	847.27
389.64	945.58
389.84	891.74
390.03	889.40
390.22	875.36
390.42	870.68
390.61	891.74
390.81	840.25
391.00	917.49
391.19	940.90
391.39	964.30
391.58	976.00
391.78	936.21
391.97	994.73
392.16	926.85
392.36	912.81
392.55	905.79
392.75	926.85
392.94	954.94
393.13	968.98
393.33	973.66
393.52	1083.67
393.71	994.73
393.91	1018.13
394.10	971.32
394.29	1001.75
394.49	1076.65
394.68	1062.60
394.88	1025.15
395.07	1069.62
395.26	1102.39
395.46	1060.26
395.65	1158.57
395.84	1146.86
396.04	1083.67
396.23	1135.16
396.42	1107.07
396.62	1109.41
396.81	1083.67
397.00	1057.92
397.19	1177.29
397.39	1254.53
397.58	1268.57
397.77	1167.93
397.97	1224.10
398.16	1254.53
398.35	1226.44
398.55	1224.10
398.74	1277.93
398.93	1273.25
399.12	1238.14
399.32	1233.46
399.51	1315.38
399.70	1404.32
399.90	1359.85
400.09	1343.47
400.28	1439.43
400.47	1458.15
400.67	1352.83
400.86	1390.28
401.05	1350.49
401.24	1420.71
401.44	1455.81
401.63	1387.94
401.82	1441.77
402.01	1504.96
402.21	1462.83
402.40	1519.01
402.59	1523.69
402.78	1500.28
402.97	1549.43
403.17	1549.43
403.36	1584.54
403.55	1598.59
403.74	1575.18
403.93	1612.63
404.13	1614.97
404.32	1664.12
404.51	1533.05
404.70	1631.35
404.89	1629.01
405.09	1657.10
405.28	1685.19
405.47	1600.93
405.66	1722.63
405.85	1713.27
406.05	1757.74
406.24	1736.68
406.43	1811.57
406.62	1760.08
406.81	1937.96
407.00	1813.92
407.20	1778.81
407.39	1753.06
407.58	1895.83
407.77	1900.52
407.96	1954.35
408.15	1837.32
408.34	1891.15
408.54	1834.98
408.73	1879.45
408.92	1921.58
409.11	2047.97
409.30	2040.95
409.49	1935.62
409.68	2015.20
409.87	1989.46
410.07	2078.40
410.26	2059.67
410.45	1961.37
410.64	2069.03
410.83	2118.18
411.02	2237.55
411.21	2223.51
411.40	2172.02
411.59	2228.19
411.78	2174.36
411.98	2197.76
412.17	2230.53
412.36	2265.64
412.55	2296.07
412.74	2333.51
412.93	2387.35
413.12	2363.94
413.31	2473.95
413.50	2443.52
413.69	2443.52
413.88	2417.77
414.07	2576.93
414.26	2588.63
414.45	2504.37
414.64	2548.84
414.83	2644.81
415.02	2689.28
415.22	2722.04
415.41	2677.57
415.60	2665.87
415.79	2768.85
415.98	2796.94
416.17	2719.70
416.36	2808.64
416.55	2888.22
416.74	2885.88
416.93	2871.84
417.12	2944.39
417.31	2820.35
417.50	2984.18
417.69	3117.59
417.88	3096.53
418.07	2953.76
418.26	3047.38
418.45	2909.29
418.64	3145.68
418.83	3112.91
419.02	3087.17
419.21	3030.99
419.39	3070.78
419.58	3180.79
419.77	3129.30
419.96	3030.99
420.15	3136.32
420.34	3236.96
420.53	3246.32
420.72	3251.00
420.91	3281.43
421.10	3232.28
421.29	3255.69
421.48	3300.16
421.67	3370.37
421.86	3180.79
422.05	3382.07
422.24	3323.56
422.43	3356.33
422.61	3421.86
422.80	3410.16
422.99	3442.93
423.18	3407.82
423.37	3552.93
423.56	3510.80
423.75	3375.05
423.94	3356.33
424.13	3178.45
424.32	3241.64
424.50	3508.46
424.69	3503.78
424.88	3541.23
425.07	3421.86
425.26	3410.16
425.45	3440.59
425.64	3501.44
425.83	3487.40
426.01	3499.10
426.20	3414.84
426.39	3480.38
426.58	3506.12
426.77	3438.25
426.96	3538.89
427.15	3456.97
427.33	3562.30
427.52	3740.18
427.71	3742.52
427.90	3749.54
428.09	3719.11
428.28	3770.60
428.46	3709.75
428.65	3721.45
428.84	3904.01
429.03	3712.09
429.22	3630.17
429.40	3782.31
429.59	3686.34
429.78	3536.55
429.97	3454.63
430.16	3779.97
430.34	3875.93
430.53	3878.27
430.72	3875.93
430.91	3847.84
431.10	3885.29
431.28	4037.42
431.47	4124.02
431.66	4065.51
431.85	4049.13
432.03	4007.00
432.22	3990.61
432.41	4074.87
432.60	4098.28
432.79	4126.36
432.97	4107.64
433.16	4217.65
433.35	4056.15
433.54	4203.60
433.72	4161.47
433.91	4229.35
434.10	4191.90
434.28	4276.16
434.47	4437.66
434.66	4269.14
434.85	4423.61
435.03	4252.75
435.22	4430.63
435.41	4573.41
435.59	4498.51
435.78	4332.33
435.97	4463.40
436.16	4418.93
436.34	4475.10
436.53	4451.70
436.72	4620.22
436.90	4383.82
437.09	4484.47
437.28	4484.47
437.46	4585.11
437.65	4608.51
437.84	4741.93
438.02	4564.04
438.21	4664.69
438.40	4592.13
438.58	4706.82
438.77	4678.73
438.96	4720.86
439.14	4992.36
439.33	4945.55
439.52	4765.33
439.70	4898.74
439.89	5069.60
440.08	5100.03
440.26	5018.11
440.45	4884.70
440.63	5088.32
440.82	5242.80
441.01	5210.03
441.19	5301.31
441.38	5348.12
441.57	5345.78
441.75	5467.49
441.94	5502.60
442.12	5542.39
442.31	5643.03
442.50	5481.53
442.68	5514.30
442.87	5584.52
443.05	5738.99
443.24	5668.78
443.43	5731.97
443.61	5804.53
443.80	5708.57
443.98	5366.85
444.17	5437.06
444.35	5675.80
444.54	5757.72
444.73	5748.36
444.91	5799.85
445.10	5734.31
445.28	5778.78
445.47	5734.31
445.65	5724.95
445.84	5668.78
446.02	5935.60
446.21	5748.36
446.39	5743.67
446.58	6120.50
446.77	5926.24
446.95	5750.70
447.14	6005.81
447.32	6017.52
447.51	5809.21
447.69	5743.67
447.88	5916.87
448.06	5874.74
448.25	6029.22
448.43	6061.99
448.62	5874.74
448.80	5951.98
448.99	6066.67
449.17	5956.66
449.36	6078.37
449.54	6057.31
449.73	6223.48
449.91	6127.52
450.10	6363.92
450.28	6242.21
450.46	6216.46
450.65	6157.95
450.83	6284.34
451.02	6069.01
451.20	6422.43
451.39	6223.48
451.57	6349.87
451.76	6125.18
451.94	6300.72
452.13	6298.38
452.31	6382.64
452.49	6132.20
452.68	6375.62
452.86	6448.18
453.05	6394.34
453.23	6586.27
453.42	6427.11
453.60	6347.53
453.78	6633.08
453.97	6406.05
454.15	6597.97
454.34	6415.41
454.52	6576.91
454.70	6616.69
454.89	6715.00
455.07	6832.02
455.26	6551.16
455.44	6656.48
455.62	6853.09
455.81	6960.75
455.99	6738.40
456.17	6731.38
456.36	6848.41
456.54	7138.63
456.73	7089.48
456.91	7180.76
457.09	7012.24
457.28	7185.44
457.46	7042.67
457.64	7220.55
457.83	7030.97
458.01	7054.37
458.19	7183.10
458.38	7187.79
458.56	7201.83
458.74	7386.73
458.93	7222.89
459.11	7368.01
459.29	7356.30
459.48	7349.28
459.66	7318.86
459.84	7431.20
460.03	7417.16
460.21	7421.84
460.39	7639.51
460.57	7391.41
460.76	7445.24
460.94	7859.52
461.12	7655.89
461.31	7527.16
461.49	7515.46
461.67	7611.42
461.85	7847.82
462.04	7728.45
462.22	8294.86
462.40	7920.37
462.59	7590.36
462.77	7747.17
462.95	7906.33
463.13	8114.64
463.32	8044.42
463.50	7941.44
463.68	7803.35
463.86	7866.54
464.05	7838.45
464.23	7791.64
464.41	8114.64
464.59	7880.58
464.78	8147.40
464.96	7981.23
465.14	8107.62
465.32	8154.43
465.50	8177.83
465.69	8414.23
465.87	8138.04
466.05	7948.46
466.23	8180.17
466.41	8290.18
466.60	8521.89
466.78	8325.29
466.96	8018.68
467.14	8170.81
467.32	8360.39
467.51	8484.44
467.69	8098.25
467.87	8308.90
468.05	8386.14
468.23	8486.78
468.41	8411.89
468.60	8407.20
468.78	8603.81
468.96	8741.90
469.14	8521.89
469.32	8655.30
469.50	8456.36
469.69	8564.02
469.87	8765.31
470.05	8692.75
470.23	8840.20
470.41	8669.34
470.59	8926.80
470.77	8741.90
470.95	8901.06
471.14	8973.61
471.32	8786.37
471.50	9202.99
471.68	8919.78
471.86	9076.60
472.04	9198.31
472.22	9210.01
472.40	9067.24
472.58	9228.73
472.77	9233.41
472.95	9418.32
473.13	9561.09
473.31	9345.76
473.49	9308.31
473.67	9540.02
473.85	9359.80
474.03	9687.48
474.21	9624.28
474.39	9631.30
474.57	9785.78
474.75	9802.16
474.93	9989.41
475.12	9980.04
475.30	10188.35
475.48	10033.88
475.66	10190.69
475.84	9879.40
476.02	10237.50
476.20	10036.22
476.38	10389.64
476.56	10558.16
476.74	10572.20
476.92	10593.26
477.10	10422.41
477.28	10761.78
477.46	10794.55
477.64	11009.88
477.82	10885.83
478.00	11075.42
478.18	11367.98
478.36	11529.48
478.54	11353.94
478.72	11136.27
478.90	11754.17
479.08	11644.17
479.26	11796.30
479.44	11850.13
479.62	11810.34
479.80	11913.33
479.98	11784.60
480.16	12292.49
480.34	12145.04
480.52	12194.19
480.70	12194.19
480.88	12133.34
481.06	12393.14
481.24	12294.83
481.41	12596.76
481.59	12980.61
481.77	12891.67
481.95	13198.28
482.13	12826.14
482.31	12762.94
482.49	13156.15
482.67	13364.46
482.85	13411.27
483.03	13575.11
483.21	13607.87
483.39	13666.39
483.57	13776.39
483.74	13970.66
483.92	14111.09
484.10	13720.22
484.28	14003.43
484.46	14494.94
484.64	14508.98
484.82	14370.89
485.00	14736.01
485.18	14527.71
485.35	15054.33
485.53	14916.23
485.71	14888.15
485.89	15250.93
486.07	15009.86
486.25	15264.97
486.43	15126.88
486.61	15449.88
486.78	15543.50
486.96	15585.63
487.14	15889.90
487.32	15899.26
487.50	16107.57
487.68	16283.11
487.85	16849.52
488.03	16823.77
488.21	16507.80
488.39	16545.25
488.57	17076.55
488.75	17116.34
488.92	17174.85
489.10	17411.25
489.28	17607.85
489.46	17577.42
489.64	17530.61
489.81	18108.72
489.99	18260.86
490.17	18125.11
490.35	18310.01
490.53	18239.79
490.70	18251.50
490.88	18614.28
491.06	18778.12
491.24	18728.97
491.41	18663.43
491.59	19049.62
491.77	18773.44
491.95	19349.21
492.13	19426.45
492.30	19445.17
492.48	19339.85
492.66	19557.52
492.84	19599.65
493.01	19754.12
493.19	19901.58
493.37	20149.67
493.54	20376.70
493.72	20357.98
493.90	20367.34
494.08	20706.72
494.25	20999.29
494.43	20929.07
494.61	21179.51
494.79	21097.59
494.96	21092.91
495.14	21301.22
495.32	21418.24
495.49	21687.40
495.67	21750.60
495.85	21521.23
496.02	21802.09
496.20	22108.70
496.38	21947.20
496.55	22113.38
496.73	22623.62
496.91	22253.81
497.09	22483.19
497.26	22700.86
497.44	22450.42
497.62	22742.99
497.79	23138.54
497.97	22939.59
498.14	23009.81
498.32	23140.88
498.50	23267.27
498.67	23632.39
498.85	23630.05
499.03	23548.13
499.20	23714.31
499.38	24170.71
499.56	23758.78
499.73	24027.94
499.91	24250.29
500.08	24339.23
500.26	24130.92
500.44	24182.42
500.61	24477.32
500.79	24135.60
500.97	24657.54
501.14	24947.77
501.32	24470.30
501.49	24870.53
501.67	25085.86
501.84	25151.40
502.02	25123.31
502.20	25429.92
502.37	25399.49
502.55	25420.56
502.72	25216.93
502.90	25535.24
503.07	25846.54
503.25	25851.22
503.43	25537.59
503.60	25851.22
503.78	25764.62
503.95	26010.37
504.13	26047.82
504.30	26277.19
504.48	26052.50
504.65	26424.65
504.83	26787.43
505.01	26466.78
505.18	26611.89
505.36	26759.34
505.53	26691.47
505.71	26927.86
505.88	27129.15
506.06	26558.06
506.23	27147.87
506.41	26918.50
506.58	26977.01
506.76	27124.47
506.93	27672.15
507.11	27417.04
507.28	27271.92
507.46	27735.35
507.63	27470.87
507.81	28086.43
507.98	27398.31
508.16	27711.94
508.33	28276.01
508.50	28044.30
508.68	28294.74
508.85	28687.95
509.03	28109.83
509.20	28465.60
509.38	28886.89
509.55	28596.67
509.73	28613.05
509.90	28617.73
510.08	28456.23
510.25	28540.49
510.42	29076.48
510.60	29034.35
510.77	28987.53
510.95	29603.10
511.12	29104.56
511.30	29516.50
511.47	29553.94
511.64	29535.22
511.82	29532.88
511.99	29628.84
512.17	29493.09
512.34	29408.83
512.51	30036.09
512.69	30195.25
512.86	29954.18
513.04	30251.42
513.21	30218.66
513.38	30195.25
513.56	30333.34
513.73	29998.65
513.90	30417.60
514.08	30221.00
514.25	30852.94
514.43	30813.15
514.60	30431.65
514.77	30387.18
514.95	31084.65
515.12	31051.89
515.29	31005.08
515.47	31213.38
515.64	31168.91
515.81	31395.95
515.99	31283.60
516.16	31452.12
516.33	31674.47
516.51	31089.34
516.68	31175.94
516.85	31199.34
517.03	31407.65
517.20	31737.66
517.37	31924.91
517.54	31845.33
517.72	32119.17
517.89	31632.34
518.06	31732.98
518.24	31627.66
518.41	31522.34
518.58	32034.91
518.75	31936.61
518.93	32496.00
519.10	32418.76
519.27	32622.39
519.45	32463.23
519.62	32947.72
519.79	32519.40
519.96	32716.01
520.14	33165.39
520.31	32837.72
520.48	32924.32
520.65	33509.45
520.83	33530.51
521.00	33404.13
521.17	33268.37
521.34	32818.99
521.52	33362.00
521.69	33376.04
521.86	33495.41
522.03	33624.14
522.20	33495.41
522.38	34106.29
522.55	33593.71
522.72	33537.54
522.89	33823.08
523.07	34139.05
523.24	33717.76
523.41	34199.91
523.58	34295.87
523.75	34682.06
523.92	34291.19
524.10	34518.22
524.27	34010.32
524.44	34382.47
524.61	34976.97
524.78	34824.83
524.96	34920.79
525.13	35103.35
525.30	35475.50
525.47	35438.05
525.64	35122.08
525.81	34850.58
525.98	34759.30
526.16	34838.87
526.33	35159.53
526.50	35379.54
526.67	34630.57
526.84	35096.33
527.01	35040.16
527.18	35211.02
527.36	35725.94
527.53	35028.46
527.70	36053.61
527.87	36037.23
528.04	35515.29
528.21	35805.52
528.38	35402.94
528.55	35990.42
528.72	35941.27
528.89	36201.07
529.07	36458.52
529.24	35768.07
529.41	36151.91
529.58	35772.75
529.75	35948.29
529.92	36224.47
530.09	36804.92
530.26	36212.77
530.43	36280.64
530.60	36404.69
530.77	36521.72
530.94	37144.30
531.11	36662.15
531.28	36561.51
531.46	36652.79
531.63	37001.53
531.80	36872.80
531.97	37015.57
532.14	36753.43
532.31	36947.70
532.48	37483.68
532.65	37376.01
532.82	37338.57
532.99	37455.59
533.16	36928.97
533.33	37195.79
533.50	37326.86
533.67	37343.25
533.84	37666.24
534.01	37633.47
534.18	37670.92
534.35	37352.61
534.52	37223.88
534.69	37806.67
534.86	38244.35
535.03	37851.14
535.20	38073.49
535.37	38124.99
535.54	38064.13
535.71	38005.62
535.88	37729.44
536.05	37912.00
536.22	38132.01
536.38	38506.49
536.55	38223.29
536.72	38305.21
536.89	37909.66
537.06	37757.52
537.23	38277.12
537.40	38424.57
537.57	38382.45
537.74	38171.80
537.91	38651.61
538.08	38614.16
538.25	38560.33
538.42	38162.43
538.59	38583.73
538.75	38146.05
538.92	38518.20
539.09	38667.99
539.26	39037.80
539.43	38752.25
539.60	38761.61
539.77	38941.83
539.94	38869.28
540.11	38675.01
540.28	38951.20
540.44	39138.44
540.61	38696.08
540.78	39274.19
540.95	38794.38
541.12	39260.15
541.29	39234.40
541.46	39206.31
541.62	39330.36
541.79	39370.15
541.96	39061.20
542.13	39421.64
542.30	39601.86
542.47	39269.51
542.63	39522.29
542.80	39917.84
542.97	40425.73
543.14	40032.52
543.31	40034.86
543.48	40414.03
543.64	40533.40
543.81	39707.19
543.98	40264.24
544.15	40261.90
544.32	40528.72
544.48	40514.67
544.65	40474.88
544.82	40840.01
544.99	40086.36
545.16	40664.47
545.32	41095.13
545.49	40425.73
545.66	40554.46
545.83	40425.73
546.00	40549.78
546.16	40751.07
546.33	40575.53
546.50	40414.03
546.67	41067.04
546.83	40308.71
547.00	40514.67
547.17	40718.30
547.34	40837.67
547.50	40905.54
547.67	41258.96
547.84	41083.42
548.00	40896.18
548.17	41029.59
548.34	41088.10
548.51	41301.09
548.67	41380.67
548.84	41450.89
549.01	41303.43
549.18	41460.25
549.34	41661.54
549.51	41319.82
549.68	41626.43
549.84	41455.57
550.01	41612.38
550.18	41261.30
550.34	41773.88
550.51	41273.01
550.68	41230.88
550.84	41254.28
551.01	41799.63
551.18	41670.90
551.34	41612.38
551.51	41333.86
551.68	41511.74
551.84	41696.64
552.01	41773.88
552.18	42045.38
552.34	41792.61
552.51	41979.85
552.68	41916.65
552.84	41982.19
553.01	42117.94
553.18	42326.25
553.34	42117.94
553.51	41656.85
553.67	42146.03
553.84	42181.13
554.01	42656.26
554.17	42394.12
554.34	42887.98
554.51	42122.62
554.67	42398.80
554.84	42302.84
555.00	42373.06
555.17	42272.42
555.33	42185.82
555.50	42443.27
555.67	42684.35
555.83	42258.37
556.00	42667.97
556.16	42539.24
556.33	42845.85
556.50	42419.87
556.66	42827.12
556.83	42454.98
556.99	42602.43
557.16	43100.97
557.32	42756.91
557.49	42562.64
557.65	42635.20
557.82	42792.01
557.98	42349.65
558.15	42813.08
558.32	43215.65
558.48	42724.14
558.65	43044.79
558.81	43367.79
558.98	43023.73
559.14	43208.63
559.31	43037.77
559.47	43236.72
559.64	43269.48
559.80	43454.39
559.97	42918.40
560.13	42473.70
560.30	42986.28
560.46	43068.20
560.63	42862.23
560.79	42967.55
560.96	43491.83
561.12	43096.28
561.29	43344.38
561.45	43189.91
561.61	43164.16
561.78	43086.92
561.94	43117.35
562.11	43608.86
562.27	43049.47
562.44	43309.27
562.60	43765.68
562.77	43622.90
562.93	43625.25
563.10	43311.61
563.26	43100.97
563.42	43538.65
563.59	43271.82
563.75	43501.20
563.92	43634.61
564.08	43475.45
564.24	43730.57
564.41	43587.80
564.57	43304.59
564.74	43498.86
564.90	43840.57
565.07	43564.39
565.23	43779.72
565.39	43206.29
565.56	43833.55
565.72	43372.47
565.88	43498.86
566.05	43339.70
566.21	43309.27
566.38	43395.87
566.54	43650.99
566.70	43957.60
566.87	43641.63
567.03	43819.51
567.19	43772.70
567.36	43454.39
567.52	43861.64
567.68	43906.11
567.85	43372.47
568.01	43648.65
568.17	43803.13
568.34	44013.77
568.50	43969.30
568.66	43697.80
568.83	43978.67
568.99	43636.95
569.15	43753.97
569.32	43496.52
569.48	44025.48
569.64	43892.07
569.81	44280.60
569.97	43810.15
570.13	43892.07
570.30	43672.06
570.46	43676.74
570.62	43716.53
570.78	43842.92
570.95	43468.43
571.11	44065.27
571.27	43931.86
571.43	43770.36
571.60	44060.58
571.76	43728.23
571.92	43711.84
572.09	44392.94
572.25	44098.03
572.41	43548.01
572.57	44168.25
572.74	44177.61
572.90	44013.77
573.06	44100.37
573.22	44327.41
573.38	44250.17
573.55	43702.48
573.71	44128.46
573.87	43973.98
574.03	43882.70
574.20	43793.76
574.36	44336.77
574.52	44172.93
574.68	44011.43
574.84	43648.65
575.01	44004.41
575.17	44460.82
575.33	44020.80
575.49	43976.33
575.65	44231.44
575.82	44460.82
575.98	44294.64
576.14	44856.37
576.30	44594.23
576.46	44367.20
576.62	44081.65
576.79	44402.30
576.95	43878.02
577.11	44369.54
577.27	44236.12
577.43	44231.44
577.59	44142.50
577.75	44704.23
577.92	43629.93
578.08	43714.19
578.24	43945.90
578.40	44041.86
578.56	43779.72
578.72	44245.49
578.88	44856.37
579.04	44744.02
579.21	44402.30
579.37	43945.90
579.53	44259.53
579.69	44175.27
579.85	44067.61
580.01	44704.23
580.17	44383.58
580.33	44533.37
580.49	44158.89
580.65	44311.02
580.82	44294.64
580.98	44332.09
581.14	43833.55
581.30	44872.75
581.46	44484.22
581.62	44055.90
581.78	44226.76
581.94	44519.33
582.10	44570.82
582.26	44432.73
582.42	44495.92
582.58	44334.43
582.74	44299.32
582.90	44362.51
583.06	44706.57
583.22	44467.84
583.38	44261.87
583.54	44044.20
583.70	44044.20
583.86	44318.04
584.02	43658.01
584.18	44086.33
584.34	44254.85
584.50	44538.05
584.66	44271.23
584.82	44701.89
584.98	44650.40
585.14	44615.29
585.30	44226.76
585.46	44505.29
585.62	44088.67
585.78	43995.05
585.94	44023.14
586.10	44261.87
586.26	44493.58
586.42	44528.69
586.58	44648.06
586.74	44526.35
586.90	44456.14
587.06	43835.89
587.22	44348.47
587.38	44559.12
587.54	44856.37
587.70	44762.75
587.86	44439.75
588.02	44577.84
588.18	44837.64
588.34	44458.48
588.49	44140.16
588.65	44275.91
588.81	44046.54
588.97	44423.37
589.13	44381.24
589.29	44512.31
589.45	44484.22
589.61	44076.97
589.77	44994.46
589.93	44643.38
590.08	44634.02
590.24	44779.13
590.40	44601.25
