SpectraSuite Data File
++++++++++++++++++++++++++++++++++++
Date: Fri Oct 25 10:48:24 EDT 2013
User: price-jones
Dark Spectrum Present: No
Reference Spectrum Present: No
Number of Sampled Component Spectra: 1
Spectrometers: USB2+H05261
Integration Time (usec): 100000 (USB2+H05261)
Spectra Averaged: 1 (USB2+H05261)
Boxcar Smoothing: 0 (USB2+H05261)
Correct for Electrical Dark: No (USB2+H05261)
Strobe/Lamp Enabled: No (USB2+H05261)
Correct for Detector Non-linearity: No (USB2+H05261)
Correct for Stray Light: No (USB2+H05261)
Number of Pixels in Processed Spectrum: 2048
>>>>>Begin Processed Spectral Data<<<<<
365.73	149.79
365.92	149.79
366.12	149.79
366.32	39.79
366.52	37.45
366.72	44.47
366.91	53.83
367.11	42.13
367.31	98.30
367.51	25.75
367.70	77.24
367.90	42.13
368.10	0.00
368.30	44.47
368.49	65.54
368.69	53.83
368.89	35.11
369.09	49.15
369.28	98.30
369.48	110.01
369.68	84.26
369.87	131.07
370.07	86.60
370.27	95.96
370.47	212.99
370.66	386.19
370.86	489.17
371.06	416.62
371.25	510.24
371.45	461.09
371.65	482.15
371.84	524.28
372.04	416.62
372.24	528.96
372.44	454.06
372.63	514.92
372.83	535.98
373.03	531.30
373.22	521.94
373.42	493.85
373.62	540.66
373.81	613.22
374.01	566.41
374.21	585.13
374.40	554.71
374.60	496.19
374.79	573.43
374.99	561.73
375.19	510.24
375.38	578.11
375.58	629.60
375.78	655.35
375.97	653.01
376.17	648.33
376.37	638.97
376.56	688.12
376.76	599.18
376.95	582.79
377.15	671.73
377.35	645.99
377.54	589.82
377.74	709.18
377.93	582.79
378.13	585.13
378.33	685.78
378.52	767.70
378.72	669.39
378.91	676.41
379.11	617.90
379.31	638.97
379.50	608.54
379.70	620.24
379.89	720.88
380.09	566.41
380.28	667.05
380.48	702.16
380.68	704.50
380.87	709.18
381.07	748.97
381.26	699.82
381.46	723.23
381.65	748.97
381.85	737.27
382.04	716.20
382.24	671.73
382.43	706.84
382.63	690.46
382.83	763.01
383.02	805.14
383.22	734.93
383.41	748.97
383.61	758.33
383.80	760.67
384.00	772.38
384.19	826.21
384.39	739.61
384.58	774.72
384.78	777.06
384.97	833.23
385.17	753.65
385.36	882.38
385.56	866.00
385.75	709.18
385.95	711.52
386.14	809.83
386.34	788.76
386.53	840.25
386.72	802.80
386.92	854.30
387.11	912.81
387.31	880.04
387.50	847.27
387.70	873.02
387.89	905.79
388.09	866.00
388.28	847.27
388.48	889.40
388.67	901.11
388.86	926.85
389.06	891.74
389.25	994.73
389.45	1006.43
389.64	926.85
389.84	976.00
390.03	933.87
390.22	922.17
390.42	945.58
390.61	1039.20
390.81	1004.09
391.00	1004.09
391.19	994.73
391.39	957.28
391.58	1041.54
391.78	1090.69
391.97	999.41
392.16	1020.47
392.36	1095.37
392.55	985.37
392.75	971.32
392.94	1011.11
393.13	1071.97
393.33	1125.80
393.52	1057.92
393.71	1156.22
393.91	1184.31
394.10	1034.52
394.29	1097.71
394.49	1156.22
394.68	1104.73
394.88	1238.14
395.07	1256.87
395.26	1214.74
395.46	1156.22
395.65	1203.04
395.84	1249.85
396.04	1214.74
396.23	1130.48
396.42	1076.65
396.62	1156.22
396.81	1165.59
397.00	1221.76
397.19	1203.04
397.39	1245.16
397.58	1380.92
397.77	1371.55
397.97	1376.24
398.16	1441.77
398.35	1390.28
398.55	1507.30
398.74	1420.71
398.93	1455.81
399.12	1481.56
399.32	1476.88
399.51	1472.20
399.70	1497.94
399.90	1558.80
400.09	1540.07
400.28	1479.22
400.47	1584.54
400.67	1624.33
400.86	1631.35
401.05	1621.99
401.24	1610.29
401.44	1598.59
401.63	1636.03
401.82	1605.61
402.01	1741.36
402.21	1750.72
402.40	1647.74
402.59	1638.38
402.78	1650.08
402.97	1675.82
403.17	1746.04
403.36	1652.42
403.55	1689.87
403.74	1706.25
403.93	1802.21
404.13	1753.06
404.32	1771.79
404.51	1872.43
404.70	1916.90
404.89	1797.53
405.09	1879.45
405.28	1888.81
405.47	1837.32
405.66	1949.67
405.85	1856.04
406.05	1926.26
406.24	1975.41
406.43	2071.37
406.62	1959.03
406.81	2003.50
407.00	2033.93
407.20	2019.88
407.39	2022.22
407.58	2033.93
407.77	2080.74
407.96	2101.80
408.15	2047.97
408.34	2101.80
408.54	2218.83
408.73	2139.25
408.92	2282.02
409.11	2263.30
409.30	2258.62
409.49	2186.06
409.68	2169.68
409.87	2188.40
410.07	2209.47
410.26	2242.23
410.45	2298.41
410.64	2370.96
410.83	2345.22
411.02	2427.14
411.21	2462.24
411.40	2532.46
411.59	2597.99
411.78	2356.92
411.98	2506.71
412.17	2534.80
412.36	2558.21
412.55	2600.34
412.74	2619.06
412.93	2715.02
413.12	2541.82
413.31	2628.42
413.50	2649.49
413.69	2869.50
413.88	2888.22
414.07	2768.85
414.26	2855.45
414.45	2740.77
414.64	2843.75
414.83	2967.80
415.02	2834.39
415.22	2981.84
415.41	3038.02
415.60	3000.57
415.79	3124.62
415.98	3112.91
416.17	2998.23
416.36	3019.29
416.55	3159.72
416.74	3133.98
416.93	3279.09
417.12	3122.27
417.31	3300.16
417.50	3318.88
417.69	3330.58
417.88	3290.79
418.07	3265.05
418.26	3309.52
418.45	3403.14
418.64	3417.18
418.83	3384.41
419.02	3384.41
419.21	3501.44
419.39	3375.05
419.58	3309.52
419.77	3461.65
419.96	3658.26
420.15	3489.74
420.34	3459.31
420.53	3501.44
420.72	3684.00
420.91	3716.77
421.10	3627.83
421.29	3735.50
421.48	3669.96
421.67	3723.79
421.86	3791.67
422.05	3630.17
422.24	3749.54
422.43	3751.88
422.61	3669.96
422.80	3796.35
422.99	3810.39
423.18	3779.97
423.37	3878.27
423.56	3777.62
423.75	3871.25
423.94	3581.02
424.13	3536.55
424.32	3672.30
424.50	3808.05
424.69	3927.42
424.88	3873.59
425.07	3791.67
425.26	3817.41
425.45	3740.18
425.64	3819.75
425.83	3829.12
426.01	4011.68
426.20	3889.97
426.39	3922.74
426.58	3852.52
426.77	3751.88
426.96	3941.46
427.15	3911.04
427.33	3873.59
427.52	3995.29
427.71	3815.07
427.90	3950.82
428.09	3920.40
428.28	4039.76
428.46	4072.53
428.65	4119.34
428.84	4215.30
429.03	3932.10
429.22	3932.10
429.40	3936.78
429.59	4117.00
429.78	3749.54
429.97	3803.37
430.16	3826.78
430.34	4159.13
430.53	4147.43
430.72	4231.69
430.91	4177.86
431.10	4175.52
431.28	4418.93
431.47	4486.81
431.66	4512.55
431.85	4308.93
432.03	4526.60
432.22	4620.22
432.41	4470.42
432.60	4561.70
432.79	4475.10
432.97	4627.24
433.16	4568.73
433.35	4461.06
433.54	4592.13
433.72	4578.09
433.91	4643.62
434.10	4564.04
434.28	4610.86
434.47	4617.88
434.66	4564.04
434.85	4868.31
435.03	4788.74
435.22	4891.72
435.41	4922.15
435.59	4837.89
435.78	5039.17
435.97	4936.19
436.16	4882.36
436.34	4823.84
436.53	4987.68
436.72	4975.98
436.90	4971.30
437.09	4964.28
437.28	4830.87
437.46	4957.25
437.65	5008.75
437.84	5060.24
438.02	5102.37
438.21	4985.34
438.40	5116.41
438.58	5310.68
438.77	5268.55
438.96	5055.56
439.14	5334.08
439.33	5427.70
439.52	5359.83
439.70	5460.47
439.89	5530.69
440.08	5514.30
440.26	5474.51
440.45	5476.85
440.63	5441.75
440.82	5870.06
441.01	5671.12
441.19	5795.17
441.38	5839.64
441.57	5809.21
441.75	6005.81
441.94	5984.75
442.12	5930.92
442.31	6155.61
442.50	6150.93
442.68	6085.39
442.87	5951.98
443.05	6120.50
443.24	6249.23
443.43	6174.33
443.61	6286.68
443.80	6392.00
443.98	6057.31
444.17	6043.26
444.35	6181.35
444.54	6509.03
444.73	6270.30
444.91	6342.85
445.10	6218.80
445.28	6228.17
445.47	6054.97
445.65	6167.31
445.84	6207.10
446.02	6312.42
446.21	6457.54
446.39	6267.95
446.58	6445.84
446.77	6422.43
446.95	6286.68
447.14	6558.18
447.32	6555.84
447.51	6553.50
447.69	6221.14
447.88	6392.00
448.06	6445.84
448.25	6483.28
448.43	6466.90
448.62	6520.73
448.80	6242.21
448.99	6462.22
449.17	6672.87
449.36	6492.65
449.54	6672.87
449.73	6794.58
449.91	6892.88
450.10	6909.26
450.28	6923.30
450.46	7007.56
450.65	7070.76
450.83	7040.33
451.02	6626.06
451.20	6991.18
451.39	6796.92
451.57	6764.15
451.76	6752.45
451.94	6890.54
452.13	7023.95
452.31	6906.92
452.49	6789.89
452.68	6939.69
452.86	6883.52
453.05	6974.80
453.23	7052.03
453.42	7012.24
453.60	7124.59
453.78	7239.28
453.97	7150.34
454.15	7110.55
454.34	7162.04
454.52	7206.51
454.70	7321.20
454.89	7396.09
455.07	7239.28
455.26	7363.33
455.44	7478.01
455.62	7534.18
455.81	7400.77
455.99	7466.31
456.17	7524.82
456.36	7569.29
456.54	7613.76
456.73	7613.76
456.91	7826.75
457.09	7822.07
457.28	8018.68
457.46	7564.61
457.64	7880.58
457.83	7850.16
458.01	7602.06
458.19	8182.51
458.38	7829.09
458.56	7810.37
458.74	7934.42
458.93	7992.93
459.11	7836.11
459.29	7941.44
459.48	7868.88
459.66	7857.18
459.84	8105.28
460.03	8313.58
460.21	7988.25
460.39	8194.22
460.57	8332.31
460.76	8276.13
460.94	8439.97
461.12	8395.50
461.31	8376.78
461.49	8264.43
461.67	8285.50
461.85	8465.72
462.04	8624.87
462.22	9001.70
462.40	8627.21
462.59	8617.85
462.77	8423.59
462.95	8669.34
463.13	8615.51
463.32	8446.99
463.50	8856.59
463.68	8837.86
463.86	8769.99
464.05	8449.33
464.23	8652.96
464.41	8835.52
464.59	8753.60
464.78	8809.78
464.96	8912.76
465.14	8627.21
465.32	8959.57
465.50	8870.63
465.69	9111.71
465.87	8877.65
466.05	8851.91
466.23	8835.52
466.41	8966.59
466.60	9102.34
466.78	8943.19
466.96	8917.44
467.14	8938.51
467.32	9008.72
467.51	9121.07
467.69	9004.04
467.87	8987.66
468.05	9256.82
468.23	9060.21
468.41	9167.88
468.60	9289.59
468.78	9376.19
468.96	9118.73
469.14	9247.46
469.32	9282.56
469.50	9153.84
469.69	9413.63
469.87	9685.14
470.05	9540.02
470.23	9507.26
470.41	9516.62
470.59	9661.73
470.77	9584.49
470.95	9678.12
471.14	9708.54
471.32	9516.62
471.50	9877.06
471.68	9893.44
471.86	9893.44
472.04	9841.95
472.22	10286.65
472.40	10148.56
472.58	10066.64
472.77	9958.98
472.95	10155.58
473.13	10785.19
473.31	10066.64
473.49	10054.94
473.67	10333.47
473.85	10218.78
474.03	10506.66
474.21	10537.09
474.39	10672.84
474.57	10787.53
474.75	10815.62
474.93	10693.91
475.12	10658.80
475.30	10895.19
475.48	10761.78
475.66	10902.22
475.84	10883.49
476.02	10813.28
476.20	11101.16
476.38	11281.38
476.56	11405.43
476.74	11529.48
476.92	11417.13
477.10	11522.46
477.28	11461.60
477.46	11733.11
477.64	11892.26
477.82	12039.72
478.00	12224.62
478.18	12028.01
478.36	12098.23
478.54	12269.09
478.72	12489.10
478.90	12599.10
479.08	12791.03
479.26	12847.20
479.44	12683.36
479.62	12723.15
479.80	13069.55
479.98	13128.06
480.16	13212.32
480.34	12952.52
480.52	13369.14
480.70	13455.74
480.88	13329.35
481.06	13462.76
481.24	13507.23
481.41	13804.48
481.59	13907.46
481.77	14162.58
481.95	14232.80
482.13	14197.69
482.31	14310.04
482.49	14312.38
482.67	14471.53
482.85	14508.98
483.03	14808.57
483.21	15049.64
483.39	15005.17
483.57	14991.13
483.74	14906.87
483.92	15103.48
484.10	15075.39
484.28	15442.85
484.46	15489.67
484.64	15927.35
484.82	15665.21
485.00	15653.50
485.18	16100.55
485.35	16070.12
485.53	15747.12
485.71	15896.92
485.89	16025.65
486.07	15974.16
486.25	16126.29
486.43	16517.16
486.61	16592.06
486.78	16779.30
486.96	16926.75
487.14	17142.08
487.32	17280.18
487.50	17502.53
487.68	17614.87
487.85	17804.46
488.03	17956.59
488.21	18214.05
488.39	17806.80
488.57	18312.35
488.75	18408.31
488.92	18726.63
489.10	18932.59
489.28	18698.54
489.46	18984.09
489.64	19012.17
489.81	19772.85
489.99	19784.55
490.17	19545.81
490.35	19634.75
490.53	19566.88
490.70	20027.96
490.88	19836.04
491.06	20177.76
491.24	20161.37
491.41	20556.93
491.59	20367.34
491.77	20376.70
491.95	20933.75
492.13	20833.11
492.30	21228.66
492.48	21018.01
492.66	21411.22
492.84	21146.74
493.01	21404.20
493.19	21486.12
493.37	21781.03
493.54	21844.22
493.72	21900.39
493.90	22036.14
494.08	22251.47
494.25	22588.51
494.43	22623.62
494.61	22731.28
494.79	22703.20
494.96	22794.48
495.14	22698.52
495.32	22925.55
495.49	23058.96
495.67	23342.16
495.85	23583.24
496.02	23288.33
496.20	23662.82
496.38	23491.96
496.55	23922.62
496.73	24526.47
496.91	24297.10
497.09	24463.28
497.26	24489.03
497.44	24311.14
497.62	24243.27
497.79	24755.85
497.97	24418.81
498.14	24552.22
498.32	25268.42
498.50	24938.41
498.67	25256.72
498.85	25357.36
499.03	25504.82
499.20	25514.18
499.38	25944.84
499.56	25785.68
499.73	26101.65
499.91	26174.21
500.08	25914.41
500.26	26038.46
500.44	26064.21
500.61	25935.48
500.79	25907.39
500.97	26457.42
501.14	26614.23
501.32	26686.79
501.49	26459.76
501.67	26593.17
501.84	26595.51
502.02	26696.15
502.20	27028.51
502.37	27295.33
502.55	27182.98
502.72	27171.28
502.90	27215.75
503.07	27475.55
503.25	27805.56
503.43	27255.54
503.60	27847.69
503.78	27721.30
503.95	27782.16
504.13	27758.75
504.30	28060.68
504.48	27850.03
504.65	28369.63
504.83	28297.08
505.01	28350.91
505.18	28395.38
505.36	29034.35
505.53	28507.72
505.71	28795.61
505.88	29039.03
506.06	28828.38
506.23	29230.95
506.41	29029.66
506.58	29027.32
506.76	29181.80
506.93	29371.38
507.11	29099.88
507.28	29294.14
507.46	29563.31
507.63	29642.88
507.81	29752.89
507.98	29163.08
508.16	29825.45
508.33	29638.20
508.50	30066.52
508.68	30101.63
508.85	30089.93
509.03	29682.67
509.20	30525.27
509.38	30469.09
509.55	30871.67
509.73	30623.57
509.90	31042.53
510.08	30953.58
510.25	31035.50
510.42	30909.11
510.60	30883.37
510.77	31262.54
510.95	31005.08
511.12	31136.15
511.30	31517.65
511.47	31894.48
511.64	31613.62
511.82	31360.84
511.99	31765.75
512.17	31426.37
512.34	31917.89
512.51	31915.54
512.69	31817.24
512.86	32060.66
513.04	32575.58
513.21	32280.67
513.38	32280.67
513.56	32158.96
513.73	32198.75
513.90	32514.72
514.08	32400.04
514.25	32575.58
514.43	32428.12
514.60	32304.07
514.77	32884.53
514.95	32706.65
515.12	32816.65
515.29	32968.79
515.47	33404.13
515.64	33170.07
515.81	33453.28
515.99	33095.18
516.16	33516.47
516.33	33013.26
516.51	32989.85
516.68	32971.13
516.85	32765.16
517.03	33448.60
517.20	33666.27
517.37	33518.81
517.54	34010.32
517.72	33741.16
517.89	33710.74
518.06	33675.63
518.24	33628.82
518.41	33818.40
518.58	34026.71
518.75	33935.43
518.93	34504.18
519.10	34225.65
519.27	34415.24
519.45	34754.61
519.62	34712.49
519.79	34761.64
519.96	35012.07
520.14	34855.26
520.31	34443.32
520.48	35225.06
520.65	34946.54
520.83	35222.72
521.00	35363.15
521.17	35096.33
521.34	35115.06
521.52	35517.63
521.69	35452.09
521.86	35672.10
522.03	35714.23
522.20	35590.19
522.38	35644.02
522.55	36243.20
522.72	35763.39
522.89	35344.43
523.07	36170.64
523.24	35878.07
523.41	36259.58
523.58	36446.82
523.75	36678.54
523.92	36521.72
524.10	36294.69
524.27	36535.76
524.44	36601.30
524.61	36872.80
524.78	36818.97
524.96	37027.28
525.13	36933.65
525.30	37331.54
525.47	37064.72
525.64	37097.49
525.81	37493.04
525.98	36980.46
526.16	36828.33
526.33	36762.79
526.50	37099.83
526.67	37261.33
526.84	37284.73
527.01	36863.44
527.18	37390.06
527.36	37706.03
527.53	37593.68
527.70	38363.72
527.87	37720.07
528.04	37713.05
528.21	38029.02
528.38	37717.73
528.55	38307.55
528.72	38417.55
528.89	38464.36
529.07	38281.80
529.24	38485.43
529.41	38579.05
529.58	38438.62
529.75	38139.03
529.92	38382.45
530.09	38277.12
530.26	38410.53
530.43	38827.15
530.60	38319.25
530.77	38693.74
530.94	39243.76
531.11	38555.64
531.28	39005.03
531.46	38778.00
531.63	39152.48
531.80	38972.26
531.97	39112.69
532.14	39185.25
532.31	38930.13
532.48	39086.95
532.65	39573.78
532.82	39405.26
532.99	39222.70
533.16	38745.23
533.33	39189.93
533.50	39014.39
533.67	39651.02
533.84	39882.73
534.01	39529.31
534.18	39742.30
534.35	39782.09
534.52	39541.01
534.69	39578.46
534.86	39679.10
535.03	39721.23
535.20	40210.40
535.37	40315.73
535.54	40297.00
535.71	39744.64
535.88	40149.55
536.05	40311.05
536.22	40404.67
536.38	40123.80
536.55	40353.18
536.72	40292.32
536.89	40023.16
537.06	40091.04
537.23	40722.98
537.40	40465.52
537.57	40671.49
537.74	40369.56
537.91	41235.56
538.08	40517.01
538.25	40161.25
538.42	41036.61
538.59	41160.66
538.75	40715.96
538.92	40577.87
539.09	40994.48
539.26	40678.51
539.43	40769.79
539.60	41184.07
539.77	40781.49
539.94	41462.59
540.11	40957.03
540.28	40898.52
540.44	40968.74
540.61	40835.33
540.78	40992.14
540.95	40830.65
541.12	41237.90
541.29	41476.63
541.46	41249.60
541.62	41401.74
541.79	41762.18
541.96	41111.51
542.13	41443.87
542.30	41305.77
542.47	41457.91
542.63	41621.75
542.80	41422.80
542.97	42197.52
543.14	42564.98
543.31	41926.02
543.48	42017.30
543.64	42873.93
543.81	42337.95
543.98	42410.51
544.15	42305.18
544.32	42848.19
544.48	42438.59
544.65	42611.79
544.82	42731.16
544.99	42183.48
545.16	42387.10
545.32	42349.65
545.49	42618.81
545.66	43096.28
545.83	42204.54
546.00	43033.09
546.16	42649.24
546.33	42862.23
546.50	42075.81
546.67	42712.44
546.83	42656.26
547.00	42471.36
547.17	42773.29
547.34	42707.76
547.50	43133.73
547.67	42960.53
547.84	43126.71
548.00	43173.52
548.17	43442.68
548.34	43082.24
548.51	43255.44
548.67	43707.16
548.84	43742.27
549.01	43000.32
549.18	43075.22
549.34	43861.64
549.51	43545.67
549.68	43442.68
549.84	43627.59
550.01	43756.32
550.18	43423.96
550.34	43395.87
550.51	43454.39
550.68	43753.97
550.84	43423.96
551.01	43622.90
551.18	43793.76
551.34	43508.22
551.51	43264.80
551.68	43412.26
551.84	43629.93
552.01	43887.39
552.18	43667.37
552.34	43332.68
552.51	43920.15
552.68	44095.69
552.84	44311.02
553.01	44116.76
553.18	43620.56
553.34	44186.97
553.51	43690.78
553.67	44538.05
553.84	44570.82
554.01	44847.00
554.17	44587.21
554.34	44292.30
554.51	44315.70
554.67	44636.36
554.84	44481.88
555.00	44264.21
555.17	43981.01
555.33	44254.85
555.50	44409.32
555.67	44449.11
555.83	44664.44
556.00	44453.79
556.16	44952.33
556.33	44683.17
556.50	44825.94
556.66	44683.17
556.83	44154.21
556.99	44491.24
557.16	44968.71
557.32	44825.94
557.49	44643.38
557.65	44996.80
557.82	44535.71
557.98	44662.10
558.15	44741.68
558.32	44893.82
558.48	44374.22
558.65	44512.31
558.81	44711.25
558.98	44821.26
559.14	44804.88
559.31	44327.41
559.47	44905.52
559.64	45188.72
559.80	45104.46
559.97	45085.74
560.13	44685.51
560.30	45488.31
560.46	45256.60
560.63	45097.44
560.79	45319.79
560.96	45375.97
561.12	45052.97
561.29	45226.17
561.45	45310.43
561.61	45237.87
561.78	45200.43
561.94	45249.58
562.11	45214.47
562.27	45034.25
562.44	45020.20
562.60	45682.58
562.77	45436.82
562.93	45684.92
563.10	45200.43
563.26	45041.27
563.42	45507.04
563.59	45453.20
563.75	45539.80
563.92	45354.90
564.08	45329.16
564.24	45530.44
564.41	45338.52
564.57	45244.90
564.74	45146.59
564.90	45525.76
565.07	45911.95
565.23	45352.56
565.39	45560.87
565.56	45656.83
565.72	45610.02
565.88	45757.47
566.05	45497.67
566.21	45464.91
566.38	45544.48
566.54	45516.40
566.70	46010.25
566.87	45771.52
567.03	45420.44
567.19	46073.45
567.36	45937.69
567.52	45549.17
567.68	45813.65
567.85	45720.02
568.01	45666.19
568.17	45633.42
568.34	45708.32
568.50	45624.06
568.66	45715.34
568.83	45380.65
568.99	45308.09
569.15	45909.61
569.32	45415.76
569.48	45406.39
569.64	45722.37
569.81	45631.08
569.97	46117.92
570.13	45670.87
570.30	45228.51
570.46	45823.01
570.62	45441.50
570.78	45640.45
570.95	45724.71
571.11	45532.78
571.27	45780.88
571.43	45549.17
571.60	46036.00
571.76	45595.98
571.92	45532.78
572.09	45865.14
572.25	45717.68
572.41	45689.60
572.57	45722.37
572.74	46471.34
572.90	46157.70
573.06	45598.32
573.22	45631.08
573.38	45759.81
573.55	45368.94
573.71	46033.66
573.87	45476.61
574.03	45806.62
574.20	45710.66
574.36	45720.02
574.52	45874.50
574.68	45780.88
574.84	45825.35
575.01	45860.46
575.17	45462.57
575.33	45837.05
575.49	45338.52
575.65	45954.08
575.82	46316.86
575.98	45886.20
576.14	46136.64
576.30	45698.96
576.46	45715.34
576.62	46014.93
576.79	45633.42
576.95	45523.42
577.11	46050.04
577.27	45762.15
577.43	45996.21
577.59	46017.27
577.75	45921.31
577.92	45780.88
578.08	45160.64
578.24	45621.72
578.40	45801.94
578.56	46078.13
578.72	45839.39
578.88	45839.39
579.04	45574.91
579.21	45860.46
579.37	45680.24
579.53	45715.34
579.69	45956.42
579.85	46017.27
580.01	46167.07
580.17	46174.09
580.33	46258.35
580.49	46476.02
580.65	46274.73
580.82	46162.39
580.98	46450.27
581.14	46216.22
581.30	46054.72
581.46	46012.59
581.62	46160.05
581.78	45509.38
581.94	46178.77
582.10	46134.30
582.26	46169.41
582.42	46178.77
582.58	46153.02
582.74	45930.67
582.90	46073.45
583.06	46382.40
583.22	46204.52
583.38	46101.53
583.54	46440.91
583.70	45984.51
583.86	45881.52
584.02	45928.33
584.18	46108.55
584.34	46298.14
584.50	46024.29
584.66	46087.49
584.82	46117.92
584.98	46122.60
585.14	45652.15
585.30	45972.80
585.46	45944.72
585.62	45687.26
585.78	45539.80
585.94	45771.52
586.10	45762.15
586.26	45958.76
586.42	46143.66
586.58	46410.48
586.74	46508.79
586.90	45907.27
587.06	45844.07
587.22	46176.43
587.38	45640.45
587.54	45942.38
587.70	46586.02
587.86	45902.59
588.02	45947.06
588.18	46426.87
588.34	45752.79
588.49	45603.00
588.65	45837.05
588.81	45453.20
588.97	45769.18
589.13	45549.17
589.29	45666.19
589.45	45993.87
589.61	45986.85
589.77	46155.36
589.93	46089.83
590.08	46560.28
