SpectraSuite Data File
++++++++++++++++++++++++++++++++++++
Date: Fri Oct 25 11:22:34 EDT 2013
User: price-jones
Dark Spectrum Present: No
Reference Spectrum Present: No
Number of Sampled Component Spectra: 1
Spectrometers: USB2+H05261
Integration Time (usec): 100000 (USB2+H05261)
Spectra Averaged: 1 (USB2+H05261)
Boxcar Smoothing: 0 (USB2+H05261)
Correct for Electrical Dark: No (USB2+H05261)
Strobe/Lamp Enabled: No (USB2+H05261)
Correct for Detector Non-linearity: No (USB2+H05261)
Correct for Stray Light: No (USB2+H05261)
Number of Pixels in Processed Spectrum: 2048
>>>>>Begin Processed Spectral Data<<<<<
365.73	264.48
365.92	264.48
366.12	264.48
366.32	175.54
366.52	60.85
366.72	173.20
366.91	145.11
367.11	149.79
367.31	154.48
367.51	42.13
367.70	114.69
367.90	180.22
368.10	100.64
368.30	168.52
368.49	152.13
368.69	163.84
368.89	196.60
369.09	100.64
369.28	161.50
369.48	168.52
369.68	203.63
369.87	273.84
370.07	252.78
370.27	189.58
370.47	276.18
370.66	596.84
370.86	561.73
371.06	685.78
371.25	655.35
371.45	699.82
371.65	690.46
371.84	688.12
372.04	695.14
372.24	711.52
372.44	655.35
372.63	763.01
372.83	734.93
373.03	746.63
373.22	781.74
373.42	798.12
373.62	770.04
373.81	844.93
374.01	894.08
374.21	854.30
374.40	809.83
374.60	861.32
374.79	777.06
374.99	793.44
375.19	809.83
375.38	905.79
375.58	791.10
375.78	870.68
375.97	786.42
376.17	1001.75
376.37	908.13
376.56	748.97
376.76	849.61
376.95	866.00
377.15	959.62
377.35	875.36
377.54	828.55
377.74	880.04
377.93	912.81
378.13	837.91
378.33	837.91
378.52	936.21
378.72	966.64
378.91	952.60
379.11	1011.11
379.31	947.92
379.50	938.55
379.70	896.43
379.89	997.07
380.09	957.28
380.28	1008.77
380.48	997.07
380.68	1046.22
380.87	945.58
381.07	971.32
381.26	1043.88
381.46	1036.86
381.65	1001.75
381.85	1008.77
382.04	1025.15
382.24	1043.88
382.43	1088.35
382.63	1034.52
382.83	1135.16
383.02	1036.86
383.22	1097.71
383.41	1057.92
383.61	1165.59
383.80	1074.31
384.00	1128.14
384.19	1156.22
384.39	1273.25
384.58	1139.84
384.78	1165.59
384.97	1088.35
385.17	1123.46
385.36	1158.57
385.56	1069.62
385.75	1083.67
385.95	1252.19
386.14	1198.35
386.34	1219.42
386.53	1151.54
386.72	1193.67
386.92	1198.35
387.11	1320.06
387.31	1191.33
387.50	1247.51
387.70	1266.23
387.89	1310.70
388.09	1259.21
388.28	1181.97
388.48	1336.45
388.67	1315.38
388.86	1322.40
389.06	1359.85
389.25	1418.36
389.45	1313.04
389.64	1217.08
389.84	1266.23
390.03	1371.55
390.22	1394.96
390.42	1322.40
390.61	1387.94
390.81	1378.58
391.00	1355.17
391.19	1455.81
391.39	1474.54
391.58	1533.05
391.78	1469.86
391.97	1568.16
392.16	1533.05
392.36	1526.03
392.55	1521.35
392.75	1535.39
392.94	1570.50
393.13	1479.22
393.33	1479.22
393.52	1523.69
393.71	1584.54
393.91	1547.09
394.10	1582.20
394.29	1629.01
394.49	1516.67
394.68	1621.99
394.88	1661.78
395.07	1790.51
395.26	1647.74
395.46	1675.82
395.65	1720.29
395.84	1739.02
396.04	1851.36
396.23	1813.92
396.42	1748.38
396.62	1732.00
396.81	1722.63
397.00	1675.82
397.19	1865.41
397.39	1753.06
397.58	1884.13
397.77	1825.62
397.97	1905.20
398.16	1832.64
398.35	1898.17
398.55	1813.92
398.74	1842.00
398.93	1919.24
399.12	1874.77
399.32	1867.75
399.51	2001.16
399.70	2064.35
399.90	1930.94
400.09	1982.43
400.28	2087.76
400.47	1987.11
400.67	2099.46
400.86	1987.11
401.05	2104.14
401.24	2080.74
401.44	2169.68
401.63	2087.76
401.82	2155.63
402.01	2094.78
402.21	2143.93
402.40	2122.87
402.59	2340.54
402.78	2249.25
402.97	2340.54
403.17	2228.19
403.36	2284.36
403.55	2279.68
403.74	2478.63
403.93	2293.72
404.13	2368.62
404.32	2349.90
404.51	2429.48
404.70	2469.27
404.89	2401.39
405.09	2443.52
405.28	2518.42
405.47	2520.76
405.66	2586.29
405.85	2602.68
406.05	2497.35
406.24	2516.08
406.43	2527.78
406.62	2635.44
406.81	2712.68
407.00	2478.63
407.20	2597.99
407.39	2682.25
407.58	2677.57
407.77	2759.49
407.96	2782.90
408.15	2815.66
408.34	2736.09
408.54	2803.96
408.73	2813.32
408.92	2818.00
409.11	2869.50
409.30	2942.05
409.49	2979.50
409.68	2972.48
409.87	2960.78
410.07	2939.71
410.26	3026.31
410.45	3105.89
410.64	3035.67
410.83	2972.48
411.02	3105.89
411.21	3229.94
411.40	3236.96
411.59	3098.87
411.78	3187.81
411.98	3286.11
412.17	3447.61
412.36	3302.50
412.55	3433.57
412.74	3342.28
412.93	3459.31
413.12	3442.93
413.31	3513.14
413.50	3353.99
413.69	3466.33
413.88	3541.23
414.07	3529.53
414.26	3662.94
414.45	3574.00
414.64	3705.07
414.83	3822.09
415.02	3782.31
415.22	3758.90
415.41	4058.49
415.60	3896.99
415.79	3885.29
415.98	3946.14
416.17	4053.81
416.36	4058.49
416.55	4119.34
416.74	4184.88
416.93	3946.14
417.12	4205.94
417.31	4215.30
417.50	4175.52
417.69	4332.33
417.88	4262.12
418.07	4322.97
418.26	4339.35
418.45	4273.82
418.64	4585.11
418.83	4451.70
419.02	4468.08
419.21	4561.70
419.39	4608.51
419.58	4519.57
419.77	4540.64
419.96	4690.43
420.15	4594.47
420.34	4660.01
420.53	4676.39
420.72	4678.73
420.91	4573.41
421.10	4709.16
421.29	4760.65
421.48	4620.22
421.67	4828.53
421.86	4645.96
422.05	4798.10
422.24	4798.10
422.43	4847.25
422.61	4854.27
422.80	5004.07
422.99	4987.68
423.18	4812.14
423.37	5071.94
423.56	5062.58
423.75	4910.44
423.94	4819.16
424.13	4732.56
424.32	4755.97
424.50	5170.24
424.69	5273.23
424.88	5135.14
425.07	5046.20
425.26	4847.25
425.45	4767.67
425.64	4994.70
425.83	4891.72
426.01	5165.56
426.20	5121.09
426.39	5095.35
426.58	5039.17
426.77	5060.24
426.96	5313.02
427.15	5193.65
427.33	5231.10
427.52	5308.34
427.71	5401.96
427.90	5383.23
428.09	5408.98
428.28	5554.09
428.46	5488.56
428.65	5348.12
428.84	5502.60
429.03	5570.48
429.22	5322.38
429.40	5547.07
429.59	5446.43
429.78	5385.57
429.97	5320.04
430.16	5626.65
430.34	5589.20
430.53	5879.43
430.72	5666.44
430.91	5701.54
431.10	5703.89
431.28	5556.43
431.47	5830.27
431.66	6148.59
431.85	5940.28
432.03	6001.13
432.22	5949.64
432.41	6008.16
432.60	6078.37
432.79	6008.16
432.97	6195.40
433.16	6090.07
433.35	5942.62
433.54	6202.42
433.72	6263.27
433.91	6195.40
434.10	6228.17
434.28	6200.08
434.47	6272.64
434.66	6396.68
434.85	6317.11
435.03	6532.44
435.22	6235.19
435.41	6370.94
435.59	6478.60
435.78	6431.79
435.97	6487.96
436.16	6560.52
436.34	6415.41
436.53	6490.31
436.72	6698.61
436.90	6551.16
437.09	6661.16
437.28	6745.42
437.46	6665.85
437.65	6761.81
437.84	6867.13
438.02	6846.07
438.21	6754.79
438.40	6665.85
438.58	7089.48
438.77	6885.86
438.96	7089.48
439.14	7234.60
439.33	7297.79
439.52	7300.13
439.70	7269.70
439.89	7569.29
440.08	7435.88
440.26	7503.76
440.45	7162.04
440.63	7534.18
440.82	7723.77
441.01	7595.04
441.19	7763.56
441.38	7817.39
441.57	7880.58
441.75	7932.08
441.94	8102.93
442.12	8135.70
442.31	8173.15
442.50	8095.91
442.68	8105.28
442.87	8283.16
443.05	8208.26
443.24	8140.38
443.43	8105.28
443.61	8280.82
443.80	8454.02
443.98	8315.92
444.17	7957.82
444.35	8404.86
444.54	8423.59
444.73	8390.82
444.91	8393.16
445.10	8374.44
445.28	8393.16
445.47	8341.67
445.65	8334.65
445.84	8477.42
446.02	8578.06
446.21	8498.49
446.39	8519.55
446.58	8727.86
446.77	8554.66
446.95	8369.76
447.14	8486.78
447.32	8638.92
447.51	8662.32
447.69	8636.58
447.88	8620.19
448.06	8688.07
448.25	8573.38
448.43	8641.26
448.62	8531.25
448.80	8439.97
448.99	8638.92
449.17	8830.84
449.36	8774.67
449.54	9041.49
449.73	9095.32
449.91	9210.01
450.10	9076.60
450.28	8929.14
450.46	8945.53
450.65	9116.39
450.83	9558.75
451.02	9184.26
451.20	9210.01
451.39	9287.25
451.57	9350.44
451.76	9415.98
451.94	9392.57
452.13	9488.53
452.31	9486.19
452.49	9341.08
452.68	9427.68
452.86	9399.59
453.05	9659.39
453.23	9584.49
453.42	9577.47
453.60	9537.68
453.78	9720.24
453.97	9645.35
454.15	9525.98
454.34	9497.89
454.52	9802.16
454.70	9755.35
454.89	9760.03
455.07	9848.97
455.26	9968.34
455.44	10155.58
455.62	9874.72
455.81	9905.15
455.99	10057.28
456.17	10188.35
456.36	10225.80
456.54	10387.30
456.73	10347.51
456.91	10623.69
457.09	10483.26
457.28	10520.71
457.46	10438.79
457.64	10691.57
457.83	10647.10
458.01	10422.41
458.19	10850.72
458.38	10525.39
458.56	10766.46
458.74	10913.92
458.93	10813.28
459.11	10883.49
459.29	10899.87
459.48	11124.57
459.66	10714.97
459.84	11014.56
460.03	11332.87
460.21	11169.04
460.39	11215.85
460.57	11066.05
460.76	11094.14
460.94	11283.72
461.12	11473.31
461.31	11288.40
461.49	11431.18
461.67	11480.33
461.85	11751.83
462.04	11529.48
462.22	11953.12
462.40	11772.89
462.59	11779.92
462.77	11719.06
462.95	11489.69
463.13	11843.11
463.32	11899.28
463.50	11934.39
463.68	11880.56
463.86	12042.06
464.05	11875.88
464.23	11791.62
464.41	12030.35
464.59	11854.81
464.78	12241.00
464.96	12095.89
465.14	11892.26
465.32	12219.94
465.50	12191.85
465.69	12334.62
465.87	12472.71
466.05	12533.57
466.23	12245.68
466.41	12212.92
466.60	12617.83
466.78	12381.43
466.96	12081.85
467.14	12390.80
467.32	12512.50
467.51	12634.21
467.69	12348.67
467.87	12444.63
468.05	12695.07
468.23	12538.25
468.41	12568.68
468.60	12699.75
468.78	12947.84
468.96	12821.45
469.14	13081.25
469.32	12982.95
469.50	12709.11
469.69	13149.13
469.87	13312.97
470.05	13437.02
470.23	13404.25
470.41	13350.42
470.59	13291.90
470.77	13319.99
470.95	13736.60
471.14	13877.04
471.32	13502.55
471.50	13795.12
471.68	13685.11
471.86	13668.73
472.04	14003.43
472.22	14176.62
472.40	13916.83
472.58	14003.43
472.77	14207.05
472.95	14317.06
473.13	14621.33
473.31	14815.59
473.49	14237.48
473.67	14448.13
473.85	14394.29
474.03	14806.23
474.21	14747.72
474.39	14806.23
474.57	14831.97
474.75	15077.73
474.93	15119.86
475.12	14883.47
475.30	15454.56
475.48	15098.80
475.66	15616.05
475.84	15328.17
476.02	15679.25
476.20	15421.79
476.38	15978.84
476.56	16238.64
476.74	16397.79
476.92	16030.33
477.10	16086.50
477.28	16123.95
477.46	16510.14
477.64	16432.90
477.82	16744.19
478.00	17231.02
478.18	17209.96
478.36	16961.86
478.54	17326.99
478.72	17493.16
478.90	17652.32
479.08	17811.48
479.26	17715.51
479.44	17928.50
479.62	18192.98
479.80	18192.98
479.98	18155.54
480.16	18441.08
480.34	18462.15
480.52	18806.20
480.70	18860.04
480.88	18478.53
481.06	19030.90
481.24	18787.48
481.41	19475.60
481.59	19604.33
481.77	19761.14
481.95	19742.42
482.13	19686.25
482.31	19988.18
482.49	20568.63
482.67	20238.61
482.85	21060.14
483.03	21076.52
483.21	21015.67
483.39	20996.95
483.57	21284.83
483.74	21249.72
483.92	21680.38
484.10	21563.36
484.28	21876.99
484.46	22120.40
484.64	22508.93
484.82	22309.99
485.00	22551.06
485.18	22948.95
485.35	22998.10
485.53	23007.47
485.71	23548.13
485.89	23838.36
486.07	23707.29
486.25	23538.77
486.43	23807.93
486.61	24180.07
486.78	24428.17
486.96	24374.34
487.14	24943.09
487.32	24952.45
487.50	25083.52
487.68	25130.33
487.85	25825.47
488.03	26040.80
488.21	26209.32
488.39	25832.49
488.57	26249.11
488.75	26125.06
488.92	26794.45
489.10	27250.86
489.28	27208.73
489.46	27515.34
489.64	27597.26
489.81	27999.83
489.99	27983.44
490.17	28105.15
490.35	28531.13
490.53	28383.68
490.70	28755.82
490.88	28685.61
491.06	29263.72
491.24	29670.97
491.41	29500.11
491.59	29504.79
491.77	29467.34
491.95	30108.65
492.13	30398.88
492.30	30265.47
492.48	30663.36
492.66	30843.58
492.84	30471.43
493.01	31021.46
493.19	31227.43
493.37	31519.99
493.54	31461.48
493.72	32027.89
493.90	32055.98
494.08	32259.60
494.25	32238.54
494.43	31983.42
494.61	32987.51
494.79	33003.89
494.96	32802.61
495.14	33766.91
495.32	33701.37
495.49	33233.27
495.67	33668.61
495.85	33975.22
496.02	34354.38
496.20	34471.41
496.38	34586.10
496.55	34717.17
496.73	35510.61
496.91	34911.43
497.09	35196.98
497.26	35515.29
497.44	35225.06
497.62	35770.41
497.79	36404.69
497.97	35885.09
498.14	36416.40
498.32	36568.53
498.50	36467.89
498.67	36811.95
498.85	36753.43
499.03	37132.60
499.20	37273.03
499.38	37069.40
499.56	37752.84
499.73	37589.00
499.91	37844.12
500.08	37694.33
500.26	38012.64
500.44	38644.59
500.61	38223.29
500.79	38258.40
500.97	38433.94
501.14	39086.95
501.32	39152.48
501.49	39103.33
501.67	39164.18
501.84	39248.44
502.02	39431.01
502.20	39882.73
502.37	39849.96
502.55	39723.57
502.72	39606.55
502.90	39643.99
503.07	39864.00
503.25	40453.82
503.43	40287.64
503.60	40655.11
503.78	40676.17
503.95	40439.78
504.13	40978.10
504.30	41003.85
504.48	40641.06
504.65	41366.63
504.83	41455.57
505.01	41879.21
505.18	41904.95
505.36	42230.29
505.53	42078.15
505.71	42122.62
505.88	42202.20
506.06	42087.51
506.23	42286.46
506.41	42204.54
506.58	42646.90
506.76	42960.53
506.93	43028.41
507.11	42682.01
507.28	42918.40
507.46	43234.38
507.63	43723.55
507.81	43407.58
507.98	42962.87
508.16	43824.19
508.33	43763.34
508.50	44215.06
508.68	43931.86
508.85	44479.54
509.03	44067.61
509.20	44395.28
509.38	44718.28
509.55	44945.31
509.73	44727.64
509.90	45308.09
510.08	44793.17
510.25	45099.78
510.42	45537.46
510.60	45518.74
510.77	45701.30
510.95	45628.74
511.12	45830.03
511.30	45631.08
511.47	46117.92
511.64	46101.53
511.82	46686.67
511.99	46281.75
512.17	46288.77
512.34	46681.98
512.51	46869.23
512.69	47075.19
512.86	46263.03
513.04	46857.52
513.21	46810.71
513.38	47070.51
513.56	47168.82
513.73	47145.41
513.90	47381.80
514.08	47213.29
514.25	47849.91
514.43	47934.17
514.60	48119.07
514.77	47547.98
514.95	48044.18
515.12	48273.55
515.29	48119.07
515.47	48320.36
515.64	48964.01
515.81	48608.25
515.99	48739.32
516.16	48596.54
516.33	48851.66
516.51	49291.68
516.68	49193.38
516.85	49212.10
517.03	49289.34
517.20	49317.43
517.37	49663.83
517.54	49502.33
517.72	49502.33
517.89	49677.87
518.06	49881.50
518.24	49553.82
518.41	49745.75
518.58	49656.81
518.75	49757.45
518.93	50153.00
519.10	49488.29
519.27	50209.17
519.45	50124.91
519.62	50356.63
519.79	50354.29
519.96	50461.95
520.14	50363.65
520.31	50258.32
520.48	51072.83
520.65	51140.71
520.83	51002.61
521.00	50913.67
521.17	51152.41
521.34	50735.79
521.52	51089.21
521.69	51107.94
521.86	51311.56
522.03	51562.00
522.20	52020.75
522.38	51929.47
522.55	51838.18
522.72	51758.61
522.89	51381.78
523.07	51941.17
523.24	51683.71
523.41	52268.84
523.58	51625.20
523.75	52156.50
523.92	51990.32
524.10	52252.46
524.27	52325.02
524.44	52605.88
524.61	52355.44
524.78	52519.28
524.96	52708.86
525.13	52432.68
525.30	52858.66
525.47	52729.93
525.64	52891.43
525.81	52933.56
525.98	53347.83
526.16	52774.40
526.33	52952.28
526.50	53371.24
526.67	53251.87
526.84	53003.77
527.01	53008.45
527.18	53237.83
527.36	53460.18
527.53	53432.09
527.70	53624.01
527.87	53846.36
528.04	53392.30
528.21	53666.14
528.38	53556.14
528.55	54270.00
528.72	53476.56
528.89	53652.10
529.07	53602.95
529.24	53911.90
529.41	54136.59
529.58	53968.07
529.75	53860.41
529.92	54031.27
530.09	53886.15
530.26	54314.47
530.43	54534.48
530.60	54277.02
530.77	54213.83
530.94	54571.93
531.11	54141.27
531.28	54497.03
531.46	54665.55
531.63	54784.92
531.80	54937.05
531.97	54597.68
532.14	54899.61
532.31	54913.65
532.48	54780.24
532.65	55143.02
532.82	54695.98
532.99	54784.92
533.16	55098.55
533.33	55107.91
533.50	55529.21
533.67	55285.79
533.84	55189.83
534.01	55152.38
534.18	55098.55
534.35	55580.70
534.52	55470.70
534.69	55440.27
534.86	55248.35
535.03	55416.86
535.20	55636.87
535.37	55660.28
535.54	55634.53
535.71	55318.56
535.88	55732.84
536.05	55803.05
536.22	55875.61
536.38	56168.18
536.55	55962.21
536.72	55828.80
536.89	56119.02
537.06	56177.54
537.23	56060.51
537.40	56147.11
537.57	55922.42
537.74	56107.32
537.91	56135.41
538.08	56329.67
538.25	56147.11
538.42	56182.22
538.59	56427.98
538.75	56104.98
538.92	56493.51
539.09	56505.21
539.26	56617.56
539.43	56395.21
539.60	56530.96
539.77	56666.71
539.94	56598.83
540.11	56622.24
540.28	56657.35
540.44	56500.53
540.61	56727.56
540.78	56669.05
540.95	56598.83
541.12	56472.45
541.29	56456.06
541.46	56910.13
541.62	56973.32
541.79	57064.60
541.96	56727.56
542.13	56835.23
542.30	56947.57
542.47	57125.46
542.63	57104.39
542.80	57319.72
542.97	57324.40
543.14	57436.75
543.31	57303.34
543.48	57439.09
543.64	57682.50
543.81	57801.87
543.98	57478.88
544.15	57794.85
544.32	57752.72
544.48	57869.75
544.65	57827.62
544.82	57684.84
544.99	57581.86
545.16	57780.81
545.32	57420.36
545.49	58064.01
545.66	57998.48
545.83	57790.17
546.00	58087.42
546.16	57860.38
546.33	57970.39
546.50	57776.12
546.67	57996.13
546.83	57633.35
547.00	58197.42
547.17	58110.82
547.34	58143.59
547.50	58286.36
547.67	58277.00
547.84	58169.33
548.00	58401.05
548.17	58466.58
548.34	58513.39
548.51	58454.88
548.67	58564.88
548.84	58485.31
549.01	58277.00
549.18	58300.40
549.34	58632.76
549.51	58426.79
549.68	58688.93
549.84	58684.25
550.01	58581.27
550.18	58777.87
550.34	58693.61
550.51	59000.22
550.68	58695.95
550.84	58571.91
551.01	58913.62
551.18	58801.28
551.34	58962.78
551.51	58922.99
551.68	58852.77
551.84	58798.94
552.01	58759.15
552.18	59047.04
552.34	58724.04
552.51	59119.59
552.68	58857.45
552.84	59004.91
553.01	59166.40
553.18	58885.54
553.34	59058.74
553.51	58876.18
553.67	59180.45
553.84	59391.09
554.01	59428.54
554.17	59021.29
554.34	59119.59
554.51	59306.83
554.67	59192.15
554.84	59203.85
555.00	59327.90
555.17	59313.86
555.33	59121.93
555.50	59311.52
555.67	59465.99
555.83	59234.28
556.00	59388.75
556.16	59510.46
556.33	59604.08
556.50	59568.97
556.66	59735.15
556.83	59533.87
556.99	59496.42
557.16	59620.47
557.32	59798.35
557.49	59704.73
557.65	59540.89
557.82	59501.10
557.98	59697.70
558.15	59707.07
558.32	59714.09
558.48	59557.27
558.65	59725.79
558.81	59952.82
558.98	59962.18
559.14	59924.74
559.31	59913.03
559.47	59945.80
559.64	60172.83
559.80	60001.97
559.97	60006.65
560.13	59957.50
560.30	59945.80
560.46	60058.15
560.63	60116.66
560.79	60266.45
560.96	60126.02
561.12	60275.82
561.29	60140.07
561.45	60126.02
561.61	60126.02
561.78	60013.68
561.94	60009.00
562.11	60006.65
562.27	60320.29
562.44	59992.61
562.60	60135.38
562.77	60282.84
562.93	60142.41
563.10	60324.97
563.26	60233.69
563.42	60402.21
563.59	60294.54
563.75	60282.84
563.92	60502.85
564.08	60308.58
564.24	60523.91
564.41	60437.31
564.57	60519.23
564.74	60446.68
564.90	60416.25
565.07	60322.63
565.23	60395.18
565.39	60474.76
565.56	60514.55
565.72	60229.01
565.88	60486.46
566.05	60238.37
566.21	60355.39
566.38	60500.51
566.54	60727.54
566.70	60652.64
566.87	60713.50
567.03	60404.55
567.19	60636.26
567.36	60647.96
567.52	60762.65
567.68	60699.45
567.85	60505.19
568.01	60769.67
568.17	60889.04
568.34	60942.87
568.50	60666.69
568.66	60591.79
568.83	60552.00
568.99	60591.79
569.15	60608.17
569.32	60708.82
569.48	60556.68
569.64	60786.05
569.81	60706.47
569.97	60587.11
570.13	60800.10
570.30	60643.28
570.46	60825.84
570.62	60788.39
570.78	60713.50
570.95	60949.89
571.11	61043.51
571.27	60863.29
571.43	60863.29
571.60	61038.83
571.76	61144.16
571.92	60835.20
572.09	60893.72
572.25	60949.89
572.41	60683.07
572.57	60760.31
572.74	61043.51
572.90	61013.08
573.06	60816.48
573.22	60713.50
573.38	60898.40
573.55	60975.64
573.71	61069.26
573.87	60856.27
574.03	60882.02
574.20	60882.02
574.36	60809.46
574.52	61029.47
574.68	61181.60
574.84	61006.06
575.01	61137.13
575.17	60989.68
575.33	61102.03
575.49	60907.76
575.65	60910.10
575.82	61059.90
575.98	61162.88
576.14	61265.86
576.30	61118.41
576.46	61034.15
576.62	60954.57
576.79	61095.00
576.95	60970.96
577.11	61244.80
577.27	61104.37
577.43	60989.68
577.59	60963.93
577.75	61013.08
577.92	60982.66
578.08	61001.38
578.24	60954.57
578.40	61312.67
578.56	61235.44
578.72	61076.28
578.88	61228.41
579.04	61338.42
579.21	61123.09
579.37	61317.35
579.53	61307.99
579.69	60963.93
579.85	61174.58
580.01	61212.03
580.17	61029.47
580.33	61247.14
580.49	61277.57
580.65	61190.97
580.82	60956.91
580.98	61113.73
581.14	60940.53
581.30	61144.16
581.46	61020.11
581.62	61258.84
581.78	61153.52
581.94	61109.05
582.10	61219.05
582.26	61165.22
582.42	61202.67
582.58	60952.23
582.74	61076.28
582.90	61167.56
583.06	61223.73
583.22	61132.45
583.38	61214.37
583.54	61095.00
583.70	61254.16
583.86	61097.34
584.02	61303.31
584.18	61289.27
584.34	61244.80
584.50	61221.39
584.66	61097.34
584.82	61038.83
584.98	61357.14
585.14	61432.04
585.30	61216.71
585.46	61134.79
585.62	61169.90
585.78	61389.91
585.94	61247.14
586.10	61188.63
586.26	61382.89
586.42	61310.33
586.58	61347.78
586.74	61158.20
586.90	61237.78
587.06	61242.46
587.22	61396.93
587.38	61338.42
587.54	61434.38
587.70	61649.71
587.86	61410.98
588.02	61389.91
588.18	61474.17
588.34	61195.65
