SpectraSuite Data File
++++++++++++++++++++++++++++++++++++
Date: Fri Oct 25 10:44:44 EDT 2013
User: price-jones
Dark Spectrum Present: No
Reference Spectrum Present: No
Number of Sampled Component Spectra: 1
Spectrometers: USB2+H05261
Integration Time (usec): 100000 (USB2+H05261)
Spectra Averaged: 1 (USB2+H05261)
Boxcar Smoothing: 0 (USB2+H05261)
Correct for Electrical Dark: No (USB2+H05261)
Strobe/Lamp Enabled: No (USB2+H05261)
Correct for Detector Non-linearity: No (USB2+H05261)
Correct for Stray Light: No (USB2+H05261)
Number of Pixels in Processed Spectrum: 2048
>>>>>Begin Processed Spectral Data<<<<<
365.73	156.82
365.92	156.82
366.12	156.82
366.32	11.70
366.52	30.43
366.72	93.62
366.91	0.00
367.11	16.38
367.31	0.00
367.51	18.72
367.70	51.49
367.90	0.00
368.10	72.56
368.30	100.64
368.49	14.04
368.69	35.11
368.89	0.00
369.09	23.41
369.28	58.51
369.48	74.90
369.68	65.54
369.87	152.13
370.07	70.22
370.27	140.43
370.47	168.52
370.66	362.78
370.86	365.12
371.06	444.70
371.25	458.74
371.45	477.47
371.65	425.98
371.84	451.72
372.04	479.81
372.24	573.43
372.44	423.64
372.63	596.84
372.83	484.49
373.03	498.53
373.22	486.83
373.42	521.94
373.62	503.22
373.81	484.49
374.01	561.73
374.21	528.96
374.40	484.49
374.60	496.19
374.79	554.71
374.99	585.13
375.19	533.64
375.38	433.00
375.58	526.62
375.78	601.52
375.97	587.47
376.17	638.97
376.37	582.79
376.56	557.05
376.76	550.03
376.95	559.39
377.15	507.90
377.35	578.11
377.54	550.03
377.74	608.54
377.93	622.58
378.13	589.82
378.33	643.65
378.52	641.31
378.72	573.43
378.91	596.84
379.11	568.75
379.31	664.71
379.50	636.63
379.70	711.52
379.89	505.56
380.09	671.73
380.28	601.52
380.48	655.35
380.68	641.31
380.87	554.71
381.07	662.37
381.26	732.59
381.46	648.33
381.65	634.29
381.85	758.33
382.04	718.54
382.24	695.14
382.43	770.04
382.63	734.93
382.83	734.93
383.02	725.57
383.22	655.35
383.41	662.37
383.61	683.44
383.80	744.29
384.00	650.67
384.19	727.91
384.39	765.36
384.58	772.38
384.78	854.30
384.97	767.70
385.17	676.41
385.36	730.25
385.56	760.67
385.75	704.50
385.95	725.57
386.14	823.87
386.34	807.48
386.53	777.06
386.72	758.33
386.92	798.12
387.11	863.66
387.31	931.53
387.50	763.01
387.70	901.11
387.89	748.97
388.09	765.36
388.28	912.81
388.48	844.93
388.67	828.55
388.86	873.02
389.06	873.02
389.25	954.94
389.45	910.47
389.64	861.32
389.84	910.47
390.03	894.08
390.22	854.30
390.42	947.92
390.61	924.51
390.81	903.45
391.00	940.90
391.19	990.05
391.39	950.26
391.58	968.98
391.78	912.81
391.97	1027.50
392.16	903.45
392.36	1020.47
392.55	1025.15
392.75	926.85
392.94	964.30
393.13	954.94
393.33	947.92
393.52	1020.47
393.71	1008.77
393.91	1090.69
394.10	964.30
394.29	973.66
394.49	1020.47
394.68	1144.52
394.88	1006.43
395.07	1163.25
395.26	1111.75
395.46	1128.14
395.65	1186.65
395.84	1163.25
396.04	1273.25
396.23	1107.07
396.42	1111.75
396.62	1214.74
396.81	1158.57
397.00	1205.38
397.19	1128.14
397.39	1219.42
397.58	1263.89
397.77	1184.31
397.97	1240.48
398.16	1287.29
398.35	1275.59
398.55	1240.48
398.74	1371.55
398.93	1345.81
399.12	1364.53
399.32	1324.74
399.51	1385.60
399.70	1364.53
399.90	1455.81
400.09	1437.09
400.28	1430.07
400.47	1362.19
400.67	1486.24
400.86	1502.62
401.05	1493.26
401.24	1488.58
401.44	1500.28
401.63	1514.33
401.82	1621.99
402.01	1556.46
402.21	1526.03
402.40	1678.16
402.59	1542.41
402.78	1645.40
402.97	1537.73
403.17	1640.72
403.36	1600.93
403.55	1680.50
403.74	1600.93
403.93	1643.06
404.13	1699.23
404.32	1659.44
404.51	1664.12
404.70	1673.48
404.89	1717.95
405.09	1867.75
405.28	1795.19
405.47	1739.02
405.66	1818.60
405.85	1820.94
406.05	1804.55
406.24	1785.83
406.43	1717.95
406.62	1891.15
406.81	1804.55
407.00	1888.81
407.20	1792.85
407.39	1912.22
407.58	1984.77
407.77	1921.58
407.96	1919.24
408.15	2003.50
408.34	1961.37
408.54	2019.88
408.73	1989.46
408.92	2052.65
409.11	2073.71
409.30	2073.71
409.49	2066.69
409.68	2120.53
409.87	1996.48
410.07	2064.35
410.26	2214.15
410.45	2127.55
410.64	2148.61
410.83	2312.45
411.02	2270.32
411.21	2347.56
411.40	2293.72
411.59	2319.47
411.78	2216.49
411.98	2380.32
412.17	2286.70
412.36	2260.96
412.55	2310.11
412.74	2513.74
412.93	2565.23
413.12	2443.52
413.31	2567.57
413.50	2527.78
413.69	2600.34
413.88	2651.83
414.07	2539.48
414.26	2616.72
414.45	2668.21
414.64	2726.72
414.83	2771.19
415.02	2719.70
415.22	2717.36
415.41	2850.77
415.60	2796.94
415.79	2780.56
415.98	2909.29
416.17	3077.80
416.36	2897.58
416.55	3066.10
416.74	2794.60
416.93	2876.52
417.12	2890.56
417.31	3021.63
417.50	2993.55
417.69	3126.96
417.88	3204.19
418.07	2967.80
418.26	3047.38
418.45	3091.85
418.64	3274.41
418.83	3255.69
419.02	3091.85
419.21	3236.96
419.39	3325.90
419.58	3232.28
419.77	3234.62
419.96	3260.37
420.15	3424.20
420.34	3307.18
420.53	3358.67
420.72	3449.95
420.91	3293.13
421.10	3414.84
421.29	3513.14
421.48	3412.50
421.67	3527.19
421.86	3435.91
422.05	3473.36
422.24	3478.04
422.43	3592.72
422.61	3527.19
422.80	3534.21
422.99	3534.21
423.18	3655.92
423.37	3653.58
423.56	3604.42
423.75	3681.66
423.94	3515.48
424.13	3267.39
424.32	3405.48
424.50	3698.05
424.69	3698.05
424.88	3602.08
425.07	3651.24
425.26	3499.10
425.45	3527.19
425.64	3543.57
425.83	3681.66
426.01	3758.90
426.20	3639.53
426.39	3604.42
426.58	3566.98
426.77	3581.02
426.96	3522.51
427.15	3669.96
427.33	3735.50
427.52	3758.90
427.71	3836.14
427.90	3721.45
428.09	3822.09
428.28	3742.52
428.46	3955.51
428.65	3826.78
428.84	3859.54
429.03	3946.14
429.22	3857.20
429.40	3929.76
429.59	3878.27
429.78	3705.07
429.97	3709.75
430.16	3808.05
430.34	3756.56
430.53	4016.36
430.72	3899.33
430.91	3850.18
431.10	4030.40
431.28	4180.20
431.47	4180.20
431.66	4196.58
431.85	4095.94
432.03	4163.81
432.22	4238.71
432.41	4304.25
432.60	4241.05
432.79	4379.14
432.97	4365.10
433.16	4432.97
433.35	4121.68
433.54	4292.54
433.72	4348.72
433.91	4252.75
434.10	4376.80
434.28	4351.06
434.47	4409.57
434.66	4489.15
434.85	4540.64
435.03	4547.66
435.22	4503.19
435.41	4587.45
435.59	4617.88
435.78	4531.28
435.97	4643.62
436.16	4622.56
436.34	4657.67
436.53	4641.28
436.72	4856.61
436.90	4671.71
437.09	4758.31
437.28	4613.20
437.46	4819.16
437.65	4802.78
437.84	4777.03
438.02	4929.17
438.21	4786.40
438.40	4723.20
438.58	4882.36
438.77	4938.53
438.96	4875.34
439.14	5153.86
439.33	5130.45
439.52	5043.85
439.70	5259.18
439.89	5305.99
440.08	5268.55
440.26	5357.49
440.45	5287.27
440.63	5322.38
440.82	5385.57
441.01	5462.81
441.19	5343.44
441.38	5565.79
441.57	5624.31
441.75	5408.98
441.94	5781.12
442.12	5605.58
442.31	5652.39
442.50	5673.46
442.68	5647.71
442.87	5760.06
443.05	5708.57
443.24	5865.38
443.43	5856.02
443.61	5951.98
443.80	5881.77
443.98	5680.48
444.17	5621.97
444.35	6029.22
444.54	6143.91
444.73	5865.38
444.91	5846.66
445.10	5968.37
445.28	5919.21
445.47	5895.81
445.65	5844.32
445.84	5996.45
446.02	5951.98
446.21	5970.71
446.39	5905.17
446.58	6005.81
446.77	6050.28
446.95	5851.34
447.14	6071.35
447.32	6019.86
447.51	6045.60
447.69	5977.73
447.88	6148.59
448.06	6080.71
448.25	6073.69
448.43	6059.65
448.62	6207.10
448.80	6167.31
448.99	6279.66
449.17	6251.57
449.36	6314.77
449.54	6413.07
449.73	6429.45
449.91	6406.05
450.10	6523.07
450.28	6588.61
450.46	6408.39
450.65	6370.94
450.83	6485.62
451.02	6462.22
451.20	6635.42
451.39	6689.25
451.57	6380.30
451.76	6469.24
451.94	6518.39
452.13	6663.51
452.31	6750.10
452.49	6415.41
452.68	6586.27
452.86	6476.26
453.05	6586.27
453.23	6642.44
453.42	6677.55
453.60	6719.68
453.78	6778.19
453.97	6586.27
454.15	6693.93
454.34	6670.53
454.52	6836.70
454.70	6813.30
454.89	6825.00
455.07	6885.86
455.26	7096.50
455.44	7028.63
455.62	7091.82
455.81	7119.91
455.99	6995.86
456.17	7007.56
456.36	7098.84
456.54	7215.87
456.73	7258.00
456.91	7321.20
457.09	7304.81
457.28	7555.25
457.46	7302.47
457.64	7407.80
457.83	7197.15
458.01	7218.21
458.19	7365.67
458.38	7599.72
458.56	7515.46
458.74	7461.63
458.93	7482.69
459.11	7534.18
459.29	7573.97
459.48	7744.83
459.66	7660.57
459.84	7604.40
460.03	7943.78
460.21	7758.88
460.39	7728.45
460.57	7810.37
460.76	7620.78
460.94	7854.84
461.12	7997.61
461.31	7810.37
461.49	7791.64
461.67	7896.97
461.85	8243.37
462.04	8056.12
462.22	8360.39
462.40	8079.53
462.59	7992.93
462.77	8208.26
462.95	8109.96
463.13	8051.44
463.32	8217.62
463.50	8341.67
463.68	8198.90
463.86	8215.28
464.05	8362.73
464.23	8217.62
464.41	8262.09
464.59	8121.66
464.78	8451.67
464.96	8234.00
465.14	8355.71
465.32	8461.04
465.50	8456.36
465.69	8411.89
465.87	8351.03
466.05	8395.50
466.23	8290.18
466.41	8594.45
466.60	8617.85
466.78	8416.57
466.96	8540.61
467.14	8407.20
467.32	8667.00
467.51	8887.01
467.69	8395.50
467.87	8500.83
468.05	8671.68
468.23	8664.66
468.41	8608.49
468.60	8997.02
468.78	8517.21
468.96	8713.81
469.14	9004.04
469.32	8978.30
469.50	8723.18
469.69	8816.80
469.87	8975.95
470.05	9214.69
470.23	8950.21
470.41	9125.75
470.59	9200.65
470.77	9125.75
470.95	9195.96
471.14	9357.46
471.32	9121.07
471.50	9408.95
471.68	9355.12
471.86	9296.61
472.04	9565.77
472.22	9631.30
472.40	9256.82
472.58	9434.70
472.77	9575.13
472.95	9703.86
473.13	9994.09
473.31	9584.49
473.49	9533.00
473.67	9729.61
473.85	9914.51
474.03	9881.74
474.21	10232.82
474.39	10190.69
474.57	10073.67
474.75	10438.79
474.93	10251.55
475.12	10235.16
475.30	10569.86
475.48	10406.02
475.66	10483.26
475.84	10253.89
476.02	10509.01
476.20	10597.95
476.38	10480.92
476.56	11047.33
476.74	10782.85
476.92	10895.19
477.10	10857.75
477.28	10998.18
477.46	11192.44
477.64	11007.54
477.82	11520.12
478.00	11531.82
478.18	11293.08
478.36	11639.48
478.54	11754.17
478.72	11627.78
478.90	11864.18
479.08	12065.46
479.26	12250.36
479.44	12121.63
479.62	12138.02
479.80	12182.49
479.98	12283.13
480.16	12695.07
480.34	12624.85
480.52	12699.75
480.70	12564.00
480.88	12636.55
481.06	12666.98
481.24	12861.24
481.41	13144.45
481.59	13153.81
481.77	13219.35
481.95	13160.83
482.13	13500.21
482.31	13312.97
482.49	13692.13
482.67	13586.81
482.85	13846.61
483.03	13837.25
483.21	14036.19
483.39	14038.53
483.57	14427.06
483.74	14279.61
483.92	14347.48
484.10	14263.22
484.28	14487.92
484.46	14876.44
484.64	14885.81
484.82	14618.99
485.00	14909.21
485.18	15227.53
485.35	15534.14
485.53	15096.46
485.71	15096.46
485.89	15405.41
486.07	15557.54
486.25	15559.88
486.43	15676.91
486.61	15751.81
486.78	15981.18
486.96	16081.82
487.14	16538.23
487.32	16383.75
487.50	16592.06
487.68	16767.60
487.85	16964.20
488.03	16833.13
488.21	17238.05
488.39	17401.88
488.57	17453.37
488.75	17329.33
488.92	17727.22
489.10	17893.40
489.28	17675.73
489.46	18167.24
489.64	18331.08
489.81	18761.73
489.99	18420.02
490.17	18806.20
490.35	18911.53
490.53	18759.39
490.70	18843.65
490.88	19417.08
491.06	19218.14
491.24	19136.22
491.41	19211.12
491.59	19108.13
491.77	19290.70
491.95	19454.53
492.13	19749.44
492.30	19840.72
492.48	19880.51
492.66	20297.13
492.84	20217.55
493.01	20556.93
493.19	20079.46
493.37	20627.14
493.54	20879.92
493.72	20950.14
493.90	20896.30
494.08	21181.85
494.25	21392.50
494.43	21507.18
494.61	21809.11
494.79	21743.58
494.96	21888.69
495.14	21687.40
495.32	21792.73
495.49	22038.48
495.67	22111.04
495.85	22092.32
496.02	22272.54
496.20	22522.98
496.38	22724.26
496.55	22941.93
496.73	22927.89
496.91	22953.63
497.09	23302.37
497.26	23098.75
497.44	23501.32
497.62	23454.51
497.79	23222.80
497.97	23557.49
498.14	23583.24
498.32	24011.56
498.50	24159.01
498.67	24107.52
498.85	23875.80
499.03	24072.41
499.20	24402.43
499.38	24163.69
499.56	24650.52
499.73	24648.18
499.91	24657.54
500.08	24781.59
500.26	24800.32
500.44	24788.61
500.61	25013.31
500.79	24847.13
500.97	25064.80
501.14	25488.43
501.32	25429.92
501.49	25474.39
501.67	25860.58
501.84	25465.03
502.02	25876.96
502.20	25565.67
502.37	25860.58
502.55	25834.83
502.72	26251.45
502.90	25883.98
503.07	26068.89
503.25	26487.84
503.43	26134.42
503.60	26459.76
503.78	26387.20
503.95	26272.51
504.13	26705.51
504.30	26878.71
504.48	26581.46
504.65	27037.87
504.83	27190.00
505.01	27608.96
505.18	27054.25
505.36	27323.41
505.53	27796.20
505.71	27271.92
505.88	27688.54
506.06	27779.82
506.23	27410.01
506.41	27601.94
506.58	27950.68
506.76	27592.58
506.93	28025.57
507.11	27807.90
507.28	28058.34
507.46	27967.06
507.63	28268.99
507.81	28219.84
507.98	28212.82
508.16	28374.31
508.33	28704.33
508.50	28821.36
508.68	29120.95
508.85	28973.49
509.03	28666.88
509.20	29064.77
509.38	29270.74
509.55	29003.92
509.73	29610.12
509.90	29163.08
510.08	29570.33
510.25	29439.26
510.42	29369.04
510.60	29972.90
510.77	29986.94
510.95	30167.16
511.12	30188.23
511.30	29977.58
511.47	30295.89
511.64	30328.66
511.82	30649.32
511.99	30129.72
512.17	30403.56
512.34	30410.58
512.51	30457.39
512.69	30841.24
512.86	30843.58
513.04	30665.70
513.21	30522.93
513.38	31194.66
513.56	30759.32
513.73	30403.56
513.90	30960.61
514.08	31023.80
514.25	31346.79
514.43	31267.22
514.60	31744.69
514.77	31438.08
514.95	31625.32
515.12	31428.71
515.29	31697.88
515.47	31847.67
515.64	31852.35
515.81	31489.57
515.99	31835.97
516.16	31789.16
516.33	32212.79
516.51	32025.55
516.68	31632.34
516.85	31590.21
517.03	31384.24
517.20	31903.84
517.37	31938.95
517.54	32273.65
517.72	32444.51
517.89	31859.37
518.06	32531.11
518.24	32369.61
518.41	32369.61
518.58	32793.25
518.75	32400.04
518.93	32863.46
519.10	32999.21
519.27	33308.16
519.45	32833.04
519.62	32921.98
519.79	33237.95
519.96	33226.24
520.14	33118.58
520.31	33266.03
520.48	33167.73
520.65	33638.18
520.83	33684.99
521.00	34057.14
521.17	34246.72
521.34	33989.26
521.52	33956.49
521.69	34305.23
521.86	34466.73
522.03	34754.61
522.20	34492.47
522.38	34286.51
522.55	34522.90
522.72	34401.19
522.89	34433.96
523.07	34639.93
523.24	34558.01
523.41	34632.91
523.58	34501.84
523.75	35395.92
523.92	34944.20
524.10	35180.59
524.27	35030.80
524.44	35079.95
524.61	35241.45
524.78	34768.66
524.96	35456.78
525.13	35264.85
525.30	35356.13
525.47	35721.26
525.64	35583.16
525.81	35730.62
525.98	35290.60
526.16	35321.02
526.33	35140.80
526.50	35700.19
526.67	35131.44
526.84	35735.30
527.01	35627.63
527.18	35639.34
527.36	36180.00
527.53	36463.21
527.70	36673.85
527.87	36226.81
528.04	36601.30
528.21	36332.14
528.38	36229.15
528.55	36732.37
528.72	37174.73
528.89	36804.92
529.07	36378.95
529.24	36638.75
529.41	36641.09
529.58	36648.11
529.75	36655.13
529.92	36638.75
530.09	37195.79
530.26	36870.46
530.43	37125.58
530.60	36919.61
530.77	37237.92
530.94	37137.28
531.11	37006.21
531.28	36875.14
531.46	37446.23
531.63	37476.66
531.80	37338.57
531.97	37436.87
532.14	37233.24
532.31	37457.93
532.48	37799.65
532.65	37691.99
532.82	37663.90
532.99	37771.57
533.16	37535.17
533.33	37635.81
533.50	38223.29
533.67	37928.38
533.84	37324.52
534.01	38010.30
534.18	37907.32
534.35	38497.13
534.52	37935.40
534.69	38595.43
534.86	38462.02
535.03	38487.77
535.20	38487.77
535.37	38726.50
535.54	39051.84
535.71	38227.97
535.88	38455.00
536.05	38604.80
536.22	38576.71
536.38	38628.20
536.55	38433.94
536.72	38452.66
536.89	38274.78
537.06	38944.17
537.23	38665.65
537.40	38375.42
537.57	38719.48
537.74	39330.36
537.91	39768.04
538.08	39491.86
538.25	38745.23
538.42	38988.64
538.59	39353.77
538.75	38944.17
538.92	39035.45
539.09	39438.03
539.26	39042.48
539.43	39290.57
539.60	39484.84
539.77	39061.20
539.94	39201.63
540.11	39311.64
540.28	39859.32
540.44	39496.54
540.61	39629.95
540.78	39655.70
540.95	39477.82
541.12	39541.01
541.29	39452.07
541.46	39751.66
541.62	39906.13
541.79	40282.96
541.96	39651.02
542.13	40018.48
542.30	39976.35
542.47	40133.17
542.63	40187.00
542.80	40081.67
542.97	40542.76
543.14	40538.08
543.31	40245.51
543.48	40477.22
543.64	41542.17
543.81	40961.72
543.98	40968.74
544.15	40935.97
544.32	41008.53
544.48	40924.27
544.65	41097.47
544.82	41148.96
544.99	40734.68
545.16	41359.61
545.32	41095.13
545.49	41530.47
545.66	41261.30
545.83	41673.24
546.00	41464.93
546.16	41219.17
546.33	41130.23
546.50	41294.07
546.67	40917.25
546.83	40758.09
547.00	41235.56
547.17	41071.72
547.34	40809.58
547.50	41757.50
547.67	41926.02
547.84	41144.28
548.00	41600.68
548.17	41890.91
548.34	41528.13
548.51	41937.72
548.67	41914.31
548.84	42012.62
549.01	41251.94
549.18	41682.60
549.34	41937.72
549.51	42178.79
549.68	42323.91
549.84	42216.24
550.01	42323.91
550.18	42115.60
550.34	42106.24
550.51	42059.43
550.68	42078.15
550.84	41574.94
551.01	42192.84
551.18	41560.89
551.34	41993.89
551.51	42167.09
551.68	42237.31
551.84	42340.29
552.01	42417.53
552.18	42504.13
552.34	42169.43
552.51	42366.04
552.68	42410.51
552.84	42445.62
553.01	42351.99
553.18	43044.79
553.34	42274.76
553.51	42396.46
553.67	42307.52
553.84	42803.72
554.01	42941.81
554.17	42799.04
554.34	42667.97
554.51	43159.48
554.67	42777.97
554.84	43016.71
555.00	42960.53
555.17	42492.43
555.33	42838.83
555.50	42859.89
555.67	42885.64
555.83	42745.20
556.00	42960.53
556.16	43372.47
556.33	42845.85
556.50	42646.90
556.66	42883.30
556.83	42712.44
556.99	43316.29
557.16	43330.34
557.32	43026.07
557.49	43283.53
557.65	43182.88
557.82	42829.46
557.98	43281.19
558.15	42848.19
558.32	43611.20
558.48	43489.49
558.65	43552.69
558.81	43344.38
558.98	42602.43
559.14	43040.11
559.31	43330.34
559.47	43475.45
559.64	43611.20
559.80	43463.75
559.97	43768.02
560.13	43136.07
560.30	43512.90
560.46	43700.14
560.63	43758.66
560.79	43882.70
560.96	43812.49
561.12	44175.27
561.29	43489.49
561.45	44126.12
561.61	43779.72
561.78	43480.13
561.94	43629.93
562.11	43880.36
562.27	43524.60
562.44	43456.73
562.60	43983.35
562.77	43817.17
562.93	43695.46
563.10	43894.41
563.26	43587.80
563.42	43917.81
563.59	43650.99
563.75	43803.13
563.92	43796.10
564.08	43943.56
564.24	44205.70
564.41	44369.54
564.57	43901.43
564.74	43908.45
564.90	44472.52
565.07	43929.51
565.23	44184.63
565.39	43768.02
565.56	44095.69
565.72	43796.10
565.88	43964.62
566.05	44044.20
566.21	44121.44
566.38	43892.07
566.54	44322.72
566.70	44182.29
566.87	44273.57
567.03	43824.19
567.19	44538.05
567.36	44418.69
567.52	44149.53
567.68	44334.43
567.85	44329.75
568.01	44044.20
568.17	44037.18
568.34	44453.79
568.50	44266.55
568.66	43889.73
568.83	44147.18
568.99	43934.20
569.15	43721.21
569.32	44280.60
569.48	44135.48
569.64	44603.59
569.81	44428.05
569.97	44189.31
570.13	44126.12
570.30	43948.24
570.46	43817.17
570.62	44091.01
570.78	44158.89
570.95	44294.64
571.11	44755.72
571.27	44421.03
571.43	43878.02
571.60	44364.85
571.76	44376.56
571.92	44360.17
572.09	44453.79
572.25	44083.99
572.41	44023.14
572.57	44900.84
572.74	44608.27
572.90	44608.27
573.06	44837.64
573.22	44493.58
573.38	44280.60
573.55	44039.52
573.71	44549.76
573.87	44140.16
574.03	44002.07
574.20	44519.33
574.36	44467.84
574.52	44320.38
574.68	44797.85
574.84	44369.54
575.01	44378.90
575.17	44261.87
575.33	44023.14
575.49	44304.00
575.65	44498.26
575.82	44957.01
575.98	44158.89
576.14	44306.34
576.30	44690.19
576.46	44629.34
576.62	43983.35
576.79	44325.07
576.95	44137.82
577.11	44451.45
577.27	44514.65
577.43	44648.06
577.59	44842.32
577.75	44388.26
577.92	43618.22
578.08	44385.92
578.24	44140.16
578.40	44020.80
578.56	44481.88
578.72	44318.04
578.88	44905.52
579.04	44982.76
579.21	44156.55
579.37	44423.37
579.53	44095.69
579.69	44683.17
579.85	44411.67
580.01	44622.31
580.17	44463.16
580.33	44912.54
580.49	44315.70
580.65	44938.29
580.82	44615.29
580.98	44615.29
581.14	44343.79
581.30	44762.75
581.46	44472.52
581.62	44348.47
581.78	44502.95
581.94	44739.34
582.10	44704.23
582.26	44842.32
582.42	44439.75
582.58	44535.71
582.74	44102.71
582.90	44442.09
583.06	45057.65
583.22	44924.24
583.38	45055.31
583.54	44994.46
583.70	44863.39
583.86	44835.30
584.02	44648.06
584.18	44500.61
584.34	44734.66
584.50	44683.17
584.66	44556.78
584.82	44507.63
584.98	44718.28
585.14	44751.04
585.30	44421.03
585.46	44729.98
585.62	44741.68
585.78	44828.28
585.94	44371.88
586.10	44233.78
586.26	44720.62
586.42	44573.16
586.58	44797.85
586.74	44601.25
586.90	44467.84
587.06	44765.09
587.22	44907.86
587.38	44346.13
587.54	45041.27
587.70	44608.27
587.86	44765.09
588.02	44547.42
588.18	44722.96
588.34	44617.63
588.49	44135.48
588.65	44327.41
588.81	43959.94
588.97	44512.31
589.13	44257.19
589.29	44292.30
589.45	44704.23
589.61	44744.02
589.77	44727.64
589.93	44690.19
590.08	44832.96
590.24	44491.24
