SpectraSuite Data File
++++++++++++++++++++++++++++++++++++
Date: Fri Oct 25 10:47:59 EDT 2013
User: price-jones
Dark Spectrum Present: No
Reference Spectrum Present: No
Number of Sampled Component Spectra: 1
Spectrometers: USB2+H05261
Integration Time (usec): 100000 (USB2+H05261)
Spectra Averaged: 1 (USB2+H05261)
Boxcar Smoothing: 0 (USB2+H05261)
Correct for Electrical Dark: No (USB2+H05261)
Strobe/Lamp Enabled: No (USB2+H05261)
Correct for Detector Non-linearity: No (USB2+H05261)
Correct for Stray Light: No (USB2+H05261)
Number of Pixels in Processed Spectrum: 2048
>>>>>Begin Processed Spectral Data<<<<<
365.73	266.82
365.92	266.82
366.12	266.82
366.32	30.43
366.52	79.58
366.72	49.15
366.91	16.38
367.11	0.00
367.31	7.02
367.51	35.11
367.70	91.28
367.90	4.68
368.10	56.17
368.30	14.04
368.49	0.00
368.69	88.94
368.89	67.88
369.09	105.32
369.28	7.02
369.48	30.43
369.68	0.00
369.87	56.17
370.07	88.94
370.27	110.01
370.47	252.78
370.66	372.15
370.86	397.89
371.06	475.13
371.25	454.06
371.45	433.00
371.65	430.66
371.84	451.72
372.04	470.45
372.24	456.40
372.44	472.79
372.63	521.94
372.83	528.96
373.03	482.15
373.22	507.90
373.42	507.90
373.62	521.94
373.81	601.52
374.01	524.28
374.21	610.88
374.40	538.32
374.60	559.39
374.79	585.13
374.99	526.62
375.19	571.09
375.38	545.34
375.58	493.85
375.78	517.26
375.97	582.79
376.17	596.84
376.37	596.84
376.56	664.71
376.76	493.85
376.95	561.73
377.15	613.22
377.35	660.03
377.54	610.88
377.74	514.92
377.93	575.77
378.13	606.20
378.33	603.86
378.52	720.88
378.72	660.03
378.91	575.77
379.11	617.90
379.31	599.18
379.50	587.47
379.70	718.54
379.89	723.23
380.09	636.63
380.28	617.90
380.48	657.69
380.68	615.56
380.87	690.46
381.07	671.73
381.26	636.63
381.46	723.23
381.65	634.29
381.85	653.01
382.04	631.94
382.24	697.48
382.43	674.07
382.63	653.01
382.83	676.41
383.02	671.73
383.22	718.54
383.41	660.03
383.61	760.67
383.80	730.25
384.00	690.46
384.19	697.48
384.39	819.19
384.58	800.46
384.78	788.76
384.97	746.63
385.17	786.42
385.36	706.84
385.56	791.10
385.75	716.20
385.95	767.70
386.14	779.40
386.34	795.78
386.53	814.51
386.72	786.42
386.92	828.55
387.11	861.32
387.31	882.38
387.50	870.68
387.70	713.86
387.89	877.70
388.09	807.48
388.28	837.91
388.48	861.32
388.67	819.19
388.86	912.81
389.06	863.66
389.25	919.83
389.45	858.98
389.64	901.11
389.84	898.77
390.03	968.98
390.22	884.72
390.42	922.17
390.61	931.53
390.81	966.64
391.00	980.68
391.19	954.94
391.39	912.81
391.58	990.05
391.78	884.72
391.97	919.83
392.16	1027.50
392.36	987.71
392.55	950.26
392.75	854.30
392.94	915.15
393.13	976.00
393.33	973.66
393.52	966.64
393.71	1013.45
393.91	1041.54
394.10	1107.07
394.29	1088.35
394.49	1135.16
394.68	1116.44
394.88	987.71
395.07	1081.33
395.26	1088.35
395.46	1179.63
395.65	1086.01
395.84	1135.16
396.04	1078.99
396.23	1090.69
396.42	1097.71
396.62	1050.90
396.81	1100.05
397.00	1102.39
397.19	1135.16
397.39	1172.61
397.58	1224.10
397.77	1310.70
397.97	1320.06
398.16	1231.12
398.35	1249.85
398.55	1261.55
398.74	1364.53
398.93	1383.26
399.12	1296.66
399.32	1357.51
399.51	1345.81
399.70	1416.02
399.90	1383.26
400.09	1418.36
400.28	1327.08
400.47	1416.02
400.67	1448.79
400.86	1423.05
401.05	1404.32
401.24	1378.58
401.44	1479.22
401.63	1504.96
401.82	1474.54
402.01	1493.26
402.21	1551.78
402.40	1495.60
402.59	1568.16
402.78	1643.06
402.97	1544.75
403.17	1519.01
403.36	1661.78
403.55	1621.99
403.74	1633.69
403.93	1514.33
404.13	1643.06
404.32	1650.08
404.51	1664.12
404.70	1734.34
404.89	1717.95
405.09	1706.25
405.28	1638.38
405.47	1732.00
405.66	1699.23
405.85	1659.44
406.05	1687.53
406.24	1778.81
406.43	1853.70
406.62	1767.10
406.81	1790.51
407.00	1741.36
407.20	1849.02
407.39	1832.64
407.58	1781.15
407.77	1940.30
407.96	1952.01
408.15	2029.24
408.34	1984.77
408.54	1998.82
408.73	1914.56
408.92	2008.18
409.11	2069.03
409.30	1994.14
409.49	1989.46
409.68	2157.97
409.87	2033.93
410.07	2047.97
410.26	2022.22
410.45	2235.21
410.64	2242.23
410.83	2143.93
411.02	2101.80
411.21	2172.02
411.40	2282.02
411.59	2172.02
411.78	2331.17
411.98	2312.45
412.17	2270.32
412.36	2284.36
412.55	2314.79
412.74	2434.16
412.93	2382.67
413.12	2466.92
413.31	2509.05
413.50	2445.86
413.69	2469.27
413.88	2581.61
414.07	2562.89
414.26	2534.80
414.45	2480.97
414.64	2637.78
414.83	2588.63
415.02	2691.62
415.22	2698.64
415.41	2818.00
415.60	2794.60
415.79	2745.45
415.98	2801.62
416.17	2839.07
416.36	2883.54
416.55	2881.20
416.74	2949.08
416.93	2923.33
417.12	2937.37
417.31	2911.63
417.50	2991.20
417.69	2967.80
417.88	3068.44
418.07	2920.99
418.26	2986.52
418.45	3014.61
418.64	3236.96
418.83	3222.92
419.02	3133.98
419.21	3260.37
419.39	3159.72
419.58	3162.06
419.77	3063.76
419.96	3171.43
420.15	3243.98
420.34	3325.90
420.53	3218.24
420.72	3316.54
420.91	3300.16
421.10	3290.79
421.29	3361.01
421.48	3412.50
421.67	3461.65
421.86	3506.12
422.05	3339.94
422.24	3372.71
422.43	3428.88
422.61	3346.97
422.80	3456.97
422.99	3501.44
423.18	3541.23
423.37	3644.21
423.56	3471.01
423.75	3485.06
423.94	3393.78
424.13	3321.22
424.32	3414.84
424.50	3433.57
424.69	3609.11
424.88	3588.04
425.07	3461.65
425.26	3529.53
425.45	3487.40
425.64	3421.86
425.83	3623.15
426.01	3447.61
426.20	3695.71
426.39	3478.04
426.58	3517.83
426.77	3468.67
426.96	3590.38
427.15	3515.48
427.33	3562.30
427.52	3541.23
427.71	3632.51
427.90	3791.67
428.09	3761.24
428.28	3765.92
428.46	3815.07
428.65	3815.07
428.84	3791.67
429.03	3836.14
429.22	3887.63
429.40	3840.82
429.59	3751.88
429.78	3592.72
429.97	3597.40
430.16	3604.42
430.34	3805.71
430.53	3786.99
430.72	3894.65
430.91	3684.00
431.10	3887.63
431.28	4224.67
431.47	4119.34
431.66	4142.75
431.85	3885.29
432.03	4159.13
432.22	4117.00
432.41	4112.32
432.60	4219.99
432.79	4182.54
432.97	4250.41
433.16	4142.75
433.35	4198.92
433.54	4201.26
433.72	4222.33
433.91	4119.34
434.10	4074.87
434.28	4152.11
434.47	4470.42
434.66	4435.32
434.85	4507.87
435.03	4346.37
435.22	4334.67
435.41	4568.73
435.59	4535.96
435.78	4566.39
435.97	4615.54
436.16	4416.59
436.34	4585.11
436.53	4540.64
436.72	4636.60
436.90	4578.09
437.09	4479.79
437.28	4582.77
437.46	4589.79
437.65	4704.48
437.84	4734.90
438.02	4512.55
438.21	4678.73
438.40	4711.50
438.58	4919.81
438.77	4877.68
438.96	4755.97
439.14	4919.81
439.33	5060.24
439.52	4952.57
439.70	5053.22
439.89	5200.67
440.08	5053.22
440.26	5163.22
440.45	5156.20
440.63	5029.81
440.82	5303.65
441.01	5247.48
441.19	5301.31
441.38	5401.96
441.57	5530.69
441.75	5465.15
441.94	5507.28
442.12	5540.05
442.31	5593.88
442.50	5614.95
442.68	5493.24
442.87	5645.37
443.05	5619.63
443.24	5710.91
443.43	5666.44
443.61	5696.86
443.80	5954.32
443.98	5687.50
444.17	5551.75
444.35	5792.83
444.54	5867.72
444.73	5727.29
444.91	5633.67
445.10	5877.09
445.28	5809.21
445.47	5652.39
445.65	5724.95
445.84	5891.13
446.02	5820.91
446.21	5834.96
446.39	5692.18
446.58	5785.80
446.77	6036.24
446.95	5734.31
447.14	5907.51
447.32	5994.11
447.51	5973.05
447.69	5870.06
447.88	5898.15
448.06	5951.98
448.25	5830.27
448.43	5996.45
448.62	5879.43
448.80	5900.49
448.99	6167.31
449.17	5959.00
449.36	5905.17
449.54	6071.35
449.73	6310.08
449.91	6239.87
450.10	6132.20
450.28	6408.39
450.46	6370.94
450.65	6218.80
450.83	6382.64
451.02	6408.39
451.20	6263.27
451.39	6373.28
451.57	6417.75
451.76	6532.44
451.94	6422.43
452.13	6574.56
452.31	6305.40
452.49	6260.93
452.68	6520.73
452.86	6382.64
453.05	6551.16
453.23	6506.69
453.42	6562.86
453.60	6462.22
453.78	6614.35
453.97	6616.69
454.15	6586.27
454.34	6612.01
454.52	6647.12
454.70	6546.48
454.89	6839.05
455.07	6707.98
455.26	6754.79
455.44	6899.90
455.62	6698.61
455.81	6927.99
455.99	7028.63
456.17	6899.90
456.36	6981.82
456.54	7119.91
456.73	7035.65
456.91	7152.68
457.09	7250.98
457.28	7318.86
457.46	6904.58
457.64	7258.00
457.83	7220.55
458.01	7201.83
458.19	7309.49
458.38	7283.75
458.56	7349.28
458.74	7492.05
458.93	7201.83
459.11	7386.73
459.29	7302.47
459.48	7590.36
459.66	7487.37
459.84	7517.80
460.03	7543.55
460.21	7637.17
460.39	7611.42
460.57	7536.52
460.76	7714.41
460.94	7634.83
461.12	7595.04
461.31	7754.19
461.49	7674.62
461.67	7747.17
461.85	7854.84
462.04	7920.37
462.22	8257.41
462.40	7815.05
462.59	7705.04
462.77	7953.14
462.95	7969.52
463.13	7950.80
463.32	7889.95
463.50	8191.88
463.68	7964.84
463.86	8053.78
464.05	7894.63
464.23	8159.11
464.41	8294.86
464.59	7925.05
464.78	8231.66
464.96	8112.30
465.14	8088.89
465.32	8236.35
465.50	8198.90
465.69	8313.58
465.87	8191.88
466.05	8299.54
466.23	8215.28
466.41	8250.39
466.60	8594.45
466.78	8226.98
466.96	8334.65
467.14	8465.72
467.32	8428.27
467.51	8634.24
467.69	8182.51
467.87	8318.26
468.05	8514.87
468.23	8507.85
468.41	8528.91
468.60	8456.36
468.78	8559.34
468.96	8542.96
469.14	8709.13
469.32	8795.73
469.50	8573.38
469.69	8856.59
469.87	8805.10
470.05	8690.41
470.23	8931.48
470.41	8842.54
470.59	8901.06
470.77	8929.14
470.95	9036.81
471.14	9111.71
471.32	8835.52
471.50	9345.76
471.68	9390.23
471.86	9195.96
472.04	9476.83
472.22	9476.83
472.40	9114.05
472.58	9420.66
472.77	9371.50
472.95	9563.43
473.13	9603.22
473.31	9617.26
473.49	9521.30
473.67	9530.66
473.85	9509.60
474.03	9738.97
474.21	9579.81
474.39	10005.79
474.57	10073.67
474.75	9933.23
474.93	9867.70
475.12	9977.70
475.30	10157.92
475.48	10225.80
475.66	10265.59
475.84	10164.95
476.02	10289.00
476.20	10408.36
476.38	10696.25
476.56	10806.25
476.74	10691.57
476.92	10527.73
477.10	10721.99
477.28	10815.62
477.46	10956.05
477.64	11063.71
477.82	11143.29
478.00	11272.02
478.18	11225.21
478.36	11246.27
478.54	11173.72
478.72	11632.46
478.90	11611.40
479.08	11669.91
479.26	11889.92
479.44	11817.36
479.62	12013.97
479.80	11978.86
479.98	12156.74
480.16	12334.62
480.34	12198.87
480.52	12446.97
480.70	12287.81
480.88	12280.79
481.06	12468.03
481.24	12641.23
481.41	12781.67
481.59	13064.87
481.77	12936.14
481.95	12980.61
482.13	13270.84
482.31	13018.06
482.49	13444.04
482.67	13460.42
482.85	13537.66
483.03	13612.56
483.21	13902.78
483.39	13865.33
483.57	13947.25
483.74	14068.96
483.92	14040.87
484.10	14293.65
484.28	14401.32
484.46	14679.84
484.64	14602.60
484.82	14700.90
485.00	14408.34
485.18	14796.87
485.35	14806.23
485.53	15019.22
485.71	14895.17
485.89	15389.02
486.07	15164.33
486.25	15389.02
486.43	15580.95
486.61	15735.42
486.78	15913.30
486.96	15749.46
487.14	16011.60
487.32	15939.05
487.50	16425.88
487.68	16812.07
487.85	16744.19
488.03	16819.09
488.21	16980.59
488.39	17013.35
488.57	17156.13
488.75	17376.14
488.92	17413.59
489.10	17523.59
489.28	17397.20
489.46	17839.56
489.64	17879.35
489.81	18078.30
489.99	18288.95
490.17	18314.69
490.35	18689.18
490.53	18377.89
490.70	18523.00
490.88	18431.72
491.06	18899.83
491.24	18953.66
491.41	19005.15
491.59	18881.10
491.77	19108.13
491.95	19295.38
492.13	19807.95
492.30	19777.53
492.48	19744.76
492.66	19871.15
492.84	19587.94
493.01	20142.65
493.19	20072.43
493.37	20388.41
493.54	20397.77
493.72	20877.58
493.90	20376.70
494.08	21053.12
494.25	20802.68
494.43	20900.98
494.61	21603.14
494.79	21156.10
494.96	21586.76
495.14	21401.86
495.32	21568.04
495.49	21624.21
495.67	21827.84
495.85	22199.98
496.02	21774.00
496.20	22139.13
496.38	22403.61
496.55	22239.77
496.73	22803.84
496.91	22677.45
497.09	22656.39
497.26	22874.06
497.44	22857.67
497.62	22974.70
497.79	23370.25
497.97	23173.64
498.14	23576.22
498.32	23456.85
498.50	23480.25
498.67	23637.07
498.85	23929.64
499.03	24079.43
499.20	23828.99
499.38	24063.05
499.56	24128.58
499.73	24283.06
499.91	24243.27
500.08	24393.06
500.26	24135.60
500.44	24533.50
500.61	24486.68
500.79	24491.37
500.97	24802.66
501.14	24966.49
501.32	25006.28
501.49	25188.85
501.67	25069.48
501.84	24903.30
502.02	25305.87
502.20	25146.72
502.37	25748.23
502.55	25532.90
502.72	25748.23
502.90	25993.99
503.07	25724.83
503.25	26288.90
503.43	25963.56
503.60	26127.40
503.78	26143.78
503.95	25778.66
504.13	26480.82
504.30	26710.19
504.48	26199.96
504.65	26328.69
504.83	26600.19
505.01	26740.62
505.18	26759.34
505.36	26693.81
505.53	27105.74
505.71	26995.74
505.88	27124.47
506.06	27049.57
506.23	27161.92
506.41	26881.05
506.58	27545.76
506.76	27751.73
506.93	27569.17
507.11	27374.91
507.28	27517.68
507.46	27775.14
507.63	27910.89
507.81	27793.86
507.98	27864.08
508.16	28126.22
508.33	28229.20
508.50	28379.00
508.68	28498.36
508.85	28357.93
509.03	28526.45
509.20	28790.93
509.38	28643.48
509.55	29046.05
509.73	29010.94
509.90	28704.33
510.08	29076.48
510.25	29228.61
510.42	29717.78
510.60	29514.16
510.77	29347.98
510.95	29324.57
511.12	29425.22
511.30	29806.72
511.47	29741.19
511.64	29869.92
511.82	29862.90
511.99	29448.62
512.17	29914.39
512.34	30080.56
512.51	30174.19
512.69	30588.46
512.86	30670.38
513.04	30792.09
513.21	30560.37
513.38	30366.11
513.56	30494.84
513.73	30558.03
513.90	30658.68
514.08	30443.35
514.25	31154.87
514.43	30881.03
514.60	30946.56
514.77	31044.87
514.95	30981.67
515.12	31098.70
515.29	31189.98
515.47	31693.19
515.64	31517.65
515.81	31634.68
515.99	31316.37
516.16	31618.30
516.33	31679.15
516.51	32100.45
516.68	31489.57
516.85	31281.26
517.03	32016.19
517.20	31810.22
517.37	31882.78
517.54	32378.97
517.72	32077.04
517.89	32233.86
518.06	32109.81
518.24	32081.72
518.41	31880.44
518.58	32041.93
518.75	32393.01
518.93	32800.27
519.10	32907.93
519.27	32755.80
519.45	32535.79
519.62	32952.40
519.79	33151.35
519.96	33132.62
520.14	33240.29
520.31	33153.69
520.48	33167.73
520.65	33507.11
520.83	33254.33
521.00	33874.57
521.17	33706.05
521.34	33748.18
521.52	33624.14
521.69	33895.64
521.86	33921.38
522.03	34340.34
522.20	33790.31
522.38	34117.99
522.55	34726.53
522.72	34108.63
522.89	33984.58
523.07	34143.74
523.24	34143.74
523.41	34408.22
523.58	34300.55
523.75	34918.45
523.92	35037.82
524.10	34932.50
524.27	34983.99
524.44	34806.11
524.61	35185.27
524.78	34822.49
524.96	35105.70
525.13	35119.74
525.30	35498.91
525.47	35512.95
525.64	35321.02
525.81	35297.62
525.98	35143.14
526.16	35344.43
526.33	35641.68
526.50	35180.59
526.67	35124.42
526.84	35452.09
527.01	35129.10
527.18	35562.10
527.36	36037.23
527.53	35531.67
527.70	36023.19
527.87	35992.76
528.04	36311.07
528.21	36147.23
528.38	35924.88
528.55	36299.37
528.72	36119.15
528.89	36378.95
529.07	36474.91
529.24	36156.60
529.41	36451.50
529.58	36238.51
529.75	36271.28
529.92	36486.61
530.09	36769.82
530.26	36486.61
530.43	36950.04
530.60	36591.94
530.77	36704.28
530.94	37062.38
531.11	36980.46
531.28	37013.23
531.46	36788.54
531.63	37247.29
531.80	36900.89
531.97	37102.17
532.14	37287.07
532.31	36987.49
532.48	37139.62
532.65	37591.34
532.82	36715.98
532.99	37741.14
533.16	37046.00
533.33	37378.36
533.50	37614.75
533.67	37764.54
533.84	37425.17
534.01	37387.72
534.18	37912.00
534.35	38529.90
534.52	37694.33
534.69	37701.35
534.86	37839.44
535.03	37612.41
535.20	37897.95
535.37	38204.56
535.54	38689.06
535.71	38176.48
535.88	38185.84
536.05	38197.54
536.22	38569.69
536.38	38604.80
536.55	38361.38
536.72	38569.69
536.89	38295.85
537.06	38756.93
537.23	38663.31
537.40	38366.06
537.57	38478.41
537.74	38927.79
537.91	39140.78
538.08	38689.06
538.25	38611.82
538.42	38602.46
538.59	38932.47
538.75	38712.46
538.92	39086.95
539.09	39232.06
539.26	39248.44
539.43	38969.92
539.60	39051.84
539.77	39229.72
539.94	38885.66
540.11	39196.95
540.28	39545.69
540.44	38927.79
540.61	39533.99
540.78	38866.94
540.95	39227.38
541.12	39522.29
541.29	39501.22
541.46	39210.99
541.62	39274.19
541.79	39693.15
541.96	39463.77
542.13	39643.99
542.30	39971.67
542.47	39620.59
542.63	40119.12
542.80	40205.72
542.97	40905.54
543.14	40683.19
543.31	40355.52
543.48	40540.42
543.64	40098.06
543.81	40912.56
543.98	40547.44
544.15	40418.71
544.32	40917.25
544.48	41406.42
544.65	40556.80
544.82	40790.86
544.99	40392.97
545.16	40957.03
545.32	40402.33
545.49	40849.37
545.66	41170.02
545.83	41092.79
546.00	40961.72
546.16	40765.11
546.33	40891.50
546.50	40418.71
546.67	41141.94
546.83	40591.91
547.00	41036.61
547.17	41284.71
547.34	41085.76
547.50	41106.83
547.67	41801.97
547.84	41497.70
548.00	41928.36
548.17	41940.06
548.34	41846.44
548.51	41783.24
548.67	41560.89
548.84	41427.48
549.01	41390.03
549.18	41413.44
549.34	41596.00
549.51	42241.99
549.68	41528.13
549.84	41858.14
550.01	42380.08
550.18	42021.98
550.34	41734.09
550.51	41345.56
550.68	41514.08
550.84	41331.52
551.01	42043.04
551.18	42092.19
551.34	42012.62
551.51	42174.11
551.68	42155.39
551.84	42131.98
552.01	41713.03
552.18	42148.37
552.34	42075.81
552.51	42199.86
552.68	42167.09
552.84	42536.90
553.01	42763.93
553.18	42080.49
553.34	42136.66
553.51	41787.92
553.67	42012.62
553.84	42623.50
554.01	42707.76
554.17	42602.43
554.34	42843.51
554.51	42625.84
554.67	42490.09
554.84	42710.10
555.00	42808.40
555.17	42539.24
555.33	42850.53
555.50	42829.46
555.67	43262.46
555.83	42749.88
556.00	42841.17
556.16	43105.65
556.33	43402.89
556.50	43096.28
556.66	43042.45
556.83	42773.29
556.99	43416.94
557.16	43075.22
557.32	43330.34
557.49	42916.06
557.65	43217.99
557.82	43351.40
557.98	42848.19
558.15	42993.30
558.32	43430.98
558.48	43517.58
558.65	42988.62
558.81	43150.12
558.98	43372.47
559.14	43349.06
559.31	43136.07
559.47	43428.64
559.64	43782.06
559.80	43899.09
559.97	43775.04
560.13	43281.19
560.30	43634.61
560.46	43178.20
560.63	43140.75
560.79	43234.38
560.96	43929.51
561.12	43650.99
561.29	43438.00
561.45	43894.41
561.61	43634.61
561.78	43463.75
561.94	43377.15
562.11	43505.88
562.27	43430.98
562.44	43655.67
562.60	43824.19
562.77	43646.31
562.93	43512.90
563.10	43753.97
563.26	43482.47
563.42	43952.92
563.59	43838.23
563.75	43461.41
563.92	43482.47
564.08	44224.42
564.24	43915.47
564.41	43981.01
564.57	43945.90
564.74	44083.99
564.90	43838.23
565.07	43824.19
565.23	43683.76
565.39	43503.54
565.56	43899.09
565.72	43737.59
565.88	44041.86
566.05	44079.31
566.21	43995.05
566.38	43999.73
566.54	43915.47
566.70	44442.09
566.87	44088.67
567.03	43782.06
567.19	44594.23
567.36	43896.75
567.52	43768.02
567.68	44044.20
567.85	44088.67
568.01	43938.88
568.17	43866.32
568.34	44048.88
568.50	44198.68
568.66	44067.61
568.83	44144.84
568.99	43913.13
569.15	44140.16
569.32	43894.41
569.48	44086.33
569.64	44219.74
569.81	44886.79
569.97	43831.21
570.13	44156.55
570.30	44414.01
570.46	44091.01
570.62	44098.03
570.78	44116.76
570.95	44329.75
571.11	44509.97
571.27	44100.37
571.43	44088.67
571.60	44715.93
571.76	44353.15
571.92	44208.04
572.09	44425.71
572.25	44151.87
572.41	44154.21
572.57	44879.77
572.74	44708.91
572.90	44617.63
573.06	44250.17
573.22	44226.76
573.38	44648.06
573.55	44175.27
573.71	44516.99
573.87	44334.43
574.03	44369.54
574.20	44388.26
574.36	44336.77
574.52	44676.15
574.68	44814.24
574.84	44811.90
575.01	44804.88
575.17	44233.78
575.33	44392.94
575.49	44325.07
575.65	44390.60
575.82	44802.53
575.98	44531.03
576.14	44755.72
576.30	44734.66
576.46	44423.37
576.62	44311.02
576.79	44516.99
576.95	43962.28
577.11	44318.04
577.27	44409.32
577.43	44460.82
577.59	44079.31
577.75	44315.70
577.92	44032.50
578.08	44114.42
578.24	44549.76
578.40	44128.46
578.56	44474.86
578.72	44156.55
578.88	44863.39
579.04	44802.53
579.21	44428.05
579.37	44254.85
579.53	44336.77
579.69	44170.59
579.85	44896.16
580.01	44631.68
580.17	44552.10
580.33	44821.26
580.49	44896.16
580.65	44641.04
580.82	44949.99
580.98	44498.26
581.14	43934.20
581.30	44781.47
581.46	44254.85
581.62	44610.61
581.78	44423.37
581.94	44741.68
582.10	44687.85
582.26	44673.81
582.42	44954.67
582.58	44634.02
582.74	44713.59
582.90	44788.49
583.06	44634.02
583.22	44839.98
583.38	44898.50
583.54	44788.49
583.70	44577.84
583.86	44404.64
584.02	44289.96
584.18	44755.72
584.34	44498.26
584.50	44748.70
584.66	44652.74
584.82	44301.66
584.98	44870.41
585.14	44818.92
585.30	44421.03
585.46	44765.09
585.62	44397.62
585.78	44765.09
585.94	44271.23
586.10	44720.62
586.26	44399.96
586.42	44615.29
586.58	44594.23
586.74	44839.98
586.90	44839.98
587.06	44512.31
587.22	44861.05
587.38	44259.53
587.54	44788.49
587.70	45170.00
587.86	44870.41
588.02	45015.52
588.18	44851.69
588.34	44755.72
588.49	44521.67
588.65	44240.81
588.81	44751.04
588.97	44669.12
589.13	44016.11
589.29	44545.08
589.45	44631.68
589.61	44914.88
589.77	45085.74
589.93	44905.52
590.08	45378.31
590.24	44638.70
590.40	44973.39
