SpectraSuite Data File
++++++++++++++++++++++++++++++++++++
Date: Fri Oct 25 10:43:39 EDT 2013
User: price-jones
Dark Spectrum Present: No
Reference Spectrum Present: No
Number of Sampled Component Spectra: 1
Spectrometers: USB2+H05261
Integration Time (usec): 100000 (USB2+H05261)
Spectra Averaged: 1 (USB2+H05261)
Boxcar Smoothing: 0 (USB2+H05261)
Correct for Electrical Dark: No (USB2+H05261)
Strobe/Lamp Enabled: No (USB2+H05261)
Correct for Detector Non-linearity: No (USB2+H05261)
Correct for Stray Light: No (USB2+H05261)
Number of Pixels in Processed Spectrum: 2048
>>>>>Begin Processed Spectral Data<<<<<
365.73	72.56
365.92	72.56
366.12	72.56
366.32	0.00
366.52	0.00
366.72	51.49
366.91	9.36
367.11	4.68
367.31	14.04
367.51	0.00
367.70	77.24
367.90	0.00
368.10	30.43
368.30	72.56
368.49	32.77
368.69	65.54
368.89	14.04
369.09	23.41
369.28	91.28
369.48	0.00
369.68	23.41
369.87	58.51
370.07	23.41
370.27	182.56
370.47	215.33
370.66	376.83
370.86	447.04
371.06	395.55
371.25	475.13
371.45	477.47
371.65	512.58
371.84	484.49
372.04	442.36
372.24	489.17
372.44	484.49
372.63	498.53
372.83	559.39
373.03	477.47
373.22	482.15
373.42	477.47
373.62	561.73
373.81	587.47
374.01	613.22
374.21	543.00
374.40	557.05
374.60	596.84
374.79	545.34
374.99	528.96
375.19	606.20
375.38	505.56
375.58	547.69
375.78	519.60
375.97	528.96
376.17	718.54
376.37	676.41
376.56	601.52
376.76	571.09
376.95	634.29
377.15	695.14
377.35	697.48
377.54	681.10
377.74	631.94
377.93	655.35
378.13	603.86
378.33	655.35
378.52	671.73
378.72	718.54
378.91	650.67
379.11	671.73
379.31	690.46
379.50	713.86
379.70	711.52
379.89	744.29
380.09	702.16
380.28	692.80
380.48	725.57
380.68	620.24
380.87	688.12
381.07	774.72
381.26	746.63
381.46	739.61
381.65	788.76
381.85	720.88
382.04	624.92
382.24	737.27
382.43	788.76
382.63	638.97
382.83	755.99
383.02	770.04
383.22	798.12
383.41	688.12
383.61	788.76
383.80	692.80
384.00	716.20
384.19	826.21
384.39	730.25
384.58	798.12
384.78	802.80
384.97	802.80
385.17	737.27
385.36	823.87
385.56	840.25
385.75	847.27
385.95	793.44
386.14	856.64
386.34	891.74
386.53	863.66
386.72	877.70
386.92	880.04
387.11	847.27
387.31	877.70
387.50	821.53
387.70	849.61
387.89	837.91
388.09	877.70
388.28	882.38
388.48	922.17
388.67	964.30
388.86	966.64
389.06	1011.11
389.25	1022.81
389.45	1032.18
389.64	1015.79
389.84	1043.88
390.03	1039.20
390.22	1020.47
390.42	1135.16
390.61	1081.33
390.81	1053.24
391.00	1130.48
391.19	1055.58
391.39	1036.86
391.58	1067.28
391.78	1013.45
391.97	1081.33
392.16	999.41
392.36	1088.35
392.55	1039.20
392.75	994.73
392.94	1053.24
393.13	1032.18
393.33	1013.45
393.52	978.34
393.71	1001.75
393.91	1151.54
394.10	1153.88
394.29	1167.93
394.49	1219.42
394.68	1240.48
394.88	1156.22
395.07	1196.01
395.26	1186.65
395.46	1210.06
395.65	1217.08
395.84	1212.40
396.04	1327.08
396.23	1193.67
396.42	1111.75
396.62	1163.25
396.81	1228.78
397.00	1231.12
397.19	1198.35
397.39	1282.61
397.58	1362.19
397.77	1364.53
397.97	1432.41
398.16	1369.21
398.35	1434.75
398.55	1392.62
398.74	1516.67
398.93	1605.61
399.12	1483.90
399.32	1535.39
399.51	1495.60
399.70	1502.62
399.90	1701.57
400.09	1577.52
400.28	1689.87
400.47	1589.22
400.67	1626.67
400.86	1673.48
401.05	1746.04
401.24	1673.48
401.44	1724.97
401.63	1694.55
401.82	1748.38
402.01	1689.87
402.21	1781.15
402.40	1760.08
402.59	1750.72
402.78	1706.25
402.97	1732.00
403.17	1769.44
403.36	1732.00
403.55	1834.98
403.74	1905.20
403.93	1886.47
404.13	1863.07
404.32	1926.26
404.51	1961.37
404.70	1893.49
404.89	1949.67
405.09	1994.14
405.28	1970.73
405.47	1895.83
405.66	1930.94
405.85	2069.03
406.05	1956.69
406.24	2015.20
406.43	2120.53
406.62	2106.48
406.81	2181.38
407.00	1949.67
407.20	2118.18
407.39	2043.29
407.58	2139.25
407.77	2183.72
407.96	2218.83
408.15	2275.00
408.34	2331.17
408.54	2354.58
408.73	2289.04
408.92	2431.82
409.11	2387.35
409.30	2319.47
409.49	2275.00
409.68	2232.87
409.87	2263.30
410.07	2417.77
410.26	2389.69
410.45	2441.18
410.64	2502.03
410.83	2562.89
411.02	2520.76
411.21	2656.51
411.40	2539.48
411.59	2534.80
411.78	2710.34
411.98	2715.02
412.17	2572.25
412.36	2743.11
412.55	2644.81
412.74	2724.38
412.93	2663.53
413.12	2677.57
413.31	2796.94
413.50	2745.45
413.69	2836.73
413.88	2920.99
414.07	2935.03
414.26	2932.69
414.45	2946.73
414.64	3117.59
414.83	3098.87
415.02	3124.62
415.22	3138.66
415.41	3110.57
415.60	3094.19
415.79	3272.07
415.98	3414.84
416.17	3346.97
416.36	3400.80
416.55	3332.92
416.74	3363.35
416.93	3323.56
417.12	3358.67
417.31	3389.10
417.50	3290.79
417.69	3524.85
417.88	3660.60
418.07	3382.07
418.26	3463.99
418.45	3417.18
418.64	3578.68
418.83	3531.87
419.02	3632.51
419.21	3686.34
419.39	3667.62
419.58	3562.30
419.77	3651.24
419.96	3609.11
420.15	3808.05
420.34	3754.22
420.53	3932.10
420.72	3852.52
420.91	3784.65
421.10	3864.22
421.29	4009.34
421.48	3955.51
421.67	3885.29
421.86	3929.76
422.05	3754.22
422.24	3999.98
422.43	3810.39
422.61	3882.95
422.80	4046.79
422.99	4025.72
423.18	3885.29
423.37	4074.87
423.56	3929.76
423.75	4042.11
423.94	3875.93
424.13	3768.26
424.32	3735.50
424.50	4016.36
424.69	4081.89
424.88	3964.87
425.07	4016.36
425.26	3873.59
425.45	4042.11
425.64	3840.82
425.83	4051.47
426.01	3990.61
426.20	3999.98
426.39	4154.45
426.58	3918.06
426.77	4011.68
426.96	4002.32
427.15	4032.74
427.33	4072.53
427.52	4014.02
427.71	4138.07
427.90	4081.89
428.09	4292.54
428.28	4124.02
428.46	4147.43
428.65	4299.56
428.84	4194.24
429.03	4322.97
429.22	4091.26
429.40	4196.58
429.59	4290.20
429.78	3969.55
429.97	3985.93
430.16	3957.85
430.34	4065.51
430.53	4189.56
430.72	4161.47
430.91	4187.22
431.10	4367.44
431.28	4657.67
431.47	4741.93
431.66	4762.99
431.85	4610.86
432.03	4788.74
432.22	4744.27
432.41	4601.49
432.60	4744.27
432.79	4681.07
432.97	4887.04
433.16	4842.57
433.35	4758.31
433.54	4674.05
433.72	4697.46
433.91	4730.22
434.10	4821.50
434.28	4910.44
434.47	4868.31
434.66	4929.17
434.85	4980.66
435.03	5006.41
435.22	4882.36
435.41	5001.72
435.59	4861.29
435.78	5067.26
435.97	5261.52
436.16	5048.54
436.34	5057.90
436.53	5116.41
436.72	5448.77
436.90	5102.37
437.09	5301.31
437.28	5135.14
437.46	5107.05
437.65	5221.74
437.84	5151.52
438.02	5270.89
438.21	5221.74
438.40	5095.35
438.58	5483.88
438.77	5397.28
438.96	5568.13
439.14	5610.26
439.33	5724.95
439.52	5547.07
439.70	5607.92
439.89	5837.30
440.08	5617.29
440.26	5715.59
440.45	5685.16
440.63	5982.41
440.82	5907.51
441.01	6134.54
441.19	5928.58
441.38	6195.40
441.57	6218.80
441.75	6270.30
441.94	6410.73
442.12	6502.01
442.31	6384.98
442.50	6492.65
442.68	6291.36
442.87	6265.61
443.05	6349.87
443.24	6415.41
443.43	6497.33
443.61	6534.78
443.80	6761.81
443.98	6509.03
444.17	6333.49
444.35	6614.35
444.54	6768.83
444.73	6686.91
444.91	6719.68
445.10	6619.04
445.28	6525.41
445.47	6567.54
445.65	6525.41
445.84	6649.46
446.02	6588.61
446.21	6663.51
446.39	6630.74
446.58	6745.42
446.77	6719.68
446.95	6710.32
447.14	6644.78
447.32	6785.21
447.51	6675.21
447.69	6752.45
447.88	6794.58
448.06	6722.02
448.25	6864.79
448.43	6923.30
448.62	6871.81
448.80	7012.24
448.99	6871.81
449.17	6712.66
449.36	6932.67
449.54	7122.25
449.73	7007.56
449.91	7152.68
450.10	7155.02
450.28	7389.07
450.46	7300.13
450.65	7428.86
450.83	7239.28
451.02	7454.61
451.20	7454.61
451.39	7283.75
451.57	7279.07
451.76	7363.33
451.94	7286.09
452.13	7447.58
452.31	7309.49
452.49	7218.21
452.68	7440.56
452.86	7243.96
453.05	7438.22
453.23	7531.84
453.42	7330.56
453.60	7431.20
453.78	7510.78
453.97	7517.80
454.15	7250.98
454.34	7328.22
454.52	7702.70
454.70	7524.82
454.89	7396.09
455.07	7665.25
455.26	7599.72
455.44	7817.39
455.62	7871.22
455.81	7852.50
455.99	7922.71
456.17	7857.18
456.36	7915.69
456.54	8229.32
456.73	8222.30
456.91	8292.52
457.09	8161.45
457.28	8224.64
457.46	8051.44
457.64	8257.41
457.83	8194.22
458.01	8201.24
458.19	8442.31
458.38	8287.84
458.56	8351.03
458.74	8381.46
458.93	8313.58
459.11	8393.16
459.29	8442.31
459.48	8519.55
459.66	8358.05
459.84	8358.05
460.03	8627.21
460.21	8702.11
460.39	8652.96
460.57	8472.74
460.76	8720.84
460.94	8561.68
461.12	8702.11
461.31	8938.51
461.49	8702.11
461.67	8816.80
461.85	8769.99
462.04	8922.12
462.22	9252.14
462.40	9036.81
462.59	9036.81
462.77	8865.95
462.95	9149.15
463.13	9088.30
463.32	8959.57
463.50	9092.98
463.68	9085.96
463.86	8994.68
464.05	9263.84
464.23	8929.14
464.41	9008.72
464.59	9212.35
464.78	9371.50
464.96	9128.09
465.14	9252.14
465.32	9305.97
465.50	9329.38
465.69	9474.49
465.87	9334.06
466.05	9345.76
466.23	9277.88
466.41	9202.99
466.60	9404.27
466.78	9193.62
466.96	9341.08
467.14	9411.29
467.32	9455.76
467.51	9577.47
467.69	9521.30
467.87	9479.17
468.05	9837.27
468.23	9460.45
468.41	9685.14
468.60	9497.89
468.78	9586.83
468.96	9462.79
469.14	9689.82
469.32	10001.11
469.50	9729.61
469.69	9832.59
469.87	10101.75
470.05	10001.11
470.23	10064.30
470.41	9937.91
470.59	10054.94
470.77	9888.76
470.95	10078.35
471.14	10083.03
471.32	10171.97
471.50	10148.56
471.68	10457.51
471.86	10317.08
472.04	10382.62
472.22	10619.01
472.40	10478.58
472.58	10174.31
472.77	10485.60
472.95	10700.93
473.13	11171.38
473.31	10754.76
473.49	10658.80
473.67	10630.71
473.85	10572.20
474.03	11194.78
474.21	11108.18
474.39	10986.47
474.57	11070.73
474.75	11190.10
474.93	11356.28
475.12	11449.90
475.30	11515.44
475.48	11330.53
475.66	11412.45
475.84	11211.17
476.02	11426.50
476.20	11536.50
476.38	11836.09
476.56	12002.27
476.74	12121.63
476.92	12112.27
477.10	12100.57
477.28	12224.62
477.46	12482.08
477.64	12306.54
477.82	12709.11
478.00	12776.98
478.18	12645.91
478.36	12791.03
478.54	12758.26
478.72	12861.24
478.90	13235.73
479.08	13252.11
479.26	13291.90
479.44	13137.43
479.62	13319.99
479.80	13432.33
479.98	13628.94
480.16	13823.20
480.34	13745.97
480.52	14026.83
480.70	13877.04
480.88	13907.46
481.06	14075.98
481.24	14155.56
481.41	14464.51
481.59	14494.94
481.77	14406.00
481.95	14656.43
482.13	14511.32
482.31	14743.03
482.49	15199.44
482.67	15028.58
482.85	15297.74
483.03	15234.55
483.21	15391.36
483.39	15559.88
483.57	15339.87
483.74	15700.31
483.92	15789.25
484.10	15676.91
484.28	15946.07
484.46	16369.71
484.64	16875.26
484.82	16191.83
485.00	16306.51
485.18	16224.59
485.35	16840.15
485.53	16386.09
485.71	16257.36
485.89	16486.73
486.07	16634.19
486.25	16959.52
486.43	16966.54
486.61	17216.98
486.78	17221.66
486.96	17345.71
487.14	18075.96
487.32	17989.36
487.50	18015.10
487.68	18216.39
487.85	18609.60
488.03	18946.64
488.21	18780.46
488.39	18677.48
488.57	18916.21
488.75	18892.80
488.92	19236.86
489.10	19197.07
489.28	19604.33
489.46	19978.81
489.64	19950.73
489.81	20432.88
489.99	20247.97
490.17	20264.36
490.35	20697.36
490.53	20587.35
490.70	20542.88
490.88	20287.76
491.06	20893.96
491.24	20685.65
491.41	21020.35
491.59	20884.60
491.77	20816.72
491.95	21322.28
492.13	21535.27
492.30	21954.22
492.48	21956.57
492.66	22132.11
492.84	21884.01
493.01	22415.31
493.19	22197.64
493.37	22370.84
493.54	22518.29
493.72	22778.09
493.90	22831.93
494.08	23421.74
494.25	23255.56
494.43	23538.77
494.61	23613.66
494.79	23941.34
494.96	23388.97
495.14	23601.96
495.32	24006.87
495.49	23927.30
495.67	24144.97
495.85	24687.97
496.02	24400.08
496.20	24596.69
496.38	24411.79
496.55	24790.95
496.73	25294.17
496.91	24687.97
497.09	25254.38
497.26	25516.52
497.44	25263.74
497.62	25132.67
497.79	25621.84
497.97	25490.77
498.14	25539.93
498.32	25568.01
498.50	25858.24
498.67	26441.03
498.85	26295.92
499.03	26759.34
499.20	26356.77
499.38	26466.78
499.56	26487.84
499.73	26541.68
499.91	27262.56
500.08	27058.93
500.26	26555.72
500.44	26951.27
500.61	27072.98
500.79	27014.46
500.97	27243.84
501.14	27557.47
501.32	27274.26
501.49	27175.96
501.67	27337.46
501.84	27754.07
502.02	27777.48
502.20	27782.16
502.37	27859.40
502.55	27786.84
502.72	28329.84
502.90	28266.65
503.07	28060.68
503.25	28402.40
503.43	27953.02
503.60	28659.86
503.78	28701.99
503.95	28465.60
504.13	28617.73
504.30	28751.14
504.48	28809.65
504.65	29102.22
504.83	29486.07
505.01	29872.26
505.18	29539.90
505.36	29551.60
505.53	29560.97
505.71	29785.66
505.88	30017.37
506.06	29876.94
506.23	30265.47
506.41	29696.72
506.58	29912.05
506.76	30253.76
506.93	30333.34
507.11	30106.31
507.28	30438.67
507.46	30361.43
507.63	30043.12
507.81	30881.03
507.98	30216.32
508.16	30506.54
508.33	31094.02
508.50	31051.89
508.68	30501.86
508.85	31463.82
509.03	31246.15
509.20	31407.65
509.38	31548.08
509.55	31555.10
509.73	31763.41
509.90	31576.17
510.08	31952.99
510.25	31604.25
510.42	31992.78
510.60	32428.12
510.77	31915.54
510.95	32011.51
511.12	32467.91
511.30	32114.49
511.47	32376.63
511.64	32610.68
511.82	32484.30
511.99	32891.55
512.17	32570.90
512.34	32430.46
512.51	32699.62
512.69	32744.09
512.86	32739.41
513.04	33081.13
513.21	33134.96
513.38	33053.05
513.56	33284.76
513.73	32919.63
513.90	32849.42
514.08	33111.56
514.25	33429.87
514.43	33567.96
514.60	33362.00
514.77	33757.55
514.95	33804.36
515.12	33682.65
515.29	33921.38
515.47	34218.63
515.64	34389.49
515.81	34307.57
515.99	34288.85
516.16	33537.54
516.33	34012.66
516.51	33813.72
516.68	33525.83
516.85	33649.88
517.03	34073.52
517.20	34068.84
517.37	34199.91
517.54	34668.02
517.72	34593.12
517.89	33986.92
518.06	33844.15
518.24	34015.01
518.41	34747.59
518.58	35049.52
518.75	34792.06
518.93	35019.10
519.10	34972.28
519.27	34913.77
519.45	34937.18
519.62	35431.03
519.79	35524.65
519.96	35573.80
520.14	35943.61
520.31	35505.93
520.48	36187.02
520.65	35821.90
520.83	36039.57
521.00	36165.96
521.17	36500.65
521.34	36137.87
521.52	36374.27
521.69	36556.83
521.86	36973.44
522.03	36833.01
522.20	36229.15
522.38	36940.68
522.55	36802.58
522.72	36980.46
522.89	36428.10
523.07	36690.24
523.24	36933.65
523.41	37088.13
523.58	37083.45
523.75	37556.24
523.92	37443.89
524.10	37429.85
524.27	37691.99
524.44	37862.85
524.61	37743.48
524.78	37778.59
524.96	37804.33
525.13	37940.08
525.30	38003.28
525.47	38288.82
525.64	38347.34
525.81	37930.72
525.98	37701.35
526.16	37523.47
526.33	37706.03
526.50	37708.37
526.67	37371.33
526.84	37329.20
527.01	38054.77
527.18	37970.51
527.36	38340.32
527.53	38410.53
527.70	38665.65
527.87	38682.03
528.04	38188.18
528.21	39157.16
528.38	38822.47
528.55	39161.84
528.72	38799.06
528.89	39571.44
529.07	39339.72
529.24	38962.90
529.41	39225.04
529.58	39058.86
529.75	39152.48
529.92	40013.80
530.09	39573.78
530.26	39559.73
530.43	39533.99
530.60	39583.14
530.77	39604.20
530.94	39885.07
531.11	39538.67
531.28	40065.29
531.46	39641.65
531.63	39761.02
531.80	40217.43
531.97	39606.55
532.14	39784.43
532.31	39267.17
532.48	40030.18
532.65	40046.57
532.82	39718.89
532.99	39878.05
533.16	40088.70
533.33	39974.01
533.50	40348.50
533.67	40306.37
533.84	40421.05
534.01	40524.04
534.18	39943.58
534.35	40552.12
534.52	40486.59
534.69	40301.68
534.86	40807.24
535.03	40802.56
535.20	40971.08
535.37	41464.93
535.54	41301.09
535.71	41099.81
535.88	40959.38
536.05	40615.32
536.22	41015.55
536.38	41001.50
536.55	41055.34
536.72	40847.03
536.89	40589.57
537.06	41067.04
537.23	41310.46
537.40	40898.52
537.57	41287.05
537.74	41364.29
537.91	42139.00
538.08	41478.97
538.25	41832.39
538.42	41619.41
538.59	41471.95
538.75	41125.55
538.92	41336.20
539.09	41577.28
539.26	41759.84
539.43	41645.15
539.60	41792.61
539.77	41544.51
539.94	41916.65
540.11	41785.58
540.28	41677.92
540.44	41684.94
540.61	41890.91
540.78	41865.16
540.95	41511.74
541.12	41701.32
541.29	42174.11
541.46	42480.72
541.62	42258.37
541.79	43068.20
541.96	41780.90
542.13	42202.20
542.30	42389.44
542.47	42117.94
542.63	42010.28
542.80	42534.56
542.97	42604.77
543.14	42649.24
543.31	42810.74
543.48	42660.94
543.64	43173.52
543.81	43243.74
543.98	43199.27
544.15	43157.14
544.32	42976.92
544.48	43030.75
544.65	43335.02
544.82	43536.30
544.99	42962.87
545.16	43243.74
545.32	43363.11
545.49	43608.86
545.66	44053.56
545.83	43356.08
546.00	43475.45
546.16	43129.05
546.33	43463.75
546.50	43236.72
546.67	43686.10
546.83	43225.01
547.00	43494.18
547.17	43538.65
547.34	43210.97
547.50	43587.80
547.67	43529.28
547.84	43863.98
548.00	43821.85
548.17	44439.75
548.34	44076.97
548.51	44477.20
548.67	44648.06
548.84	43863.98
549.01	43901.43
549.18	43606.52
549.34	43903.77
549.51	43981.01
549.68	44128.46
549.84	43924.83
550.01	44264.21
550.18	43812.49
550.34	44528.69
550.51	44318.04
550.68	44339.11
550.84	43973.98
551.01	44437.41
551.18	44395.28
551.34	44406.98
551.51	44884.45
551.68	45102.12
551.84	44891.48
552.01	44334.43
552.18	44451.45
552.34	44133.14
552.51	44769.77
552.68	44425.71
552.84	44751.04
553.01	44818.92
553.18	44619.97
553.34	44973.39
553.51	44641.04
553.67	44868.07
553.84	44865.73
554.01	44928.92
554.17	45013.18
554.34	45202.77
554.51	44861.05
554.67	45111.49
554.84	45249.58
555.00	44685.51
555.17	45003.82
555.33	45148.93
555.50	45261.28
555.67	45158.30
555.83	44818.92
556.00	44825.94
556.16	45312.77
556.33	45148.93
556.50	45354.90
556.66	45324.47
556.83	44734.66
556.99	45212.13
557.16	45546.82
557.32	45532.78
557.49	45797.26
557.65	45109.14
557.82	45130.21
557.98	45425.12
558.15	45413.41
558.32	45359.58
558.48	45296.39
558.65	45471.93
558.81	45038.93
558.98	45202.77
559.14	45038.93
559.31	45233.19
559.47	45167.66
559.64	45406.39
559.80	45284.68
559.97	45118.51
560.13	45137.23
560.30	45432.14
560.46	45408.73
560.63	45684.92
560.79	46225.58
560.96	45708.32
561.12	45429.80
561.29	45151.27
561.45	45656.83
561.61	45698.96
561.78	45301.07
561.94	45331.50
562.11	45399.37
562.27	45436.82
562.44	45780.88
562.60	46251.33
562.77	45879.18
562.93	45818.33
563.10	45895.56
563.26	45509.38
563.42	45705.98
563.59	45841.73
563.75	45553.85
563.92	45858.12
564.08	45427.46
564.24	46323.88
564.41	46026.63
564.57	45710.66
564.74	46171.75
564.90	45897.91
565.07	45492.99
565.23	45986.85
565.39	45773.86
565.56	46014.93
565.72	45516.40
565.88	46234.94
566.05	45762.15
566.21	45762.15
566.38	45886.20
566.54	46279.41
566.70	46258.35
566.87	46038.34
567.03	46082.81
567.19	46241.96
567.36	46146.00
567.52	46094.51
567.68	46689.01
567.85	45755.13
568.01	46246.65
568.17	45947.06
568.34	46410.48
568.50	45717.68
568.66	46024.29
568.83	46108.55
568.99	45703.64
569.15	45918.97
569.32	46108.55
569.48	46052.38
569.64	46197.49
569.81	46469.00
569.97	45872.16
570.13	45968.12
570.30	45928.33
570.46	46115.58
570.62	46007.91
570.78	45436.82
570.95	45923.65
571.11	45909.61
571.27	45780.88
571.43	46330.90
571.60	46136.64
571.76	46248.99
571.92	46085.15
572.09	45916.63
572.25	46120.26
572.41	46600.07
572.57	46777.95
572.74	46199.83
572.90	45940.04
573.06	46501.76
573.22	46288.77
573.38	46394.10
573.55	45830.03
573.71	46529.85
573.87	46677.30
574.03	46349.63
574.20	46138.98
574.36	46143.66
574.52	46195.15
574.68	46010.25
574.84	46529.85
575.01	46300.48
575.17	46225.58
575.33	46293.46
575.49	46117.92
575.65	46272.39
575.82	45930.67
575.98	45951.74
576.14	46494.74
576.30	46246.65
576.46	46005.57
576.62	46136.64
576.79	46309.84
576.95	46211.54
577.11	46461.97
577.27	46885.61
577.43	46644.54
577.59	45879.18
577.75	45918.97
577.92	45776.20
578.08	45940.04
578.24	45923.65
578.40	45661.51
578.56	46136.64
578.72	46579.00
578.88	46405.80
579.04	46401.12
579.21	46216.22
579.37	45940.04
579.53	46351.97
579.69	45876.84
579.85	45745.77
580.01	46506.44
580.17	46028.98
580.33	46731.14
580.49	46298.14
580.65	46656.24
580.82	46094.51
580.98	46447.93
581.14	46068.76
581.30	46466.66
581.46	45895.56
581.62	46164.73
581.78	46700.71
581.94	46522.83
582.10	46445.59
582.26	46541.55
582.42	46522.83
582.58	46417.50
582.74	46113.23
582.90	46864.55
583.06	46520.49
583.22	46436.23
583.38	46443.25
583.54	46543.89
583.70	46291.12
583.86	46777.95
584.02	46438.57
584.18	46742.84
584.34	46370.69
584.50	46417.50
584.66	46078.13
584.82	46073.45
584.98	46227.92
585.14	46724.11
585.30	45682.58
585.46	46223.24
585.62	46045.36
585.78	46293.46
585.94	46162.39
586.10	46466.66
586.26	46527.51
586.42	46480.70
586.58	46553.26
586.74	46401.12
586.90	46438.57
587.06	46532.19
587.22	46405.80
587.38	46546.23
587.54	46681.98
587.70	46834.12
587.86	46487.72
588.02	46438.57
588.18	46291.12
588.34	46052.38
588.49	45736.41
588.65	45909.61
588.81	45954.08
588.97	46078.13
589.13	45799.60
589.29	46085.15
589.45	46078.13
589.61	46021.95
589.77	46351.97
589.93	46412.82
