SpectraSuite Data File
++++++++++++++++++++++++++++++++++++
Date: Fri Oct 25 11:22:48 EDT 2013
User: price-jones
Dark Spectrum Present: No
Reference Spectrum Present: No
Number of Sampled Component Spectra: 1
Spectrometers: USB2+H05261
Integration Time (usec): 100000 (USB2+H05261)
Spectra Averaged: 1 (USB2+H05261)
Boxcar Smoothing: 0 (USB2+H05261)
Correct for Electrical Dark: No (USB2+H05261)
Strobe/Lamp Enabled: No (USB2+H05261)
Correct for Detector Non-linearity: No (USB2+H05261)
Correct for Stray Light: No (USB2+H05261)
Number of Pixels in Processed Spectrum: 2048
>>>>>Begin Processed Spectral Data<<<<<
365.73	205.97
365.92	205.97
366.12	205.97
366.32	128.73
366.52	138.09
366.72	163.84
366.91	84.26
367.11	60.85
367.31	154.48
367.51	70.22
367.70	102.98
367.90	44.47
368.10	112.35
368.30	93.62
368.49	184.90
368.69	152.13
368.89	128.73
369.09	114.69
369.28	124.05
369.48	156.82
369.68	194.26
369.87	154.48
370.07	231.71
370.27	220.01
370.47	262.14
370.66	545.34
370.86	552.37
371.06	653.01
371.25	678.76
371.45	582.79
371.65	660.03
371.84	601.52
372.04	685.78
372.24	767.70
372.44	702.16
372.63	650.67
372.83	737.27
373.03	723.23
373.22	772.38
373.42	816.85
373.62	793.44
373.81	847.27
374.01	830.89
374.21	786.42
374.40	840.25
374.60	795.78
374.79	704.50
374.99	800.46
375.19	830.89
375.38	830.89
375.58	763.01
375.78	940.90
375.97	866.00
376.17	915.15
376.37	933.87
376.56	915.15
376.76	868.34
376.95	882.38
377.15	873.02
377.35	940.90
377.54	844.93
377.74	847.27
377.93	882.38
378.13	1011.11
378.33	903.45
378.52	912.81
378.72	905.79
378.91	880.04
379.11	943.24
379.31	908.13
379.50	1006.43
379.70	966.64
379.89	992.39
380.09	908.13
380.28	1008.77
380.48	992.39
380.68	997.07
380.87	1008.77
381.07	940.90
381.26	1001.75
381.46	1090.69
381.65	1018.13
381.85	976.00
382.04	1083.67
382.24	1146.86
382.43	1158.57
382.63	1076.65
382.83	1107.07
383.02	1081.33
383.22	1090.69
383.41	1067.28
383.61	1081.33
383.80	1170.27
384.00	1102.39
384.19	1055.58
384.39	1121.12
384.58	1111.75
384.78	1109.41
384.97	1212.40
385.17	1186.65
385.36	1102.39
385.56	1149.20
385.75	1196.01
385.95	1228.78
386.14	1146.86
386.34	1235.80
386.53	1116.44
386.72	1263.89
386.92	1219.42
387.11	1238.14
387.31	1188.99
387.50	1240.48
387.70	1296.66
387.89	1123.46
388.09	1334.11
388.28	1294.32
388.48	1275.59
388.67	1338.79
388.86	1186.65
389.06	1259.21
389.25	1390.28
389.45	1341.13
389.64	1394.96
389.84	1451.13
390.03	1434.75
390.22	1390.28
390.42	1366.87
390.61	1308.36
390.81	1359.85
391.00	1481.56
391.19	1460.49
391.39	1348.15
391.58	1380.92
391.78	1493.26
391.97	1385.60
392.16	1481.56
392.36	1481.56
392.55	1544.75
392.75	1528.37
392.94	1617.31
393.13	1556.46
393.33	1537.73
393.52	1586.88
393.71	1619.65
393.91	1577.52
394.10	1605.61
394.29	1643.06
394.49	1530.71
394.68	1650.08
394.88	1699.23
395.07	1621.99
395.26	1600.93
395.46	1678.16
395.65	1607.95
395.84	1664.12
396.04	1799.87
396.23	1771.79
396.42	1666.46
396.62	1827.96
396.81	1717.95
397.00	1839.66
397.19	1788.17
397.39	1795.19
397.58	1853.70
397.77	1827.96
397.97	1888.81
398.16	1865.41
398.35	1858.39
398.55	1853.70
398.74	1865.41
398.93	1872.43
399.12	1879.45
399.32	1921.58
399.51	1891.15
399.70	1933.28
399.90	2054.99
400.09	2090.10
400.28	2083.08
400.47	2083.08
400.67	2080.74
400.86	2076.06
401.05	2148.61
401.24	2010.52
401.44	2162.66
401.63	2202.44
401.82	2237.55
402.01	1987.11
402.21	2146.27
402.40	2209.47
402.59	2153.29
402.78	2249.25
402.97	2377.98
403.17	2221.17
403.36	2314.79
403.55	2265.64
403.74	2263.30
403.93	2457.56
404.13	2415.43
404.32	2349.90
404.51	2314.79
404.70	2392.03
404.89	2352.24
405.09	2473.95
405.28	2537.14
405.47	2471.61
405.66	2504.37
405.85	2511.39
406.05	2532.46
406.24	2644.81
406.43	2602.68
406.62	2605.02
406.81	2616.72
407.00	2651.83
407.20	2576.93
407.39	2672.89
407.58	2853.11
407.77	2743.11
407.96	2640.12
408.15	2778.22
408.34	2696.30
408.54	2740.77
408.73	2801.62
408.92	2885.88
409.11	2867.16
409.30	2825.03
409.49	2939.71
409.68	2904.60
409.87	2855.45
410.07	3002.91
410.26	2960.78
410.45	2988.86
410.64	3052.06
410.83	3094.19
411.02	3108.23
411.21	3220.58
411.40	3021.63
411.59	3194.83
411.78	3169.09
411.98	3206.53
412.17	3445.27
412.36	3330.58
412.55	3368.03
412.74	3536.55
412.93	3410.16
413.12	3419.52
413.31	3508.46
413.50	3403.14
413.69	3562.30
413.88	3616.13
414.07	3531.87
414.26	3688.68
414.45	3592.72
414.64	3740.18
414.83	3599.74
415.02	3749.54
415.22	3892.31
415.41	3840.82
415.60	3693.37
415.79	3922.74
415.98	4021.04
416.17	3997.64
416.36	3911.04
416.55	4058.49
416.74	4121.68
416.93	4205.94
417.12	4011.68
417.31	4100.62
417.50	4189.56
417.69	4315.95
417.88	4388.50
418.07	4250.41
418.26	4358.08
418.45	4339.35
418.64	4498.51
418.83	4437.66
419.02	4432.97
419.21	4507.87
419.39	4517.23
419.58	4540.64
419.77	4475.10
419.96	4648.30
420.15	4592.13
420.34	4517.23
420.53	4748.95
420.72	4727.88
420.91	4830.87
421.10	4720.86
421.29	4894.06
421.48	4629.58
421.67	4791.08
421.86	4709.16
422.05	4858.95
422.24	4877.68
422.43	4837.89
422.61	4922.15
422.80	4994.70
422.99	5074.28
423.18	4877.68
423.37	4945.55
423.56	5163.22
423.75	4992.36
423.94	4898.74
424.13	4643.62
424.32	4802.78
424.50	5160.88
424.69	5029.81
424.88	5107.05
425.07	5029.81
425.26	4950.23
425.45	4903.42
425.64	4957.25
425.83	4992.36
426.01	4992.36
426.20	5018.11
426.39	5088.32
426.58	4950.23
426.77	5060.24
426.96	5036.83
427.15	5018.11
427.33	5027.47
427.52	5205.35
427.71	5259.18
427.90	5088.32
428.09	5338.76
428.28	5441.75
428.46	5448.77
428.65	5453.45
428.84	5668.78
429.03	5652.39
429.22	5401.96
429.40	5540.05
429.59	5467.49
429.78	5418.34
429.97	5390.25
430.16	5554.09
430.34	5640.69
430.53	5659.42
430.72	5713.25
430.91	5497.92
431.10	5621.97
431.28	5811.55
431.47	5874.74
431.66	5804.53
431.85	5809.21
432.03	5949.64
432.22	5994.11
432.41	5942.62
432.60	5914.53
432.79	6111.14
432.97	5916.87
433.16	5966.03
433.35	6033.90
433.54	6031.56
433.72	6136.88
433.91	6169.65
434.10	6136.88
434.28	5951.98
434.47	6076.03
434.66	6263.27
434.85	6413.07
435.03	6396.68
435.22	6389.66
435.41	6459.88
435.59	6450.52
435.78	6532.44
435.97	6265.61
436.16	6516.05
436.34	6525.41
436.53	6494.99
436.72	6860.11
436.90	6513.71
437.09	6623.72
437.28	6445.84
437.46	6604.99
437.65	6682.23
437.84	6736.06
438.02	6839.05
438.21	6834.36
438.40	6700.95
438.58	6881.18
438.77	6923.30
438.96	7192.47
439.14	7129.27
439.33	7393.75
439.52	7353.96
439.70	7372.69
439.89	7405.46
440.08	7375.03
440.26	7445.24
440.45	7276.73
440.63	7424.18
440.82	7585.68
441.01	7527.16
441.19	7747.17
441.38	7908.67
441.57	7688.66
441.75	7889.95
441.94	7765.90
442.12	7836.11
442.31	8035.06
442.50	8154.43
442.68	7852.50
442.87	8124.00
443.05	8205.92
443.24	8308.90
443.43	8074.85
443.61	8102.93
443.80	8402.52
443.98	8018.68
444.17	7630.15
444.35	8189.53
444.54	8456.36
444.73	8498.49
444.91	8353.37
445.10	8442.31
445.28	8432.95
445.47	8451.67
445.65	8128.68
445.84	8669.34
446.02	8573.38
446.21	8446.99
446.39	8542.96
446.58	8580.40
446.77	8566.36
446.95	8250.39
447.14	8533.59
447.32	8528.91
447.51	8538.27
447.69	8648.28
447.88	8524.23
448.06	8320.60
448.25	8489.12
448.43	8622.53
448.62	8690.41
448.80	8500.83
448.99	8774.67
449.17	8716.16
449.36	8692.75
449.54	8674.03
449.73	8952.55
449.91	9114.05
450.10	9048.51
450.28	9015.74
450.46	9151.49
450.65	9006.38
450.83	9032.13
451.02	8992.34
451.20	9273.20
451.39	9186.60
451.57	9041.49
451.76	9219.37
451.94	9242.78
452.13	9453.42
452.31	9195.96
452.49	9303.63
452.68	9254.48
452.86	9441.72
453.05	9329.38
453.23	9493.21
453.42	9518.96
453.60	9504.92
453.78	9551.73
453.97	9430.02
454.15	9465.13
454.34	9418.32
454.52	9612.58
454.70	9687.48
454.89	9954.30
455.07	9547.05
455.26	9851.31
455.44	9977.70
455.62	9748.33
455.81	9834.93
455.99	10174.31
456.17	10111.11
456.36	10293.68
456.54	9991.75
456.73	10260.91
456.91	10628.37
457.09	10370.91
457.28	10635.39
457.46	10396.66
457.64	10452.83
457.83	10558.16
458.01	10417.72
458.19	10822.64
458.38	10719.65
458.56	10731.36
458.74	10586.24
458.93	10689.23
459.11	10808.59
459.29	10834.34
459.48	10801.57
459.66	11052.01
459.84	10827.32
460.03	11049.67
460.21	10963.07
460.39	11080.10
460.57	11119.89
460.76	11307.13
460.94	11185.42
461.12	11119.89
461.31	11201.80
461.49	11297.77
461.67	11115.20
461.85	11599.70
462.04	11442.88
462.22	12006.95
462.40	11618.42
462.59	11702.68
462.77	11639.48
462.95	11623.10
463.13	11721.40
463.32	11707.36
463.50	11779.92
463.68	11847.79
463.86	11880.56
464.05	11541.18
464.23	11587.99
464.41	12084.19
464.59	11707.36
464.78	12278.45
464.96	12060.78
465.14	12006.95
465.32	12114.61
465.50	12002.27
465.69	12105.25
465.87	12379.09
466.05	12060.78
466.23	12152.06
466.41	12404.84
466.60	12601.44
466.78	12217.60
466.96	12194.19
467.14	12442.29
467.32	12500.80
467.51	12636.55
467.69	12215.26
467.87	12620.17
468.05	12671.66
468.23	12491.44
468.41	12379.09
468.60	12901.03
468.78	12744.22
468.96	12549.95
469.14	12769.96
469.32	13085.94
469.50	12702.09
469.69	12814.43
469.87	13102.32
470.05	13371.48
470.23	13284.88
470.41	13315.31
470.59	13448.72
470.77	13252.11
470.95	13298.92
471.14	13895.76
471.32	13048.49
471.50	13523.62
471.68	13837.25
471.86	13785.76
472.04	13853.63
472.22	14061.94
472.40	13760.01
472.58	13769.37
472.77	14143.86
472.95	14195.35
473.13	14637.71
473.31	14118.11
473.49	14012.79
473.67	14083.00
473.85	14363.87
474.03	14597.92
474.21	14406.00
474.39	14909.21
474.57	14675.16
474.75	14647.07
474.93	15124.54
475.12	14920.92
475.30	15061.35
475.48	15393.70
475.66	15262.63
475.84	14946.66
476.02	15641.80
476.20	15695.63
476.38	15864.15
476.56	16025.65
476.74	15939.05
476.92	15976.50
477.10	15920.32
477.28	16212.89
477.46	16121.61
477.64	16233.96
477.82	16683.34
478.00	16891.65
478.18	16849.52
478.36	16940.80
478.54	17200.60
478.72	17261.45
478.90	17458.06
479.08	17158.47
479.26	17523.59
479.44	18050.21
479.62	17715.51
479.80	17961.27
479.98	18108.72
480.16	18721.95
480.34	18295.97
480.52	18906.85
480.70	18913.87
480.88	18735.99
481.06	19147.92
481.24	18953.66
481.41	19070.68
481.59	19414.74
481.77	19618.37
481.95	19545.81
482.13	19784.55
482.31	19955.41
482.49	20570.97
482.67	20465.64
482.85	20774.60
483.03	20952.48
483.21	20744.17
483.39	20987.58
483.57	21315.26
483.74	21270.79
483.92	21415.90
484.10	21303.56
484.28	21851.24
484.46	22361.48
484.64	22485.53
484.82	22015.08
485.00	22874.06
485.18	22473.82
485.35	23330.46
485.53	22541.70
485.71	23204.07
485.89	23658.14
486.07	23873.46
486.25	23529.41
486.43	23527.06
486.61	23939.00
486.78	24067.73
486.96	24159.01
487.14	24613.07
487.32	24648.18
487.50	25041.39
487.68	25305.87
487.85	25598.44
488.03	25642.91
488.21	26246.77
488.39	25898.03
488.57	26328.69
488.75	26281.88
488.92	26527.63
489.10	26581.46
489.28	27316.39
489.46	27349.16
489.64	27077.66
489.81	27782.16
489.99	27503.64
490.17	27831.31
490.35	28166.01
490.53	28601.35
490.70	28673.90
490.88	28404.74
491.06	28940.72
491.24	28716.03
491.41	29422.87
491.59	29263.72
491.77	29177.12
491.95	29806.72
492.13	29755.23
492.30	30092.27
492.48	30436.33
492.66	30331.00
492.84	30118.01
493.01	30808.47
493.19	30766.34
493.37	31227.43
493.54	31398.29
493.72	32095.77
493.90	31723.62
494.08	32009.17
494.25	31599.57
494.43	32184.71
494.61	32643.45
494.79	32847.08
494.96	32680.90
495.14	33071.77
495.32	33411.15
495.49	33397.10
495.67	33174.75
495.85	33926.07
496.02	33984.58
496.20	33949.47
496.38	34270.12
496.55	34054.79
496.73	34801.43
496.91	34817.81
497.09	34827.17
497.26	35159.53
497.44	35182.93
497.62	35480.18
497.79	36133.19
497.97	35393.58
498.14	36135.53
498.32	36392.99
498.50	36568.53
498.67	37041.32
498.85	36772.16
499.03	37106.85
499.20	36900.89
499.38	36701.94
499.56	36844.71
499.73	37095.15
499.91	37422.83
500.08	37825.40
500.26	37921.36
500.44	37914.34
500.61	38197.54
500.79	37771.57
500.97	38066.47
501.14	38541.60
501.32	38946.51
501.49	38747.57
501.67	38986.30
501.84	38930.13
502.02	39302.28
502.20	39213.34
502.37	39714.21
502.55	39353.77
502.72	39807.83
502.90	39793.79
503.07	39611.23
503.25	39643.99
503.43	39990.39
503.60	40161.25
503.78	40463.18
503.95	40341.47
504.13	40367.22
504.30	40954.69
504.48	40781.49
504.65	40928.95
504.83	41153.64
505.01	41729.41
505.18	41443.87
505.36	41698.98
505.53	41120.87
505.71	41598.34
505.88	42354.33
506.06	41696.64
506.23	42155.39
506.41	41965.81
506.58	42263.05
506.76	42237.31
506.93	42890.32
507.11	42836.48
507.28	42197.52
507.46	42934.79
507.63	42993.30
507.81	43349.06
507.98	43220.33
508.16	43379.49
508.33	43608.86
508.50	43599.50
508.68	43847.60
508.85	44280.60
509.03	43828.87
509.20	44128.46
509.38	44208.04
509.55	44739.34
509.73	44664.44
509.90	44889.13
510.08	44622.31
510.25	44563.80
510.42	44575.50
510.60	45151.27
510.77	45172.34
510.95	45691.94
511.12	45118.51
511.30	44982.76
511.47	45804.28
511.64	45654.49
511.82	46232.60
511.99	45942.38
512.17	46150.68
512.34	45911.95
512.51	46417.50
512.69	46241.96
512.86	46382.40
513.04	46340.27
513.21	46911.36
513.38	46787.31
513.56	46981.57
513.73	46894.97
513.90	47096.26
514.08	46969.87
514.25	47049.45
514.43	47562.03
514.60	47555.00
514.77	47760.97
514.95	47821.83
515.12	47889.70
515.29	47461.38
515.47	47950.56
515.64	48282.91
515.81	48514.62
515.99	48477.18
516.16	48842.30
516.33	48149.50
516.51	48601.22
516.68	48863.36
516.85	48889.11
517.03	48858.68
517.20	49385.30
517.37	49008.48
517.54	48830.60
517.72	49010.82
517.89	49214.44
518.06	49607.65
518.24	49673.19
518.41	49598.29
518.58	49319.77
518.75	49710.64
518.93	49563.18
519.10	49888.52
519.27	50122.57
519.45	50087.46
519.62	50040.65
519.79	49815.96
519.96	50167.04
520.14	50541.53
520.31	50019.59
520.48	50468.97
520.65	50623.45
520.83	50595.36
521.00	51166.45
521.17	51016.66
521.34	50890.27
521.52	51203.90
521.69	50747.50
521.86	51143.05
522.03	51213.26
522.20	51440.29
522.38	51573.70
522.55	51316.25
522.72	51578.39
522.89	51496.47
523.07	51779.67
523.24	51379.44
523.41	51721.16
523.58	51629.88
523.75	52025.43
523.92	52259.48
524.10	51997.34
524.27	52240.76
524.44	52095.64
524.61	52093.30
524.78	52392.89
524.96	52369.49
525.13	52226.71
525.30	52753.33
525.47	52383.53
525.64	52360.12
525.81	52821.21
525.98	52924.19
526.16	52802.49
526.33	52837.59
526.50	53216.76
526.67	53116.12
526.84	53073.99
527.01	52889.09
527.18	53146.54
527.36	53219.10
527.53	53183.99
527.70	53560.82
527.87	53563.16
528.04	53198.04
528.21	53799.55
528.38	53425.07
528.55	53951.69
528.72	53319.74
528.89	53488.26
529.07	53399.32
529.24	53509.33
529.41	53876.79
529.58	53930.62
529.75	53691.89
529.92	54169.36
530.09	54124.89
530.26	53855.73
530.43	54284.04
530.60	54185.74
530.77	53998.50
530.94	54405.75
531.11	54220.85
531.28	54384.69
531.46	54405.75
531.63	54398.73
531.80	54380.01
531.97	54473.63
532.14	54703.00
532.31	54550.87
532.48	54759.17
532.65	54815.35
532.82	54679.60
532.99	54908.97
533.16	54824.71
533.33	55072.81
533.50	55138.34
533.67	54822.37
533.84	54693.64
534.01	55047.06
534.18	55025.99
534.35	55435.59
534.52	55164.09
534.69	55484.74
534.86	55515.17
535.03	55147.70
535.20	55386.44
535.37	55271.75
535.54	55346.65
535.71	55356.01
535.88	55566.66
536.05	55564.32
536.22	55480.06
536.38	55732.84
536.55	55770.28
536.72	55557.30
536.89	55414.52
537.06	56034.77
537.23	55770.28
537.40	55805.39
537.57	55669.64
537.74	55847.52
537.91	56062.85
538.08	55994.98
538.25	55992.64
538.42	56046.47
538.59	56460.74
538.75	56245.41
538.92	56245.41
539.09	56364.78
539.26	56315.63
539.43	56051.15
539.60	56456.06
539.77	56196.26
539.94	56619.90
540.11	56502.87
540.28	56687.78
540.44	56488.83
540.61	56699.48
540.78	56397.55
540.95	56584.79
541.12	56514.58
541.29	56575.43
541.46	56863.32
541.62	56762.67
541.79	56837.57
541.96	56549.68
542.13	56743.95
542.30	56776.72
542.47	57008.43
542.63	56786.08
542.80	57080.98
542.97	57235.46
543.14	57382.91
543.31	57193.33
543.48	57347.81
543.64	57366.53
543.81	57462.49
543.98	57546.75
544.15	57446.11
544.32	57677.82
544.48	57904.85
544.65	57537.39
544.82	57418.02
544.99	57169.93
545.16	57544.41
545.32	57635.69
545.49	57876.77
545.66	58010.18
545.83	57848.68
546.00	57724.63
546.16	57752.72
546.33	57525.69
546.50	57574.84
546.67	58021.88
546.83	57612.29
547.00	57991.45
547.17	57942.30
547.34	58014.86
547.50	58213.80
547.67	58354.24
547.84	58347.21
548.00	58342.53
548.17	58499.35
548.34	58300.40
548.51	58433.81
548.67	58248.91
548.84	58436.16
549.01	58157.63
549.18	58195.08
549.34	58326.15
549.51	58677.23
549.68	58340.19
549.84	58398.71
550.01	58426.79
550.18	58377.64
550.34	58574.25
550.51	58752.13
550.68	58930.01
550.84	58377.64
551.01	58719.36
551.18	58707.66
551.34	58548.50
551.51	58726.38
551.68	58607.01
551.84	58787.24
552.01	58527.44
552.18	58859.79
552.34	58581.27
552.51	58993.20
552.68	58700.64
552.84	58817.66
553.01	59124.27
553.18	59011.93
553.34	58951.07
553.51	58925.33
553.67	58908.94
553.84	59208.53
554.01	58997.88
554.17	59079.80
554.34	59154.70
554.51	59192.15
554.67	59171.08
554.84	59224.92
555.00	59086.82
555.17	59079.80
555.33	59105.55
555.50	59128.95
555.67	59253.00
555.83	59014.27
556.00	59421.52
556.16	59587.70
556.33	59576.00
556.50	59365.35
556.66	59428.54
556.83	59311.52
556.99	59519.82
557.16	59547.91
557.32	59355.99
557.49	59791.33
557.65	59468.33
557.82	59381.73
557.98	59503.44
558.15	59660.26
558.32	59657.91
558.48	59498.76
558.65	59592.38
558.81	59461.31
558.98	59693.02
559.14	59597.06
559.31	59655.57
559.47	59849.84
559.64	59969.21
559.80	59835.80
559.97	59931.76
560.13	59709.41
560.30	59913.03
560.46	59868.56
560.63	59990.27
560.79	59887.29
560.96	59992.61
561.12	59821.75
561.29	60086.23
561.45	59938.78
561.61	60001.97
561.78	59817.07
561.94	59985.59
562.11	60079.21
562.27	59824.09
562.44	60133.04
562.60	60158.79
562.77	60154.11
562.93	59627.49
563.10	60102.62
563.26	60016.02
563.42	60324.97
563.59	60041.76
563.75	60191.56
563.92	60055.81
564.08	60095.60
564.24	60207.94
564.41	60317.95
564.57	60357.74
564.74	60116.66
564.90	60231.35
565.07	60261.77
565.23	60261.77
565.39	60200.92
565.56	60350.71
565.72	60243.05
565.88	60327.31
566.05	60231.35
566.21	60133.04
566.38	60374.12
566.54	60402.21
566.70	60388.16
566.87	60439.65
567.03	60200.92
567.19	60498.17
567.36	60470.08
567.52	60364.76
567.68	60814.14
567.85	60533.28
568.01	60444.33
568.17	60186.88
568.34	60802.44
568.50	60357.74
568.66	60519.23
568.83	60491.15
568.99	60292.20
569.15	60603.49
569.32	60486.46
569.48	60327.31
569.64	60640.94
569.81	60512.21
569.97	60456.04
570.13	60598.81
570.30	60645.62
570.46	60633.92
570.62	60697.11
570.78	60750.94
570.95	60610.51
571.11	60638.60
571.27	60652.64
571.43	60640.94
571.60	60865.63
571.76	60568.38
571.92	60608.17
572.09	60701.79
572.25	60800.10
572.41	60676.05
572.57	60816.48
572.74	60711.16
572.90	60652.64
573.06	60722.86
573.22	60678.39
573.38	60832.86
573.55	60814.14
573.71	60907.76
573.87	60690.09
574.03	60718.18
574.20	60692.43
574.36	60776.69
574.52	60942.87
574.68	60863.29
574.84	60809.46
575.01	60790.73
575.17	60872.65
575.33	60708.82
575.49	60547.32
575.65	61099.68
575.82	60727.54
575.98	60977.98
576.14	61073.94
576.30	60989.68
576.46	60722.86
576.62	60743.92
576.79	60729.88
576.95	60741.58
577.11	60919.46
577.27	60940.53
577.43	60961.59
577.59	60896.06
577.75	60755.63
577.92	60814.14
578.08	60884.36
578.24	60945.21
578.40	61221.39
578.56	61102.03
578.72	60870.31
578.88	61020.11
579.04	61083.30
579.21	61062.24
579.37	61038.83
579.53	61113.73
579.69	60809.46
579.85	60907.76
580.01	60821.16
580.17	60779.03
580.33	61041.17
580.49	61062.24
580.65	60921.80
580.82	61118.41
580.98	61055.21
581.14	60985.00
581.30	60893.72
581.46	61001.38
581.62	60924.14
581.78	60872.65
581.94	61155.86
582.10	60975.64
582.26	61319.70
582.42	61087.98
582.58	61064.58
582.74	61052.87
582.90	60982.66
583.06	61020.11
583.22	60856.27
583.38	61008.40
583.54	61169.90
583.70	61059.90
583.86	61188.63
584.02	60872.65
584.18	61205.01
584.34	61045.85
584.50	61078.62
584.66	60797.76
584.82	60900.74
584.98	61190.97
585.14	61350.12
585.30	61055.21
585.46	61179.26
585.62	61118.41
585.78	61209.69
585.94	60779.03
586.10	61118.41
586.26	61120.75
586.42	61216.71
586.58	61307.99
586.74	61146.50
586.90	61251.82
587.06	61111.39
587.22	61125.43
587.38	61249.48
587.54	61366.51
587.70	61247.14
587.86	61197.99
588.02	61181.60
588.18	61366.51
588.34	61162.88
588.49	61137.13
