SpectraSuite Data File
++++++++++++++++++++++++++++++++++++
Date: Fri Oct 25 11:33:46 EDT 2013
User: price-jones
Dark Spectrum Present: No
Reference Spectrum Present: No
Number of Sampled Component Spectra: 1
Spectrometers: USB2+H05261
Integration Time (usec): 100000 (USB2+H05261)
Spectra Averaged: 1 (USB2+H05261)
Boxcar Smoothing: 0 (USB2+H05261)
Correct for Electrical Dark: No (USB2+H05261)
Strobe/Lamp Enabled: No (USB2+H05261)
Correct for Detector Non-linearity: No (USB2+H05261)
Correct for Stray Light: No (USB2+H05261)
Number of Pixels in Processed Spectrum: 2048
>>>>>Begin Processed Spectral Data<<<<<
365.73	276.18
365.92	276.18
366.12	276.18
366.32	212.99
366.52	175.54
366.72	196.60
366.91	114.69
367.11	112.35
367.31	166.18
367.51	145.11
367.70	238.73
367.90	168.52
368.10	126.39
368.30	189.58
368.49	198.95
368.69	156.82
368.89	212.99
369.09	168.52
369.28	243.42
369.48	269.16
369.68	227.03
369.87	294.91
370.07	236.39
370.27	280.86
370.47	362.78
370.66	454.06
370.86	538.32
371.06	543.00
371.25	575.77
371.45	535.98
371.65	533.64
371.84	538.32
372.04	545.34
372.24	603.86
372.44	571.09
372.63	608.54
372.83	510.24
373.03	568.75
373.22	641.31
373.42	610.88
373.62	643.65
373.81	636.63
374.01	718.54
374.21	641.31
374.40	641.31
374.60	571.09
374.79	613.22
374.99	638.97
375.19	613.22
375.38	592.16
375.58	629.60
375.78	645.99
375.97	653.01
376.17	720.88
376.37	629.60
376.56	643.65
376.76	704.50
376.95	648.33
377.15	660.03
377.35	629.60
377.54	746.63
377.74	702.16
377.93	613.22
378.13	697.48
378.33	674.07
378.52	704.50
378.72	688.12
378.91	734.93
379.11	709.18
379.31	685.78
379.50	748.97
379.70	737.27
379.89	791.10
380.09	669.39
380.28	711.52
380.48	716.20
380.68	730.25
380.87	697.48
381.07	793.44
381.26	798.12
381.46	734.93
381.65	828.55
381.85	751.31
382.04	779.40
382.24	763.01
382.43	711.52
382.63	709.18
382.83	770.04
383.02	751.31
383.22	798.12
383.41	809.83
383.61	849.61
383.80	800.46
384.00	774.72
384.19	896.43
384.39	805.14
384.58	805.14
384.78	856.64
384.97	837.91
385.17	884.72
385.36	807.48
385.56	816.85
385.75	868.34
385.95	791.10
386.14	802.80
386.34	816.85
386.53	840.25
386.72	924.51
386.92	983.02
387.11	835.57
387.31	961.96
387.50	973.66
387.70	884.72
387.89	870.68
388.09	922.17
388.28	1006.43
388.48	950.26
388.67	884.72
388.86	915.15
389.06	910.47
389.25	947.92
389.45	985.37
389.64	992.39
389.84	1013.45
390.03	1036.86
390.22	919.83
390.42	978.34
390.61	980.68
390.81	968.98
391.00	954.94
391.19	1041.54
391.39	1001.75
391.58	1062.60
391.78	903.45
391.97	1057.92
392.16	966.64
392.36	999.41
392.55	1100.05
392.75	1121.12
392.94	1090.69
393.13	1032.18
393.33	1029.84
393.52	1039.20
393.71	1095.37
393.91	985.37
394.10	1071.97
394.29	994.73
394.49	1029.84
394.68	1053.24
394.88	1081.33
395.07	1062.60
395.26	1153.88
395.46	1102.39
395.65	1212.40
395.84	1132.82
396.04	1160.91
396.23	1132.82
396.42	1203.04
396.62	1137.50
396.81	1212.40
397.00	1217.08
397.19	1245.16
397.39	1203.04
397.58	1280.27
397.77	1235.80
397.97	1331.76
398.16	1240.48
398.35	1228.78
398.55	1224.10
398.74	1329.42
398.93	1294.32
399.12	1273.25
399.32	1259.21
399.51	1245.16
399.70	1268.57
399.90	1277.93
400.09	1411.34
400.28	1416.02
400.47	1310.70
400.67	1362.19
400.86	1380.92
401.05	1364.53
401.24	1453.47
401.44	1399.64
401.63	1467.52
401.82	1432.41
402.01	1451.13
402.21	1439.43
402.40	1481.56
402.59	1437.09
402.78	1479.22
402.97	1549.43
403.17	1591.56
403.36	1596.25
403.55	1563.48
403.74	1584.54
403.93	1556.46
404.13	1516.67
404.32	1636.03
404.51	1600.93
404.70	1584.54
404.89	1638.38
405.09	1720.29
405.28	1673.48
405.47	1675.82
405.66	1701.57
405.85	1809.23
406.05	1572.84
406.24	1736.68
406.43	1797.53
406.62	1795.19
406.81	1874.77
407.00	1792.85
407.20	1764.76
407.39	1867.75
407.58	1799.87
407.77	1806.89
407.96	1921.58
408.15	1952.01
408.34	1900.52
408.54	1949.67
408.73	1856.04
408.92	1900.52
409.11	1921.58
409.30	2022.22
409.49	1952.01
409.68	2010.52
409.87	2071.37
410.07	2115.84
410.26	2087.76
410.45	2071.37
410.64	2172.02
410.83	2115.84
411.02	2111.16
411.21	2104.14
411.40	2092.44
411.59	2235.21
411.78	2202.44
411.98	2216.49
412.17	2223.51
412.36	2115.84
412.55	2375.64
412.74	2417.77
412.93	2312.45
413.12	2438.84
413.31	2296.07
413.50	2370.96
413.69	2359.26
413.88	2445.86
414.07	2406.07
414.26	2579.27
414.45	2462.24
414.64	2441.18
414.83	2649.49
415.02	2605.02
415.22	2595.65
415.41	2621.40
415.60	2607.36
415.79	2738.43
415.98	2792.26
416.17	2782.90
416.36	2703.32
416.55	2761.83
416.74	2729.06
416.93	2773.53
417.12	2857.79
417.31	2874.18
417.50	2963.12
417.69	2902.26
417.88	2960.78
418.07	2953.76
418.26	2932.69
418.45	2981.84
418.64	3063.76
418.83	3005.25
419.02	3000.57
419.21	3155.04
419.39	3211.22
419.58	3089.51
419.77	2977.16
419.96	3094.19
420.15	3176.11
420.34	3166.74
420.53	3215.90
420.72	3300.16
420.91	3241.64
421.10	3101.21
421.29	3300.16
421.48	3356.33
421.67	3318.88
421.86	3288.45
422.05	3206.53
422.24	3372.71
422.43	3440.59
422.61	3452.29
422.80	3372.71
422.99	3405.48
423.18	3452.29
423.37	3433.57
423.56	3351.65
423.75	3346.97
423.94	3405.48
424.13	3192.49
424.32	3246.32
424.50	3463.99
424.69	3485.06
424.88	3543.57
425.07	3370.37
425.26	3524.85
425.45	3473.36
425.64	3435.91
425.83	3438.25
426.01	3398.46
426.20	3485.06
426.39	3576.34
426.58	3456.97
426.77	3552.93
426.96	3442.93
427.15	3555.27
427.33	3604.42
427.52	3485.06
427.71	3658.26
427.90	3599.74
428.09	3564.64
428.28	3611.45
428.46	3641.87
428.65	3669.96
428.84	3695.71
429.03	3880.61
429.22	3700.39
429.40	3698.05
429.59	3904.01
429.78	3662.94
429.97	3653.58
430.16	3674.64
430.34	3838.48
430.53	3866.56
430.72	3927.42
430.91	3934.44
431.10	3859.54
431.28	3955.51
431.47	4011.68
431.66	4074.87
431.85	3999.98
432.03	3948.48
432.22	4042.11
432.41	4170.83
432.60	4095.94
432.79	4016.36
432.97	4133.39
433.16	4196.58
433.35	4142.75
433.54	4060.83
433.72	4301.90
433.91	4234.03
434.10	4372.12
434.28	4166.15
434.47	4304.25
434.66	4234.03
434.85	4234.03
435.03	4271.48
435.22	4222.33
435.41	4409.57
435.59	4318.29
435.78	4327.65
435.97	4414.25
436.16	4306.59
436.34	4456.38
436.53	4496.17
436.72	4545.32
436.90	4346.37
437.09	4685.75
437.28	4425.95
437.46	4557.02
437.65	4599.15
437.84	4676.39
438.02	4629.58
438.21	4634.26
438.40	4550.00
438.58	4657.67
438.77	4950.23
438.96	4762.99
439.14	4788.74
439.33	4964.28
439.52	4922.15
439.70	4985.34
439.89	5004.07
440.08	4980.66
440.26	5064.92
440.45	4987.68
440.63	5149.18
440.82	5074.28
441.01	5036.83
441.19	5219.39
441.38	5308.34
441.57	5111.73
441.75	5437.06
441.94	5460.47
442.12	5359.83
442.31	5425.36
442.50	5385.57
442.68	5394.93
442.87	5455.79
443.05	5497.92
443.24	5490.90
443.43	5458.13
443.61	5645.37
443.80	5755.38
443.98	5408.98
444.17	5392.59
444.35	5441.75
444.54	5554.09
444.73	5558.77
444.91	5603.24
445.10	5640.69
445.28	5722.61
445.47	5638.35
445.65	5647.71
445.84	5736.65
446.02	5799.85
446.21	5788.14
446.39	5699.20
446.58	5797.51
446.77	5802.19
446.95	5675.80
447.14	5678.14
447.32	5949.64
447.51	5720.27
447.69	5713.25
447.88	5865.38
448.06	5968.37
448.25	5727.29
448.43	5762.40
448.62	5839.64
448.80	5827.93
448.99	5813.89
449.17	5926.24
449.36	5811.55
449.54	5951.98
449.73	6111.14
449.91	6008.16
450.10	6183.70
450.28	6258.59
450.46	6225.82
450.65	6071.35
450.83	6003.47
451.02	5926.24
451.20	6171.99
451.39	6150.93
451.57	6125.18
451.76	6076.03
451.94	6303.06
452.13	6108.80
452.31	6181.35
452.49	6249.23
452.68	6340.51
452.86	6260.93
453.05	6396.68
453.23	6349.87
453.42	6331.15
453.60	6370.94
453.78	6410.73
453.97	6321.79
454.15	6382.64
454.34	6200.08
454.52	6555.84
454.70	6457.54
454.89	6586.27
455.07	6623.72
455.26	6546.48
455.44	6719.68
455.62	6717.34
455.81	6712.66
455.99	6717.34
456.17	6953.73
456.36	6834.36
456.54	7005.22
456.73	6839.05
456.91	6974.80
457.09	7082.46
457.28	7042.67
457.46	6942.03
457.64	7171.40
457.83	7143.32
458.01	6897.56
458.19	7178.42
458.38	6935.01
458.56	7236.94
458.74	7148.00
458.93	7173.74
459.11	7307.15
459.29	7164.38
459.48	7321.20
459.66	7140.97
459.84	7487.37
460.03	7405.46
460.21	7328.22
460.39	7323.54
460.57	7541.21
460.76	7473.33
460.94	7517.80
461.12	7344.60
461.31	7681.64
461.49	7389.07
461.67	7581.00
461.85	7672.28
462.04	7492.05
462.22	8030.38
462.40	7822.07
462.59	7632.49
462.77	7716.75
462.95	7770.58
463.13	7644.19
463.32	7922.71
463.50	7843.14
463.68	7859.52
463.86	7903.99
464.05	7885.26
464.23	7627.81
464.41	8011.65
464.59	7932.08
464.78	8201.24
464.96	7981.23
465.14	8063.15
465.32	8011.65
465.50	8067.83
465.69	8161.45
465.87	8138.04
466.05	8313.58
466.23	8191.88
466.41	8133.36
466.60	8217.62
466.78	8325.29
466.96	8224.64
467.14	8156.77
467.32	8318.26
467.51	8336.99
467.69	8236.35
467.87	8203.58
468.05	8379.12
468.23	8315.92
468.41	8243.37
468.60	8468.06
468.78	8681.05
468.96	8397.84
469.14	8432.95
469.32	8535.93
469.50	8510.19
469.69	8793.39
469.87	8676.37
470.05	8784.03
470.23	8863.61
470.41	8767.65
470.59	8868.29
470.77	8746.58
470.95	8767.65
471.14	8980.64
471.32	8994.68
471.50	9036.81
471.68	9053.19
471.86	9114.05
472.04	9179.58
472.22	9156.18
472.40	9102.34
472.58	9160.86
472.77	9266.18
472.95	9547.05
473.13	9870.04
473.31	9331.72
473.49	9563.43
473.67	9572.79
473.85	9474.49
474.03	9750.67
474.21	9614.92
474.39	9781.10
474.57	9750.67
474.75	9806.84
474.93	9846.63
475.12	9884.08
475.30	10057.28
475.48	9973.02
475.66	10246.87
475.84	10171.97
476.02	10104.09
476.20	10307.72
476.38	10450.49
476.56	10611.99
476.74	10677.52
476.92	10670.50
477.10	10597.95
477.28	10813.28
477.46	10640.08
477.64	10867.11
477.82	11023.92
478.00	10930.30
478.18	11091.80
478.36	11300.11
478.54	11459.26
478.72	11353.94
478.90	11683.95
479.08	11552.88
479.26	11529.48
479.44	11569.27
479.62	11653.53
479.80	11761.19
479.98	11936.73
480.16	12009.29
480.34	12098.23
480.52	12245.68
480.70	12299.52
480.88	12105.25
481.06	12556.97
481.24	12465.69
481.41	12432.93
481.59	12697.41
481.77	12709.11
481.95	12940.82
482.13	13064.87
482.31	12711.45
482.49	13455.74
482.67	13252.11
482.85	13362.12
483.03	13556.38
483.21	13692.13
483.39	13823.20
483.57	13741.29
483.74	13717.88
483.92	14164.92
484.10	13874.70
484.28	14279.61
484.46	14420.04
484.64	14607.28
484.82	14508.98
485.00	14752.40
485.18	14792.19
485.35	15276.68
485.53	15171.35
485.71	15026.24
485.89	15541.16
486.07	15267.31
486.25	15433.49
486.43	15461.58
486.61	15889.90
486.78	15791.59
486.96	15779.89
487.14	16070.12
487.32	16245.66
487.50	16587.38
487.68	16315.87
487.85	16566.31
488.03	16849.52
488.21	16882.28
488.39	17057.82
488.57	17071.87
488.75	17179.53
488.92	17341.03
489.10	16978.25
489.28	17692.11
489.46	17912.12
489.64	17750.62
489.81	18087.66
489.99	18415.34
490.17	18408.31
490.35	18464.49
490.53	18487.89
490.70	18899.83
490.88	18656.41
491.06	18993.45
491.24	19014.51
491.41	18712.58
491.59	19248.57
491.77	19302.40
491.95	19428.79
492.13	19543.47
492.30	19913.28
492.48	19534.11
492.66	19545.81
492.84	19751.78
493.01	20318.19
493.19	20198.82
493.37	20622.46
493.54	20559.27
493.72	20652.89
493.90	20709.06
494.08	20765.23
494.25	20961.84
494.43	21027.37
494.61	21341.00
494.79	21619.53
494.96	21266.11
495.14	21301.22
495.32	21736.56
495.49	21584.42
495.67	21708.47
495.85	21949.54
496.02	22192.96
496.20	22260.84
496.38	22412.97
496.55	22560.42
496.73	22960.66
496.91	22583.83
497.09	22895.12
497.26	22948.95
497.44	23215.77
497.62	23623.03
497.79	23585.58
497.97	22934.91
498.14	23274.29
498.32	23866.44
498.50	23826.65
498.67	23955.38
498.85	23854.74
499.03	24250.29
499.20	23988.15
499.38	23871.12
499.56	24144.97
499.73	24346.25
499.91	24395.40
500.08	24746.48
500.26	24608.39
500.44	24320.51
500.61	24631.80
500.79	24751.17
500.97	24978.20
501.14	25310.55
501.32	25053.09
501.49	25130.33
501.67	25418.22
501.84	25898.03
502.02	25455.67
502.20	25729.51
502.37	26005.69
502.55	25879.30
502.72	25846.54
502.90	25876.96
503.07	26174.21
503.25	26101.65
503.43	26038.46
503.60	26305.28
503.78	26679.77
503.95	26342.73
504.13	26387.20
504.30	26532.31
504.48	26574.44
504.65	26864.67
504.83	27269.58
505.01	27496.61
505.18	27152.55
505.36	27562.15
505.53	26979.36
505.71	27831.31
505.88	27700.24
506.06	27278.94
506.23	27723.65
506.41	27225.11
506.58	27941.32
506.76	27800.88
506.93	27983.44
507.11	28238.56
507.28	28439.85
507.46	27988.13
507.63	28091.11
507.81	28849.44
507.98	28355.59
508.16	28629.43
508.33	28479.64
508.50	28804.97
508.68	28718.37
508.85	28973.49
509.03	28863.49
509.20	29074.13
509.38	29633.52
509.55	29376.06
509.73	29493.09
509.90	29497.77
510.08	29268.40
510.25	29340.96
510.42	29687.36
510.60	29813.74
510.77	29687.36
510.95	30499.52
511.12	29710.76
511.30	29549.26
511.47	29895.66
511.64	30314.62
511.82	30096.95
511.99	30223.34
512.17	30609.53
512.34	30382.49
512.51	31108.06
512.69	30876.35
512.86	30984.01
513.04	30726.55
513.21	30958.27
513.38	30976.99
513.56	31189.98
513.73	31290.62
513.90	30831.88
514.08	31140.83
514.25	31676.81
514.43	31850.01
514.60	31491.91
514.77	31772.77
514.95	31730.64
515.12	31882.78
515.29	31695.53
515.47	31976.40
515.64	32388.33
515.81	31522.34
515.99	32360.25
516.16	32437.48
516.33	32093.43
516.51	32577.92
516.68	32133.21
516.85	32601.32
517.03	32170.66
517.20	32336.84
517.37	32467.91
517.54	32615.37
517.72	32634.09
517.89	33001.55
518.06	32893.89
518.24	32795.59
518.41	32940.70
518.58	33312.84
518.75	32996.87
518.93	33369.02
519.10	33310.50
519.27	33441.57
519.45	33345.61
519.62	33914.36
519.79	33783.29
519.96	33497.75
520.14	33923.72
520.31	33642.86
520.48	33914.36
520.65	34089.90
520.83	34391.83
521.00	34089.90
521.17	33996.28
521.34	34450.35
521.52	34429.28
521.69	34553.33
521.86	34878.66
522.03	34904.41
522.20	35136.12
522.38	35222.72
522.55	35257.83
522.72	34562.69
522.89	35208.68
523.07	35276.55
523.24	35299.96
523.41	35236.77
523.58	35047.18
523.75	35798.49
523.92	35793.81
524.10	35615.93
524.27	35709.55
524.44	35218.04
524.61	35742.32
524.78	35899.14
524.96	36100.42
525.13	36137.87
525.30	36079.36
525.47	36388.31
525.64	36259.58
525.81	36409.37
525.98	36304.05
526.16	36268.94
526.33	36114.47
526.50	36662.15
526.67	36051.27
526.84	36781.52
527.01	36718.32
527.18	36636.41
527.36	36985.15
527.53	36823.65
527.70	37022.59
527.87	37546.87
528.04	36807.26
528.21	37291.76
528.38	36950.04
528.55	37085.79
528.72	37017.91
528.89	37457.93
529.07	36964.08
529.24	37462.61
529.41	37703.69
529.58	37223.88
529.75	37656.88
529.92	37336.23
530.09	37869.87
530.26	37565.60
530.43	38209.25
530.60	37612.41
530.77	37790.29
530.94	37818.38
531.11	37853.48
531.28	37830.08
531.46	37490.70
531.63	38052.43
531.80	38176.48
531.97	38263.08
532.14	38389.47
532.31	37787.95
532.48	38553.30
532.65	38375.42
532.82	38466.70
532.99	39175.89
533.16	38642.24
533.33	38705.44
533.50	38810.76
533.67	38850.55
533.84	38553.30
534.01	38782.68
534.18	38969.92
534.35	38981.62
534.52	38852.89
534.69	39070.56
534.86	39491.86
535.03	39033.11
535.20	39538.67
535.37	39611.23
535.54	39674.42
535.71	39407.60
535.88	39805.49
536.05	39241.42
536.22	39887.41
536.38	39344.41
536.55	39571.44
536.72	39641.65
536.89	39791.45
537.06	39632.29
537.23	40062.95
537.40	39578.46
537.57	39789.11
537.74	39475.48
537.91	40187.00
538.08	39777.40
538.25	39899.11
538.42	40123.80
538.59	40289.98
538.75	39892.09
538.92	40308.71
539.09	40549.78
539.26	40252.53
539.43	40526.38
539.60	40615.32
539.77	40706.60
539.94	40582.55
540.11	40877.46
540.28	40680.85
540.44	40718.30
540.61	40821.28
540.78	40605.95
540.95	40790.86
541.12	41045.97
541.29	40928.95
541.46	40718.30
541.62	41383.01
541.79	41420.46
541.96	40954.69
542.13	41361.95
542.30	41116.19
542.47	41357.27
542.63	41240.24
542.80	41427.48
542.97	41949.42
543.14	41830.05
543.31	41380.67
543.48	41507.06
543.64	42740.52
543.81	42021.98
543.98	41902.61
544.15	42094.53
544.32	42202.20
544.48	42234.97
544.65	42284.12
544.82	42171.77
544.99	41942.40
545.16	42185.82
545.32	42007.94
545.49	41996.23
545.66	42721.80
545.83	42302.84
546.00	42918.40
546.16	42639.88
546.33	42110.92
546.50	42162.41
546.67	42801.38
546.83	42344.97
547.00	42480.72
547.17	42586.05
547.34	42536.90
547.50	42731.16
547.67	43320.98
547.84	42829.46
548.00	42927.77
548.17	43262.46
548.34	43250.76
548.51	43056.50
548.67	43215.65
548.84	43037.77
549.01	43234.38
549.18	43033.09
549.34	43466.09
549.51	43526.94
549.68	43346.72
549.84	43358.42
550.01	43243.74
550.18	43454.39
550.34	44025.48
550.51	43643.97
550.68	43641.63
550.84	43540.99
551.01	44428.05
551.18	43599.50
551.34	43449.70
551.51	43615.88
551.68	43456.73
551.84	43519.92
552.01	44156.55
552.18	43779.72
552.34	44051.22
552.51	44158.89
552.68	44149.53
552.84	43973.98
553.01	44041.86
553.18	43849.94
553.34	44334.43
553.51	44439.75
553.67	44282.94
553.84	44465.50
554.01	44360.17
554.17	44329.75
554.34	44594.23
554.51	44488.90
554.67	44320.38
554.84	44423.37
555.00	44502.95
555.17	44776.79
555.33	44584.86
555.50	44556.78
555.67	44748.70
555.83	44666.78
556.00	44678.49
556.16	45481.29
556.33	44917.22
556.50	44697.21
556.66	44996.80
556.83	44533.37
556.99	44971.05
557.16	45134.89
557.32	45324.47
557.49	45359.58
557.65	44552.10
557.82	45139.57
557.98	44992.12
558.15	45043.61
558.32	45045.95
558.48	44788.49
558.65	45052.97
558.81	45221.49
558.98	45118.51
559.14	44980.42
559.31	45052.97
559.47	44879.77
559.64	45359.58
559.80	45698.96
559.97	45696.62
560.13	45258.94
560.30	45352.56
560.46	45720.02
560.63	45771.52
560.79	45696.62
560.96	45556.19
561.12	45890.88
561.29	46146.00
561.45	45827.69
561.61	45661.51
561.78	45488.31
561.94	45588.95
562.11	45441.50
562.27	45881.52
562.44	45823.01
562.60	45778.54
562.77	45408.73
562.93	45687.26
563.10	46206.86
563.26	45502.35
563.42	46272.39
563.59	46026.63
563.75	45804.28
563.92	46110.89
564.08	45867.48
564.24	45841.73
564.41	45972.80
564.57	46227.92
564.74	46115.58
564.90	45750.45
565.07	46017.27
565.23	46108.55
565.39	45940.04
565.56	46040.68
565.72	46155.36
565.88	46277.07
566.05	46099.19
566.21	46316.86
566.38	46134.30
566.54	46117.92
566.70	46153.02
566.87	45883.86
567.03	46253.67
567.19	46342.61
567.36	46663.26
567.52	46391.76
567.68	46110.89
567.85	46333.24
568.01	46595.38
568.17	45914.29
568.34	46450.27
568.50	46712.41
568.66	45970.46
568.83	46796.67
568.99	46541.55
569.15	46429.21
569.32	46349.63
569.48	46401.12
569.64	46836.46
569.81	46848.16
569.97	46422.19
570.13	46967.53
570.30	46141.32
570.46	46724.11
570.62	46256.01
570.78	46426.87
570.95	46569.64
571.11	47040.09
571.27	46553.26
571.43	46621.13
571.60	46899.65
571.76	46784.97
571.92	46639.86
572.09	46773.27
572.25	46700.71
572.41	46344.95
572.57	46506.44
572.74	46883.27
572.90	46532.19
573.06	46700.71
573.22	46965.19
573.38	47114.98
573.55	47023.70
573.71	46766.24
573.87	46721.77
574.03	46808.37
574.20	46813.05
574.36	46983.91
574.52	47143.07
574.68	46880.93
574.84	47363.08
575.01	46934.76
575.17	46918.38
575.33	46981.57
575.49	47208.61
575.65	47049.45
575.82	46864.55
575.98	46700.71
576.14	46969.87
576.30	47409.89
576.46	46581.34
576.62	47208.61
576.79	46890.29
576.95	46366.01
577.11	46925.40
577.27	47182.86
577.43	46986.25
577.59	47227.33
577.75	46782.63
577.92	46464.32
578.08	46969.87
578.24	46923.06
578.40	47143.07
578.56	47327.97
578.72	47119.66
578.88	47236.69
579.04	47332.65
579.21	47269.46
579.37	47611.18
579.53	46986.25
579.69	46923.06
579.85	47208.61
580.01	47168.82
580.17	47054.13
580.33	47473.09
580.49	46651.56
580.65	47501.17
580.82	47117.32
580.98	47461.38
581.14	47178.18
581.30	47676.71
581.46	47143.07
581.62	47042.43
581.78	46983.91
581.94	47562.03
582.10	47400.53
582.26	47374.78
582.42	47442.66
582.58	46979.23
582.74	47346.70
582.90	47201.58
583.06	47255.42
583.22	46965.19
583.38	47337.33
583.54	47243.71
583.70	47423.93
583.86	47161.79
584.02	46944.12
584.18	47758.63
584.34	47510.53
584.50	47318.61
584.66	47681.39
584.82	47187.54
584.98	47842.89
585.14	47466.06
585.30	47405.21
585.46	47522.24
585.62	47463.72
585.78	47590.11
585.94	47035.41
586.10	47227.33
586.26	47122.01
586.42	47402.87
586.58	47459.04
586.74	47166.48
586.90	47136.05
587.06	47564.37
587.22	47536.28
587.38	47627.56
587.54	47564.37
587.70	47496.49
587.86	47297.55
588.02	47405.21
588.18	47285.84
588.34	47269.46
588.49	47372.44
588.65	47290.52
588.81	47470.75
588.97	47606.50
589.13	47391.17
589.29	47224.99
589.45	47587.77
589.61	47215.63
589.77	47646.29
589.93	47461.38
590.08	47812.46
