SpectraSuite Data File
++++++++++++++++++++++++++++++++++++
Date: Fri Oct 25 10:43:40 EDT 2013
User: price-jones
Dark Spectrum Present: No
Reference Spectrum Present: No
Number of Sampled Component Spectra: 1
Spectrometers: USB2+H05261
Integration Time (usec): 100000 (USB2+H05261)
Spectra Averaged: 1 (USB2+H05261)
Boxcar Smoothing: 0 (USB2+H05261)
Correct for Electrical Dark: No (USB2+H05261)
Strobe/Lamp Enabled: No (USB2+H05261)
Correct for Detector Non-linearity: No (USB2+H05261)
Correct for Stray Light: No (USB2+H05261)
Number of Pixels in Processed Spectrum: 2048
>>>>>Begin Processed Spectral Data<<<<<
365.73	180.22
365.92	180.22
366.12	180.22
366.32	53.83
366.52	0.00
366.72	56.17
366.91	0.00
367.11	0.00
367.31	0.00
367.51	79.58
367.70	98.30
367.90	102.98
368.10	44.47
368.30	25.75
368.49	0.00
368.69	100.64
368.89	44.47
369.09	35.11
369.28	72.56
369.48	32.77
369.68	79.58
369.87	145.11
370.07	63.19
370.27	121.71
370.47	231.71
370.66	390.87
370.86	418.96
371.06	435.34
371.25	491.51
371.45	402.57
371.65	447.04
371.84	447.04
372.04	409.59
372.24	540.66
372.44	552.37
372.63	496.19
372.83	526.62
373.03	510.24
373.22	507.90
373.42	566.41
373.62	517.26
373.81	545.34
374.01	596.84
374.21	585.13
374.40	472.79
374.60	479.81
374.79	561.73
374.99	580.45
375.19	578.11
375.38	613.22
375.58	594.50
375.78	531.30
375.97	608.54
376.17	608.54
376.37	559.39
376.56	690.46
376.76	620.24
376.95	557.05
377.15	624.92
377.35	657.69
377.54	589.82
377.74	608.54
377.93	669.39
378.13	657.69
378.33	678.76
378.52	690.46
378.72	727.91
378.91	650.67
379.11	624.92
379.31	634.29
379.50	664.71
379.70	720.88
379.89	676.41
380.09	727.91
380.28	737.27
380.48	734.93
380.68	697.48
380.87	704.50
381.07	692.80
381.26	737.27
381.46	706.84
381.65	716.20
381.85	716.20
382.04	664.71
382.24	645.99
382.43	753.65
382.63	685.78
382.83	676.41
383.02	730.25
383.22	802.80
383.41	674.07
383.61	671.73
383.80	774.72
384.00	692.80
384.19	772.38
384.39	877.70
384.58	856.64
384.78	821.53
384.97	798.12
385.17	784.08
385.36	744.29
385.56	755.99
385.75	793.44
385.95	779.40
386.14	828.55
386.34	786.42
386.53	854.30
386.72	868.34
386.92	842.59
387.11	826.21
387.31	758.33
387.50	828.55
387.70	823.87
387.89	877.70
388.09	905.79
388.28	922.17
388.48	940.90
388.67	901.11
388.86	943.24
389.06	961.96
389.25	1008.77
389.45	973.66
389.64	994.73
389.84	1109.41
390.03	1086.01
390.22	1013.45
390.42	978.34
390.61	1039.20
390.81	1048.56
391.00	1022.81
391.19	1086.01
391.39	1093.03
391.58	1184.31
391.78	1008.77
391.97	1025.15
392.16	1029.84
392.36	1011.11
392.55	999.41
392.75	1060.26
392.94	861.32
393.13	1088.35
393.33	987.71
393.52	1013.45
393.71	1088.35
393.91	1125.80
394.10	1090.69
394.29	1170.27
394.49	1245.16
394.68	1203.04
394.88	1184.31
395.07	1263.89
395.26	1261.55
395.46	1294.32
395.65	1259.21
395.84	1254.53
396.04	1259.21
396.23	1165.59
396.42	1165.59
396.62	1219.42
396.81	1235.80
397.00	1245.16
397.19	1343.47
397.39	1345.81
397.58	1313.04
397.77	1336.45
397.97	1432.41
398.16	1458.15
398.35	1469.86
398.55	1547.09
398.74	1519.01
398.93	1507.30
399.12	1455.81
399.32	1633.69
399.51	1511.99
399.70	1575.18
399.90	1605.61
400.09	1678.16
400.28	1650.08
400.47	1591.56
400.67	1708.59
400.86	1682.85
401.05	1645.40
401.24	1799.87
401.44	1785.83
401.63	1710.93
401.82	1727.32
402.01	1741.36
402.21	1750.72
402.40	1818.60
402.59	1699.23
402.78	1769.44
402.97	1888.81
403.17	1827.96
403.36	1849.02
403.55	1834.98
403.74	1823.28
403.93	1851.36
404.13	1865.41
404.32	1797.53
404.51	1870.09
404.70	1942.64
404.89	1888.81
405.09	2092.44
405.28	1923.92
405.47	1963.71
405.66	2008.18
405.85	2040.95
406.05	2003.50
406.24	2029.24
406.43	2094.78
406.62	2080.74
406.81	2132.23
407.00	2101.80
407.20	2022.22
407.39	2076.06
407.58	2169.68
407.77	2172.02
407.96	2314.79
408.15	2380.32
408.34	2186.06
408.54	2270.32
408.73	2284.36
408.92	2413.09
409.11	2286.70
409.30	2495.01
409.49	2380.32
409.68	2260.96
409.87	2363.94
410.07	2406.07
410.26	2469.27
410.45	2349.90
410.64	2282.02
410.83	2560.55
411.02	2572.25
411.21	2747.79
411.40	2504.37
411.59	2621.40
411.78	2562.89
411.98	2539.48
412.17	2696.30
412.36	2724.38
412.55	2789.92
412.74	2864.82
412.93	2782.90
413.12	2698.64
413.31	2916.31
413.50	2860.13
413.69	2839.07
413.88	2920.99
414.07	2895.24
414.26	2937.37
414.45	2949.08
414.64	3016.95
414.83	3021.63
415.02	3148.02
415.22	3262.71
415.41	3155.04
415.60	3117.59
415.79	3265.05
415.98	3361.01
416.17	3447.61
416.36	3328.24
416.55	3337.60
416.74	3353.99
416.93	3246.32
417.12	3342.28
417.31	3403.14
417.50	3281.43
417.69	3438.25
417.88	3337.60
418.07	3489.74
418.26	3485.06
418.45	3555.27
418.64	3775.28
418.83	3482.72
419.02	3578.68
419.21	3545.91
419.39	3541.23
419.58	3676.98
419.77	3639.53
419.96	3700.39
420.15	3595.06
420.34	3751.88
420.53	3831.46
420.72	3786.99
420.91	3904.01
421.10	3960.19
421.29	3978.91
421.48	3824.44
421.67	3962.53
421.86	3789.33
422.05	3808.05
422.24	3829.12
422.43	3866.56
422.61	3899.33
422.80	3866.56
422.99	3976.57
423.18	3822.09
423.37	4145.09
423.56	4088.92
423.75	3964.87
423.94	3906.35
424.13	3744.86
424.32	3822.09
424.50	4035.08
424.69	4084.23
424.88	4107.64
425.07	3906.35
425.26	3981.25
425.45	3875.93
425.64	4046.79
425.83	3974.23
426.01	4098.28
426.20	4138.07
426.39	4074.87
426.58	4065.51
426.77	3990.61
426.96	4074.87
427.15	4215.30
427.33	4219.99
427.52	4138.07
427.71	4184.88
427.90	4133.39
428.09	4215.30
428.28	4201.26
428.46	4306.59
428.65	4241.05
428.84	4346.37
429.03	4308.93
429.22	4163.81
429.40	4117.00
429.59	4191.90
429.78	4072.53
429.97	3946.14
430.16	4107.64
430.34	4042.11
430.53	4332.33
430.72	4161.47
430.91	4365.10
431.10	4526.60
431.28	4610.86
431.47	4690.43
431.66	4774.69
431.85	4627.24
432.03	4636.60
432.22	4814.48
432.41	4676.39
432.60	4718.52
432.79	4685.75
432.97	4926.83
433.16	4734.90
433.35	4662.35
433.54	4805.12
433.72	4704.48
433.91	4695.11
434.10	4734.90
434.28	4835.55
434.47	4971.30
434.66	4966.62
434.85	4945.55
435.03	4957.25
435.22	5139.82
435.41	5149.18
435.59	5137.48
435.78	5174.92
435.97	5245.14
436.16	5151.52
436.34	5303.65
436.53	5191.31
436.72	5413.66
436.90	5193.65
437.09	5287.27
437.28	5163.22
437.46	5198.33
437.65	5174.92
437.84	5399.62
438.02	5214.71
438.21	5252.16
438.40	5184.29
438.58	5348.12
438.77	5430.04
438.96	5418.34
439.14	5554.09
439.33	5717.93
439.52	5769.42
439.70	5633.67
439.89	5682.82
440.08	5760.06
440.26	5837.30
440.45	5624.31
440.63	5858.36
440.82	6113.48
441.01	6120.50
441.19	6190.72
441.38	6291.36
441.57	6188.38
441.75	6200.08
441.94	6420.09
442.12	6457.54
442.31	6422.43
442.50	6448.18
442.68	6396.68
442.87	6424.77
443.05	6445.84
443.24	6560.52
443.43	6513.71
443.61	6471.58
443.80	6864.79
443.98	6363.92
444.17	6193.06
444.35	6658.82
444.54	6623.72
444.73	6658.82
444.91	6539.46
445.10	6558.18
445.28	6569.88
445.47	6572.22
445.65	6462.22
445.84	6569.88
446.02	6656.48
446.21	6588.61
446.39	6745.42
446.58	6846.07
446.77	6693.93
446.95	6520.73
447.14	6813.30
447.32	6803.94
447.51	6925.65
447.69	6682.23
447.88	6827.34
448.06	6897.56
448.25	6766.49
448.43	6906.92
448.62	6848.41
448.80	6850.75
448.99	6857.77
449.17	6960.75
449.36	7021.61
449.54	7148.00
449.73	7098.84
449.91	7131.61
450.10	7218.21
450.28	7375.03
450.46	7276.73
450.65	7222.89
450.83	7133.95
451.02	7274.38
451.20	7363.33
451.39	7258.00
451.57	7325.88
451.76	7173.74
451.94	7332.90
452.13	7321.20
452.31	7330.56
452.49	7063.74
452.68	7236.94
452.86	7330.56
453.05	7382.05
453.23	7513.12
453.42	7337.58
453.60	7637.17
453.78	7555.25
453.97	7447.58
454.15	7489.71
454.34	7400.77
454.52	7667.60
454.70	7522.48
454.89	7562.27
455.07	7716.75
455.26	7613.76
455.44	7796.32
455.62	7929.74
455.81	7726.11
455.99	7908.67
456.17	7978.89
456.36	8011.65
456.54	8180.17
456.73	7971.86
456.91	8248.05
457.09	8201.24
457.28	8498.49
457.46	8060.80
457.64	8308.90
457.83	8285.50
458.01	8166.13
458.19	8322.94
458.38	8360.39
458.56	8334.65
458.74	8287.84
458.93	8161.45
459.11	8264.43
459.29	8512.53
459.48	8512.53
459.66	8402.52
459.84	8517.21
460.03	8573.38
460.21	8395.50
460.39	8727.86
460.57	8376.78
460.76	8547.64
460.94	8767.65
461.12	8784.03
461.31	8833.18
461.49	8814.46
461.67	8643.60
461.85	8961.91
462.04	8894.04
462.22	9561.09
462.40	9130.43
462.59	9039.15
462.77	9039.15
462.95	9095.32
463.13	8971.27
463.32	9008.72
463.50	9195.96
463.68	9057.87
463.86	9242.78
464.05	8987.66
464.23	9048.51
464.41	9202.99
464.59	8978.30
464.78	9249.80
464.96	9137.45
465.14	9149.15
465.32	9502.58
465.50	9556.41
465.69	9462.79
465.87	9329.38
466.05	9289.59
466.23	9181.92
466.41	9179.58
466.60	9364.48
466.78	9317.67
466.96	9263.84
467.14	9247.46
467.32	9554.07
467.51	9540.02
467.69	9336.40
467.87	9455.76
468.05	9624.28
468.23	9418.32
468.41	9598.54
468.60	9617.26
468.78	9865.36
468.96	9687.48
469.14	9820.89
469.32	9935.57
469.50	9514.28
469.69	9830.25
469.87	9804.50
470.05	10047.92
470.23	9710.88
470.41	9963.66
470.59	9961.32
470.77	9989.41
470.95	10066.64
471.14	10340.49
471.32	10122.82
471.50	10415.38
471.68	10469.22
471.86	10513.69
472.04	10445.81
472.22	10520.71
472.40	10387.30
472.58	10628.37
472.77	10649.44
472.95	10850.72
473.13	10911.58
473.31	10609.65
473.49	10497.30
473.67	10633.05
473.85	10803.91
474.03	10731.36
474.21	11075.42
474.39	10958.39
474.57	11318.83
474.75	11346.92
474.93	11396.07
475.12	11145.63
475.30	11421.81
475.48	11243.93
475.66	11318.83
475.84	11260.32
476.02	11763.53
476.20	11637.14
476.38	11702.68
476.56	11992.90
476.74	11822.05
476.92	11899.28
477.10	11698.00
477.28	12231.64
477.46	12173.13
477.64	12252.70
477.82	12486.76
478.00	12805.07
478.18	12709.11
478.36	12624.85
478.54	12723.15
478.72	12781.67
478.90	13092.96
479.08	13184.24
479.26	13191.26
479.44	13263.82
479.62	13263.82
479.80	13626.60
479.98	13771.71
480.16	13820.86
480.34	13933.21
480.52	14223.44
480.70	13673.41
480.88	13935.55
481.06	13865.33
481.24	14190.67
481.41	14382.59
481.59	14637.71
481.77	14576.86
481.95	14368.55
482.13	14759.42
482.31	14752.40
482.49	15293.06
482.67	15028.58
482.85	15318.81
483.03	15349.23
483.21	15150.29
483.39	15618.39
483.57	15379.66
483.74	15723.72
483.92	15564.56
484.10	15709.68
484.28	15702.65
484.46	15946.07
484.64	16341.62
484.82	16149.70
485.00	16182.46
485.18	16711.42
485.35	16772.28
485.53	16238.64
485.71	16369.71
485.89	16521.84
486.07	16641.21
486.25	16781.64
486.43	16966.54
486.61	17013.35
486.78	17657.00
486.96	17600.83
487.14	17869.99
487.32	17671.04
487.50	18228.09
487.68	18279.58
487.85	18604.92
488.03	18520.66
488.21	18752.37
488.39	18476.19
488.57	19126.86
488.75	18787.48
488.92	19143.24
489.10	19131.54
489.28	19646.46
489.46	19889.87
489.64	19735.40
489.81	20552.24
489.99	20341.60
490.17	20418.83
490.35	20840.13
490.53	20585.01
490.70	20744.17
490.88	20554.58
491.06	21284.83
491.24	20886.94
491.41	21165.46
491.59	21415.90
491.77	21036.74
491.95	21256.75
492.13	21312.92
492.30	21764.64
492.48	22085.30
492.66	22141.47
492.84	22061.89
493.01	22560.42
493.19	22239.77
493.37	22644.68
493.54	22511.27
493.72	22724.26
493.90	22609.58
494.08	23386.63
494.25	23307.05
494.43	23309.40
494.61	24081.77
494.79	23637.07
494.96	23758.78
495.14	23704.95
495.32	23812.61
495.49	23950.70
495.67	24372.00
495.85	24261.99
496.02	24299.44
496.20	24219.86
496.38	24781.59
496.55	24680.95
496.73	25448.64
496.91	25303.53
497.09	24915.00
497.26	25305.87
497.44	25357.36
497.62	25355.02
497.79	26068.89
497.97	25254.38
498.14	25860.58
498.32	25942.50
498.50	25860.58
498.67	26066.55
498.85	26274.85
499.03	26183.57
499.20	26525.29
499.38	26714.87
499.56	26522.95
499.73	27058.93
499.91	26689.13
500.08	26506.57
500.26	26562.74
500.44	27042.55
500.61	26892.76
500.79	26726.58
500.97	26857.65
501.14	27318.73
501.32	27578.53
501.49	27538.74
501.67	27332.78
501.84	27562.15
502.02	27803.22
502.20	27976.42
502.37	28280.69
502.55	27880.46
502.72	28088.77
502.90	28428.15
503.07	28266.65
503.25	28414.10
503.43	28175.37
503.60	28496.02
503.78	28175.37
503.95	28484.32
504.13	28364.95
504.30	29057.75
504.48	28655.18
504.65	29242.65
504.83	29469.69
505.01	29439.26
505.18	29294.14
505.36	29848.85
505.53	29806.72
505.71	29694.38
505.88	29619.48
506.06	29778.64
506.23	29785.66
506.41	29813.74
506.58	30155.46
506.76	30405.90
506.93	30059.50
507.11	30108.65
507.28	30141.42
507.46	30370.79
507.63	30211.64
507.81	30614.21
507.98	30511.22
508.16	30703.15
508.33	30869.33
508.50	30948.90
508.68	31068.27
508.85	31417.01
509.03	31042.53
509.20	31122.10
509.38	31426.37
509.55	31548.08
509.73	31545.74
509.90	31896.82
510.08	31248.49
510.25	31374.88
510.42	31721.28
510.60	31892.14
510.77	31981.08
510.95	32144.92
511.12	32224.50
511.30	32463.23
511.47	32903.25
511.64	32388.33
511.82	32460.89
511.99	32594.30
512.17	32385.99
512.34	32659.84
512.51	32659.84
512.69	33219.22
512.86	32999.21
513.04	33244.97
513.21	33331.57
513.38	32870.48
513.56	33062.41
513.73	32678.56
513.90	33116.24
514.08	33165.39
514.25	33230.93
514.43	33364.34
514.60	33748.18
514.77	33647.54
514.95	33914.36
515.12	33596.05
515.29	34007.98
515.47	34244.38
515.64	34164.80
515.81	34225.65
515.99	34321.62
516.16	34258.42
516.33	34057.14
516.51	34052.45
516.68	33902.66
516.85	33464.98
517.03	33425.19
517.20	34305.23
517.37	34691.42
517.54	34869.30
517.72	34178.84
517.89	34005.64
518.06	34223.31
518.24	34330.98
518.41	34422.26
518.58	34747.59
518.75	34244.38
518.93	34759.30
519.10	35026.12
519.27	35316.34
519.45	35489.54
519.62	35655.72
519.79	35786.79
519.96	35379.54
520.14	35431.03
520.31	35147.82
520.48	35955.31
520.65	35821.90
520.83	35924.88
521.00	35849.99
521.17	36308.73
521.34	36524.06
521.52	35985.74
521.69	36505.34
521.86	36772.16
522.03	36524.06
522.20	36491.29
522.38	36760.45
522.55	36517.04
522.72	36657.47
522.89	36605.98
523.07	36732.37
523.24	36975.78
523.41	36954.72
523.58	36978.12
523.75	37427.51
523.92	37242.60
524.10	37450.91
524.27	37757.52
524.44	37804.33
524.61	37394.74
524.78	37954.13
524.96	37940.08
525.13	38038.39
525.30	37904.98
525.47	38134.35
525.64	37794.97
525.81	37661.56
525.98	37556.24
526.16	37528.15
526.33	37612.41
526.50	37703.69
526.67	37567.94
526.84	37663.90
527.01	37876.89
527.18	38239.67
527.36	38120.31
527.53	38553.30
527.70	38579.05
527.87	38508.83
528.04	38815.44
528.21	38651.61
528.38	38796.72
528.55	39056.52
528.72	39056.52
528.89	39332.70
529.07	38930.13
529.24	38635.22
529.41	39147.80
529.58	38836.51
529.75	39168.87
529.92	39559.73
530.09	39133.76
530.26	39250.78
530.43	39536.33
530.60	39423.98
530.77	39501.22
530.94	39906.13
531.11	39695.49
531.28	39576.12
531.46	39915.50
531.63	39854.64
531.80	40076.99
531.97	39861.66
532.14	39316.32
532.31	39215.68
532.48	39709.53
532.65	39655.70
532.82	40086.36
532.99	40069.97
533.16	40643.40
533.33	40219.77
533.50	40694.89
533.67	40329.77
533.84	40463.18
534.01	40371.90
534.18	40273.60
534.35	40737.02
534.52	40650.42
534.69	40404.67
534.86	40903.20
535.03	40790.86
535.20	40751.07
535.37	41422.80
535.54	40809.58
535.71	40704.26
535.88	40931.29
536.05	41226.20
536.22	40980.44
536.38	40783.83
536.55	41151.30
536.72	41366.63
536.89	41085.76
537.06	41221.52
537.23	41448.55
537.40	40947.67
537.57	41275.35
537.74	41495.36
537.91	41347.90
538.08	41904.95
538.25	41165.34
538.42	41340.88
538.59	41989.21
538.75	40942.99
538.92	41420.46
539.09	41495.36
539.26	41378.33
539.43	41401.74
539.60	41806.65
539.77	41656.85
539.94	41514.08
540.11	41486.00
540.28	42225.60
540.44	42066.45
540.61	41544.51
540.78	41324.50
540.95	41954.10
541.12	41745.80
541.29	41965.81
541.46	42220.92
541.62	42103.90
541.79	42174.11
541.96	41986.87
542.13	41996.23
542.30	42653.92
542.47	42122.62
542.63	42361.36
542.80	42359.02
542.97	42773.29
543.14	42679.67
543.31	42834.14
543.48	43065.86
543.64	42944.15
543.81	42988.62
543.98	43002.66
544.15	43143.09
544.32	42740.52
544.48	43620.56
544.65	42948.83
544.82	43665.03
544.99	43292.89
545.16	42864.57
545.32	42845.85
545.49	43536.30
545.66	43910.79
545.83	43901.43
546.00	43337.36
546.16	43140.75
546.33	43037.77
546.50	43173.52
546.67	43398.21
546.83	43423.96
547.00	43463.75
547.17	43246.08
547.34	43271.82
547.50	43367.79
547.67	43641.63
547.84	43885.04
548.00	44175.27
548.17	44184.63
548.34	43945.90
548.51	44261.87
548.67	44353.15
548.84	44016.11
549.01	43824.19
549.18	44306.34
549.34	44027.82
549.51	43894.41
549.68	44065.27
549.84	44058.24
550.01	44245.49
550.18	43519.92
550.34	44353.15
550.51	44315.70
550.68	43793.76
550.84	44112.08
551.01	44638.70
551.18	43908.45
551.34	44231.44
551.51	44549.76
551.68	44535.71
551.84	44610.61
552.01	44568.48
552.18	44421.03
552.34	44184.63
552.51	44406.98
552.68	44786.15
552.84	44968.71
553.01	45132.55
553.18	44706.57
553.34	44711.25
553.51	44531.03
553.67	45050.63
553.84	44945.31
554.01	44978.07
554.17	45031.91
554.34	45495.33
554.51	45265.96
554.67	45230.85
554.84	45184.04
555.00	45050.63
555.17	44987.44
555.33	44779.13
555.50	45109.14
555.67	45160.64
555.83	44842.32
556.00	45151.27
556.16	45584.27
556.33	45071.70
556.50	45127.87
556.66	45067.02
556.83	44760.40
556.99	45233.19
557.16	45261.28
557.32	45083.40
557.49	45471.93
557.65	44769.77
557.82	45263.62
557.98	45546.82
558.15	45308.09
558.32	45539.80
558.48	45212.13
558.65	45263.62
558.81	44917.22
558.98	45492.99
559.14	45071.70
559.31	45045.95
559.47	45462.57
559.64	45244.90
559.80	45476.61
559.97	45497.67
560.13	45294.05
560.30	45794.92
560.46	45677.90
560.63	45441.50
560.79	45556.19
560.96	46071.10
561.12	45595.98
561.29	45200.43
561.45	45280.00
561.61	45591.30
561.78	45361.92
561.94	45734.07
562.11	45340.86
562.27	45675.55
562.44	45455.54
562.60	45617.04
562.77	45862.80
562.93	45724.71
563.10	46263.03
563.26	45294.05
563.42	46333.24
563.59	45460.23
563.75	45675.55
563.92	46078.13
564.08	46068.76
564.24	46106.21
564.41	45668.53
564.57	45799.60
564.74	45851.09
564.90	45965.78
565.07	46040.68
565.23	46138.98
565.39	45752.79
565.56	45900.25
565.72	45572.57
565.88	45797.26
566.05	45446.18
566.21	45691.94
566.38	46036.00
566.54	46103.87
566.70	46307.50
566.87	46412.82
567.03	46075.79
567.19	46230.26
567.36	46129.62
567.52	45965.78
567.68	46258.35
567.85	46033.66
568.01	46124.94
568.17	45837.05
568.34	46080.47
568.50	45888.54
568.66	45918.97
568.83	46148.34
568.99	45736.41
569.15	45961.10
569.32	46073.45
569.48	46239.62
569.64	46129.62
569.81	46471.34
569.97	46211.54
570.13	46195.15
570.30	45834.71
570.46	45691.94
570.62	45481.29
570.78	45769.18
570.95	45708.32
571.11	45858.12
571.27	46045.36
571.43	45514.06
571.60	46045.36
571.76	46328.56
571.92	46115.58
572.09	45937.69
572.25	46380.06
572.41	46239.62
572.57	46340.27
572.74	46246.65
572.90	46286.43
573.06	46323.88
573.22	46553.26
573.38	45979.82
573.55	46216.22
573.71	46422.19
573.87	46747.52
574.03	46115.58
574.20	46237.28
574.36	46363.67
574.52	46284.09
574.68	46644.54
574.84	46487.72
575.01	46258.35
575.17	45930.67
575.33	46174.09
575.49	46045.36
575.65	46511.13
575.82	46756.88
575.98	46553.26
576.14	46202.18
576.30	46724.11
576.46	45902.59
576.62	46185.79
576.79	46213.88
576.95	46202.18
577.11	46309.84
577.27	45954.08
577.43	46258.35
577.59	46043.02
577.75	45895.56
577.92	45921.31
578.08	45656.83
578.24	45921.31
578.40	46274.73
578.56	46447.93
578.72	46782.63
578.88	46550.91
579.04	46335.59
579.21	46082.81
579.37	46302.82
579.53	46265.37
579.69	46143.66
579.85	45935.35
580.01	46354.31
580.17	46293.46
580.33	46068.76
580.49	46490.06
580.65	46415.16
580.82	45947.06
580.98	46167.07
581.14	46150.68
581.30	46707.73
581.46	46129.62
581.62	46148.34
581.78	46277.07
581.94	46838.80
582.10	46766.24
582.26	46305.16
582.42	46337.93
582.58	46263.03
582.74	46288.77
582.90	46799.01
583.06	46213.88
583.22	46351.97
583.38	46873.91
583.54	46656.24
583.70	46681.98
583.86	46602.41
584.02	45787.90
584.18	46693.69
584.34	46057.06
584.50	46129.62
584.66	46263.03
584.82	45794.92
584.98	45928.33
585.14	46553.26
585.30	45865.14
585.46	46358.99
585.62	46351.97
585.78	46408.14
585.94	45647.47
586.10	46143.66
586.26	46260.69
586.42	46574.32
586.58	46494.74
586.74	46389.42
586.90	46499.42
587.06	46438.57
587.22	46614.11
587.38	45701.30
587.54	46124.94
587.70	46361.33
587.86	46672.62
588.02	46232.60
588.18	46806.03
588.34	45823.01
588.49	46248.99
588.65	45663.85
588.81	46108.55
588.97	46103.87
589.13	46047.70
589.29	45897.91
589.45	46120.26
589.61	46438.57
589.77	46260.69
589.93	46138.98
