SpectraSuite Data File
++++++++++++++++++++++++++++++++++++
Date: Fri Oct 25 11:23:43 EDT 2013
User: price-jones
Dark Spectrum Present: No
Reference Spectrum Present: No
Number of Sampled Component Spectra: 1
Spectrometers: USB2+H05261
Integration Time (usec): 100000 (USB2+H05261)
Spectra Averaged: 1 (USB2+H05261)
Boxcar Smoothing: 0 (USB2+H05261)
Correct for Electrical Dark: No (USB2+H05261)
Strobe/Lamp Enabled: No (USB2+H05261)
Correct for Detector Non-linearity: No (USB2+H05261)
Correct for Stray Light: No (USB2+H05261)
Number of Pixels in Processed Spectrum: 2048
>>>>>Begin Processed Spectral Data<<<<<
365.73	161.50
365.92	161.50
366.12	161.50
366.32	135.75
366.52	205.97
366.72	86.60
366.91	88.94
367.11	84.26
367.31	163.84
367.51	133.41
367.70	159.16
367.90	117.03
368.10	138.09
368.30	49.15
368.49	166.18
368.69	159.16
368.89	161.50
369.09	147.45
369.28	177.88
369.48	133.41
369.68	156.82
369.87	194.26
370.07	152.13
370.27	250.44
370.47	322.99
370.66	535.98
370.86	627.26
371.06	688.12
371.25	662.37
371.45	706.84
371.65	713.86
371.84	636.63
372.04	739.61
372.24	765.36
372.44	755.99
372.63	664.71
372.83	723.23
373.03	692.80
373.22	760.67
373.42	765.36
373.62	786.42
373.81	868.34
374.01	781.74
374.21	812.17
374.40	802.80
374.60	802.80
374.79	770.04
374.99	809.83
375.19	755.99
375.38	915.15
375.58	835.57
375.78	896.43
375.97	835.57
376.17	905.79
376.37	823.87
376.56	828.55
376.76	830.89
376.95	917.49
377.15	910.47
377.35	873.02
377.54	954.94
377.74	866.00
377.93	943.24
378.13	849.61
378.33	877.70
378.52	978.34
378.72	959.62
378.91	973.66
379.11	964.30
379.31	945.58
379.50	1006.43
379.70	976.00
379.89	898.77
380.09	1001.75
380.28	905.79
380.48	905.79
380.68	1041.54
380.87	959.62
381.07	1043.88
381.26	968.98
381.46	1043.88
381.65	1071.97
381.85	1076.65
382.04	1088.35
382.24	1041.54
382.43	1046.22
382.63	1041.54
382.83	1071.97
383.02	1156.22
383.22	1053.24
383.41	1078.99
383.61	1074.31
383.80	1137.50
384.00	1078.99
384.19	1083.67
384.39	1069.62
384.58	1121.12
384.78	1097.71
384.97	1139.84
385.17	1093.03
385.36	1090.69
385.56	1240.48
385.75	1123.46
385.95	1090.69
386.14	1184.31
386.34	1160.91
386.53	1221.76
386.72	1135.16
386.92	1322.40
387.11	1179.63
387.31	1245.16
387.50	1212.40
387.70	1226.44
387.89	1156.22
388.09	1261.55
388.28	1214.74
388.48	1259.21
388.67	1343.47
388.86	1256.87
389.06	1350.49
389.25	1366.87
389.45	1373.89
389.64	1385.60
389.84	1383.26
390.03	1413.68
390.22	1446.45
390.42	1369.21
390.61	1416.02
390.81	1406.66
391.00	1348.15
391.19	1483.90
391.39	1472.20
391.58	1371.55
391.78	1537.73
391.97	1446.45
392.16	1509.65
392.36	1446.45
392.55	1530.71
392.75	1549.43
392.94	1500.28
393.13	1603.27
393.33	1549.43
393.52	1504.96
393.71	1565.82
393.91	1554.12
394.10	1603.27
394.29	1549.43
394.49	1547.09
394.68	1631.35
394.88	1589.22
395.07	1685.19
395.26	1645.40
395.46	1605.61
395.65	1612.63
395.84	1755.40
396.04	1809.23
396.23	1771.79
396.42	1722.63
396.62	1790.51
396.81	1825.62
397.00	1732.00
397.19	1764.76
397.39	1760.08
397.58	1771.79
397.77	1898.17
397.97	1856.04
398.16	1867.75
398.35	1865.41
398.55	1842.00
398.74	1954.35
398.93	2026.90
399.12	1930.94
399.32	1968.39
399.51	1968.39
399.70	1961.37
399.90	1935.62
400.09	1961.37
400.28	2080.74
400.47	1907.54
400.67	1963.71
400.86	2078.40
401.05	2083.08
401.24	2150.95
401.44	2162.66
401.63	2179.04
401.82	2150.95
402.01	2167.34
402.21	2172.02
402.40	2125.21
402.59	2211.81
402.78	2179.04
402.97	2216.49
403.17	2211.81
403.36	2312.45
403.55	2209.47
403.74	2347.56
403.93	2359.26
404.13	2246.91
404.32	2349.90
404.51	2303.09
404.70	2408.41
404.89	2389.69
405.09	2553.52
405.28	2576.93
405.47	2480.97
405.66	2516.08
405.85	2551.18
406.05	2551.18
406.24	2548.84
406.43	2560.55
406.62	2745.45
406.81	2705.66
407.00	2602.68
407.20	2462.24
407.39	2628.42
407.58	2747.79
407.77	2764.17
407.96	2745.45
408.15	2869.50
408.34	2808.64
408.54	2850.77
408.73	2822.69
408.92	2834.39
409.11	2951.42
409.30	2761.83
409.49	2951.42
409.68	2834.39
409.87	2829.71
410.07	3035.67
410.26	2963.12
410.45	2930.35
410.64	3038.02
410.83	3049.72
411.02	3070.78
411.21	3194.83
411.40	3129.30
411.59	3218.24
411.78	3218.24
411.98	3185.47
412.17	3382.07
412.36	3304.84
412.55	3384.41
412.74	3281.43
412.93	3428.88
413.12	3295.47
413.31	3630.17
413.50	3468.67
413.69	3496.76
413.88	3726.13
414.07	3590.38
414.26	3674.64
414.45	3662.94
414.64	3662.94
414.83	3723.79
415.02	3875.93
415.22	3721.45
415.41	3911.04
415.60	3847.84
415.79	3932.10
415.98	3934.44
416.17	3953.16
416.36	3936.78
416.55	3971.89
416.74	4037.42
416.93	4163.81
417.12	4074.87
417.31	4086.58
417.50	4191.90
417.69	4383.82
417.88	4325.31
418.07	4348.72
418.26	4297.22
418.45	4196.58
418.64	4500.85
418.83	4470.42
419.02	4461.06
419.21	4601.49
419.39	4468.08
419.58	4418.93
419.77	4524.26
419.96	4535.96
420.15	4599.15
420.34	4521.92
420.53	4641.28
420.72	4559.36
420.91	4674.05
421.10	4753.63
421.29	4849.59
421.48	4720.86
421.67	4781.71
421.86	4739.58
422.05	4727.88
422.24	4662.35
422.43	4730.22
422.61	5013.43
422.80	4887.04
422.99	5088.32
423.18	5062.58
423.37	4887.04
423.56	5013.43
423.75	4957.25
423.94	4868.31
424.13	4622.56
424.32	4786.40
424.50	5053.22
424.69	5060.24
424.88	5111.73
425.07	4954.91
425.26	5100.03
425.45	4896.40
425.64	5006.41
425.83	4983.00
426.01	5107.05
426.20	5036.83
426.39	5011.09
426.58	5107.05
426.77	4985.34
426.96	5177.26
427.15	5071.94
427.33	5001.72
427.52	5069.60
427.71	5317.70
427.90	5310.68
428.09	5188.97
428.28	5291.95
428.46	5205.35
428.65	5448.77
428.84	5558.77
429.03	5633.67
429.22	5568.13
429.40	5352.81
429.59	5462.81
429.78	5357.49
429.97	5397.28
430.16	5509.62
430.34	5640.69
430.53	5792.83
430.72	5582.18
430.91	5680.48
431.10	5673.46
431.28	5713.25
431.47	5809.21
431.66	5832.62
431.85	5818.57
432.03	5973.05
432.22	6040.92
432.41	5935.60
432.60	5923.90
432.79	5809.21
432.97	5944.96
433.16	6108.80
433.35	5916.87
433.54	6045.60
433.72	6242.21
433.91	6097.10
434.10	6256.25
434.28	6282.00
434.47	6277.32
434.66	6216.46
434.85	6263.27
435.03	6279.66
435.22	6312.42
435.41	6492.65
435.59	6504.35
435.78	6609.67
435.97	6513.71
436.16	6392.00
436.34	6326.47
436.53	6523.07
436.72	6668.19
436.90	6555.84
437.09	6602.65
437.28	6733.72
437.46	6527.75
437.65	6661.16
437.84	6822.66
438.02	6808.62
438.21	6693.93
438.40	6726.70
438.58	6904.58
438.77	7098.84
438.96	6953.73
439.14	7185.44
439.33	7096.50
439.52	7155.02
439.70	7225.23
439.89	7407.80
440.08	7372.69
440.26	7360.98
440.45	7375.03
440.63	7456.95
440.82	7510.78
441.01	7527.16
441.19	7674.62
441.38	7733.13
441.57	7840.79
441.75	7831.43
441.94	7976.55
442.12	7784.62
442.31	8128.68
442.50	8245.71
442.68	7985.91
442.87	8088.89
443.05	8121.66
443.24	8140.38
443.43	8269.11
443.61	8416.57
443.80	8528.91
443.98	8266.77
444.17	7929.74
444.35	8379.12
444.54	8252.73
444.73	8283.16
444.91	8503.17
445.10	8636.58
445.28	8336.99
445.47	8131.02
445.65	8409.54
445.84	8463.38
446.02	8585.08
446.21	8390.82
446.39	8512.53
446.58	8575.72
446.77	8641.26
446.95	8259.75
447.14	8344.01
447.32	8587.43
447.51	8603.81
447.69	8622.53
447.88	8407.20
448.06	8498.49
448.25	8496.14
448.43	8730.20
448.62	8629.56
448.80	8671.68
448.99	8716.16
449.17	8777.01
449.36	8638.92
449.54	8861.27
449.73	8950.21
449.91	9137.45
450.10	8936.17
450.28	8938.51
450.46	9039.15
450.65	9224.05
450.83	9179.58
451.02	8959.57
451.20	9181.92
451.39	9076.60
451.57	9064.89
451.76	9071.92
451.94	9207.67
452.13	9317.67
452.31	9184.26
452.49	9142.13
452.68	9406.61
452.86	9462.79
453.05	9591.52
453.23	9514.28
453.42	9542.36
453.60	9497.89
453.78	9738.97
453.97	9238.09
454.15	9444.06
454.34	9533.00
454.52	9797.48
454.70	9745.99
454.89	9839.61
455.07	9949.62
455.26	9961.32
455.44	10024.51
455.62	9818.55
455.81	10005.79
455.99	10211.76
456.17	10090.05
456.36	10059.62
456.54	10001.11
456.73	10291.34
456.91	10445.81
457.09	10448.15
457.28	10630.71
457.46	10424.75
457.64	10602.63
457.83	10445.81
458.01	10338.15
458.19	10764.12
458.38	10516.03
458.56	10682.20
458.74	10499.64
458.93	10815.62
459.11	10588.58
459.29	10817.96
459.48	11000.52
459.66	10633.05
459.84	10963.07
460.03	11344.58
460.21	11110.52
460.39	11213.51
460.57	11084.78
460.76	10918.60
460.94	11253.30
461.12	11279.04
461.31	11265.00
461.49	11293.08
461.67	11400.75
461.85	11431.18
462.04	11389.05
462.22	11426.50
462.40	11728.42
462.59	11573.95
462.77	11536.50
462.95	11630.12
463.13	11527.14
463.32	11728.42
463.50	11927.37
463.68	11910.99
463.86	11882.90
464.05	11726.08
464.23	11868.86
464.41	11782.26
464.59	11812.68
464.78	12133.34
464.96	12238.66
465.14	11957.80
465.32	11978.86
465.50	12166.10
465.69	12287.81
465.87	12271.43
466.05	12100.57
466.23	12327.60
466.41	12229.30
466.60	12601.44
466.78	12196.53
466.96	12294.83
467.14	12423.56
467.32	12629.53
467.51	12507.82
467.69	12049.08
467.87	12456.33
468.05	12727.83
468.23	12538.25
468.41	12542.93
468.60	12884.65
468.78	12758.26
468.96	12411.86
469.14	12692.73
469.32	13053.17
469.50	12753.58
469.69	13170.19
469.87	13111.68
470.05	13266.16
470.23	12947.84
470.41	13460.42
470.59	13357.44
470.77	13348.08
470.95	13092.96
471.14	13469.78
471.32	13228.71
471.50	13757.67
471.68	13891.08
471.86	13776.39
472.04	14080.66
472.22	14057.26
472.40	13884.06
472.58	13977.68
472.77	13998.74
472.95	14300.67
473.13	14607.28
473.31	14099.39
473.49	14031.51
473.67	14097.05
473.85	14553.45
474.03	14621.33
474.21	14490.26
474.39	15005.17
474.57	14750.06
474.75	14906.87
474.93	15096.46
475.12	15232.21
475.30	15459.24
475.48	15295.40
475.66	15213.48
475.84	15428.81
476.02	15466.26
476.20	15414.77
476.38	15667.55
476.56	16135.65
476.74	15976.50
476.92	16013.95
477.10	15723.72
477.28	16264.38
477.46	15978.84
477.64	16332.26
477.82	16453.97
478.00	16865.90
478.18	16617.80
478.36	17099.95
478.54	17128.04
478.72	17071.87
478.90	17612.53
479.08	17640.62
479.26	17820.84
479.44	17816.16
479.62	17717.86
479.80	18043.19
479.98	18228.09
480.16	18679.82
480.34	18380.23
480.52	18909.19
480.70	18890.46
480.88	18614.28
481.06	18824.93
481.24	18813.23
481.41	19033.24
481.59	19508.37
481.77	19400.70
481.95	19477.94
482.13	19772.85
482.31	19609.01
482.49	20526.50
482.67	20285.42
482.85	20952.48
483.03	20638.84
483.21	20844.81
483.39	21022.69
483.57	20704.38
483.74	21284.83
483.92	21497.82
484.10	21034.39
484.28	21912.10
484.46	22207.00
484.64	22286.58
484.82	21940.18
485.00	22188.28
485.18	22693.83
485.35	22862.35
485.53	22892.78
485.71	22909.16
485.89	23690.90
486.07	23421.74
486.25	23536.43
486.43	23812.61
486.61	24009.22
486.78	23967.09
486.96	24306.46
487.14	24535.84
487.32	24533.50
487.50	24819.04
487.68	25048.41
487.85	25504.82
488.03	25596.10
488.21	26050.16
488.39	25818.45
488.57	26108.68
488.75	26164.85
488.92	26644.66
489.10	26930.20
489.28	26897.44
489.46	27480.23
489.64	27007.44
489.81	27992.81
489.99	27796.20
490.17	28128.56
490.35	28243.24
490.53	28086.43
490.70	28692.63
490.88	28135.58
491.06	29212.23
491.24	28580.28
491.41	28903.28
491.59	29387.77
491.77	29315.21
491.95	29993.97
492.13	30024.39
492.30	30328.66
492.48	30361.43
492.66	30000.99
492.84	30438.67
493.01	30866.98
493.19	30906.77
493.37	30913.80
493.54	31077.63
493.72	31707.24
493.90	31517.65
494.08	31967.04
494.25	31866.39
494.43	32121.51
494.61	32760.48
494.79	32690.26
494.96	32762.82
495.14	32711.33
495.32	33088.15
495.49	33762.23
495.67	33488.38
495.85	33556.26
496.02	33886.28
496.20	34117.99
496.38	34054.79
496.55	34288.85
496.73	34946.54
496.91	34742.91
497.09	34904.41
497.26	35119.74
497.44	34927.81
497.62	35585.50
497.79	35711.89
497.97	35634.66
498.14	36067.66
498.32	36318.09
498.50	36481.93
498.67	36706.62
498.85	36842.37
499.03	36746.41
499.20	37017.91
499.38	37345.59
499.56	37743.48
499.73	37486.02
499.91	37380.70
500.08	37713.05
500.26	37654.54
500.44	37699.01
500.61	38197.54
500.79	37780.93
500.97	38675.01
501.14	38801.40
501.32	38733.53
501.49	38614.16
501.67	39033.11
501.84	39178.23
502.02	39098.65
502.20	39236.74
502.37	39714.21
502.55	39487.18
502.72	39461.43
502.90	39615.91
503.07	39751.66
503.25	39845.28
503.43	39938.90
503.60	40130.83
503.78	40650.42
503.95	40500.63
504.13	40392.97
504.30	40655.11
504.48	40261.90
504.65	40858.73
504.83	41284.71
505.01	41507.06
505.18	41127.89
505.36	41551.53
505.53	41691.96
505.71	42288.80
505.88	41972.83
506.06	41469.61
506.23	42536.90
506.41	42188.16
506.58	42333.27
506.76	42340.29
506.93	42815.42
507.11	42398.80
507.28	43185.22
507.46	43009.68
507.63	42965.21
507.81	43381.83
507.98	43222.67
508.16	43529.28
508.33	43810.15
508.50	43299.91
508.68	44023.14
508.85	44112.08
509.03	44039.52
509.20	44332.09
509.38	44589.55
509.55	44350.81
509.73	44493.58
509.90	44898.50
510.08	45024.89
510.25	44456.14
510.42	44612.95
510.60	45624.06
510.77	45106.80
510.95	45799.60
511.12	45350.22
511.30	45563.21
511.47	45694.28
511.64	45897.91
511.82	46361.33
511.99	46286.43
512.17	46248.99
512.34	45853.44
512.51	46401.12
512.69	46609.43
512.86	46244.30
513.04	46976.89
513.21	46784.97
513.38	46754.54
513.56	46955.83
513.73	47292.86
513.90	47395.85
514.08	46993.28
514.25	47559.69
514.43	47767.99
514.60	47814.80
514.77	48051.20
514.95	48203.33
515.12	47728.20
515.29	48062.90
515.47	47906.08
515.64	48568.46
515.81	48268.87
515.99	48165.88
516.16	48332.06
516.33	48275.89
516.51	48898.47
516.68	48722.93
516.85	48648.03
517.03	49041.24
517.20	49429.77
517.37	48947.62
517.54	49041.24
517.72	48921.88
517.89	49453.18
518.06	49801.92
518.24	49446.16
518.41	49408.71
518.58	49357.22
518.75	49827.66
518.93	49464.88
519.10	49911.92
519.27	49888.52
519.45	49918.95
519.62	49947.03
519.79	50347.26
519.96	50106.19
520.14	50450.25
520.31	50106.19
520.48	50436.20
520.65	50394.07
520.83	50754.52
521.00	50728.77
521.17	51084.53
521.34	51037.72
521.52	51201.56
521.69	51091.55
521.86	51236.67
522.03	51442.63
522.20	51601.79
522.38	51487.10
522.55	51430.93
522.72	51695.41
522.89	51372.42
523.07	52067.56
523.24	51704.77
523.41	51704.77
523.58	51868.61
523.75	52423.32
523.92	51936.49
524.10	51985.64
524.27	52275.87
524.44	52081.60
524.61	52268.84
524.78	52552.05
524.96	52046.49
525.13	52449.06
525.30	52570.77
525.47	52629.29
525.64	52657.37
525.81	52795.46
525.98	52715.89
526.16	52809.51
526.33	52886.74
526.50	53071.65
526.67	52678.44
526.84	53013.13
527.01	53223.78
527.18	53389.96
527.36	52980.37
527.53	53057.60
527.70	53633.38
527.87	53425.07
528.04	53506.99
528.21	53546.78
528.38	53616.99
528.55	53600.61
528.72	53469.54
528.89	53757.42
529.07	53560.82
529.24	53806.58
529.41	54120.21
529.58	53748.06
529.75	53771.47
529.92	53834.66
530.09	54057.01
530.26	54129.57
530.43	54270.00
530.60	54101.48
530.77	54007.86
530.94	54019.56
531.11	54000.84
531.28	54302.77
531.46	54569.59
531.63	54396.39
531.80	54358.94
531.97	54405.75
532.14	54726.41
532.31	54770.88
532.48	54890.24
532.65	54777.90
532.82	54660.87
532.99	54803.64
533.16	54644.49
533.33	54974.50
533.50	54955.78
533.67	55042.38
533.84	54990.89
534.01	55189.83
534.18	54997.91
534.35	55274.09
534.52	55208.56
534.69	55042.38
534.86	55498.78
535.03	55126.64
535.20	55274.09
535.37	55543.25
535.54	55451.97
535.71	55381.76
535.88	55447.29
536.05	55849.86
536.22	55451.97
536.38	55660.28
536.55	55590.06
536.72	55821.78
536.89	55753.90
537.06	55737.52
537.23	56147.11
537.40	55657.94
537.57	55679.00
537.74	55934.12
537.91	56004.34
538.08	56095.62
538.25	55908.38
538.42	55915.40
538.59	56142.43
538.75	55880.29
538.92	56285.20
539.09	56212.65
539.26	56397.55
539.43	56264.14
539.60	56484.15
539.77	56479.47
539.94	56542.66
540.11	56355.42
540.28	56577.77
540.44	56519.26
540.61	56774.37
540.78	56294.56
540.95	56601.18
541.12	56575.43
541.29	56381.16
541.46	56741.61
541.62	56643.30
541.79	56582.45
541.96	56664.37
542.13	56633.94
542.30	56729.90
542.47	56872.68
542.63	56914.81
542.80	56809.48
542.97	57003.75
543.14	57392.28
543.31	57385.25
543.48	57378.23
543.64	57602.92
543.81	57279.93
543.98	57509.30
544.15	57399.30
544.32	57488.24
544.48	57755.06
544.65	57490.58
544.82	57722.29
544.99	57666.12
545.16	57869.75
545.32	57521.01
545.49	57736.34
545.66	57902.51
545.83	57811.23
546.00	57818.25
546.16	57923.58
546.33	57701.23
546.50	57790.17
546.67	57778.46
546.83	57696.55
547.00	58049.97
547.17	57743.36
547.34	57846.34
547.50	57946.98
547.67	58211.46
547.84	58028.90
548.00	58396.37
548.17	58277.00
548.34	58122.52
548.51	58440.84
548.67	58333.17
548.84	58300.40
549.01	58162.31
549.18	58260.62
549.34	58309.77
549.51	58398.71
549.68	58550.84
549.84	58504.03
550.01	58550.84
550.18	58234.87
550.34	58595.31
550.51	58361.26
550.68	58578.93
550.84	58487.65
551.01	58862.13
551.18	58623.40
551.34	58794.26
551.51	58681.91
551.68	58457.22
551.84	58777.87
552.01	58651.48
552.18	58841.07
552.34	58705.32
552.51	58827.02
552.68	58674.89
552.84	58642.12
553.01	59121.93
553.18	58944.05
553.34	58831.71
553.51	59044.69
553.67	59000.22
553.84	59187.47
554.01	59032.99
554.17	59110.23
554.34	59121.93
554.51	59082.14
554.67	59032.99
554.84	59138.32
555.00	59100.87
555.17	59145.34
555.33	59110.23
555.50	59178.10
555.67	59164.06
555.83	59201.51
556.00	59292.79
556.16	59461.31
556.33	59316.20
556.50	59330.24
556.66	59465.99
556.83	59405.14
556.99	59554.93
557.16	59648.55
557.32	59498.76
557.49	59791.33
557.65	59330.24
557.82	59489.40
557.98	59622.81
558.15	59643.87
558.32	59636.85
558.48	59561.95
558.65	59697.70
558.81	59447.27
558.98	59686.00
559.14	59702.38
559.31	59887.29
559.47	59707.07
559.64	59889.63
559.80	59924.74
559.97	60004.31
560.13	59779.62
560.30	59798.35
560.46	59798.35
560.63	59875.58
560.79	59952.82
560.96	60076.87
561.12	59810.05
561.29	60011.34
561.45	59821.75
561.61	59999.63
561.78	60016.02
561.94	59838.14
562.11	59910.69
562.27	60060.49
562.44	60109.64
562.60	60214.96
562.77	60198.58
562.93	59819.41
563.10	60001.97
563.26	60037.08
563.42	60282.84
563.59	60154.11
563.75	60257.09
563.92	60100.28
564.08	60081.55
564.24	60317.95
564.41	60198.58
564.57	60229.01
564.74	60182.19
564.90	60296.88
565.07	60102.62
565.23	60367.10
565.39	60292.20
565.56	60446.68
565.72	60257.09
565.88	60268.79
566.05	60343.69
566.21	60268.79
566.38	60444.33
566.54	60198.58
566.70	60427.95
566.87	60521.57
567.03	60343.69
567.19	60500.51
567.36	60495.83
567.52	60353.05
567.68	60669.03
567.85	60526.25
568.01	60575.40
568.17	60376.46
568.34	60636.26
568.50	60388.16
568.66	60362.42
568.83	60516.89
568.99	60521.57
569.15	60432.63
569.32	60449.02
569.48	60343.69
569.64	60739.24
569.81	60439.65
569.97	60552.00
570.13	60638.60
570.30	60416.25
570.46	60568.38
570.62	60542.64
570.78	60549.66
570.95	60673.71
571.11	60708.82
571.27	60526.25
571.43	60793.07
571.60	60743.92
571.76	60629.24
571.92	60959.25
572.09	60669.03
572.25	60795.42
572.41	60865.63
572.57	60779.03
572.74	60814.14
572.90	60725.20
573.06	60734.56
573.22	60662.00
573.38	60800.10
573.55	60638.60
573.71	60886.70
573.87	60907.76
574.03	60814.14
574.20	60858.61
574.36	60835.20
574.52	60912.44
574.68	60954.57
574.84	60814.14
575.01	60863.29
575.17	60959.25
575.33	60874.99
575.49	60725.20
575.65	60886.70
575.82	61017.77
575.98	60715.84
576.14	61034.15
576.30	60994.36
576.46	60917.12
576.62	60935.85
576.79	60872.65
576.95	60774.35
577.11	60872.65
577.27	60963.93
577.43	60919.46
577.59	60797.76
577.75	60947.55
577.92	60764.99
578.08	60842.23
578.24	60973.30
578.40	60949.89
578.56	61080.96
578.72	60956.91
578.88	61118.41
579.04	60977.98
579.21	61125.43
579.37	60900.74
579.53	61244.80
579.69	60769.67
579.85	60767.33
580.01	61071.60
580.17	60790.73
580.33	60872.65
580.49	60987.34
580.65	61158.20
580.82	60867.97
580.98	61190.97
581.14	61095.00
581.30	61279.91
581.46	60982.66
581.62	60961.59
581.78	60938.19
581.94	61085.64
582.10	60999.04
582.26	61001.38
582.42	60992.02
582.58	61240.12
582.74	61059.90
582.90	61116.07
583.06	61162.88
583.22	61043.51
583.38	61137.13
583.54	61216.71
583.70	61272.88
583.86	61090.32
584.02	61001.38
584.18	61010.74
584.34	61104.37
584.50	61073.94
584.66	61048.19
584.82	60835.20
584.98	61116.07
585.14	61022.45
585.30	61212.03
585.46	61310.33
585.62	61205.01
585.78	61141.81
585.94	60931.17
586.10	61256.50
586.26	61338.42
586.42	61226.07
586.58	61172.24
586.74	61282.25
586.90	61069.26
587.06	61062.24
587.22	61357.14
587.38	61048.19
587.54	61249.48
587.70	61212.03
587.86	61158.20
588.02	61169.90
588.18	61305.65
588.34	61190.97
588.49	61212.03
