SpectraSuite Data File
++++++++++++++++++++++++++++++++++++
Date: Fri Oct 25 11:23:12 EDT 2013
User: price-jones
Dark Spectrum Present: No
Reference Spectrum Present: No
Number of Sampled Component Spectra: 1
Spectrometers: USB2+H05261
Integration Time (usec): 100000 (USB2+H05261)
Spectra Averaged: 1 (USB2+H05261)
Boxcar Smoothing: 0 (USB2+H05261)
Correct for Electrical Dark: No (USB2+H05261)
Strobe/Lamp Enabled: No (USB2+H05261)
Correct for Detector Non-linearity: No (USB2+H05261)
Correct for Stray Light: No (USB2+H05261)
Number of Pixels in Processed Spectrum: 2048
>>>>>Begin Processed Spectral Data<<<<<
365.73	224.69
365.92	224.69
366.12	224.69
366.32	133.41
366.52	107.66
366.72	128.73
366.91	145.11
367.11	145.11
367.31	170.86
367.51	175.54
367.70	77.24
367.90	88.94
368.10	147.45
368.30	138.09
368.49	107.66
368.69	135.75
368.89	159.16
369.09	212.99
369.28	102.98
369.48	175.54
369.68	159.16
369.87	147.45
370.07	184.90
370.27	189.58
370.47	365.12
370.66	638.97
370.86	650.67
371.06	622.58
371.25	711.52
371.45	725.57
371.65	678.76
371.84	653.01
372.04	660.03
372.24	697.48
372.44	695.14
372.63	660.03
372.83	765.36
373.03	777.06
373.22	812.17
373.42	791.10
373.62	765.36
373.81	793.44
374.01	727.91
374.21	795.78
374.40	763.01
374.60	858.98
374.79	741.95
374.99	753.65
375.19	861.32
375.38	837.91
375.58	882.38
375.78	793.44
375.97	835.57
376.17	854.30
376.37	858.98
376.56	828.55
376.76	828.55
376.95	840.25
377.15	891.74
377.35	877.70
377.54	891.74
377.74	882.38
377.93	891.74
378.13	908.13
378.33	868.34
378.52	976.00
378.72	992.39
378.91	994.73
379.11	877.70
379.31	947.92
379.50	959.62
379.70	976.00
379.89	978.34
380.09	1001.75
380.28	964.30
380.48	1048.56
380.68	976.00
380.87	1046.22
381.07	1039.20
381.26	1006.43
381.46	1062.60
381.65	966.64
381.85	936.21
382.04	1041.54
382.24	1083.67
382.43	1090.69
382.63	1041.54
382.83	1011.11
383.02	1055.58
383.22	1128.14
383.41	1057.92
383.61	1046.22
383.80	1160.91
384.00	1146.86
384.19	1130.48
384.39	1104.73
384.58	1188.99
384.78	1088.35
384.97	1109.41
385.17	1249.85
385.36	1184.31
385.56	1177.29
385.75	1123.46
385.95	1165.59
386.14	1167.93
386.34	1235.80
386.53	1153.88
386.72	1130.48
386.92	1191.33
387.11	1263.89
387.31	1200.69
387.50	1181.97
387.70	1266.23
387.89	1273.25
388.09	1228.78
388.28	1235.80
388.48	1320.06
388.67	1261.55
388.86	1378.58
389.06	1324.74
389.25	1299.00
389.45	1350.49
389.64	1359.85
389.84	1390.28
390.03	1359.85
390.22	1409.00
390.42	1383.26
390.61	1348.15
390.81	1467.52
391.00	1392.62
391.19	1387.94
391.39	1455.81
391.58	1404.32
391.78	1434.75
391.97	1577.52
392.16	1387.94
392.36	1572.84
392.55	1556.46
392.75	1516.67
392.94	1528.37
393.13	1619.65
393.33	1488.58
393.52	1640.72
393.71	1591.56
393.91	1495.60
394.10	1558.80
394.29	1689.87
394.49	1647.74
394.68	1600.93
394.88	1607.95
395.07	1710.93
395.26	1750.72
395.46	1675.82
395.65	1774.13
395.84	1741.36
396.04	1785.83
396.23	1879.45
396.42	1834.98
396.62	1762.42
396.81	1827.96
397.00	1795.19
397.19	1804.55
397.39	1851.36
397.58	1860.73
397.77	1809.23
397.97	1874.77
398.16	1842.00
398.35	1877.11
398.55	1771.79
398.74	1926.26
398.93	1970.73
399.12	1984.77
399.32	1923.92
399.51	2043.29
399.70	1996.48
399.90	1989.46
400.09	1991.80
400.28	2005.84
400.47	2019.88
400.67	2176.70
400.86	2118.18
401.05	2078.40
401.24	2179.04
401.44	2127.55
401.63	2101.80
401.82	2148.61
402.01	2218.83
402.21	2239.89
402.40	2127.55
402.59	2246.91
402.78	2324.15
402.97	2190.74
403.17	2289.04
403.36	2356.92
403.55	2342.88
403.74	2385.01
403.93	2387.35
404.13	2380.32
404.32	2396.71
404.51	2380.32
404.70	2422.45
404.89	2403.73
405.09	2382.67
405.28	2436.50
405.47	2448.20
405.66	2480.97
405.85	2602.68
406.05	2541.82
406.24	2616.72
406.43	2562.89
406.62	2752.47
406.81	2679.91
407.00	2619.06
407.20	2572.25
407.39	2609.70
407.58	2761.83
407.77	2733.75
407.96	2876.52
408.15	2799.28
408.34	2778.22
408.54	2843.75
408.73	2918.65
408.92	2815.66
409.11	2843.75
409.30	3014.61
409.49	2846.09
409.68	2946.73
409.87	3089.51
410.07	3117.59
410.26	3038.02
410.45	2944.39
410.64	3131.64
410.83	3094.19
411.02	3091.85
411.21	3234.62
411.40	3262.71
411.59	3293.13
411.78	3155.04
411.98	3276.75
412.17	3323.56
412.36	3332.92
412.55	3302.50
412.74	3421.86
412.93	3386.76
413.12	3349.31
413.31	3625.49
413.50	3433.57
413.69	3461.65
413.88	3522.51
414.07	3459.31
414.26	3681.66
414.45	3674.64
414.64	3838.48
414.83	3873.59
415.02	3866.56
415.22	3880.61
415.41	3737.84
415.60	3861.88
415.79	3946.14
415.98	4007.00
416.17	4072.53
416.36	3829.12
416.55	3985.93
416.74	3943.80
416.93	4182.54
417.12	4145.09
417.31	4273.82
417.50	4250.41
417.69	4344.03
417.88	4269.14
418.07	4351.06
418.26	4344.03
418.45	4404.89
418.64	4503.19
418.83	4580.43
419.02	4353.40
419.21	4589.79
419.39	4667.03
419.58	4430.63
419.77	4610.86
419.96	4559.36
420.15	4620.22
420.34	4472.76
420.53	4781.71
420.72	4718.52
420.91	4833.21
421.10	4716.18
421.29	4807.46
421.48	4861.29
421.67	4758.31
421.86	4699.80
422.05	4826.18
422.24	4772.35
422.43	5048.54
422.61	4945.55
422.80	5011.09
422.99	5027.47
423.18	5011.09
423.37	5100.03
423.56	4929.17
423.75	5069.60
423.94	4896.40
424.13	4704.48
424.32	4667.03
424.50	5093.01
424.69	5090.67
424.88	5167.90
425.07	5015.77
425.26	4947.89
425.45	5006.41
425.64	4894.06
425.83	5022.79
426.01	4997.04
426.20	5308.34
426.39	5123.43
426.58	5036.83
426.77	5095.35
426.96	5034.49
427.15	5156.20
427.33	5458.13
427.52	5193.65
427.71	5235.78
427.90	5401.96
428.09	5462.81
428.28	5434.72
428.46	5474.51
428.65	5268.55
428.84	5521.32
429.03	5687.50
429.22	5362.17
429.40	5565.79
429.59	5540.05
429.78	5242.80
429.97	5289.61
430.16	5448.77
430.34	5753.04
430.53	5891.13
430.72	5659.42
430.91	5680.48
431.10	5809.21
431.28	5654.73
431.47	5764.74
431.66	5961.34
431.85	5792.83
432.03	6010.50
432.22	6047.94
432.41	6029.22
432.60	5907.51
432.79	5874.74
432.97	5975.39
433.16	5926.24
433.35	6033.90
433.54	6118.16
433.72	6235.19
433.91	6249.23
434.10	6291.36
434.28	6249.23
434.47	6277.32
434.66	6321.79
434.85	6352.21
435.03	6265.61
435.22	6363.92
435.41	6464.56
435.59	6595.63
435.78	6469.24
435.97	6558.18
436.16	6307.74
436.34	6579.25
436.53	6602.65
436.72	6572.22
436.90	6448.18
437.09	6665.85
437.28	6272.64
437.46	6759.47
437.65	6644.78
437.84	6899.90
438.02	6794.58
438.21	6829.68
438.40	6778.19
438.58	7061.40
438.77	7061.40
438.96	7016.93
439.14	7131.61
439.33	7260.34
439.52	7218.21
439.70	7213.53
439.89	7424.18
440.08	7485.03
440.26	7510.78
440.45	7407.80
440.63	7365.67
440.82	7672.28
441.01	7623.12
441.19	7723.77
441.38	7885.26
441.57	7964.84
441.75	7845.48
441.94	8039.74
442.12	7997.61
442.31	7836.11
442.50	8124.00
442.68	7983.57
442.87	8046.76
443.05	8116.98
443.24	8252.73
443.43	8372.10
443.61	8140.38
443.80	8489.12
443.98	8147.40
444.17	7903.99
444.35	8189.53
444.54	8414.23
444.73	8526.57
444.91	8545.30
445.10	8533.59
445.28	8388.48
445.47	8381.46
445.65	8428.27
445.84	8521.89
446.02	8568.70
446.21	8381.46
446.39	8489.12
446.58	8542.96
446.77	8643.60
446.95	8355.71
447.14	8568.70
447.32	8524.23
447.51	8493.80
447.69	8386.14
447.88	8659.98
448.06	8526.57
448.25	8587.43
448.43	8631.90
448.62	8800.41
448.80	8571.04
448.99	8461.04
449.17	8791.05
449.36	8500.83
449.54	8959.57
449.73	9043.83
449.91	9029.79
450.10	8980.64
450.28	9341.08
450.46	9142.13
450.65	9018.08
450.83	8971.27
451.02	9174.90
451.20	9245.12
451.39	9149.15
451.57	9469.81
451.76	9249.80
451.94	9128.09
452.13	9610.24
452.31	9423.00
452.49	9245.12
452.68	9448.74
452.86	9305.97
453.05	9708.54
453.23	9551.73
453.42	9713.22
453.60	9509.60
453.78	9432.36
453.97	9430.02
454.15	9495.55
454.34	9493.21
454.52	9804.50
454.70	9671.09
454.89	9628.96
455.07	9811.53
455.26	9757.69
455.44	10008.13
455.62	9823.23
455.81	9951.96
455.99	10136.86
456.17	10202.40
456.36	10066.64
456.54	10345.17
456.73	10050.26
456.91	10590.92
457.09	10518.37
457.28	10630.71
457.46	10600.29
457.64	10541.77
457.83	10637.73
458.01	10516.03
458.19	10913.92
458.38	10714.97
458.56	10731.36
458.74	10736.04
458.93	10780.51
459.11	10747.74
459.29	10885.83
459.48	10956.05
459.66	10789.87
459.84	10981.79
460.03	11286.06
460.21	11047.33
460.39	11213.51
460.57	11117.54
460.76	11335.21
460.94	11389.05
461.12	11286.06
461.31	11407.77
461.49	11337.56
461.67	10995.84
461.85	11674.59
462.04	11314.15
462.22	11667.57
462.40	11744.81
462.59	11681.61
462.77	11705.02
462.95	11550.54
463.13	11447.56
463.32	11751.83
463.50	11616.08
463.68	11777.58
463.86	11910.99
464.05	11733.11
464.23	11754.17
464.41	12142.70
464.59	11693.32
464.78	12145.04
464.96	11964.82
465.14	12077.16
465.32	12198.87
465.50	12308.88
465.69	12367.39
465.87	12077.16
466.05	12325.26
466.23	12273.77
466.41	12271.43
466.60	12470.37
466.78	12355.69
466.96	12311.22
467.14	12257.39
467.32	12409.52
467.51	12589.74
467.69	12203.55
467.87	12444.63
468.05	12594.42
468.23	12564.00
468.41	12617.83
468.60	12840.18
468.78	12936.14
468.96	12688.04
469.14	12753.58
469.32	13242.75
469.50	12842.52
469.69	13104.66
469.87	13191.26
470.05	13109.34
470.23	13200.62
470.41	13242.75
470.59	13474.46
470.77	13219.35
470.95	13331.69
471.14	13455.74
471.32	13310.63
471.50	13631.28
471.68	13673.41
471.86	13621.92
472.04	13848.95
472.22	14057.26
472.40	13762.35
472.58	13844.27
472.77	14480.89
472.95	14193.01
473.13	14579.20
473.31	13884.06
473.49	14415.36
473.67	14277.27
473.85	14345.14
474.03	14651.75
474.21	14586.22
474.39	15016.88
474.57	14696.22
474.75	14963.04
474.93	15014.54
475.12	15300.08
475.30	15159.65
475.48	15080.07
475.66	15332.85
475.84	15197.10
476.02	15454.56
476.20	15445.20
476.38	15730.74
476.56	16353.32
476.74	15925.00
476.92	16109.91
477.10	16060.76
477.28	16154.38
477.46	16252.68
477.64	16355.66
477.82	16823.77
478.00	17191.23
478.18	16812.07
478.36	17111.66
478.54	17106.98
478.72	17378.48
478.90	17326.99
479.08	17591.47
479.26	18022.12
479.44	17687.43
479.62	17935.53
479.80	18197.67
479.98	18466.83
480.16	18869.40
480.34	18635.35
480.52	18941.96
480.70	18719.60
480.88	18633.00
481.06	18829.61
481.24	18778.12
481.41	19197.07
481.59	19611.35
481.77	19662.84
481.95	19693.27
482.13	19924.98
482.31	19688.59
482.49	20243.29
482.67	20482.03
482.85	20896.30
483.03	20725.44
483.21	20748.85
483.39	20919.71
483.57	21142.06
483.74	21336.32
483.92	21219.30
484.10	21462.71
484.28	21797.41
484.46	22354.46
484.64	22679.79
484.82	22574.47
485.00	22338.07
485.18	22740.64
485.35	23124.49
485.53	22862.35
485.71	23049.60
485.89	23782.18
486.07	23531.75
486.25	23527.06
486.43	23814.95
486.61	23906.23
486.78	24095.82
486.96	24538.18
487.14	24879.89
487.32	24781.59
487.50	24992.24
487.68	24830.74
487.85	25556.31
488.03	25933.14
488.21	26319.32
488.39	25975.27
488.57	26146.12
488.75	26426.99
488.92	26630.62
489.10	27084.68
489.28	26553.38
489.46	27173.62
489.64	27314.05
489.81	27908.55
489.99	28156.64
490.17	27955.36
490.35	28409.42
490.53	28367.29
490.70	28554.54
490.88	28624.75
491.06	29465.00
491.24	29127.97
491.41	29174.78
491.59	29596.07
491.77	29692.04
491.95	29907.37
492.13	29916.73
492.30	30050.14
492.48	30618.89
492.66	30359.09
492.84	31229.77
493.01	30937.20
493.19	30951.24
493.37	31281.26
493.54	31250.83
493.72	32034.91
493.90	31461.48
494.08	32212.79
494.25	32217.47
494.43	32364.93
494.61	32753.46
494.79	32758.14
494.96	32591.96
495.14	33291.78
495.32	33439.23
495.49	33738.82
495.67	33638.18
495.85	33652.22
496.02	34539.29
496.20	34417.58
496.38	34223.31
496.55	34279.49
496.73	34981.65
496.91	34740.57
497.09	34918.45
497.26	35370.18
497.44	35442.73
497.62	35318.68
497.79	36004.46
497.97	36006.80
498.14	36198.73
498.32	37064.72
498.50	36264.26
498.67	36870.46
498.85	36439.80
499.03	37282.39
499.20	36931.31
499.38	37179.41
499.56	37457.93
499.73	37539.85
499.91	37600.71
500.08	37743.48
500.26	37923.70
500.44	38380.10
500.61	38424.57
500.79	38057.11
500.97	38431.60
501.14	38761.61
501.32	38466.70
501.49	38829.49
501.67	39222.70
501.84	39372.49
502.02	39391.22
502.20	38979.28
502.37	40088.70
502.55	39440.37
502.72	40226.79
502.90	39821.87
503.07	39627.61
503.25	40257.21
503.43	40023.16
503.60	40320.41
503.78	40575.53
503.95	40655.11
504.13	40900.86
504.30	40795.54
504.48	41020.23
504.65	40856.39
504.83	40622.34
505.01	41682.60
505.18	41038.95
505.36	41642.81
505.53	41610.04
505.71	42143.69
505.88	42031.34
506.06	41345.56
506.23	42366.04
506.41	42253.69
506.58	42454.98
506.76	42403.49
506.93	42747.54
507.11	42857.55
507.28	43225.01
507.46	43171.18
507.63	42913.72
507.81	43709.50
507.98	43625.25
508.16	43159.48
508.33	43606.52
508.50	44205.70
508.68	44030.16
508.85	44341.45
509.03	44383.58
509.20	44821.26
509.38	44666.78
509.55	45144.25
509.73	44594.23
509.90	44825.94
510.08	44933.60
510.25	44793.17
510.42	45317.45
510.60	45553.85
510.77	45780.88
510.95	45808.96
511.12	45804.28
511.30	45158.30
511.47	45614.70
511.64	45886.20
511.82	46340.27
511.99	46169.41
512.17	46272.39
512.34	46323.88
512.51	46419.84
512.69	46761.56
512.86	46553.26
513.04	46761.56
513.21	46972.21
513.38	46944.12
513.56	47285.84
513.73	47224.99
513.90	46880.93
514.08	47454.36
514.25	47861.61
514.43	48006.73
514.60	47892.04
514.77	47510.53
514.95	48023.11
515.12	47489.47
515.29	47878.00
515.47	48549.73
515.64	48278.23
515.81	48523.99
515.99	48559.09
516.16	48732.29
516.33	48451.43
516.51	49144.23
516.68	48633.99
516.85	48678.46
517.03	49076.35
517.20	49247.21
517.37	49113.80
517.54	49118.48
517.72	49347.86
517.89	49492.97
518.06	49504.67
518.24	49783.19
518.41	49614.68
518.58	49464.88
518.75	49249.55
518.93	49787.88
519.10	49813.62
519.27	50286.41
519.45	50038.31
519.62	50045.33
519.79	49886.18
519.96	50277.05
520.14	50621.11
520.31	50141.30
520.48	50422.16
520.65	50637.49
520.83	50684.30
521.00	50780.26
521.17	50864.52
521.34	50934.74
521.52	50831.75
521.69	51271.78
521.86	51283.48
522.03	51330.29
522.20	51482.42
522.38	51615.83
522.55	51863.93
522.72	51657.96
522.89	51372.42
523.07	51973.94
523.24	51622.86
523.41	52229.05
523.58	51877.97
523.75	52137.77
523.92	52399.91
524.10	52123.73
524.27	52568.43
524.44	52371.83
524.61	52652.69
524.78	52470.13
524.96	52257.14
525.13	52425.66
525.30	52830.57
525.47	52746.31
525.64	52659.71
525.81	53001.43
525.98	53113.78
526.16	52865.68
526.33	52659.71
526.50	53469.54
526.67	53092.71
526.84	53092.71
527.01	53275.27
527.18	53165.27
527.36	53469.54
527.53	53277.61
527.70	53635.72
527.87	53514.01
528.04	53450.81
528.21	53719.98
528.38	53598.27
528.55	53736.36
528.72	53364.21
528.89	53874.45
529.07	53825.30
529.24	53612.31
529.41	53813.60
529.58	54103.82
529.75	53698.91
529.92	53904.88
530.09	54162.34
530.26	54321.49
530.43	54197.44
530.60	53998.50
530.77	54162.34
530.94	54354.26
531.11	54270.00
531.28	54171.70
531.46	54433.84
531.63	54700.66
531.80	54438.52
531.97	54691.30
532.14	54639.81
532.31	54892.58
532.48	54726.41
532.65	55103.23
532.82	54789.60
532.99	54901.95
533.16	54787.26
533.33	55159.41
533.50	55199.19
533.67	55105.57
533.84	54883.22
534.01	55393.46
534.18	55290.48
534.35	55580.70
534.52	55512.83
534.69	55475.38
534.86	55688.37
535.03	55152.38
535.20	55386.44
535.37	55693.05
535.54	55508.14
535.71	55451.97
535.88	55437.93
536.05	55767.94
536.22	55992.64
536.38	55723.47
536.55	55938.80
536.72	56074.55
536.89	55475.38
537.06	55861.57
537.23	55709.43
537.40	55936.46
537.57	55971.57
537.74	56044.13
537.91	56341.38
538.08	56147.11
538.25	55987.95
538.42	55817.10
538.59	56193.92
538.75	56074.55
538.92	56217.33
539.09	56449.04
539.26	56444.36
539.43	56264.14
539.60	56463.08
539.77	56624.58
539.94	56638.62
540.11	56636.28
540.28	56704.16
540.44	56835.23
540.61	56853.95
540.78	56516.92
540.95	56725.22
541.12	56619.90
541.29	56657.35
541.46	56846.93
541.62	56587.13
541.79	56863.32
541.96	56694.80
542.13	56886.72
542.30	56947.57
542.47	57195.67
542.63	57242.48
542.80	57015.45
542.97	57186.31
543.14	57497.60
543.31	57244.82
543.48	57279.93
543.64	57712.93
543.81	57279.93
543.98	57443.77
544.15	57378.23
544.32	57471.85
544.48	57846.34
544.65	57593.56
544.82	57635.69
544.99	57485.90
545.16	57565.48
545.32	57631.01
545.49	57921.24
545.66	58042.95
545.83	57869.75
546.00	58010.18
546.16	57895.49
546.33	57631.01
546.50	57621.65
546.67	58071.03
546.83	57729.31
547.00	57930.60
547.17	57867.40
547.34	58131.89
547.50	58143.59
547.67	58368.28
547.84	58092.10
548.00	58211.46
548.17	58511.05
548.34	58382.32
548.51	58234.87
548.67	58583.61
548.84	58248.91
549.01	58344.87
549.18	58183.38
549.34	58408.07
549.51	58539.14
549.68	58569.57
549.84	58649.14
550.01	58635.10
550.18	58454.88
550.34	58691.27
550.51	58866.81
550.68	58710.00
550.84	58527.44
551.01	58756.81
551.18	58609.35
551.34	58791.92
551.51	58742.77
551.68	58578.93
551.84	58787.24
552.01	58614.04
552.18	59016.61
552.34	58815.32
552.51	59063.42
552.68	58705.32
552.84	58951.07
553.01	59201.51
553.18	59068.10
553.34	59079.80
553.51	59044.69
553.67	58988.52
553.84	59346.62
554.01	59248.32
554.17	59098.53
554.34	59110.23
554.51	59245.98
554.67	59283.43
554.84	59159.38
555.00	59262.36
555.17	59175.76
555.33	59458.97
555.50	59145.34
555.67	59325.56
555.83	59171.08
556.00	59344.28
556.16	59648.55
556.33	59625.15
556.50	59384.07
556.66	59594.72
556.83	59370.03
556.99	59772.60
557.16	59669.62
557.32	59538.55
557.49	59800.69
557.65	59571.32
557.82	59662.60
557.98	59721.11
558.15	59627.49
558.32	59454.29
558.48	59746.86
558.65	59716.43
558.81	59695.36
558.98	59739.83
559.14	59772.60
559.31	59772.60
559.47	59765.58
559.64	59882.61
559.80	59931.76
559.97	60020.70
560.13	59627.49
560.30	59908.35
560.46	59999.63
560.63	60006.65
560.79	59859.20
560.96	60144.75
561.12	60032.40
561.29	60055.81
561.45	60016.02
561.61	59952.82
561.78	60067.51
561.94	59903.67
562.11	60032.40
562.27	60069.85
562.44	60177.51
562.60	60460.72
562.77	60039.42
562.93	60081.55
563.10	60280.50
563.26	60198.58
563.42	60378.80
563.59	60041.76
563.75	60062.83
563.92	60334.33
564.08	60261.77
564.24	60343.69
564.41	60406.89
564.57	60266.45
564.74	60219.64
564.90	60287.52
565.07	60327.31
565.23	60294.54
565.39	60170.49
565.56	60617.53
565.72	60310.92
565.88	60135.38
566.05	60371.78
566.21	60477.10
566.38	60427.95
566.54	60481.78
566.70	60617.53
566.87	60746.26
567.03	60271.14
567.19	60659.66
567.36	60491.15
567.52	60601.15
567.68	60767.33
567.85	60760.31
568.01	60636.26
568.17	60481.78
568.34	60516.89
568.50	60561.36
568.66	60547.32
568.83	60676.05
568.99	60261.77
569.15	60739.24
569.32	60743.92
569.48	60573.06
569.64	60645.62
569.81	60463.06
569.97	60554.34
570.13	60603.49
570.30	60711.16
570.46	60781.37
570.62	60706.47
570.78	60914.78
570.95	60591.79
571.11	60807.12
571.27	60750.94
571.43	60654.98
571.60	61027.13
571.76	60802.44
571.92	60830.52
572.09	60816.48
572.25	60725.20
572.41	60605.83
572.57	60828.18
572.74	60917.12
572.90	60903.08
573.06	60816.48
573.22	60781.37
573.38	60926.49
573.55	60867.97
573.71	61027.13
573.87	60933.51
574.03	60502.85
574.20	60963.93
574.36	60891.38
574.52	60933.51
574.68	60844.57
574.84	61066.92
575.01	61003.72
575.17	60816.48
575.33	60940.53
575.49	60924.14
575.65	60809.46
575.82	61027.13
575.98	60956.91
576.14	61055.21
576.30	60961.59
576.46	61080.96
576.62	60935.85
576.79	60856.27
576.95	60807.12
577.11	61008.40
577.27	61099.68
577.43	61022.45
577.59	60938.19
577.75	60928.83
577.92	60837.54
578.08	61071.60
578.24	60994.36
578.40	61116.07
578.56	61153.52
578.72	61017.77
578.88	61038.83
579.04	61130.11
579.21	61052.87
579.37	61326.72
579.53	61296.29
579.69	60968.61
579.85	60989.68
580.01	61001.38
580.17	61010.74
580.33	61090.32
580.49	61041.17
580.65	61240.12
580.82	60994.36
580.98	60769.67
581.14	60912.44
581.30	61148.84
581.46	60996.70
581.62	61090.32
581.78	61144.16
581.94	61118.41
582.10	61345.44
582.26	61109.05
582.42	61324.38
582.58	61066.92
582.74	60999.04
582.90	61216.71
583.06	61226.07
583.22	60905.42
583.38	61247.14
583.54	60956.91
583.70	60994.36
583.86	61200.33
584.02	61169.90
584.18	61298.63
584.34	61153.52
584.50	61134.79
584.66	61034.15
584.82	61069.26
584.98	61286.93
585.14	61289.27
585.30	60896.06
585.46	61254.16
585.62	61244.80
585.78	61394.59
585.94	61024.79
586.10	61254.16
586.26	61205.01
586.42	61230.75
586.58	61413.32
586.74	61366.51
586.90	61172.24
587.06	61029.47
587.22	61317.35
587.38	61095.00
587.54	61364.17
587.70	61338.42
587.86	61291.61
588.02	61249.48
588.18	61368.85
588.34	61167.56
588.49	61165.22
