SpectraSuite Data File
++++++++++++++++++++++++++++++++++++
Date: Fri Oct 25 11:23:56 EDT 2013
User: price-jones
Dark Spectrum Present: No
Reference Spectrum Present: No
Number of Sampled Component Spectra: 1
Spectrometers: USB2+H05261
Integration Time (usec): 100000 (USB2+H05261)
Spectra Averaged: 1 (USB2+H05261)
Boxcar Smoothing: 0 (USB2+H05261)
Correct for Electrical Dark: No (USB2+H05261)
Strobe/Lamp Enabled: No (USB2+H05261)
Correct for Detector Non-linearity: No (USB2+H05261)
Correct for Stray Light: No (USB2+H05261)
Number of Pixels in Processed Spectrum: 2048
>>>>>Begin Processed Spectral Data<<<<<
365.73	215.33
365.92	215.33
366.12	215.33
366.32	88.94
366.52	128.73
366.72	175.54
366.91	84.26
367.11	145.11
367.31	117.03
367.51	110.01
367.70	152.13
367.90	161.50
368.10	173.20
368.30	112.35
368.49	79.58
368.69	177.88
368.89	182.56
369.09	124.05
369.28	201.29
369.48	131.07
369.68	138.09
369.87	161.50
370.07	203.63
370.27	212.99
370.47	353.42
370.66	566.41
370.86	638.97
371.06	653.01
371.25	638.97
371.45	631.94
371.65	758.33
371.84	692.80
372.04	608.54
372.24	697.48
372.44	650.67
372.63	695.14
372.83	725.57
373.03	690.46
373.22	753.65
373.42	737.27
373.62	760.67
373.81	725.57
374.01	779.40
374.21	837.91
374.40	711.52
374.60	805.14
374.79	837.91
374.99	849.61
375.19	819.19
375.38	877.70
375.58	842.59
375.78	880.04
375.97	753.65
376.17	945.58
376.37	781.74
376.56	926.85
376.76	793.44
376.95	812.17
377.15	917.49
377.35	882.38
377.54	837.91
377.74	870.68
377.93	809.83
378.13	917.49
378.33	873.02
378.52	877.70
378.72	999.41
378.91	908.13
379.11	933.87
379.31	940.90
379.50	950.26
379.70	976.00
379.89	985.37
380.09	950.26
380.28	938.55
380.48	929.19
380.68	950.26
380.87	1001.75
381.07	971.32
381.26	973.66
381.46	990.05
381.65	1053.24
381.85	1018.13
382.04	992.39
382.24	1071.97
382.43	1109.41
382.63	1123.46
382.83	1011.11
383.02	1107.07
383.22	1062.60
383.41	994.73
383.61	1142.18
383.80	1102.39
384.00	1048.56
384.19	1100.05
384.39	1170.27
384.58	1053.24
384.78	1137.50
384.97	1200.69
385.17	1233.46
385.36	1081.33
385.56	1116.44
385.75	1144.52
385.95	1132.82
386.14	1203.04
386.34	1219.42
386.53	1179.63
386.72	1193.67
386.92	1275.59
387.11	1179.63
387.31	1200.69
387.50	1280.27
387.70	1249.85
387.89	1259.21
388.09	1275.59
388.28	1310.70
388.48	1310.70
388.67	1284.95
388.86	1334.11
389.06	1263.89
389.25	1432.41
389.45	1357.51
389.64	1390.28
389.84	1294.32
390.03	1404.32
390.22	1404.32
390.42	1390.28
390.61	1401.98
390.81	1254.53
391.00	1444.11
391.19	1378.58
391.39	1352.83
391.58	1483.90
391.78	1385.60
391.97	1444.11
392.16	1378.58
392.36	1570.50
392.55	1514.33
392.75	1511.99
392.94	1617.31
393.13	1446.45
393.33	1526.03
393.52	1516.67
393.71	1572.84
393.91	1610.29
394.10	1495.60
394.29	1451.13
394.49	1528.37
394.68	1610.29
394.88	1650.08
395.07	1575.18
395.26	1671.14
395.46	1694.55
395.65	1652.42
395.84	1755.40
396.04	1741.36
396.23	1654.76
396.42	1675.82
396.62	1701.57
396.81	1753.06
397.00	1788.17
397.19	1736.68
397.39	1884.13
397.58	1788.17
397.77	1769.44
397.97	1701.57
398.16	1867.75
398.35	1947.33
398.55	1898.17
398.74	1870.09
398.93	1930.94
399.12	1912.22
399.32	1930.94
399.51	1989.46
399.70	2019.88
399.90	1996.48
400.09	1944.99
400.28	1989.46
400.47	2031.58
400.67	2125.21
400.86	2047.97
401.05	2080.74
401.24	2200.10
401.44	2066.69
401.63	2085.42
401.82	2080.74
402.01	2162.66
402.21	2195.42
402.40	2202.44
402.59	2129.89
402.78	2118.18
402.97	2122.87
403.17	2296.07
403.36	2183.72
403.55	2312.45
403.74	2284.36
403.93	2427.14
404.13	2471.61
404.32	2452.88
404.51	2272.66
404.70	2408.41
404.89	2385.01
405.09	2497.35
405.28	2462.24
405.47	2406.07
405.66	2558.21
405.85	2541.82
406.05	2495.01
406.24	2595.65
406.43	2525.44
406.62	2663.53
406.81	2658.85
407.00	2649.49
407.20	2630.76
407.39	2600.34
407.58	2740.77
407.77	2771.19
407.96	2722.04
408.15	2743.11
408.34	2682.25
408.54	2825.03
408.73	2815.66
408.92	2747.79
409.11	2946.73
409.30	2888.22
409.49	2855.45
409.68	2925.67
409.87	2930.35
410.07	3023.97
410.26	3103.55
410.45	3038.02
410.64	3049.72
410.83	3035.67
411.02	3180.79
411.21	3187.81
411.40	3243.98
411.59	3082.49
411.78	3272.07
411.98	3276.75
412.17	3241.64
412.36	3220.58
412.55	3353.99
412.74	3407.82
412.93	3295.47
413.12	3267.39
413.31	3536.55
413.50	3384.41
413.69	3466.33
413.88	3719.11
414.07	3597.40
414.26	3705.07
414.45	3571.66
414.64	3627.83
414.83	3662.94
415.02	3684.00
415.22	3847.84
415.41	3899.33
415.60	3847.84
415.79	3894.65
415.98	3864.22
416.17	3950.82
416.36	3971.89
416.55	3974.23
416.74	4091.26
416.93	4004.66
417.12	4102.96
417.31	4212.96
417.50	4180.20
417.69	4430.63
417.88	4304.25
418.07	4353.40
418.26	4250.41
418.45	4269.14
418.64	4421.27
418.83	4257.43
419.02	4304.25
419.21	4461.06
419.39	4468.08
419.58	4512.55
419.77	4521.92
419.96	4629.58
420.15	4578.09
420.34	4641.28
420.53	4706.82
420.72	4624.90
420.91	4667.03
421.10	4720.86
421.29	4706.82
421.48	4615.54
421.67	4823.84
421.86	4835.55
422.05	4823.84
422.24	4901.08
422.43	4957.25
422.61	4961.94
422.80	4959.60
422.99	4865.97
423.18	4926.83
423.37	5111.73
423.56	4826.18
423.75	5018.11
423.94	4908.10
424.13	4643.62
424.32	4840.23
424.50	4973.64
424.69	5013.43
424.88	4994.70
425.07	4997.04
425.26	4849.59
425.45	5069.60
425.64	4954.91
425.83	5069.60
426.01	5191.31
426.20	4947.89
426.39	5107.05
426.58	4971.30
426.77	5121.09
426.96	5109.39
427.15	5083.64
427.33	5268.55
427.52	5118.75
427.71	5238.12
427.90	5139.82
428.09	5394.93
428.28	5266.21
428.46	5186.63
428.65	5385.57
428.84	5591.54
429.03	5533.03
429.22	5348.12
429.40	5289.61
429.59	5399.62
429.78	5427.70
429.97	5231.10
430.16	5469.83
430.34	5563.45
430.53	5741.33
430.72	5802.19
430.91	5694.52
431.10	5657.07
431.28	5816.23
431.47	5746.02
431.66	5980.07
431.85	5624.31
432.03	5968.37
432.22	5968.37
432.41	5834.96
432.60	6026.88
432.79	5980.07
432.97	5907.51
433.16	5973.05
433.35	5928.58
433.54	6221.14
433.72	6251.57
433.91	6176.67
434.10	6267.95
434.28	6059.65
434.47	6232.85
434.66	6164.97
434.85	6300.72
435.03	6406.05
435.22	6228.17
435.41	6420.09
435.59	6380.30
435.78	6534.78
435.97	6509.03
436.16	6401.37
436.34	6387.32
436.53	6338.17
436.72	6726.70
436.90	6483.28
437.09	6640.10
437.28	6462.22
437.46	6612.01
437.65	6686.91
437.84	6754.79
438.02	6710.32
438.21	6733.72
438.40	6539.46
438.58	6918.62
438.77	6867.13
438.96	7014.59
439.14	7047.35
439.33	7276.73
439.52	7255.66
439.70	7049.69
439.89	7426.52
440.08	7506.10
440.26	7344.60
440.45	7358.64
440.63	7506.10
440.82	7637.17
441.01	7485.03
441.19	7698.02
441.38	7609.08
441.57	7705.04
441.75	7754.19
441.94	8013.99
442.12	7978.89
442.31	8105.28
442.50	8105.28
442.68	8091.23
442.87	8229.32
443.05	8056.12
443.24	8269.11
443.43	8219.96
443.61	8269.11
443.80	8423.59
443.98	7971.86
444.17	7859.52
444.35	8376.78
444.54	8339.33
444.73	8299.54
444.91	8210.60
445.10	8493.80
445.28	8393.16
445.47	8285.50
445.65	8229.32
445.84	8299.54
446.02	8552.32
446.21	8390.82
446.39	8535.93
446.58	8610.83
446.77	8571.04
446.95	8276.13
447.14	8465.72
447.32	8596.79
447.51	8615.51
447.69	8528.91
447.88	8606.15
448.06	8542.96
448.25	8491.46
448.43	8758.28
448.62	8472.74
448.80	8557.00
448.99	8744.24
449.17	8765.31
449.36	8624.87
449.54	8800.41
449.73	8809.78
449.91	9043.83
450.10	8795.73
450.28	8940.85
450.46	9125.75
450.65	9163.20
450.83	9214.69
451.02	9219.37
451.20	9123.41
451.39	9345.76
451.57	9165.54
451.76	9179.58
451.94	9219.37
452.13	9451.08
452.31	9305.97
452.49	9217.03
452.68	9415.98
452.86	9308.31
453.05	9369.16
453.23	9490.87
453.42	9439.38
453.60	9486.19
453.78	9451.08
453.97	9359.80
454.15	9298.95
454.34	9474.49
454.52	9685.14
454.70	9692.16
454.89	9811.53
455.07	9811.53
455.26	9853.66
455.44	9877.06
455.62	9839.61
455.81	9994.09
455.99	9942.60
456.17	10204.74
456.36	9977.70
456.54	10115.80
456.73	10501.98
456.91	10340.49
457.09	10626.03
457.28	10509.01
457.46	10277.29
457.64	10532.41
457.83	10391.98
458.01	10373.25
458.19	10668.16
458.38	10417.72
458.56	10841.36
458.74	10509.01
458.93	10523.05
459.11	10895.19
459.29	10871.79
459.48	10827.32
459.66	10815.62
459.84	10874.13
460.03	11213.51
460.21	11002.86
460.39	10932.64
460.57	11073.07
460.76	11236.91
460.94	11253.30
461.12	11220.53
461.31	11246.27
461.49	11077.76
461.67	11173.72
461.85	11463.94
462.04	11140.95
462.22	11573.95
462.40	11733.11
462.59	11515.44
462.77	11536.50
462.95	11573.95
463.13	11756.51
463.32	11632.46
463.50	11623.10
463.68	11861.84
463.86	11903.96
464.05	11894.60
464.23	11681.61
464.41	12102.91
464.59	11754.17
464.78	12133.34
464.96	12086.53
465.14	11885.24
465.32	12016.31
465.50	12222.28
465.69	12273.77
465.87	12215.26
466.05	11941.41
466.23	12070.14
466.41	12264.41
466.60	12444.63
466.78	12201.21
466.96	12170.79
467.14	12250.36
467.32	12372.07
467.51	12173.13
467.69	12194.19
467.87	12484.42
468.05	12542.93
468.23	12535.91
468.41	12285.47
468.60	12601.44
468.78	12669.32
468.96	12559.31
469.14	12767.62
469.32	12975.93
469.50	12765.28
469.69	13032.10
469.87	13090.62
470.05	12954.87
470.23	13268.50
470.41	13025.08
470.59	13130.41
470.77	13149.13
470.95	13277.86
471.14	13743.63
471.32	13118.70
471.50	13532.98
471.68	13544.68
471.86	13596.17
472.04	13954.27
472.22	13909.80
472.40	13973.00
472.58	13989.38
472.77	14012.79
472.95	14057.26
473.13	14785.16
473.31	14391.95
473.49	14171.94
473.67	14125.13
473.85	14225.78
474.03	14738.35
474.21	14396.64
474.39	14813.25
474.57	14656.43
474.75	14820.27
474.93	14792.19
475.12	14602.60
475.30	15253.27
475.48	15309.44
475.66	15229.87
475.84	15190.08
476.02	15351.57
476.20	15356.25
476.38	15480.30
476.56	15932.03
476.74	15948.41
476.92	15829.04
477.10	15889.90
477.28	16264.38
477.46	16004.58
477.64	16498.44
477.82	16240.98
478.00	16802.71
478.18	16676.32
478.36	17032.08
478.54	17214.64
478.72	17200.60
478.90	17441.67
479.08	17607.85
479.26	17598.49
479.44	17584.44
479.62	17804.46
479.80	18249.16
479.98	17947.23
480.16	18562.79
480.34	18387.25
480.52	18588.53
480.70	18864.72
480.88	18527.68
481.06	18757.05
481.24	18735.99
481.41	19094.09
481.59	19374.95
481.77	19461.55
481.95	19592.62
482.13	19686.25
482.31	19447.51
482.49	20404.79
482.67	20208.19
482.85	20641.18
483.03	20748.85
483.21	20945.45
483.39	20872.90
483.57	20800.34
483.74	20996.95
483.92	21120.99
484.10	21032.05
484.28	21748.26
484.46	21689.74
484.64	22064.23
484.82	21994.01
485.00	22466.80
485.18	22441.06
485.35	22792.14
485.53	22862.35
485.71	23138.54
485.89	23613.66
486.07	23606.64
486.25	23197.05
486.43	23639.41
486.61	23807.93
486.78	24194.12
486.96	24474.98
487.14	24500.73
487.32	24290.08
487.50	24769.89
487.68	25221.61
487.85	24987.56
488.03	25373.75
488.21	26003.35
488.39	26171.87
488.57	26146.12
488.75	26153.15
488.92	26534.65
489.10	26869.35
489.28	26953.61
489.46	27236.81
489.64	27337.46
489.81	27749.39
489.99	27494.27
490.17	27515.34
490.35	28102.81
490.53	28093.45
490.70	28547.51
490.88	28474.96
491.06	28968.81
491.24	28737.10
491.41	29214.57
491.59	29631.18
491.77	29589.05
491.95	29465.00
492.13	29806.72
492.30	30199.93
492.48	30061.84
492.66	30295.89
492.84	30185.89
493.01	30689.10
493.19	30965.29
493.37	30951.24
493.54	31056.57
493.72	31655.75
493.90	31222.75
494.08	32140.24
494.25	31693.19
494.43	31838.31
494.61	32268.97
494.79	32603.66
494.96	32622.39
495.14	32818.99
495.32	33254.33
495.49	33303.48
495.67	33280.08
495.85	33277.74
496.02	33883.94
496.20	33652.22
496.38	34286.51
496.55	34380.13
496.73	34710.14
496.91	34558.01
497.09	35133.78
497.26	35131.44
497.44	35173.57
497.62	35271.87
497.79	36133.19
497.97	35381.88
498.14	35842.96
498.32	36058.29
498.50	35981.06
498.67	36505.34
498.85	36107.44
499.03	36762.79
499.20	36804.92
499.38	37106.85
499.56	36947.70
499.73	37354.95
499.91	37048.34
500.08	37734.12
500.26	37460.27
500.44	37572.62
500.61	37771.57
500.79	37593.68
500.97	38251.38
501.14	38349.68
501.32	38515.86
501.49	38249.03
501.67	38775.66
501.84	38913.75
502.02	38983.96
502.20	39131.42
502.37	38969.92
502.55	39222.70
502.72	40072.31
502.90	39695.49
503.07	39601.86
503.25	39992.73
503.43	40172.96
503.60	40179.98
503.78	40271.26
503.95	40584.89
504.13	40079.33
504.30	40460.84
504.48	40381.26
504.65	40493.61
504.83	41177.04
505.01	41155.98
505.18	41371.31
505.36	41464.93
505.53	40980.44
505.71	41596.00
505.88	41738.77
506.06	41338.54
506.23	42567.32
506.41	42024.32
506.58	42478.38
506.76	42527.53
506.93	42380.08
507.11	42429.23
507.28	42848.19
507.46	42553.28
507.63	42777.97
507.81	43440.34
507.98	42768.61
508.16	42976.92
508.33	43262.46
508.50	43529.28
508.68	43496.52
508.85	43952.92
509.03	44194.00
509.20	43913.13
509.38	44013.77
509.55	44458.48
509.73	44603.59
509.90	44561.46
510.08	44802.53
510.25	44952.33
510.42	44921.90
510.60	45085.74
510.77	45485.97
510.95	45720.02
511.12	44926.58
511.30	45425.12
511.47	45240.21
511.64	45635.77
511.82	45895.56
511.99	45284.68
512.17	46160.05
512.34	45539.80
512.51	46108.55
512.69	46712.41
512.86	46370.69
513.04	46274.73
513.21	46534.53
513.38	46567.30
513.56	46958.17
513.73	46536.87
513.90	47278.82
514.08	46782.63
514.25	47112.64
514.43	47676.71
514.60	47641.60
514.77	47555.00
514.95	47515.22
515.12	47835.87
515.29	47805.44
515.47	48102.69
515.64	48142.48
515.81	47861.61
515.99	48264.19
516.16	48577.82
516.33	48699.53
516.51	48912.52
516.68	48336.74
516.85	48865.70
517.03	48615.27
517.20	48802.51
517.37	48769.74
517.54	48861.02
517.72	48996.77
517.89	49076.35
518.06	49186.36
518.24	49059.97
518.41	49298.70
518.58	49647.44
518.75	49024.86
518.93	49694.25
519.10	49397.01
519.27	49778.51
519.45	49797.24
519.62	49708.30
519.79	49956.39
519.96	50021.93
520.14	50415.14
520.31	50277.05
520.48	50422.16
520.65	50160.02
520.83	50618.77
521.00	50607.06
521.17	50534.51
521.34	50815.37
521.52	51009.64
521.69	50703.03
521.86	51021.34
522.03	51365.40
522.20	51409.87
522.38	51536.26
522.55	51576.04
522.72	51311.56
522.89	51459.02
523.07	51892.02
523.24	51725.84
523.41	51505.83
523.58	51433.27
523.75	51791.37
523.92	51880.31
524.10	51948.19
524.27	51906.06
524.44	52081.60
524.61	52191.61
524.78	52236.08
524.96	52264.16
525.13	52306.29
525.30	52498.22
525.47	52659.71
525.64	52289.91
525.81	52832.91
525.98	52879.72
526.16	52587.16
526.33	52608.22
526.50	52987.39
526.67	52823.55
526.84	52942.92
527.01	52896.11
527.18	52839.93
527.36	52748.65
527.53	53137.18
527.70	53434.43
527.87	53415.71
528.04	53392.30
528.21	53432.09
528.38	53237.83
528.55	53581.88
528.72	53134.84
528.89	53490.60
529.07	53235.48
529.24	53638.06
529.41	53801.89
529.58	53755.08
529.75	53504.65
529.92	53785.51
530.09	54096.80
530.26	53916.58
530.43	54183.40
530.60	53755.08
530.77	53647.42
530.94	54190.42
531.11	53631.04
531.28	54288.73
531.46	54028.93
531.63	54106.16
531.80	54277.02
531.97	54742.79
532.14	54513.42
532.31	54506.40
532.48	54660.87
532.65	54541.50
532.82	54574.27
532.99	54805.98
533.16	54703.00
533.33	54848.11
533.50	54857.48
533.67	54941.74
533.84	54773.22
534.01	54883.22
534.18	54880.88
534.35	55292.82
534.52	55440.27
534.69	55278.77
534.86	55330.26
535.03	55154.72
535.20	55304.52
535.37	55529.21
535.54	55449.63
535.71	55168.77
535.88	55480.06
536.05	55332.60
536.22	55657.94
536.38	55573.68
536.55	55461.33
536.72	55646.24
536.89	55458.99
537.06	55543.25
537.23	55686.03
537.40	55646.24
537.57	55718.79
537.74	55664.96
537.91	56069.87
538.08	55744.54
538.25	55971.57
538.42	55880.29
538.59	56128.39
538.75	55957.53
538.92	55873.27
539.09	56229.03
539.26	56154.13
539.43	56299.25
539.60	56095.62
539.77	56163.50
539.94	56535.64
540.11	56327.33
540.28	56467.76
540.44	56357.76
540.61	56374.14
540.78	56348.40
540.95	56687.78
541.12	56449.04
541.29	56519.26
541.46	56453.72
541.62	56619.90
541.79	56633.94
541.96	56385.85
542.13	56680.75
542.30	56647.99
542.47	56870.34
542.63	56884.38
542.80	57106.73
542.97	57233.12
543.14	57116.09
543.31	57382.91
543.48	57336.10
543.64	57408.66
543.81	57399.30
543.98	57406.32
544.15	57490.58
544.32	57546.75
544.48	57301.00
544.65	57380.57
544.82	57298.65
544.99	57436.75
545.16	57523.35
545.32	57380.57
545.49	57616.97
545.66	57982.09
545.83	57712.93
546.00	57752.72
546.16	57705.91
546.33	57502.28
546.50	57574.84
546.67	57736.34
546.83	57677.82
547.00	57769.10
547.17	57848.68
547.34	57862.72
547.50	58028.90
547.67	57996.13
547.84	57991.45
548.00	58188.06
548.17	58159.97
548.34	58150.61
548.51	58122.52
548.67	58157.63
548.84	58082.73
549.01	58302.74
549.18	58321.47
549.34	58197.42
549.51	58401.05
549.68	58375.30
549.84	58337.85
550.01	58351.90
550.18	58443.18
550.34	58693.61
550.51	58499.35
550.68	58405.73
550.84	58227.85
551.01	58782.55
551.18	58412.75
551.34	58518.07
551.51	58494.67
551.68	58616.38
551.84	58644.46
552.01	58513.39
552.18	58789.58
552.34	58541.48
552.51	58747.45
552.68	58724.04
552.84	58801.28
553.01	58899.58
553.18	58766.17
553.34	59032.99
553.51	58869.15
553.67	58843.41
553.84	58922.99
554.01	58911.28
554.17	58965.12
554.34	59028.31
554.51	58995.54
554.67	58974.48
554.84	59014.27
555.00	59068.10
555.17	58869.15
555.33	58990.86
555.50	59091.51
555.67	59032.99
555.83	59154.70
556.00	59119.59
556.16	59484.72
556.33	59234.28
556.50	59306.83
556.66	59421.52
556.83	59098.53
556.99	59456.63
557.16	59540.89
557.32	59501.10
557.49	59503.44
557.65	59360.67
557.82	59447.27
557.98	59578.34
558.15	59599.40
558.32	59543.23
558.48	59419.18
558.65	59522.16
558.81	59363.01
558.98	59568.97
559.14	59901.33
559.31	59765.58
559.47	59578.34
559.64	59592.38
559.80	59711.75
559.97	59760.90
560.13	59681.32
560.30	59671.96
560.46	59847.50
560.63	59915.37
560.79	59774.94
560.96	59964.52
561.12	59927.08
561.29	59889.63
561.45	59941.12
561.61	59812.39
561.78	59863.88
561.94	59955.16
562.11	59756.22
562.27	59786.64
562.44	59924.74
562.60	60102.62
562.77	60053.47
562.93	59805.37
563.10	59985.59
563.26	59948.14
563.42	60083.89
563.59	60020.70
563.75	60009.00
563.92	60081.55
564.08	60011.34
564.24	60357.74
564.41	60116.66
564.57	60198.58
564.74	60282.84
564.90	60114.32
565.07	60313.26
565.23	60102.62
565.39	60257.09
565.56	60226.66
565.72	60196.24
565.88	60182.19
566.05	60104.96
566.21	60282.84
566.38	60116.66
566.54	60161.13
566.70	60456.04
566.87	60432.63
567.03	60306.24
567.19	60535.62
567.36	60320.29
567.52	60308.58
567.68	60488.80
567.85	60037.08
568.01	60519.23
568.17	60313.26
568.34	60399.86
568.50	60378.80
568.66	60329.65
568.83	60207.94
568.99	60404.55
569.15	60411.57
569.32	60589.45
569.48	60336.67
569.64	60404.55
569.81	60505.19
569.97	60383.48
570.13	60526.25
570.30	60432.63
570.46	60601.15
570.62	60509.87
570.78	60357.74
570.95	60610.51
571.11	60500.51
571.27	60687.75
571.43	60470.08
571.60	60662.00
571.76	60388.16
571.92	60762.65
572.09	60694.77
572.25	60397.52
572.41	60697.11
572.57	60615.19
572.74	60832.86
572.90	60640.94
573.06	60779.03
573.22	60505.19
573.38	60605.83
573.55	60713.50
573.71	60896.06
573.87	60488.80
574.03	60463.06
574.20	60821.16
574.36	60519.23
574.52	60516.89
574.68	60837.54
574.84	61006.06
575.01	60793.07
575.17	60676.05
575.33	60659.66
575.49	60720.52
575.65	60835.20
575.82	60746.26
575.98	60643.28
576.14	60912.44
576.30	60921.80
576.46	60666.69
576.62	60671.37
576.79	60760.31
576.95	60594.13
577.11	60851.59
577.27	61034.15
577.43	60940.53
577.59	60933.51
577.75	60804.78
577.92	60732.22
578.08	60811.80
578.24	60921.80
578.40	61050.53
578.56	60975.64
578.72	60584.77
578.88	61085.64
579.04	61017.77
579.21	60900.74
579.37	60928.83
579.53	61062.24
579.69	60732.22
579.85	60781.37
580.01	60748.60
580.17	60846.91
580.33	60882.02
580.49	61095.00
580.65	60970.96
580.82	60779.03
580.98	60879.67
581.14	60842.23
581.30	61029.47
581.46	61104.37
581.62	60975.64
581.78	60832.86
581.94	60889.04
582.10	60954.57
582.26	60779.03
582.42	61036.49
582.58	60858.61
582.74	61076.28
582.90	60893.72
583.06	60797.76
583.22	61022.45
583.38	60863.29
583.54	60928.83
583.70	61111.39
583.86	61160.54
584.02	60823.50
584.18	61059.90
584.34	60954.57
584.50	61029.47
584.66	60900.74
584.82	60753.29
584.98	61080.96
585.14	61071.60
585.30	60942.87
585.46	60903.08
585.62	61097.34
585.78	61034.15
585.94	60970.96
586.10	61080.96
586.26	60928.83
586.42	61228.41
586.58	61324.38
586.74	60949.89
586.90	60949.89
587.06	61118.41
587.22	61146.50
587.38	61162.88
587.54	61307.99
587.70	61078.62
587.86	61043.51
588.02	60919.46
588.18	61141.81
588.34	60931.17
588.49	61041.17
