SpectraSuite Data File
++++++++++++++++++++++++++++++++++++
Date: Fri Oct 25 11:23:36 EDT 2013
User: price-jones
Dark Spectrum Present: No
Reference Spectrum Present: No
Number of Sampled Component Spectra: 1
Spectrometers: USB2+H05261
Integration Time (usec): 100000 (USB2+H05261)
Spectra Averaged: 1 (USB2+H05261)
Boxcar Smoothing: 0 (USB2+H05261)
Correct for Electrical Dark: No (USB2+H05261)
Strobe/Lamp Enabled: No (USB2+H05261)
Correct for Detector Non-linearity: No (USB2+H05261)
Correct for Stray Light: No (USB2+H05261)
Number of Pixels in Processed Spectrum: 2048
>>>>>Begin Processed Spectral Data<<<<<
365.73	208.31
365.92	208.31
366.12	208.31
366.32	142.77
366.52	114.69
366.72	135.75
366.91	81.92
367.11	145.11
367.31	131.07
367.51	166.18
367.70	156.82
367.90	98.30
368.10	98.30
368.30	159.16
368.49	140.43
368.69	196.60
368.89	112.35
369.09	119.37
369.28	189.58
369.48	70.22
369.68	175.54
369.87	201.29
370.07	224.69
370.27	236.39
370.47	245.76
370.66	500.87
370.86	620.24
371.06	702.16
371.25	709.18
371.45	667.05
371.65	690.46
371.84	631.94
372.04	683.44
372.24	737.27
372.44	727.91
372.63	711.52
372.83	798.12
373.03	772.38
373.22	720.88
373.42	727.91
373.62	772.38
373.81	760.67
374.01	823.87
374.21	798.12
374.40	730.25
374.60	744.29
374.79	788.76
374.99	788.76
375.19	840.25
375.38	866.00
375.58	844.93
375.78	901.11
375.97	826.21
376.17	884.72
376.37	882.38
376.56	793.44
376.76	894.08
376.95	819.19
377.15	873.02
377.35	880.04
377.54	936.21
377.74	894.08
377.93	968.98
378.13	933.87
378.33	964.30
378.52	929.19
378.72	887.06
378.91	1015.79
379.11	968.98
379.31	952.60
379.50	847.27
379.70	945.58
379.89	990.05
380.09	959.62
380.28	908.13
380.48	884.72
380.68	954.94
380.87	922.17
381.07	1029.84
381.26	997.07
381.46	1015.79
381.65	1008.77
381.85	1048.56
382.04	1039.20
382.24	1086.01
382.43	950.26
382.63	1027.50
382.83	1135.16
383.02	1123.46
383.22	1076.65
383.41	1086.01
383.61	1041.54
383.80	1102.39
384.00	978.34
384.19	1036.86
384.39	1121.12
384.58	1121.12
384.78	1125.80
384.97	1118.78
385.17	1069.62
385.36	1121.12
385.56	1074.31
385.75	1139.84
385.95	1151.54
386.14	1125.80
386.34	1205.38
386.53	1238.14
386.72	1165.59
386.92	1256.87
387.11	1125.80
387.31	1273.25
387.50	1294.32
387.70	1275.59
387.89	1252.19
388.09	1310.70
388.28	1301.34
388.48	1259.21
388.67	1385.60
388.86	1329.42
389.06	1277.93
389.25	1317.72
389.45	1334.11
389.64	1322.40
389.84	1362.19
390.03	1308.36
390.22	1380.92
390.42	1350.49
390.61	1364.53
390.81	1357.51
391.00	1446.45
391.19	1423.05
391.39	1406.66
391.58	1348.15
391.78	1437.09
391.97	1493.26
392.16	1556.46
392.36	1612.63
392.55	1511.99
392.75	1596.25
392.94	1570.50
393.13	1500.28
393.33	1511.99
393.52	1584.54
393.71	1568.16
393.91	1579.86
394.10	1577.52
394.29	1593.90
394.49	1523.69
394.68	1715.61
394.88	1614.97
395.07	1650.08
395.26	1659.44
395.46	1757.74
395.65	1781.15
395.84	1750.72
396.04	1769.44
396.23	1668.80
396.42	1834.98
396.62	1710.93
396.81	1783.49
397.00	1795.19
397.19	1811.57
397.39	1827.96
397.58	1823.28
397.77	1757.74
397.97	1959.03
398.16	1832.64
398.35	1921.58
398.55	1912.22
398.74	1846.68
398.93	1844.34
399.12	2033.93
399.32	1858.39
399.51	2064.35
399.70	2019.88
399.90	1966.05
400.09	2083.08
400.28	2062.01
400.47	2031.58
400.67	2076.06
400.86	2073.71
401.05	1980.09
401.24	1989.46
401.44	2139.25
401.63	2052.65
401.82	2085.42
402.01	2157.97
402.21	2174.36
402.40	2232.87
402.59	2143.93
402.78	2319.47
402.97	2153.29
403.17	2272.66
403.36	2296.07
403.55	2373.30
403.74	2340.54
403.93	2422.45
404.13	2331.17
404.32	2305.43
404.51	2403.73
404.70	2499.69
404.89	2373.30
405.09	2537.14
405.28	2534.80
405.47	2443.52
405.66	2511.39
405.85	2583.95
406.05	2649.49
406.24	2471.61
406.43	2478.63
406.62	2651.83
406.81	2597.99
407.00	2518.42
407.20	2593.31
407.39	2633.10
407.58	2722.04
407.77	2782.90
407.96	2670.55
408.15	2672.89
408.34	2803.96
408.54	2682.25
408.73	2703.32
408.92	2895.24
409.11	2771.19
409.30	2902.26
409.49	2801.62
409.68	3075.46
409.87	2867.16
410.07	2937.37
410.26	3030.99
410.45	2974.82
410.64	3030.99
410.83	3059.08
411.02	3049.72
411.21	3232.28
411.40	3176.11
411.59	3133.98
411.78	3272.07
411.98	3239.30
412.17	3222.92
412.36	3304.84
412.55	3438.25
412.74	3286.11
412.93	3297.81
413.12	3234.62
413.31	3555.27
413.50	3426.54
413.69	3393.78
413.88	3557.61
414.07	3672.30
414.26	3583.36
414.45	3735.50
414.64	3665.28
414.83	3796.35
415.02	3904.01
415.22	3946.14
415.41	3702.73
415.60	3836.14
415.79	3915.72
415.98	3915.72
416.17	4138.07
416.36	3955.51
416.55	3946.14
416.74	4067.85
416.93	3992.95
417.12	4175.52
417.31	4131.05
417.50	4184.88
417.69	4252.75
417.88	4177.86
418.07	4142.75
418.26	4194.24
418.45	4297.22
418.64	4374.46
418.83	4390.84
419.02	4479.79
419.21	4585.11
419.39	4505.53
419.58	4566.39
419.77	4552.34
419.96	4500.85
420.15	4477.44
420.34	4571.07
420.53	4615.54
420.72	4638.94
420.91	4772.35
421.10	4765.33
421.29	4704.48
421.48	4716.18
421.67	4777.03
421.86	4854.27
422.05	4926.83
422.24	4830.87
422.43	4851.93
422.61	4849.59
422.80	5032.15
422.99	4882.36
423.18	4905.76
423.37	5036.83
423.56	4971.30
423.75	5034.49
423.94	4870.65
424.13	4540.64
424.32	4737.24
424.50	4961.94
424.69	5048.54
424.88	5083.64
425.07	4966.62
425.26	4854.27
425.45	4964.28
425.64	4800.44
425.83	4997.04
426.01	4926.83
426.20	5032.15
426.39	5022.79
426.58	5050.88
426.77	5104.71
426.96	4926.83
427.15	5177.26
427.33	5294.29
427.52	5039.17
427.71	5195.99
427.90	5231.10
428.09	5273.23
428.28	5488.56
428.46	5444.09
428.65	5348.12
428.84	5448.77
429.03	5455.79
429.22	5476.85
429.40	5509.62
429.59	5493.24
429.78	5277.91
429.97	5294.29
430.16	5535.37
430.34	5657.07
430.53	5645.37
430.72	5621.97
430.91	5722.61
431.10	5633.67
431.28	5804.53
431.47	5746.02
431.66	5846.66
431.85	5823.25
432.03	5849.00
432.22	6019.86
432.41	5898.15
432.60	5991.77
432.79	6031.56
432.97	5956.66
433.16	5912.19
433.35	6059.65
433.54	5966.03
433.72	6162.63
433.91	6104.12
434.10	6134.54
434.28	6246.89
434.47	6333.49
434.66	6303.06
434.85	6296.04
435.03	6277.32
435.22	6183.70
435.41	6672.87
435.59	6448.18
435.78	6413.07
435.97	6427.11
436.16	6394.34
436.34	6305.40
436.53	6417.75
436.72	6623.72
436.90	6429.45
437.09	6853.09
437.28	6621.38
437.46	6612.01
437.65	6836.70
437.84	6768.83
438.02	6724.36
438.21	6633.08
438.40	6682.23
438.58	6899.90
438.77	7070.76
438.96	7007.56
439.14	7215.87
439.33	7117.57
439.52	7267.36
439.70	7246.30
439.89	7353.96
440.08	7307.15
440.26	7148.00
440.45	7363.33
440.63	7489.71
440.82	7726.11
441.01	7496.74
441.19	7534.18
441.38	7709.72
441.57	7672.28
441.75	7606.74
441.94	7922.71
442.12	7791.64
442.31	8154.43
442.50	8210.60
442.68	8046.76
442.87	7882.92
443.05	8121.66
443.24	8112.30
443.43	8252.73
443.61	8149.75
443.80	8355.71
443.98	8067.83
444.17	7747.17
444.35	8191.88
444.54	8325.29
444.73	8283.16
444.91	8362.73
445.10	8421.25
445.28	8430.61
445.47	8180.17
445.65	8416.57
445.84	8491.46
446.02	8369.76
446.21	8479.76
446.39	8512.53
446.58	8589.77
446.77	8500.83
446.95	8358.05
447.14	8266.77
447.32	8671.68
447.51	8428.27
447.69	8507.85
447.88	8360.39
448.06	8404.86
448.25	8650.62
448.43	8678.71
448.62	8491.46
448.80	8624.87
448.99	8568.70
449.17	8877.65
449.36	8718.50
449.54	9057.87
449.73	9025.11
449.91	9011.06
450.10	9001.70
450.28	9284.91
450.46	9008.72
450.65	8926.80
450.83	9242.78
451.02	9025.11
451.20	9434.70
451.39	9116.39
451.57	9226.39
451.76	9151.49
451.94	9273.20
452.13	9261.50
452.31	9303.63
452.49	9198.31
452.68	9390.23
452.86	9364.48
453.05	9364.48
453.23	9561.09
453.42	9521.30
453.60	9366.82
453.78	9706.20
453.97	9467.47
454.15	9682.80
454.34	9394.91
454.52	9771.74
454.70	9692.16
454.89	9776.42
455.07	9958.98
455.26	9797.48
455.44	9907.49
455.62	9966.00
455.81	10061.96
455.99	10031.54
456.17	9991.75
456.36	10008.13
456.54	9956.64
456.73	10267.93
456.91	10675.18
457.09	10286.65
457.28	10487.94
457.46	10354.53
457.64	10590.92
457.83	10593.26
458.01	10349.85
458.19	10633.05
458.38	10544.11
458.56	10661.14
458.74	10789.87
458.93	10520.71
459.11	10733.70
459.29	10782.85
459.48	10789.87
459.66	10661.14
459.84	11075.42
460.03	11147.97
460.21	11302.45
460.39	11159.67
460.57	11021.58
460.76	10984.13
460.94	11131.59
461.12	11194.78
461.31	11250.96
461.49	11276.70
461.67	11215.85
461.85	11433.52
462.04	11379.68
462.22	11346.92
462.40	11595.01
462.59	11688.64
462.77	11798.64
462.95	11817.36
463.13	11529.48
463.32	11683.95
463.50	11676.93
463.68	11695.66
463.86	11925.03
464.05	11676.93
464.23	11587.99
464.41	11950.78
464.59	11777.58
464.78	12072.48
464.96	12011.63
465.14	11695.66
465.32	11981.20
465.50	12248.02
465.69	12168.45
465.87	12418.88
466.05	12219.94
466.23	12046.74
466.41	12283.13
466.60	12444.63
466.78	12175.47
466.96	12278.45
467.14	12325.26
467.32	12482.08
467.51	12453.99
467.69	11950.78
467.87	12205.89
468.05	12666.98
468.23	12582.72
468.41	12535.91
468.60	12552.29
468.78	12926.78
468.96	12601.44
469.14	12741.88
469.32	12713.79
469.50	12678.68
469.69	13118.70
469.87	13289.56
470.05	12884.65
470.23	12973.59
470.41	13057.85
470.59	13217.01
470.77	13207.64
470.95	13261.48
471.14	13776.39
471.32	13095.30
471.50	13757.67
471.68	13682.77
471.86	13830.23
472.04	13804.48
472.22	13975.34
472.40	13947.25
472.58	13928.53
472.77	14075.98
472.95	14228.12
473.13	14661.12
473.31	14132.15
473.49	14359.19
473.67	13942.57
473.85	14150.88
474.03	14576.86
474.21	14590.90
474.39	14899.85
474.57	14717.29
474.75	14801.55
474.93	14946.66
475.12	14941.98
475.30	15220.50
475.48	15110.50
475.66	15190.08
475.84	15452.22
476.02	15428.81
476.20	15527.11
476.38	15728.40
476.56	15934.37
476.74	16215.23
476.92	15829.04
477.10	15632.44
477.28	16030.33
477.46	16512.48
477.64	16067.78
477.82	16683.34
478.00	17125.70
478.18	16938.46
478.36	17039.10
478.54	17003.99
478.72	17130.38
478.90	17460.40
479.08	17516.57
479.26	17687.43
479.44	17535.29
479.62	18120.43
479.80	18080.64
479.98	18197.67
480.16	18677.48
480.34	18384.91
480.52	18703.22
480.70	18581.51
480.88	18412.99
481.06	18930.25
481.24	18656.41
481.41	18934.93
481.59	19234.52
481.77	19419.42
481.95	19641.78
482.13	19576.24
482.31	19819.66
482.49	20549.90
482.67	20091.16
482.85	20264.36
483.03	20503.09
483.21	20772.25
483.39	20947.79
483.57	20723.10
483.74	21219.30
483.92	21153.76
484.10	21207.59
484.28	21642.93
484.46	22026.78
484.64	21977.63
484.82	21963.59
485.00	22534.68
485.18	22955.97
485.35	23096.41
485.53	22759.37
485.71	23058.96
485.89	23630.05
486.07	23435.78
486.25	23564.51
486.43	23473.23
486.61	23882.83
486.78	24009.22
486.96	24397.74
487.14	24730.10
487.32	24837.76
487.50	24779.25
487.68	24985.22
487.85	25439.28
488.03	25701.42
488.21	26019.74
488.39	25750.57
488.57	25876.96
488.75	25954.20
488.92	26436.35
489.10	26679.77
489.28	27061.27
489.46	27197.02
489.64	27339.80
489.81	27814.93
489.99	27702.58
490.17	27838.33
490.35	27828.97
490.53	28030.26
490.70	28610.71
490.88	28467.94
491.06	28411.76
491.24	28833.06
491.41	29010.94
491.59	29273.08
491.77	29235.63
491.95	29668.63
492.13	29685.01
492.30	29998.65
492.48	29958.86
492.66	30576.76
492.84	30480.80
493.01	30801.45
493.19	30923.16
493.37	31007.42
493.54	31519.99
493.72	31812.56
493.90	31337.43
494.08	31672.13
494.25	31644.04
494.43	31978.74
494.61	32009.17
494.79	32414.08
494.96	32552.17
495.14	32858.78
495.32	33486.04
495.49	33251.99
495.67	33876.91
495.85	33521.15
496.02	33818.40
496.20	33902.66
496.38	34190.55
496.55	33785.63
496.73	35049.52
496.91	34471.41
497.09	34771.00
497.26	34565.03
497.44	35098.67
497.62	35534.01
497.79	36245.54
497.97	35679.13
498.14	35814.88
498.32	36020.84
498.50	36180.00
498.67	36720.66
498.85	36449.16
499.03	36935.99
499.20	36467.89
499.38	36662.15
499.56	37156.00
499.73	37095.15
499.91	37455.59
500.08	37741.14
500.26	37429.85
500.44	37862.85
500.61	37991.58
500.79	37785.61
500.97	38181.16
501.14	38756.93
501.32	38976.94
501.49	38569.69
501.67	38560.33
501.84	39192.27
502.02	38754.59
502.20	38820.13
502.37	39164.18
502.55	39395.90
502.72	39728.25
502.90	39496.54
503.07	39627.61
503.25	40137.85
503.43	39864.00
503.60	40491.27
503.78	40528.72
503.95	40175.30
504.13	40580.21
504.30	40580.21
504.48	40561.48
504.65	41076.40
504.83	40811.92
505.01	41645.15
505.18	41214.49
505.36	41942.40
505.53	41392.37
505.71	41167.68
505.88	42029.00
506.06	41202.79
506.23	41783.24
506.41	41558.55
506.58	42534.56
506.76	42256.03
506.93	42684.35
507.11	42447.96
507.28	42761.59
507.46	42794.36
507.63	43089.26
507.81	43470.77
507.98	42892.66
508.16	43271.82
508.33	43402.89
508.50	43096.28
508.68	43620.56
508.85	44163.57
509.03	43812.49
509.20	44065.27
509.38	44205.70
509.55	44233.78
509.73	44388.26
509.90	44542.74
510.08	44395.28
510.25	44399.96
510.42	44748.70
510.60	44861.05
510.77	45205.11
510.95	45226.17
511.12	45331.50
511.30	45357.24
511.47	45083.40
511.64	45638.11
511.82	45993.87
511.99	45591.30
512.17	46050.04
512.34	45961.10
512.51	46473.68
512.69	46602.41
512.86	46485.38
513.04	46892.63
513.21	46756.88
513.38	46761.56
513.56	46768.58
513.73	46782.63
513.90	46969.87
514.08	46646.88
514.25	47316.27
514.43	47592.45
514.60	47674.37
514.77	47199.24
514.95	48107.37
515.12	47517.56
515.29	47477.77
515.47	48032.47
515.64	48233.76
515.81	48247.80
515.99	48203.33
516.16	48982.73
516.33	48633.99
516.51	48898.47
516.68	48837.62
516.85	48949.96
517.03	48753.36
517.20	49041.24
517.37	48851.66
517.54	48952.30
517.72	48837.62
517.89	49045.93
518.06	49343.17
518.24	49450.84
518.41	49083.37
518.58	49207.42
518.75	49371.26
518.93	49565.52
519.10	49457.86
519.27	49537.44
519.45	49904.90
519.62	50124.91
519.79	49682.55
519.96	50134.28
520.14	50396.42
520.31	50230.24
520.48	50330.88
520.65	50227.90
520.83	50628.13
521.00	50810.69
521.17	50525.14
521.34	50501.74
521.52	51037.72
521.69	51023.68
521.86	51187.52
522.03	51173.47
522.20	51337.31
522.38	51475.40
522.55	51231.99
522.72	51346.67
522.89	51327.95
523.07	51318.59
523.24	51709.46
523.41	51716.48
523.58	51690.73
523.75	51938.83
523.92	51920.10
524.10	51910.74
524.27	52163.52
524.44	52313.31
524.61	51746.90
524.78	52252.46
524.96	52023.09
525.13	52645.67
525.30	52465.45
525.47	52633.97
525.64	52725.25
525.81	52538.01
525.98	52788.44
526.16	52472.47
526.33	52299.27
526.50	52893.77
526.67	52690.14
526.84	53024.84
527.01	53111.44
527.18	53160.59
527.36	53027.18
527.53	53165.27
527.70	53518.69
527.87	53549.12
528.04	53350.17
528.21	53317.40
528.38	53315.06
528.55	53661.46
528.72	53216.76
528.89	53389.96
529.07	53485.92
529.24	53539.75
529.41	53820.62
529.58	53741.04
529.75	53441.45
529.92	53710.61
530.09	53483.58
530.26	53935.30
530.43	54031.27
530.60	53544.44
530.77	53996.16
530.94	54195.10
531.11	54167.02
531.28	54122.55
531.46	54174.04
531.63	54548.53
531.80	54216.17
531.97	54621.08
532.14	54541.50
532.31	54564.91
532.48	54796.62
532.65	54747.47
532.82	54525.12
532.99	54993.23
533.16	54658.53
533.33	54948.76
533.50	54777.90
533.67	55112.59
533.84	55072.81
534.01	54707.68
534.18	55054.08
534.35	55337.29
534.52	55360.69
534.69	55370.05
534.86	55257.71
535.03	54951.10
535.20	55084.51
535.37	55173.45
535.54	55220.26
535.71	55299.84
535.88	55384.10
536.05	55671.98
536.22	55580.70
536.38	55807.73
536.55	55842.84
536.72	55407.50
536.89	55634.53
537.06	55826.46
537.23	55987.95
537.40	55964.55
537.57	55594.74
537.74	55847.52
537.91	56104.98
538.08	55849.86
538.25	55938.80
538.42	55955.19
538.59	56165.84
538.75	55789.01
538.92	55971.57
539.09	56395.21
539.26	56383.51
539.43	56322.65
539.60	56341.38
539.77	56252.44
539.94	56591.81
540.11	56273.50
540.28	56360.10
540.44	56278.18
540.61	56790.76
540.78	56549.68
540.95	56493.51
541.12	56509.89
541.29	56566.07
541.46	56652.67
541.62	56444.36
541.79	57041.20
541.96	56718.20
542.13	56535.64
542.30	56624.58
542.47	56912.47
542.63	56868.00
542.80	57017.79
542.97	57235.46
543.14	57303.34
543.31	57272.91
543.48	57331.42
543.64	57329.08
543.81	57602.92
543.98	57272.91
544.15	57336.10
544.32	57546.75
544.48	57764.42
544.65	57282.27
544.82	57549.09
544.99	57336.10
545.16	57488.24
545.32	57687.18
545.49	57748.04
545.66	57682.50
545.83	57656.76
546.00	57827.62
546.16	57628.67
546.33	57502.28
546.50	57528.03
546.67	57841.66
546.83	57432.07
547.00	57876.77
547.17	57867.40
547.34	57897.83
547.50	58014.86
547.67	58129.54
547.84	57972.73
548.00	58440.84
548.17	58314.45
548.34	58197.42
548.51	58298.06
548.67	58211.46
548.84	58281.68
549.01	58019.54
549.18	58047.63
549.34	58494.67
549.51	58340.19
549.68	58518.07
549.84	58480.63
550.01	58602.33
550.18	58349.56
550.34	58459.56
550.51	58515.73
550.68	58504.03
550.84	58333.17
551.01	58473.60
551.18	58415.09
551.34	58543.82
551.51	58637.44
551.68	58520.41
551.84	58717.02
552.01	58550.84
552.18	58873.84
552.34	58702.98
552.51	58677.23
552.68	58665.53
552.84	58728.72
553.01	59021.29
553.18	59035.33
553.34	58981.50
553.51	58731.06
553.67	59002.56
553.84	59002.56
554.01	59004.91
554.17	59112.57
554.34	59126.61
554.51	58913.62
554.67	59084.48
554.84	59009.59
555.00	58965.12
555.17	58845.75
555.33	59100.87
555.50	59260.02
555.67	58934.69
555.83	59253.00
556.00	59135.98
556.16	59480.03
556.33	59245.98
556.50	59318.54
556.66	59646.21
556.83	59164.06
556.99	59276.41
557.16	59332.58
557.32	59498.76
557.49	59599.40
557.65	59618.13
557.82	59330.24
557.98	59536.21
558.15	59578.34
558.32	59564.29
558.48	59505.78
558.65	59629.83
558.81	59683.66
558.98	59564.29
559.14	59868.56
559.31	59695.36
559.47	59805.37
559.64	59599.40
559.80	59615.79
559.97	59938.78
560.13	59571.32
560.30	59671.96
560.46	59620.47
560.63	59721.11
560.79	59908.35
560.96	59863.88
561.12	59952.82
561.29	59838.14
561.45	59753.88
561.61	59873.24
561.78	59756.22
561.94	59735.15
562.11	60011.34
562.27	60086.23
562.44	59891.97
562.60	60170.49
562.77	60069.85
562.93	59859.20
563.10	60308.58
563.26	60114.32
563.42	60193.90
563.59	60128.36
563.75	60041.76
563.92	60074.53
564.08	59917.71
564.24	60299.22
564.41	60193.90
564.57	60247.73
564.74	60299.22
564.90	60189.22
565.07	60229.01
565.23	60268.79
565.39	60203.26
565.56	60048.78
565.72	60219.64
565.88	60350.71
566.05	60357.74
566.21	60156.45
566.38	60257.09
566.54	60336.67
566.70	60362.42
566.87	60563.70
567.03	60287.52
567.19	60317.95
567.36	60406.89
567.52	60313.26
567.68	60617.53
567.85	60446.68
568.01	60477.10
568.17	60418.59
568.34	60549.66
568.50	60439.65
568.66	60458.38
568.83	60348.37
568.99	60416.25
569.15	60406.89
569.32	60507.53
569.48	60329.65
569.64	60477.10
569.81	60652.64
569.97	60432.63
570.13	60488.80
570.30	60308.58
570.46	60526.25
570.62	60678.39
570.78	60626.90
570.95	60498.17
571.11	60647.96
571.27	60402.21
571.43	60498.17
571.60	60697.11
571.76	60495.83
571.92	60701.79
572.09	60650.30
572.25	60594.13
572.41	60828.18
572.57	60697.11
572.74	60905.42
572.90	60835.20
573.06	60638.60
573.22	60680.73
573.38	60701.79
573.55	60687.75
573.71	60694.77
573.87	60762.65
574.03	60537.96
574.20	60757.97
574.36	60720.52
574.52	60963.93
574.68	60619.88
574.84	60640.94
575.01	60933.51
575.17	60809.46
575.33	60760.31
575.49	60846.91
575.65	60654.98
575.82	60886.70
575.98	60898.40
576.14	60828.18
576.30	60858.61
576.46	60760.31
576.62	60699.45
576.79	60788.39
576.95	60769.67
577.11	60952.23
577.27	60851.59
577.43	60839.89
577.59	60605.83
577.75	60694.77
577.92	60727.54
578.08	60910.10
578.24	61043.51
578.40	61109.05
578.56	61116.07
578.72	60996.70
578.88	61071.60
579.04	61102.03
579.21	61038.83
579.37	61020.11
579.53	60963.93
579.69	60640.94
579.85	60832.86
580.01	61003.72
580.17	60870.31
580.33	61188.63
580.49	61097.34
580.65	61041.17
580.82	61024.79
580.98	61111.39
581.14	60963.93
581.30	61041.17
581.46	60985.00
581.62	60956.91
581.78	60734.56
581.94	61165.22
582.10	60982.66
582.26	60963.93
582.42	61010.74
582.58	61003.72
582.74	60973.30
582.90	60910.10
583.06	60949.89
583.22	60851.59
583.38	61095.00
583.54	60992.02
583.70	60891.38
583.86	60961.59
584.02	60914.78
584.18	61186.28
584.34	61076.28
584.50	60891.38
584.66	61099.68
584.82	60933.51
584.98	61097.34
585.14	61148.84
585.30	61080.96
585.46	61006.06
585.62	61043.51
585.78	61282.25
585.94	60729.88
586.10	61209.69
586.26	60945.21
586.42	61249.48
586.58	61289.27
586.74	60973.30
586.90	61010.74
587.06	61111.39
587.22	61167.56
587.38	61223.73
587.54	61317.35
587.70	61179.26
587.86	61221.39
588.02	61048.19
588.18	61422.68
588.34	60977.98
588.49	61027.13
