SpectraSuite Data File
++++++++++++++++++++++++++++++++++++
Date: Fri Oct 25 11:25:33 EDT 2013
User: price-jones
Dark Spectrum Present: No
Reference Spectrum Present: No
Number of Sampled Component Spectra: 1
Spectrometers: USB2+H05261
Integration Time (usec): 100000 (USB2+H05261)
Spectra Averaged: 1 (USB2+H05261)
Boxcar Smoothing: 0 (USB2+H05261)
Correct for Electrical Dark: No (USB2+H05261)
Strobe/Lamp Enabled: No (USB2+H05261)
Correct for Detector Non-linearity: No (USB2+H05261)
Correct for Stray Light: No (USB2+H05261)
Number of Pixels in Processed Spectrum: 2048
>>>>>Begin Processed Spectral Data<<<<<
365.73	222.35
365.92	222.35
366.12	222.35
366.32	107.66
366.52	168.52
366.72	187.24
366.91	154.48
367.11	126.39
367.31	105.32
367.51	95.96
367.70	121.71
367.90	163.84
368.10	147.45
368.30	102.98
368.49	154.48
368.69	119.37
368.89	145.11
369.09	210.65
369.28	84.26
369.48	252.78
369.68	95.96
369.87	140.43
370.07	175.54
370.27	255.12
370.47	381.51
370.66	615.56
370.86	615.56
371.06	650.67
371.25	685.78
371.45	657.69
371.65	725.57
371.84	627.26
372.04	763.01
372.24	713.86
372.44	713.86
372.63	748.97
372.83	760.67
373.03	828.55
373.22	709.18
373.42	753.65
373.62	753.65
373.81	784.08
374.01	746.63
374.21	828.55
374.40	763.01
374.60	863.66
374.79	844.93
374.99	875.36
375.19	849.61
375.38	903.45
375.58	936.21
375.78	877.70
375.97	873.02
376.17	898.77
376.37	880.04
376.56	840.25
376.76	898.77
376.95	873.02
377.15	919.83
377.35	833.23
377.54	901.11
377.74	884.72
377.93	868.34
378.13	973.66
378.33	884.72
378.52	908.13
378.72	983.02
378.91	936.21
379.11	875.36
379.31	968.98
379.50	926.85
379.70	947.92
379.89	926.85
380.09	950.26
380.28	870.68
380.48	929.19
380.68	1015.79
380.87	976.00
381.07	1062.60
381.26	1043.88
381.46	901.11
381.65	1032.18
381.85	1034.52
382.04	1013.45
382.24	978.34
382.43	1004.09
382.63	1179.63
382.83	990.05
383.02	1053.24
383.22	1086.01
383.41	1046.22
383.61	1086.01
383.80	1086.01
384.00	1036.86
384.19	1046.22
384.39	1137.50
384.58	1041.54
384.78	1193.67
384.97	1104.73
385.17	1210.06
385.36	1111.75
385.56	1128.14
385.75	1205.38
385.95	1177.29
386.14	1158.57
386.34	1214.74
386.53	1238.14
386.72	1226.44
386.92	1156.22
387.11	1231.12
387.31	1261.55
387.50	1261.55
387.70	1219.42
387.89	1233.46
388.09	1221.76
388.28	1181.97
388.48	1181.97
388.67	1233.46
388.86	1205.38
389.06	1301.34
389.25	1303.68
389.45	1350.49
389.64	1308.36
389.84	1441.77
390.03	1416.02
390.22	1357.51
390.42	1380.92
390.61	1343.47
390.81	1350.49
391.00	1483.90
391.19	1460.49
391.39	1380.92
391.58	1380.92
391.78	1427.73
391.97	1481.56
392.16	1455.81
392.36	1535.39
392.55	1490.92
392.75	1439.43
392.94	1544.75
393.13	1526.03
393.33	1504.96
393.52	1521.35
393.71	1472.20
393.91	1577.52
394.10	1544.75
394.29	1558.80
394.49	1533.05
394.68	1673.48
394.88	1626.67
395.07	1645.40
395.26	1638.38
395.46	1657.10
395.65	1614.97
395.84	1708.59
396.04	1729.66
396.23	1832.64
396.42	1734.34
396.62	1842.00
396.81	1671.14
397.00	1633.69
397.19	1734.34
397.39	1753.06
397.58	1788.17
397.77	1753.06
397.97	1809.23
398.16	1774.13
398.35	1877.11
398.55	1877.11
398.74	1888.81
398.93	1909.88
399.12	1912.22
399.32	1916.90
399.51	1996.48
399.70	1900.52
399.90	1865.41
400.09	1891.15
400.28	1933.28
400.47	1991.80
400.67	2150.95
400.86	2153.29
401.05	1956.69
401.24	2190.74
401.44	2108.82
401.63	2153.29
401.82	2139.25
402.01	2132.23
402.21	2153.29
402.40	2176.70
402.59	2232.87
402.78	2235.21
402.97	2165.00
403.17	2242.23
403.36	2293.72
403.55	2312.45
403.74	2354.58
403.93	2485.65
404.13	2312.45
404.32	2335.85
404.51	2429.48
404.70	2368.62
404.89	2270.32
405.09	2471.61
405.28	2480.97
405.47	2480.97
405.66	2413.09
405.85	2560.55
406.05	2464.58
406.24	2562.89
406.43	2516.08
406.62	2558.21
406.81	2548.84
407.00	2532.46
407.20	2516.08
407.39	2569.91
407.58	2747.79
407.77	2754.81
407.96	2708.00
408.15	2801.62
408.34	2810.98
408.54	2743.11
408.73	2918.65
408.92	2771.19
409.11	2820.35
409.30	2825.03
409.49	2862.48
409.68	2967.80
409.87	2911.63
410.07	2958.44
410.26	2942.05
410.45	2993.55
410.64	3101.21
410.83	3157.38
411.02	3068.44
411.21	3201.85
411.40	3103.55
411.59	3101.21
411.78	3234.62
411.98	3262.71
412.17	3232.28
412.36	3253.34
412.55	3307.18
412.74	3351.65
412.93	3346.97
413.12	3384.41
413.31	3550.59
413.50	3445.27
413.69	3428.88
413.88	3527.19
414.07	3639.53
414.26	3562.30
414.45	3527.19
414.64	3693.37
414.83	3707.41
415.02	3726.13
415.22	3761.24
415.41	3765.92
415.60	3747.20
415.79	3864.22
415.98	3978.91
416.17	3868.91
416.36	3859.54
416.55	3974.23
416.74	4018.70
416.93	3988.27
417.12	4065.51
417.31	4217.65
417.50	4037.42
417.69	4362.76
417.88	4152.11
418.07	4222.33
418.26	4262.12
418.45	4280.84
418.64	4362.76
418.83	4409.57
419.02	4437.66
419.21	4465.74
419.39	4430.63
419.58	4519.57
419.77	4561.70
419.96	4421.27
420.15	4545.32
420.34	4573.41
420.53	4643.62
420.72	4664.69
420.91	4624.90
421.10	4678.73
421.29	4617.88
421.48	4734.90
421.67	4704.48
421.86	4830.87
422.05	4807.46
422.24	4793.42
422.43	4833.21
422.61	4807.46
422.80	4938.53
422.99	4950.23
423.18	5011.09
423.37	5121.09
423.56	5013.43
423.75	4964.28
423.94	4819.16
424.13	4695.11
424.32	4557.02
424.50	4922.15
424.69	5057.90
424.88	5088.32
425.07	4894.06
425.26	4929.17
425.45	4912.78
425.64	4842.57
425.83	4905.76
426.01	4966.62
426.20	4964.28
426.39	5067.26
426.58	4931.51
426.77	5085.98
426.96	5078.96
427.15	4983.00
427.33	5128.11
427.52	4938.53
427.71	5205.35
427.90	5172.58
428.09	5114.07
428.28	5322.38
428.46	5266.21
428.65	5364.51
428.84	5416.00
429.03	5376.21
429.22	5329.40
429.40	5561.11
429.59	5483.88
429.78	5376.21
429.97	5315.36
430.16	5542.39
430.34	5540.05
430.53	5614.95
430.72	5638.35
430.91	5533.03
431.10	5584.52
431.28	5788.14
431.47	5703.89
431.66	5748.36
431.85	5856.02
432.03	5753.04
432.22	5942.62
432.41	5767.08
432.60	5818.57
432.79	5905.17
432.97	6087.73
433.16	5942.62
433.35	5818.57
433.54	6143.91
433.72	6069.01
433.91	6076.03
434.10	6160.29
434.28	6059.65
434.47	6237.53
434.66	6202.42
434.85	6335.83
435.03	6427.11
435.22	6242.21
435.41	6361.58
435.59	6164.97
435.78	6452.86
435.97	6401.37
436.16	6422.43
436.34	6399.02
436.53	6274.98
436.72	6607.33
436.90	6567.54
437.09	6532.44
437.28	6464.56
437.46	6707.98
437.65	6752.45
437.84	6581.59
438.02	6761.81
438.21	6820.32
438.40	6518.39
438.58	6895.22
438.77	6963.09
438.96	6967.77
439.14	7084.80
439.33	7311.83
439.52	7197.15
439.70	7286.09
439.89	7311.83
440.08	7412.48
440.26	7328.22
440.45	7342.26
440.63	7400.77
440.82	7632.49
441.01	7630.15
441.19	7473.33
441.38	7754.19
441.57	7470.99
441.75	7824.41
441.94	7831.43
442.12	8009.31
442.31	8011.65
442.50	8098.25
442.68	7747.17
442.87	8023.36
443.05	8159.11
443.24	8116.98
443.43	8163.79
443.61	8180.17
443.80	8381.46
443.98	7967.18
444.17	7873.56
444.35	8173.15
444.54	8402.52
444.73	8184.85
444.91	8259.75
445.10	8278.47
445.28	8294.86
445.47	8189.53
445.65	8395.50
445.84	8468.06
446.02	8290.18
446.21	8411.89
446.39	8542.96
446.58	8290.18
446.77	8437.63
446.95	8217.62
447.14	8344.01
447.32	8369.76
447.51	8369.76
447.69	8355.71
447.88	8568.70
448.06	8542.96
448.25	8393.16
448.43	8582.74
448.62	8788.71
448.80	8606.15
448.99	8643.60
449.17	8795.73
449.36	8554.66
449.54	8746.58
449.73	9064.89
449.91	8971.27
450.10	8968.93
450.28	9006.38
450.46	9078.94
450.65	9202.99
450.83	8865.95
451.02	8971.27
451.20	9167.88
451.39	9186.60
451.57	9053.19
451.76	8887.01
451.94	9085.96
452.13	9135.11
452.31	9404.27
452.49	9371.50
452.68	9315.33
452.86	9280.22
453.05	9341.08
453.23	9320.01
453.42	9415.98
453.60	9348.10
453.78	9350.44
453.97	9401.93
454.15	9577.47
454.34	9413.63
454.52	9643.01
454.70	9514.28
454.89	9708.54
455.07	9769.40
455.26	9778.76
455.44	9753.01
455.62	9839.61
455.81	9841.95
455.99	9994.09
456.17	9966.00
456.36	10099.41
456.54	10068.98
456.73	10223.46
456.91	10321.76
457.09	10129.84
457.28	10729.02
457.46	10293.68
457.64	10583.90
457.83	10420.06
458.01	10413.04
458.19	10841.36
458.38	10541.77
458.56	10607.31
458.74	10464.54
458.93	10581.56
459.11	10761.78
459.29	10366.23
459.48	10895.19
459.66	10602.63
459.84	10972.43
460.03	10855.40
460.21	10986.47
460.39	11037.97
460.57	11063.71
460.76	11023.92
460.94	11178.40
461.12	11152.65
461.31	11183.08
461.49	11300.11
461.67	11035.63
461.85	11438.20
462.04	11215.85
462.22	11833.75
462.40	11674.59
462.59	11468.62
462.77	11396.07
462.95	11723.74
463.13	11386.71
463.32	11424.15
463.50	11508.41
463.68	11522.46
463.86	11896.94
464.05	11442.88
464.23	11714.38
464.41	11765.87
464.59	11587.99
464.78	11971.84
464.96	11793.96
465.14	11946.09
465.32	12212.92
465.50	12013.97
465.69	12011.63
465.87	12149.72
466.05	12109.93
466.23	12255.04
466.41	11969.50
466.60	12325.26
466.78	12121.63
466.96	12009.29
467.14	12079.50
467.32	12393.14
467.51	12379.09
467.69	12056.10
467.87	12528.89
468.05	12449.31
468.23	12191.85
468.41	12624.85
468.60	12671.66
468.78	12704.43
468.96	12561.66
469.14	12711.45
469.32	12767.62
469.50	12407.18
469.69	12781.67
469.87	13118.70
470.05	13013.38
470.23	13095.30
470.41	13048.49
470.59	13064.87
470.77	13013.38
470.95	13184.24
471.14	13727.24
471.32	12989.97
471.50	13392.55
471.68	13521.27
471.86	13535.32
472.04	13692.13
472.22	13958.96
472.40	13668.73
472.58	13626.60
472.77	13731.92
472.95	13982.36
473.13	14516.00
473.31	13848.95
473.49	14001.08
473.67	14162.58
473.85	14413.02
474.03	14602.60
474.21	14462.17
474.39	14710.27
474.57	14539.41
474.75	14946.66
474.93	14810.91
475.12	14628.35
475.30	15140.93
475.48	14771.12
475.66	15089.43
475.84	15190.08
476.02	15410.09
476.20	15222.84
476.38	15719.04
476.56	15941.39
476.74	15887.56
476.92	15903.94
477.10	15913.30
477.28	16180.12
477.46	15941.39
477.64	16226.93
477.82	16404.81
478.00	16879.94
478.18	16753.55
478.36	16812.07
478.54	17102.29
478.72	17022.72
478.90	17593.81
479.08	17631.26
479.26	17745.94
479.44	17617.21
479.62	17757.64
479.80	17692.11
479.98	17832.54
480.16	18272.56
480.34	18174.26
480.52	18565.13
480.70	18644.71
480.88	18494.91
481.06	18750.03
481.24	18780.46
481.41	19103.45
481.59	19133.88
481.77	19421.77
481.95	19496.66
482.13	19459.21
482.31	19412.40
482.49	20203.50
482.67	20042.01
482.85	20608.42
483.03	20262.02
483.21	20999.29
483.39	20922.05
483.57	20671.61
483.74	21261.43
483.92	21078.86
484.10	21233.34
484.28	21671.02
484.46	22005.72
484.64	22178.92
484.82	21947.20
485.00	21886.35
485.18	22747.67
485.35	22885.76
485.53	22860.01
485.71	23007.47
485.89	23234.50
486.07	23271.95
486.25	23470.89
486.43	23466.21
486.61	23683.88
486.78	23922.62
486.96	23943.68
487.14	24166.03
487.32	24425.83
487.50	24683.29
487.68	24812.02
487.85	25050.75
488.03	25359.70
488.21	25647.59
488.39	25411.20
488.57	25734.19
488.75	26171.87
488.92	25979.95
489.10	26618.91
489.28	26806.16
489.46	26878.71
489.64	26775.73
489.81	27543.42
489.99	27508.32
490.17	27452.14
490.35	28011.53
490.53	27896.85
490.70	28184.73
490.88	28135.58
491.06	28486.66
491.24	28687.95
491.41	29216.91
491.59	29043.71
491.77	29090.52
491.95	29497.77
492.13	29593.73
492.30	29598.41
492.48	29741.19
492.66	29909.71
492.84	30155.46
493.01	30518.25
493.19	30251.42
493.37	30913.80
493.54	31564.46
493.72	31119.76
493.90	31264.88
494.08	31627.66
494.25	31807.88
494.43	31880.44
494.61	32121.51
494.79	32484.30
494.96	32198.75
495.14	32744.09
495.32	33006.23
495.49	32968.79
495.67	32774.52
495.85	33507.11
496.02	33558.60
496.20	33820.74
496.38	33783.29
496.55	33961.17
496.73	35047.18
496.91	34340.34
497.09	34881.00
497.26	34391.83
497.44	34546.31
497.62	34834.19
497.79	35419.33
497.97	35400.60
498.14	35831.26
498.32	35700.19
498.50	35693.17
498.67	36512.36
498.85	36278.30
499.03	36385.97
499.20	36669.17
499.38	36493.63
499.56	37151.32
499.73	37160.69
499.91	37125.58
500.08	37567.94
500.26	37163.03
500.44	37350.27
500.61	37923.70
500.79	37364.31
500.97	37614.75
501.14	38433.94
501.32	38185.84
501.49	38415.21
501.67	38588.41
501.84	38845.87
502.02	38368.40
502.20	38660.97
502.37	39028.43
502.55	38885.66
502.72	38953.54
502.90	39775.06
503.07	39168.87
503.25	39220.36
503.43	39583.14
503.60	39693.15
503.78	40161.25
503.95	39962.31
504.13	40533.40
504.30	40334.45
504.48	40275.94
504.65	40739.36
504.83	40662.13
505.01	41296.41
505.18	41301.09
505.36	41294.07
505.53	40739.36
505.71	41467.27
505.88	41483.66
506.06	41308.11
506.23	41542.17
506.41	41757.50
506.58	42286.46
506.76	41972.83
506.93	42218.58
507.11	42305.18
507.28	42237.31
507.46	42724.14
507.63	42476.04
507.81	42967.55
507.98	42691.37
508.16	43100.97
508.33	43019.05
508.50	43276.51
508.68	43028.41
508.85	43655.67
509.03	43817.17
509.20	43618.22
509.38	44172.93
509.55	43744.61
509.73	44095.69
509.90	44404.64
510.08	44390.60
510.25	44182.29
510.42	45003.82
510.60	44505.29
510.77	45074.04
510.95	45331.50
511.12	44802.53
511.30	45017.86
511.47	45287.03
511.64	45574.91
511.82	45694.28
511.99	45572.57
512.17	45818.33
512.34	45937.69
512.51	46389.42
512.69	46223.24
512.86	46036.00
513.04	45977.48
513.21	46167.07
513.38	46473.68
513.56	46876.25
513.73	46571.98
513.90	46920.72
514.08	46813.05
514.25	47222.65
514.43	47016.68
514.60	46930.08
514.77	46850.50
514.95	47662.67
515.12	47262.44
515.29	47592.45
515.47	47241.37
515.64	47555.00
515.81	47622.88
515.99	48257.17
516.16	48076.94
516.33	48074.60
516.51	48505.26
516.68	48196.31
516.85	48140.14
517.03	48804.85
517.20	48495.90
517.37	48505.26
517.54	48655.06
517.72	48397.60
517.89	48758.04
518.06	49059.97
518.24	49074.01
518.41	49113.80
518.58	48809.53
518.75	49247.21
518.93	49354.88
519.10	49448.50
519.27	49237.85
519.45	49668.51
519.62	49584.25
519.79	49621.70
519.96	49621.70
520.14	50160.02
520.31	49797.24
520.48	50520.46
520.65	50265.34
520.83	50553.23
521.00	50742.81
521.17	50497.06
521.34	50595.36
521.52	50454.93
521.69	50656.21
521.86	50798.99
522.03	51075.17
522.20	51161.77
522.38	51157.09
522.55	51278.80
522.72	50988.57
522.89	51009.64
523.07	51583.07
523.24	51145.39
523.41	51594.77
523.58	51452.00
523.75	51854.57
523.92	51629.88
524.10	51643.92
524.27	51899.04
524.44	51840.53
524.61	51779.67
524.78	51831.16
524.96	51786.69
525.13	51943.51
525.30	52226.71
525.47	51976.28
525.64	52210.33
525.81	52655.03
525.98	52566.09
526.16	52137.77
526.33	52406.94
526.50	52919.51
526.67	52697.16
526.84	52940.58
527.01	52839.93
527.18	52762.70
527.36	52690.14
527.53	52971.00
527.70	53202.72
527.87	53265.91
528.04	53092.71
528.21	53268.25
528.38	53380.60
528.55	53432.09
528.72	53354.85
528.89	53394.64
529.07	53385.28
529.24	53394.64
529.41	53446.13
529.58	53467.20
529.75	53731.68
529.92	53829.98
530.09	53598.27
530.26	54017.22
530.43	53806.58
530.60	53399.32
530.77	53752.74
530.94	53975.09
531.11	53965.73
531.28	53839.34
531.46	53792.53
531.63	54019.56
531.80	54003.18
531.97	54064.03
532.14	54337.88
532.31	54054.67
532.48	54349.58
532.65	54611.72
532.82	54347.24
532.99	54616.40
533.16	54356.60
533.33	54710.02
533.50	54782.58
533.67	54389.37
533.84	54681.94
534.01	54745.13
534.18	54845.77
534.35	55068.12
534.52	54883.22
534.69	55166.43
534.86	55278.77
535.03	54908.97
535.20	55306.86
535.37	55381.76
535.54	55288.13
535.71	54981.52
535.88	55334.95
536.05	55529.21
536.22	55433.25
536.38	55395.80
536.55	55297.50
536.72	55065.78
536.89	55056.42
537.06	55583.04
537.23	55683.69
537.40	55538.57
537.57	55433.25
537.74	55728.16
537.91	55854.54
538.08	55774.97
538.25	55564.32
538.42	55877.95
538.59	55744.54
538.75	55613.47
538.92	55859.23
539.09	56053.49
539.26	55985.61
539.43	56032.42
539.60	56020.72
539.77	55896.67
539.94	56217.33
540.11	56154.13
540.28	56053.49
540.44	56303.93
540.61	56367.12
540.78	56177.54
540.95	56472.45
541.12	56055.83
541.29	56184.56
541.46	56404.57
541.62	56502.87
541.79	56556.70
541.96	56343.72
542.13	56474.79
542.30	56460.74
542.47	56687.78
542.63	56690.12
542.80	56727.56
542.97	56875.02
543.14	56858.63
543.31	57134.82
543.48	56755.65
543.64	57254.18
543.81	57324.40
543.98	57038.86
544.15	57106.73
544.32	57380.57
544.48	57464.83
544.65	57080.98
544.82	57289.29
544.99	57193.33
545.16	57422.70
545.32	57389.94
545.49	57326.74
545.66	57682.50
545.83	57525.69
546.00	57502.28
546.16	57616.97
546.33	57399.30
546.50	57193.33
546.67	57619.31
546.83	57427.38
547.00	57542.07
547.17	57588.88
547.34	57539.73
547.50	57832.30
547.67	58115.50
547.84	57874.43
548.00	58166.99
548.17	58152.95
548.34	57806.55
548.51	58014.86
548.67	58003.16
548.84	57951.66
549.01	57883.79
549.18	57984.43
549.34	58021.88
549.51	58197.42
549.68	58272.32
549.84	58033.58
550.01	58155.29
550.18	58108.48
550.34	58295.72
550.51	58211.46
550.68	58333.17
550.84	58150.61
551.01	58368.28
551.18	58487.65
551.34	58365.94
551.51	58515.73
551.68	58426.79
551.84	58478.28
552.01	58550.84
552.18	58616.38
552.34	58241.89
552.51	58466.58
552.68	58464.24
552.84	58506.37
553.01	58810.64
553.18	58534.46
553.34	58630.42
553.51	58780.21
553.67	58658.51
553.84	59051.72
554.01	58976.82
554.17	58974.48
554.34	58993.20
554.51	58752.13
554.67	59068.10
554.84	58878.52
555.00	58922.99
555.17	58747.45
555.33	58988.52
555.50	58803.62
555.67	58745.11
555.83	58707.66
556.00	59091.51
556.16	59236.62
556.33	59117.25
556.50	59103.21
556.66	59297.47
556.83	59016.61
556.99	59210.87
557.16	59540.89
557.32	59430.88
557.49	59487.06
557.65	59276.41
557.82	59238.96
557.98	59374.71
558.15	59388.75
558.32	59632.17
558.48	59178.10
558.65	59395.77
558.81	59206.19
558.98	59489.40
559.14	59536.21
559.31	59512.80
559.47	59573.66
559.64	59620.47
559.80	59655.57
559.97	59667.28
560.13	59461.31
560.30	59695.36
560.46	59587.70
560.63	59721.11
560.79	59653.23
560.96	59943.46
561.12	59636.85
561.29	59863.88
561.45	59671.96
561.61	59559.61
561.78	59648.55
561.94	59774.94
562.11	59615.79
562.27	59671.96
562.44	59835.80
562.60	60051.12
562.77	60009.00
562.93	59711.75
563.10	59957.50
563.26	59877.93
563.42	59934.10
563.59	59784.30
563.75	59950.48
563.92	59985.59
564.08	59999.63
564.24	59873.24
564.41	60009.00
564.57	60191.56
564.74	59971.55
564.90	60016.02
565.07	60032.40
565.23	59976.23
565.39	60016.02
565.56	60140.07
565.72	60196.24
565.88	60018.36
566.05	59725.79
566.21	60039.42
566.38	60039.42
566.54	60086.23
566.70	60184.54
566.87	60219.64
567.03	60048.78
567.19	60355.39
567.36	60177.51
567.52	60301.56
567.68	60514.55
567.85	60069.85
568.01	60350.71
568.17	60360.08
568.34	60418.59
568.50	60119.00
568.66	60378.80
568.83	60495.83
568.99	60266.45
569.15	60212.62
569.32	60287.52
569.48	60303.90
569.64	60362.42
569.81	60140.07
569.97	60278.16
570.13	60559.02
570.30	60025.38
570.46	60346.03
570.62	60521.57
570.78	60523.91
570.95	60446.68
571.11	60273.48
571.27	60189.22
571.43	60275.82
571.60	60460.72
571.76	60289.86
571.92	60444.33
572.09	60699.45
572.25	60392.84
572.41	60451.36
572.57	60308.58
572.74	60736.90
572.90	60495.83
573.06	60563.70
573.22	60465.40
573.38	60631.58
573.55	60355.39
573.71	60678.39
573.87	60453.70
574.03	60456.04
574.20	60617.53
574.36	60540.30
574.52	60720.52
574.68	60556.68
574.84	60643.28
575.01	60610.51
575.17	60591.79
575.33	60552.00
575.49	60561.36
575.65	60449.02
575.82	60605.83
575.98	60697.11
576.14	60821.16
576.30	60959.25
576.46	60690.09
576.62	60624.56
576.79	60772.01
576.95	60547.32
577.11	60725.20
577.27	60659.66
577.43	60860.95
577.59	60718.18
577.75	60853.93
577.92	60554.34
578.08	60664.35
578.24	60835.20
578.40	61078.62
578.56	60769.67
578.72	60554.34
578.88	60982.66
579.04	60860.95
579.21	60774.35
579.37	61057.56
579.53	61020.11
579.69	60575.40
579.85	60725.20
580.01	60594.13
580.17	60563.70
580.33	60767.33
580.49	60807.12
580.65	60811.80
580.82	60729.88
580.98	60608.17
581.14	60767.33
581.30	60832.86
581.46	60788.39
581.62	60910.10
581.78	60582.43
581.94	60804.78
582.10	60830.52
582.26	60781.37
582.42	60760.31
582.58	60912.44
582.74	60779.03
582.90	60818.82
583.06	60727.54
583.22	60650.30
583.38	60575.40
583.54	60917.12
583.70	60720.52
583.86	60926.49
584.02	60844.57
584.18	60837.54
584.34	60832.86
584.50	60975.64
584.66	60720.52
584.82	60804.78
584.98	61041.17
585.14	61003.72
585.30	60879.67
585.46	60917.12
585.62	61017.77
585.78	60928.83
585.94	60804.78
586.10	60933.51
586.26	60767.33
586.42	60989.68
586.58	60816.48
586.74	60959.25
586.90	60832.86
587.06	60935.85
587.22	61059.90
587.38	60863.29
587.54	61073.94
587.70	61073.94
587.86	60896.06
588.02	60977.98
588.18	61013.08
588.34	60935.85
588.49	61008.40
