SpectraSuite Data File
++++++++++++++++++++++++++++++++++++
Date: Fri Oct 25 11:25:19 EDT 2013
User: price-jones
Dark Spectrum Present: No
Reference Spectrum Present: No
Number of Sampled Component Spectra: 1
Spectrometers: USB2+H05261
Integration Time (usec): 100000 (USB2+H05261)
Spectra Averaged: 1 (USB2+H05261)
Boxcar Smoothing: 0 (USB2+H05261)
Correct for Electrical Dark: No (USB2+H05261)
Strobe/Lamp Enabled: No (USB2+H05261)
Correct for Detector Non-linearity: No (USB2+H05261)
Correct for Stray Light: No (USB2+H05261)
Number of Pixels in Processed Spectrum: 2048
>>>>>Begin Processed Spectral Data<<<<<
365.73	257.46
365.92	257.46
366.12	257.46
366.32	131.07
366.52	63.19
366.72	145.11
366.91	126.39
367.11	128.73
367.31	182.56
367.51	156.82
367.70	138.09
367.90	182.56
368.10	117.03
368.30	156.82
368.49	126.39
368.69	100.64
368.89	140.43
369.09	177.88
369.28	161.50
369.48	180.22
369.68	112.35
369.87	222.35
370.07	231.71
370.27	238.73
370.47	325.33
370.66	603.86
370.86	627.26
371.06	683.44
371.25	744.29
371.45	638.97
371.65	655.35
371.84	629.60
372.04	664.71
372.24	690.46
372.44	751.31
372.63	779.40
372.83	753.65
373.03	770.04
373.22	814.51
373.42	795.78
373.62	763.01
373.81	784.08
374.01	847.27
374.21	912.81
374.40	823.87
374.60	821.53
374.79	819.19
374.99	898.77
375.19	835.57
375.38	842.59
375.58	877.70
375.78	812.17
375.97	861.32
376.17	821.53
376.37	851.96
376.56	926.85
376.76	856.64
376.95	842.59
377.15	809.83
377.35	938.55
377.54	910.47
377.74	837.91
377.93	861.32
378.13	915.15
378.33	966.64
378.52	912.81
378.72	917.49
378.91	973.66
379.11	922.17
379.31	954.94
379.50	999.41
379.70	961.96
379.89	994.73
380.09	933.87
380.28	952.60
380.48	997.07
380.68	887.06
380.87	959.62
381.07	1025.15
381.26	1013.45
381.46	1048.56
381.65	1050.90
381.85	1121.12
382.04	1078.99
382.24	1100.05
382.43	1083.67
382.63	999.41
382.83	1130.48
383.02	1193.67
383.22	1100.05
383.41	1198.35
383.61	1109.41
383.80	1240.48
384.00	1064.94
384.19	1050.90
384.39	1074.31
384.58	1165.59
384.78	1083.67
384.97	1086.01
385.17	1172.61
385.36	1137.50
385.56	1179.63
385.75	1217.08
385.95	1214.74
386.14	1268.57
386.34	1111.75
386.53	1203.04
386.72	1156.22
386.92	1224.10
387.11	1146.86
387.31	1263.89
387.50	1142.18
387.70	1299.00
387.89	1268.57
388.09	1245.16
388.28	1226.44
388.48	1352.83
388.67	1299.00
388.86	1315.38
389.06	1214.74
389.25	1345.81
389.45	1287.29
389.64	1296.66
389.84	1263.89
390.03	1376.24
390.22	1355.17
390.42	1383.26
390.61	1247.51
390.81	1394.96
391.00	1465.18
391.19	1383.26
391.39	1425.39
391.58	1483.90
391.78	1526.03
391.97	1425.39
392.16	1542.41
392.36	1502.62
392.55	1556.46
392.75	1467.52
392.94	1479.22
393.13	1544.75
393.33	1507.30
393.52	1544.75
393.71	1626.67
393.91	1537.73
394.10	1544.75
394.29	1584.54
394.49	1600.93
394.68	1544.75
394.88	1593.90
395.07	1596.25
395.26	1694.55
395.46	1699.23
395.65	1741.36
395.84	1685.19
396.04	1769.44
396.23	1746.04
396.42	1678.16
396.62	1764.76
396.81	1823.28
397.00	1776.47
397.19	1844.34
397.39	1813.92
397.58	1776.47
397.77	1771.79
397.97	1834.98
398.16	1792.85
398.35	1926.26
398.55	1860.73
398.74	1921.58
398.93	1977.75
399.12	1863.07
399.32	1813.92
399.51	1888.81
399.70	2057.33
399.90	2001.16
400.09	1987.11
400.28	2040.95
400.47	2008.18
400.67	2136.91
400.86	2031.58
401.05	2101.80
401.24	2097.12
401.44	2111.16
401.63	2115.84
401.82	2132.23
402.01	2129.89
402.21	2080.74
402.40	2307.77
402.59	2179.04
402.78	2162.66
402.97	2176.70
403.17	2265.64
403.36	2420.11
403.55	2293.72
403.74	2352.24
403.93	2368.62
404.13	2363.94
404.32	2291.38
404.51	2263.30
404.70	2478.63
404.89	2331.17
405.09	2436.50
405.28	2387.35
405.47	2452.88
405.66	2539.48
405.85	2513.74
406.05	2485.65
406.24	2569.91
406.43	2525.44
406.62	2567.57
406.81	2663.53
407.00	2640.12
407.20	2546.50
407.39	2684.59
407.58	2665.87
407.77	2693.96
407.96	2619.06
408.15	2752.47
408.34	2726.72
408.54	2710.34
408.73	2750.13
408.92	2822.69
409.11	2834.39
409.30	2841.41
409.49	2846.09
409.68	2864.82
409.87	2885.88
410.07	2949.08
410.26	3103.55
410.45	3038.02
410.64	3007.59
410.83	3075.46
411.02	3035.67
411.21	3117.59
411.40	3084.83
411.59	3211.22
411.78	3101.21
411.98	3122.27
412.17	3192.49
412.36	3290.79
412.55	3349.31
412.74	3332.92
412.93	3323.56
413.12	3363.35
413.31	3604.42
413.50	3421.86
413.69	3332.92
413.88	3623.15
414.07	3597.40
414.26	3585.70
414.45	3583.36
414.64	3569.32
414.83	3702.73
415.02	3775.28
415.22	3796.35
415.41	3749.54
415.60	3861.88
415.79	3911.04
415.98	3939.12
416.17	3948.48
416.36	4002.32
416.55	3967.21
416.74	4018.70
416.93	4051.47
417.12	4112.32
417.31	4117.00
417.50	4156.79
417.69	4234.03
417.88	4346.37
418.07	4180.20
418.26	4276.16
418.45	4358.08
418.64	4395.53
418.83	4283.18
419.02	4297.22
419.21	4580.43
419.39	4353.40
419.58	4489.15
419.77	4465.74
419.96	4442.34
420.15	4461.06
420.34	4414.25
420.53	4603.83
420.72	4685.75
420.91	4678.73
421.10	4807.46
421.29	4732.56
421.48	4690.43
421.67	4739.58
421.86	4688.09
422.05	4802.78
422.24	4681.07
422.43	4807.46
422.61	4795.76
422.80	4889.38
422.99	4891.72
423.18	4861.29
423.37	5001.72
423.56	4917.47
423.75	4802.78
423.94	4767.67
424.13	4571.07
424.32	4762.99
424.50	4819.16
424.69	5254.50
424.88	5121.09
425.07	4999.38
425.26	4936.19
425.45	5085.98
425.64	4884.70
425.83	4901.08
426.01	4954.91
426.20	5025.13
426.39	5144.50
426.58	4915.12
426.77	4908.10
426.96	5261.52
427.15	5107.05
427.33	5153.86
427.52	5219.39
427.71	5146.84
427.90	5198.33
428.09	5146.84
428.28	5298.97
428.46	5352.81
428.65	5341.10
428.84	5565.79
429.03	5504.94
429.22	5366.85
429.40	5547.07
429.59	5432.38
429.78	5310.68
429.97	5226.42
430.16	5427.70
430.34	5540.05
430.53	5645.37
430.72	5551.75
430.91	5556.43
431.10	5661.76
431.28	5713.25
431.47	5685.16
431.66	5823.25
431.85	5715.59
432.03	5762.40
432.22	6057.31
432.41	5863.04
432.60	5776.44
432.79	5795.17
432.97	5970.71
433.16	6001.13
433.35	5956.66
433.54	5951.98
433.72	6087.73
433.91	5982.41
434.10	6050.28
434.28	6005.81
434.47	6038.58
434.66	6303.06
434.85	6352.21
435.03	6303.06
435.22	6202.42
435.41	6303.06
435.59	6349.87
435.78	6494.99
435.97	6389.66
436.16	6296.04
436.34	6384.98
436.53	6431.79
436.72	6457.54
436.90	6303.06
437.09	6544.14
437.28	6506.69
437.46	6766.49
437.65	6485.62
437.84	6853.09
438.02	6768.83
438.21	6637.76
438.40	6679.89
438.58	6902.24
438.77	6839.05
438.96	6965.43
439.14	6909.26
439.33	7096.50
439.52	7316.51
439.70	7302.47
439.89	7454.61
440.08	7267.36
440.26	7304.81
440.45	7253.32
440.63	7602.06
440.82	7517.80
441.01	7503.76
441.19	7578.65
441.38	7466.31
441.57	7597.38
441.75	7683.98
441.94	7857.18
442.12	7978.89
442.31	8072.51
442.50	8049.10
442.68	7878.24
442.87	7812.71
443.05	8053.78
443.24	8051.44
443.43	7936.76
443.61	8149.75
443.80	8430.61
443.98	7983.57
444.17	7756.54
444.35	8109.96
444.54	8056.12
444.73	8051.44
444.91	8264.43
445.10	8318.26
445.28	8243.37
445.47	8205.92
445.65	8404.86
445.84	8374.44
446.02	8444.65
446.21	8236.35
446.39	8278.47
446.58	8524.23
446.77	8561.68
446.95	8257.41
447.14	8477.42
447.32	8301.88
447.51	8336.99
447.69	8346.35
447.88	8393.16
448.06	8603.81
448.25	8594.45
448.43	8313.58
448.62	8573.38
448.80	8468.06
448.99	8718.50
449.17	8648.28
449.36	8667.00
449.54	8828.50
449.73	8667.00
449.91	8879.99
450.10	8929.14
450.28	8875.31
450.46	9121.07
450.65	8908.08
450.83	9085.96
451.02	9008.72
451.20	9149.15
451.39	9156.18
451.57	8992.34
451.76	8805.10
451.94	9064.89
452.13	9252.14
452.31	9238.09
452.49	9170.22
452.68	9434.70
452.86	9252.14
453.05	9266.18
453.23	9310.65
453.42	9399.59
453.60	9362.14
453.78	9401.93
453.97	9357.46
454.15	9341.08
454.34	9455.76
454.52	9406.61
454.70	9509.60
454.89	9760.03
455.07	9614.92
455.26	9575.13
455.44	9806.84
455.62	9792.80
455.81	9893.44
455.99	9839.61
456.17	10118.14
456.36	9984.73
456.54	9980.04
456.73	10043.24
456.91	10293.68
457.09	10249.21
457.28	10260.91
457.46	10164.95
457.64	10452.83
457.83	10457.51
458.01	10211.76
458.19	10609.65
458.38	10604.97
458.56	10665.82
458.74	10349.85
458.93	10389.64
459.11	10441.13
459.29	10644.76
459.48	10616.67
459.66	10815.62
459.84	10787.53
460.03	10857.75
460.21	10984.13
460.39	10949.03
460.57	11021.58
460.76	10738.38
460.94	10864.77
461.12	11077.76
461.31	11138.61
461.49	11220.53
461.67	11054.35
461.85	11318.83
462.04	11438.20
462.22	11822.05
462.40	11492.03
462.59	11426.50
462.77	11276.70
462.95	11679.27
463.13	11576.29
463.32	11466.28
463.50	11878.22
463.68	11901.62
463.86	11604.38
464.05	11349.26
464.23	11506.07
464.41	11819.71
464.59	11646.51
464.78	11831.41
464.96	11826.73
465.14	11983.54
465.32	11967.16
465.50	12243.34
465.69	12042.06
465.87	12053.76
466.05	12016.31
466.23	12109.93
466.41	11981.20
466.60	12360.37
466.78	12182.49
466.96	12098.23
467.14	12259.73
467.32	12383.77
467.51	12533.57
467.69	12320.58
467.87	12496.12
468.05	12365.05
468.23	12390.80
468.41	12222.28
468.60	12432.93
468.78	12814.43
468.96	12585.06
469.14	12643.57
469.32	12716.13
469.50	12468.03
469.69	13107.00
469.87	12961.89
470.05	13001.68
470.23	13160.83
470.41	13191.26
470.59	13177.22
470.77	13109.34
470.95	13123.38
471.14	13418.29
471.32	13032.10
471.50	13312.97
471.68	13362.12
471.86	13628.94
472.04	13607.87
472.22	14143.86
472.40	13645.32
472.58	13680.43
472.77	13764.69
472.95	13930.87
473.13	14724.31
473.31	13994.06
473.49	14022.15
473.67	14125.13
473.85	14499.62
474.03	14525.36
474.21	14324.08
474.39	14534.73
474.57	14471.53
474.75	14857.72
474.93	14841.34
475.12	14628.35
475.30	14995.81
475.48	14721.97
475.66	15218.16
475.84	14860.06
476.02	15232.21
476.20	15171.35
476.38	15358.60
476.56	15988.20
476.74	15704.99
476.92	15733.08
477.10	15627.76
477.28	16023.31
477.46	15939.05
477.64	16161.40
477.82	16301.83
478.00	16975.91
478.18	16765.26
478.36	16800.37
478.54	16996.97
478.72	17238.05
478.90	17322.30
479.08	17472.10
479.26	17291.88
479.44	17371.46
479.62	17830.20
479.80	17951.91
479.98	17827.86
480.16	18455.12
480.34	17926.16
480.52	17996.38
480.70	18551.09
480.88	18162.56
481.06	18480.87
481.24	18860.04
481.41	19136.22
481.59	19344.53
481.77	19316.44
481.95	19393.68
482.13	19601.99
482.31	19405.38
482.49	19889.87
482.67	20074.77
482.85	20477.35
483.03	20294.79
483.21	20865.88
483.39	20641.18
483.57	20596.71
483.74	20938.43
483.92	21425.26
484.10	21010.99
484.28	21811.45
484.46	21551.65
484.64	22286.58
484.82	21996.35
485.00	21958.91
485.18	22824.90
485.35	22916.19
485.53	22654.05
485.71	22925.55
485.89	23190.03
486.07	23089.38
486.25	23204.07
486.43	23459.19
486.61	23634.73
486.78	23690.90
486.96	23543.45
487.14	24339.23
487.32	24416.47
487.50	24912.66
487.68	24915.00
487.85	25249.70
488.03	25359.70
488.21	25685.04
488.39	25422.90
488.57	26022.08
488.75	26209.32
488.92	26265.49
489.10	26441.03
489.28	26614.23
489.46	26967.65
489.64	26752.32
489.81	27185.32
489.99	27644.07
490.17	27627.68
490.35	27920.25
490.53	28002.17
490.70	28196.43
490.88	27981.10
491.06	28662.20
491.24	28542.83
491.41	28617.73
491.59	28591.98
491.77	29177.12
491.95	29422.87
492.13	29507.13
492.30	29701.40
492.48	29647.57
492.66	29788.00
492.84	30024.39
493.01	30567.40
493.19	30071.20
493.37	30527.61
493.54	31166.57
493.72	30930.18
493.90	31356.16
494.08	31702.56
494.25	31620.64
494.43	31833.63
494.61	31983.42
494.79	31796.18
494.96	32549.83
495.14	32837.72
495.32	33296.46
495.49	32952.40
495.67	32842.40
495.85	33141.99
496.02	33270.72
496.20	33919.04
496.38	33752.87
496.55	33787.97
496.73	34462.05
496.91	34171.82
497.09	34616.52
497.26	34319.28
497.44	34848.24
497.62	35168.89
497.79	35590.19
497.97	35412.31
498.14	35608.91
498.32	35763.39
498.50	35754.02
498.67	36182.34
498.85	36282.98
499.03	36388.31
499.20	36589.59
499.38	36734.71
499.56	36673.85
499.73	36711.30
499.91	36811.95
500.08	37352.61
500.26	37284.73
500.44	37476.66
500.61	37490.70
500.79	37596.03
500.97	37661.56
501.14	38305.21
501.32	38066.47
501.49	38520.54
501.67	38342.66
501.84	38742.89
502.02	38581.39
502.20	38742.89
502.37	38824.81
502.55	39110.35
502.72	38871.62
502.90	39267.17
503.07	39236.74
503.25	39480.16
503.43	39377.17
503.60	39510.58
503.78	39756.34
503.95	39756.34
504.13	40252.53
504.30	40271.26
504.48	40250.19
504.65	40769.79
504.83	41008.53
505.01	40891.50
505.18	41111.51
505.36	41401.74
505.53	40636.38
505.71	41605.36
505.88	41251.94
506.06	41249.60
506.23	41698.98
506.41	41624.09
506.58	42115.60
506.76	41858.14
506.93	41890.91
507.11	41909.63
507.28	42106.24
507.46	42153.05
507.63	42557.96
507.81	42887.98
507.98	42527.53
508.16	42862.23
508.33	43405.23
508.50	43276.51
508.68	43320.98
508.85	43983.35
509.03	43065.86
509.20	43674.40
509.38	44198.68
509.55	44088.67
509.73	44254.85
509.90	44378.90
510.08	44313.36
510.25	44418.69
510.42	44650.40
510.60	44531.03
510.77	44928.92
510.95	45134.89
511.12	44966.37
511.30	44729.98
511.47	45195.74
511.64	45675.55
511.82	45429.80
511.99	45507.04
512.17	45588.95
512.34	45392.35
512.51	45872.16
512.69	46422.19
512.86	45617.04
513.04	46525.17
513.21	46195.15
513.38	46431.55
513.56	46417.50
513.73	46639.86
513.90	46728.80
514.08	46689.01
514.25	46969.87
514.43	46902.00
514.60	47302.23
514.77	46738.16
514.95	47246.05
515.12	47503.51
515.29	46990.94
515.47	47842.89
515.64	47356.06
515.81	47547.98
515.99	48137.80
516.16	48327.38
516.33	47957.58
516.51	48137.80
516.68	48278.23
516.85	48072.26
517.03	48720.59
517.20	48797.83
517.37	48135.46
517.54	48704.21
517.72	48842.30
517.89	48959.33
518.06	49006.14
518.24	48858.68
518.41	49062.31
518.58	49158.27
518.75	48956.99
518.93	49425.09
519.10	49249.55
519.27	49673.19
519.45	49617.02
519.62	49705.96
519.79	49532.76
519.96	49462.54
520.14	49612.34
520.31	50033.63
520.48	50099.17
520.65	50017.25
520.83	50475.99
521.00	50211.51
521.17	50464.29
521.34	50653.87
521.52	50541.53
521.69	50419.82
521.86	50749.84
522.03	50712.39
522.20	50735.79
522.38	50969.85
522.55	51121.98
522.72	50923.04
522.89	50810.69
523.07	51583.07
523.24	51143.05
523.41	51203.90
523.58	51157.09
523.75	51828.82
523.92	51444.98
524.10	51402.85
524.27	51866.27
524.44	51894.36
524.61	51901.38
524.78	52128.41
524.96	52023.09
525.13	51901.38
525.30	52336.72
525.47	52105.01
525.64	52523.96
525.81	52289.91
525.98	52456.09
526.16	52381.19
526.33	52617.58
526.50	52750.99
526.67	52287.57
526.84	52790.78
527.01	52561.41
527.18	52500.56
527.36	52765.04
527.53	52797.80
527.70	52891.43
527.87	52947.60
528.04	52959.30
528.21	53460.18
528.38	52884.40
528.55	53146.54
528.72	53045.90
528.89	53148.88
529.07	52996.75
529.24	53396.98
529.41	53558.48
529.58	53443.79
529.75	53324.43
529.92	53752.74
530.09	53612.31
530.26	53577.20
530.43	54012.54
530.60	53537.41
530.77	53741.04
530.94	53722.32
531.11	53827.64
531.28	53787.85
531.46	54087.44
531.63	54192.76
531.80	54080.42
531.97	54209.15
532.14	54145.95
532.31	54277.02
532.48	54000.84
532.65	54497.03
532.82	54204.47
532.99	54843.43
533.16	54293.41
533.33	54721.72
533.50	54674.91
533.67	54593.00
533.84	54497.03
534.01	54506.40
534.18	54639.81
534.35	55192.17
534.52	55121.96
534.69	55133.66
534.86	55044.72
535.03	54698.32
535.20	55002.59
535.37	55040.04
535.54	55070.46
535.71	55070.46
535.88	55299.84
536.05	55290.48
536.22	55372.39
536.38	55234.30
536.55	55510.49
536.72	55440.27
536.89	55189.83
537.06	55306.86
537.23	55224.94
537.40	55311.54
537.57	55505.80
537.74	55622.83
537.91	55608.79
538.08	55781.99
538.25	55524.53
538.42	55627.51
538.59	55753.90
538.75	55379.42
538.92	55819.44
539.09	55798.37
539.26	55948.17
539.43	55927.10
539.60	56100.30
539.77	56083.92
539.94	56264.14
540.11	56285.20
540.28	56236.05
540.44	56289.88
540.61	56369.46
540.78	56411.59
540.95	56374.14
541.12	56093.28
541.29	56264.14
541.46	56430.32
541.62	56416.27
541.79	56561.39
541.96	56289.88
542.13	56226.69
542.30	56647.99
542.47	56732.25
542.63	56746.29
542.80	56729.90
542.97	57001.41
543.14	57085.67
543.31	56839.91
543.48	57036.51
543.64	57298.65
543.81	57064.60
543.98	57106.73
544.15	57207.37
544.32	57134.82
544.48	57443.77
544.65	56947.57
544.82	57359.51
544.99	57158.22
545.16	57436.75
545.32	57303.34
545.49	57364.19
545.66	57373.55
545.83	57406.32
546.00	57488.24
546.16	57516.32
546.33	57265.89
546.50	57059.92
546.67	57511.64
546.83	57289.29
547.00	57516.32
547.17	57649.74
547.34	57476.54
547.50	57614.63
547.67	57862.72
547.84	57790.17
548.00	57897.83
548.17	58035.92
548.34	58066.35
548.51	57961.03
548.67	57991.45
548.84	58012.52
549.01	58166.99
549.18	57963.37
549.34	58272.32
549.51	58295.72
549.68	58326.15
549.84	58176.36
550.01	58164.65
550.18	58122.52
550.34	58110.82
550.51	58131.89
550.68	58253.59
550.84	58255.93
551.01	58099.12
551.18	58220.83
551.34	58183.38
551.51	58370.62
551.68	58361.26
551.84	58541.48
552.01	58248.91
552.18	58323.81
552.34	58253.59
552.51	58426.79
552.68	58267.64
552.84	58478.28
553.01	58625.74
553.18	58663.19
553.34	58817.66
553.51	58616.38
553.67	58529.78
553.84	58700.64
554.01	58805.96
554.17	58834.05
554.34	58824.68
554.51	58820.00
554.67	58908.94
554.84	58836.39
555.00	58656.17
555.17	58745.11
555.33	58663.19
555.50	58738.08
555.67	58660.85
555.83	58941.71
556.00	59042.35
556.16	59103.21
556.33	59159.38
556.50	59079.80
556.66	59224.92
556.83	58852.77
556.99	59180.45
557.16	59395.77
557.32	59262.36
557.49	59475.35
557.65	59145.34
557.82	59089.16
557.98	59285.77
558.15	59178.10
558.32	59358.33
558.48	59327.90
558.65	59318.54
558.81	59529.19
558.98	59353.65
559.14	59271.73
559.31	59419.18
559.47	59398.12
559.64	59540.89
559.80	59519.82
559.97	59669.62
560.13	59449.61
560.30	59529.19
560.46	59440.24
560.63	59447.27
560.79	59735.15
560.96	59447.27
561.12	59473.01
561.29	59660.26
561.45	59770.26
561.61	59580.68
561.78	59543.23
561.94	59456.63
562.11	59625.15
562.27	59714.09
562.44	59793.67
562.60	60025.38
562.77	59847.50
562.93	59552.59
563.10	60016.02
563.26	59707.07
563.42	59903.67
563.59	59788.98
563.75	59716.43
563.92	59690.68
564.08	59786.64
564.24	59842.82
564.41	59849.84
564.57	60032.40
564.74	60030.06
564.90	60079.21
565.07	59803.03
565.23	59779.62
565.39	59994.95
565.56	60219.64
565.72	59863.88
565.88	59931.76
566.05	59957.50
566.21	59927.08
566.38	60214.96
566.54	60030.06
566.70	60121.34
566.87	60221.98
567.03	60165.81
567.19	60315.61
567.36	60308.58
567.52	60032.40
567.68	60355.39
567.85	60172.83
568.01	60224.32
568.17	59966.87
568.34	60219.64
568.50	60402.21
568.66	60212.62
568.83	60282.84
568.99	60142.41
569.15	60238.37
569.32	60254.75
569.48	60067.51
569.64	60502.85
569.81	60355.39
569.97	60119.00
570.13	60477.10
570.30	60299.22
570.46	60458.38
570.62	60346.03
570.78	60362.42
570.95	60168.15
571.11	60554.34
571.27	60334.33
571.43	60498.17
571.60	60299.22
571.76	60299.22
571.92	60441.99
572.09	60271.14
572.25	60439.65
572.41	60315.61
572.57	60427.95
572.74	60584.77
572.90	60523.91
573.06	60638.60
573.22	60413.91
573.38	60732.22
573.55	60416.25
573.71	60418.59
573.87	60601.15
574.03	60388.16
574.20	60591.79
574.36	60444.33
574.52	60692.43
574.68	60479.44
574.84	60453.70
575.01	60629.24
575.17	60493.49
575.33	60603.49
575.49	60547.32
575.65	60582.43
575.82	60591.79
575.98	60769.67
576.14	60713.50
576.30	60622.22
576.46	60669.03
576.62	60486.46
576.79	60523.91
576.95	60566.04
577.11	60598.81
577.27	60552.00
577.43	60657.32
577.59	60416.25
577.75	60559.02
577.92	60371.78
578.08	60800.10
578.24	60727.54
578.40	60795.42
578.56	60598.81
578.72	60823.50
578.88	60762.65
579.04	60760.31
579.21	60580.09
579.37	60779.03
579.53	60858.61
579.69	60610.51
579.85	60823.50
580.01	60399.86
580.17	60491.15
580.33	60818.82
580.49	60823.50
580.65	60851.59
580.82	60584.77
580.98	60645.62
581.14	60690.09
581.30	60865.63
581.46	60617.53
581.62	60804.78
581.78	60711.16
581.94	60676.05
582.10	60860.95
582.26	60608.17
582.42	60762.65
582.58	60612.85
582.74	60734.56
582.90	60434.97
583.06	60844.57
583.22	60514.55
583.38	60729.88
583.54	60896.06
583.70	60809.46
583.86	60814.14
584.02	60760.31
584.18	60921.80
584.34	60903.08
584.50	61029.47
584.66	60760.31
584.82	60694.77
584.98	60851.59
585.14	60867.97
585.30	60767.33
585.46	60935.85
585.62	60828.18
585.78	61041.17
585.94	60800.10
586.10	60814.14
586.26	60823.50
586.42	60776.69
586.58	61104.37
586.74	60954.57
586.90	60924.14
587.06	60825.84
587.22	61055.21
587.38	60891.38
587.54	60832.86
587.70	61031.81
587.86	60898.40
588.02	60973.30
588.18	61034.15
588.34	60905.42
588.49	60893.72
