SpectraSuite Data File
++++++++++++++++++++++++++++++++++++
Date: Fri Oct 25 10:48:35 EDT 2013
User: price-jones
Dark Spectrum Present: No
Reference Spectrum Present: No
Number of Sampled Component Spectra: 1
Spectrometers: USB2+H05261
Integration Time (usec): 100000 (USB2+H05261)
Spectra Averaged: 1 (USB2+H05261)
Boxcar Smoothing: 0 (USB2+H05261)
Correct for Electrical Dark: No (USB2+H05261)
Strobe/Lamp Enabled: No (USB2+H05261)
Correct for Detector Non-linearity: No (USB2+H05261)
Correct for Stray Light: No (USB2+H05261)
Number of Pixels in Processed Spectrum: 2048
>>>>>Begin Processed Spectral Data<<<<<
365.73	124.05
365.92	124.05
366.12	124.05
366.32	53.83
366.52	16.38
366.72	46.81
366.91	0.00
367.11	0.00
367.31	74.90
367.51	84.26
367.70	56.17
367.90	63.19
368.10	25.75
368.30	67.88
368.49	39.79
368.69	58.51
368.89	18.72
369.09	0.00
369.28	107.66
369.48	58.51
369.68	159.16
369.87	86.60
370.07	119.37
370.27	128.73
370.47	234.05
370.66	386.19
370.86	535.98
371.06	491.51
371.25	456.40
371.45	528.96
371.65	500.87
371.84	397.89
372.04	545.34
372.24	545.34
372.44	507.90
372.63	608.54
372.83	521.94
373.03	606.20
373.22	507.90
373.42	535.98
373.62	615.56
373.81	540.66
374.01	660.03
374.21	594.50
374.40	634.29
374.60	634.29
374.79	533.64
374.99	636.63
375.19	615.56
375.38	627.26
375.58	664.71
375.78	655.35
375.97	699.82
376.17	676.41
376.37	648.33
376.56	678.76
376.76	667.05
376.95	603.86
377.15	690.46
377.35	648.33
377.54	669.39
377.74	662.37
377.93	669.39
378.13	784.08
378.33	732.59
378.52	688.12
378.72	699.82
378.91	716.20
379.11	629.60
379.31	624.92
379.50	709.18
379.70	667.05
379.89	784.08
380.09	760.67
380.28	777.06
380.48	812.17
380.68	671.73
380.87	727.91
381.07	734.93
381.26	781.74
381.46	702.16
381.65	791.10
381.85	688.12
382.04	718.54
382.24	751.31
382.43	727.91
382.63	760.67
382.83	732.59
383.02	697.48
383.22	734.93
383.41	760.67
383.61	770.04
383.80	777.06
384.00	880.04
384.19	856.64
384.39	861.32
384.58	877.70
384.78	786.42
384.97	884.72
385.17	851.96
385.36	821.53
385.56	816.85
385.75	877.70
385.95	863.66
386.14	931.53
386.34	898.77
386.53	866.00
386.72	844.93
386.92	912.81
387.11	912.81
387.31	875.36
387.50	931.53
387.70	919.83
387.89	1015.79
388.09	931.53
388.28	933.87
388.48	961.96
388.67	1018.13
388.86	933.87
389.06	1011.11
389.25	987.71
389.45	1062.60
389.64	1050.90
389.84	1057.92
390.03	1153.88
390.22	1032.18
390.42	1036.86
390.61	1071.97
390.81	1062.60
391.00	1046.22
391.19	1104.73
391.39	1095.37
391.58	1170.27
391.78	1121.12
391.97	1142.18
392.16	1121.12
392.36	1088.35
392.55	1053.24
392.75	1114.10
392.94	990.05
393.13	1074.31
393.33	1090.69
393.52	1114.10
393.71	1128.14
393.91	1167.93
394.10	1172.61
394.29	1193.67
394.49	1240.48
394.68	1245.16
394.88	1327.08
395.07	1329.42
395.26	1313.04
395.46	1416.02
395.65	1207.72
395.84	1266.23
396.04	1284.95
396.23	1284.95
396.42	1205.38
396.62	1315.38
396.81	1317.72
397.00	1207.72
397.19	1303.68
397.39	1413.68
397.58	1378.58
397.77	1465.18
397.97	1511.99
398.16	1533.05
398.35	1563.48
398.55	1441.77
398.74	1570.50
398.93	1682.85
399.12	1586.88
399.32	1652.42
399.51	1579.86
399.70	1621.99
399.90	1682.85
400.09	1624.33
400.28	1739.02
400.47	1631.35
400.67	1678.16
400.86	1750.72
401.05	1746.04
401.24	1689.87
401.44	1811.57
401.63	1834.98
401.82	1872.43
402.01	1762.42
402.21	1764.76
402.40	1809.23
402.59	1823.28
402.78	1851.36
402.97	1776.47
403.17	1877.11
403.36	1963.71
403.55	1926.26
403.74	1905.20
403.93	1980.09
404.13	2001.16
404.32	2038.61
404.51	1905.20
404.70	1947.33
404.89	2066.69
405.09	2087.76
405.28	2001.16
405.47	2071.37
405.66	2012.86
405.85	2073.71
406.05	2160.31
406.24	2017.54
406.43	2148.61
406.62	2218.83
406.81	2328.83
407.00	2113.50
407.20	2157.97
407.39	2169.68
407.58	2317.13
407.77	2403.73
407.96	2370.96
408.15	2284.36
408.34	2413.09
408.54	2450.54
408.73	2417.77
408.92	2319.47
409.11	2359.26
409.30	2485.65
409.49	2319.47
409.68	2401.39
409.87	2396.71
410.07	2363.94
410.26	2525.44
410.45	2462.24
410.64	2637.78
410.83	2640.12
411.02	2612.04
411.21	2682.25
411.40	2649.49
411.59	2785.24
411.78	2672.89
411.98	2740.77
412.17	2738.43
412.36	2860.13
412.55	2892.90
412.74	2925.67
412.93	2869.50
413.12	2815.66
413.31	3030.99
413.50	2836.73
413.69	3005.25
413.88	3096.53
414.07	3030.99
414.26	3091.85
414.45	3185.47
414.64	3164.40
414.83	3082.49
415.02	3077.80
415.22	3136.32
415.41	3220.58
415.60	3417.18
415.79	3227.60
415.98	3365.69
416.17	3346.97
416.36	3379.73
416.55	3396.12
416.74	3356.33
416.93	3407.82
417.12	3398.46
417.31	3492.08
417.50	3419.52
417.69	3712.09
417.88	3559.95
418.07	3578.68
418.26	3620.81
418.45	3698.05
418.64	3693.37
418.83	3737.84
419.02	3840.82
419.21	3616.13
419.39	3779.97
419.58	3712.09
419.77	3658.26
419.96	3803.37
420.15	3859.54
420.34	3686.34
420.53	3953.16
420.72	3967.21
420.91	3948.48
421.10	4028.06
421.29	4128.70
421.48	4074.87
421.67	3941.46
421.86	3946.14
422.05	3901.67
422.24	3990.61
422.43	4007.00
422.61	4004.66
422.80	4007.00
422.99	4018.70
423.18	4187.22
423.37	4243.39
423.56	4084.23
423.75	4093.60
423.94	4030.40
424.13	3852.52
424.32	3964.87
424.50	4100.62
424.69	4280.84
424.88	4180.20
425.07	4046.79
425.26	3936.78
425.45	4084.23
425.64	4074.87
425.83	4086.58
426.01	4201.26
426.20	4210.62
426.39	4264.46
426.58	4032.74
426.77	4018.70
426.96	4156.79
427.15	4163.81
427.33	4266.80
427.52	4154.45
427.71	4449.36
427.90	4294.88
428.09	4444.68
428.28	4306.59
428.46	4351.06
428.65	4278.50
428.84	4458.72
429.03	4360.42
429.22	4320.63
429.40	4397.87
429.59	4367.44
429.78	4114.66
429.97	3955.51
430.16	4191.90
430.34	4365.10
430.53	4304.25
430.72	4353.40
430.91	4393.19
431.10	4538.30
431.28	4709.16
431.47	4645.96
431.66	4791.08
431.85	4770.01
432.03	4870.65
432.22	4833.21
432.41	4868.31
432.60	4830.87
432.79	4908.10
432.97	4891.72
433.16	4943.21
433.35	4849.59
433.54	4894.06
433.72	4858.95
433.91	4947.89
434.10	4985.34
434.28	5020.45
434.47	4929.17
434.66	5109.39
434.85	5111.73
435.03	5100.03
435.22	5242.80
435.41	5165.56
435.59	5345.78
435.78	5336.42
435.97	5289.61
436.16	5371.53
436.34	5486.22
436.53	5490.90
436.72	5423.02
436.90	5369.19
437.09	5434.72
437.28	5289.61
437.46	5385.57
437.65	5441.75
437.84	5261.52
438.02	5355.15
438.21	5392.59
438.40	5481.53
438.58	5554.09
438.77	5462.81
438.96	5621.97
439.14	5706.23
439.33	5886.45
439.52	5959.00
439.70	5860.70
439.89	5853.68
440.08	6005.81
440.26	5959.00
440.45	5975.39
440.63	6001.13
440.82	6272.64
441.01	6193.06
441.19	6207.10
441.38	6244.55
441.57	6471.58
441.75	6480.94
441.94	6368.60
442.12	6640.10
442.31	6516.05
442.50	6612.01
442.68	6628.40
442.87	6546.48
443.05	6527.75
443.24	6614.35
443.43	6494.99
443.61	6829.68
443.80	6899.90
443.98	6691.59
444.17	6527.75
444.35	6745.42
444.54	6628.40
444.73	6848.41
444.91	6745.42
445.10	6801.60
445.28	6707.98
445.47	6546.48
445.65	6686.91
445.84	6918.62
446.02	7035.65
446.21	6724.36
446.39	6794.58
446.58	6965.43
446.77	6937.35
446.95	6808.62
447.14	6911.60
447.32	7080.12
447.51	6860.11
447.69	6913.94
447.88	7124.59
448.06	6839.05
448.25	6892.88
448.43	7094.16
448.62	6977.14
448.80	6991.18
448.99	7157.36
449.17	7089.48
449.36	7026.29
449.54	7314.17
449.73	7375.03
449.91	7485.03
450.10	7360.98
450.28	7506.10
450.46	7440.56
450.65	7639.51
450.83	7417.16
451.02	7424.18
451.20	7492.05
451.39	7609.08
451.57	7461.63
451.76	7478.01
451.94	7452.27
452.13	7552.91
452.31	7543.55
452.49	7445.24
452.68	7536.52
452.86	7602.06
453.05	7461.63
453.23	7634.83
453.42	7534.18
453.60	7744.83
453.78	7784.62
453.97	7744.83
454.15	7618.44
454.34	7613.76
454.52	7754.19
454.70	7805.69
454.89	7878.24
455.07	7960.16
455.26	7934.42
455.44	8182.51
455.62	8116.98
455.81	8222.30
455.99	8245.71
456.17	8276.13
456.36	8180.17
456.54	8421.25
456.73	8091.23
456.91	8594.45
457.09	8416.57
457.28	8638.92
457.46	8336.99
457.64	8482.10
457.83	8362.73
458.01	8332.31
458.19	8470.40
458.38	8376.78
458.56	8489.12
458.74	8524.23
458.93	8561.68
459.11	8589.77
459.29	8599.13
459.48	8793.39
459.66	8512.53
459.84	8767.65
460.03	8683.39
460.21	8784.03
460.39	8774.67
460.57	8777.01
460.76	8938.51
460.94	8957.23
461.12	8865.95
461.31	9198.31
461.49	8990.00
461.67	8940.85
461.85	9170.22
462.04	9081.28
462.22	9518.96
462.40	9282.56
462.59	9062.55
462.77	9111.71
462.95	9273.20
463.13	9116.39
463.32	9502.58
463.50	9509.60
463.68	9301.29
463.86	9385.55
464.05	9263.84
464.23	9437.04
464.41	9458.10
464.59	9383.21
464.78	9610.24
464.96	9537.68
465.14	9369.16
465.32	9603.22
465.50	9624.28
465.69	9544.70
465.87	9593.86
466.05	9652.37
466.23	9369.16
466.41	9643.01
466.60	9586.83
466.78	9638.33
466.96	9582.15
467.14	9596.20
467.32	9940.26
467.51	9907.49
467.69	9659.39
467.87	9867.70
468.05	9930.89
468.23	9781.10
468.41	9764.72
468.60	9872.38
468.78	10047.92
468.96	9980.04
469.14	10108.77
469.32	10225.80
469.50	9949.62
469.69	10274.95
469.87	10167.29
470.05	10068.98
470.23	10141.54
470.41	10183.67
470.59	10272.61
470.77	10209.42
470.95	10136.86
471.14	10593.26
471.32	10352.19
471.50	10616.67
471.68	10476.24
471.86	10902.22
472.04	10885.83
472.22	10878.81
472.40	10736.04
472.58	10759.44
472.77	10768.80
472.95	10986.47
473.13	11279.04
473.31	11052.01
473.49	11061.37
473.67	10848.38
473.85	11040.31
474.03	11330.53
474.21	11346.92
474.39	11592.67
474.57	11358.62
474.75	11485.01
474.93	11679.27
475.12	11740.13
475.30	11791.62
475.48	11573.95
475.66	11885.24
475.84	11700.34
476.02	12028.01
476.20	12020.99
476.38	12273.77
476.56	12388.46
476.74	12175.47
476.92	12397.82
477.10	12147.38
477.28	12500.80
477.46	12554.63
477.64	12706.77
477.82	12978.27
478.00	12980.61
478.18	12938.48
478.36	13202.96
478.54	13004.02
478.72	13149.13
478.90	13521.27
479.08	13694.47
479.26	13610.22
479.44	13717.88
479.62	13717.88
479.80	14071.30
479.98	13886.40
480.16	14246.84
480.34	14267.91
480.52	14244.50
480.70	14272.59
480.88	14317.06
481.06	14443.45
481.24	14579.20
481.41	14586.22
481.59	14848.36
481.77	15068.37
481.95	15033.26
482.13	15023.90
482.31	14993.47
482.49	15260.29
482.67	15353.91
482.85	15611.37
483.03	15749.46
483.21	15882.88
483.39	16304.17
483.57	15726.06
483.74	16201.19
483.92	16322.90
484.10	16327.58
484.28	16486.73
484.46	16617.80
484.64	16608.44
484.82	16713.77
485.00	16781.64
485.18	16950.16
485.35	16922.07
485.53	16608.44
485.71	16568.65
485.89	17006.33
486.07	16819.09
486.25	17312.94
486.43	17432.31
486.61	17570.40
486.78	17652.32
486.96	18223.41
487.14	18265.54
487.32	18279.58
487.50	18630.66
487.68	19040.26
487.85	19082.39
488.03	19281.33
488.21	19421.77
488.39	19391.34
488.57	19477.94
488.75	19545.81
488.92	19704.97
489.10	20081.80
489.28	20163.72
489.46	20365.00
489.64	20264.36
489.81	20973.54
489.99	20760.55
490.17	20898.64
490.35	21500.16
490.53	21177.17
490.70	21333.98
490.88	21219.30
491.06	21799.75
491.24	21366.75
491.41	21586.76
491.59	21579.74
491.77	21626.55
491.95	21687.40
492.13	22104.02
492.30	22328.71
492.48	22265.52
492.66	22459.78
492.84	22548.72
493.01	22831.93
493.19	22867.03
493.37	22721.92
493.54	23173.64
493.72	23578.56
493.90	23468.55
494.08	23772.82
494.25	24034.96
494.43	24011.56
494.61	24442.21
494.79	23955.38
494.96	24196.46
495.14	24240.93
495.32	24510.09
495.49	24634.14
495.67	24842.45
495.85	25120.97
496.02	25055.43
496.20	25521.20
496.38	25254.38
496.55	25647.59
496.73	25851.22
496.91	25659.29
497.09	25895.69
497.26	26103.99
497.44	26029.10
497.62	26132.08
497.79	26448.05
497.97	25846.54
498.14	26532.31
498.32	26544.02
498.50	26508.91
498.67	26590.83
498.85	26920.84
499.03	27342.14
499.20	27232.13
499.38	27410.01
499.56	27215.75
499.73	27365.54
499.91	27573.85
500.08	27688.54
500.26	27388.95
500.44	27587.89
500.61	27779.82
500.79	27452.14
500.97	27604.28
501.14	27992.81
501.32	28285.37
501.49	28093.45
501.67	28121.54
501.84	28549.85
502.02	28177.71
502.20	28699.65
502.37	28854.12
502.55	28823.70
502.72	28521.77
502.90	29305.85
503.07	28854.12
503.25	29146.69
503.43	29041.37
503.60	29425.22
503.78	29149.03
503.95	29247.33
504.13	29799.70
504.30	29673.31
504.48	29132.65
504.65	29771.61
504.83	30045.46
505.01	30387.18
505.18	30536.97
505.36	30548.67
505.53	30401.22
505.71	30756.98
505.88	30888.05
506.06	30808.47
506.23	30782.73
506.41	30508.88
506.58	30745.28
506.76	30597.82
506.93	31215.72
507.11	31065.93
507.28	31035.50
507.46	30955.93
507.63	30974.65
507.81	31538.72
507.98	31456.80
508.16	31585.53
508.33	31772.77
508.50	31744.69
508.68	31700.22
508.85	32112.15
509.03	32107.47
509.20	32273.65
509.38	32133.21
509.55	32238.54
509.73	32163.64
509.90	32257.26
510.08	32446.85
510.25	32547.49
510.42	32734.73
510.60	32882.19
510.77	32746.44
510.95	33291.78
511.12	33207.52
511.30	33336.25
511.47	33684.99
511.64	33766.91
511.82	33649.88
511.99	33467.32
512.17	33261.35
512.34	33439.23
512.51	33902.66
512.69	33631.16
512.86	33874.57
513.04	34120.33
513.21	33736.48
513.38	33752.87
513.56	33991.60
513.73	33748.18
513.90	34054.79
514.08	33659.24
514.25	34464.39
514.43	34487.79
514.60	34780.36
514.77	34504.18
514.95	34820.15
515.12	34410.56
515.29	34801.43
515.47	34958.24
515.64	35524.65
515.81	34766.32
515.99	35311.66
516.16	35021.44
516.33	34918.45
516.51	34576.73
516.68	34382.47
516.85	34424.60
517.03	34660.99
517.20	34953.56
517.37	35063.57
517.54	35674.45
517.72	35035.48
517.89	34927.81
518.06	35213.36
518.24	34855.26
518.41	35686.15
518.58	35454.44
518.75	35592.53
518.93	35945.95
519.10	36093.40
519.27	36151.91
519.45	36212.77
519.62	36624.70
519.79	36212.77
519.96	36758.11
520.14	36603.64
520.31	36353.20
520.48	36879.82
520.65	37029.62
520.83	37113.87
521.00	37132.60
521.17	37057.70
521.34	37102.17
521.52	37455.59
521.69	37481.34
521.86	37493.04
522.03	37443.89
522.20	37544.53
522.38	37443.89
522.55	37165.37
522.72	37495.38
522.89	37755.18
523.07	37469.64
523.24	37420.48
523.41	38188.18
523.58	38260.74
523.75	38447.98
523.92	38665.65
524.10	38686.71
524.27	38555.64
524.44	38838.85
524.61	38485.43
524.78	38806.08
524.96	39023.75
525.13	39082.27
525.30	39152.48
525.47	39360.79
525.64	38651.61
525.81	38873.96
525.98	39033.11
526.16	38326.27
526.33	38153.07
526.50	38845.87
526.67	38492.45
526.84	38579.05
527.01	38466.70
527.18	38799.06
527.36	39321.00
527.53	39559.73
527.70	39704.85
527.87	39758.68
528.04	39482.50
528.21	39845.28
528.38	39988.05
528.55	40238.49
528.72	40280.62
528.89	40055.93
529.07	40189.34
529.24	40084.01
529.41	40208.06
529.58	40002.10
529.75	40460.84
529.92	40076.99
530.09	40275.94
530.26	40268.92
530.43	40509.99
530.60	40308.71
530.77	40844.69
530.94	40924.27
531.11	41020.23
531.28	40678.51
531.46	40830.65
531.63	40732.34
531.80	40840.01
531.97	40832.99
532.14	41106.83
532.31	40002.10
532.48	40844.69
532.65	41214.49
532.82	40837.67
532.99	41181.73
533.16	41090.44
533.33	41490.68
533.50	41256.62
533.67	41392.37
533.84	41261.30
534.01	41516.42
534.18	41645.15
534.35	41624.09
534.52	41315.14
534.69	41787.92
534.86	42213.90
535.03	41464.93
535.20	42071.13
535.37	42380.08
535.54	42227.95
535.71	42052.41
535.88	42185.82
536.05	41605.36
536.22	42225.60
536.38	42043.04
536.55	42309.86
536.72	42096.88
536.89	41621.75
537.06	41972.83
537.23	42347.31
537.40	42370.72
537.57	42391.78
537.74	42649.24
537.91	42955.85
538.08	42845.85
538.25	42036.02
538.42	42300.50
538.59	43173.52
538.75	42082.83
538.92	42588.39
539.09	43012.02
539.26	42447.96
539.43	42483.06
539.60	42527.53
539.77	42845.85
539.94	42799.04
540.11	42401.14
540.28	42312.20
540.44	42878.61
540.61	42866.91
540.78	42731.16
540.95	43110.33
541.12	43030.75
541.29	42913.72
541.46	42887.98
541.62	42866.91
541.79	43150.12
541.96	43040.11
542.13	43400.55
542.30	43468.43
542.47	43641.63
542.63	43105.65
542.80	43466.09
542.97	44292.30
543.14	44311.02
543.31	43718.87
543.48	43721.21
543.64	44552.10
543.81	45022.54
543.98	44091.01
544.15	43892.07
544.32	44219.74
544.48	44655.08
544.65	44395.28
544.82	44273.57
544.99	43800.79
545.16	44463.16
545.32	44196.34
545.49	44896.16
545.66	44311.02
545.83	44362.51
546.00	44701.89
546.16	44282.94
546.33	44301.66
546.50	44575.50
546.67	44215.06
546.83	44648.06
547.00	44315.70
547.17	44526.35
547.34	43955.26
547.50	44184.63
547.67	44753.38
547.84	44718.28
548.00	44680.83
548.17	45088.08
548.34	44753.38
548.51	45291.71
548.67	45123.19
548.84	45581.93
549.01	45010.84
549.18	44722.96
549.34	45336.18
549.51	45277.66
549.68	45397.03
549.84	45282.34
550.01	45394.69
550.18	45139.57
550.34	45188.72
550.51	45134.89
550.68	45450.86
550.84	44994.46
551.01	45869.82
551.18	45359.58
551.34	45645.13
551.51	45570.23
551.68	45680.24
551.84	45865.14
552.01	45478.95
552.18	45310.43
552.34	45230.85
552.51	45886.20
552.68	45394.69
552.84	45581.93
553.01	46075.79
553.18	45937.69
553.34	45743.43
553.51	45492.99
553.67	45612.36
553.84	46176.43
554.01	45652.15
554.17	46316.86
554.34	46588.36
554.51	46335.59
554.67	46300.48
554.84	46010.25
555.00	46199.83
555.17	46045.36
555.33	46284.09
555.50	45851.09
555.67	45940.04
555.83	46211.54
556.00	46279.41
556.16	46461.97
556.33	46759.22
556.50	46532.19
556.66	46106.21
556.83	46340.27
556.99	46562.62
557.16	46375.37
557.32	46831.78
557.49	46520.49
557.65	46366.01
557.82	46085.15
557.98	46356.65
558.15	46038.34
558.32	46728.80
558.48	46232.60
558.65	46876.25
558.81	46476.02
558.98	46590.70
559.14	46068.76
559.31	46653.90
559.47	46155.36
559.64	46431.55
559.80	46550.91
559.97	46431.55
560.13	46326.22
560.30	46902.00
560.46	46670.28
560.63	46719.43
560.79	46990.94
560.96	46763.90
561.12	46609.43
561.29	46712.41
561.45	46749.86
561.61	47201.58
561.78	46920.72
561.94	46569.64
562.11	47051.79
562.27	46679.64
562.44	47100.94
562.60	47065.83
562.77	47208.61
562.93	46930.08
563.10	47047.11
563.26	46478.36
563.42	47042.43
563.59	46763.90
563.75	47143.07
563.92	46897.31
564.08	46799.01
564.24	47126.69
564.41	47019.02
564.57	47030.72
564.74	47428.62
564.90	47140.73
565.07	46628.15
565.23	47213.29
565.39	46820.08
565.56	47316.27
565.72	46951.15
565.88	46836.46
566.05	47114.98
566.21	47126.69
566.38	47154.77
566.54	46972.21
566.70	47466.06
566.87	47185.20
567.03	47051.79
567.19	47824.17
567.36	47260.10
567.52	47042.43
567.68	47187.54
567.85	46824.76
568.01	47220.31
568.17	46684.33
568.34	47522.24
568.50	46850.50
568.66	47320.95
568.83	47035.41
568.99	47236.69
569.15	47164.14
569.32	47316.27
569.48	47274.14
569.64	47325.63
569.81	47227.33
569.97	47049.45
570.13	47468.40
570.30	46852.84
570.46	46700.71
570.62	47033.07
570.78	46717.09
570.95	47002.64
571.11	47164.14
571.27	47281.16
571.43	46941.78
571.60	47405.21
571.76	47196.90
571.92	47234.35
572.09	47381.80
572.25	47166.48
572.41	47398.19
572.57	47283.50
572.74	47672.03
572.90	47316.27
573.06	47342.02
573.22	47276.48
573.38	47562.03
573.55	47056.47
573.71	47416.91
573.87	47402.87
574.03	47255.42
574.20	47416.91
574.36	47222.65
574.52	47503.51
574.68	47625.22
574.84	47262.44
575.01	47538.62
575.17	47105.62
575.33	47007.32
575.49	47232.01
575.65	47709.48
575.82	47587.77
575.98	47440.32
576.14	47742.25
576.30	47590.11
576.46	47040.09
576.62	47161.79
576.79	47072.85
576.95	47241.37
577.11	47388.83
577.27	47477.77
577.43	47419.25
577.59	47152.43
577.75	47557.35
577.92	47250.74
578.08	46656.24
578.24	47131.37
578.40	47201.58
578.56	47014.34
578.72	47379.46
578.88	47660.33
579.04	47468.40
579.21	47496.49
579.37	47356.06
579.53	47309.25
579.69	47318.61
579.85	47765.65
580.01	47400.53
580.17	47278.82
580.33	47814.80
580.49	47779.70
580.65	47437.98
580.82	47232.01
580.98	47634.58
581.14	46731.14
581.30	47515.22
581.46	47295.21
581.62	47931.83
581.78	47313.93
581.94	47648.63
582.10	47573.73
582.26	47702.46
582.42	47400.53
582.58	47540.96
582.74	47524.58
582.90	47297.55
583.06	47587.77
583.22	47482.45
583.38	47997.37
583.54	47590.11
583.70	47510.53
583.86	47384.15
584.02	47540.96
584.18	47849.91
584.34	47547.98
584.50	47763.31
584.66	47114.98
584.82	47505.85
584.98	47234.35
585.14	47304.57
585.30	47278.82
585.46	47337.33
585.62	47077.54
585.78	47180.52
585.94	46976.89
586.10	46850.50
586.26	47119.66
586.42	47681.39
586.58	47522.24
586.74	47899.06
586.90	47753.95
587.06	47606.50
587.22	47878.00
587.38	47093.92
587.54	47863.96
587.70	47723.52
587.86	47435.64
588.02	47360.74
588.18	47709.48
588.34	47012.00
588.49	47023.70
588.65	47129.03
588.81	46525.17
588.97	46838.80
589.13	46869.23
589.29	46787.31
589.45	46887.95
589.61	47536.28
589.77	47449.68
