SpectraSuite Data File
++++++++++++++++++++++++++++++++++++
Date: Fri Oct 25 11:25:36 EDT 2013
User: price-jones
Dark Spectrum Present: No
Reference Spectrum Present: No
Number of Sampled Component Spectra: 1
Spectrometers: USB2+H05261
Integration Time (usec): 100000 (USB2+H05261)
Spectra Averaged: 1 (USB2+H05261)
Boxcar Smoothing: 0 (USB2+H05261)
Correct for Electrical Dark: No (USB2+H05261)
Strobe/Lamp Enabled: No (USB2+H05261)
Correct for Detector Non-linearity: No (USB2+H05261)
Correct for Stray Light: No (USB2+H05261)
Number of Pixels in Processed Spectrum: 2048
>>>>>Begin Processed Spectral Data<<<<<
365.73	220.01
365.92	220.01
366.12	220.01
366.32	142.77
366.52	42.13
366.72	100.64
366.91	142.77
367.11	114.69
367.31	51.49
367.51	119.37
367.70	86.60
367.90	161.50
368.10	131.07
368.30	138.09
368.49	208.31
368.69	177.88
368.89	173.20
369.09	114.69
369.28	156.82
369.48	159.16
369.68	201.29
369.87	243.42
370.07	208.31
370.27	220.01
370.47	313.63
370.66	592.16
370.86	554.71
371.06	613.22
371.25	709.18
371.45	678.76
371.65	676.41
371.84	720.88
372.04	716.20
372.24	718.54
372.44	711.52
372.63	770.04
372.83	777.06
373.03	716.20
373.22	737.27
373.42	781.74
373.62	777.06
373.81	777.06
374.01	894.08
374.21	770.04
374.40	854.30
374.60	844.93
374.79	856.64
374.99	908.13
375.19	830.89
375.38	861.32
375.58	823.87
375.78	896.43
375.97	912.81
376.17	922.17
376.37	826.21
376.56	891.74
376.76	877.70
376.95	884.72
377.15	952.60
377.35	910.47
377.54	931.53
377.74	910.47
377.93	903.45
378.13	922.17
378.33	971.32
378.52	880.04
378.72	1053.24
378.91	985.37
379.11	933.87
379.31	929.19
379.50	903.45
379.70	940.90
379.89	985.37
380.09	954.94
380.28	959.62
380.48	987.71
380.68	964.30
380.87	917.49
381.07	1088.35
381.26	1179.63
381.46	1053.24
381.65	992.39
381.85	945.58
382.04	1027.50
382.24	1071.97
382.43	1039.20
382.63	1130.48
382.83	1142.18
383.02	1114.10
383.22	1156.22
383.41	1074.31
383.61	1125.80
383.80	976.00
384.00	1086.01
384.19	1130.48
384.39	1156.22
384.58	1167.93
384.78	1132.82
384.97	1203.04
385.17	1191.33
385.36	1203.04
385.56	1130.48
385.75	1153.88
385.95	1184.31
386.14	1284.95
386.34	1170.27
386.53	1291.98
386.72	1149.20
386.92	1273.25
387.11	1224.10
387.31	1214.74
387.50	1287.29
387.70	1273.25
387.89	1249.85
388.09	1268.57
388.28	1378.58
388.48	1336.45
388.67	1287.29
388.86	1371.55
389.06	1331.76
389.25	1324.74
389.45	1291.98
389.64	1341.13
389.84	1362.19
390.03	1387.94
390.22	1404.32
390.42	1371.55
390.61	1420.71
390.81	1357.51
391.00	1439.43
391.19	1469.86
391.39	1441.77
391.58	1446.45
391.78	1441.77
391.97	1652.42
392.16	1516.67
392.36	1455.81
392.55	1418.36
392.75	1521.35
392.94	1483.90
393.13	1495.60
393.33	1523.69
393.52	1488.58
393.71	1591.56
393.91	1624.33
394.10	1600.93
394.29	1680.50
394.49	1547.09
394.68	1652.42
394.88	1650.08
395.07	1652.42
395.26	1533.05
395.46	1694.55
395.65	1748.38
395.84	1689.87
396.04	1785.83
396.23	1778.81
396.42	1722.63
396.62	1750.72
396.81	1727.32
397.00	1762.42
397.19	1778.81
397.39	1687.53
397.58	1865.41
397.77	1797.53
397.97	1820.94
398.16	1914.56
398.35	1872.43
398.55	1809.23
398.74	1940.30
398.93	2005.84
399.12	1937.96
399.32	1886.47
399.51	2003.50
399.70	1989.46
399.90	2001.16
400.09	2017.54
400.28	2054.99
400.47	2094.78
400.67	2108.82
400.86	2015.20
401.05	2022.22
401.24	2122.87
401.44	2106.48
401.63	2052.65
401.82	2160.31
402.01	2139.25
402.21	2113.50
402.40	2141.59
402.59	2225.85
402.78	2251.60
402.97	2244.57
403.17	2221.17
403.36	2129.89
403.55	2284.36
403.74	2321.81
403.93	2310.11
404.13	2366.28
404.32	2408.41
404.51	2356.92
404.70	2375.64
404.89	2424.80
405.09	2413.09
405.28	2443.52
405.47	2429.48
405.66	2612.04
405.85	2520.76
406.05	2504.37
406.24	2562.89
406.43	2626.08
406.62	2619.06
406.81	2782.90
407.00	2605.02
407.20	2588.63
407.39	2541.82
407.58	2679.91
407.77	2724.38
407.96	2792.26
408.15	2801.62
408.34	2700.98
408.54	2857.79
408.73	2740.77
408.92	2920.99
409.11	2953.76
409.30	2988.86
409.49	2888.22
409.68	2871.84
409.87	2810.98
410.07	2984.18
410.26	2965.46
410.45	3035.67
410.64	3047.38
410.83	2993.55
411.02	3201.85
411.21	3143.34
411.40	3103.55
411.59	3166.74
411.78	3194.83
411.98	3208.87
412.17	3192.49
412.36	3316.54
412.55	3449.95
412.74	3314.20
412.93	3370.37
413.12	3330.58
413.31	3548.25
413.50	3389.10
413.69	3351.65
413.88	3585.70
414.07	3583.36
414.26	3606.77
414.45	3637.19
414.64	3522.51
414.83	3702.73
415.02	3840.82
415.22	3854.86
415.41	3758.90
415.60	3726.13
415.79	3843.16
415.98	3960.19
416.17	3894.65
416.36	3955.51
416.55	3969.55
416.74	4147.43
416.93	3904.01
417.12	4180.20
417.31	4210.62
417.50	4131.05
417.69	4430.63
417.88	4348.72
418.07	4294.88
418.26	4327.65
418.45	4376.80
418.64	4517.23
418.83	4444.68
419.02	4418.93
419.21	4395.53
419.39	4615.54
419.58	4514.89
419.77	4512.55
419.96	4643.62
420.15	4531.28
420.34	4451.70
420.53	4709.16
420.72	4741.93
420.91	4823.84
421.10	4592.13
421.29	4774.69
421.48	4447.02
421.67	4620.22
421.86	4777.03
422.05	4877.68
422.24	4791.08
422.43	4950.23
422.61	4898.74
422.80	4844.91
422.99	4903.42
423.18	4945.55
423.37	5032.15
423.56	4973.64
423.75	4917.47
423.94	4896.40
424.13	4606.17
424.32	4863.63
424.50	4997.04
424.69	5020.45
424.88	4952.57
425.07	4875.34
425.26	5025.13
425.45	4744.27
425.64	4861.29
425.83	5088.32
426.01	5069.60
426.20	5006.41
426.39	5055.56
426.58	5025.13
426.77	5186.63
426.96	5015.77
427.15	5046.20
427.33	5153.86
427.52	5156.20
427.71	5224.08
427.90	5238.12
428.09	5345.78
428.28	5217.05
428.46	5146.84
428.65	5371.53
428.84	5474.51
429.03	5394.93
429.22	5303.65
429.40	5392.59
429.59	5432.38
429.78	5343.44
429.97	5231.10
430.16	5495.58
430.34	5537.71
430.53	5558.77
430.72	5640.69
430.91	5650.05
431.10	5617.29
431.28	5877.09
431.47	5738.99
431.66	5832.62
431.85	5554.09
432.03	5973.05
432.22	5968.37
432.41	5783.46
432.60	5959.00
432.79	5886.45
432.97	5937.94
433.16	5912.19
433.35	5991.77
433.54	6139.23
433.72	6085.39
433.91	6008.16
434.10	6125.18
434.28	6073.69
434.47	6125.18
434.66	6328.81
434.85	6256.25
435.03	6204.76
435.22	6207.10
435.41	6558.18
435.59	6389.66
435.78	6380.30
435.97	6384.98
436.16	6359.24
436.34	6420.09
436.53	6541.80
436.72	6684.57
436.90	6326.47
437.09	6555.84
437.28	6403.71
437.46	6658.82
437.65	6593.29
437.84	6630.74
438.02	6715.00
438.21	6743.08
438.40	6712.66
438.58	7040.33
438.77	7002.88
438.96	6937.35
439.14	7033.31
439.33	7028.63
439.52	7157.36
439.70	7077.78
439.89	7332.90
440.08	7346.94
440.26	7316.51
440.45	7426.52
440.63	7424.18
440.82	7604.40
441.01	7506.10
441.19	7716.75
441.38	7779.94
441.57	7611.42
441.75	7571.63
441.94	7761.22
442.12	7805.69
442.31	8004.63
442.50	7974.21
442.68	7889.95
442.87	7896.97
443.05	8318.26
443.24	8147.40
443.43	8140.38
443.61	8138.04
443.80	8299.54
443.98	8173.15
444.17	7698.02
444.35	8266.77
444.54	8226.98
444.73	8367.42
444.91	8421.25
445.10	8446.99
445.28	8353.37
445.47	8224.64
445.65	8315.92
445.84	8421.25
446.02	8512.53
446.21	8292.52
446.39	8442.31
446.58	8458.70
446.77	8341.67
446.95	8236.35
447.14	8329.97
447.32	8557.00
447.51	8510.19
447.69	8545.30
447.88	8407.20
448.06	8571.04
448.25	8517.21
448.43	8617.85
448.62	8425.93
448.80	8409.54
448.99	8610.83
449.17	8671.68
449.36	8491.46
449.54	8526.57
449.73	8849.57
449.91	9111.71
450.10	8973.61
450.28	9013.40
450.46	9193.62
450.65	9153.84
450.83	8968.93
451.02	9092.98
451.20	9057.87
451.39	9011.06
451.57	9156.18
451.76	8971.27
451.94	9125.75
452.13	9039.15
452.31	9153.84
452.49	9015.74
452.68	9380.87
452.86	9179.58
453.05	9329.38
453.23	9345.76
453.42	9273.20
453.60	9144.47
453.78	9474.49
453.97	9404.27
454.15	9254.48
454.34	9490.87
454.52	9731.95
454.70	9659.39
454.89	9675.77
455.07	9614.92
455.26	9863.02
455.44	9813.87
455.62	9877.06
455.81	9741.31
455.99	9996.43
456.17	10113.45
456.36	9858.34
456.54	10073.67
456.73	10118.14
456.91	10480.92
457.09	10562.84
457.28	10476.24
457.46	10289.00
457.64	10178.99
457.83	10553.48
458.01	10359.21
458.19	10534.75
458.38	10513.69
458.56	10607.31
458.74	10546.45
458.93	10518.37
459.11	10665.82
459.29	10799.23
459.48	10775.83
459.66	10846.04
459.84	10799.23
460.03	11098.82
460.21	10946.69
460.39	10918.60
460.57	10888.17
460.76	11026.26
460.94	11201.80
461.12	11115.20
461.31	11358.62
461.49	11353.94
461.67	11133.93
461.85	11459.26
462.04	11293.08
462.22	11775.24
462.40	11573.95
462.59	11616.08
462.77	11272.02
462.95	11435.86
463.13	11712.04
463.32	11536.50
463.50	11709.70
463.68	11597.35
463.86	11679.27
464.05	11674.59
464.23	11744.81
464.41	11882.90
464.59	11665.23
464.78	11955.46
464.96	12009.29
465.14	11845.45
465.32	12006.95
465.50	12163.76
465.69	12149.72
465.87	12114.61
466.05	12042.06
466.23	12093.55
466.41	12241.00
466.60	12336.96
466.78	12170.79
466.96	12100.57
467.14	12084.19
467.32	12304.20
467.51	12608.47
467.69	12149.72
467.87	12325.26
468.05	12638.89
468.23	12315.90
468.41	12343.99
468.60	12465.69
468.78	12622.51
468.96	12486.76
469.14	12774.64
469.32	12894.01
469.50	12493.78
469.69	13188.92
469.87	13006.36
470.05	13046.15
470.23	13174.88
470.41	12938.48
470.59	13242.75
470.77	13102.32
470.95	13205.30
471.14	13371.48
471.32	13322.33
471.50	13523.62
471.68	13427.65
471.86	13556.38
472.04	13673.41
472.22	13909.80
472.40	13586.81
472.58	13940.23
472.77	14019.81
472.95	14080.66
473.13	14633.03
473.31	14012.79
473.49	14099.39
473.67	14204.71
473.85	14417.70
474.03	14719.63
474.21	14340.46
474.39	14759.42
474.57	14546.43
474.75	14773.46
474.93	15124.54
475.12	14878.79
475.30	15117.52
475.48	14846.02
475.66	15082.41
475.84	14995.81
476.02	15150.29
476.20	15590.31
476.38	15503.71
476.56	15721.38
476.74	15864.15
476.92	15728.40
477.10	15896.92
477.28	16049.05
477.46	16212.89
477.64	16100.55
477.82	16187.14
478.00	17111.66
478.18	16837.81
478.36	16816.75
478.54	17069.53
478.72	17282.52
478.90	17383.16
479.08	17390.18
479.26	17401.88
479.44	17352.73
479.62	17834.88
479.80	17914.46
479.98	18050.21
480.16	18567.47
480.34	18237.45
480.52	18361.50
480.70	18649.39
480.88	18312.35
481.06	18405.97
481.24	18829.61
481.41	19229.84
481.59	19150.26
481.77	19295.38
481.95	19225.16
482.13	19587.94
482.31	19475.60
482.49	19995.20
482.67	20121.59
482.85	20411.81
483.03	20657.57
483.21	20592.03
483.39	20664.59
483.57	20823.75
483.74	21184.19
483.92	21343.35
484.10	21263.77
484.28	21907.41
484.46	21862.94
484.64	22274.88
484.82	21944.86
485.00	22019.76
485.18	22705.54
485.35	22986.40
485.53	22742.99
485.71	23260.24
485.89	23466.21
486.07	23056.62
486.25	23152.58
486.43	23304.71
486.61	23784.52
486.78	23765.80
486.96	24203.48
487.14	24526.47
487.32	24699.67
487.50	24570.94
487.68	25076.50
487.85	25287.15
488.03	25591.42
488.21	25790.36
488.39	25731.85
488.57	25724.83
488.75	25986.97
488.92	26466.78
489.10	26466.78
489.28	26478.48
489.46	27056.59
489.64	27094.04
489.81	27807.90
489.99	27353.84
490.17	28020.89
490.35	28133.24
490.53	28170.69
490.70	28077.07
490.88	27803.22
491.06	28741.78
491.24	29228.61
491.41	28631.77
491.59	28772.21
491.77	29280.10
491.95	29212.23
492.13	29626.50
492.30	29598.41
492.48	29867.58
492.66	30394.20
492.84	30384.83
493.01	30551.01
493.19	30562.72
493.37	31098.70
493.54	31204.02
493.72	31686.17
493.90	31035.50
494.08	31679.15
494.25	31920.23
494.43	31707.24
494.61	31903.84
494.79	32507.70
494.96	32311.10
495.14	32519.40
495.32	32893.89
495.49	33067.09
495.67	33668.61
495.85	33544.56
496.02	33567.96
496.20	33830.10
496.38	33900.32
496.55	34305.23
496.73	34810.79
496.91	34328.64
497.09	34710.14
497.26	34405.88
497.44	34796.74
497.62	35164.21
497.79	35625.29
497.97	35374.86
498.14	35629.98
498.32	36109.78
498.50	36325.11
498.67	36657.47
498.85	36250.22
499.03	36388.31
499.20	36376.61
499.38	36907.91
499.56	36657.47
499.73	36933.65
499.91	37134.94
500.08	37137.28
500.26	37333.89
500.44	37486.02
500.61	37404.10
500.79	37354.95
500.97	37792.63
501.14	38195.20
501.32	38347.34
501.49	37928.38
501.67	38775.66
501.84	38670.33
502.02	38684.37
502.20	38707.78
502.37	38871.62
502.55	39150.14
502.72	39409.94
502.90	39482.50
503.07	39789.11
503.25	39824.22
503.43	39309.30
503.60	40184.66
503.78	39793.79
503.95	40048.91
504.13	40091.04
504.30	40058.27
504.48	40470.20
504.65	40650.42
504.83	40844.69
505.01	41118.53
505.18	40797.88
505.36	40985.12
505.53	41254.28
505.71	41057.68
505.88	41528.13
506.06	41364.29
506.23	42082.83
506.41	41514.08
506.58	41986.87
506.76	41888.57
506.93	42258.37
507.11	42087.51
507.28	42253.69
507.46	42658.60
507.63	42848.19
507.81	43152.46
507.98	42653.92
508.16	42752.23
508.33	43585.46
508.50	43299.91
508.68	43648.65
508.85	43875.68
509.03	43496.52
509.20	43714.19
509.38	44390.60
509.55	44336.77
509.73	44051.22
509.90	44524.01
510.08	44776.79
510.25	44512.31
510.42	44619.97
510.60	44818.92
510.77	45343.20
510.95	45282.34
511.12	44966.37
511.30	45020.20
511.47	45476.61
511.64	45207.45
511.82	45715.34
511.99	44987.44
512.17	45778.54
512.34	45801.94
512.51	46195.15
512.69	46232.60
512.86	46480.70
513.04	46789.65
513.21	46256.01
513.38	46951.15
513.56	46564.96
513.73	46469.00
513.90	46946.47
514.08	46677.30
514.25	47276.48
514.43	47023.70
514.60	47180.52
514.77	47122.01
514.95	47370.10
515.12	47264.78
515.29	47681.39
515.47	48098.01
515.64	47927.15
515.81	47475.43
515.99	47875.66
516.16	48226.74
516.33	48226.74
516.51	48790.81
516.68	48575.48
516.85	48219.72
517.03	48741.66
517.20	48931.24
517.37	48788.47
517.54	48907.83
517.72	48657.40
517.89	49123.16
518.06	49322.11
518.24	49184.02
518.41	48975.71
518.58	49478.92
518.75	49071.67
518.93	49429.77
519.10	49310.41
519.27	49649.78
519.45	49350.20
519.62	50075.76
519.79	49813.62
519.96	49687.23
520.14	50136.62
520.31	50405.78
520.48	50422.16
520.65	50033.63
520.83	50443.23
521.00	50471.31
521.17	50581.32
521.34	50328.54
521.52	50567.27
521.69	50693.66
521.86	50752.18
522.03	50866.86
522.20	51030.70
522.38	51072.83
522.55	51220.28
522.72	51098.58
522.89	50932.40
523.07	51508.17
523.24	51290.50
523.41	51662.64
523.58	51477.74
523.75	51580.73
523.92	51796.06
524.10	52222.03
524.27	51786.69
524.44	51889.68
524.61	51915.42
524.78	51908.40
524.96	52336.72
525.13	52425.66
525.30	52378.85
525.47	52736.95
525.64	52168.20
525.81	52215.01
525.98	52552.05
526.16	52608.22
526.33	52362.46
526.50	52872.70
526.67	52619.92
526.84	52830.57
527.01	52502.90
527.18	52748.65
527.36	52882.06
527.53	52853.98
527.70	53509.33
527.87	53418.05
528.04	52933.56
528.21	53312.72
528.38	53221.44
528.55	53160.59
528.72	53141.86
528.89	53404.00
529.07	53315.06
529.24	53434.43
529.41	53516.35
529.58	53668.48
529.75	53581.88
529.92	53652.10
530.09	53961.05
530.26	53968.07
530.43	53794.87
530.60	53837.00
530.77	53975.09
530.94	54073.40
531.11	54035.95
531.28	54075.74
531.46	54024.25
531.63	54389.37
531.80	54143.61
531.97	54382.35
532.14	54513.42
532.31	54398.73
532.48	54447.88
532.65	54600.02
532.82	54288.73
532.99	54625.76
533.16	54625.76
533.33	54555.55
533.50	54525.12
533.67	54815.35
533.84	54576.61
534.01	54670.23
534.18	55084.51
534.35	55224.94
534.52	55023.65
534.69	54995.57
534.86	55346.65
535.03	55023.65
535.20	55360.69
535.37	55360.69
535.54	55421.55
535.71	54920.67
535.88	55269.41
536.05	55444.95
536.22	55470.70
536.38	55508.14
536.55	55395.80
536.72	55388.78
536.89	55384.10
537.06	55449.63
537.23	55655.60
537.40	55522.19
537.57	55737.52
537.74	55786.67
537.91	55742.20
538.08	55814.76
538.25	55758.58
538.42	55899.01
538.59	55917.74
538.75	55863.91
538.92	55772.63
539.09	55980.93
539.26	55934.12
539.43	56002.00
539.60	56165.84
539.77	56067.53
539.94	56123.71
540.11	56322.65
540.28	56477.13
540.44	56303.93
540.61	56282.86
540.78	56481.81
540.95	56224.35
541.12	56500.53
541.29	56271.16
541.46	56678.41
541.62	56390.53
541.79	56659.69
541.96	56306.27
542.13	56556.70
542.30	56666.71
542.47	56629.26
542.63	56750.97
542.80	56769.69
542.97	56989.70
543.14	57059.92
543.31	57050.56
543.48	56942.89
543.64	57453.13
543.81	57310.36
543.98	57186.31
544.15	57429.72
544.32	57277.59
544.48	57434.41
544.65	57336.10
544.82	57322.06
544.99	57165.24
545.16	57361.85
545.32	57396.96
545.49	57462.49
545.66	57659.10
545.83	57544.41
546.00	57656.76
546.16	57441.43
546.33	57392.28
546.50	57289.29
546.67	57537.39
546.83	57418.02
547.00	57836.98
547.17	57521.01
547.34	57682.50
547.50	58054.65
547.67	57977.41
547.84	57895.49
548.00	57895.49
548.17	58017.20
548.34	57815.91
548.51	58099.12
548.67	58145.93
548.84	57867.40
549.01	57778.46
549.18	58082.73
549.34	58351.90
549.51	58024.22
549.68	58202.10
549.84	58185.72
550.01	58401.05
550.18	58223.17
550.34	58447.86
550.51	58583.61
550.68	58363.60
550.84	58244.23
551.01	58326.15
551.18	58347.21
551.34	58183.38
551.51	58450.20
551.68	58424.45
551.84	58602.33
552.01	58424.45
552.18	58546.16
552.34	58508.71
552.51	58763.83
552.68	58513.39
552.84	58784.90
553.01	58639.78
553.18	58794.26
553.34	58937.03
553.51	58702.98
553.67	58595.31
553.84	58836.39
554.01	59058.74
554.17	58859.79
554.34	58857.45
554.51	58841.07
554.67	59096.19
554.84	58972.14
555.00	58946.39
555.17	58876.18
555.33	58791.92
555.50	58789.58
555.67	58944.05
555.83	58897.24
556.00	59063.42
556.16	59320.88
556.33	59072.78
556.50	59124.27
556.66	59063.42
556.83	59009.59
556.99	59262.36
557.16	59297.47
557.32	59463.65
557.49	59650.89
557.65	59152.36
557.82	59196.83
557.98	59409.82
558.15	59143.00
558.32	59505.78
558.48	59398.12
558.65	59487.06
558.81	59346.62
558.98	59559.61
559.14	59655.57
559.31	59550.25
559.47	59402.80
559.64	59788.98
559.80	59676.64
559.97	59814.73
560.13	59451.95
560.30	59597.06
560.46	59800.69
560.63	59657.91
560.79	59868.56
560.96	59664.94
561.12	60074.53
561.29	59814.73
561.45	59711.75
561.61	59898.99
561.78	59838.14
561.94	59807.71
562.11	59817.07
562.27	59901.33
562.44	59592.38
562.60	59957.50
562.77	59753.88
562.93	59690.68
563.10	59934.10
563.26	59676.64
563.42	60348.37
563.59	59945.80
563.75	59903.67
563.92	59936.44
564.08	59884.95
564.24	60114.32
564.41	59992.61
564.57	60119.00
564.74	60062.83
564.90	59994.95
565.07	60072.19
565.23	59994.95
565.39	60140.07
565.56	59990.27
565.72	60135.38
565.88	60210.28
566.05	60006.65
566.21	60238.37
566.38	60123.68
566.54	60280.50
566.70	60123.68
566.87	60507.53
567.03	60067.51
567.19	60334.33
567.36	60072.19
567.52	60247.73
567.68	60423.27
567.85	60184.54
568.01	60289.86
568.17	60280.50
568.34	60329.65
568.50	60383.48
568.66	60229.01
568.83	60371.78
568.99	60240.71
569.15	60341.35
569.32	60200.92
569.48	60135.38
569.64	60329.65
569.81	60334.33
569.97	60140.07
570.13	60376.46
570.30	60158.79
570.46	60413.91
570.62	60437.31
570.78	60512.21
570.95	60437.31
571.11	60399.86
571.27	60203.26
571.43	60502.85
571.60	60425.61
571.76	60514.55
571.92	60554.34
572.09	60437.31
572.25	60509.87
572.41	60355.39
572.57	60439.65
572.74	60645.62
572.90	60495.83
573.06	60486.46
573.22	60472.42
573.38	60502.85
573.55	60561.36
573.71	60734.56
573.87	60626.90
574.03	60662.00
574.20	60739.24
574.36	60481.78
574.52	60676.05
574.68	60626.90
574.84	60601.15
575.01	60608.17
575.17	60619.88
575.33	60608.17
575.49	60779.03
575.65	60643.28
575.82	60748.60
575.98	60846.91
576.14	60725.20
576.30	60568.38
576.46	60715.84
576.62	60727.54
576.79	60582.43
576.95	60547.32
577.11	60783.71
577.27	60748.60
577.43	60683.07
577.59	60687.75
577.75	60678.39
577.92	60699.45
578.08	60741.58
578.24	60547.32
578.40	60821.16
578.56	60832.86
578.72	60671.37
578.88	60814.14
579.04	60692.43
579.21	60867.97
579.37	60706.47
579.53	60917.12
579.69	60746.26
579.85	60568.38
580.01	60582.43
580.17	60746.26
580.33	60947.55
580.49	60940.53
580.65	60678.39
580.82	60844.57
580.98	60753.29
581.14	60608.17
581.30	60987.34
581.46	60917.12
581.62	60760.31
581.78	60800.10
581.94	61024.79
582.10	60851.59
582.26	60835.20
582.42	60872.65
582.58	60776.69
582.74	60774.35
582.90	60821.16
583.06	60764.99
583.22	60537.96
583.38	60814.14
583.54	60851.59
583.70	60790.73
583.86	61132.45
584.02	60760.31
584.18	61322.04
584.34	60842.23
584.50	60954.57
584.66	60530.93
584.82	61006.06
584.98	61202.67
585.14	60963.93
585.30	60954.57
585.46	61076.28
585.62	60846.91
585.78	61132.45
585.94	60708.82
586.10	60968.61
586.26	60872.65
586.42	60935.85
586.58	60900.74
586.74	61099.68
586.90	60900.74
587.06	60933.51
587.22	61038.83
587.38	60889.04
587.54	61106.71
587.70	61085.64
587.86	61029.47
588.02	60963.93
588.18	61055.21
588.34	61043.51
588.49	60947.55
