SpectraSuite Data File
++++++++++++++++++++++++++++++++++++
Date: Fri Oct 25 11:33:46 EDT 2013
User: price-jones
Dark Spectrum Present: No
Reference Spectrum Present: No
Number of Sampled Component Spectra: 1
Spectrometers: USB2+H05261
Integration Time (usec): 100000 (USB2+H05261)
Spectra Averaged: 1 (USB2+H05261)
Boxcar Smoothing: 0 (USB2+H05261)
Correct for Electrical Dark: No (USB2+H05261)
Strobe/Lamp Enabled: No (USB2+H05261)
Correct for Detector Non-linearity: No (USB2+H05261)
Correct for Stray Light: No (USB2+H05261)
Number of Pixels in Processed Spectrum: 2048
>>>>>Begin Processed Spectral Data<<<<<
365.73	280.86
365.92	280.86
366.12	280.86
366.32	175.54
366.52	184.90
366.72	217.67
366.91	194.26
367.11	126.39
367.31	220.01
367.51	84.26
367.70	161.50
367.90	163.84
368.10	215.33
368.30	168.52
368.49	231.71
368.69	224.69
368.89	177.88
369.09	126.39
369.28	224.69
369.48	187.24
369.68	198.95
369.87	287.89
370.07	245.76
370.27	257.46
370.47	278.52
370.66	458.74
370.86	561.73
371.06	535.98
371.25	566.41
371.45	622.58
371.65	557.05
371.84	505.56
372.04	592.16
372.24	571.09
372.44	610.88
372.63	638.97
372.83	629.60
373.03	669.39
373.22	615.56
373.42	585.13
373.62	587.47
373.81	629.60
374.01	657.69
374.21	704.50
374.40	643.65
374.60	711.52
374.79	617.90
374.99	571.09
375.19	643.65
375.38	667.05
375.58	653.01
375.78	711.52
375.97	727.91
376.17	753.65
376.37	695.14
376.56	685.78
376.76	629.60
376.95	667.05
377.15	695.14
377.35	692.80
377.54	641.31
377.74	662.37
377.93	706.84
378.13	681.10
378.33	657.69
378.52	676.41
378.72	704.50
378.91	725.57
379.11	664.71
379.31	767.70
379.50	709.18
379.70	741.95
379.89	877.70
380.09	741.95
380.28	781.74
380.48	723.23
380.68	802.80
380.87	711.52
381.07	739.61
381.26	741.95
381.46	798.12
381.65	791.10
381.85	767.70
382.04	800.46
382.24	709.18
382.43	746.63
382.63	807.48
382.83	786.42
383.02	807.48
383.22	828.55
383.41	823.87
383.61	849.61
383.80	786.42
384.00	898.77
384.19	800.46
384.39	779.40
384.58	791.10
384.78	800.46
384.97	819.19
385.17	791.10
385.36	837.91
385.56	809.83
385.75	858.98
385.95	858.98
386.14	847.27
386.34	858.98
386.53	917.49
386.72	875.36
386.92	884.72
387.11	901.11
387.31	851.96
387.50	873.02
387.70	901.11
387.89	947.92
388.09	966.64
388.28	898.77
388.48	884.72
388.67	901.11
388.86	880.04
389.06	889.40
389.25	1001.75
389.45	933.87
389.64	994.73
389.84	901.11
390.03	919.83
390.22	945.58
390.42	999.41
390.61	999.41
390.81	952.60
391.00	971.32
391.19	1004.09
391.39	1013.45
391.58	1032.18
391.78	1006.43
391.97	1057.92
392.16	973.66
392.36	1074.31
392.55	1107.07
392.75	1111.75
392.94	959.62
393.13	1041.54
393.33	966.64
393.52	1050.90
393.71	1104.73
393.91	1128.14
394.10	1069.62
394.29	1135.16
394.49	987.71
394.68	1060.26
394.88	1172.61
395.07	1158.57
395.26	1123.46
395.46	1167.93
395.65	1226.44
395.84	1200.69
396.04	1198.35
396.23	1177.29
396.42	1165.59
396.62	1203.04
396.81	1158.57
397.00	1289.64
397.19	1259.21
397.39	1196.01
397.58	1238.14
397.77	1165.59
397.97	1249.85
398.16	1289.64
398.35	1287.29
398.55	1362.19
398.74	1322.40
398.93	1282.61
399.12	1256.87
399.32	1291.98
399.51	1355.17
399.70	1308.36
399.90	1355.17
400.09	1329.42
400.28	1380.92
400.47	1352.83
400.67	1385.60
400.86	1364.53
401.05	1441.77
401.24	1404.32
401.44	1401.98
401.63	1432.41
401.82	1526.03
402.01	1469.86
402.21	1554.12
402.40	1444.11
402.59	1458.15
402.78	1577.52
402.97	1448.79
403.17	1682.85
403.36	1556.46
403.55	1638.38
403.74	1586.88
403.93	1568.16
404.13	1636.03
404.32	1668.80
404.51	1542.41
404.70	1638.38
404.89	1659.44
405.09	1739.02
405.28	1624.33
405.47	1577.52
405.66	1603.27
405.85	1720.29
406.05	1666.46
406.24	1851.36
406.43	1802.21
406.62	1795.19
406.81	1790.51
407.00	1851.36
407.20	1760.08
407.39	1788.17
407.58	1806.89
407.77	1877.11
407.96	1919.24
408.15	1942.64
408.34	1858.39
408.54	1902.86
408.73	1888.81
408.92	1935.62
409.11	1980.09
409.30	2024.56
409.49	2015.20
409.68	2005.84
409.87	1994.14
410.07	2118.18
410.26	2118.18
410.45	1937.96
410.64	2160.31
410.83	2204.78
411.02	2078.40
411.21	2155.63
411.40	2237.55
411.59	2256.28
411.78	2169.68
411.98	2179.04
412.17	2310.11
412.36	2221.17
412.55	2340.54
412.74	2385.01
412.93	2305.43
413.12	2275.00
413.31	2406.07
413.50	2401.39
413.69	2347.56
413.88	2485.65
414.07	2462.24
414.26	2518.42
414.45	2457.56
414.64	2485.65
414.83	2534.80
415.02	2649.49
415.22	2759.49
415.41	2710.34
415.60	2672.89
415.79	2885.88
415.98	2700.98
416.17	2825.03
416.36	2775.88
416.55	2715.02
416.74	2700.98
416.93	2698.64
417.12	2848.43
417.31	2799.28
417.50	2717.36
417.69	2958.44
417.88	2937.37
418.07	3005.25
418.26	2818.00
418.45	2928.01
418.64	3129.30
418.83	3117.59
419.02	3101.21
419.21	3080.14
419.39	3122.27
419.58	3178.45
419.77	3155.04
419.96	3122.27
420.15	3227.60
420.34	3178.45
420.53	3190.15
420.72	3248.66
420.91	3283.77
421.10	3300.16
421.29	3335.26
421.48	3269.73
421.67	3318.88
421.86	3321.22
422.05	3426.54
422.24	3302.50
422.43	3307.18
422.61	3281.43
422.80	3410.16
422.99	3304.84
423.18	3456.97
423.37	3447.61
423.56	3337.60
423.75	3302.50
423.94	3382.07
424.13	3150.36
424.32	3272.07
424.50	3377.39
424.69	3618.47
424.88	3449.95
425.07	3375.05
425.26	3304.84
425.45	3400.80
425.64	3344.63
425.83	3468.67
426.01	3611.45
426.20	3459.31
426.39	3562.30
426.58	3485.06
426.77	3588.04
426.96	3550.59
427.15	3463.99
427.33	3574.00
427.52	3494.42
427.71	3522.51
427.90	3716.77
428.09	3709.75
428.28	3625.49
428.46	3684.00
428.65	3702.73
428.84	3721.45
429.03	3854.86
429.22	3665.28
429.40	3653.58
429.59	3779.97
429.78	3634.85
429.97	3618.47
430.16	3667.62
430.34	3761.24
430.53	3887.63
430.72	3925.08
430.91	3878.27
431.10	3786.99
431.28	3974.23
431.47	4049.13
431.66	4086.58
431.85	3969.55
432.03	3899.33
432.22	4046.79
432.41	4196.58
432.60	4100.62
432.79	4095.94
432.97	4039.76
433.16	4205.94
433.35	4248.07
433.54	4117.00
433.72	4124.02
433.91	4205.94
434.10	4187.22
434.28	4095.94
434.47	4306.59
434.66	4278.50
434.85	4353.40
435.03	4290.20
435.22	4374.46
435.41	4320.63
435.59	4304.25
435.78	4269.14
435.97	4386.16
436.16	4332.33
436.34	4393.19
436.53	4552.34
436.72	4486.81
436.90	4416.59
437.09	4428.29
437.28	4376.80
437.46	4500.85
437.65	4751.29
437.84	4564.04
438.02	4603.83
438.21	4695.11
438.40	4482.13
438.58	4685.75
438.77	4711.50
438.96	4617.88
439.14	4833.21
439.33	5060.24
439.52	4840.23
439.70	5116.41
439.89	5034.49
440.08	5163.22
440.26	5001.72
440.45	5104.71
440.63	5067.26
440.82	5284.93
441.01	5146.84
441.19	5027.47
441.38	5149.18
441.57	5322.38
441.75	5280.25
441.94	5357.49
442.12	5369.19
442.31	5399.62
442.50	5451.11
442.68	5411.32
442.87	5469.83
443.05	5579.84
443.24	5572.82
443.43	5617.29
443.61	5495.58
443.80	5741.33
443.98	5511.96
444.17	5378.55
444.35	5540.05
444.54	5500.26
444.73	5647.71
444.91	5666.44
445.10	5753.04
445.28	5746.02
445.47	5612.60
445.65	5476.85
445.84	5764.74
446.02	5820.91
446.21	5593.88
446.39	5809.21
446.58	5825.59
446.77	5823.25
446.95	5636.01
447.14	5685.16
447.32	5746.02
447.51	5741.33
447.69	5582.18
447.88	5813.89
448.06	5727.29
448.25	5872.40
448.43	5895.81
448.62	5898.15
448.80	5799.85
448.99	5947.30
449.17	5902.83
449.36	5706.23
449.54	6078.37
449.73	5984.75
449.91	5914.53
450.10	6059.65
450.28	6258.59
450.46	6111.14
450.65	6038.58
450.83	6181.35
451.02	6111.14
451.20	6092.41
451.39	6129.86
451.57	6076.03
451.76	5996.45
451.94	6256.25
452.13	6319.45
452.31	6256.25
452.49	6071.35
452.68	6300.72
452.86	6279.66
453.05	6422.43
453.23	6377.96
453.42	6434.13
453.60	6434.13
453.78	6527.75
453.97	6307.74
454.15	6221.14
454.34	6478.60
454.52	6450.52
454.70	6604.99
454.89	6581.59
455.07	6581.59
455.26	6752.45
455.44	6801.60
455.62	6846.07
455.81	6677.55
455.99	6794.58
456.17	6771.17
456.36	6965.43
456.54	6799.26
456.73	6850.75
456.91	6899.90
457.09	6991.18
457.28	7112.89
457.46	7087.14
457.64	7098.84
457.83	7159.70
458.01	7068.42
458.19	7269.70
458.38	7183.10
458.56	7176.08
458.74	7178.42
458.93	7162.04
459.11	7220.55
459.29	7082.46
459.48	7358.64
459.66	7346.94
459.84	7304.81
460.03	7449.93
460.21	7342.26
460.39	7396.09
460.57	7358.64
460.76	7513.12
460.94	7447.58
461.12	7461.63
461.31	7527.16
461.49	7478.01
461.67	7510.78
461.85	7742.49
462.04	7396.09
462.22	8051.44
462.40	7620.78
462.59	7709.72
462.77	7660.57
462.95	7866.54
463.13	7796.32
463.32	7597.38
463.50	7861.86
463.68	7803.35
463.86	8037.40
464.05	7775.26
464.23	7719.09
464.41	8091.23
464.59	7590.36
464.78	8159.11
464.96	7990.59
465.14	7932.08
465.32	7906.33
465.50	8152.09
465.69	8112.30
465.87	8100.59
466.05	8107.62
466.23	8121.66
466.41	8226.98
466.60	8358.05
466.78	8205.92
466.96	7992.93
467.14	8140.38
467.32	8397.84
467.51	8547.64
467.69	8273.79
467.87	8236.35
468.05	8655.30
468.23	8306.56
468.41	8353.37
468.60	8266.77
468.78	8472.74
468.96	8346.35
469.14	8535.93
469.32	8547.64
469.50	8367.42
469.69	8774.67
469.87	8816.80
470.05	8599.13
470.23	8844.88
470.41	8823.82
470.59	8781.69
470.77	8823.82
470.95	8940.85
471.14	9092.98
471.32	8877.65
471.50	9114.05
471.68	9097.66
471.86	9158.52
472.04	9179.58
472.22	9404.27
472.40	9146.81
472.58	9291.93
472.77	9275.54
472.95	9451.08
473.13	9722.59
473.31	9488.53
473.49	9310.65
473.67	9310.65
473.85	9664.07
474.03	9748.33
474.21	9708.54
474.39	9975.36
474.57	9769.40
474.75	9867.70
474.93	10090.05
475.12	10073.67
475.30	9942.60
475.48	10052.60
475.66	10108.77
475.84	9968.34
476.02	10216.44
476.20	10076.01
476.38	10310.06
476.56	10551.14
476.74	10352.19
476.92	10504.32
477.10	10387.30
477.28	10796.89
477.46	10794.55
477.64	10972.43
477.82	11084.78
478.00	11180.74
478.18	10942.00
478.36	11152.65
478.54	11606.72
478.72	11316.49
478.90	11297.77
479.08	11702.68
479.26	11735.45
479.44	11672.25
479.62	11751.83
479.80	11796.30
479.98	12332.28
480.16	12229.30
480.34	12196.53
480.52	12257.39
480.70	12381.43
480.88	12168.45
481.06	12585.06
481.24	12613.15
481.41	12521.87
481.59	12744.22
481.77	12872.95
481.95	12966.57
482.13	13174.88
482.31	12917.42
482.49	13310.63
482.67	13315.31
482.85	13383.18
483.03	13621.92
483.21	13797.46
483.39	13848.95
483.57	13813.84
483.74	14281.95
483.92	13954.27
484.10	13963.64
484.28	14473.87
484.46	14623.67
484.64	14693.88
484.82	14384.93
485.00	14607.28
485.18	15096.46
485.35	15140.93
485.53	14995.81
485.71	15087.09
485.89	15562.22
486.07	15276.68
486.25	15695.63
486.43	15318.81
486.61	15695.63
486.78	15988.20
486.96	15885.22
487.14	16301.83
487.32	16198.85
487.50	16365.03
487.68	16566.31
487.85	16369.71
488.03	16856.54
488.21	17165.49
488.39	17149.11
488.57	17188.89
488.75	17266.13
488.92	17591.47
489.10	17343.37
489.28	17626.57
489.46	17844.24
489.64	17731.90
489.81	18155.54
489.99	18134.47
490.17	18204.69
490.35	18024.47
490.53	18405.97
490.70	18780.46
490.88	18366.18
491.06	18941.96
491.24	19051.96
491.41	18930.25
491.59	19307.08
491.77	19239.20
491.95	19590.28
492.13	19616.03
492.30	19543.47
492.48	19290.70
492.66	19936.68
492.84	19943.70
493.01	19887.53
493.19	20140.31
493.37	20547.56
493.54	20606.08
493.72	20718.42
493.90	20587.35
494.08	20933.75
494.25	20896.30
494.43	21060.14
494.61	21249.72
494.79	21589.10
494.96	21350.37
495.14	21558.67
495.32	21535.27
495.49	21680.38
495.67	21710.81
495.85	22150.83
496.02	22485.53
496.20	22347.44
496.38	22576.81
496.55	22384.88
496.73	22696.17
496.91	22710.22
497.09	23215.77
497.26	23232.16
497.44	22888.10
497.62	23461.53
497.79	23447.49
497.97	23489.62
498.14	23695.58
498.32	23711.97
498.50	23939.00
498.67	23784.52
498.85	23922.62
499.03	23981.13
499.20	24327.53
499.38	24292.42
499.56	24313.48
499.73	24322.85
499.91	24702.01
500.08	25003.94
500.26	24746.48
500.44	24776.91
500.61	24805.00
500.79	24793.29
500.97	25076.50
501.14	25226.29
501.32	25467.37
501.49	25156.08
501.67	25235.66
501.84	25818.45
502.02	25642.91
502.20	25425.24
502.37	25844.20
502.55	25617.16
502.72	25553.97
502.90	26134.42
503.07	25888.67
503.25	25972.92
503.43	26008.03
503.60	26544.02
503.78	26735.94
503.95	26560.40
504.13	26717.22
504.30	26780.41
504.48	26672.74
504.65	26799.13
504.83	26885.73
505.01	27058.93
505.18	27168.94
505.36	27330.44
505.53	27061.27
505.71	27623.00
505.88	27459.16
506.06	27344.48
506.23	27367.88
506.41	27520.02
506.58	27915.57
506.76	27817.27
506.93	28198.77
507.11	28032.60
507.28	27835.99
507.46	28280.69
507.63	28400.06
507.81	28704.33
507.98	28797.95
508.16	28599.01
508.33	29106.90
508.50	28830.72
508.68	28699.65
508.85	28720.71
509.03	28701.99
509.20	29090.52
509.38	28996.90
509.55	29165.42
509.73	29331.59
509.90	29305.85
510.08	29483.73
510.25	29067.11
510.42	29549.26
510.60	29731.83
510.77	29867.58
510.95	29914.39
511.12	29701.40
511.30	29699.06
511.47	30185.89
511.64	30209.29
511.82	30441.01
511.99	30050.14
512.17	30497.18
512.34	30892.73
512.51	30773.36
512.69	30909.11
512.86	31119.76
513.04	30995.71
513.21	31047.21
513.38	30899.75
513.56	31133.81
513.73	31061.25
513.90	31271.90
514.08	31290.62
514.25	31477.86
514.43	31683.83
514.60	31491.91
514.77	31716.60
514.95	32158.96
515.12	31662.77
515.29	31557.44
515.47	31948.31
515.64	32173.00
515.81	31901.50
515.99	32247.90
516.16	32559.19
516.33	32395.35
516.51	32706.65
516.68	32371.95
516.85	32573.24
517.03	32552.17
517.20	32622.39
517.37	32596.64
517.54	32994.53
517.72	32842.40
517.89	33223.90
518.06	33144.33
518.24	32877.51
518.41	32844.74
518.58	33703.71
518.75	32835.38
518.93	33406.47
519.10	33408.81
519.27	33607.75
519.45	33226.24
519.62	33390.08
519.79	34190.55
519.96	33724.78
520.14	33762.23
520.31	33675.63
520.48	34003.30
520.65	34134.37
520.83	34504.18
521.00	34110.97
521.17	34328.64
521.34	34040.75
521.52	34822.49
521.69	34445.66
521.86	34649.29
522.03	34555.67
522.20	34974.63
522.38	35473.16
522.55	35023.78
522.72	35000.37
522.89	34501.84
523.07	35885.09
523.24	35604.23
523.41	35864.03
523.58	35281.24
523.75	35543.38
523.92	35632.32
524.10	35587.85
524.27	35763.39
524.44	35772.75
524.61	36013.82
524.78	35168.89
524.96	36121.49
525.13	36011.48
525.30	36598.96
525.47	36341.50
525.64	36371.92
525.81	36264.26
525.98	36072.34
526.16	36046.59
526.33	36123.83
526.50	36802.58
526.67	36147.23
526.84	36350.86
527.01	36608.32
527.18	36730.03
527.36	36655.13
527.53	37177.07
527.70	37233.24
527.87	37298.78
528.04	37064.72
528.21	37228.56
528.38	37212.18
528.55	37191.11
528.72	37308.14
528.89	37486.02
529.07	37015.57
529.24	37043.66
529.41	37734.12
529.58	37586.66
529.75	37820.72
529.92	37986.89
530.09	37556.24
530.26	37275.37
530.43	37720.07
530.60	37596.03
530.77	37486.02
530.94	37659.22
531.11	37832.42
531.28	37778.59
531.46	38202.22
531.63	38525.22
531.80	38075.84
531.97	38415.21
532.14	37958.81
532.31	38487.77
532.48	38314.57
532.65	38801.40
532.82	38319.25
532.99	38565.01
533.16	38403.51
533.33	38813.10
533.50	38579.05
533.67	38864.60
533.84	38513.52
534.01	38836.51
534.18	38951.20
534.35	39009.71
534.52	39105.67
534.69	39784.43
534.86	39613.57
535.03	38974.60
535.20	39468.45
535.37	39477.82
535.54	39594.84
535.71	39590.16
535.88	39618.25
536.05	39491.86
536.22	40009.12
536.38	39634.63
536.55	39512.92
536.72	39838.26
536.89	39653.36
537.06	40217.43
537.23	40175.30
537.40	39803.15
537.57	39894.43
537.74	39920.18
537.91	40526.38
538.08	39992.73
538.25	40170.61
538.42	40126.14
538.59	40601.27
538.75	40554.46
538.92	40879.80
539.09	40526.38
539.26	40545.10
539.43	40301.68
539.60	40559.14
539.77	40580.21
539.94	40596.59
540.11	40832.99
540.28	40692.55
540.44	40751.07
540.61	40722.98
540.78	40924.27
540.95	40692.55
541.12	40905.54
541.29	41127.89
541.46	40973.42
541.62	41067.04
541.79	41591.32
541.96	41130.23
542.13	41111.51
542.30	40884.48
542.47	41366.63
542.63	41439.18
542.80	41720.05
542.97	41546.85
543.14	41823.03
543.31	41635.79
543.48	41518.76
543.64	42532.22
543.81	42227.95
543.98	41940.06
544.15	42220.92
544.32	42082.83
544.48	41982.19
544.65	41963.46
544.82	42635.20
544.99	41797.29
545.16	42321.57
545.32	42157.73
545.49	42759.25
545.66	42513.49
545.83	42749.88
546.00	42555.62
546.16	42792.01
546.33	42330.93
546.50	42270.08
546.67	43157.14
546.83	42377.74
547.00	42394.12
547.17	42892.66
547.34	42686.69
547.50	42632.86
547.67	43091.60
547.84	42866.91
548.00	43241.40
548.17	43239.06
548.34	43297.57
548.51	43346.72
548.67	43756.32
548.84	43428.64
549.01	43007.34
549.18	43466.09
549.34	43356.08
549.51	44030.16
549.68	43496.52
549.84	43185.22
550.01	43091.60
550.18	43400.55
550.34	43578.43
550.51	43796.10
550.68	43426.30
550.84	43562.05
551.01	43658.01
551.18	43461.41
551.34	43456.73
551.51	43786.74
551.68	43901.43
551.84	43971.64
552.01	44172.93
552.18	44198.68
552.34	43683.76
552.51	44367.20
552.68	43859.30
552.84	44175.27
553.01	44170.59
553.18	44219.74
553.34	44112.08
553.51	43908.45
553.67	44472.52
553.84	44418.69
554.01	44690.19
554.17	44390.60
554.34	44498.26
554.51	44584.86
554.67	45170.00
554.84	44966.37
555.00	44734.66
555.17	44942.97
555.33	44814.24
555.50	44957.01
555.67	44362.51
555.83	44615.29
556.00	44926.58
556.16	45441.50
556.33	44931.26
556.50	44837.64
556.66	45181.70
556.83	44619.97
556.99	45507.04
557.16	45003.82
557.32	45373.63
557.49	45338.52
557.65	44729.98
557.82	44734.66
557.98	45212.13
558.15	45352.56
558.32	45200.43
558.48	45406.39
558.65	44767.43
558.81	45205.11
558.98	45095.10
559.14	45043.61
559.31	45001.48
559.47	45308.09
559.64	45713.00
559.80	45607.68
559.97	45256.60
560.13	45230.85
560.30	45469.59
560.46	44952.33
560.63	45745.77
560.79	45640.45
560.96	45684.92
561.12	45993.87
561.29	45684.92
561.45	45914.29
561.61	45837.05
561.78	45352.56
561.94	45689.60
562.11	45979.82
562.27	45675.55
562.44	46012.59
562.60	45811.31
562.77	45720.02
562.93	45888.54
563.10	46141.32
563.26	45794.92
563.42	46541.55
563.59	45581.93
563.75	45834.71
563.92	45584.27
564.08	45720.02
564.24	46337.93
564.41	45532.78
564.57	46092.17
564.74	46136.64
564.90	45968.12
565.07	46082.81
565.23	46071.10
565.39	46068.76
565.56	46101.53
565.72	45947.06
565.88	46319.20
566.05	45790.24
566.21	46178.77
566.38	46340.27
566.54	46176.43
566.70	46155.36
566.87	46078.13
567.03	46075.79
567.19	46204.52
567.36	46560.28
567.52	46279.41
567.68	46569.64
567.85	46670.28
568.01	47089.24
568.17	46391.76
568.34	46653.90
568.50	46267.71
568.66	46129.62
568.83	46560.28
568.99	46487.72
569.15	46478.36
569.32	46576.66
569.48	46366.01
569.64	46705.39
569.81	46628.15
569.97	46508.79
570.13	46770.93
570.30	46656.24
570.46	46518.15
570.62	46555.60
570.78	46550.91
570.95	46253.67
571.11	46693.69
571.27	46763.90
571.43	46333.24
571.60	46799.01
571.76	46424.53
571.92	46522.83
572.09	46824.76
572.25	46649.22
572.41	46642.20
572.57	46913.70
572.74	47086.90
572.90	47019.02
573.06	46543.89
573.22	47239.03
573.38	46976.89
573.55	46735.82
573.71	47152.43
573.87	46923.06
574.03	46878.59
574.20	46829.44
574.36	47014.34
574.52	46689.01
574.68	46834.12
574.84	46869.23
575.01	47110.30
575.17	47100.94
575.33	46871.57
575.49	46841.14
575.65	47260.10
575.82	47100.94
575.98	46913.70
576.14	47129.03
576.30	47009.66
576.46	47138.39
576.62	47077.54
576.79	47262.44
576.95	46560.28
577.11	46815.40
577.27	46808.37
577.43	47194.56
577.59	46920.72
577.75	47267.12
577.92	46791.99
578.08	46909.02
578.24	46710.07
578.40	47131.37
578.56	46726.46
578.72	46930.08
578.88	47351.38
579.04	47299.89
579.21	46983.91
579.37	47227.33
579.53	47391.17
579.69	47239.03
579.85	47103.28
580.01	47557.35
580.17	46616.45
580.33	47269.46
580.49	46981.57
580.65	47234.35
580.82	47093.92
580.98	47157.11
581.14	46869.23
581.30	47346.70
581.46	47339.68
581.62	47323.29
581.78	47409.89
581.94	47100.94
582.10	47445.00
582.26	47152.43
582.42	47028.38
582.58	47096.26
582.74	46986.25
582.90	47175.84
583.06	47360.74
583.22	47173.50
583.38	47349.04
583.54	47580.75
583.70	47456.70
583.86	47653.31
584.02	47618.20
584.18	47746.93
584.34	47543.30
584.50	47175.84
584.66	47838.21
584.82	47512.88
584.98	47730.54
585.14	47810.12
585.30	47227.33
585.46	47227.33
585.62	47515.22
585.78	47452.02
585.94	47239.03
586.10	47421.59
586.26	47189.88
586.42	48030.13
586.58	47779.70
586.74	47257.76
586.90	47143.07
587.06	46976.89
587.22	47662.67
587.38	47260.10
587.54	47746.93
587.70	48116.73
587.86	47655.65
588.02	47412.23
588.18	47147.75
588.34	47241.37
588.49	47428.62
588.65	47531.60
588.81	47775.02
588.97	47505.85
589.13	47222.65
589.29	47475.43
589.45	47814.80
589.61	47730.54
589.77	47475.43
589.93	47765.65
590.08	47672.03
