SpectraSuite Data File
++++++++++++++++++++++++++++++++++++
Date: Fri Oct 25 11:23:56 EDT 2013
User: price-jones
Dark Spectrum Present: No
Reference Spectrum Present: No
Number of Sampled Component Spectra: 1
Spectrometers: USB2+H05261
Integration Time (usec): 100000 (USB2+H05261)
Spectra Averaged: 1 (USB2+H05261)
Boxcar Smoothing: 0 (USB2+H05261)
Correct for Electrical Dark: No (USB2+H05261)
Strobe/Lamp Enabled: No (USB2+H05261)
Correct for Detector Non-linearity: No (USB2+H05261)
Correct for Stray Light: No (USB2+H05261)
Number of Pixels in Processed Spectrum: 2048
>>>>>Begin Processed Spectral Data<<<<<
365.73	250.44
365.92	250.44
366.12	250.44
366.32	182.56
366.52	126.39
366.72	135.75
366.91	117.03
367.11	114.69
367.31	119.37
367.51	58.51
367.70	56.17
367.90	133.41
368.10	152.13
368.30	133.41
368.49	159.16
368.69	133.41
368.89	100.64
369.09	110.01
369.28	175.54
369.48	128.73
369.68	196.60
369.87	184.90
370.07	156.82
370.27	201.29
370.47	325.33
370.66	578.11
370.86	638.97
371.06	631.94
371.25	655.35
371.45	690.46
371.65	704.50
371.84	645.99
372.04	746.63
372.24	688.12
372.44	730.25
372.63	744.29
372.83	758.33
373.03	711.52
373.22	720.88
373.42	777.06
373.62	709.18
373.81	730.25
374.01	737.27
374.21	791.10
374.40	795.78
374.60	816.85
374.79	873.02
374.99	835.57
375.19	924.51
375.38	823.87
375.58	844.93
375.78	847.27
375.97	858.98
376.17	887.06
376.37	849.61
376.56	870.68
376.76	826.21
376.95	828.55
377.15	924.51
377.35	866.00
377.54	905.79
377.74	873.02
377.93	917.49
378.13	873.02
378.33	858.98
378.52	873.02
378.72	851.96
378.91	933.87
379.11	985.37
379.31	868.34
379.50	924.51
379.70	1055.58
379.89	919.83
380.09	891.74
380.28	1001.75
380.48	1008.77
380.68	912.81
380.87	1046.22
381.07	1100.05
381.26	976.00
381.46	1011.11
381.65	1029.84
381.85	1046.22
382.04	1083.67
382.24	1114.10
382.43	1071.97
382.63	1046.22
382.83	1071.97
383.02	1034.52
383.22	1032.18
383.41	1086.01
383.61	1086.01
383.80	1109.41
384.00	1090.69
384.19	1219.42
384.39	1118.78
384.58	1135.16
384.78	1144.52
384.97	1188.99
385.17	1057.92
385.36	1128.14
385.56	1196.01
385.75	1165.59
385.95	1142.18
386.14	1186.65
386.34	1123.46
386.53	1235.80
386.72	1212.40
386.92	1146.86
387.11	1256.87
387.31	1200.69
387.50	1245.16
387.70	1135.16
387.89	1107.07
388.09	1296.66
388.28	1235.80
388.48	1228.78
388.67	1317.72
388.86	1348.15
389.06	1245.16
389.25	1303.68
389.45	1301.34
389.64	1331.76
389.84	1413.68
390.03	1441.77
390.22	1362.19
390.42	1313.04
390.61	1371.55
390.81	1427.73
391.00	1418.36
391.19	1390.28
391.39	1479.22
391.58	1430.07
391.78	1453.47
391.97	1549.43
392.16	1423.05
392.36	1584.54
392.55	1572.84
392.75	1486.24
392.94	1533.05
393.13	1523.69
393.33	1493.26
393.52	1500.28
393.71	1561.14
393.91	1472.20
394.10	1624.33
394.29	1640.72
394.49	1650.08
394.68	1652.42
394.88	1607.95
395.07	1640.72
395.26	1703.91
395.46	1650.08
395.65	1650.08
395.84	1806.89
396.04	1764.76
396.23	1678.16
396.42	1640.72
396.62	1764.76
396.81	1778.81
397.00	1671.14
397.19	1734.34
397.39	1792.85
397.58	1757.74
397.77	1834.98
397.97	1792.85
398.16	1743.70
398.35	1970.73
398.55	1846.68
398.74	1879.45
398.93	1891.15
399.12	1959.03
399.32	1966.05
399.51	1954.35
399.70	1980.09
399.90	1935.62
400.09	2040.95
400.28	2059.67
400.47	2026.90
400.67	2090.10
400.86	2097.12
401.05	2097.12
401.24	2029.24
401.44	2054.99
401.63	2232.87
401.82	2045.63
402.01	2071.37
402.21	2118.18
402.40	2080.74
402.59	2207.13
402.78	2176.70
402.97	2183.72
403.17	2228.19
403.36	2188.40
403.55	2375.64
403.74	2436.50
403.93	2340.54
404.13	2326.49
404.32	2289.04
404.51	2380.32
404.70	2497.35
404.89	2326.49
405.09	2466.92
405.28	2471.61
405.47	2436.50
405.66	2513.74
405.85	2480.97
406.05	2523.10
406.24	2434.16
406.43	2558.21
406.62	2693.96
406.81	2752.47
407.00	2626.08
407.20	2581.61
407.39	2546.50
407.58	2605.02
407.77	2843.75
407.96	2794.60
408.15	2794.60
408.34	2782.90
408.54	2843.75
408.73	2843.75
408.92	2810.98
409.11	2869.50
409.30	2846.09
409.49	2902.26
409.68	2953.76
409.87	2972.48
410.07	2960.78
410.26	3066.10
410.45	2977.16
410.64	2993.55
410.83	3021.63
411.02	3075.46
411.21	3138.66
411.40	3136.32
411.59	3176.11
411.78	3066.10
411.98	3173.77
412.17	3276.75
412.36	3391.44
412.55	3346.97
412.74	3442.93
412.93	3311.86
413.12	3431.23
413.31	3478.04
413.50	3449.95
413.69	3433.57
413.88	3613.79
414.07	3566.98
414.26	3562.30
414.45	3770.60
414.64	3672.30
414.83	3688.68
415.02	3705.07
415.22	3824.44
415.41	3819.75
415.60	3866.56
415.79	3836.14
415.98	3934.44
416.17	3925.08
416.36	3817.41
416.55	4044.45
416.74	4198.92
416.93	3999.98
417.12	4070.19
417.31	4065.51
417.50	4255.09
417.69	4346.37
417.88	4257.43
418.07	4318.29
418.26	4379.14
418.45	4264.46
418.64	4510.21
418.83	4432.97
419.02	4411.91
419.21	4585.11
419.39	4470.42
419.58	4535.96
419.77	4442.34
419.96	4788.74
420.15	4517.23
420.34	4662.35
420.53	4676.39
420.72	4557.02
420.91	4674.05
421.10	4751.29
421.29	4800.44
421.48	4667.03
421.67	4582.77
421.86	4685.75
422.05	4905.76
422.24	4802.78
422.43	4882.36
422.61	4990.02
422.80	5029.81
422.99	4908.10
423.18	4947.89
423.37	4952.57
423.56	4889.38
423.75	4877.68
423.94	4805.12
424.13	4615.54
424.32	4781.71
424.50	5036.83
424.69	5104.71
424.88	5093.01
425.07	5029.81
425.26	5004.07
425.45	4973.64
425.64	4887.04
425.83	4863.63
426.01	5097.69
426.20	5029.81
426.39	5064.92
426.58	5200.67
426.77	4980.66
426.96	5069.60
427.15	5142.16
427.33	5310.68
427.52	5135.14
427.71	5305.99
427.90	5226.42
428.09	5334.08
428.28	5376.21
428.46	5392.59
428.65	5425.36
428.84	5598.56
429.03	5586.86
429.22	5366.85
429.40	5490.90
429.59	5481.53
429.78	5334.08
429.97	5275.57
430.16	5554.09
430.34	5502.60
430.53	5710.91
430.72	5612.60
430.91	5687.50
431.10	5703.89
431.28	5731.97
431.47	5811.55
431.66	5860.70
431.85	5708.57
432.03	5776.44
432.22	6083.05
432.41	5884.11
432.60	5820.91
432.79	6024.54
432.97	5951.98
433.16	6087.73
433.35	5928.58
433.54	6047.94
433.72	6005.81
433.91	5905.17
434.10	6223.48
434.28	5973.05
434.47	6232.85
434.66	6174.33
434.85	6286.68
435.03	6190.72
435.22	6312.42
435.41	6277.32
435.59	6338.17
435.78	6525.41
435.97	6518.39
436.16	6415.41
436.34	6382.64
436.53	6703.29
436.72	6722.02
436.90	6307.74
437.09	6815.64
437.28	6487.96
437.46	6696.27
437.65	6813.30
437.84	6672.87
438.02	6766.49
438.21	6867.13
438.40	6705.63
438.58	7096.50
438.77	6906.92
438.96	7045.01
439.14	7143.32
439.33	7066.08
439.52	7241.62
439.70	7180.76
439.89	7375.03
440.08	7265.02
440.26	7419.50
440.45	7325.88
440.63	7349.28
440.82	7627.81
441.01	7262.68
441.19	7618.44
441.38	7829.09
441.57	7824.41
441.75	7896.97
441.94	7939.10
442.12	7887.61
442.31	8131.02
442.50	8021.02
442.68	8060.80
442.87	7985.91
443.05	8304.22
443.24	8093.57
443.43	8131.02
443.61	8177.83
443.80	8411.89
443.98	7976.55
444.17	7756.54
444.35	8273.79
444.54	8428.27
444.73	8168.47
444.91	8421.25
445.10	8379.12
445.28	8393.16
445.47	8383.80
445.65	8486.78
445.84	8435.29
446.02	8512.53
446.21	8292.52
446.39	8418.91
446.58	8444.65
446.77	8294.86
446.95	8219.96
447.14	8390.82
447.32	8315.92
447.51	8514.87
447.69	8449.33
447.88	8622.53
448.06	8379.12
448.25	8512.53
448.43	8500.83
448.62	8566.36
448.80	8528.91
448.99	8596.79
449.17	8732.54
449.36	8521.89
449.54	8865.95
449.73	9039.15
449.91	9004.04
450.10	9088.30
450.28	9210.01
450.46	8961.91
450.65	8943.19
450.83	8905.74
451.02	9153.84
451.20	9114.05
451.39	9004.04
451.57	9104.68
451.76	9109.36
451.94	9160.86
452.13	9334.06
452.31	9469.81
452.49	9149.15
452.68	9380.87
452.86	9434.70
453.05	9404.27
453.23	9467.47
453.42	9418.32
453.60	9516.62
453.78	9483.85
453.97	9296.61
454.15	9495.55
454.34	9502.58
454.52	9804.50
454.70	9640.67
454.89	9839.61
455.07	9792.80
455.26	9792.80
455.44	9912.17
455.62	9853.66
455.81	9858.34
455.99	10141.54
456.17	10178.99
456.36	10108.77
456.54	10214.10
456.73	10326.44
456.91	10406.02
457.09	10478.58
457.28	10567.52
457.46	10396.66
457.64	10525.39
457.83	10619.01
458.01	10434.11
458.19	10780.51
458.38	10853.06
458.56	10693.91
458.74	10738.38
458.93	10799.23
459.11	10738.38
459.29	10810.93
459.48	10860.09
459.66	10862.43
459.84	10998.18
460.03	11164.36
460.21	10895.19
460.39	10864.77
460.57	11279.04
460.76	11304.79
460.94	11070.73
461.12	11131.59
461.31	11206.48
461.49	11154.99
461.67	11131.59
461.85	11454.58
462.04	11365.64
462.22	11379.68
462.40	11548.20
462.59	11524.80
462.77	11660.55
462.95	11543.52
463.13	11520.12
463.32	11721.40
463.50	11578.63
463.68	11646.51
463.86	11688.64
464.05	11775.24
464.23	11756.51
464.41	11864.18
464.59	11737.79
464.78	11948.43
464.96	12053.76
465.14	11957.80
465.32	12063.12
465.50	12226.96
465.69	12109.93
465.87	12093.55
466.05	11990.56
466.23	12042.06
466.41	12306.54
466.60	12266.75
466.78	12147.38
466.96	12194.19
467.14	12201.21
467.32	12297.17
467.51	12432.93
467.69	12070.14
467.87	12343.99
468.05	12739.54
468.23	12414.20
468.41	12559.31
468.60	12678.68
468.78	12978.27
468.96	12540.59
469.14	12739.54
469.32	12931.46
469.50	12547.61
469.69	12924.44
469.87	13228.71
470.05	12945.50
470.23	13259.13
470.41	13327.01
470.59	13261.48
470.77	13177.22
470.95	13224.03
471.14	13607.87
471.32	13266.16
471.50	13795.12
471.68	13563.40
471.86	13528.30
472.04	13631.28
472.22	13881.72
472.40	13654.69
472.58	14001.08
472.77	14010.45
472.95	13970.66
473.13	14523.02
473.31	14064.28
473.49	14207.05
473.67	14284.29
473.85	14150.88
474.03	14445.79
474.21	14560.47
474.39	14764.10
474.57	14834.32
474.75	15028.58
474.93	14820.27
475.12	14927.94
475.30	14988.79
475.48	14675.16
475.66	15208.80
475.84	15239.23
476.02	15492.01
476.20	15400.72
476.38	15775.21
476.56	15985.86
476.74	15967.13
476.92	16236.30
477.10	15791.59
477.28	16156.72
477.46	16044.37
477.64	16250.34
477.82	16409.50
478.00	16966.54
478.18	16872.92
478.36	16781.64
478.54	17102.29
478.72	17228.68
478.90	17523.59
479.08	17458.06
479.26	17642.96
479.44	17404.22
479.62	17905.10
479.80	18090.00
479.98	18211.71
480.16	18663.43
480.34	18256.18
480.52	18518.32
480.70	18836.63
480.88	18307.67
481.06	18785.14
481.24	18831.95
481.41	19445.17
481.59	19318.78
481.77	19173.67
481.95	19630.07
482.13	19796.25
482.31	19646.46
482.49	20156.69
482.67	20114.56
482.85	20500.75
483.03	20592.03
483.21	20779.28
483.39	20936.09
483.57	20575.65
483.74	21083.55
483.92	21472.07
484.10	21441.65
484.28	21986.99
484.46	21720.17
484.64	22525.32
484.82	21970.61
485.00	22562.76
485.18	22862.35
485.35	22860.01
485.53	22731.28
485.71	22820.22
485.89	23583.24
486.07	23311.74
486.25	23623.03
486.43	23800.91
486.61	23606.64
486.78	23709.63
486.96	24301.78
487.14	24601.37
487.32	24730.10
487.50	24907.98
487.68	24863.51
487.85	25252.04
488.03	25776.32
488.21	25652.27
488.39	25710.78
488.57	25933.14
488.75	26335.71
488.92	26288.90
489.10	26796.79
489.28	26749.98
489.46	26937.23
489.64	27047.23
489.81	27651.09
489.99	27569.17
490.17	27667.47
490.35	28531.13
490.53	28187.07
490.70	28643.48
490.88	28397.72
491.06	28493.68
491.24	28685.61
491.41	29244.99
491.59	29095.20
491.77	29322.23
491.95	29909.71
492.13	29537.56
492.30	30216.32
492.48	30068.86
492.66	30265.47
492.84	30209.29
493.01	30862.30
493.19	30441.01
493.37	30986.35
493.54	31344.45
493.72	31489.57
493.90	31267.22
494.08	31171.25
494.25	32428.12
494.43	31634.68
494.61	32575.58
494.79	32283.01
494.96	32568.55
495.14	32865.80
495.32	33298.80
495.49	33418.17
495.67	33071.77
495.85	33764.57
496.02	33495.41
496.20	34052.45
496.38	34103.95
496.55	34288.85
496.73	34731.21
496.91	34658.65
497.09	34768.66
497.26	35232.08
497.44	35299.96
497.62	35117.40
497.79	35969.35
497.97	35613.59
498.14	36116.81
498.32	36102.76
498.50	36407.03
498.67	37027.28
498.85	36549.81
499.03	36952.38
499.20	36790.88
499.38	37053.02
499.56	37125.58
499.73	37226.22
499.91	37715.39
500.08	37645.18
500.26	37701.35
500.44	37731.78
500.61	38265.42
500.79	38087.54
500.97	38256.06
501.14	38522.88
501.32	38565.01
501.49	38773.31
501.67	38431.60
501.84	39143.12
502.02	38852.89
502.20	39414.62
502.37	38827.15
502.55	39367.81
502.72	39639.31
502.90	39370.15
503.07	39541.01
503.25	39625.27
503.43	39985.71
503.60	40009.12
503.78	40292.32
503.95	40407.01
504.13	40809.58
504.30	40793.20
504.48	40271.26
504.65	41024.91
504.83	41158.32
505.01	41256.62
505.18	41123.21
505.36	41586.64
505.53	41476.63
505.71	42103.90
505.88	41977.51
506.06	41298.75
506.23	42061.77
506.41	41755.16
506.58	41942.40
506.76	42323.91
506.93	42773.29
507.11	42466.68
507.28	42810.74
507.46	42754.57
507.63	43056.50
507.81	43356.08
507.98	42988.62
508.16	43365.45
508.33	43363.11
508.50	43604.18
508.68	43239.06
508.85	44069.95
509.03	43838.23
509.20	44009.09
509.38	44163.57
509.55	44626.99
509.73	44861.05
509.90	44751.04
510.08	44664.44
510.25	44570.82
510.42	44748.70
510.60	45338.52
510.77	44921.90
510.95	45174.68
511.12	45221.49
511.30	45474.27
511.47	45184.04
511.64	45581.93
511.82	45649.81
511.99	45830.03
512.17	46080.47
512.34	46014.93
512.51	46777.95
512.69	46349.63
512.86	46014.93
513.04	46298.14
513.21	46244.30
513.38	46628.15
513.56	47145.41
513.73	46878.59
513.90	46890.29
514.08	46974.55
514.25	47285.84
514.43	47508.19
514.60	47414.57
514.77	47576.07
514.95	47746.93
515.12	47608.84
515.29	47927.15
515.47	48137.80
515.64	48364.83
515.81	48037.16
515.99	48584.84
516.16	48516.96
516.33	48385.89
516.51	48676.12
516.68	48638.67
516.85	48507.60
517.03	49043.59
517.20	48879.75
517.37	48893.79
517.54	48968.69
517.72	48701.87
517.89	48626.97
518.06	49228.49
518.24	49106.78
518.41	49422.75
518.58	49560.84
518.75	49448.50
518.93	49659.15
519.10	49691.91
519.27	50050.02
519.45	49834.69
519.62	49783.19
519.79	49916.61
519.96	50122.57
520.14	50078.10
520.31	50096.83
520.48	50419.82
520.65	50169.38
520.83	50429.18
521.00	50424.50
521.17	50487.70
521.34	50667.92
521.52	50979.21
521.69	50906.65
521.86	51063.47
522.03	50937.08
522.20	51414.55
522.38	51536.26
522.55	51660.30
522.72	51285.82
522.89	50946.44
523.07	51597.11
523.24	51585.41
523.41	51536.26
523.58	51475.40
523.75	52006.70
523.92	51885.00
524.10	52158.84
524.27	51983.30
524.44	52130.75
524.61	52215.01
524.78	52264.16
524.96	52191.61
525.13	52418.64
525.30	52285.23
525.47	52528.64
525.64	52746.31
525.81	52772.06
525.98	52493.54
526.16	52547.37
526.33	52629.29
526.50	53022.50
526.67	52772.06
526.84	52963.98
527.01	52900.79
527.18	52877.38
527.36	53116.12
527.53	53251.87
527.70	53727.00
527.87	53528.05
528.04	53249.53
528.21	53481.24
528.38	53116.12
528.55	53790.19
528.72	53176.97
528.89	53502.31
529.07	53310.38
529.24	53780.83
529.41	53743.38
529.58	53553.80
529.75	53881.47
529.92	53799.55
530.09	53942.33
530.26	53834.66
530.43	54089.78
530.60	53794.87
530.77	53691.89
530.94	53932.96
531.11	54124.89
531.28	54302.77
531.46	54241.92
531.63	54298.09
531.80	54190.42
531.97	54714.70
532.14	54588.31
532.31	54375.33
532.48	54695.98
532.65	54773.22
532.82	54508.74
532.99	54805.98
533.16	54576.61
533.33	54923.01
533.50	54934.71
533.67	54845.77
533.84	54583.63
534.01	54988.55
534.18	55004.93
534.35	55395.80
534.52	55372.39
534.69	55110.25
534.86	55456.65
535.03	55213.24
535.20	55203.88
535.37	55473.04
535.54	55447.29
535.71	55414.52
535.88	55496.44
536.05	55395.80
536.22	55386.44
536.38	55597.09
536.55	55592.40
536.72	55679.00
536.89	55557.30
537.06	55557.30
537.23	55777.31
537.40	55531.55
537.57	55805.39
537.74	55934.12
537.91	56039.45
538.08	56074.55
538.25	55819.44
538.42	55924.76
538.59	56172.86
538.75	56067.53
538.92	56011.36
539.09	56123.71
539.26	56044.13
539.43	55997.32
539.60	56156.47
539.77	56266.48
539.94	56430.32
540.11	56261.80
540.28	56362.44
540.44	56566.07
540.61	56589.47
540.78	56495.85
540.95	56385.85
541.12	56332.01
541.29	56399.89
541.46	56552.02
541.62	56877.36
541.79	56608.20
541.96	56383.51
542.13	56860.97
542.30	56699.48
542.47	56741.61
542.63	57071.62
542.80	56931.19
542.97	57200.35
543.14	57420.36
543.31	57144.18
543.48	57153.54
543.64	57581.86
543.81	57387.60
543.98	57333.76
544.15	57275.25
544.32	57600.58
544.48	57396.96
544.65	57296.31
544.82	57598.24
544.99	57284.61
545.16	57635.69
545.32	57282.27
545.49	57705.91
545.66	57701.23
545.83	57488.24
546.00	57712.93
546.16	57631.01
546.33	57609.95
546.50	57535.05
546.67	57698.89
546.83	57462.49
547.00	57684.84
547.17	57511.64
547.34	57827.62
547.50	58042.95
547.67	58117.84
547.84	58005.50
548.00	58071.03
548.17	58298.06
548.34	58134.23
548.51	58482.97
548.67	58220.83
548.84	58288.70
549.01	58169.33
549.18	57970.39
549.34	58204.44
549.51	58330.83
549.68	58581.27
549.84	58291.04
550.01	58354.24
550.18	58113.16
550.34	58480.63
550.51	58590.63
550.68	58375.30
550.84	58319.13
551.01	58555.52
551.18	58277.00
551.34	58457.22
551.51	58665.53
551.68	58602.33
551.84	58454.88
552.01	58621.06
552.18	58941.71
552.34	58576.59
552.51	58698.30
552.68	58588.29
552.84	58665.53
553.01	59032.99
553.18	58941.71
553.34	58817.66
553.51	58775.53
553.67	58925.33
553.84	59037.67
554.01	58834.05
554.17	59014.27
554.34	58944.05
554.51	59175.76
554.67	58983.84
554.84	59105.55
555.00	58988.52
555.17	59147.68
555.33	59278.75
555.50	59063.42
555.67	59107.89
555.83	59154.70
556.00	59194.49
556.16	59381.73
556.33	59341.94
556.50	59220.23
556.66	59185.13
556.83	59075.12
556.99	59393.43
557.16	59777.28
557.32	59363.01
557.49	59671.96
557.65	59306.83
557.82	59276.41
557.98	59327.90
558.15	59334.92
558.32	59461.31
558.48	59381.73
558.65	59501.10
558.81	59330.24
558.98	59554.93
559.14	59812.39
559.31	59554.93
559.47	59700.04
559.64	59751.54
559.80	59749.20
559.97	59735.15
560.13	59756.22
560.30	59648.55
560.46	59676.64
560.63	59831.11
560.79	59980.91
560.96	59901.33
561.12	59889.63
561.29	59877.93
561.45	60072.19
561.61	59863.88
561.78	59903.67
561.94	60060.49
562.11	59760.90
562.27	59868.56
562.44	59955.16
562.60	60013.68
562.77	60025.38
562.93	59744.51
563.10	60123.68
563.26	59957.50
563.42	60205.60
563.59	59945.80
563.75	60191.56
563.92	60119.00
564.08	60009.00
564.24	60172.83
564.41	60224.32
564.57	60151.77
564.74	60324.97
564.90	60009.00
565.07	60048.78
565.23	60111.98
565.39	60275.82
565.56	60074.53
565.72	60238.37
565.88	60156.45
566.05	60126.02
566.21	60177.51
566.38	60324.97
566.54	60212.62
566.70	60360.08
566.87	60395.18
567.03	60193.90
567.19	60456.04
567.36	60383.48
567.52	60390.50
567.68	60563.70
567.85	60432.63
568.01	60343.69
568.17	60254.75
568.34	60427.95
568.50	60360.08
568.66	60432.63
568.83	60458.38
568.99	60472.42
569.15	60261.77
569.32	60294.54
569.48	60329.65
569.64	60664.35
569.81	60339.01
569.97	60568.38
570.13	60446.68
570.30	60353.05
570.46	60734.56
570.62	60533.28
570.78	60449.02
570.95	60350.71
571.11	60537.96
571.27	60481.78
571.43	60498.17
571.60	60697.11
571.76	60594.13
571.92	60566.04
572.09	60587.11
572.25	60657.32
572.41	60626.90
572.57	60615.19
572.74	60853.93
572.90	60669.03
573.06	60767.33
573.22	60694.77
573.38	60622.22
573.55	60589.45
573.71	60846.91
573.87	60652.64
574.03	60694.77
574.20	60610.51
574.36	60392.84
574.52	60797.76
574.68	61071.60
574.84	60846.91
575.01	60701.79
575.17	60853.93
575.33	60615.19
575.49	60676.05
575.65	60638.60
575.82	60872.65
575.98	60767.33
576.14	60945.21
576.30	60985.00
576.46	60830.52
576.62	60797.76
576.79	60786.05
576.95	60779.03
577.11	60699.45
577.27	61176.92
577.43	61008.40
577.59	60966.27
577.75	60764.99
577.92	60804.78
578.08	60882.02
578.24	60924.14
578.40	60994.36
578.56	61055.21
578.72	60867.97
578.88	61066.92
579.04	61062.24
579.21	61160.54
579.37	61066.92
579.53	61066.92
579.69	60767.33
579.85	60874.99
580.01	61036.49
580.17	60853.93
580.33	60856.27
580.49	61062.24
580.65	60982.66
580.82	60935.85
580.98	60699.45
581.14	60867.97
581.30	60989.68
581.46	61071.60
581.62	61111.39
581.78	61045.85
581.94	60928.83
582.10	60910.10
582.26	61153.52
582.42	61031.81
582.58	60912.44
582.74	61031.81
582.90	60917.12
583.06	61022.45
583.22	60821.16
583.38	60985.00
583.54	61010.74
583.70	61017.77
583.86	60949.89
584.02	60872.65
584.18	61186.28
584.34	61087.98
584.50	60877.33
584.66	60994.36
584.82	60919.46
584.98	61087.98
585.14	61001.38
585.30	60828.18
585.46	61052.87
585.62	61057.56
585.78	61144.16
585.94	60701.79
586.10	61029.47
586.26	61116.07
586.42	61132.45
586.58	61228.41
586.74	61226.07
586.90	61022.45
587.06	60910.10
587.22	61188.63
587.38	61195.65
587.54	61015.43
587.70	61242.46
587.86	61062.24
588.02	61120.75
588.18	61268.20
588.34	60910.10
588.49	61179.26
