SpectraSuite Data File
++++++++++++++++++++++++++++++++++++
Date: Fri Oct 25 11:25:04 EDT 2013
User: price-jones
Dark Spectrum Present: No
Reference Spectrum Present: No
Number of Sampled Component Spectra: 1
Spectrometers: USB2+H05261
Integration Time (usec): 100000 (USB2+H05261)
Spectra Averaged: 1 (USB2+H05261)
Boxcar Smoothing: 0 (USB2+H05261)
Correct for Electrical Dark: No (USB2+H05261)
Strobe/Lamp Enabled: No (USB2+H05261)
Correct for Detector Non-linearity: No (USB2+H05261)
Correct for Stray Light: No (USB2+H05261)
Number of Pixels in Processed Spectrum: 2048
>>>>>Begin Processed Spectral Data<<<<<
365.73	266.82
365.92	266.82
366.12	266.82
366.32	227.03
366.52	140.43
366.72	110.01
366.91	138.09
367.11	126.39
367.31	140.43
367.51	135.75
367.70	180.22
367.90	166.18
368.10	163.84
368.30	156.82
368.49	121.71
368.69	133.41
368.89	117.03
369.09	100.64
369.28	159.16
369.48	175.54
369.68	189.58
369.87	194.26
370.07	187.24
370.27	236.39
370.47	248.10
370.66	540.66
370.86	683.44
371.06	641.31
371.25	706.84
371.45	634.29
371.65	692.80
371.84	688.12
372.04	681.10
372.24	760.67
372.44	791.10
372.63	788.76
372.83	795.78
373.03	734.93
373.22	709.18
373.42	758.33
373.62	779.40
373.81	828.55
374.01	737.27
374.21	863.66
374.40	713.86
374.60	809.83
374.79	837.91
374.99	800.46
375.19	840.25
375.38	870.68
375.58	903.45
375.78	847.27
375.97	800.46
376.17	985.37
376.37	866.00
376.56	882.38
376.76	880.04
376.95	849.61
377.15	905.79
377.35	884.72
377.54	882.38
377.74	891.74
377.93	837.91
378.13	980.68
378.33	926.85
378.52	849.61
378.72	959.62
378.91	1022.81
379.11	854.30
379.31	915.15
379.50	877.70
379.70	983.02
379.89	971.32
380.09	1006.43
380.28	997.07
380.48	976.00
380.68	943.24
380.87	924.51
381.07	1025.15
381.26	1060.26
381.46	947.92
381.65	1004.09
381.85	1020.47
382.04	1053.24
382.24	1102.39
382.43	1067.28
382.63	1036.86
382.83	997.07
383.02	1095.37
383.22	1078.99
383.41	1102.39
383.61	1114.10
383.80	1181.97
384.00	1165.59
384.19	1067.28
384.39	1100.05
384.58	1179.63
384.78	1130.48
384.97	1135.16
385.17	1179.63
385.36	1177.29
385.56	1102.39
385.75	1130.48
385.95	1048.56
386.14	1221.76
386.34	1210.06
386.53	1252.19
386.72	1158.57
386.92	1273.25
387.11	1203.04
387.31	1301.34
387.50	1261.55
387.70	1242.82
387.89	1207.72
388.09	1266.23
388.28	1177.29
388.48	1308.36
388.67	1252.19
388.86	1329.42
389.06	1303.68
389.25	1350.49
389.45	1376.24
389.64	1343.47
389.84	1420.71
390.03	1413.68
390.22	1369.21
390.42	1338.79
390.61	1336.45
390.81	1376.24
391.00	1434.75
391.19	1401.98
391.39	1511.99
391.58	1413.68
391.78	1448.79
391.97	1551.78
392.16	1448.79
392.36	1516.67
392.55	1474.54
392.75	1598.59
392.94	1509.65
393.13	1507.30
393.33	1563.48
393.52	1544.75
393.71	1605.61
393.91	1561.14
394.10	1563.48
394.29	1603.27
394.49	1636.03
394.68	1561.14
394.88	1600.93
395.07	1666.46
395.26	1736.68
395.46	1636.03
395.65	1720.29
395.84	1682.85
396.04	1825.62
396.23	1795.19
396.42	1760.08
396.62	1739.02
396.81	1610.29
397.00	1839.66
397.19	1771.79
397.39	1727.32
397.58	1788.17
397.77	1797.53
397.97	1832.64
398.16	1881.79
398.35	1944.99
398.55	1842.00
398.74	1909.88
398.93	1928.60
399.12	1923.92
399.32	1888.81
399.51	2036.27
399.70	1935.62
399.90	1916.90
400.09	2073.71
400.28	1977.75
400.47	2155.63
400.67	2087.76
400.86	2094.78
401.05	2059.67
401.24	2160.31
401.44	2195.42
401.63	2207.13
401.82	2197.76
402.01	2122.87
402.21	2202.44
402.40	2139.25
402.59	2167.34
402.78	2162.66
402.97	2106.48
403.17	2263.30
403.36	2300.75
403.55	2270.32
403.74	2380.32
403.93	2317.13
404.13	2314.79
404.32	2272.66
404.51	2282.02
404.70	2340.54
404.89	2324.15
405.09	2392.03
405.28	2392.03
405.47	2349.90
405.66	2502.03
405.85	2520.76
406.05	2492.67
406.24	2473.95
406.43	2558.21
406.62	2597.99
406.81	2651.83
407.00	2670.55
407.20	2684.59
407.39	2593.31
407.58	2778.22
407.77	2647.15
407.96	2708.00
408.15	2726.72
408.34	2693.96
408.54	2731.41
408.73	2808.64
408.92	2829.71
409.11	2862.48
409.30	2813.32
409.49	2939.71
409.68	2810.98
409.87	2928.01
410.07	2895.24
410.26	2937.37
410.45	2911.63
410.64	2911.63
410.83	3063.76
411.02	3075.46
411.21	3164.40
411.40	3068.44
411.59	3101.21
411.78	3194.83
411.98	3129.30
412.17	3204.19
412.36	3108.23
412.55	3403.14
412.74	3410.16
412.93	3473.36
413.12	3337.60
413.31	3496.76
413.50	3440.59
413.69	3597.40
413.88	3707.41
414.07	3585.70
414.26	3520.17
414.45	3702.73
414.64	3763.58
414.83	3740.18
415.02	3646.55
415.22	3721.45
415.41	3861.88
415.60	3850.18
415.79	3850.18
415.98	3992.95
416.17	3847.84
416.36	3906.35
416.55	3927.42
416.74	4079.55
416.93	3969.55
417.12	3896.99
417.31	4121.68
417.50	4037.42
417.69	4327.65
417.88	4100.62
418.07	4182.54
418.26	4175.52
418.45	4411.91
418.64	4383.82
418.83	4290.20
419.02	4381.48
419.21	4397.87
419.39	4505.53
419.58	4428.29
419.77	4257.43
419.96	4514.89
420.15	4615.54
420.34	4603.83
420.53	4727.88
420.72	4849.59
420.91	4688.09
421.10	4903.42
421.29	4718.52
421.48	4613.20
421.67	4791.08
421.86	4854.27
422.05	4887.04
422.24	4765.33
422.43	4896.40
422.61	4767.67
422.80	4947.89
422.99	4917.47
423.18	4936.19
423.37	5078.96
423.56	4938.53
423.75	5060.24
423.94	4936.19
424.13	4564.04
424.32	4706.82
424.50	4933.85
424.69	5163.22
424.88	5167.90
425.07	5095.35
425.26	4961.94
425.45	4887.04
425.64	4877.68
425.83	4957.25
426.01	5004.07
426.20	5083.64
426.39	5100.03
426.58	5039.17
426.77	5160.88
426.96	5050.88
427.15	5160.88
427.33	5233.44
427.52	5240.46
427.71	5327.06
427.90	5270.89
428.09	5263.86
428.28	5352.81
428.46	5366.85
428.65	5366.85
428.84	5406.64
429.03	5563.45
429.22	5238.12
429.40	5413.66
429.59	5394.93
429.78	5214.71
429.97	5320.04
430.16	5490.90
430.34	5703.89
430.53	5575.16
430.72	5713.25
430.91	5577.50
431.10	5572.82
431.28	5701.54
431.47	5853.68
431.66	5846.66
431.85	5748.36
432.03	5891.13
432.22	6001.13
432.41	5881.77
432.60	5900.49
432.79	5982.41
432.97	5841.98
433.16	6003.47
433.35	5989.43
433.54	6066.67
433.72	6132.20
433.91	6054.97
434.10	6127.52
434.28	6263.27
434.47	6242.21
434.66	6125.18
434.85	6317.11
435.03	6333.49
435.22	6211.78
435.41	6394.34
435.59	6319.45
435.78	6354.55
435.97	6387.32
436.16	6167.31
436.34	6403.71
436.53	6499.67
436.72	6679.89
436.90	6455.20
437.09	6635.42
437.28	6630.74
437.46	6490.31
437.65	6691.59
437.84	6822.66
438.02	6576.91
438.21	6581.59
438.40	6633.08
438.58	6841.39
438.77	6963.09
438.96	7040.33
439.14	7082.46
439.33	7206.51
439.52	7105.87
439.70	7232.26
439.89	7316.51
440.08	7290.77
440.26	7391.41
440.45	7246.30
440.63	7428.86
440.82	7456.95
441.01	7365.67
441.19	7454.61
441.38	7721.43
441.57	7775.26
441.75	7793.98
441.94	7962.50
442.12	7695.68
442.31	8278.47
442.50	8222.30
442.68	7831.43
442.87	8028.04
443.05	8044.42
443.24	8250.39
443.43	7948.46
443.61	8210.60
443.80	8238.69
443.98	8004.63
444.17	7831.43
444.35	7978.89
444.54	8255.07
444.73	8222.30
444.91	8297.20
445.10	8446.99
445.28	8383.80
445.47	8208.26
445.65	8248.05
445.84	8423.59
446.02	8414.23
446.21	8313.58
446.39	8299.54
446.58	8393.16
446.77	8439.97
446.95	8212.94
447.14	8285.50
447.32	8531.25
447.51	8294.86
447.69	8320.60
447.88	8482.10
448.06	8212.94
448.25	8587.43
448.43	8491.46
448.62	8578.06
448.80	8531.25
448.99	8739.56
449.17	8606.15
449.36	8620.19
449.54	8697.43
449.73	8772.33
449.91	8882.33
450.10	8896.38
450.28	9025.11
450.46	9029.79
450.65	9006.38
450.83	9151.49
451.02	8957.23
451.20	9191.28
451.39	9071.92
451.57	9097.66
451.76	8858.93
451.94	9135.11
452.13	9221.71
452.31	9214.69
452.49	9165.54
452.68	9191.28
452.86	9212.35
453.05	9224.05
453.23	9378.53
453.42	9338.74
453.60	9231.07
453.78	9549.39
453.97	9310.65
454.15	9432.36
454.34	9465.13
454.52	9483.85
454.70	9682.80
454.89	9741.31
455.07	9675.77
455.26	9799.82
455.44	10076.01
455.62	9837.27
455.81	9760.03
455.99	9893.44
456.17	9984.73
456.36	10033.88
456.54	10249.21
456.73	10356.87
456.91	10394.32
457.09	10363.89
457.28	10408.36
457.46	10183.67
457.64	10494.96
457.83	10494.96
458.01	10368.57
458.19	10719.65
458.38	10366.23
458.56	10682.20
458.74	10604.97
458.93	10574.54
459.11	10850.72
459.29	10743.06
459.48	10974.77
459.66	10890.51
459.84	10895.19
460.03	10946.69
460.21	11019.24
460.39	10939.66
460.57	11044.99
460.76	11108.18
460.94	11197.12
461.12	11171.38
461.31	10972.43
461.49	11115.20
461.67	11073.07
461.85	11426.50
462.04	11365.64
462.22	11585.65
462.40	11407.77
462.59	11417.13
462.77	11375.00
462.95	11531.82
463.13	11527.14
463.32	11573.95
463.50	11503.73
463.68	11772.89
463.86	11880.56
464.05	11646.51
464.23	11627.78
464.41	11768.21
464.59	11662.89
464.78	12049.08
464.96	11983.54
465.14	11840.77
465.32	11941.41
465.50	12163.76
465.69	12140.36
465.87	11969.50
466.05	11948.43
466.23	11889.92
466.41	11826.73
466.60	12435.27
466.78	12105.25
466.96	12229.30
467.14	12203.55
467.32	12409.52
467.51	12468.03
467.69	12336.96
467.87	12449.31
468.05	12692.73
468.23	12587.40
468.41	12418.88
468.60	12521.87
468.78	12657.62
468.96	12404.84
469.14	12585.06
469.32	12854.22
469.50	12409.52
469.69	12772.30
469.87	12985.29
470.05	13092.96
470.23	13303.60
470.41	12994.65
470.59	13385.52
470.77	12933.80
470.95	13275.52
471.14	13462.76
471.32	13200.62
471.50	13408.93
471.68	13504.89
471.86	13659.37
472.04	13495.53
472.22	14075.98
472.40	13727.24
472.58	13661.71
472.77	13994.06
472.95	13881.72
473.13	14396.64
473.31	13834.91
473.49	14059.60
473.67	13951.93
473.85	14326.42
474.03	14686.86
474.21	14534.73
474.39	14593.24
474.57	14560.47
474.75	14963.04
474.93	14941.98
475.12	14752.40
475.30	15063.69
475.48	15047.30
475.66	14974.75
475.84	15033.26
476.02	15332.85
476.20	15372.64
476.38	15688.61
476.56	15840.75
476.74	15791.59
476.92	15707.34
477.10	15573.92
477.28	16215.23
477.46	16201.19
477.64	16308.85
477.82	16568.65
478.00	16826.11
478.18	16599.08
478.36	16718.45
478.54	16905.69
478.72	17043.78
478.90	17106.98
479.08	17551.68
479.26	17542.32
479.44	17467.42
479.62	17989.36
479.80	17855.95
479.98	18071.28
480.16	18520.66
480.34	18162.56
480.52	18401.29
480.70	18382.57
480.88	18244.48
481.06	18719.60
481.24	18640.03
481.41	18951.32
481.59	19250.91
481.77	19440.49
481.95	19599.65
482.13	19501.34
482.31	19892.21
482.49	19974.13
482.67	19791.57
482.85	20301.81
483.03	20318.19
483.21	20467.98
483.39	21027.37
483.57	20587.35
483.74	21092.91
483.92	21369.09
484.10	21497.82
484.28	21479.10
484.46	21577.40
484.64	22092.32
484.82	21881.67
485.00	22059.55
485.18	22457.44
485.35	23000.44
485.53	22618.94
485.71	22595.53
485.89	23208.75
486.07	23267.27
486.25	23351.52
486.43	23494.30
486.61	23941.34
486.78	23791.55
486.96	23882.83
487.14	24308.80
487.32	24364.98
487.50	24898.62
487.68	24755.85
487.85	24912.66
488.03	25425.24
488.21	25514.18
488.39	25977.61
488.57	25832.49
488.75	26115.70
488.92	26242.09
489.10	26232.72
489.28	26822.54
489.46	26871.69
489.64	26862.33
489.81	27688.54
489.99	27321.07
490.17	27779.82
490.35	28268.99
490.53	27864.08
490.70	28322.82
490.88	28287.71
491.06	28804.97
491.24	28273.67
491.41	28594.32
491.59	29102.22
491.77	28774.55
491.95	29528.20
492.13	29357.34
492.30	30075.88
492.48	29762.25
492.66	29982.26
492.84	29991.62
493.01	30756.98
493.19	30370.79
493.37	30607.19
493.54	30761.66
493.72	31548.08
493.90	31250.83
494.08	31255.51
494.25	31777.45
494.43	31868.73
494.61	32123.85
494.79	32570.90
494.96	32343.86
495.14	32109.81
495.32	32790.91
495.49	32676.22
495.67	32886.87
495.85	33446.26
496.02	33722.44
496.20	34094.58
496.38	33956.49
496.55	34274.80
496.73	34785.04
496.91	33989.26
497.09	34806.11
497.26	34749.93
497.44	34993.35
497.62	34644.61
497.79	35569.12
497.97	35262.51
498.14	35424.01
498.32	35814.88
498.50	36086.38
498.67	36924.29
498.85	36275.96
499.03	36348.52
499.20	36313.41
499.38	36816.63
499.56	37006.21
499.73	36945.36
499.91	37418.14
500.08	37436.87
500.26	37184.09
500.44	37345.59
500.61	37958.81
500.79	37539.85
500.97	37694.33
501.14	38560.33
501.32	38174.14
501.49	38415.21
501.67	38368.40
501.84	38527.56
502.02	38370.74
502.20	38604.80
502.37	38822.47
502.55	38892.68
502.72	39576.12
502.90	39641.65
503.07	39255.46
503.25	39917.84
503.43	39529.31
503.60	39672.08
503.78	40177.64
503.95	40023.16
504.13	40528.72
504.30	40442.12
504.48	40917.25
504.65	40500.63
504.83	40622.34
505.01	41193.43
505.18	40664.47
505.36	41282.37
505.53	41038.95
505.71	41385.35
505.88	41670.90
506.06	41411.10
506.23	41523.44
506.41	41937.72
506.58	41785.58
506.76	41734.09
506.93	42000.91
507.11	41961.12
507.28	42103.90
507.46	42546.26
507.63	42864.57
507.81	42932.45
507.98	42660.94
508.16	43042.45
508.33	42787.33
508.50	43445.02
508.68	43587.80
508.85	44034.84
509.03	43634.61
509.20	43899.09
509.38	44219.74
509.55	43950.58
509.73	44222.08
509.90	44626.99
510.08	44446.77
510.25	44355.49
510.42	44296.98
510.60	44811.90
510.77	45525.76
510.95	45642.79
511.12	45155.96
511.30	45392.35
511.47	45951.74
511.64	45624.06
511.82	45624.06
511.99	45539.80
512.17	45736.41
512.34	45598.32
512.51	46075.79
512.69	46064.08
512.86	46342.61
513.04	46258.35
513.21	46337.93
513.38	46480.70
513.56	46686.67
513.73	46993.28
513.90	46927.74
514.08	46354.31
514.25	47302.23
514.43	47487.13
514.60	47250.74
514.77	47395.85
514.95	47213.29
515.12	47569.05
515.29	47547.98
515.47	47838.21
515.64	47892.04
515.81	47723.52
515.99	47849.91
516.16	47892.04
516.33	48247.80
516.51	48704.21
516.68	48477.18
516.85	48287.59
517.03	48568.46
517.20	48662.08
517.37	48769.74
517.54	48736.98
517.72	48734.63
517.89	48811.87
518.06	48765.06
518.24	49160.61
518.41	49366.58
518.58	49413.39
518.75	49127.84
518.93	49455.52
519.10	49209.76
519.27	49647.44
519.45	49558.50
519.62	49649.78
519.79	49986.82
519.96	49446.16
520.14	50012.57
520.31	49902.56
520.48	50349.60
520.65	50234.92
520.83	50122.57
521.00	50642.17
521.17	50291.09
521.34	50426.84
521.52	50660.90
521.69	50822.39
521.86	50429.18
522.03	51098.58
522.20	51161.77
522.38	51353.69
522.55	51201.56
522.72	50958.14
522.89	50974.53
523.07	51723.50
523.24	51236.67
523.41	51262.41
523.58	51222.62
523.75	51807.76
523.92	51679.03
524.10	51889.68
524.27	51957.55
524.44	51852.23
524.61	52107.35
524.78	52069.90
524.96	51985.64
525.13	51910.74
525.30	52219.69
525.47	52289.91
525.64	52315.65
525.81	52137.77
525.98	52355.44
526.16	52493.54
526.33	52889.09
526.50	52982.71
526.67	52563.75
526.84	52645.67
527.01	52598.86
527.18	52575.45
527.36	52884.40
527.53	52863.34
527.70	53006.11
527.87	53352.51
528.04	52849.30
528.21	53389.96
528.38	53350.17
528.55	53499.97
528.72	53261.23
528.89	53392.30
529.07	53382.94
529.24	53118.46
529.41	53588.91
529.58	53303.36
529.75	53418.05
529.92	53764.45
530.09	53743.38
530.26	53745.72
530.43	53827.64
530.60	53680.19
530.77	53902.54
530.94	53876.79
531.11	53949.35
531.28	54017.22
531.46	53984.46
531.63	54162.34
531.80	53996.16
531.97	54197.44
532.14	54370.64
532.31	54487.67
532.48	54504.06
532.65	54464.27
532.82	54494.69
532.99	54611.72
533.16	54593.00
533.33	54597.68
533.50	54567.25
533.67	54567.25
533.84	54700.66
534.01	54878.54
534.18	54721.72
534.35	55014.29
534.52	54953.44
534.69	55047.06
534.86	55161.75
535.03	55028.34
535.20	54930.03
535.37	55236.64
535.54	55372.39
535.71	55231.96
535.88	55222.60
536.05	55576.02
536.22	55367.71
536.38	55543.25
536.55	55402.82
536.72	55299.84
536.89	55285.79
537.06	55262.39
537.23	55477.72
537.40	55526.87
537.57	55529.21
537.74	55667.30
537.91	55847.52
538.08	55735.18
538.25	55583.04
538.42	55611.13
538.59	55929.44
538.75	55856.88
538.92	55817.10
539.09	56048.81
539.26	55950.51
539.43	55966.89
539.60	56025.40
539.77	56154.13
539.94	56453.72
540.11	56280.52
540.28	56390.53
540.44	56236.05
540.61	56137.75
540.78	56193.92
540.95	56278.18
541.12	56233.71
541.29	56268.82
541.46	56371.80
541.62	56486.49
541.79	56554.36
541.96	56226.69
542.13	56266.48
542.30	56481.81
542.47	56526.28
542.63	56477.13
542.80	56652.67
542.97	56938.21
543.14	56980.34
543.31	57279.93
543.48	57022.47
543.64	57279.93
543.81	57293.97
543.98	57111.41
544.15	57205.03
544.32	57176.95
544.48	57411.00
544.65	57315.04
544.82	57141.84
544.99	57008.43
545.16	57226.10
545.32	57169.93
545.49	57654.42
545.66	57467.17
545.83	57549.09
546.00	57609.95
546.16	57560.79
546.33	57680.16
546.50	57464.83
546.67	57729.31
546.83	57109.07
547.00	57820.59
547.17	57551.43
547.34	57776.12
547.50	57724.63
547.67	57883.79
547.84	57881.45
548.00	58078.05
548.17	58042.95
548.34	57614.63
548.51	58120.18
548.67	58262.96
548.84	58026.56
549.01	58059.33
549.18	58005.50
549.34	58059.33
549.51	58305.09
549.68	58155.29
549.84	58078.05
550.01	58349.56
550.18	58197.42
550.34	58225.51
550.51	58412.75
550.68	58232.53
550.84	58155.29
551.01	58504.03
551.18	58440.84
551.34	58447.86
551.51	58536.80
551.68	58508.71
551.84	58295.72
552.01	58408.07
552.18	58745.11
552.34	58398.71
552.51	58791.92
552.68	58171.67
552.84	58487.65
553.01	58803.62
553.18	58740.42
553.34	58604.67
553.51	58649.14
553.67	58616.38
553.84	58609.35
554.01	59131.29
554.17	58862.13
554.34	58829.37
554.51	58798.94
554.67	58939.37
554.84	58958.09
555.00	58876.18
555.17	59000.22
555.33	58660.85
555.50	58770.85
555.67	58726.38
555.83	58904.26
556.00	59072.78
556.16	59351.30
556.33	59189.81
556.50	59180.45
556.66	59320.88
556.83	59250.66
556.99	59061.08
557.16	59318.54
557.32	59231.94
557.49	59620.47
557.65	59248.32
557.82	59250.66
557.98	59187.47
558.15	59341.94
558.32	59334.92
558.48	59047.04
558.65	59491.74
558.81	59386.41
558.98	59267.05
559.14	59475.35
559.31	59538.55
559.47	59395.77
559.64	59650.89
559.80	59512.80
559.97	59618.13
560.13	59599.40
560.30	59529.19
560.46	59835.80
560.63	59683.66
560.79	59664.94
560.96	59838.14
561.12	59646.21
561.29	59746.86
561.45	59571.32
561.61	59601.74
561.78	59746.86
561.94	59594.72
562.11	59749.20
562.27	59819.41
562.44	59873.24
562.60	59842.82
562.77	59765.58
562.93	59721.11
563.10	59676.64
563.26	59908.35
563.42	60219.64
563.59	59887.29
563.75	59852.18
563.92	59908.35
564.08	59800.69
564.24	59938.78
564.41	60074.53
564.57	59969.21
564.74	60030.06
564.90	60074.53
565.07	59896.65
565.23	60046.44
565.39	59849.84
565.56	60130.70
565.72	59938.78
565.88	60130.70
566.05	59828.77
566.21	60032.40
566.38	60051.12
566.54	60207.94
566.70	60189.22
566.87	60324.97
567.03	60093.25
567.19	60296.88
567.36	60156.45
567.52	60069.85
567.68	60383.48
567.85	60144.75
568.01	60229.01
568.17	60221.98
568.34	60313.26
568.50	60322.63
568.66	60168.15
568.83	60257.09
568.99	60254.75
569.15	60336.67
569.32	60341.35
569.48	60348.37
569.64	60179.85
569.81	60310.92
569.97	60257.09
570.13	60357.74
570.30	60280.50
570.46	60381.14
570.62	60243.05
570.78	60369.44
570.95	60371.78
571.11	60395.18
571.27	60214.96
571.43	60654.98
571.60	60418.59
571.76	60530.93
571.92	60465.40
572.09	60434.97
572.25	60596.47
572.41	60418.59
572.57	60528.59
572.74	60739.24
572.90	60687.75
573.06	60671.37
573.22	60299.22
573.38	60570.72
573.55	60568.38
573.71	60676.05
573.87	60720.52
574.03	60238.37
574.20	60601.15
574.36	60420.93
574.52	60568.38
574.68	60479.44
574.84	60601.15
575.01	60640.94
575.17	60690.09
575.33	60528.59
575.49	60505.19
575.65	60556.68
575.82	60783.71
575.98	60549.66
576.14	60889.04
576.30	60842.23
576.46	60835.20
576.62	60629.24
576.79	60814.14
576.95	60652.64
577.11	60570.72
577.27	60669.03
577.43	60687.75
577.59	60727.54
577.75	60556.68
577.92	60603.49
578.08	60446.68
578.24	60654.98
578.40	60889.04
578.56	60685.41
578.72	60626.90
578.88	60818.82
579.04	61085.64
579.21	60633.92
579.37	61064.58
579.53	60973.30
579.69	60610.51
579.85	60631.58
580.01	60790.73
580.17	60573.06
580.33	60713.50
580.49	60788.39
580.65	60720.52
580.82	60575.40
580.98	60968.61
581.14	60640.94
581.30	60954.57
581.46	60666.69
581.62	60755.63
581.78	60638.60
581.94	60865.63
582.10	60783.71
582.26	60779.03
582.42	60816.48
582.58	60800.10
582.74	60755.63
582.90	60935.85
583.06	60816.48
583.22	60537.96
583.38	60762.65
583.54	60739.24
583.70	60865.63
583.86	60921.80
584.02	60734.56
584.18	60842.23
584.34	60994.36
584.50	60853.93
584.66	60463.06
584.82	60692.43
584.98	61111.39
585.14	60867.97
585.30	60858.61
585.46	60769.67
585.62	61038.83
585.78	61066.92
585.94	60659.66
586.10	60963.93
586.26	60746.26
586.42	60886.70
586.58	61111.39
586.74	60851.59
586.90	60921.80
587.06	60970.96
587.22	60903.08
587.38	60755.63
587.54	60999.04
587.70	61148.84
587.86	61006.06
588.02	61078.62
588.18	61087.98
588.34	60940.53
588.49	60994.36
