SpectraSuite Data File
++++++++++++++++++++++++++++++++++++
Date: Fri Oct 25 10:48:07 EDT 2013
User: price-jones
Dark Spectrum Present: No
Reference Spectrum Present: No
Number of Sampled Component Spectra: 1
Spectrometers: USB2+H05261
Integration Time (usec): 100000 (USB2+H05261)
Spectra Averaged: 1 (USB2+H05261)
Boxcar Smoothing: 0 (USB2+H05261)
Correct for Electrical Dark: No (USB2+H05261)
Strobe/Lamp Enabled: No (USB2+H05261)
Correct for Detector Non-linearity: No (USB2+H05261)
Correct for Stray Light: No (USB2+H05261)
Number of Pixels in Processed Spectrum: 2048
>>>>>Begin Processed Spectral Data<<<<<
365.73	210.65
365.92	210.65
366.12	210.65
366.32	107.66
366.52	51.49
366.72	49.15
366.91	58.51
367.11	30.43
367.31	30.43
367.51	88.94
367.70	56.17
367.90	16.38
368.10	23.41
368.30	11.70
368.49	21.06
368.69	11.70
368.89	30.43
369.09	84.26
369.28	91.28
369.48	124.05
369.68	84.26
369.87	77.24
370.07	79.58
370.27	133.41
370.47	208.31
370.66	393.21
370.86	416.62
371.06	505.56
371.25	486.83
371.45	507.90
371.65	451.72
371.84	369.80
372.04	418.96
372.24	470.45
372.44	421.30
372.63	521.94
372.83	531.30
373.03	470.45
373.22	472.79
373.42	557.05
373.62	545.34
373.81	535.98
374.01	554.71
374.21	575.77
374.40	526.62
374.60	568.75
374.79	601.52
374.99	561.73
375.19	573.43
375.38	564.07
375.58	573.43
375.78	566.41
375.97	606.20
376.17	601.52
376.37	575.77
376.56	547.69
376.76	533.64
376.95	622.58
377.15	514.92
377.35	613.22
377.54	617.90
377.74	622.58
377.93	568.75
378.13	657.69
378.33	655.35
378.52	627.26
378.72	653.01
378.91	653.01
379.11	592.16
379.31	592.16
379.50	596.84
379.70	641.31
379.89	578.11
380.09	711.52
380.28	655.35
380.48	655.35
380.68	688.12
380.87	676.41
381.07	734.93
381.26	683.44
381.46	648.33
381.65	671.73
381.85	645.99
382.04	664.71
382.24	655.35
382.43	692.80
382.63	627.26
382.83	699.82
383.02	601.52
383.22	734.93
383.41	739.61
383.61	685.78
383.80	748.97
384.00	758.33
384.19	723.23
384.39	699.82
384.58	791.10
384.78	755.99
384.97	690.46
385.17	765.36
385.36	772.38
385.56	711.52
385.75	692.80
385.95	784.08
386.14	774.72
386.34	770.04
386.53	791.10
386.72	746.63
386.92	753.65
387.11	739.61
387.31	873.02
387.50	819.19
387.70	777.06
387.89	809.83
388.09	821.53
388.28	844.93
388.48	788.76
388.67	849.61
388.86	772.38
389.06	924.51
389.25	903.45
389.45	870.68
389.64	849.61
389.84	880.04
390.03	973.66
390.22	816.85
390.42	994.73
390.61	858.98
390.81	908.13
391.00	894.08
391.19	1011.11
391.39	999.41
391.58	950.26
391.78	999.41
391.97	985.37
392.16	980.68
392.36	908.13
392.55	922.17
392.75	943.24
392.94	945.58
393.13	940.90
393.33	940.90
393.52	1034.52
393.71	940.90
393.91	978.34
394.10	1027.50
394.29	1046.22
394.49	1055.58
394.68	1100.05
394.88	1076.65
395.07	1107.07
395.26	1071.97
395.46	1116.44
395.65	1128.14
395.84	1156.22
396.04	1139.84
396.23	1121.12
396.42	1011.11
396.62	1132.82
396.81	1181.97
397.00	1149.20
397.19	1125.80
397.39	1191.33
397.58	1186.65
397.77	1109.41
397.97	1303.68
398.16	1179.63
398.35	1277.93
398.55	1207.72
398.74	1263.89
398.93	1315.38
399.12	1266.23
399.32	1338.79
399.51	1336.45
399.70	1270.91
399.90	1324.74
400.09	1369.21
400.28	1401.98
400.47	1345.81
400.67	1439.43
400.86	1390.28
401.05	1409.00
401.24	1348.15
401.44	1455.81
401.63	1547.09
401.82	1504.96
402.01	1486.24
402.21	1554.12
402.40	1549.43
402.59	1425.39
402.78	1495.60
402.97	1563.48
403.17	1596.25
403.36	1533.05
403.55	1418.36
403.74	1643.06
403.93	1582.20
404.13	1614.97
404.32	1591.56
404.51	1614.97
404.70	1717.95
404.89	1605.61
405.09	1722.63
405.28	1699.23
405.47	1687.53
405.66	1675.82
405.85	1755.40
406.05	1713.27
406.24	1746.04
406.43	1771.79
406.62	1842.00
406.81	1771.79
407.00	1809.23
407.20	1631.35
407.39	1837.32
407.58	1977.75
407.77	1888.81
407.96	1930.94
408.15	1891.15
408.34	1865.41
408.54	1949.67
408.73	1989.46
408.92	1956.69
409.11	2019.88
409.30	1947.33
409.49	1928.60
409.68	2066.69
409.87	1954.35
410.07	2033.93
410.26	2125.21
410.45	1998.82
410.64	2033.93
410.83	2057.33
411.02	2150.95
411.21	2335.85
411.40	2148.61
411.59	2160.31
411.78	2167.34
411.98	2317.13
412.17	2380.32
412.36	2267.98
412.55	2300.75
412.74	2438.84
412.93	2293.72
413.12	2307.77
413.31	2569.91
413.50	2469.27
413.69	2471.61
413.88	2480.97
414.07	2525.44
414.26	2408.41
414.45	2562.89
414.64	2623.74
414.83	2736.09
415.02	2597.99
415.22	2576.93
415.41	2759.49
415.60	2663.53
415.79	2736.09
415.98	2902.26
416.17	2881.20
416.36	2832.05
416.55	2785.24
416.74	2897.58
416.93	2862.48
417.12	2874.18
417.31	2988.86
417.50	2911.63
417.69	2956.10
417.88	2960.78
418.07	3028.65
418.26	3068.44
418.45	3038.02
418.64	3141.00
418.83	3009.93
419.02	3101.21
419.21	3157.38
419.39	3117.59
419.58	3033.33
419.77	3199.51
419.96	3239.30
420.15	3281.43
420.34	3213.56
420.53	3293.13
420.72	3281.43
420.91	3391.44
421.10	3246.32
421.29	3424.20
421.48	3438.25
421.67	3426.54
421.86	3361.01
422.05	3276.75
422.24	3201.85
422.43	3262.71
422.61	3433.57
422.80	3391.44
422.99	3473.36
423.18	3440.59
423.37	3578.68
423.56	3442.93
423.75	3492.08
423.94	3300.16
424.13	3236.96
424.32	3269.73
424.50	3492.08
424.69	3590.38
424.88	3602.08
425.07	3424.20
425.26	3386.76
425.45	3269.73
425.64	3452.29
425.83	3412.50
426.01	3543.57
426.20	3545.91
426.39	3515.48
426.58	3522.51
426.77	3524.85
426.96	3576.34
427.15	3499.10
427.33	3585.70
427.52	3463.99
427.71	3648.90
427.90	3700.39
428.09	3655.92
428.28	3824.44
428.46	3676.98
428.65	3672.30
428.84	3588.04
429.03	3831.46
429.22	3669.96
429.40	3705.07
429.59	3749.54
429.78	3503.78
429.97	3611.45
430.16	3840.82
430.34	3833.80
430.53	3744.86
430.72	3777.62
430.91	3843.16
431.10	3695.71
431.28	3960.19
431.47	4147.43
431.66	4086.58
431.85	3960.19
432.03	4124.02
432.22	4173.18
432.41	4091.26
432.60	4182.54
432.79	4070.19
432.97	4175.52
433.16	4121.68
433.35	4067.85
433.54	4114.66
433.72	4285.52
433.91	4093.60
434.10	4271.48
434.28	4177.86
434.47	4367.44
434.66	4367.44
434.85	4348.72
435.03	4315.95
435.22	4362.76
435.41	4571.07
435.59	4430.63
435.78	4358.08
435.97	4470.42
436.16	4344.03
436.34	4496.17
436.53	4538.30
436.72	4568.73
436.90	4437.66
437.09	4608.51
437.28	4416.59
437.46	4498.51
437.65	4660.01
437.84	4706.82
438.02	4608.51
438.21	4690.43
438.40	4451.70
438.58	4791.08
438.77	4662.35
438.96	4702.14
439.14	4973.64
439.33	5004.07
439.52	4835.55
439.70	4964.28
439.89	5144.50
440.08	4975.98
440.26	5181.95
440.45	5109.39
440.63	5142.16
440.82	5224.08
441.01	5142.16
441.19	5315.36
441.38	5359.83
441.57	5350.46
441.75	5366.85
441.94	5619.63
442.12	5476.85
442.31	5446.43
442.50	5500.26
442.68	5490.90
442.87	5521.32
443.05	5551.75
443.24	5724.95
443.43	5533.03
443.61	5708.57
443.80	5982.41
443.98	5666.44
444.17	5493.24
444.35	5659.42
444.54	5689.84
444.73	5771.76
444.91	5666.44
445.10	5851.34
445.28	5706.23
445.47	5617.29
445.65	5584.52
445.84	5748.36
446.02	5797.51
446.21	5729.63
446.39	5757.72
446.58	5830.27
446.77	5722.61
446.95	5816.23
447.14	5919.21
447.32	5963.68
447.51	5874.74
447.69	5888.79
447.88	6094.76
448.06	5994.11
448.25	5973.05
448.43	6045.60
448.62	5928.58
448.80	5949.64
448.99	6012.84
449.17	5944.96
449.36	6008.16
449.54	6045.60
449.73	6143.91
449.91	6200.08
450.10	6307.74
450.28	6258.59
450.46	6272.64
450.65	6258.59
450.83	6340.51
451.02	6078.37
451.20	6368.60
451.39	6459.88
451.57	6303.06
451.76	6335.83
451.94	6190.72
452.13	6399.02
452.31	6476.26
452.49	6359.24
452.68	6417.75
452.86	6291.36
453.05	6579.25
453.23	6494.99
453.42	6384.98
453.60	6548.82
453.78	6661.16
453.97	6516.05
454.15	6450.52
454.34	6497.33
454.52	6579.25
454.70	6724.36
454.89	6810.96
455.07	6562.86
455.26	6616.69
455.44	6825.00
455.62	6726.70
455.81	6832.02
455.99	6803.94
456.17	6747.76
456.36	6878.83
456.54	6890.54
456.73	7026.29
456.91	7176.08
457.09	7133.95
457.28	7176.08
457.46	7014.59
457.64	7133.95
457.83	7117.57
458.01	7054.37
458.19	7215.87
458.38	7267.36
458.56	7358.64
458.74	7180.76
458.93	7248.64
459.11	7302.47
459.29	7346.94
459.48	7255.66
459.66	7321.20
459.84	7499.08
460.03	7325.88
460.21	7508.44
460.39	7499.08
460.57	7536.52
460.76	7581.00
460.94	7602.06
461.12	7618.44
461.31	7623.12
461.49	7475.67
461.67	7658.23
461.85	7826.75
462.04	7576.31
462.22	8131.02
462.40	7934.42
462.59	7815.05
462.77	7969.52
462.95	8135.70
463.13	7978.89
463.32	7920.37
463.50	8016.33
463.68	7852.50
463.86	7915.69
464.05	7728.45
464.23	7709.72
464.41	7990.59
464.59	7920.37
464.78	8121.66
464.96	8002.29
465.14	7889.95
465.32	8173.15
465.50	8170.81
465.69	8351.03
465.87	8379.12
466.05	8049.10
466.23	8126.34
466.41	8372.10
466.60	8393.16
466.78	8013.99
466.96	8131.02
467.14	8264.43
467.32	8381.46
467.51	8311.24
467.69	8156.77
467.87	8252.73
468.05	8489.12
468.23	8383.80
468.41	8435.29
468.60	8442.31
468.78	8786.37
468.96	8397.84
469.14	8648.28
469.32	8741.90
469.50	8461.04
469.69	8669.34
469.87	8882.33
470.05	8765.31
470.23	8879.99
470.41	9020.42
470.59	8791.05
470.77	8940.85
470.95	8772.33
471.14	9116.39
471.32	9111.71
471.50	9235.75
471.68	9219.37
471.86	9249.80
472.04	9165.54
472.22	9369.16
472.40	9305.97
472.58	9385.55
472.77	9284.91
472.95	9415.98
473.13	9635.99
473.31	9217.03
473.49	9390.23
473.67	9465.13
473.85	9458.10
474.03	9933.23
474.21	9757.69
474.39	9949.62
474.57	9675.77
474.75	9888.76
474.93	9956.64
475.12	10108.77
475.30	9949.62
475.48	10104.09
475.66	10296.02
475.84	10066.64
476.02	10174.31
476.20	10171.97
476.38	10380.28
476.56	10642.42
476.74	10466.88
476.92	10541.77
477.10	10401.34
477.28	10640.08
477.46	10595.61
477.64	10951.37
477.82	11042.65
478.00	11241.59
478.18	11140.95
478.36	11323.51
478.54	11389.05
478.72	11714.38
478.90	11463.94
479.08	11524.80
479.26	11578.63
479.44	11730.76
479.62	11805.66
479.80	11784.60
479.98	11845.45
480.16	12138.02
480.34	12105.25
480.52	12348.67
480.70	12285.47
480.88	12030.35
481.06	12353.35
481.24	12102.91
481.41	12814.43
481.59	12863.58
481.77	12917.42
481.95	12992.31
482.13	13172.54
482.31	12903.37
482.49	13029.76
482.67	13373.82
482.85	13362.12
483.03	13813.84
483.21	13745.97
483.39	13745.97
483.57	13891.08
483.74	13886.40
483.92	14090.02
484.10	14068.96
484.28	14356.85
484.46	14406.00
484.64	14640.05
484.82	14555.79
485.00	14778.14
485.18	14899.85
485.35	14923.26
485.53	14761.76
485.71	14913.89
485.89	15164.33
486.07	14911.55
486.25	15232.21
486.43	15353.91
486.61	15529.45
486.78	15529.45
486.96	15817.34
487.14	15971.82
487.32	16196.51
487.50	16191.83
487.68	16217.57
487.85	16615.46
488.03	16908.03
488.21	16971.22
488.39	16744.19
488.57	17018.04
488.75	17114.00
488.92	17076.55
489.10	17572.74
489.28	17287.20
489.46	17865.31
489.64	17535.29
489.81	18244.48
489.99	18288.95
490.17	18148.51
490.35	18485.55
490.53	18197.67
490.70	18579.17
490.88	18530.02
491.06	18703.22
491.24	18710.24
491.41	18974.72
491.59	18757.05
491.77	19199.41
491.95	19201.76
492.13	19323.46
492.30	19466.24
492.48	19517.73
492.66	19632.41
492.84	19613.69
493.01	19812.63
493.19	20013.92
493.37	20149.67
493.54	20458.62
493.72	20613.10
493.90	20168.40
494.08	20470.33
494.25	20718.42
494.43	20884.60
494.61	21123.33
494.79	21050.78
494.96	21071.84
495.14	21867.63
495.32	21233.34
495.49	21158.44
495.67	21383.13
495.85	21895.71
496.02	22232.75
496.20	22073.59
496.38	22263.18
496.55	22368.50
496.73	22522.98
496.91	22185.94
497.09	22644.68
497.26	22689.15
497.44	22923.21
497.62	22801.50
497.79	23103.43
497.97	22572.13
498.14	23222.80
498.32	23262.58
498.50	23314.08
498.67	23393.65
498.85	23648.77
499.03	23821.97
499.20	24016.24
499.38	24077.09
499.56	24168.37
499.73	24063.05
499.91	24212.84
500.08	24601.37
500.26	24205.82
500.44	24177.73
500.61	24510.09
500.79	24416.47
500.97	24685.63
501.14	24964.15
501.32	25050.75
501.49	24940.75
501.67	24980.54
501.84	24889.26
502.02	24847.13
502.20	25408.86
502.37	25170.12
502.55	25556.31
502.72	25556.31
502.90	25568.01
503.07	25401.83
503.25	25600.78
503.43	25708.44
503.60	25891.01
503.78	25680.36
503.95	25776.32
504.13	26075.91
504.30	26338.05
504.48	26359.11
504.65	26614.23
504.83	26670.40
505.01	26902.12
505.18	26522.95
505.36	26785.09
505.53	26764.03
505.71	27009.78
505.88	27040.21
506.06	26728.92
506.23	26965.31
506.41	26925.52
506.58	27108.08
506.76	27302.35
506.93	27360.86
507.11	27473.21
507.28	27536.40
507.46	27826.63
507.63	27964.72
507.81	28058.34
507.98	27634.71
508.16	27754.07
508.33	27793.86
508.50	28292.40
508.68	28250.27
508.85	28449.21
509.03	28514.75
509.20	28416.44
509.38	28582.62
509.55	28814.34
509.73	28657.52
509.90	28844.76
510.08	28746.46
510.25	28697.31
510.42	28936.04
510.60	29132.65
510.77	29357.34
510.95	29593.73
511.12	29486.07
511.30	29359.68
511.47	29460.32
511.64	30120.35
511.82	29949.50
511.99	29769.27
512.17	29593.73
512.34	29624.16
512.51	30019.71
512.69	29949.50
512.86	30012.69
513.04	30125.04
513.21	30050.14
513.38	29986.94
513.56	30359.09
513.73	30005.67
513.90	30609.53
514.08	30438.67
514.25	30745.28
514.43	30808.47
514.60	30789.75
514.77	30871.67
514.95	30829.54
515.12	30986.35
515.29	31115.08
515.47	31276.58
515.64	31594.89
515.81	31173.60
515.99	31442.76
516.16	31115.08
516.33	31360.84
516.51	31424.03
516.68	31433.39
516.85	31386.58
517.03	31304.67
517.20	31707.24
517.37	31789.16
517.54	32107.47
517.72	31960.02
517.89	31789.16
518.06	32130.87
518.24	31878.10
518.41	31952.99
518.58	32261.94
518.75	32182.37
518.93	32378.97
519.10	32645.79
519.27	32460.89
519.45	32601.32
519.62	32519.40
519.79	32552.17
519.96	32938.36
520.14	33125.60
520.31	32435.14
520.48	32964.10
520.65	32779.20
520.83	33493.07
521.00	33827.76
521.17	33132.62
521.34	33212.20
521.52	33429.87
521.69	33577.33
521.86	33624.14
522.03	33972.88
522.20	33883.94
522.38	33811.38
522.55	34253.74
522.72	33521.15
522.89	34075.86
523.07	34375.45
523.24	34216.29
523.41	34146.08
523.58	34052.45
523.75	34820.15
523.92	34431.62
524.10	34497.16
524.27	34548.65
524.44	34974.63
524.61	34749.93
524.78	34773.34
524.96	34953.56
525.13	34644.61
525.30	34682.06
525.47	34998.03
525.64	35122.08
525.81	35180.59
525.98	35124.42
526.16	34763.98
526.33	34883.34
526.50	35379.54
526.67	35178.25
526.84	35136.12
527.01	35461.46
527.18	35498.91
527.36	35559.76
527.53	35955.31
527.70	35929.56
527.87	35775.09
528.04	35854.67
528.21	36023.19
528.38	35807.86
528.55	36135.53
528.72	35842.96
528.89	36177.66
529.07	36334.48
529.24	35945.95
529.41	36112.13
529.58	36311.07
529.75	36285.33
529.92	36577.89
530.09	36605.98
530.26	36437.46
530.43	36587.25
530.60	36158.94
530.77	36814.29
530.94	36947.70
531.11	36734.71
531.28	36690.24
531.46	36549.81
531.63	37179.41
531.80	36917.27
531.97	37081.11
532.14	37029.62
532.31	36559.17
532.48	37287.07
532.65	37247.29
532.82	37120.90
532.99	37378.36
533.16	37010.89
533.33	37275.37
533.50	37518.79
533.67	37291.76
533.84	37230.90
534.01	37708.37
534.18	37907.32
534.35	37684.97
534.52	37656.88
534.69	37968.17
534.86	37682.62
535.03	37642.84
535.20	38195.20
535.37	38045.41
535.54	38101.58
535.71	37923.70
535.88	38089.88
536.05	38047.75
536.22	37909.66
536.38	38464.36
536.55	38267.76
536.72	38843.53
536.89	37886.25
537.06	38089.88
537.23	38438.62
537.40	38518.20
537.57	38274.78
537.74	38440.96
537.91	38934.81
538.08	38848.21
538.25	38391.81
538.42	38682.03
538.59	38740.55
538.75	38426.92
538.92	38965.24
539.09	39161.84
539.26	39098.65
539.43	39061.20
539.60	39105.67
539.77	39096.31
539.94	39000.35
540.11	39313.98
540.28	38906.73
540.44	38710.12
540.61	39220.36
540.78	39576.12
540.95	39351.43
541.12	38916.09
541.29	39220.36
541.46	39096.31
541.62	39545.69
541.79	39538.67
541.96	39150.14
542.13	39557.39
542.30	39899.11
542.47	39761.02
542.63	39601.86
542.80	39496.54
542.97	39807.83
543.14	40182.32
543.31	40133.17
543.48	40065.29
543.64	40678.51
543.81	40491.27
543.98	40100.40
544.15	40392.97
544.32	40730.00
544.48	40765.11
544.65	40505.31
544.82	40430.41
544.99	40196.36
545.16	40549.78
545.32	40753.41
545.49	40711.28
545.66	41137.26
545.83	40832.99
546.00	40781.49
546.16	41045.97
546.33	40690.21
546.50	40692.55
546.67	40751.07
546.83	39868.69
547.00	40847.03
547.17	40699.58
547.34	40762.77
547.50	40938.31
547.67	41490.68
547.84	40978.10
548.00	41584.30
548.17	41352.58
548.34	40847.03
548.51	41141.94
548.67	41462.59
548.84	41425.14
549.01	41645.15
549.18	41612.38
549.34	41537.49
549.51	41137.26
549.68	41649.83
549.84	42087.51
550.01	41970.49
550.18	41858.14
550.34	41392.37
550.51	41741.11
550.68	41729.41
550.84	41116.19
551.01	41647.49
551.18	41853.46
551.34	41680.26
551.51	41766.86
551.68	42026.66
551.84	42602.43
552.01	41584.30
552.18	41900.27
552.34	41970.49
552.51	41930.70
552.68	42103.90
552.84	42244.33
553.01	42525.19
553.18	42251.35
553.34	42160.07
553.51	41813.67
553.67	42122.62
553.84	42387.10
554.01	42691.37
554.17	42202.20
554.34	42471.36
554.51	42815.42
554.67	42937.13
554.84	42777.97
555.00	42579.03
555.17	42080.49
555.33	42997.98
555.50	42089.85
555.67	42616.47
555.83	42429.23
556.00	42660.94
556.16	43026.07
556.33	42859.89
556.50	42473.70
556.66	42604.77
556.83	42188.16
556.99	42731.16
557.16	42766.27
557.32	43147.78
557.49	43119.69
557.65	42803.72
557.82	42871.59
557.98	42810.74
558.15	43014.37
558.32	43154.80
558.48	42742.86
558.65	43182.88
558.81	42794.36
558.98	42845.85
559.14	43037.77
559.31	43115.01
559.47	43447.36
559.64	43292.89
559.80	43543.33
559.97	43365.45
560.13	43243.74
560.30	43145.44
560.46	43222.67
560.63	42581.37
560.79	43217.99
560.96	43580.78
561.12	43360.76
561.29	43447.36
561.45	43405.23
561.61	43615.88
561.78	42967.55
561.94	43063.52
562.11	43667.37
562.27	43374.81
562.44	43498.86
562.60	43405.23
562.77	44215.06
562.93	43316.29
563.10	43849.94
563.26	43077.56
563.42	43480.13
563.59	43552.69
563.75	43775.04
563.92	43840.57
564.08	43894.41
564.24	43533.96
564.41	43456.73
564.57	43653.33
564.74	43658.01
564.90	44025.48
565.07	43730.57
565.23	43501.20
565.39	43697.80
565.56	43524.60
565.72	43943.56
565.88	43620.56
566.05	44123.78
566.21	43772.70
566.38	43260.12
566.54	43735.25
566.70	43643.97
566.87	44444.43
567.03	43648.65
567.19	44018.46
567.36	43997.39
567.52	44046.54
567.68	44542.74
567.85	43550.35
568.01	43995.05
568.17	43798.44
568.34	44203.36
568.50	43655.67
568.66	43966.96
568.83	44086.33
568.99	43927.17
569.15	43489.49
569.32	43817.17
569.48	44079.31
569.64	44280.60
569.81	44076.97
569.97	43716.53
570.13	43847.60
570.30	44112.08
570.46	43966.96
570.62	43690.78
570.78	43959.94
570.95	43871.00
571.11	43807.81
571.27	44208.04
571.43	43959.94
571.60	44013.77
571.76	44151.87
571.92	43908.45
572.09	44261.87
572.25	44238.47
572.41	44023.14
572.57	44364.85
572.74	44645.72
572.90	44449.11
573.06	44137.82
573.22	44355.49
573.38	44451.45
573.55	44158.89
573.71	44327.41
573.87	44208.04
574.03	44020.80
574.20	44322.72
574.36	44203.36
574.52	44020.80
574.68	44240.81
574.84	44451.45
575.01	44329.75
575.17	44296.98
575.33	44296.98
575.49	44140.16
575.65	44505.29
575.82	44519.33
575.98	44226.76
576.14	44378.90
576.30	44837.64
576.46	44378.90
576.62	44030.16
576.79	43976.33
576.95	43800.79
577.11	44226.76
577.27	44566.14
577.43	43955.26
577.59	44566.14
577.75	44065.27
577.92	43922.49
578.08	44076.97
578.24	44002.07
578.40	44437.41
578.56	44105.06
578.72	44280.60
578.88	44231.44
579.04	44376.56
579.21	44067.61
579.37	44081.65
579.53	44332.09
579.69	44023.14
579.85	44217.40
580.01	44294.64
580.17	44367.20
580.33	44493.58
580.49	44399.96
580.65	44488.90
580.82	44619.97
580.98	44142.50
581.14	43854.62
581.30	44643.38
581.46	44395.28
581.62	44605.93
581.78	44460.82
581.94	44664.44
582.10	44666.78
582.26	44858.71
582.42	44519.33
582.58	44603.59
582.74	44287.62
582.90	44123.78
583.06	45177.02
583.22	44701.89
583.38	44491.24
583.54	44704.23
583.70	44807.22
583.86	44708.91
584.02	44046.54
584.18	44659.76
584.34	44549.76
584.50	44942.97
584.66	44687.85
584.82	44278.25
584.98	44615.29
585.14	44634.02
585.30	44245.49
585.46	44332.09
585.62	44048.88
585.78	44027.82
585.94	44266.55
586.10	44502.95
586.26	44313.36
586.42	44615.29
586.58	44524.01
586.74	44720.62
586.90	44395.28
587.06	44395.28
587.22	44727.64
587.38	44142.50
587.54	44732.32
587.70	44746.36
587.86	44828.28
588.02	44676.15
588.18	44741.68
588.34	44465.50
588.49	44594.23
588.65	44175.27
588.81	44439.75
588.97	44215.06
589.13	44549.76
589.29	44236.12
589.45	44460.82
589.61	44519.33
589.77	44821.26
589.93	44919.56
590.08	44914.88
590.24	44919.56
