SpectraSuite Data File
++++++++++++++++++++++++++++++++++++
Date: Fri Oct 25 10:46:57 EDT 2013
User: price-jones
Dark Spectrum Present: No
Reference Spectrum Present: No
Number of Sampled Component Spectra: 1
Spectrometers: USB2+H05261
Integration Time (usec): 100000 (USB2+H05261)
Spectra Averaged: 1 (USB2+H05261)
Boxcar Smoothing: 0 (USB2+H05261)
Correct for Electrical Dark: No (USB2+H05261)
Strobe/Lamp Enabled: No (USB2+H05261)
Correct for Detector Non-linearity: No (USB2+H05261)
Correct for Stray Light: No (USB2+H05261)
Number of Pixels in Processed Spectrum: 2048
>>>>>Begin Processed Spectral Data<<<<<
365.73	154.48
365.92	154.48
366.12	154.48
366.32	128.73
366.52	0.00
366.72	67.88
366.91	0.00
367.11	37.45
367.31	30.43
367.51	32.77
367.70	70.22
367.90	56.17
368.10	16.38
368.30	74.90
368.49	2.34
368.69	25.75
368.89	65.54
369.09	16.38
369.28	16.38
369.48	58.51
369.68	86.60
369.87	119.37
370.07	124.05
370.27	79.58
370.47	133.41
370.66	386.19
370.86	395.55
371.06	435.34
371.25	454.06
371.45	489.17
371.65	493.85
371.84	524.28
372.04	369.80
372.24	491.51
372.44	510.24
372.63	561.73
372.83	531.30
373.03	449.38
373.22	444.70
373.42	451.72
373.62	571.09
373.81	578.11
374.01	594.50
374.21	575.77
374.40	547.69
374.60	599.18
374.79	512.58
374.99	540.66
375.19	578.11
375.38	653.01
375.58	641.31
375.78	629.60
375.97	653.01
376.17	594.50
376.37	655.35
376.56	653.01
376.76	608.54
376.95	636.63
377.15	601.52
377.35	627.26
377.54	683.44
377.74	575.77
377.93	685.78
378.13	585.13
378.33	566.41
378.52	655.35
378.72	795.78
378.91	573.43
379.11	667.05
379.31	676.41
379.50	653.01
379.70	674.07
379.89	695.14
380.09	734.93
380.28	709.18
380.48	657.69
380.68	608.54
380.87	753.65
381.07	704.50
381.26	746.63
381.46	699.82
381.65	732.59
381.85	681.10
382.04	725.57
382.24	809.83
382.43	653.01
382.63	692.80
382.83	739.61
383.02	685.78
383.22	765.36
383.41	695.14
383.61	674.07
383.80	922.17
384.00	816.85
384.19	784.08
384.39	873.02
384.58	767.70
384.78	823.87
384.97	774.72
385.17	784.08
385.36	753.65
385.56	737.27
385.75	770.04
385.95	821.53
386.14	844.93
386.34	837.91
386.53	933.87
386.72	720.88
386.92	847.27
387.11	912.81
387.31	858.98
387.50	870.68
387.70	957.28
387.89	873.02
388.09	837.91
388.28	861.32
388.48	889.40
388.67	861.32
388.86	901.11
389.06	924.51
389.25	957.28
389.45	919.83
389.64	994.73
389.84	976.00
390.03	950.26
390.22	931.53
390.42	919.83
390.61	922.17
390.81	978.34
391.00	978.34
391.19	1078.99
391.39	968.98
391.58	1062.60
391.78	1055.58
391.97	1057.92
392.16	938.55
392.36	1123.46
392.55	1055.58
392.75	999.41
392.94	1029.84
393.13	959.62
393.33	931.53
393.52	1130.48
393.71	1081.33
393.91	1067.28
394.10	1151.54
394.29	1041.54
394.49	1076.65
394.68	1277.93
394.88	1273.25
395.07	1313.04
395.26	1153.88
395.46	1149.20
395.65	1205.38
395.84	1219.42
396.04	1231.12
396.23	1048.56
396.42	1071.97
396.62	1160.91
396.81	1142.18
397.00	1207.72
397.19	1263.89
397.39	1313.04
397.58	1277.93
397.77	1380.92
397.97	1303.68
398.16	1366.87
398.35	1472.20
398.55	1462.83
398.74	1392.62
398.93	1373.89
399.12	1423.05
399.32	1437.09
399.51	1406.66
399.70	1530.71
399.90	1483.90
400.09	1448.79
400.28	1502.62
400.47	1462.83
400.67	1521.35
400.86	1563.48
401.05	1631.35
401.24	1652.42
401.44	1631.35
401.63	1650.08
401.82	1739.02
402.01	1610.29
402.21	1713.27
402.40	1886.47
402.59	1617.31
402.78	1701.57
402.97	1767.10
403.17	1710.93
403.36	1802.21
403.55	1657.10
403.74	1732.00
403.93	1907.54
404.13	1764.76
404.32	1746.04
404.51	1694.55
404.70	1771.79
404.89	1827.96
405.09	1818.60
405.28	1902.86
405.47	1813.92
405.66	1898.17
405.85	1956.69
406.05	1902.86
406.24	1982.43
406.43	1895.83
406.62	1952.01
406.81	2031.58
407.00	1961.37
407.20	1984.77
407.39	1966.05
407.58	2146.27
407.77	2069.03
407.96	2076.06
408.15	2129.89
408.34	2139.25
408.54	2181.38
408.73	2314.79
408.92	2279.68
409.11	2197.76
409.30	2314.79
409.49	2136.91
409.68	2150.95
409.87	2258.62
410.07	2202.44
410.26	2256.28
410.45	2347.56
410.64	2251.60
410.83	2473.95
411.02	2431.82
411.21	2473.95
411.40	2558.21
411.59	2523.10
411.78	2504.37
411.98	2417.77
412.17	2572.25
412.36	2684.59
412.55	2562.89
412.74	2518.42
412.93	2726.72
413.12	2703.32
413.31	2785.24
413.50	2757.15
413.69	2736.09
413.88	2768.85
414.07	2965.46
414.26	2848.43
414.45	2829.71
414.64	2864.82
414.83	2885.88
415.02	2956.10
415.22	2956.10
415.41	3047.38
415.60	3061.42
415.79	3026.31
415.98	3159.72
416.17	3141.00
416.36	3150.36
416.55	3166.74
416.74	3192.49
416.93	3136.32
417.12	3206.53
417.31	3148.02
417.50	3208.87
417.69	3339.94
417.88	3433.57
418.07	3337.60
418.26	3363.35
418.45	3342.28
418.64	3541.23
418.83	3398.46
419.02	3316.54
419.21	3552.93
419.39	3389.10
419.58	3351.65
419.77	3337.60
419.96	3480.38
420.15	3499.10
420.34	3555.27
420.53	3648.90
420.72	3639.53
420.91	3782.31
421.10	3702.73
421.29	3655.92
421.48	3674.64
421.67	3686.34
421.86	3728.47
422.05	3843.16
422.24	3681.66
422.43	3754.22
422.61	3693.37
422.80	3859.54
422.99	3726.13
423.18	3868.91
423.37	3733.15
423.56	3726.13
423.75	3705.07
423.94	3740.18
424.13	3559.95
424.32	3691.02
424.50	3946.14
424.69	3878.27
424.88	3901.67
425.07	3786.99
425.26	3665.28
425.45	3805.71
425.64	3721.45
425.83	3782.31
426.01	3925.08
426.20	3836.14
426.39	3997.64
426.58	3838.48
426.77	3695.71
426.96	3990.61
427.15	3859.54
427.33	3896.99
427.52	4074.87
427.71	3929.76
427.90	4023.38
428.09	4023.38
428.28	4081.89
428.46	4044.45
428.65	4030.40
428.84	4105.30
429.03	4093.60
429.22	3915.72
429.40	4114.66
429.59	4084.23
429.78	3861.88
429.97	3885.29
430.16	3887.63
430.34	3957.85
430.53	4053.81
430.72	4093.60
430.91	4133.39
431.10	4135.73
431.28	4400.21
431.47	4496.17
431.66	4503.19
431.85	4432.97
432.03	4325.31
432.22	4451.70
432.41	4484.47
432.60	4573.41
432.79	4589.79
432.97	4638.94
433.16	4587.45
433.35	4533.62
433.54	4554.68
433.72	4538.30
433.91	4585.11
434.10	4615.54
434.28	4613.20
434.47	4807.46
434.66	4718.52
434.85	4823.84
435.03	4772.35
435.22	4814.48
435.41	4844.91
435.59	4767.67
435.78	4830.87
435.97	4880.02
436.16	4903.42
436.34	4957.25
436.53	4851.93
436.72	5109.39
436.90	4917.47
437.09	4905.76
437.28	4774.69
437.46	5088.32
437.65	5055.56
437.84	5001.72
438.02	5085.98
438.21	4863.63
438.40	5018.11
438.58	5228.76
438.77	5352.81
438.96	5198.33
439.14	5387.91
439.33	5476.85
439.52	5434.72
439.70	5479.19
439.89	5558.77
440.08	5511.96
440.26	5411.32
440.45	5579.84
440.63	5598.56
440.82	5778.78
441.01	5706.23
441.19	5928.58
441.38	5891.13
441.57	6057.31
441.75	5900.49
441.94	6019.86
442.12	6122.84
442.31	6033.90
442.50	6029.22
442.68	6099.44
442.87	6127.52
443.05	5987.09
443.24	6071.35
443.43	6298.38
443.61	6277.32
443.80	6504.35
443.98	6169.65
444.17	6038.58
444.35	6239.87
444.54	6562.86
444.73	6413.07
444.91	6286.68
445.10	6174.33
445.28	6413.07
445.47	6282.00
445.65	6228.17
445.84	6338.17
446.02	6333.49
446.21	6368.60
446.39	6384.98
446.58	6286.68
446.77	6377.96
446.95	6321.79
447.14	6518.39
447.32	6480.94
447.51	6576.91
447.69	6331.15
447.88	6516.05
448.06	6464.56
448.25	6462.22
448.43	6520.73
448.62	6520.73
448.80	6368.60
448.99	6408.39
449.17	6792.23
449.36	6595.63
449.54	6722.02
449.73	6825.00
449.91	6693.93
450.10	6939.69
450.28	6862.45
450.46	6920.96
450.65	7035.65
450.83	6974.80
451.02	6946.71
451.20	7054.37
451.39	6904.58
451.57	6927.99
451.76	6707.98
451.94	6881.18
452.13	7084.80
452.31	6829.68
452.49	6963.09
452.68	7166.72
452.86	6998.20
453.05	7005.22
453.23	7040.33
453.42	7077.78
453.60	6876.49
453.78	7349.28
453.97	7171.40
454.15	7070.76
454.34	7030.97
454.52	7403.11
454.70	7276.73
454.89	7290.77
455.07	7316.51
455.26	7506.10
455.44	7548.23
455.62	7534.18
455.81	7470.99
455.99	7478.01
456.17	7698.02
456.36	7658.23
456.54	7669.94
456.73	7838.45
456.91	7985.91
457.09	7667.60
457.28	7866.54
457.46	7871.22
457.64	8018.68
457.83	7873.56
458.01	7882.92
458.19	7906.33
458.38	7878.24
458.56	8030.38
458.74	8093.57
458.93	7932.08
459.11	8086.55
459.29	8053.78
459.48	7964.84
459.66	7946.12
459.84	8025.70
460.03	8390.82
460.21	8456.36
460.39	8292.52
460.57	8093.57
460.76	8538.27
460.94	8372.10
461.12	8379.12
461.31	8329.97
461.49	8285.50
461.67	8404.86
461.85	8645.94
462.04	8332.31
462.22	8882.33
462.40	8510.19
462.59	8580.40
462.77	8421.25
462.95	8631.90
463.13	8678.71
463.32	8784.03
463.50	8709.13
463.68	8702.11
463.86	9001.70
464.05	8458.70
464.23	8608.49
464.41	8615.51
464.59	8500.83
464.78	8800.41
464.96	8816.80
465.14	8730.20
465.32	8894.04
465.50	9100.00
465.69	9078.94
465.87	8847.22
466.05	9004.04
466.23	9034.47
466.41	9064.89
466.60	8978.30
466.78	8915.10
466.96	9027.45
467.14	9025.11
467.32	9055.53
467.51	9142.13
467.69	9104.68
467.87	9027.45
468.05	9198.31
468.23	9273.20
468.41	9064.89
468.60	9179.58
468.78	9369.16
468.96	9235.75
469.14	9392.57
469.32	9528.32
469.50	9231.07
469.69	9570.45
469.87	9547.05
470.05	9586.83
470.23	9455.76
470.41	9535.34
470.59	9633.64
470.77	9458.10
470.95	9635.99
471.14	9762.37
471.32	9727.27
471.50	10160.27
471.68	9921.53
471.86	10073.67
472.04	10190.69
472.22	10188.35
472.40	10031.54
472.58	10207.08
472.77	10157.92
472.95	10235.16
473.13	10544.11
473.31	10171.97
473.49	10511.35
473.67	10274.95
473.85	10373.25
474.03	10656.46
474.21	10611.99
474.39	10579.22
474.57	10820.30
474.75	10864.77
474.93	10878.81
475.12	10906.90
475.30	10897.53
475.48	10782.85
475.66	11194.78
475.84	10874.13
476.02	11105.84
476.20	11094.14
476.38	10977.11
476.56	11414.79
476.74	11276.70
476.92	11492.03
477.10	11438.20
477.28	11815.02
477.46	11672.25
477.64	11969.50
477.82	12072.48
478.00	12112.27
478.18	12348.67
478.36	12262.07
478.54	12297.17
478.72	12475.06
478.90	12636.55
479.08	12547.61
479.26	12891.67
479.44	12842.52
479.62	12912.74
479.80	12870.61
479.98	13202.96
480.16	13233.39
480.34	13380.84
480.52	13348.08
480.70	13263.82
480.88	13352.76
481.06	13486.17
481.24	13760.01
481.41	13799.80
481.59	14092.37
481.77	14207.05
481.95	14059.60
482.13	14326.42
482.31	14015.13
482.49	14464.51
482.67	14530.05
482.85	14417.70
483.03	14661.12
483.21	14918.57
483.39	15014.54
483.57	14981.77
483.74	15094.11
483.92	15122.20
484.10	14909.21
484.28	15396.04
484.46	15679.25
484.64	15843.09
484.82	15817.34
485.00	16018.63
485.18	16081.82
485.35	16315.87
485.53	15604.35
485.71	15953.09
485.89	16187.14
486.07	16056.08
486.25	16116.93
486.43	16479.71
486.61	16673.98
486.78	16912.71
486.96	16989.95
487.14	17296.56
487.32	17153.79
487.50	17366.78
487.68	17610.19
487.85	17809.14
488.03	18129.79
488.21	18160.22
488.39	18090.00
488.57	18450.44
488.75	18494.91
488.92	18572.15
489.10	18941.96
489.28	18792.16
489.46	19138.56
489.64	19037.92
489.81	19552.84
489.99	19552.84
490.17	19398.36
490.35	19922.64
490.53	19782.21
490.70	20240.95
490.88	20074.77
491.06	20477.35
491.24	20224.57
491.41	20456.28
491.59	20683.31
491.77	20542.88
491.95	20414.15
492.13	20521.82
492.30	21046.10
492.48	21043.76
492.66	21345.69
492.84	21214.62
493.01	21469.73
493.19	21245.04
493.37	21738.90
493.54	21872.31
493.72	21937.84
493.90	21923.80
494.08	22309.99
494.25	22817.88
494.43	22845.97
494.61	22860.01
494.79	22939.59
494.96	22431.69
495.14	22735.96
495.32	23005.13
495.49	23353.87
495.67	23119.81
495.85	23578.56
496.02	23648.77
496.20	23641.75
496.38	23826.65
496.55	23992.83
496.73	24517.11
496.91	24297.10
497.09	24189.44
497.26	24320.51
497.44	24348.59
497.62	24425.83
497.79	25142.03
497.97	24641.16
498.14	25001.60
498.32	24936.07
498.50	25256.72
498.67	25106.93
498.85	25528.22
499.03	25497.80
499.20	25795.04
499.38	25558.65
499.56	26052.50
499.73	25694.40
499.91	26157.83
500.08	25949.52
500.26	25816.11
500.44	26155.49
500.61	25947.18
500.79	26366.13
500.97	26258.47
501.14	26443.37
501.32	26281.88
501.49	26651.68
501.67	26532.31
501.84	26920.84
502.02	26986.38
502.20	27065.96
502.37	27080.00
502.55	27248.52
502.72	27061.27
502.90	27398.31
503.07	27297.67
503.25	27311.71
503.43	27627.68
503.60	27648.75
503.78	27695.56
503.95	27702.58
504.13	27864.08
504.30	27999.83
504.48	27707.26
504.65	28481.98
504.83	28257.29
505.01	28683.27
505.18	28496.02
505.36	28563.90
505.53	28533.47
505.71	29036.69
505.88	29046.05
506.06	28926.68
506.23	28999.24
506.41	28982.85
506.58	29041.37
506.76	29359.68
506.93	29378.40
507.11	29600.76
507.28	29591.39
507.46	29724.80
507.63	29242.65
507.81	29699.06
507.98	29362.02
508.16	29958.86
508.33	29958.86
508.50	30155.46
508.68	30218.66
508.85	30333.34
509.03	30253.76
509.20	30773.36
509.38	30609.53
509.55	30548.67
509.73	30845.92
509.90	31061.25
510.08	30958.27
510.25	30677.40
510.42	31489.57
510.60	31019.12
510.77	31442.76
510.95	31646.38
511.12	30808.47
511.30	31580.85
511.47	31365.52
511.64	31674.47
511.82	31505.95
511.99	31590.21
512.17	32105.13
512.34	31592.55
512.51	32198.75
512.69	32226.84
512.86	32364.93
513.04	32613.02
513.21	32320.46
513.38	32013.85
513.56	32058.32
513.73	32517.06
513.90	32432.80
514.08	32320.46
514.25	32229.18
514.43	32821.33
514.60	32514.72
514.77	32259.60
514.95	32929.00
515.12	33104.54
515.29	32952.40
515.47	33366.68
515.64	33156.03
515.81	33235.61
515.99	33291.78
516.16	33048.36
516.33	33095.18
516.51	33350.29
516.68	32797.93
516.85	33043.68
517.03	33085.81
517.20	33298.80
517.37	33598.39
517.54	33825.42
517.72	33790.31
517.89	33846.49
518.06	33886.28
518.24	33963.51
518.41	33853.51
518.58	33895.64
518.75	33860.53
518.93	34260.76
519.10	34698.44
519.27	34644.61
519.45	34656.31
519.62	34747.59
519.79	34986.33
519.96	34682.06
520.14	35063.57
520.31	34829.51
520.48	35103.35
520.65	35187.61
520.83	35302.30
521.00	34801.43
521.17	35351.45
521.34	34899.73
521.52	35555.08
521.69	35690.83
521.86	35629.98
522.03	35606.57
522.20	35852.33
522.38	35908.50
522.55	36048.93
522.72	35587.85
522.89	35424.01
523.07	35906.16
523.24	36397.67
523.41	36292.35
523.58	35964.67
523.75	36779.18
523.92	36706.62
524.10	36594.28
524.27	36629.38
524.44	36556.83
524.61	36833.01
524.78	36825.99
524.96	37053.02
525.13	37373.67
525.30	37607.73
525.47	37481.34
525.64	37057.70
525.81	37034.30
525.98	37254.31
526.16	36652.79
526.33	37050.68
526.50	37558.58
526.67	37010.89
526.84	36793.22
527.01	37214.52
527.18	37256.65
527.36	37708.37
527.53	37591.34
527.70	37876.89
527.87	37879.23
528.04	37635.81
528.21	38274.78
528.38	37883.91
528.55	38153.07
528.72	38089.88
528.89	38534.58
529.07	38242.01
529.24	38127.33
529.41	38277.12
529.58	38288.82
529.75	38162.43
529.92	38206.90
530.09	38359.04
530.26	38298.19
530.43	38890.34
530.60	38405.85
530.77	38745.23
530.94	38658.63
531.11	38359.04
531.28	39065.88
531.46	38995.67
531.63	38611.82
531.80	38876.30
531.97	39147.80
532.14	39206.31
532.31	38880.98
532.48	39077.58
532.65	39414.62
532.82	39473.13
532.99	39299.94
533.16	39049.50
533.33	39501.22
533.50	39339.72
533.67	39587.82
533.84	39335.04
534.01	39632.29
534.18	39370.15
534.35	40245.51
534.52	39529.31
534.69	39548.03
534.86	40149.55
535.03	39871.03
535.20	39992.73
535.37	40421.05
535.54	40627.02
535.71	40102.74
535.88	40402.33
536.05	39903.79
536.22	40465.52
536.38	39988.05
536.55	40355.52
536.72	40034.86
536.89	40076.99
537.06	40100.40
537.23	41003.85
537.40	40486.59
537.57	40652.76
537.74	40208.06
537.91	41273.01
538.08	40816.60
538.25	40685.53
538.42	40809.58
538.59	41237.90
538.75	40275.94
538.92	40917.25
539.09	41298.75
539.26	40772.13
539.43	40795.54
539.60	41036.61
539.77	40645.74
539.94	40435.10
540.11	41031.93
540.28	40800.22
540.44	40879.80
540.61	40994.48
540.78	41111.51
540.95	40973.42
541.12	41029.59
541.29	41181.73
541.46	41146.62
541.62	41261.30
541.79	41500.04
541.96	41247.26
542.13	41315.14
542.30	41399.40
542.47	41460.25
542.63	41607.70
542.80	41544.51
542.97	42178.79
543.14	42136.66
543.31	42490.09
543.48	42131.98
543.64	43079.90
543.81	42174.11
543.98	42328.59
544.15	42305.18
544.32	42415.19
544.48	42600.09
544.65	42080.49
544.82	42188.16
544.99	42075.81
545.16	42419.87
545.32	41731.75
545.49	42843.51
545.66	42934.79
545.83	42473.70
546.00	42941.81
546.16	42611.79
546.33	42590.73
546.50	42244.33
546.67	42773.29
546.83	42588.39
547.00	42829.46
547.17	42644.56
547.34	42721.80
547.50	42981.60
547.67	43435.66
547.84	42768.61
548.00	43643.97
548.17	43203.95
548.34	43208.63
548.51	43290.55
548.67	43430.98
548.84	43449.70
549.01	43683.76
549.18	43313.95
549.34	43107.99
549.51	43358.42
549.68	43648.65
549.84	43505.88
550.01	44144.84
550.18	43168.84
550.34	43480.13
550.51	43426.30
550.68	43297.57
550.84	43051.81
551.01	43789.08
551.18	43744.61
551.34	43658.01
551.51	43871.00
551.68	44196.34
551.84	44280.60
552.01	43835.89
552.18	44189.31
552.34	43873.34
552.51	44217.40
552.68	44041.86
552.84	44009.09
553.01	44250.17
553.18	44133.14
553.34	44027.82
553.51	43866.32
553.67	44240.81
553.84	44308.68
554.01	44048.88
554.17	44573.16
554.34	44863.39
554.51	44554.44
554.67	44409.32
554.84	44694.87
555.00	44320.38
555.17	44301.66
555.33	44336.77
555.50	44491.24
555.67	44570.82
555.83	44360.17
556.00	44753.38
556.16	44854.03
556.33	44425.71
556.50	44512.31
556.66	44666.78
556.83	44353.15
556.99	44947.65
557.16	44739.34
557.32	44308.68
557.49	44933.60
557.65	45230.85
557.82	44411.67
557.98	44931.26
558.15	45216.81
558.32	44907.86
558.48	44940.63
558.65	44999.14
558.81	44800.19
558.98	44685.51
559.14	45413.41
559.31	45006.16
559.47	45249.58
559.64	45228.51
559.80	45017.86
559.97	45031.91
560.13	45010.84
560.30	45106.80
560.46	45301.07
560.63	45067.02
560.79	45525.76
560.96	45537.46
561.12	45350.22
561.29	45216.81
561.45	45013.18
561.61	45247.24
561.78	45553.85
561.94	44933.60
562.11	45565.55
562.27	44994.46
562.44	45041.27
562.60	45333.84
562.77	45146.59
562.93	45528.10
563.10	45242.56
563.26	45390.01
563.42	45413.41
563.59	45565.55
563.75	45460.23
563.92	45282.34
564.08	45113.83
564.24	45605.34
564.41	45593.64
564.57	45724.71
564.74	45890.88
564.90	45474.27
565.07	45640.45
565.23	45422.78
565.39	45371.28
565.56	45420.44
565.72	45132.55
565.88	45373.63
566.05	45223.83
566.21	45249.58
566.38	45284.68
566.54	45553.85
566.70	45642.79
566.87	45710.66
567.03	46024.29
567.19	46344.95
567.36	45691.94
567.52	45380.65
567.68	45537.46
567.85	45666.19
568.01	45579.59
568.17	45408.73
568.34	46307.50
568.50	45593.64
568.66	45701.30
568.83	45717.68
568.99	45331.50
569.15	45982.16
569.32	45914.29
569.48	45514.06
569.64	45954.08
569.81	45918.97
569.97	45654.49
570.13	45663.85
570.30	45289.37
570.46	45771.52
570.62	45610.02
570.78	45432.14
570.95	45659.17
571.11	45918.97
571.27	45577.25
571.43	45350.22
571.60	45804.28
571.76	45790.24
571.92	45860.46
572.09	45731.73
572.25	45713.00
572.41	45935.35
572.57	45624.06
572.74	46555.60
572.90	46054.72
573.06	45799.60
573.22	45675.55
573.38	45759.81
573.55	45689.60
573.71	46279.41
573.87	46064.08
574.03	45825.35
574.20	45961.10
574.36	45640.45
574.52	45982.16
574.68	46103.87
574.84	45853.44
575.01	45755.13
575.17	45488.31
575.33	45359.58
575.49	45666.19
575.65	45663.85
575.82	46150.68
575.98	45827.69
576.14	46525.17
576.30	45455.54
576.46	45806.62
576.62	45581.93
576.79	45961.10
576.95	45523.42
577.11	46162.39
577.27	45851.09
577.43	46347.29
577.59	45820.67
577.75	45869.82
577.92	45670.87
578.08	45820.67
578.24	45261.28
578.40	45663.85
578.56	45940.04
578.72	46080.47
578.88	46375.37
579.04	46429.21
579.21	45265.96
579.37	46225.58
579.53	45675.55
579.69	45808.96
579.85	45841.73
580.01	46103.87
580.17	46007.91
580.33	46078.13
580.49	46075.79
580.65	45837.05
580.82	45904.93
580.98	46206.86
581.14	45949.40
581.30	45940.04
581.46	46157.70
581.62	46185.79
581.78	45734.07
581.94	46117.92
582.10	46141.32
582.26	45731.73
582.42	46176.43
582.58	45907.27
582.74	45818.33
582.90	46047.70
583.06	45867.48
583.22	45975.14
583.38	46124.94
583.54	46061.74
583.70	46256.01
583.86	46206.86
584.02	45928.33
584.18	46330.90
584.34	46012.59
584.50	45738.75
584.66	45996.21
584.82	46099.19
584.98	46471.34
585.14	46340.27
585.30	45965.78
585.46	45769.18
585.62	45954.08
585.78	46028.98
585.94	45722.37
586.10	46284.09
586.26	46209.20
586.42	46167.07
586.58	46410.48
586.74	46141.32
586.90	46014.93
587.06	45933.01
587.22	46014.93
587.38	45736.41
587.54	46314.52
587.70	46469.00
587.86	46480.70
588.02	46316.86
588.18	46461.97
588.34	46396.44
588.49	45904.93
588.65	45453.20
588.81	45823.01
588.97	45876.84
589.13	45813.65
589.29	46045.36
589.45	46141.32
589.61	45986.85
589.77	46440.91
589.93	46391.76
590.08	46197.49
