SpectraSuite Data File
++++++++++++++++++++++++++++++++++++
Date: Fri Oct 25 10:43:47 EDT 2013
User: price-jones
Dark Spectrum Present: No
Reference Spectrum Present: No
Number of Sampled Component Spectra: 1
Spectrometers: USB2+H05261
Integration Time (usec): 100000 (USB2+H05261)
Spectra Averaged: 1 (USB2+H05261)
Boxcar Smoothing: 0 (USB2+H05261)
Correct for Electrical Dark: No (USB2+H05261)
Strobe/Lamp Enabled: No (USB2+H05261)
Correct for Detector Non-linearity: No (USB2+H05261)
Correct for Stray Light: No (USB2+H05261)
Number of Pixels in Processed Spectrum: 2048
>>>>>Begin Processed Spectral Data<<<<<
365.73	88.94
365.92	88.94
366.12	88.94
366.32	98.30
366.52	0.00
366.72	2.34
366.91	0.00
367.11	25.75
367.31	65.54
367.51	0.00
367.70	86.60
367.90	4.68
368.10	0.00
368.30	79.58
368.49	46.81
368.69	23.41
368.89	74.90
369.09	86.60
369.28	30.43
369.48	95.96
369.68	145.11
369.87	70.22
370.07	72.56
370.27	152.13
370.47	161.50
370.66	367.46
370.86	381.51
371.06	456.40
371.25	411.93
371.45	414.27
371.65	433.00
371.84	498.53
372.04	498.53
372.24	524.28
372.44	465.77
372.63	538.32
372.83	456.40
373.03	514.92
373.22	486.83
373.42	496.19
373.62	496.19
373.81	587.47
374.01	608.54
374.21	578.11
374.40	503.22
374.60	547.69
374.79	493.85
374.99	622.58
375.19	608.54
375.38	573.43
375.58	580.45
375.78	648.33
375.97	629.60
376.17	631.94
376.37	594.50
376.56	582.79
376.76	599.18
376.95	631.94
377.15	613.22
377.35	615.56
377.54	690.46
377.74	716.20
377.93	655.35
378.13	589.82
378.33	601.52
378.52	613.22
378.72	620.24
378.91	667.05
379.11	629.60
379.31	697.48
379.50	629.60
379.70	566.41
379.89	664.71
380.09	674.07
380.28	709.18
380.48	744.29
380.68	641.31
380.87	617.90
381.07	713.86
381.26	770.04
381.46	699.82
381.65	713.86
381.85	690.46
382.04	706.84
382.24	653.01
382.43	641.31
382.63	741.95
382.83	751.31
383.02	741.95
383.22	674.07
383.41	685.78
383.61	709.18
383.80	699.82
384.00	758.33
384.19	784.08
384.39	791.10
384.58	840.25
384.78	870.68
384.97	830.89
385.17	901.11
385.36	809.83
385.56	798.12
385.75	765.36
385.95	746.63
386.14	767.70
386.34	741.95
386.53	875.36
386.72	774.72
386.92	734.93
387.11	840.25
387.31	858.98
387.50	898.77
387.70	844.93
387.89	830.89
388.09	915.15
388.28	905.79
388.48	882.38
388.67	966.64
388.86	917.49
389.06	976.00
389.25	943.24
389.45	912.81
389.64	978.34
389.84	954.94
390.03	980.68
390.22	1006.43
390.42	994.73
390.61	1046.22
390.81	1032.18
391.00	973.66
391.19	1025.15
391.39	1048.56
391.58	1057.92
391.78	1078.99
391.97	1057.92
392.16	1006.43
392.36	1022.81
392.55	1053.24
392.75	983.02
392.94	931.53
393.13	1100.05
393.33	903.45
393.52	1032.18
393.71	1135.16
393.91	1078.99
394.10	1123.46
394.29	1191.33
394.49	1163.25
394.68	1188.99
394.88	1287.29
395.07	1291.98
395.26	1188.99
395.46	1165.59
395.65	1203.04
395.84	1219.42
396.04	1291.98
396.23	1270.91
396.42	1144.52
396.62	1095.37
396.81	1184.31
397.00	1207.72
397.19	1282.61
397.39	1284.95
397.58	1366.87
397.77	1441.77
397.97	1399.64
398.16	1432.41
398.35	1479.22
398.55	1472.20
398.74	1481.56
398.93	1603.27
399.12	1469.86
399.32	1404.32
399.51	1488.58
399.70	1462.83
399.90	1523.69
400.09	1537.73
400.28	1605.61
400.47	1603.27
400.67	1675.82
400.86	1596.25
401.05	1605.61
401.24	1736.68
401.44	1638.38
401.63	1729.66
401.82	1701.57
402.01	1678.16
402.21	1643.06
402.40	1799.87
402.59	1750.72
402.78	1788.17
402.97	1678.16
403.17	1703.91
403.36	1713.27
403.55	1767.10
403.74	1858.39
403.93	1839.66
404.13	1851.36
404.32	1776.47
404.51	1774.13
404.70	1863.07
404.89	1858.39
405.09	1949.67
405.28	1973.07
405.47	1834.98
405.66	1968.39
405.85	2012.86
406.05	2005.84
406.24	1996.48
406.43	2040.95
406.62	1975.41
406.81	2090.10
407.00	2054.99
407.20	2083.08
407.39	1954.35
407.58	2062.01
407.77	2174.36
407.96	2172.02
408.15	2209.47
408.34	2057.33
408.54	2246.91
408.73	2286.70
408.92	2275.00
409.11	2277.34
409.30	2338.20
409.49	2307.77
409.68	2188.40
409.87	2298.41
410.07	2289.04
410.26	2352.24
410.45	2356.92
410.64	2324.15
410.83	2422.45
411.02	2487.99
411.21	2539.48
411.40	2588.63
411.59	2523.10
411.78	2605.02
411.98	2609.70
412.17	2607.36
412.36	2581.61
412.55	2715.02
412.74	2736.09
412.93	2644.81
413.12	2691.62
413.31	2848.43
413.50	2785.24
413.69	2862.48
413.88	2888.22
414.07	2764.17
414.26	2874.18
414.45	2874.18
414.64	2869.50
414.83	2942.05
415.02	3052.06
415.22	3049.72
415.41	3136.32
415.60	3009.93
415.79	3183.13
415.98	3166.74
416.17	3183.13
416.36	3215.90
416.55	3211.22
416.74	3255.69
416.93	3194.83
417.12	3201.85
417.31	3197.17
417.50	3269.73
417.69	3358.67
417.88	3447.61
418.07	3323.56
418.26	3414.84
418.45	3442.93
418.64	3597.40
418.83	3588.04
419.02	3452.29
419.21	3700.39
419.39	3487.40
419.58	3557.61
419.77	3496.76
419.96	3548.25
420.15	3585.70
420.34	3625.49
420.53	3618.47
420.72	3768.26
420.91	3796.35
421.10	3829.12
421.29	3845.50
421.48	3751.88
421.67	3775.28
421.86	3763.58
422.05	3775.28
422.24	3803.37
422.43	3707.41
422.61	3721.45
422.80	3904.01
422.99	3861.88
423.18	3782.31
423.37	3887.63
423.56	3929.76
423.75	3864.22
423.94	3896.99
424.13	3595.06
424.32	3817.41
424.50	4070.19
424.69	3915.72
424.88	4067.85
425.07	3868.91
425.26	3843.16
425.45	3843.16
425.64	3894.65
425.83	4016.36
426.01	3920.40
426.20	3911.04
426.39	3915.72
426.58	4004.66
426.77	3880.61
426.96	3964.87
427.15	3880.61
427.33	4074.87
427.52	4044.45
427.71	4168.49
427.90	4042.11
428.09	4140.41
428.28	4166.15
428.46	4126.36
428.65	4039.76
428.84	4168.49
429.03	4184.88
429.22	3929.76
429.40	4011.68
429.59	4095.94
429.78	4098.28
429.97	4028.06
430.16	3955.51
430.34	4004.66
430.53	4278.50
430.72	4100.62
430.91	4234.03
431.10	4264.46
431.28	4440.00
431.47	4390.84
431.66	4519.57
431.85	4465.74
432.03	4540.64
432.22	4596.81
432.41	4582.77
432.60	4547.66
432.79	4772.35
432.97	4875.34
433.16	4599.15
433.35	4512.55
433.54	4634.26
433.72	4636.60
433.91	4631.92
434.10	4720.86
434.28	4720.86
434.47	4711.50
434.66	4945.55
434.85	4821.50
435.03	4727.88
435.22	4849.59
435.41	5069.60
435.59	5167.90
435.78	5186.63
435.97	5109.39
436.16	4966.62
436.34	4926.83
436.53	5207.69
436.72	5160.88
436.90	4964.28
437.09	5132.79
437.28	5114.07
437.46	5226.42
437.65	5191.31
437.84	5039.17
438.02	5163.22
438.21	5233.44
438.40	5118.75
438.58	5385.57
438.77	5418.34
438.96	5277.91
439.14	5603.24
439.33	5610.26
439.52	5607.92
439.70	5554.09
439.89	5526.00
440.08	5497.92
440.26	5666.44
440.45	5570.48
440.63	5881.77
440.82	5851.34
441.01	5921.56
441.19	5954.32
441.38	6040.92
441.57	5989.43
441.75	6214.12
441.94	6216.46
442.12	6230.51
442.31	6291.36
442.50	6202.42
442.68	6113.48
442.87	6197.74
443.05	6312.42
443.24	6487.96
443.43	6256.25
443.61	6342.85
443.80	6497.33
443.98	6525.41
444.17	6087.73
444.35	6373.28
444.54	6509.03
444.73	6408.39
444.91	6438.81
445.10	6340.51
445.28	6544.14
445.47	6270.30
445.65	6270.30
445.84	6408.39
446.02	6555.84
446.21	6532.44
446.39	6443.49
446.58	6459.88
446.77	6698.61
446.95	6665.85
447.14	6600.31
447.32	6698.61
447.51	6712.66
447.69	6626.06
447.88	6647.12
448.06	6855.43
448.25	6588.61
448.43	6492.65
448.62	6736.06
448.80	6679.89
448.99	6663.51
449.17	6616.69
449.36	6726.70
449.54	6963.09
449.73	7063.74
449.91	7056.72
450.10	6932.67
450.28	7229.91
450.46	7124.59
450.65	7295.45
450.83	7243.96
451.02	7162.04
451.20	7108.21
451.39	7232.26
451.57	7131.61
451.76	7108.21
451.94	7040.33
452.13	7309.49
452.31	7119.91
452.49	6963.09
452.68	7159.70
452.86	7119.91
453.05	7272.04
453.23	7262.68
453.42	6953.73
453.60	7351.62
453.78	7389.07
453.97	7360.98
454.15	7283.75
454.34	7438.22
454.52	7412.48
454.70	7503.76
454.89	7648.87
455.07	7389.07
455.26	7524.82
455.44	7576.31
455.62	7712.07
455.81	7810.37
455.99	7648.87
456.17	7681.64
456.36	7751.85
456.54	7765.90
456.73	7950.80
456.91	7957.82
457.09	8018.68
457.28	8102.93
457.46	7714.41
457.64	8131.02
457.83	8107.62
458.01	7903.99
458.19	8241.03
458.38	8135.70
458.56	8170.81
458.74	8145.06
458.93	8205.92
459.11	8315.92
459.29	8245.71
459.48	8264.43
459.66	8360.39
459.84	8250.39
460.03	8631.90
460.21	8517.21
460.39	8341.67
460.57	8465.72
460.76	8351.03
460.94	8573.38
461.12	8571.04
461.31	8498.49
461.49	8709.13
461.67	8718.50
461.85	8727.86
462.04	8571.04
462.22	8994.68
462.40	8835.52
462.59	8786.37
462.77	8800.41
462.95	8762.97
463.13	8961.91
463.32	8762.97
463.50	8931.48
463.68	8805.10
463.86	8875.31
464.05	8936.17
464.23	8814.46
464.41	8980.64
464.59	8968.93
464.78	9263.84
464.96	9172.56
465.14	9050.85
465.32	9177.24
465.50	9273.20
465.69	9114.05
465.87	9107.02
466.05	9135.11
466.23	9123.41
466.41	9177.24
466.60	9348.10
466.78	9118.73
466.96	9121.07
467.14	9226.39
467.32	9298.95
467.51	9565.77
467.69	9107.02
467.87	9305.97
468.05	9558.75
468.23	9135.11
468.41	9469.81
468.60	9523.64
468.78	9341.08
468.96	9614.92
469.14	9671.09
469.32	9745.99
469.50	9558.75
469.69	9612.58
469.87	9657.05
470.05	9521.30
470.23	9774.08
470.41	9713.22
470.59	9895.78
470.77	9717.90
470.95	10047.92
471.14	10045.58
471.32	9820.89
471.50	10200.05
471.68	10377.94
471.86	10480.92
472.04	10242.18
472.22	10485.60
472.40	10317.08
472.58	10169.63
472.77	10532.41
472.95	10511.35
473.13	10892.85
473.31	10560.50
473.49	10382.62
473.67	10581.56
473.85	10773.49
474.03	11033.29
474.21	10979.45
474.39	10855.40
474.57	10988.82
474.75	11087.12
474.93	11112.86
475.12	10927.96
475.30	11229.89
475.48	11112.86
475.66	11075.42
475.84	11157.33
476.02	11253.30
476.20	11520.12
476.38	11604.38
476.56	11761.19
476.74	11946.09
476.92	11800.98
477.10	11845.45
477.28	12020.99
477.46	11990.56
477.64	12128.66
477.82	12285.47
478.00	12465.69
478.18	12470.37
478.36	12491.44
478.54	12585.06
478.72	12634.21
478.90	12706.77
479.08	12802.73
479.26	13170.19
479.44	12823.80
479.62	13015.72
479.80	13137.43
479.98	13486.17
480.16	13366.80
480.34	13437.02
480.52	13488.51
480.70	13734.26
480.88	13729.58
481.06	13958.96
481.24	13724.90
481.41	14181.31
481.59	14148.54
481.77	14260.88
481.95	14422.38
482.13	14497.28
482.31	14518.34
482.49	14778.14
482.67	14579.20
482.85	14860.06
483.03	15215.82
483.21	15281.36
483.39	15262.63
483.57	15379.66
483.74	15307.10
483.92	15550.52
484.10	15571.58
484.28	15742.44
484.46	15981.18
484.64	16154.38
484.82	15969.48
485.00	15950.75
485.18	16130.97
485.35	16744.19
485.53	16016.29
485.71	16081.82
485.89	16582.70
486.07	16231.62
486.25	16531.20
486.43	16695.04
486.61	16891.65
486.78	17135.06
486.96	17146.76
487.14	17521.25
487.32	17694.45
487.50	17708.49
487.68	17877.01
487.85	18242.14
488.03	18342.78
488.21	18469.17
488.39	18333.42
488.57	18532.36
488.75	18853.02
488.92	18899.83
489.10	19262.61
489.28	19271.97
489.46	19559.86
489.64	19765.82
489.81	19901.58
489.99	20020.94
490.17	20095.84
490.35	20065.41
490.53	20219.89
490.70	20299.47
490.88	20182.44
491.06	20790.98
491.24	20559.27
491.41	20812.04
491.59	20840.13
491.77	20737.15
491.95	20945.45
492.13	21062.48
492.30	21649.96
492.48	21694.43
492.66	21240.36
492.84	21685.06
493.01	22015.08
493.19	21902.73
493.37	22228.07
493.54	21991.67
493.72	21930.82
493.90	22375.52
494.08	22668.09
494.25	22738.30
494.43	23201.73
494.61	22920.87
494.79	23300.03
494.96	23218.11
495.14	23197.05
495.32	23225.14
495.49	23529.41
495.67	23627.71
495.85	23962.40
496.02	24166.03
496.20	24238.59
496.38	24201.14
496.55	24133.26
496.73	24947.77
496.91	24685.63
497.09	25015.65
497.26	25025.01
497.44	24636.48
497.62	24868.19
497.79	25083.52
497.97	24915.00
498.14	25427.58
498.32	25411.20
498.50	25312.89
498.67	26057.18
498.85	25949.52
499.03	25832.49
499.20	26256.13
499.38	26073.57
499.56	26274.85
499.73	26485.50
499.91	26391.88
500.08	26263.15
500.26	26029.10
500.44	26307.62
500.61	26403.58
500.79	26181.23
500.97	26663.38
501.14	26593.17
501.32	26792.11
501.49	27005.10
501.67	27002.76
501.84	26918.50
502.02	27398.31
502.20	27618.32
502.37	27660.45
502.55	27594.92
502.72	27693.22
502.90	27667.47
503.07	27590.24
503.25	28119.20
503.43	27887.48
503.60	27913.23
503.78	27985.79
503.95	27880.46
504.13	28481.98
504.30	28446.87
504.48	28657.52
504.65	28503.04
504.83	28905.62
505.01	28940.72
505.18	28739.44
505.36	29172.44
505.53	29116.26
505.71	29357.34
505.88	29355.00
506.06	28950.09
506.23	29289.46
506.41	29659.27
506.58	29731.83
506.76	29371.38
506.93	29806.72
507.11	30148.44
507.28	29965.88
507.46	29937.79
507.63	29795.02
507.81	29872.26
507.98	29940.13
508.16	30359.09
508.33	30265.47
508.50	30382.49
508.68	30551.01
508.85	30892.73
509.03	31154.87
509.20	31072.95
509.38	30789.75
509.55	31044.87
509.73	31138.49
509.90	31182.96
510.08	31051.89
510.25	31101.04
510.42	31065.93
510.60	31197.00
510.77	31248.49
510.95	31573.83
511.12	31358.50
511.30	31665.11
511.47	32046.62
511.64	32020.87
511.82	32458.55
511.99	31950.65
512.17	32002.14
512.34	31924.91
512.51	32472.59
512.69	32416.42
512.86	32301.73
513.04	32718.35
513.21	32503.02
513.38	32498.34
513.56	32608.34
513.73	32381.31
513.90	32762.82
514.08	32549.83
514.25	33090.49
514.43	32540.47
514.60	32704.31
514.77	33120.92
514.95	33308.16
515.12	33071.77
515.29	33450.94
515.47	33694.35
515.64	33708.40
515.81	33607.75
515.99	33397.10
516.16	33539.88
516.33	33294.12
516.51	33565.62
516.68	32989.85
516.85	33015.60
517.03	33029.64
517.20	33811.38
517.37	33834.78
517.54	34010.32
517.72	34347.36
517.89	33881.60
518.06	33907.34
518.24	34249.06
518.41	34204.59
518.58	34373.11
518.75	34403.53
518.93	34796.74
519.10	34773.34
519.27	34415.24
519.45	35105.70
519.62	35204.00
519.79	35145.48
519.96	35353.79
520.14	34848.24
520.31	34888.03
520.48	35461.46
520.65	35480.18
520.83	35381.88
521.00	35735.30
521.17	35658.06
521.34	35620.61
521.52	36357.88
521.69	35629.98
521.86	36243.20
522.03	35854.67
522.20	35718.92
522.38	36383.63
522.55	36198.73
522.72	36261.92
522.89	36140.21
523.07	36634.06
523.24	36208.09
523.41	36643.43
523.58	36479.59
523.75	37193.45
523.92	37062.38
524.10	36823.65
524.27	36821.31
524.44	37106.85
524.61	37095.15
524.78	37067.06
524.96	37163.03
525.13	37130.26
525.30	37258.99
525.47	37214.52
525.64	37148.98
525.81	37244.94
525.98	37567.94
526.16	36921.95
526.33	36954.72
526.50	37750.50
526.67	36802.58
526.84	37141.96
527.01	37163.03
527.18	37713.05
527.36	38092.22
527.53	37928.38
527.70	38480.75
527.87	37703.69
528.04	37780.93
528.21	37841.78
528.38	38384.79
528.55	38752.25
528.72	38920.77
528.89	38375.42
529.07	38150.73
529.24	38490.11
529.41	38749.91
529.58	38382.45
529.75	38305.21
529.92	38939.49
530.09	38976.94
530.26	39044.82
530.43	38834.17
530.60	39063.54
530.77	38735.87
530.94	39313.98
531.11	39208.65
531.28	39299.94
531.46	39229.72
531.63	39292.91
531.80	39405.26
531.97	39421.64
532.14	39548.03
532.31	38469.04
532.48	39470.79
532.65	39421.64
532.82	39316.32
532.99	39777.40
533.16	39482.50
533.33	39828.90
533.50	39690.80
533.67	39526.97
533.84	39934.22
534.01	40034.86
534.18	39859.32
534.35	40336.79
534.52	39873.37
534.69	40341.47
534.86	40439.78
535.03	39985.71
535.20	40706.60
535.37	40683.19
535.54	40601.27
535.71	40191.68
535.88	40718.30
536.05	40231.47
536.22	40402.33
536.38	40493.61
536.55	40381.26
536.72	40378.92
536.89	40374.24
537.06	40229.13
537.23	40945.33
537.40	40964.06
537.57	41060.02
537.74	40868.09
537.91	41088.10
538.08	40957.03
538.25	41043.63
538.42	41237.90
538.59	41123.21
538.75	40739.36
538.92	41015.55
539.09	41165.34
539.26	41127.89
539.43	41022.57
539.60	41338.54
539.77	40858.73
539.94	40921.93
540.11	41198.11
540.28	40975.76
540.44	40931.29
540.61	41476.63
540.78	41137.26
540.95	41329.18
541.12	41429.82
541.29	41577.28
541.46	41895.59
541.62	41963.46
541.79	41633.45
541.96	41507.06
542.13	41542.17
542.30	41647.49
542.47	41804.31
542.63	41918.99
542.80	42314.55
542.97	42419.87
543.14	42150.71
543.31	42225.60
543.48	42326.25
543.64	42965.21
543.81	42808.40
543.98	42403.49
544.15	42789.67
544.32	42712.44
544.48	43026.07
544.65	42525.19
544.82	42532.22
544.99	42560.30
545.16	42761.59
545.32	42609.45
545.49	42927.77
545.66	43215.65
545.83	42871.59
546.00	42799.04
546.16	43426.30
546.33	42780.31
546.50	42796.70
546.67	43063.52
546.83	42855.21
547.00	43143.09
547.17	42766.27
547.34	42899.68
547.50	43283.53
547.67	43012.02
547.84	43232.04
548.00	43194.59
548.17	43440.34
548.34	43407.58
548.51	43585.46
548.67	43536.30
548.84	43693.12
549.01	42958.19
549.18	43484.81
549.34	43559.71
549.51	43871.00
549.68	44023.14
549.84	43428.64
550.01	44018.46
550.18	43765.68
550.34	43847.60
550.51	43662.69
550.68	43742.27
550.84	42995.64
551.01	43763.34
551.18	43718.87
551.34	44098.03
551.51	44521.67
551.68	44222.08
551.84	44327.41
552.01	43779.72
552.18	44121.44
552.34	43990.37
552.51	43962.28
552.68	44048.88
552.84	44451.45
553.01	44465.50
553.18	43915.47
553.34	44119.10
553.51	43782.06
553.67	44626.99
553.84	44582.52
554.01	44472.52
554.17	44514.65
554.34	44713.59
554.51	44886.79
554.67	44783.81
554.84	44664.44
555.00	44257.19
555.17	44271.23
555.33	44170.59
555.50	44582.52
555.67	44374.22
555.83	44222.08
556.00	44233.78
556.16	45010.84
556.33	44318.04
556.50	44526.35
556.66	44847.00
556.83	44294.64
556.99	44945.31
557.16	44933.60
557.32	44676.15
557.49	45008.50
557.65	44645.72
557.82	44554.44
557.98	45104.46
558.15	45083.40
558.32	45010.84
558.48	44648.06
558.65	44828.28
558.81	44568.48
558.98	44704.23
559.14	44964.03
559.31	44863.39
559.47	44849.35
559.64	45043.61
559.80	45144.25
559.97	45207.45
560.13	44676.15
560.30	45095.10
560.46	45088.08
560.63	45043.61
560.79	45436.82
560.96	45467.25
561.12	45303.41
561.29	45387.67
561.45	45560.87
561.61	44760.40
561.78	45373.63
561.94	45380.65
562.11	45408.73
562.27	45027.23
562.44	45233.19
562.60	45336.18
562.77	45448.52
562.93	45429.80
563.10	45982.16
563.26	45179.36
563.42	45500.01
563.59	45244.90
563.75	45331.50
563.92	45638.11
564.08	45439.16
564.24	45661.51
564.41	45247.24
564.57	45308.09
564.74	45511.72
564.90	45249.58
565.07	45467.25
565.23	46010.25
565.39	45605.34
565.56	45509.38
565.72	44945.31
565.88	45544.48
566.05	45308.09
566.21	45553.85
566.38	45324.47
566.54	45172.34
566.70	45787.90
566.87	46050.04
567.03	45937.69
567.19	46141.32
567.36	45717.68
567.52	45642.79
567.68	45818.33
567.85	45223.83
568.01	45876.84
568.17	45696.62
568.34	45989.19
568.50	45490.65
568.66	45333.84
568.83	45595.98
568.99	45296.39
569.15	45647.47
569.32	45703.64
569.48	45612.36
569.64	46036.00
569.81	45872.16
569.97	45165.32
570.13	45315.11
570.30	45361.92
570.46	45785.56
570.62	45799.60
570.78	45155.96
570.95	45214.47
571.11	45698.96
571.27	45474.27
571.43	45492.99
571.60	45684.92
571.76	45401.71
571.92	45380.65
572.09	45722.37
572.25	45799.60
572.41	45626.40
572.57	45972.80
572.74	46398.78
572.90	46108.55
573.06	46092.17
573.22	45792.58
573.38	45773.86
573.55	45574.91
573.71	45933.01
573.87	46375.37
574.03	45684.92
574.20	45886.20
574.36	45656.83
574.52	45907.27
574.68	46258.35
574.84	45897.91
575.01	45937.69
575.17	46033.66
575.33	45729.39
575.49	45729.39
575.65	45918.97
575.82	46176.43
575.98	45799.60
576.14	45942.38
576.30	45595.98
576.46	45921.31
576.62	46059.40
576.79	46003.23
576.95	45666.19
577.11	45827.69
577.27	45975.14
577.43	45780.88
577.59	46183.45
577.75	45762.15
577.92	45806.62
578.08	45804.28
578.24	45612.36
578.40	45787.90
578.56	46120.26
578.72	45897.91
578.88	45818.33
579.04	46251.33
579.21	45893.22
579.37	45680.24
579.53	45818.33
579.69	45586.61
579.85	45930.67
580.01	45691.94
580.17	45909.61
580.33	46150.68
580.49	46284.09
580.65	45794.92
580.82	45951.74
580.98	45689.60
581.14	45502.35
581.30	45879.18
581.46	46117.92
581.62	45890.88
581.78	45886.20
581.94	46003.23
582.10	46021.95
582.26	46028.98
582.42	45677.90
582.58	45785.56
582.74	46258.35
582.90	46366.01
583.06	46185.79
583.22	46178.77
583.38	46389.42
583.54	46349.63
583.70	46213.88
583.86	45961.10
584.02	46031.32
584.18	46260.69
584.34	45869.82
584.50	46052.38
584.66	45628.74
584.82	45717.68
584.98	46574.32
585.14	46309.84
585.30	45635.77
585.46	45815.99
585.62	46005.57
585.78	45640.45
585.94	45436.82
586.10	45563.21
586.26	45275.32
586.42	46134.30
586.58	46192.81
586.74	46157.70
586.90	46071.10
587.06	46146.00
587.22	46017.27
587.38	46005.57
587.54	46237.28
587.70	46043.02
587.86	46110.89
588.02	45853.44
588.18	46211.54
588.34	46038.34
588.49	45804.28
588.65	45483.63
588.81	45715.34
588.97	45851.09
589.13	45450.86
589.29	45797.26
589.45	46106.21
589.61	45982.16
589.77	46452.61
589.93	45790.24
590.08	46138.98
