SpectraSuite Data File
++++++++++++++++++++++++++++++++++++
Date: Fri Oct 25 10:44:43 EDT 2013
User: price-jones
Dark Spectrum Present: No
Reference Spectrum Present: No
Number of Sampled Component Spectra: 1
Spectrometers: USB2+H05261
Integration Time (usec): 100000 (USB2+H05261)
Spectra Averaged: 1 (USB2+H05261)
Boxcar Smoothing: 0 (USB2+H05261)
Correct for Electrical Dark: No (USB2+H05261)
Strobe/Lamp Enabled: No (USB2+H05261)
Correct for Detector Non-linearity: No (USB2+H05261)
Correct for Stray Light: No (USB2+H05261)
Number of Pixels in Processed Spectrum: 2048
>>>>>Begin Processed Spectral Data<<<<<
365.73	159.16
365.92	159.16
366.12	159.16
366.32	51.49
366.52	42.13
366.72	65.54
366.91	42.13
367.11	46.81
367.31	18.72
367.51	0.00
367.70	107.66
367.90	42.13
368.10	0.00
368.30	100.64
368.49	74.90
368.69	14.04
368.89	25.75
369.09	35.11
369.28	44.47
369.48	95.96
369.68	102.98
369.87	133.41
370.07	100.64
370.27	107.66
370.47	161.50
370.66	404.91
370.86	381.51
371.06	447.04
371.25	482.15
371.45	458.74
371.65	376.83
371.84	458.74
372.04	425.98
372.24	454.06
372.44	528.96
372.63	519.60
372.83	500.87
373.03	566.41
373.22	479.81
373.42	437.68
373.62	456.40
373.81	468.11
374.01	503.22
374.21	561.73
374.40	475.13
374.60	568.75
374.79	500.87
374.99	545.34
375.19	484.49
375.38	592.16
375.58	538.32
375.78	627.26
375.97	638.97
376.17	641.31
376.37	585.13
376.56	592.16
376.76	545.34
376.95	564.07
377.15	631.94
377.35	571.09
377.54	608.54
377.74	631.94
377.93	622.58
378.13	610.88
378.33	606.20
378.52	587.47
378.72	624.92
378.91	547.69
379.11	650.67
379.31	594.50
379.50	538.32
379.70	681.10
379.89	692.80
380.09	730.25
380.28	723.23
380.48	662.37
380.68	650.67
380.87	653.01
381.07	676.41
381.26	685.78
381.46	767.70
381.65	641.31
381.85	655.35
382.04	657.69
382.24	660.03
382.43	678.76
382.63	662.37
382.83	653.01
383.02	713.86
383.22	716.20
383.41	655.35
383.61	711.52
383.80	758.33
384.00	734.93
384.19	725.57
384.39	683.44
384.58	699.82
384.78	732.59
384.97	699.82
385.17	753.65
385.36	725.57
385.56	737.27
385.75	779.40
385.95	779.40
386.14	772.38
386.34	812.17
386.53	723.23
386.72	798.12
386.92	844.93
387.11	833.23
387.31	767.70
387.50	760.67
387.70	786.42
387.89	826.21
388.09	765.36
388.28	781.74
388.48	849.61
388.67	828.55
388.86	851.96
389.06	950.26
389.25	924.51
389.45	814.51
389.64	798.12
389.84	929.19
390.03	894.08
390.22	926.85
390.42	880.04
390.61	940.90
390.81	978.34
391.00	903.45
391.19	954.94
391.39	933.87
391.58	1001.75
391.78	926.85
391.97	1027.50
392.16	952.60
392.36	1029.84
392.55	1015.79
392.75	947.92
392.94	938.55
393.13	964.30
393.33	947.92
393.52	912.81
393.71	1027.50
393.91	968.98
394.10	980.68
394.29	1067.28
394.49	1062.60
394.68	1095.37
394.88	1114.10
395.07	1050.90
395.26	1111.75
395.46	1050.90
395.65	1086.01
395.84	1104.73
396.04	1121.12
396.23	1160.91
396.42	1097.71
396.62	1139.84
396.81	1193.67
397.00	1219.42
397.19	1196.01
397.39	1186.65
397.58	1191.33
397.77	1210.06
397.97	1296.66
398.16	1320.06
398.35	1287.29
398.55	1313.04
398.74	1313.04
398.93	1348.15
399.12	1303.68
399.32	1338.79
399.51	1350.49
399.70	1352.83
399.90	1355.17
400.09	1521.35
400.28	1519.01
400.47	1394.96
400.67	1460.49
400.86	1516.67
401.05	1481.56
401.24	1563.48
401.44	1572.84
401.63	1645.40
401.82	1502.62
402.01	1490.92
402.21	1533.05
402.40	1600.93
402.59	1530.71
402.78	1490.92
402.97	1589.22
403.17	1570.50
403.36	1603.27
403.55	1577.52
403.74	1643.06
403.93	1645.40
404.13	1727.32
404.32	1629.01
404.51	1654.76
404.70	1687.53
404.89	1717.95
405.09	1769.44
405.28	1743.70
405.47	1746.04
405.66	1816.26
405.85	1781.15
406.05	1760.08
406.24	1703.91
406.43	1797.53
406.62	1832.64
406.81	1886.47
407.00	1851.36
407.20	1842.00
407.39	1881.79
407.58	1963.71
407.77	1963.71
407.96	1954.35
408.15	2001.16
408.34	1968.39
408.54	2064.35
408.73	1975.41
408.92	2017.54
409.11	2033.93
409.30	2092.44
409.49	1996.48
409.68	2036.27
409.87	2143.93
410.07	2195.42
410.26	2118.18
410.45	2066.69
410.64	2106.48
410.83	2054.99
411.02	2181.38
411.21	2146.27
411.40	2221.17
411.59	2300.75
411.78	2307.77
411.98	2340.54
412.17	2338.20
412.36	2317.13
412.55	2457.56
412.74	2431.82
412.93	2518.42
413.12	2319.47
413.31	2445.86
413.50	2572.25
413.69	2576.93
413.88	2509.05
414.07	2509.05
414.26	2616.72
414.45	2609.70
414.64	2708.00
414.83	2789.92
415.02	2693.96
415.22	2729.06
415.41	2839.07
415.60	2726.72
415.79	2843.75
415.98	2869.50
416.17	2766.51
416.36	2878.86
416.55	2937.37
416.74	3002.91
416.93	3002.91
417.12	2911.63
417.31	3019.29
417.50	3115.25
417.69	3211.22
417.88	3023.97
418.07	3070.78
418.26	3150.36
418.45	3119.93
418.64	3183.13
418.83	3094.19
419.02	3124.62
419.21	3215.90
419.39	3346.97
419.58	3166.74
419.77	3155.04
419.96	3246.32
420.15	3330.58
420.34	3246.32
420.53	3403.14
420.72	3375.05
420.91	3604.42
421.10	3461.65
421.29	3487.40
421.48	3349.31
421.67	3449.95
421.86	3421.86
422.05	3503.78
422.24	3419.52
422.43	3384.41
422.61	3494.42
422.80	3515.48
422.99	3487.40
423.18	3510.80
423.37	3564.64
423.56	3492.08
423.75	3489.74
423.94	3599.74
424.13	3255.69
424.32	3321.22
424.50	3473.36
424.69	3719.11
424.88	3723.79
425.07	3595.06
425.26	3466.33
425.45	3576.34
425.64	3585.70
425.83	3578.68
426.01	3702.73
426.20	3653.58
426.39	3646.55
426.58	3585.70
426.77	3588.04
426.96	3590.38
427.15	3632.51
427.33	3707.41
427.52	3779.97
427.71	3646.55
427.90	3726.13
428.09	3920.40
428.28	3772.94
428.46	3669.96
428.65	3782.31
428.84	3918.06
429.03	3882.95
429.22	3655.92
429.40	3803.37
429.59	3847.84
429.78	3803.37
429.97	3637.19
430.16	3768.26
430.34	3840.82
430.53	3819.75
430.72	3868.91
430.91	3831.46
431.10	3957.85
431.28	4191.90
431.47	4140.41
431.66	4177.86
431.85	3999.98
432.03	4145.09
432.22	4215.30
432.41	4063.17
432.60	4215.30
432.79	4269.14
432.97	4348.72
433.16	4236.37
433.35	4182.54
433.54	4308.93
433.72	4404.89
433.91	4376.80
434.10	4442.34
434.28	4395.53
434.47	4362.76
434.66	4463.40
434.85	4479.79
435.03	4566.39
435.22	4454.04
435.41	4559.36
435.59	4535.96
435.78	4550.00
435.97	4601.49
436.16	4737.24
436.34	4739.58
436.53	4519.57
436.72	4788.74
436.90	4416.59
437.09	4798.10
437.28	4601.49
437.46	4760.65
437.65	4636.60
437.84	4704.48
438.02	4690.43
438.21	4856.61
438.40	4669.37
438.58	4854.27
438.77	4861.29
438.96	4947.89
439.14	5207.69
439.33	5231.10
439.52	4957.25
439.70	5151.52
439.89	5090.67
440.08	5060.24
440.26	5280.25
440.45	5317.70
440.63	5275.57
440.82	5404.30
441.01	5376.21
441.19	5378.55
441.38	5542.39
441.57	5537.71
441.75	5383.23
441.94	5741.33
442.12	5771.76
442.31	5724.95
442.50	5870.06
442.68	5699.20
442.87	5706.23
443.05	5731.97
443.24	5806.87
443.43	5959.00
443.61	5755.38
443.80	5867.72
443.98	5743.67
444.17	5558.77
444.35	5874.74
444.54	5937.94
444.73	5900.49
444.91	5860.70
445.10	5858.36
445.28	5783.46
445.47	5806.87
445.65	5724.95
445.84	5954.32
446.02	5923.90
446.21	5963.68
446.39	6003.47
446.58	5839.64
446.77	6183.70
446.95	5898.15
447.14	6064.33
447.32	6045.60
447.51	5949.64
447.69	6092.41
447.88	6232.85
448.06	5940.28
448.25	5935.60
448.43	6080.71
448.62	6174.33
448.80	5996.45
448.99	6073.69
449.17	6202.42
449.36	6265.61
449.54	6326.47
449.73	6286.68
449.91	6382.64
450.10	6541.80
450.28	6471.58
450.46	6406.05
450.65	6520.73
450.83	6537.12
451.02	6534.78
451.20	6675.21
451.39	6544.14
451.57	6363.92
451.76	6368.60
451.94	6504.35
452.13	6572.22
452.31	6459.88
452.49	6403.71
452.68	6567.54
452.86	6628.40
453.05	6485.62
453.23	6600.31
453.42	6492.65
453.60	6637.76
453.78	6867.13
453.97	6588.61
454.15	6754.79
454.34	6670.53
454.52	7007.56
454.70	6796.92
454.89	6883.52
455.07	6801.60
455.26	6965.43
455.44	6984.16
455.62	6927.99
455.81	7145.66
455.99	6827.34
456.17	7122.25
456.36	7070.76
456.54	7138.63
456.73	7119.91
456.91	7459.29
457.09	7258.00
457.28	7435.88
457.46	7232.26
457.64	7208.85
457.83	7328.22
458.01	7197.15
458.19	7644.19
458.38	7143.32
458.56	7351.62
458.74	7536.52
458.93	7482.69
459.11	7506.10
459.29	7573.97
459.48	7510.78
459.66	7616.10
459.84	7592.70
460.03	7709.72
460.21	7613.76
460.39	7581.00
460.57	7679.30
460.76	7908.67
460.94	7911.01
461.12	7803.35
461.31	7868.88
461.49	7803.35
461.67	7962.50
461.85	7747.17
462.04	8063.15
462.22	8091.23
462.40	8009.31
462.59	8044.42
462.77	8187.19
462.95	8241.03
463.13	8177.83
463.32	8086.55
463.50	8229.32
463.68	8229.32
463.86	8236.35
464.05	8107.62
464.23	8191.88
464.41	8203.58
464.59	8049.10
464.78	8526.57
464.96	8472.74
465.14	8456.36
465.32	8210.60
465.50	8311.24
465.69	8439.97
465.87	8191.88
466.05	8276.13
466.23	8257.41
466.41	8454.02
466.60	8542.96
466.78	8524.23
466.96	8531.25
467.14	8442.31
467.32	8636.58
467.51	8690.41
467.69	8365.07
467.87	8510.19
468.05	8800.41
468.23	8725.52
468.41	8683.39
468.60	8702.11
468.78	8872.97
468.96	8805.10
469.14	8863.61
469.32	8870.63
469.50	8774.67
469.69	8938.51
469.87	8961.91
470.05	9008.72
470.23	9212.35
470.41	9055.53
470.59	9202.99
470.77	9006.38
470.95	9118.73
471.14	9207.67
471.32	9144.47
471.50	9207.67
471.68	9369.16
471.86	9394.91
472.04	9434.70
472.22	9731.95
472.40	9266.18
472.58	9418.32
472.77	9652.37
472.95	9760.03
473.13	9937.91
473.31	9610.24
473.49	9525.98
473.67	9767.06
473.85	9923.87
474.03	9942.60
474.21	9851.31
474.39	10094.73
474.57	10150.90
474.75	10277.29
474.93	10031.54
475.12	10122.82
475.30	10265.59
475.48	10244.52
475.66	10403.68
475.84	10181.33
476.02	10602.63
476.20	10319.42
476.38	10509.01
476.56	10836.68
476.74	10778.17
476.92	10766.46
477.10	10803.91
477.28	11073.07
477.46	10920.94
477.64	11250.96
477.82	11501.39
478.00	11473.31
478.18	11548.20
478.36	11365.64
478.54	11468.62
478.72	11639.48
478.90	11939.07
479.08	11889.92
479.26	12020.99
479.44	11995.25
479.62	11939.07
479.80	12046.74
479.98	12322.92
480.16	12772.30
480.34	12517.18
480.52	12601.44
480.70	12554.63
480.88	12383.77
481.06	12688.04
481.24	12870.61
481.41	12842.52
481.59	13221.69
481.77	13083.59
481.95	13128.06
482.13	13359.78
482.31	13303.60
482.49	13776.39
482.67	13500.21
482.85	13806.82
483.03	13781.07
483.21	14061.94
483.39	14230.46
483.57	14136.84
483.74	14263.22
483.92	14148.54
484.10	14244.50
484.28	14743.03
484.46	14630.69
484.64	14956.02
484.82	14855.38
485.00	14810.91
485.18	15082.41
485.35	15094.11
485.53	15264.97
485.71	14991.13
485.89	15267.31
486.07	15482.64
486.25	15344.55
486.43	15578.61
486.61	15913.30
486.78	15882.88
486.96	15875.85
487.14	16421.20
487.32	16182.46
487.50	16720.79
487.68	16463.33
487.85	17062.51
488.03	16875.26
488.21	16994.63
488.39	16968.88
488.57	17301.24
488.75	17390.18
488.92	17699.13
489.10	17877.01
489.28	17965.95
489.46	18209.37
489.64	17958.93
489.81	18476.19
489.99	18588.53
490.17	18782.80
490.35	18668.11
490.53	18644.71
490.70	18471.51
490.88	18909.19
491.06	18845.99
491.24	19021.53
491.41	19183.03
491.59	19522.41
491.77	19208.78
491.95	19606.67
492.13	19496.66
492.30	20287.76
492.48	19793.91
492.66	19871.15
492.84	20037.33
493.01	20243.29
493.19	20299.47
493.37	20428.20
493.54	20819.07
493.72	20692.68
493.90	20798.00
494.08	21055.46
494.25	20861.19
494.43	21308.24
494.61	21132.70
494.79	21649.96
494.96	21781.03
495.14	21516.54
495.32	22115.72
495.49	22019.76
495.67	21874.65
495.85	22260.84
496.02	22127.42
496.20	22274.88
496.38	22576.81
496.55	22419.99
496.73	23049.60
496.91	22457.44
497.09	22874.06
497.26	23005.13
497.44	23080.02
497.62	23183.01
497.79	23620.69
497.97	23426.42
498.14	23625.37
498.32	23651.11
498.50	24067.73
498.67	24271.36
498.85	23875.80
499.03	24013.90
499.20	24540.52
499.38	24278.38
499.56	24465.62
499.73	24339.23
499.91	24496.05
500.08	24781.59
500.26	24538.18
500.44	24744.14
500.61	25102.25
500.79	24694.99
500.97	24755.85
501.14	25212.25
501.32	25132.67
501.49	24858.83
501.67	25305.87
501.84	25701.42
502.02	25734.19
502.20	25902.71
502.37	25839.51
502.55	25661.63
502.72	26078.25
502.90	25755.26
503.07	25949.52
503.25	26506.57
503.43	26134.42
503.60	26377.84
503.78	26487.84
503.95	26429.33
504.13	26419.97
504.30	26260.81
504.48	26665.72
504.65	26925.52
504.83	26817.86
505.01	26991.06
505.18	26925.52
505.36	27470.87
505.53	27274.26
505.71	27491.93
505.88	27697.90
506.06	27325.75
506.23	27480.23
506.41	27576.19
506.58	27510.66
506.76	27833.65
506.93	27793.86
507.11	27737.69
507.28	27693.22
507.46	27943.66
507.63	27901.53
507.81	28147.28
507.98	27835.99
508.16	28390.70
508.33	28481.98
508.50	27995.15
508.68	28788.59
508.85	29048.39
509.03	29448.62
509.20	28671.56
509.38	29085.84
509.55	29085.84
509.73	28975.83
509.90	29146.69
510.08	29062.43
510.25	29502.45
510.42	29385.43
510.60	29598.41
510.77	29979.92
510.95	29837.15
511.12	29731.83
511.30	30096.95
511.47	29982.26
511.64	30167.16
511.82	30412.92
511.99	30012.69
512.17	30359.09
512.34	30335.68
512.51	30412.92
512.69	30630.59
512.86	30560.37
513.04	30782.73
513.21	30714.85
513.38	30520.59
513.56	30888.05
513.73	30375.47
513.90	30866.98
514.08	30817.83
514.25	30958.27
514.43	31522.34
514.60	31171.25
514.77	30986.35
514.95	31594.89
515.12	31232.11
515.29	31246.15
515.47	31505.95
515.64	31901.50
515.81	31768.09
515.99	31838.31
516.16	31882.78
516.33	32079.38
516.51	31838.31
516.68	31498.93
516.85	31508.29
517.03	31491.91
517.20	31620.64
517.37	32060.66
517.54	32322.80
517.72	32163.64
517.89	32053.64
518.06	32116.83
518.24	32226.84
518.41	32226.84
518.58	32397.70
518.75	32350.88
518.93	32851.76
519.10	32786.22
519.27	32786.22
519.45	32531.11
519.62	33209.86
519.79	32975.81
519.96	33556.26
520.14	33649.88
520.31	32989.85
520.48	33062.41
520.65	33364.34
520.83	33631.16
521.00	33940.11
521.17	33773.93
521.34	33900.32
521.52	33895.64
521.69	34242.04
521.86	34174.16
522.03	34052.45
522.20	34141.39
522.38	34029.05
522.55	34445.66
522.72	34754.61
522.89	34384.81
523.07	34583.76
523.24	34429.28
523.41	34480.77
523.58	34801.43
523.75	35246.13
523.92	35044.84
524.10	35061.22
524.27	35505.93
524.44	35344.43
524.61	35306.98
524.78	35234.42
524.96	35271.87
525.13	35660.40
525.30	35229.74
525.47	35725.94
525.64	35421.67
525.81	35309.32
525.98	35433.37
526.16	35290.60
526.33	35189.95
526.50	35751.68
526.67	35679.13
526.84	35325.71
527.01	35388.90
527.18	35969.35
527.36	36100.42
527.53	35688.49
527.70	36327.45
527.87	36278.30
528.04	36467.89
528.21	36285.33
528.38	36215.11
528.55	36563.85
528.72	36648.11
528.89	36877.48
529.07	36601.30
529.24	36383.63
529.41	36561.51
529.58	36407.03
529.75	36439.80
529.92	36617.68
530.09	36818.97
530.26	36648.11
530.43	36767.48
530.60	36795.56
530.77	36868.12
530.94	37158.34
531.11	36842.37
531.28	37109.19
531.46	37027.28
531.63	36980.46
531.80	37263.67
531.97	36975.78
532.14	36655.13
532.31	36767.48
532.48	37361.97
532.65	37572.62
532.82	37741.14
532.99	37804.33
533.16	37598.37
533.33	37542.19
533.50	38300.53
533.67	37766.88
533.84	37879.23
534.01	37734.12
534.18	37832.42
534.35	38115.62
534.52	38237.33
534.69	38124.99
534.86	38122.65
535.03	37958.81
535.20	38550.96
535.37	38288.82
535.54	38572.03
535.71	38546.28
535.88	38604.80
536.05	38436.28
536.22	38796.72
536.38	38724.16
536.55	38291.16
536.72	38646.93
536.89	38033.71
537.06	38497.13
537.23	38593.09
537.40	38955.88
537.57	38880.98
537.74	38579.05
537.91	39290.57
538.08	39122.05
538.25	38876.30
538.42	38761.61
538.59	39374.83
538.75	39147.80
538.92	39005.03
539.09	39480.16
539.26	38955.88
539.43	39346.75
539.60	39189.93
539.77	39288.23
539.94	39093.97
540.11	39218.02
540.28	39234.40
540.44	39564.42
540.61	39203.97
540.78	39168.87
540.95	39533.99
541.12	39309.30
541.29	39447.39
541.46	39592.50
541.62	39426.32
541.79	40353.18
541.96	39824.22
542.13	39536.33
542.30	39634.63
542.47	39959.97
542.63	39880.39
542.80	40308.71
542.97	40732.34
543.14	40161.25
543.31	40891.50
543.48	40474.88
543.64	40734.68
543.81	40683.19
543.98	41125.55
544.15	40758.09
544.32	40828.30
544.48	41352.58
544.65	40842.35
544.82	40992.14
544.99	40100.40
545.16	41062.36
545.32	40294.66
545.49	41212.15
545.66	41521.10
545.83	41237.90
546.00	41298.75
546.16	41006.19
546.33	40811.92
546.50	40793.20
546.67	40788.52
546.83	40928.95
547.00	41022.57
547.17	41130.23
547.34	40821.28
547.50	41364.29
547.67	41511.74
547.84	41223.86
548.00	41354.93
548.17	41818.35
548.34	41769.20
548.51	41876.86
548.67	41563.23
548.84	41743.45
549.01	41504.72
549.18	41591.32
549.34	41883.89
549.51	41610.04
549.68	41794.95
549.84	41811.33
550.01	42050.06
550.18	41808.99
550.34	41706.01
550.51	41977.51
550.68	42157.73
550.84	41844.10
551.01	41970.49
551.18	42239.65
551.34	41975.17
551.51	42043.04
551.68	41937.72
551.84	42480.72
552.01	41769.20
552.18	41954.10
552.34	42319.23
552.51	42520.51
552.68	42300.50
552.84	42719.46
553.01	42471.36
553.18	42899.68
553.34	42550.94
553.51	42270.08
553.67	42637.54
553.84	42440.93
554.01	43000.32
554.17	42890.32
554.34	42698.39
554.51	43082.24
554.67	42904.36
554.84	42471.36
555.00	42841.17
555.17	42815.42
555.33	42801.38
555.50	43014.37
555.67	42405.83
555.83	42614.13
556.00	42670.31
556.16	43234.38
556.33	42628.18
556.50	42782.65
556.66	43019.05
556.83	43051.81
556.99	43297.57
557.16	43491.83
557.32	43161.82
557.49	43124.37
557.65	42927.77
557.82	42862.23
557.98	43505.88
558.15	43091.60
558.32	43339.70
558.48	42831.80
558.65	43126.71
558.81	43033.09
558.98	42939.47
559.14	43512.90
559.31	43026.07
559.47	43320.98
559.64	43555.03
559.80	43552.69
559.97	43522.26
560.13	43110.33
560.30	43440.34
560.46	43695.46
560.63	43381.83
560.79	43461.41
560.96	43969.30
561.12	43859.30
561.29	43751.63
561.45	43988.03
561.61	43501.20
561.78	43164.16
561.94	43653.33
562.11	43522.26
562.27	43306.93
562.44	43566.73
562.60	43557.37
562.77	43562.05
562.93	43854.62
563.10	43903.77
563.26	43337.36
563.42	43861.64
563.59	43503.54
563.75	43615.88
563.92	43852.28
564.08	43831.21
564.24	44280.60
564.41	44081.65
564.57	44086.33
564.74	44079.31
564.90	44346.13
565.07	44278.25
565.23	44109.74
565.39	43604.18
565.56	44004.41
565.72	44046.54
565.88	43732.91
566.05	43922.49
566.21	43789.08
566.38	43615.88
566.54	43709.50
566.70	44013.77
566.87	44282.94
567.03	43999.73
567.19	44346.13
567.36	43920.15
567.52	43835.89
567.68	44112.08
567.85	43971.64
568.01	43924.83
568.17	43995.05
568.34	44254.85
568.50	44128.46
568.66	44137.82
568.83	44116.76
568.99	43555.03
569.15	43632.27
569.32	44313.36
569.48	44467.84
569.64	44149.53
569.81	43805.47
569.97	44416.35
570.13	44322.72
570.30	44140.16
570.46	43943.56
570.62	44072.29
570.78	44233.78
570.95	43957.60
571.11	44580.18
571.27	43519.92
571.43	43295.23
571.60	44194.00
571.76	44341.45
571.92	44154.21
572.09	44142.50
572.25	44119.10
572.41	44271.23
572.57	44320.38
572.74	44685.51
572.90	44311.02
573.06	44306.34
573.22	44156.55
573.38	44320.38
573.55	44226.76
573.71	44519.33
573.87	44133.14
574.03	44067.61
574.20	44631.68
574.36	44102.71
574.52	44619.97
574.68	44772.11
574.84	44184.63
575.01	43927.17
575.17	44060.58
575.33	43908.45
575.49	43894.41
575.65	44704.23
575.82	44280.60
575.98	44416.35
576.14	44573.16
576.30	44404.64
576.46	43831.21
576.62	44320.38
576.79	44512.31
576.95	44116.76
577.11	44631.68
577.27	44603.59
577.43	44470.18
577.59	44348.47
577.75	44378.90
577.92	43976.33
578.08	44514.65
578.24	44273.57
578.40	44301.66
578.56	44467.84
578.72	44294.64
578.88	44617.63
579.04	44411.67
579.21	44404.64
579.37	44304.00
579.53	44222.08
579.69	44198.68
579.85	45006.16
580.01	44542.74
580.17	44526.35
580.33	45078.72
580.49	44332.09
580.65	44687.85
580.82	44495.92
580.98	44605.93
581.14	44603.59
581.30	44872.75
581.46	44488.90
581.62	44334.43
581.78	44533.37
581.94	44610.61
582.10	44257.19
582.26	44390.60
582.42	44432.73
582.58	44406.98
582.74	44165.91
582.90	44339.11
583.06	44933.60
583.22	44444.43
583.38	44435.07
583.54	45052.97
583.70	44786.15
583.86	44718.28
584.02	44058.24
584.18	44722.96
584.34	44631.68
584.50	44247.83
584.66	44608.27
584.82	44339.11
584.98	44596.57
585.14	45324.47
585.30	44854.03
585.46	44788.49
585.62	44666.78
585.78	44460.82
585.94	43812.49
586.10	44683.17
586.26	44484.22
586.42	44577.84
586.58	44535.71
586.74	44788.49
586.90	44208.04
587.06	44285.28
587.22	44495.92
587.38	44105.06
587.54	44364.85
587.70	44605.93
587.86	44477.20
588.02	44655.08
588.18	45434.48
588.34	44636.36
588.49	44079.31
588.65	44095.69
588.81	44472.52
588.97	44203.36
589.13	44444.43
589.29	44666.78
589.45	44807.22
589.61	44893.82
589.77	44842.32
589.93	44851.69
590.08	44964.03
590.24	44697.21
