SpectraSuite Data File
++++++++++++++++++++++++++++++++++++
Date: Fri Oct 25 11:23:49 EDT 2013
User: price-jones
Dark Spectrum Present: No
Reference Spectrum Present: No
Number of Sampled Component Spectra: 1
Spectrometers: USB2+H05261
Integration Time (usec): 100000 (USB2+H05261)
Spectra Averaged: 1 (USB2+H05261)
Boxcar Smoothing: 0 (USB2+H05261)
Correct for Electrical Dark: No (USB2+H05261)
Strobe/Lamp Enabled: No (USB2+H05261)
Correct for Detector Non-linearity: No (USB2+H05261)
Correct for Stray Light: No (USB2+H05261)
Number of Pixels in Processed Spectrum: 2048
>>>>>Begin Processed Spectral Data<<<<<
365.73	287.89
365.92	287.89
366.12	287.89
366.32	166.18
366.52	138.09
366.72	121.71
366.91	112.35
367.11	105.32
367.31	140.43
367.51	154.48
367.70	194.26
367.90	135.75
368.10	128.73
368.30	168.52
368.49	128.73
368.69	159.16
368.89	124.05
369.09	182.56
369.28	154.48
369.48	65.54
369.68	182.56
369.87	264.48
370.07	231.71
370.27	280.86
370.47	381.51
370.66	601.52
370.86	648.33
371.06	681.10
371.25	664.71
371.45	624.92
371.65	791.10
371.84	664.71
372.04	669.39
372.24	669.39
372.44	685.78
372.63	727.91
372.83	748.97
373.03	739.61
373.22	688.12
373.42	758.33
373.62	814.51
373.81	791.10
374.01	840.25
374.21	683.44
374.40	812.17
374.60	718.54
374.79	826.21
374.99	840.25
375.19	814.51
375.38	905.79
375.58	807.48
375.78	954.94
375.97	863.66
376.17	858.98
376.37	826.21
376.56	922.17
376.76	866.00
376.95	901.11
377.15	842.59
377.35	826.21
377.54	882.38
377.74	851.96
377.93	910.47
378.13	861.32
378.33	954.94
378.52	898.77
378.72	999.41
378.91	856.64
379.11	755.99
379.31	877.70
379.50	924.51
379.70	999.41
379.89	976.00
380.09	1013.45
380.28	980.68
380.48	992.39
380.68	1008.77
380.87	976.00
381.07	1039.20
381.26	1034.52
381.46	910.47
381.65	997.07
381.85	1067.28
382.04	1078.99
382.24	1081.33
382.43	1078.99
382.63	971.32
382.83	1053.24
383.02	1128.14
383.22	1086.01
383.41	1100.05
383.61	1083.67
383.80	1144.52
384.00	1174.95
384.19	1095.37
384.39	1214.74
384.58	1125.80
384.78	1144.52
384.97	1160.91
385.17	1111.75
385.36	1165.59
385.56	1170.27
385.75	1121.12
385.95	1205.38
386.14	1153.88
386.34	1221.76
386.53	1217.08
386.72	1172.61
386.92	1156.22
387.11	1320.06
387.31	1221.76
387.50	1289.64
387.70	1287.29
387.89	1252.19
388.09	1273.25
388.28	1315.38
388.48	1313.04
388.67	1245.16
388.86	1315.38
389.06	1350.49
389.25	1329.42
389.45	1385.60
389.64	1427.73
389.84	1348.15
390.03	1376.24
390.22	1411.34
390.42	1301.34
390.61	1430.07
390.81	1387.94
391.00	1357.51
391.19	1434.75
391.39	1444.11
391.58	1561.14
391.78	1441.77
391.97	1413.68
392.16	1430.07
392.36	1453.47
392.55	1554.12
392.75	1537.73
392.94	1519.01
393.13	1533.05
393.33	1483.90
393.52	1577.52
393.71	1530.71
393.91	1643.06
394.10	1612.63
394.29	1577.52
394.49	1554.12
394.68	1636.03
394.88	1598.59
395.07	1652.42
395.26	1760.08
395.46	1675.82
395.65	1755.40
395.84	1746.04
396.04	1755.40
396.23	1802.21
396.42	1792.85
396.62	1771.79
396.81	1811.57
397.00	1823.28
397.19	1685.19
397.39	1802.21
397.58	1811.57
397.77	1879.45
397.97	1795.19
398.16	1827.96
398.35	1888.81
398.55	1919.24
398.74	1872.43
398.93	2005.84
399.12	1849.02
399.32	1926.26
399.51	1944.99
399.70	2031.58
399.90	2019.88
400.09	2071.37
400.28	2064.35
400.47	2057.33
400.67	2106.48
400.86	2045.63
401.05	2005.84
401.24	2054.99
401.44	2003.50
401.63	2108.82
401.82	2136.91
402.01	2108.82
402.21	2162.66
402.40	2228.19
402.59	2120.53
402.78	2275.00
402.97	2270.32
403.17	2305.43
403.36	2298.41
403.55	2317.13
403.74	2345.22
403.93	2331.17
404.13	2300.75
404.32	2450.54
404.51	2389.69
404.70	2380.32
404.89	2445.86
405.09	2462.24
405.28	2389.69
405.47	2389.69
405.66	2567.57
405.85	2663.53
406.05	2457.56
406.24	2567.57
406.43	2626.08
406.62	2607.36
406.81	2808.64
407.00	2600.34
407.20	2682.25
407.39	2738.43
407.58	2782.90
407.77	2743.11
407.96	2834.39
408.15	2738.43
408.34	2808.64
408.54	2782.90
408.73	2878.86
408.92	2829.71
409.11	2883.54
409.30	2818.00
409.49	2937.37
409.68	2911.63
409.87	2895.24
410.07	2993.55
410.26	3087.17
410.45	3091.85
410.64	3096.53
410.83	3126.96
411.02	3241.64
411.21	3129.30
411.40	3141.00
411.59	3295.47
411.78	3187.81
411.98	3178.45
412.17	3211.22
412.36	3269.73
412.55	3365.69
412.74	3382.07
412.93	3503.78
413.12	3426.54
413.31	3473.36
413.50	3456.97
413.69	3466.33
413.88	3632.51
414.07	3691.02
414.26	3648.90
414.45	3609.11
414.64	3576.34
414.83	3700.39
415.02	3679.32
415.22	3861.88
415.41	3960.19
415.60	4091.26
415.79	3985.93
415.98	4072.53
416.17	4016.36
416.36	3969.55
416.55	4039.76
416.74	4133.39
416.93	4046.79
417.12	4016.36
417.31	4238.71
417.50	4215.30
417.69	4407.23
417.88	4383.82
418.07	4311.27
418.26	4416.59
418.45	4372.12
418.64	4524.26
418.83	4411.91
419.02	4320.63
419.21	4531.28
419.39	4507.87
419.58	4538.30
419.77	4566.39
419.96	4589.79
420.15	4493.83
420.34	4538.30
420.53	4648.30
420.72	4655.33
420.91	4692.77
421.10	4660.01
421.29	4816.82
421.48	4765.33
421.67	4816.82
421.86	4903.42
422.05	4830.87
422.24	4854.27
422.43	4847.25
422.61	4903.42
422.80	5004.07
422.99	4975.98
423.18	4917.47
423.37	5027.47
423.56	4945.55
423.75	4994.70
423.94	4940.87
424.13	4564.04
424.32	4711.50
424.50	4908.10
424.69	5060.24
424.88	5135.14
425.07	4983.00
425.26	4943.21
425.45	4940.87
425.64	4919.81
425.83	4952.57
426.01	5118.75
426.20	5158.54
426.39	5093.01
426.58	5083.64
426.77	4957.25
426.96	5093.01
427.15	5142.16
427.33	5128.11
427.52	5149.18
427.71	5210.03
427.90	5259.18
428.09	5259.18
428.28	5392.59
428.46	5294.29
428.65	5331.74
428.84	5514.30
429.03	5488.56
429.22	5376.21
429.40	5406.64
429.59	5486.22
429.78	5322.38
429.97	5233.44
430.16	5626.65
430.34	5614.95
430.53	5685.16
430.72	5673.46
430.91	5657.07
431.10	5575.16
431.28	5832.62
431.47	5884.11
431.66	6080.71
431.85	5746.02
432.03	6003.47
432.22	6040.92
432.41	5874.74
432.60	5923.90
432.79	5832.62
432.97	6047.94
433.16	6085.39
433.35	6029.22
433.54	5942.62
433.72	6179.01
433.91	5916.87
434.10	6097.10
434.28	6188.38
434.47	6097.10
434.66	6176.67
434.85	6267.95
435.03	6490.31
435.22	6267.95
435.41	6663.51
435.59	6469.24
435.78	6450.52
435.97	6654.14
436.16	6534.78
436.34	6518.39
436.53	6497.33
436.72	6656.48
436.90	6567.54
437.09	6595.63
437.28	6663.51
437.46	6546.48
437.65	6675.21
437.84	6745.42
438.02	6827.34
438.21	6881.18
438.40	6902.24
438.58	7148.00
438.77	7166.72
438.96	6953.73
439.14	7152.68
439.33	7201.83
439.52	7456.95
439.70	7222.89
439.89	7358.64
440.08	7342.26
440.26	7438.22
440.45	7211.19
440.63	7466.31
440.82	7728.45
441.01	7524.82
441.19	7676.96
441.38	7793.98
441.57	7913.35
441.75	8053.78
441.94	7955.48
442.12	7950.80
442.31	7915.69
442.50	8081.87
442.68	8119.32
442.87	8086.55
443.05	8248.05
443.24	8126.34
443.43	8159.11
443.61	7964.84
443.80	8580.40
443.98	8105.28
444.17	7859.52
444.35	8332.31
444.54	8566.36
444.73	8444.65
444.91	8126.34
445.10	8229.32
445.28	8510.19
445.47	8203.58
445.65	8421.25
445.84	8458.70
446.02	8538.27
446.21	8613.17
446.39	8435.29
446.58	8540.61
446.77	8510.19
446.95	8386.14
447.14	8634.24
447.32	8493.80
447.51	8634.24
447.69	8505.51
447.88	8636.58
448.06	8533.59
448.25	8507.85
448.43	8400.18
448.62	8702.11
448.80	8748.92
448.99	8692.75
449.17	8772.33
449.36	8652.96
449.54	8994.68
449.73	8992.34
449.91	9081.28
450.10	9146.81
450.28	9097.66
450.46	9228.73
450.65	8987.66
450.83	9036.81
451.02	9128.09
451.20	9212.35
451.39	8973.61
451.57	9200.65
451.76	9146.81
451.94	9294.27
452.13	9432.36
452.31	9390.23
452.49	9020.42
452.68	9362.14
452.86	9542.36
453.05	9469.81
453.23	9586.83
453.42	9439.38
453.60	9327.03
453.78	9582.15
453.97	9469.81
454.15	9579.81
454.34	9390.23
454.52	10026.86
454.70	9720.24
454.89	9977.70
455.07	9944.94
455.26	9902.81
455.44	9888.76
455.62	9914.51
455.81	10134.52
455.99	10073.67
456.17	10076.01
456.36	10143.88
456.54	10113.45
456.73	10216.44
456.91	10422.41
457.09	10413.04
457.28	10579.22
457.46	10373.25
457.64	10487.94
457.83	10600.29
458.01	10415.38
458.19	10792.21
458.38	10939.66
458.56	10759.44
458.74	10675.18
458.93	10930.30
459.11	10869.45
459.29	10829.66
459.48	10743.06
459.66	10981.79
459.84	11047.33
460.03	11403.09
460.21	11178.40
460.39	11037.97
460.57	11176.06
460.76	11375.00
460.94	11176.06
461.12	11344.58
461.31	11183.08
461.49	11328.19
461.67	11288.40
461.85	11412.45
462.04	11274.36
462.22	11403.09
462.40	11644.17
462.59	11651.19
462.77	11396.07
462.95	11625.44
463.13	11719.06
463.32	11637.14
463.50	11655.87
463.68	11765.87
463.86	12091.21
464.05	11630.12
464.23	11658.21
464.41	11756.51
464.59	11552.88
464.78	12222.28
464.96	12056.10
465.14	11974.18
465.32	12095.89
465.50	12351.01
465.69	12381.43
465.87	12416.54
466.05	12285.47
466.23	12388.46
466.41	12524.21
466.60	12688.04
466.78	12341.64
466.96	12135.68
467.14	12154.40
467.32	12517.18
467.51	12648.26
467.69	12189.51
467.87	12585.06
468.05	12519.53
468.23	12704.43
468.41	12755.92
468.60	12716.13
468.78	12711.45
468.96	12865.92
469.14	12849.54
469.32	13060.19
469.50	12688.04
469.69	13055.51
469.87	13195.94
470.05	13254.45
470.23	13186.58
470.41	13195.94
470.59	13385.52
470.77	13228.71
470.95	13437.02
471.14	13888.74
471.32	13425.31
471.50	13460.42
471.68	13628.94
471.86	13795.12
472.04	13729.58
472.22	14167.26
472.40	13762.35
472.58	13839.59
472.77	14183.65
472.95	14094.71
473.13	14635.37
473.31	14181.31
473.49	13900.44
473.67	13923.85
473.85	14370.89
474.03	14661.12
474.21	14658.78
474.39	14544.09
474.57	14590.90
474.75	15000.49
474.93	15178.37
475.12	14834.32
475.30	15328.17
475.48	15033.26
475.66	15578.61
475.84	15154.97
476.02	15466.26
476.20	15407.75
476.38	15815.00
476.56	15962.45
476.74	15672.23
476.92	15805.64
477.10	15955.43
477.28	16245.66
477.46	16229.27
477.64	16423.54
477.82	16802.71
478.00	17205.28
478.18	16865.90
478.36	17137.40
478.54	17099.95
478.72	17254.43
478.90	17397.20
479.08	17640.62
479.26	17642.96
479.44	17893.40
479.62	17891.06
479.80	18073.62
479.98	18033.83
480.16	18417.68
480.34	18434.06
480.52	18853.02
480.70	18553.43
480.88	18429.38
481.06	18941.96
481.24	18860.04
481.41	19073.03
481.59	19461.55
481.77	19499.00
481.95	19833.70
482.13	19913.28
482.31	19822.00
482.49	20477.35
482.67	20215.21
482.85	20402.45
483.03	20788.64
483.21	21048.44
483.39	20849.49
483.57	20685.65
483.74	21289.51
483.92	21348.03
484.10	21422.92
484.28	21989.33
484.46	21816.13
484.64	22370.84
484.82	22019.76
485.00	22455.10
485.18	22712.56
485.35	23040.23
485.53	22796.82
485.71	23175.98
485.89	23414.72
486.07	23447.49
486.25	23278.97
486.43	23871.12
486.61	23798.57
486.78	23838.36
486.96	24081.77
487.14	24812.02
487.32	24702.01
487.50	24875.21
487.68	25326.94
487.85	25329.28
488.03	25399.49
488.21	26075.91
488.39	25916.75
488.57	25958.88
488.75	26492.52
488.92	26375.50
489.10	26813.18
489.28	26827.22
489.46	27250.86
489.64	27290.65
489.81	27962.38
489.99	27747.05
490.17	27744.71
490.35	28266.65
490.53	28423.47
490.70	28650.50
490.88	28489.00
491.06	29252.02
491.24	28959.45
491.41	28898.59
491.59	29165.42
491.77	29453.30
491.95	29780.98
492.13	29881.62
492.30	30038.44
492.48	30015.03
492.66	30279.51
492.84	30368.45
493.01	31056.57
493.19	30808.47
493.37	30988.69
493.54	31475.52
493.72	31512.97
493.90	31302.32
494.08	31917.89
494.25	32027.89
494.43	32046.62
494.61	32304.07
494.79	33041.34
494.96	32704.31
495.14	32788.56
495.32	32966.45
495.49	33404.13
495.67	33387.74
495.85	33989.26
496.02	33785.63
496.20	33869.89
496.38	34071.18
496.55	34134.37
496.73	34944.20
496.91	34923.13
497.09	34981.65
497.26	34843.56
497.44	34644.61
497.62	35625.29
497.79	36411.71
497.97	35739.98
498.14	36135.53
498.32	36224.47
498.50	36428.10
498.67	36601.30
498.85	36847.05
499.03	36854.08
499.20	36650.45
499.38	37287.07
499.56	37338.57
499.73	37619.43
499.91	37251.97
500.08	38073.49
500.26	37546.87
500.44	38073.49
500.61	38106.26
500.79	38089.88
500.97	38363.72
501.14	38588.41
501.32	38848.21
501.49	38990.98
501.67	38843.53
501.84	38958.22
502.02	39641.65
502.20	39466.11
502.37	39583.14
502.55	39632.29
502.72	39999.76
502.90	39674.42
503.07	39765.70
503.25	39983.37
503.43	39812.51
503.60	40306.37
503.78	40418.71
503.95	40299.34
504.13	40655.11
504.30	40718.30
504.48	40547.44
504.65	41368.97
504.83	41043.63
505.01	41528.13
505.18	41394.71
505.36	41914.31
505.53	41511.74
505.71	41989.21
505.88	41937.72
506.06	41518.76
506.23	42375.40
506.41	41970.49
506.58	42597.75
506.76	42597.75
506.93	42520.51
507.11	42588.39
507.28	42792.01
507.46	42754.57
507.63	42838.83
507.81	43643.97
507.98	42955.85
508.16	43402.89
508.33	43604.18
508.50	43817.17
508.68	43931.86
508.85	44226.76
509.03	44205.70
509.20	44098.03
509.38	44484.22
509.55	44898.50
509.73	44629.34
509.90	44905.52
510.08	44814.24
510.25	44884.45
510.42	45282.34
510.60	45263.62
510.77	45677.90
510.95	45537.46
511.12	45567.89
511.30	45420.44
511.47	45633.42
511.64	45858.12
511.82	46321.54
511.99	46202.18
512.17	46562.62
512.34	45993.87
512.51	46691.35
512.69	46686.67
512.86	46248.99
513.04	46939.44
513.21	46597.73
513.38	47152.43
513.56	47056.47
513.73	47339.68
513.90	47379.46
514.08	47405.21
514.25	47529.26
514.43	47344.36
514.60	47515.22
514.77	47384.15
514.95	47683.73
515.12	47784.38
515.29	47845.23
515.47	48147.16
515.64	48514.62
515.81	48048.86
515.99	48198.65
516.16	48484.20
516.33	48776.76
516.51	48912.52
516.68	48718.25
516.85	49137.21
517.03	49268.28
517.20	49144.23
517.37	49006.14
517.54	49113.80
517.72	48928.90
517.89	49595.95
518.06	49132.53
518.24	49380.62
518.41	49605.31
518.58	49439.14
518.75	49392.33
518.93	49546.80
519.10	49780.85
519.27	49766.81
519.45	49539.78
519.62	50059.38
519.79	50178.75
519.96	50218.53
520.14	50377.69
520.31	50284.07
520.48	50674.94
520.65	50410.46
520.83	50780.26
521.00	50738.13
521.17	50941.76
521.34	50908.99
521.52	50703.03
521.69	50927.72
521.86	51257.73
522.03	51529.23
522.20	51341.99
522.38	51782.01
522.55	51536.26
522.72	51423.91
522.89	51608.81
523.07	51569.02
523.24	51550.30
523.41	51800.74
523.58	51800.74
523.75	52161.18
523.92	52097.98
524.10	52065.22
524.27	52102.67
524.44	52362.46
524.61	52402.25
524.78	52261.82
524.96	52367.15
525.13	52788.44
525.30	52423.32
525.47	52601.20
525.64	52250.12
525.81	52568.43
525.98	52926.53
526.16	52523.96
526.33	52795.46
526.50	53333.79
526.67	52949.94
526.84	53343.15
527.01	52842.27
527.18	53270.59
527.36	53010.79
527.53	53153.57
527.70	53757.42
527.87	53696.57
528.04	53291.66
528.21	53584.22
528.38	53609.97
528.55	53448.47
528.72	53406.34
528.89	53436.77
529.07	53783.17
529.24	53862.75
529.41	53755.08
529.58	53497.62
529.75	53715.29
529.92	53715.29
530.09	54024.25
530.26	53977.43
530.43	54234.89
530.60	53879.13
530.77	53893.18
530.94	54309.79
531.11	54326.17
531.28	54398.73
531.46	54377.67
531.63	54382.35
531.80	54372.99
531.97	54506.40
532.14	54595.34
532.31	54497.03
532.48	54731.09
532.65	54642.15
532.82	54733.43
532.99	54827.05
533.16	54789.60
533.33	54719.38
533.50	54925.35
533.67	54815.35
533.84	54834.07
534.01	54995.57
534.18	54955.78
534.35	55241.32
534.52	54866.84
534.69	55402.82
534.86	55526.87
535.03	55281.11
535.20	55112.59
535.37	55547.93
535.54	55435.59
535.71	55330.26
535.88	55592.40
536.05	55613.47
536.22	55571.34
536.38	55917.74
536.55	55681.34
536.72	55751.56
536.89	55573.68
537.06	55994.98
537.23	56041.79
537.40	55657.94
537.57	55894.33
537.74	55845.18
537.91	56030.08
538.08	55936.46
538.25	55847.52
538.42	56097.96
538.59	56275.84
538.75	55934.12
538.92	56158.81
539.09	56446.70
539.26	56294.56
539.43	56477.13
539.60	56406.91
539.77	56343.72
539.94	56516.92
540.11	56725.22
540.28	56502.87
540.44	56556.70
540.61	56561.39
540.78	56526.28
540.95	56402.23
541.12	56530.96
541.29	56467.76
541.46	56528.62
541.62	56690.12
541.79	56692.46
541.96	56336.69
542.13	56839.91
542.30	56875.02
542.47	56956.94
542.63	57008.43
542.80	57013.11
542.97	57034.17
543.14	57340.78
543.31	57385.25
543.48	57146.52
543.64	57495.26
543.81	57354.83
543.98	57422.70
544.15	57778.46
544.32	57542.07
544.48	57415.68
544.65	57399.30
544.82	57762.08
544.99	57385.25
545.16	57549.09
545.32	57469.51
545.49	57836.98
545.66	57890.81
545.83	57696.55
546.00	57909.53
546.16	57682.50
546.33	57621.65
546.50	57696.55
546.67	57963.37
546.83	57623.99
547.00	57731.65
547.17	58080.39
547.34	57979.75
547.50	57961.03
547.67	58017.20
547.84	58166.99
548.00	58344.87
548.17	58218.49
548.34	58293.38
548.51	58417.43
548.67	57993.79
548.84	58405.73
549.01	58279.34
549.18	58333.17
549.34	58403.39
549.51	58351.90
549.68	58614.04
549.84	58347.21
550.01	58611.70
550.18	58192.74
550.34	58747.45
550.51	58543.82
550.68	58656.17
550.84	58429.13
551.01	58747.45
551.18	58628.08
551.34	58700.64
551.51	58784.90
551.68	58768.51
551.84	58801.28
552.01	58693.61
552.18	58817.66
552.34	58417.43
552.51	58873.84
552.68	58908.94
552.84	58679.57
553.01	59164.06
553.18	58747.45
553.34	59166.40
553.51	58869.15
553.67	58920.65
553.84	58946.39
554.01	59021.29
554.17	59274.07
554.34	59313.86
554.51	59157.04
554.67	59192.15
554.84	59220.23
555.00	59143.00
555.17	58801.28
555.33	59093.85
555.50	59168.74
555.67	59271.73
555.83	59292.79
556.00	59068.10
556.16	59458.97
556.33	59409.82
556.50	59363.01
556.66	59580.68
556.83	59100.87
556.99	59592.38
557.16	59508.12
557.32	59671.96
557.49	59524.50
557.65	59330.24
557.82	59573.66
557.98	59501.10
558.15	59444.93
558.32	59599.40
558.48	59416.84
558.65	59533.87
558.81	59475.35
558.98	59566.63
559.14	59882.61
559.31	59568.97
559.47	59629.83
559.64	59875.58
559.80	59849.84
559.97	59891.97
560.13	59863.88
560.30	59791.33
560.46	59777.28
560.63	60020.70
560.79	60053.47
560.96	59770.26
561.12	59796.01
561.29	60034.74
561.45	59994.95
561.61	59856.86
561.78	60095.60
561.94	59788.98
562.11	59756.22
562.27	60238.37
562.44	59976.23
562.60	60135.38
562.77	60114.32
562.93	59969.21
563.10	60175.17
563.26	60135.38
563.42	60416.25
563.59	60221.98
563.75	59962.18
563.92	60259.43
564.08	60177.51
564.24	60322.63
564.41	60212.62
564.57	60383.48
564.74	60126.02
564.90	60259.43
565.07	60020.70
565.23	60294.54
565.39	60306.24
565.56	60193.90
565.72	60221.98
565.88	60355.39
566.05	60236.03
566.21	60179.85
566.38	60495.83
566.54	60294.54
566.70	60624.56
566.87	60514.55
567.03	60278.16
567.19	60444.33
567.36	60430.29
567.52	60416.25
567.68	60381.14
567.85	60416.25
568.01	60650.30
568.17	60324.97
568.34	60654.98
568.50	60348.37
568.66	60589.45
568.83	60704.13
568.99	60495.83
569.15	60411.57
569.32	60486.46
569.48	60336.67
569.64	60884.36
569.81	60404.55
569.97	60570.72
570.13	60659.66
570.30	60425.61
570.46	60563.70
570.62	60549.66
570.78	60701.79
570.95	60381.14
571.11	60741.58
571.27	60846.91
571.43	60619.88
571.60	60657.32
571.76	60781.37
571.92	60514.55
572.09	60680.73
572.25	60732.22
572.41	60748.60
572.57	60582.43
572.74	60954.57
572.90	60612.85
573.06	60823.50
573.22	60797.76
573.38	60680.73
573.55	60811.80
573.71	60839.89
573.87	60795.42
574.03	60762.65
574.20	60973.30
574.36	60694.77
574.52	60750.94
574.68	60858.61
574.84	60968.61
575.01	60933.51
575.17	60985.00
575.33	60587.11
575.49	60746.26
575.65	61024.79
575.82	60926.49
575.98	60970.96
576.14	61010.74
576.30	60961.59
576.46	60685.41
576.62	60926.49
576.79	60910.10
576.95	60741.58
577.11	60973.30
577.27	60926.49
577.43	61130.11
577.59	60924.14
577.75	60732.22
577.92	60809.46
578.08	60858.61
578.24	60924.14
578.40	61158.20
578.56	61038.83
578.72	60996.70
578.88	61038.83
579.04	61106.71
579.21	61291.61
579.37	61080.96
579.53	61307.99
579.69	60926.49
579.85	60926.49
580.01	60912.44
580.17	60839.89
580.33	61141.81
580.49	61141.81
580.65	60980.32
580.82	60985.00
580.98	60886.70
581.14	60921.80
581.30	61172.24
581.46	61132.45
581.62	61127.77
581.78	60870.31
581.94	61113.73
582.10	61134.79
582.26	61134.79
582.42	61013.08
582.58	60949.89
582.74	61087.98
582.90	61127.77
583.06	61326.72
583.22	60764.99
583.38	60987.34
583.54	61015.43
583.70	61013.08
583.86	61127.77
584.02	60954.57
584.18	61277.57
584.34	61188.63
584.50	60985.00
584.66	60837.54
584.82	60940.53
584.98	61048.19
585.14	61282.25
585.30	60931.17
585.46	61186.28
585.62	61331.40
585.78	61139.47
585.94	61106.71
586.10	61263.52
586.26	61036.49
586.42	61207.35
586.58	61312.67
586.74	61212.03
586.90	61151.18
587.06	61310.33
587.22	61345.44
587.38	61141.81
587.54	61230.75
587.70	61389.91
587.86	61277.57
588.02	61092.66
588.18	61242.46
588.34	61305.65
588.49	61228.41
