SpectraSuite Data File
++++++++++++++++++++++++++++++++++++
Date: Fri Oct 25 11:26:24 EDT 2013
User: price-jones
Dark Spectrum Present: No
Reference Spectrum Present: No
Number of Sampled Component Spectra: 1
Spectrometers: USB2+H05261
Integration Time (usec): 100000 (USB2+H05261)
Spectra Averaged: 1 (USB2+H05261)
Boxcar Smoothing: 0 (USB2+H05261)
Correct for Electrical Dark: No (USB2+H05261)
Strobe/Lamp Enabled: No (USB2+H05261)
Correct for Detector Non-linearity: No (USB2+H05261)
Correct for Stray Light: No (USB2+H05261)
Number of Pixels in Processed Spectrum: 2048
>>>>>Begin Processed Spectral Data<<<<<
365.73	250.44
365.92	250.44
366.12	250.44
366.32	133.41
366.52	126.39
366.72	177.88
366.91	72.56
367.11	147.45
367.31	147.45
367.51	140.43
367.70	187.24
367.90	112.35
368.10	128.73
368.30	142.77
368.49	135.75
368.69	133.41
368.89	128.73
369.09	133.41
369.28	156.82
369.48	93.62
369.68	243.42
369.87	229.37
370.07	215.33
370.27	250.44
370.47	308.95
370.66	552.37
370.86	610.88
371.06	716.20
371.25	711.52
371.45	580.45
371.65	662.37
371.84	657.69
372.04	681.10
372.24	727.91
372.44	814.51
372.63	746.63
372.83	648.33
373.03	788.76
373.22	800.46
373.42	744.29
373.62	746.63
373.81	800.46
374.01	858.98
374.21	819.19
374.40	870.68
374.60	856.64
374.79	858.98
374.99	772.38
375.19	875.36
375.38	873.02
375.58	882.38
375.78	882.38
375.97	866.00
376.17	887.06
376.37	915.15
376.56	814.51
376.76	889.40
376.95	849.61
377.15	983.02
377.35	933.87
377.54	887.06
377.74	812.17
377.93	903.45
378.13	889.40
378.33	840.25
378.52	901.11
378.72	922.17
378.91	992.39
379.11	966.64
379.31	950.26
379.50	898.77
379.70	973.66
379.89	971.32
380.09	933.87
380.28	971.32
380.48	1034.52
380.68	1006.43
380.87	987.71
381.07	1090.69
381.26	985.37
381.46	978.34
381.65	1046.22
381.85	1027.50
382.04	1034.52
382.24	1050.90
382.43	983.02
382.63	1097.71
382.83	1048.56
383.02	1107.07
383.22	1116.44
383.41	1083.67
383.61	1139.84
383.80	1149.20
384.00	1111.75
384.19	1064.94
384.39	1198.35
384.58	1191.33
384.78	1170.27
384.97	1128.14
385.17	1125.80
385.36	1181.97
385.56	1118.78
385.75	1177.29
385.95	1149.20
386.14	1308.36
386.34	1151.54
386.53	1233.46
386.72	1306.02
386.92	1158.57
387.11	1327.08
387.31	1249.85
387.50	1256.87
387.70	1245.16
387.89	1334.11
388.09	1228.78
388.28	1317.72
388.48	1362.19
388.67	1261.55
388.86	1303.68
389.06	1406.66
389.25	1383.26
389.45	1350.49
389.64	1383.26
389.84	1458.15
390.03	1404.32
390.22	1371.55
390.42	1249.85
390.61	1357.51
390.81	1324.74
391.00	1336.45
391.19	1476.88
391.39	1392.62
391.58	1413.68
391.78	1519.01
391.97	1558.80
392.16	1334.11
392.36	1554.12
392.55	1497.94
392.75	1462.83
392.94	1535.39
393.13	1629.01
393.33	1476.88
393.52	1577.52
393.71	1575.18
393.91	1617.31
394.10	1633.69
394.29	1621.99
394.49	1476.88
394.68	1593.90
394.88	1586.88
395.07	1654.76
395.26	1715.61
395.46	1664.12
395.65	1694.55
395.84	1689.87
396.04	1729.66
396.23	1762.42
396.42	1717.95
396.62	1764.76
396.81	1757.74
397.00	1664.12
397.19	1785.83
397.39	1781.15
397.58	1881.79
397.77	1750.72
397.97	1755.40
398.16	1823.28
398.35	1895.83
398.55	1872.43
398.74	1956.69
398.93	1966.05
399.12	1872.43
399.32	1900.52
399.51	1935.62
399.70	1954.35
399.90	1989.46
400.09	1970.73
400.28	1952.01
400.47	2036.27
400.67	2062.01
400.86	1973.07
401.05	2031.58
401.24	2099.46
401.44	2115.84
401.63	2258.62
401.82	2157.97
402.01	2113.50
402.21	2066.69
402.40	2197.76
402.59	2265.64
402.78	2246.91
402.97	2246.91
403.17	2345.22
403.36	2319.47
403.55	2174.36
403.74	2253.94
403.93	2195.42
404.13	2289.04
404.32	2338.20
404.51	2335.85
404.70	2544.16
404.89	2366.28
405.09	2347.56
405.28	2408.41
405.47	2567.57
405.66	2546.50
405.85	2455.22
406.05	2506.71
406.24	2551.18
406.43	2532.46
406.62	2586.29
406.81	2600.34
407.00	2712.68
407.20	2684.59
407.39	2689.28
407.58	2689.28
407.77	2679.91
407.96	2703.32
408.15	2726.72
408.34	2698.64
408.54	2731.41
408.73	2825.03
408.92	2724.38
409.11	2841.41
409.30	2923.33
409.49	2806.30
409.68	2920.99
409.87	2949.08
410.07	3009.93
410.26	3012.27
410.45	3014.61
410.64	2951.42
410.83	3157.38
411.02	3073.12
411.21	3112.91
411.40	3103.55
411.59	3297.81
411.78	3162.06
411.98	3211.22
412.17	3279.09
412.36	3145.68
412.55	3307.18
412.74	3452.29
412.93	3508.46
413.12	3471.01
413.31	3473.36
413.50	3496.76
413.69	3424.20
413.88	3599.74
414.07	3597.40
414.26	3588.04
414.45	3606.77
414.64	3728.47
414.83	3782.31
415.02	3810.39
415.22	3761.24
415.41	3838.48
415.60	3995.29
415.79	3899.33
415.98	3845.50
416.17	3896.99
416.36	3936.78
416.55	3927.42
416.74	4032.74
416.93	4140.41
417.12	4131.05
417.31	4227.01
417.50	4219.99
417.69	4304.25
417.88	4285.52
418.07	4425.95
418.26	4283.18
418.45	4299.56
418.64	4400.21
418.83	4304.25
419.02	4299.56
419.21	4491.49
419.39	4442.34
419.58	4542.98
419.77	4400.21
419.96	4669.37
420.15	4582.77
420.34	4622.56
420.53	4559.36
420.72	4636.60
420.91	4603.83
421.10	4732.56
421.29	4837.89
421.48	4606.17
421.67	4816.82
421.86	4854.27
422.05	4826.18
422.24	4760.65
422.43	4887.04
422.61	4938.53
422.80	4898.74
422.99	4968.96
423.18	4847.25
423.37	4896.40
423.56	4931.51
423.75	4910.44
423.94	4851.93
424.13	4688.09
424.32	4798.10
424.50	5018.11
424.69	5146.84
424.88	5210.03
425.07	4863.63
425.26	4877.68
425.45	4961.94
425.64	4854.27
425.83	5123.43
426.01	5071.94
426.20	5123.43
426.39	5078.96
426.58	4938.53
426.77	4875.34
426.96	5095.35
427.15	5205.35
427.33	5280.25
427.52	5006.41
427.71	5142.16
427.90	5320.04
428.09	5165.56
428.28	5235.78
428.46	5401.96
428.65	5270.89
428.84	5420.68
429.03	5446.43
429.22	5378.55
429.40	5401.96
429.59	5392.59
429.78	5214.71
429.97	5153.86
430.16	5308.34
430.34	5710.91
430.53	5724.95
430.72	5767.08
430.91	5544.73
431.10	5554.09
431.28	5731.97
431.47	5678.14
431.66	5675.80
431.85	5652.39
432.03	6033.90
432.22	5987.09
432.41	6003.47
432.60	5888.79
432.79	6010.50
432.97	5820.91
433.16	5966.03
433.35	5849.00
433.54	5977.73
433.72	6040.92
433.91	6225.82
434.10	6164.97
434.28	6274.98
434.47	6345.19
434.66	6115.82
434.85	6267.95
435.03	6363.92
435.22	6204.76
435.41	6235.19
435.59	6401.37
435.78	6480.94
435.97	6342.85
436.16	6321.79
436.34	6270.30
436.53	6354.55
436.72	6707.98
436.90	6487.96
437.09	6548.82
437.28	6654.14
437.46	6527.75
437.65	6516.05
437.84	6827.34
438.02	6731.38
438.21	6822.66
438.40	6736.06
438.58	6920.96
438.77	6946.71
438.96	7070.76
439.14	7136.29
439.33	7169.06
439.52	7276.73
439.70	7297.79
439.89	7398.43
440.08	7307.15
440.26	7325.88
440.45	7265.02
440.63	7543.55
440.82	7496.74
441.01	7445.24
441.19	7538.87
441.38	7758.88
441.57	7740.15
441.75	7733.13
441.94	7866.54
442.12	7918.03
442.31	8039.74
442.50	8009.31
442.68	7960.16
442.87	7829.09
443.05	8278.47
443.24	8180.17
443.43	8077.19
443.61	8168.47
443.80	8613.17
443.98	7887.61
444.17	7960.16
444.35	8147.40
444.54	8226.98
444.73	8255.07
444.91	8182.51
445.10	8351.03
445.28	8327.63
445.47	8217.62
445.65	8386.14
445.84	8402.52
446.02	8339.33
446.21	8423.59
446.39	8397.84
446.58	8367.42
446.77	8449.33
446.95	8276.13
447.14	8386.14
447.32	8432.95
447.51	8631.90
447.69	8578.06
447.88	8379.12
448.06	8425.93
448.25	8629.56
448.43	8631.90
448.62	8517.21
448.80	8425.93
448.99	8664.66
449.17	8887.01
449.36	8638.92
449.54	8861.27
449.73	8669.34
449.91	8830.84
450.10	9083.62
450.28	9240.44
450.46	9034.47
450.65	9116.39
450.83	8971.27
451.02	9172.56
451.20	9191.28
451.39	9097.66
451.57	9170.22
451.76	9118.73
451.94	9228.73
452.13	9118.73
452.31	9214.69
452.49	9310.65
452.68	9144.47
452.86	9298.95
453.05	9530.66
453.23	9404.27
453.42	9376.19
453.60	9312.99
453.78	9483.85
453.97	9343.42
454.15	9530.66
454.34	9378.53
454.52	9682.80
454.70	9673.43
454.89	9745.99
455.07	9605.56
455.26	9668.75
455.44	9781.10
455.62	9963.66
455.81	9951.96
455.99	9975.36
456.17	9940.26
456.36	10223.46
456.54	9900.47
456.73	10305.38
456.91	10513.69
457.09	10333.47
457.28	10431.77
457.46	10265.59
457.64	10209.42
457.83	10434.11
458.01	10452.83
458.19	10555.82
458.38	10253.89
458.56	10492.62
458.74	10726.68
458.93	10707.95
459.11	10860.09
459.29	10686.89
459.48	10871.79
459.66	10731.36
459.84	10684.55
460.03	10951.37
460.21	10895.19
460.39	11044.99
460.57	11054.35
460.76	10972.43
460.94	11143.29
461.12	11164.36
461.31	11243.93
461.49	10885.83
461.67	11243.93
461.85	11358.62
462.04	11211.17
462.22	11742.47
462.40	11485.01
462.59	11506.07
462.77	11543.52
462.95	11651.19
463.13	11543.52
463.32	11370.32
463.50	11705.02
463.68	11576.29
463.86	11576.29
464.05	11578.63
464.23	11426.50
464.41	11995.25
464.59	11428.84
464.78	11899.28
464.96	11768.21
465.14	11908.65
465.32	11922.69
465.50	11976.52
465.69	12236.32
465.87	12107.59
466.05	12098.23
466.23	11997.59
466.41	12152.06
466.60	12442.29
466.78	12194.19
466.96	12072.48
467.14	12219.94
467.32	12376.75
467.51	12526.55
467.69	11974.18
467.87	12264.41
468.05	12463.35
468.23	12088.87
468.41	12250.36
468.60	12449.31
468.78	12594.42
468.96	12304.20
469.14	12688.04
469.32	12961.89
469.50	12535.91
469.69	12868.27
469.87	13088.28
470.05	12837.84
470.23	13125.72
470.41	13053.17
470.59	13219.35
470.77	13146.79
470.95	13172.54
471.14	13305.95
471.32	13078.91
471.50	13760.01
471.68	13469.78
471.86	13575.11
472.04	13668.73
472.22	14242.16
472.40	13799.80
472.58	13542.34
472.77	13900.44
472.95	14047.90
473.13	14223.44
473.31	14017.47
473.49	14218.75
473.67	13982.36
473.85	14307.69
474.03	14284.29
474.21	14420.04
474.39	14714.95
474.57	14431.74
474.75	14597.92
474.93	14909.21
475.12	14949.00
475.30	15061.35
475.48	14736.01
475.66	15194.76
475.84	14824.95
476.02	15307.10
476.20	15484.98
476.38	15503.71
476.56	16137.99
476.74	15714.36
476.92	15641.80
477.10	15555.20
477.28	16098.20
477.46	16198.85
477.64	16470.35
477.82	16526.52
478.00	16849.52
478.18	16814.41
478.36	16851.86
478.54	17013.35
478.72	17050.80
478.90	17371.46
479.08	17671.04
479.26	17661.68
479.44	17584.44
479.62	17783.39
479.80	17614.87
479.98	18054.89
480.16	18579.17
480.34	18335.76
480.52	18494.91
480.70	18349.80
480.88	18345.12
481.06	18637.69
481.24	18761.73
481.41	19030.90
481.59	19271.97
481.77	19569.22
481.95	19613.69
482.13	19915.62
482.31	19658.16
482.49	20030.30
482.67	20051.37
482.85	19967.11
483.03	20372.02
483.21	20643.52
483.39	20879.92
483.57	20751.19
483.74	21146.74
483.92	21097.59
484.10	21184.19
484.28	21511.86
484.46	21965.93
484.64	22300.62
484.82	21912.10
485.00	22134.45
485.18	22712.56
485.35	23115.13
485.53	22625.96
485.71	23023.85
485.89	23407.70
486.07	23257.90
486.25	23433.44
486.43	23410.04
486.61	23517.70
486.78	23899.21
486.96	24563.92
487.14	24760.53
487.32	24531.15
487.50	24797.98
487.68	24940.75
487.85	25064.80
488.03	25446.30
488.21	25706.10
488.39	25521.20
488.57	26253.79
488.75	26174.21
488.92	26913.82
489.10	26597.85
489.28	26836.58
489.46	27126.81
489.64	26768.71
489.81	27536.40
489.99	27566.83
490.17	27742.37
490.35	28137.92
490.53	28067.70
490.70	28191.75
490.88	28339.21
491.06	28500.70
491.24	28685.61
491.41	28655.18
491.59	29303.51
491.77	29106.90
491.95	29450.96
492.13	29617.14
492.30	29617.14
492.48	29898.00
492.66	29930.77
492.84	30164.82
493.01	30724.21
493.19	30525.27
493.37	30682.08
493.54	30696.13
493.72	31398.29
493.90	31480.21
494.08	31463.82
494.25	31681.49
494.43	31962.36
494.61	31969.38
494.79	32215.13
494.96	32575.58
495.14	32292.37
495.32	32821.33
495.49	32989.85
495.67	33006.23
495.85	33516.47
496.02	33656.90
496.20	34106.29
496.38	33521.15
496.55	33830.10
496.73	34616.52
496.91	34284.17
497.09	34745.25
497.26	34572.05
497.44	34686.74
497.62	35325.71
497.79	35627.63
497.97	35257.83
498.14	35758.70
498.32	35955.31
498.50	35910.84
498.67	36205.75
498.85	36198.73
499.03	36505.34
499.20	36048.93
499.38	36767.48
499.56	36994.51
499.73	37364.31
499.91	37193.45
500.08	37083.45
500.26	37425.17
500.44	37415.80
500.61	37266.01
500.79	37556.24
500.97	38139.03
501.14	38244.35
501.32	38651.61
501.49	38335.63
501.67	38576.71
501.84	38686.71
502.02	38473.73
502.20	38967.58
502.37	38941.83
502.55	39349.09
502.72	39255.46
502.90	39145.46
503.07	39210.99
503.25	39700.17
503.43	39274.19
503.60	40032.52
503.78	39718.89
503.95	39672.08
504.13	40208.06
504.30	40507.65
504.48	40533.40
504.65	40591.91
504.83	40830.65
505.01	41228.54
505.18	40858.73
505.36	41067.04
505.53	41174.70
505.71	41060.02
505.88	41801.97
506.06	41392.37
506.23	42012.62
506.41	41511.74
506.58	41923.68
506.76	42382.42
506.93	42490.09
507.11	42410.51
507.28	42925.42
507.46	42298.16
507.63	42483.06
507.81	43044.79
507.98	42799.04
508.16	42820.10
508.33	43037.77
508.50	43655.67
508.68	42967.55
508.85	43824.19
509.03	43384.17
509.20	43693.12
509.38	44091.01
509.55	43929.51
509.73	44545.08
509.90	44109.74
510.08	44402.30
510.25	44423.37
510.42	44528.69
510.60	44844.66
510.77	44921.90
510.95	45184.04
511.12	44896.16
511.30	44629.34
511.47	45174.68
511.64	44706.57
511.82	45457.88
511.99	45776.20
512.17	45890.88
512.34	45900.25
512.51	46043.02
512.69	45879.18
512.86	46237.28
513.04	46609.43
513.21	46270.05
513.38	46602.41
513.56	46894.97
513.73	46384.74
513.90	46780.29
514.08	46829.44
514.25	46941.78
514.43	47281.16
514.60	47009.66
514.77	47349.04
514.95	47323.29
515.12	47157.11
515.29	47290.52
515.47	47859.27
515.64	47917.79
515.81	47793.74
515.99	47718.84
516.16	47775.02
516.33	48568.46
516.51	48498.24
516.68	48034.81
516.85	48765.06
517.03	48467.81
517.20	48425.68
517.37	48446.75
517.54	48596.54
517.72	48734.63
517.89	48786.13
518.06	49153.59
518.24	49312.75
518.41	49184.02
518.58	49219.13
518.75	49043.59
518.93	49408.71
519.10	49584.25
519.27	49610.00
519.45	49507.01
519.62	49518.71
519.79	49570.21
519.96	49841.71
520.14	50106.19
520.31	49940.01
520.48	50171.72
520.65	50031.29
520.83	50564.93
521.00	50277.05
521.17	50033.63
521.34	50511.10
521.52	50747.50
521.69	50768.56
521.86	51004.95
522.03	50588.34
522.20	51412.21
522.38	51121.98
522.55	51011.98
522.72	51435.61
522.89	50897.29
523.07	51547.96
523.24	51494.13
523.41	51899.04
523.58	51323.27
523.75	51423.91
523.92	51756.27
524.10	51870.95
524.27	51807.76
524.44	51718.82
524.61	51892.02
524.78	51992.66
524.96	51936.49
525.13	52224.37
525.30	51842.87
525.47	52346.08
525.64	52046.49
525.81	52617.58
525.98	52692.48
526.16	52308.63
526.33	52381.19
526.50	52823.55
526.67	52629.29
526.84	52638.65
527.01	52814.19
527.18	52580.13
527.36	52748.65
527.53	52935.90
527.70	53263.57
527.87	52996.75
528.04	52938.24
528.21	53333.79
528.38	53235.48
528.55	53188.67
528.72	53118.46
528.89	53682.53
529.07	53345.49
529.24	53050.58
529.41	53467.20
529.58	53378.26
529.75	53116.12
529.92	53687.21
530.09	53844.02
530.26	53488.26
530.43	53996.16
530.60	53811.26
530.77	53832.32
530.94	53951.69
531.11	53815.94
531.28	53846.36
531.46	53998.50
531.63	53865.09
531.80	53963.39
531.97	54089.78
532.14	54300.43
532.31	54314.47
532.48	54508.74
532.65	54735.77
532.82	54527.46
532.99	54344.90
533.16	54265.32
533.33	54436.18
533.50	54763.85
533.67	54611.72
533.84	54576.61
534.01	54843.43
534.18	54733.43
534.35	55042.38
534.52	55056.42
534.69	55068.12
534.86	55196.85
535.03	54866.84
535.20	54993.23
535.37	55213.24
535.54	55379.42
535.71	55037.70
535.88	55341.97
536.05	55210.90
536.22	55510.49
536.38	55281.11
536.55	55365.37
536.72	55213.24
536.89	55246.00
537.06	55585.38
537.23	55660.28
537.40	55622.83
537.57	55671.98
537.74	55760.92
537.91	56135.41
538.08	55583.04
538.25	55290.48
538.42	55620.49
538.59	55807.73
538.75	55821.78
538.92	55847.52
539.09	55903.70
539.26	55835.82
539.43	56074.55
539.60	56175.20
539.77	56210.31
539.94	56357.76
540.11	56236.05
540.28	56285.20
540.44	56512.23
540.61	56189.24
540.78	56369.46
540.95	56112.00
541.12	56273.50
541.29	56357.76
541.46	56329.67
541.62	56666.71
541.79	56500.53
541.96	56278.18
542.13	56294.56
542.30	56385.85
542.47	56830.55
542.63	56952.26
542.80	56762.67
542.97	57069.28
543.14	57034.17
543.31	57099.71
543.48	57123.11
543.64	57298.65
543.81	57219.08
543.98	57174.61
544.15	56978.00
544.32	57492.92
544.48	57684.84
544.65	57090.35
544.82	57263.55
544.99	57207.37
545.16	57469.51
545.32	57265.89
545.49	57605.26
545.66	57574.84
545.83	57502.28
546.00	57680.16
546.16	57315.04
546.33	57293.97
546.50	57457.81
546.67	57553.77
546.83	57591.22
547.00	57460.15
547.17	57769.10
547.34	57792.51
547.50	58012.52
547.67	57949.32
547.84	57820.59
548.00	57881.45
548.17	58082.73
548.34	57836.98
548.51	58087.42
548.67	58246.57
548.84	57904.85
549.01	57794.85
549.18	58007.84
549.34	58206.78
549.51	58080.39
549.68	58225.51
549.84	58096.78
550.01	58401.05
550.18	58082.73
550.34	58328.49
550.51	58204.44
550.68	58396.37
550.84	58054.65
551.01	58349.56
551.18	58244.23
551.34	58424.45
551.51	58569.57
551.68	58679.57
551.84	58391.68
552.01	58387.00
552.18	58309.77
552.34	58468.92
552.51	58637.44
552.68	58328.49
552.84	58356.58
553.01	58731.06
553.18	58686.59
553.34	58878.52
553.51	58578.93
553.67	58674.89
553.84	58794.26
554.01	58583.61
554.17	58986.18
554.34	58901.92
554.51	58777.87
554.67	58857.45
554.84	58983.84
555.00	58862.13
555.17	58997.88
555.33	59032.99
555.50	58876.18
555.67	59044.69
555.83	58693.61
556.00	58906.60
556.16	59217.89
556.33	59133.63
556.50	59168.74
556.66	59231.94
556.83	59208.53
556.99	59519.82
557.16	59416.84
557.32	59168.74
557.49	59564.29
557.65	59171.08
557.82	59248.32
557.98	59215.55
558.15	59377.05
558.32	59311.52
558.48	59458.97
558.65	59203.85
558.81	59264.70
558.98	59402.80
559.14	59554.93
559.31	59414.50
559.47	59475.35
559.64	59653.23
559.80	59854.52
559.97	59533.87
560.13	59533.87
560.30	59576.00
560.46	59929.42
560.63	59730.47
560.79	59791.33
560.96	59671.96
561.12	59746.86
561.29	59587.70
561.45	59700.04
561.61	59657.91
561.78	59559.61
561.94	59552.59
562.11	59760.90
562.27	59756.22
562.44	59913.03
562.60	59945.80
562.77	59774.94
562.93	59564.29
563.10	59999.63
563.26	59920.05
563.42	60196.24
563.59	59901.33
563.75	59898.99
563.92	59877.93
564.08	59709.41
564.24	60193.90
564.41	60062.83
564.57	60030.06
564.74	60093.25
564.90	59849.84
565.07	60081.55
565.23	59840.48
565.39	60151.77
565.56	60079.21
565.72	60027.72
565.88	60161.13
566.05	60039.42
566.21	60151.77
566.38	60177.51
566.54	60172.83
566.70	60207.94
566.87	59994.95
567.03	59952.82
567.19	60212.62
567.36	60039.42
567.52	60051.12
567.68	60528.59
567.85	60226.66
568.01	60317.95
568.17	60243.05
568.34	60360.08
568.50	60205.60
568.66	60233.69
568.83	60357.74
568.99	60207.94
569.15	60233.69
569.32	60353.05
569.48	60217.30
569.64	60418.59
569.81	60254.75
569.97	60294.54
570.13	60285.18
570.30	60184.54
570.46	60472.42
570.62	60451.36
570.78	60402.21
570.95	60374.12
571.11	60549.66
571.27	60355.39
571.43	60334.33
571.60	60498.17
571.76	60390.50
571.92	60367.10
572.09	60472.42
572.25	60243.05
572.41	60329.65
572.57	60552.00
572.74	60669.03
572.90	60343.69
573.06	60612.85
573.22	60446.68
573.38	60552.00
573.55	60434.97
573.71	60669.03
573.87	60587.11
574.03	60207.94
574.20	60341.35
574.36	60556.68
574.52	60596.47
574.68	60683.07
574.84	60835.20
575.01	60615.19
575.17	60619.88
575.33	60470.08
575.49	60554.34
575.65	60643.28
575.82	60697.11
575.98	60697.11
576.14	60842.23
576.30	60809.46
576.46	60516.89
576.62	60577.75
576.79	60647.96
576.95	60289.86
577.11	60540.30
577.27	60704.13
577.43	60935.85
577.59	60638.60
577.75	60645.62
577.92	60460.72
578.08	60662.00
578.24	60591.79
578.40	60832.86
578.56	60781.37
578.72	60685.41
578.88	60809.46
579.04	60811.80
579.21	60760.31
579.37	60795.42
579.53	60877.33
579.69	60554.34
579.85	60484.12
580.01	60692.43
580.17	60460.72
580.33	60877.33
580.49	61041.17
580.65	60790.73
580.82	60671.37
580.98	60669.03
581.14	60570.72
581.30	60963.93
581.46	60828.18
581.62	60893.72
581.78	60720.52
581.94	60825.84
582.10	60816.48
582.26	60598.81
582.42	60683.07
582.58	60954.57
582.74	60886.70
582.90	60692.43
583.06	60755.63
583.22	60755.63
583.38	60781.37
583.54	60877.33
583.70	60851.59
583.86	60853.93
584.02	60910.10
584.18	60975.64
584.34	60889.04
584.50	60823.50
584.66	60736.90
584.82	60582.43
584.98	61003.72
585.14	60935.85
585.30	60793.07
585.46	60942.87
585.62	60898.40
585.78	61048.19
585.94	60678.39
586.10	60718.18
586.26	61062.24
586.42	60814.14
586.58	61162.88
586.74	60907.76
586.90	60732.22
587.06	60886.70
587.22	61001.38
587.38	60959.25
587.54	61219.05
587.70	61118.41
587.86	61031.81
588.02	60954.57
588.18	61106.71
588.34	60790.73
588.49	61134.79
