SpectraSuite Data File
++++++++++++++++++++++++++++++++++++
Date: Fri Oct 25 10:48:22 EDT 2013
User: price-jones
Dark Spectrum Present: No
Reference Spectrum Present: No
Number of Sampled Component Spectra: 1
Spectrometers: USB2+H05261
Integration Time (usec): 100000 (USB2+H05261)
Spectra Averaged: 1 (USB2+H05261)
Boxcar Smoothing: 0 (USB2+H05261)
Correct for Electrical Dark: No (USB2+H05261)
Strobe/Lamp Enabled: No (USB2+H05261)
Correct for Detector Non-linearity: No (USB2+H05261)
Correct for Stray Light: No (USB2+H05261)
Number of Pixels in Processed Spectrum: 2048
>>>>>Begin Processed Spectral Data<<<<<
365.73	189.58
365.92	189.58
366.12	189.58
366.32	53.83
366.52	98.30
366.72	142.77
366.91	53.83
367.11	114.69
367.31	86.60
367.51	74.90
367.70	0.00
367.90	0.00
368.10	0.00
368.30	23.41
368.49	0.00
368.69	161.50
368.89	100.64
369.09	105.32
369.28	46.81
369.48	100.64
369.68	86.60
369.87	77.24
370.07	67.88
370.27	138.09
370.47	154.48
370.66	440.02
370.86	393.21
371.06	526.62
371.25	505.56
371.45	463.43
371.65	472.79
371.84	416.62
372.04	465.77
372.24	528.96
372.44	510.24
372.63	547.69
372.83	554.71
373.03	528.96
373.22	505.56
373.42	510.24
373.62	564.07
373.81	540.66
374.01	543.00
374.21	496.19
374.40	627.26
374.60	582.79
374.79	564.07
374.99	608.54
375.19	589.82
375.38	627.26
375.58	629.60
375.78	688.12
375.97	641.31
376.17	779.40
376.37	657.69
376.56	645.99
376.76	657.69
376.95	617.90
377.15	582.79
377.35	648.33
377.54	667.05
377.74	727.91
377.93	550.03
378.13	657.69
378.33	676.41
378.52	765.36
378.72	585.13
378.91	671.73
379.11	643.65
379.31	683.44
379.50	660.03
379.70	629.60
379.89	720.88
380.09	716.20
380.28	660.03
380.48	788.76
380.68	681.10
380.87	704.50
381.07	683.44
381.26	805.14
381.46	702.16
381.65	739.61
381.85	683.44
382.04	704.50
382.24	770.04
382.43	720.88
382.63	753.65
382.83	676.41
383.02	751.31
383.22	795.78
383.41	671.73
383.61	819.19
383.80	791.10
384.00	795.78
384.19	725.57
384.39	744.29
384.58	793.44
384.78	812.17
384.97	798.12
385.17	788.76
385.36	875.36
385.56	809.83
385.75	795.78
385.95	802.80
386.14	863.66
386.34	875.36
386.53	894.08
386.72	873.02
386.92	987.71
387.11	866.00
387.31	924.51
387.50	875.36
387.70	844.93
387.89	943.24
388.09	849.61
388.28	915.15
388.48	847.27
388.67	1043.88
388.86	973.66
389.06	976.00
389.25	983.02
389.45	959.62
389.64	1029.84
389.84	999.41
390.03	987.71
390.22	1029.84
390.42	985.37
390.61	968.98
390.81	1081.33
391.00	1128.14
391.19	992.39
391.39	1069.62
391.58	1097.71
391.78	1067.28
391.97	1041.54
392.16	1032.18
392.36	1116.44
392.55	985.37
392.75	884.72
392.94	961.96
393.13	1032.18
393.33	1083.67
393.52	1090.69
393.71	1160.91
393.91	1149.20
394.10	1196.01
394.29	1153.88
394.49	1078.99
394.68	1193.67
394.88	1287.29
395.07	1219.42
395.26	1277.93
395.46	1296.66
395.65	1273.25
395.84	1259.21
396.04	1338.79
396.23	1217.08
396.42	1186.65
396.62	1200.69
396.81	1226.44
397.00	1320.06
397.19	1282.61
397.39	1343.47
397.58	1434.75
397.77	1404.32
397.97	1490.92
398.16	1521.35
398.35	1507.30
398.55	1465.18
398.74	1577.52
398.93	1619.65
399.12	1572.84
399.32	1556.46
399.51	1537.73
399.70	1600.93
399.90	1500.28
400.09	1598.59
400.28	1596.25
400.47	1605.61
400.67	1687.53
400.86	1703.91
401.05	1621.99
401.24	1783.49
401.44	1605.61
401.63	1757.74
401.82	1699.23
402.01	1727.32
402.21	1795.19
402.40	1654.76
402.59	1769.44
402.78	1732.00
402.97	1790.51
403.17	1746.04
403.36	1877.11
403.55	1872.43
403.74	1860.73
403.93	1930.94
404.13	1881.79
404.32	1816.26
404.51	1860.73
404.70	1898.17
404.89	1968.39
405.09	1881.79
405.28	1930.94
405.47	1956.69
405.66	1984.77
405.85	2113.50
406.05	2038.61
406.24	2097.12
406.43	2064.35
406.62	2024.56
406.81	2160.31
407.00	2033.93
407.20	2033.93
407.39	2139.25
407.58	2118.18
407.77	2202.44
407.96	2289.04
408.15	2260.96
408.34	2310.11
408.54	2253.94
408.73	2368.62
408.92	2267.98
409.11	2277.34
409.30	2314.79
409.49	2349.90
409.68	2244.57
409.87	2368.62
410.07	2253.94
410.26	2345.22
410.45	2422.45
410.64	2408.41
410.83	2511.39
411.02	2504.37
411.21	2558.21
411.40	2537.14
411.59	2722.04
411.78	2590.97
411.98	2712.68
412.17	2661.19
412.36	2558.21
412.55	2628.42
412.74	2668.21
412.93	2729.06
413.12	2766.51
413.31	2904.60
413.50	2825.03
413.69	2726.72
413.88	3035.67
414.07	2918.65
414.26	3014.61
414.45	2979.50
414.64	3033.33
414.83	2986.52
415.02	3030.99
415.22	3122.27
415.41	3222.92
415.60	3199.51
415.79	3164.40
415.98	3206.53
416.17	3309.52
416.36	3227.60
416.55	3283.77
416.74	3295.47
416.93	3199.51
417.12	3349.31
417.31	3311.86
417.50	3344.63
417.69	3426.54
417.88	3456.97
418.07	3311.86
418.26	3487.40
418.45	3384.41
418.64	3651.24
418.83	3620.81
419.02	3534.21
419.21	3627.83
419.39	3662.94
419.58	3655.92
419.77	3531.87
419.96	3693.37
420.15	3763.58
420.34	3695.71
420.53	3730.81
420.72	3864.22
420.91	3772.94
421.10	3829.12
421.29	3843.16
421.48	3749.54
421.67	3864.22
421.86	3864.22
422.05	3845.50
422.24	3798.69
422.43	3882.95
422.61	3850.18
422.80	4081.89
422.99	3978.91
423.18	4021.04
423.37	3943.80
423.56	3960.19
423.75	3859.54
423.94	3899.33
424.13	3737.84
424.32	3854.86
424.50	3962.53
424.69	4070.19
424.88	4095.94
425.07	3957.85
425.26	3847.84
425.45	4011.68
425.64	4002.32
425.83	3939.12
426.01	4058.49
426.20	4095.94
426.39	4086.58
426.58	4037.42
426.77	3861.88
426.96	4035.08
427.15	3927.42
427.33	4198.92
427.52	4058.49
427.71	4091.26
427.90	4159.13
428.09	4187.22
428.28	4168.49
428.46	4276.16
428.65	4168.49
428.84	4322.97
429.03	4170.83
429.22	4128.70
429.40	4191.90
429.59	4184.88
429.78	4152.11
429.97	3964.87
430.16	4072.53
430.34	4194.24
430.53	4301.90
430.72	4198.92
430.91	4355.74
431.10	4222.33
431.28	4376.80
431.47	4610.86
431.66	4561.70
431.85	4603.83
432.03	4613.20
432.22	4587.45
432.41	4622.56
432.60	4770.01
432.79	4634.26
432.97	4945.55
433.16	4809.80
433.35	4681.07
433.54	4828.53
433.72	4755.97
433.91	4732.56
434.10	4746.61
434.28	4774.69
434.47	4931.51
434.66	4856.61
434.85	4983.00
435.03	5069.60
435.22	4880.02
435.41	5090.67
435.59	5069.60
435.78	5153.86
435.97	5081.30
436.16	5107.05
436.34	5111.73
436.53	5177.26
436.72	5170.24
436.90	5125.77
437.09	5156.20
437.28	5158.54
437.46	5205.35
437.65	5135.14
437.84	5156.20
438.02	5184.29
438.21	5247.48
438.40	5242.80
438.58	5455.79
438.77	5364.51
438.96	5514.30
439.14	5511.96
439.33	5582.18
439.52	5481.53
439.70	5741.33
439.89	5741.33
440.08	5921.56
440.26	5790.49
440.45	5596.22
440.63	5865.38
440.82	6045.60
441.01	5954.32
441.19	6008.16
441.38	5987.09
441.57	6148.59
441.75	6267.95
441.94	6253.91
442.12	6478.60
442.31	6389.66
442.50	6345.19
442.68	6228.17
442.87	6349.87
443.05	6300.72
443.24	6469.24
443.43	6551.16
443.61	6464.56
443.80	6614.35
443.98	6251.57
444.17	6401.37
444.35	6553.50
444.54	6654.14
444.73	6600.31
444.91	6614.35
445.10	6530.09
445.28	6555.84
445.47	6413.07
445.65	6366.26
445.84	6462.22
446.02	6623.72
446.21	6649.46
446.39	6633.08
446.58	6799.26
446.77	6689.25
446.95	6583.93
447.14	6785.21
447.32	6806.28
447.51	6885.86
447.69	6548.82
447.88	6656.48
448.06	6707.98
448.25	6719.68
448.43	6825.00
448.62	6920.96
448.80	6747.76
448.99	6892.88
449.17	6958.41
449.36	6834.36
449.54	6932.67
449.73	7152.68
449.91	7155.02
450.10	7218.21
450.28	7321.20
450.46	7171.40
450.65	7272.04
450.83	7344.60
451.02	7272.04
451.20	7248.64
451.39	7295.45
451.57	7265.02
451.76	7363.33
451.94	7332.90
452.13	7232.26
452.31	7279.07
452.49	6979.48
452.68	7311.83
452.86	7412.48
453.05	7358.64
453.23	7318.86
453.42	7290.77
453.60	7393.75
453.78	7529.50
453.97	7496.74
454.15	7330.56
454.34	7508.44
454.52	7765.90
454.70	7583.34
454.89	7667.60
455.07	7566.95
455.26	7688.66
455.44	7833.77
455.62	7887.61
455.81	7651.21
455.99	7915.69
456.17	7871.22
456.36	7726.11
456.54	7805.69
456.73	8236.35
456.91	8159.11
457.09	7953.14
457.28	8219.96
457.46	8145.06
457.64	8393.16
457.83	8212.94
458.01	8098.25
458.19	8313.58
458.38	8142.72
458.56	8304.22
458.74	8526.57
458.93	8348.69
459.11	8128.68
459.29	8257.41
459.48	8411.89
459.66	8257.41
459.84	8290.18
460.03	8517.21
460.21	8610.83
460.39	8407.20
460.57	8599.13
460.76	8500.83
460.94	8725.52
461.12	8798.07
461.31	8645.94
461.49	8549.98
461.67	8596.79
461.85	8961.91
462.04	8879.99
462.22	9352.78
462.40	9006.38
462.59	8936.17
462.77	8997.02
462.95	8933.82
463.13	8975.95
463.32	8990.00
463.50	9074.26
463.68	9067.24
463.86	9095.32
464.05	8917.44
464.23	9149.15
464.41	9053.19
464.59	8952.55
464.78	9273.20
464.96	9301.29
465.14	8994.68
465.32	9355.12
465.50	9355.12
465.69	9341.08
465.87	9195.96
466.05	9575.13
466.23	9156.18
466.41	9198.31
466.60	9432.36
466.78	9015.74
466.96	9137.45
467.14	9514.28
467.32	9523.64
467.51	9757.69
467.69	9362.14
467.87	9507.26
468.05	9710.88
468.23	9474.49
468.41	9338.74
468.60	9645.35
468.78	9643.01
468.96	9490.87
469.14	9701.52
469.32	9745.99
469.50	9586.83
469.69	9923.87
469.87	9874.72
470.05	9980.04
470.23	10111.11
470.41	9720.24
470.59	10045.58
470.77	9865.36
470.95	9921.53
471.14	10221.12
471.32	9900.47
471.50	10420.06
471.68	10310.06
471.86	10422.41
472.04	10459.85
472.22	10663.48
472.40	10366.23
472.58	10214.10
472.77	10569.86
472.95	10705.61
473.13	11222.87
473.31	10747.74
473.49	10406.02
473.67	10899.87
473.85	10782.85
474.03	10939.66
474.21	10979.45
474.39	11124.57
474.57	11007.54
474.75	11307.13
474.93	11255.64
475.12	11087.12
475.30	11265.00
475.48	11119.89
475.66	11410.11
475.84	11288.40
476.02	11536.50
476.20	11637.14
476.38	11730.76
476.56	11906.31
476.74	11669.91
476.92	11978.86
477.10	11925.03
477.28	12074.82
477.46	12250.36
477.64	12386.12
477.82	12486.76
478.00	12596.76
478.18	12702.09
478.36	12627.19
478.54	12849.54
478.72	12781.67
478.90	12879.97
479.08	13153.81
479.26	13170.19
479.44	12884.65
479.62	13343.39
479.80	13530.64
479.98	13671.07
480.16	13900.44
480.34	13837.25
480.52	13771.71
480.70	13820.86
480.88	13724.90
481.06	13816.18
481.24	13937.89
481.41	14391.95
481.59	14396.64
481.77	14824.95
481.95	14335.78
482.13	14520.68
482.31	14546.43
482.49	15000.49
482.67	15164.33
482.85	15014.54
483.03	15463.92
483.21	15602.01
483.39	15700.31
483.57	15229.87
483.74	15695.63
483.92	15857.13
484.10	15606.69
484.28	15901.60
484.46	16177.78
484.64	16315.87
484.82	16243.32
485.00	16315.87
485.18	16723.13
485.35	16556.95
485.53	16353.32
485.71	16184.80
485.89	16552.27
486.07	16423.54
486.25	16994.63
486.43	17170.17
486.61	17291.88
486.78	17280.18
486.96	17432.31
487.14	17713.17
487.32	17706.15
487.50	18010.42
487.68	18235.11
487.85	18696.20
488.03	18555.77
488.21	18836.63
488.39	18473.85
488.57	18995.79
488.75	18820.25
488.92	19290.70
489.10	19594.96
489.28	19711.99
489.46	19997.54
489.64	19789.23
489.81	20346.28
489.99	20269.04
490.17	20489.05
490.35	20538.20
490.53	20451.60
490.70	20563.95
490.88	20425.86
491.06	21130.36
491.24	20868.22
491.41	20987.58
491.59	20783.96
491.77	21270.79
491.95	21186.53
492.13	21586.76
492.30	21565.70
492.48	21638.25
492.66	22038.48
492.84	22108.70
493.01	22118.06
493.19	22295.94
493.37	22850.65
493.54	22684.47
493.72	22527.66
493.90	22787.46
494.08	23309.40
494.25	23536.43
494.43	23374.93
494.61	23798.57
494.79	23604.30
494.96	23562.17
495.14	23651.11
495.32	23880.49
495.49	24091.13
495.67	24219.86
495.85	24372.00
496.02	24439.87
496.20	24673.93
496.38	24737.12
496.55	24828.40
496.73	25502.48
496.91	24807.34
497.09	25294.17
497.26	25481.41
497.44	25200.55
497.62	25458.01
497.79	25385.45
497.97	25511.84
498.14	25359.70
498.32	25921.43
498.50	25776.32
498.67	26022.08
498.85	26153.15
499.03	26436.35
499.20	26721.90
499.38	26419.97
499.56	26366.13
499.73	26691.47
499.91	26824.88
500.08	27206.39
500.26	26490.18
500.44	27065.96
500.61	27009.78
500.79	26991.06
500.97	27154.90
501.14	27377.25
501.32	27243.84
501.49	27271.92
501.67	27405.33
501.84	27562.15
502.02	27564.49
502.20	27927.27
502.37	27946.00
502.55	28203.46
502.72	28407.08
502.90	28271.33
503.07	28290.06
503.25	28662.20
503.43	28311.12
503.60	28517.09
503.78	28634.11
503.95	29003.92
504.13	29156.05
504.30	28835.40
504.48	28797.95
504.65	29032.00
504.83	29092.86
505.01	29469.69
505.18	29390.11
505.36	29961.20
505.53	29649.91
505.71	30110.99
505.88	30108.65
506.06	29804.38
506.23	29926.09
506.41	29930.77
506.58	30221.00
506.76	29956.52
506.93	30408.24
507.11	30204.61
507.28	30576.76
507.46	30700.81
507.63	30604.84
507.81	30661.02
507.98	30630.59
508.16	30909.11
508.33	30885.71
508.50	30991.03
508.68	31229.77
508.85	31590.21
509.03	31288.28
509.20	31534.04
509.38	31625.32
509.55	31527.02
509.73	31723.62
509.90	32091.09
510.08	31840.65
510.25	32051.30
510.42	32039.59
510.60	32210.45
510.77	32369.61
510.95	32245.56
511.12	32421.10
511.30	32645.79
511.47	32938.36
511.64	32678.56
511.82	32704.31
511.99	32456.21
512.17	32996.87
512.34	32570.90
512.51	32924.32
512.69	33223.90
512.86	33448.60
513.04	33214.54
513.21	33706.05
513.38	32889.21
513.56	33373.70
513.73	33139.65
513.90	33455.62
514.08	33221.56
514.25	33488.38
514.43	33366.68
514.60	33755.21
514.77	33989.26
514.95	34015.01
515.12	33851.17
515.29	34122.67
515.47	34242.04
515.64	34806.11
515.81	34314.59
515.99	34132.03
516.16	34218.63
516.33	33717.76
516.51	34202.25
516.68	33675.63
516.85	33539.88
517.03	34101.61
517.20	34670.36
517.37	34459.71
517.54	34630.57
517.72	34700.78
517.89	34384.81
518.06	34623.54
518.24	34330.98
518.41	34527.58
518.58	34581.42
518.75	34693.76
518.93	35889.77
519.10	35414.65
519.27	35597.21
519.45	35435.71
519.62	35669.76
519.79	35587.85
519.96	35665.08
520.14	35782.11
520.31	35770.41
520.48	36343.84
520.65	35723.60
520.83	36598.96
521.00	36671.51
521.17	36339.16
521.34	36514.70
521.52	36437.46
521.69	36964.08
521.86	36533.42
522.03	36666.83
522.20	36685.56
522.38	36818.97
522.55	37354.95
522.72	36758.11
522.89	36861.10
523.07	36858.76
523.24	37053.02
523.41	37490.70
523.58	36823.65
523.75	37862.85
523.92	37886.25
524.10	37577.30
524.27	37759.86
524.44	37787.95
524.61	37759.86
524.78	37741.14
524.96	38047.75
525.13	38089.88
525.30	37998.60
525.47	38202.22
525.64	38298.19
525.81	38124.99
525.98	38101.58
526.16	37493.04
526.33	37684.97
526.50	38160.09
526.67	37820.72
526.84	37720.07
527.01	37832.42
527.18	38403.51
527.36	38403.51
527.53	38597.77
527.70	39220.36
527.87	39360.79
528.04	38967.58
528.21	38960.56
528.38	38869.28
528.55	39351.43
528.72	39178.23
528.89	39395.90
529.07	39047.16
529.24	39805.49
529.41	39372.49
529.58	39084.61
529.75	39416.96
529.92	39129.08
530.09	39468.45
530.26	39643.99
530.43	39920.18
530.60	39414.62
530.77	39665.06
530.94	39721.23
531.11	39306.96
531.28	40144.87
531.46	39981.03
531.63	40126.14
531.80	40030.18
531.97	39896.77
532.14	40275.94
532.31	39866.34
532.48	39739.96
532.65	40470.20
532.82	39859.32
532.99	40648.08
533.16	40067.63
533.33	40343.81
533.50	40697.24
533.67	40774.47
533.84	40414.03
534.01	40685.53
534.18	40217.43
534.35	40779.15
534.52	40790.86
534.69	41375.99
534.86	40823.62
535.03	40720.64
535.20	41223.86
535.37	41345.56
535.54	41687.28
535.71	41352.58
535.88	41680.26
536.05	41230.88
536.22	41315.14
536.38	41088.10
536.55	41151.30
536.72	41193.43
536.89	41167.68
537.06	41450.89
537.23	42021.98
537.40	41731.75
537.57	41256.62
537.74	41308.11
537.91	41724.73
538.08	41698.98
538.25	41352.58
538.42	41628.77
538.59	42218.58
538.75	41429.82
538.92	41982.19
539.09	41682.60
539.26	41916.65
539.43	41841.76
539.60	41666.22
539.77	41694.30
539.94	41727.07
540.11	41958.78
540.28	41965.81
540.44	41846.44
540.61	42078.15
540.78	41867.50
540.95	42263.05
541.12	42155.39
541.29	42513.49
541.46	42504.13
541.62	42300.50
541.79	42506.47
541.96	42646.90
542.13	42253.69
542.30	42337.95
542.47	42749.88
542.63	42459.66
542.80	42684.35
542.97	42902.02
543.14	43241.40
543.31	43035.43
543.48	43140.75
543.64	43922.49
543.81	43627.59
543.98	43145.44
544.15	43227.35
544.32	43398.21
544.48	43730.57
544.65	43262.46
544.82	43681.42
544.99	43227.35
545.16	43618.22
545.32	43449.70
545.49	43622.90
545.66	43849.94
545.83	43878.02
546.00	43878.02
546.16	43880.36
546.33	43889.73
546.50	43264.80
546.67	43777.38
546.83	43522.26
547.00	43938.88
547.17	43618.22
547.34	43835.89
547.50	43599.50
547.67	44196.34
547.84	43653.33
548.00	44170.59
548.17	44367.20
548.34	44048.88
548.51	44357.83
548.67	44367.20
548.84	44315.70
549.01	44601.25
549.18	44079.31
549.34	44619.97
549.51	44657.42
549.68	44334.43
549.84	44074.63
550.01	44041.86
550.18	44505.29
550.34	44325.07
550.51	44589.55
550.68	44449.11
550.84	44060.58
551.01	44456.14
551.18	44491.24
551.34	44758.06
551.51	44526.35
551.68	44671.46
551.84	45244.90
552.01	44631.68
552.18	44584.86
552.34	44818.92
552.51	44755.72
552.68	44720.62
552.84	44914.88
553.01	45312.77
553.18	45010.84
553.34	45235.53
553.51	44999.14
553.67	45244.90
553.84	44919.56
554.01	45326.81
554.17	45418.10
554.34	45116.17
554.51	45600.66
554.67	45635.77
554.84	45261.28
555.00	45078.72
555.17	44964.03
555.33	45378.31
555.50	45352.56
555.67	45268.30
555.83	45542.14
556.00	45750.45
556.16	45823.01
556.33	45848.75
556.50	45532.78
556.66	45333.84
556.83	45647.47
556.99	45785.56
557.16	45619.38
557.32	45221.49
557.49	45595.98
557.65	45441.50
557.82	45567.89
557.98	45289.37
558.15	45886.20
558.32	45490.65
558.48	45617.04
558.65	46080.47
558.81	45296.39
558.98	45801.94
559.14	45963.44
559.31	45811.31
559.47	45661.51
559.64	45951.74
559.80	46251.33
559.97	46209.20
560.13	45661.51
560.30	46021.95
560.46	45970.46
560.63	46274.73
560.79	46052.38
560.96	45783.22
561.12	45907.27
561.29	46101.53
561.45	45830.03
561.61	46174.09
561.78	46057.06
561.94	45940.04
562.11	46450.27
562.27	46188.13
562.44	46490.06
562.60	45764.49
562.77	46349.63
562.93	45633.42
563.10	46096.85
563.26	45862.80
563.42	46117.92
563.59	46061.74
563.75	46071.10
563.92	46344.95
564.08	46457.29
564.24	46164.73
564.41	46525.17
564.57	46267.71
564.74	46115.58
564.90	46686.67
565.07	46361.33
565.23	46330.90
565.39	46274.73
565.56	46361.33
565.72	46373.03
565.88	46270.05
566.05	46770.93
566.21	46466.66
566.38	46066.42
566.54	46354.31
566.70	46920.72
566.87	46733.48
567.03	46986.25
567.19	46897.31
567.36	46443.25
567.52	46394.10
567.68	46866.89
567.85	46529.85
568.01	46380.06
568.17	46300.48
568.34	46756.88
568.50	46576.66
568.66	46667.94
568.83	46653.90
568.99	46459.63
569.15	46485.38
569.32	46621.13
569.48	46260.69
569.64	46738.16
569.81	46300.48
569.97	46674.96
570.13	46363.67
570.30	46415.16
570.46	46382.40
570.62	46155.36
570.78	46274.73
570.95	46256.01
571.11	46775.61
571.27	46277.07
571.43	46445.59
571.60	46890.29
571.76	46429.21
571.92	46827.10
572.09	46541.55
572.25	46770.93
572.41	46637.51
572.57	46773.27
572.74	47199.24
572.90	47061.15
573.06	46574.32
573.22	46681.98
573.38	46593.04
573.55	46497.08
573.71	46794.33
573.87	46571.98
574.03	46101.53
574.20	46955.83
574.36	46700.71
574.52	46457.29
574.68	46672.62
574.84	46813.05
575.01	46855.18
575.17	46642.20
575.33	46248.99
575.49	46796.67
575.65	47295.21
575.82	47229.67
575.98	46747.52
576.14	46717.09
576.30	46747.52
576.46	46806.03
576.62	46642.20
576.79	46607.09
576.95	46361.33
577.11	46944.12
577.27	46841.14
577.43	46937.10
577.59	46480.70
577.75	46604.75
577.92	46363.67
578.08	46424.53
578.24	46160.05
578.40	46508.79
578.56	46745.18
578.72	46637.51
578.88	47070.51
579.04	47222.65
579.21	46401.12
579.37	46810.71
579.53	46691.35
579.69	46848.16
579.85	46712.41
580.01	47187.54
580.17	46927.74
580.33	46625.81
580.49	46829.44
580.65	46897.31
580.82	46665.60
580.98	46705.39
581.14	46319.20
581.30	47089.24
581.46	46831.78
581.62	46974.55
581.78	47110.30
581.94	47234.35
582.10	46855.18
582.26	46756.88
582.42	46684.33
582.58	47239.03
582.74	46579.00
582.90	46555.60
583.06	47213.29
583.22	47187.54
583.38	46962.85
583.54	46796.67
583.70	46838.80
583.86	47047.11
584.02	46597.73
584.18	46930.08
584.34	46642.20
584.50	46714.75
584.66	47334.99
584.82	47019.02
584.98	47281.16
585.14	46754.54
585.30	46401.12
585.46	46934.76
585.62	46370.69
585.78	46993.28
585.94	46698.37
586.10	46731.14
586.26	46698.37
586.42	46555.60
586.58	47068.17
586.74	46780.29
586.90	46677.30
587.06	46784.97
587.22	47014.34
587.38	46995.62
587.54	47026.04
587.70	47065.83
587.86	46672.62
588.02	46719.43
588.18	47257.76
588.34	46817.74
588.49	46466.66
588.65	46267.71
588.81	46469.00
588.97	46277.07
589.13	46017.27
589.29	46534.53
589.45	46471.34
589.61	46955.83
589.77	46902.00
589.93	47267.12
