SpectraSuite Data File
++++++++++++++++++++++++++++++++++++
Date: Fri Oct 25 11:24:01 EDT 2013
User: price-jones
Dark Spectrum Present: No
Reference Spectrum Present: No
Number of Sampled Component Spectra: 1
Spectrometers: USB2+H05261
Integration Time (usec): 100000 (USB2+H05261)
Spectra Averaged: 1 (USB2+H05261)
Boxcar Smoothing: 0 (USB2+H05261)
Correct for Electrical Dark: No (USB2+H05261)
Strobe/Lamp Enabled: No (USB2+H05261)
Correct for Detector Non-linearity: No (USB2+H05261)
Correct for Stray Light: No (USB2+H05261)
Number of Pixels in Processed Spectrum: 2048
>>>>>Begin Processed Spectral Data<<<<<
365.73	241.08
365.92	241.08
366.12	241.08
366.32	222.35
366.52	102.98
366.72	196.60
366.91	133.41
367.11	117.03
367.31	208.31
367.51	140.43
367.70	72.56
367.90	149.79
368.10	149.79
368.30	194.26
368.49	128.73
368.69	198.95
368.89	128.73
369.09	170.86
369.28	180.22
369.48	201.29
369.68	170.86
369.87	173.20
370.07	170.86
370.27	273.84
370.47	386.19
370.66	599.18
370.86	657.69
371.06	641.31
371.25	641.31
371.45	643.65
371.65	624.92
371.84	615.56
372.04	748.97
372.24	748.97
372.44	699.82
372.63	737.27
372.83	739.61
373.03	734.93
373.22	702.16
373.42	837.91
373.62	784.08
373.81	765.36
374.01	917.49
374.21	774.72
374.40	870.68
374.60	711.52
374.79	760.67
374.99	858.98
375.19	814.51
375.38	903.45
375.58	821.53
375.78	842.59
375.97	807.48
376.17	945.58
376.37	929.19
376.56	891.74
376.76	856.64
376.95	819.19
377.15	889.40
377.35	987.71
377.54	877.70
377.74	844.93
377.93	873.02
378.13	887.06
378.33	936.21
378.52	976.00
378.72	971.32
378.91	985.37
379.11	929.19
379.31	983.02
379.50	973.66
379.70	947.92
379.89	947.92
380.09	983.02
380.28	978.34
380.48	917.49
380.68	1004.09
380.87	959.62
381.07	959.62
381.26	959.62
381.46	1034.52
381.65	978.34
381.85	1039.20
382.04	1076.65
382.24	1015.79
382.43	1081.33
382.63	1029.84
382.83	1043.88
383.02	1053.24
383.22	1151.54
383.41	1102.39
383.61	1036.86
383.80	1165.59
384.00	1142.18
384.19	985.37
384.39	1174.95
384.58	1174.95
384.78	1205.38
384.97	1107.07
385.17	1078.99
385.36	1111.75
385.56	1179.63
385.75	1179.63
385.95	1200.69
386.14	1224.10
386.34	1181.97
386.53	1240.48
386.72	1200.69
386.92	1306.02
387.11	1256.87
387.31	1226.44
387.50	1231.12
387.70	1214.74
387.89	1252.19
388.09	1336.45
388.28	1348.15
388.48	1338.79
388.67	1294.32
388.86	1235.80
389.06	1427.73
389.25	1331.76
389.45	1341.13
389.64	1385.60
389.84	1444.11
390.03	1413.68
390.22	1416.02
390.42	1394.96
390.61	1369.21
390.81	1392.62
391.00	1409.00
391.19	1397.30
391.39	1455.81
391.58	1497.94
391.78	1476.88
391.97	1425.39
392.16	1434.75
392.36	1584.54
392.55	1556.46
392.75	1490.92
392.94	1493.26
393.13	1519.01
393.33	1542.41
393.52	1530.71
393.71	1528.37
393.91	1556.46
394.10	1582.20
394.29	1624.33
394.49	1516.67
394.68	1624.33
394.88	1577.52
395.07	1715.61
395.26	1668.80
395.46	1633.69
395.65	1657.10
395.84	1668.80
396.04	1811.57
396.23	1715.61
396.42	1769.44
396.62	1680.50
396.81	1755.40
397.00	1734.34
397.19	1867.75
397.39	1813.92
397.58	1802.21
397.77	1732.00
397.97	1846.68
398.16	1799.87
398.35	1816.26
398.55	1799.87
398.74	1991.80
398.93	1966.05
399.12	2001.16
399.32	1888.81
399.51	1928.60
399.70	2054.99
399.90	2001.16
400.09	2015.20
400.28	2092.44
400.47	2054.99
400.67	2129.89
400.86	1952.01
401.05	2066.69
401.24	2197.76
401.44	2057.33
401.63	2087.76
401.82	2125.21
402.01	2062.01
402.21	2146.27
402.40	2087.76
402.59	2272.66
402.78	2251.60
402.97	2232.87
403.17	2338.20
403.36	2214.15
403.55	2277.34
403.74	2312.45
403.93	2345.22
404.13	2382.67
404.32	2324.15
404.51	2424.80
404.70	2319.47
404.89	2499.69
405.09	2483.31
405.28	2495.01
405.47	2520.76
405.66	2452.88
405.85	2541.82
406.05	2506.71
406.24	2541.82
406.43	2588.63
406.62	2656.51
406.81	2703.32
407.00	2647.15
407.20	2509.05
407.39	2614.38
407.58	2644.81
407.77	2628.42
407.96	2792.26
408.15	2780.56
408.34	2703.32
408.54	2799.28
408.73	2815.66
408.92	2888.22
409.11	2965.46
409.30	2864.82
409.49	2995.89
409.68	2883.54
409.87	2867.16
410.07	2881.20
410.26	2925.67
410.45	2928.01
410.64	3133.98
410.83	2988.86
411.02	3206.53
411.21	3297.81
411.40	3143.34
411.59	3337.60
411.78	3197.17
411.98	3267.39
412.17	3241.64
412.36	3403.14
412.55	3405.48
412.74	3438.25
412.93	3475.70
413.12	3365.69
413.31	3529.53
413.50	3475.70
413.69	3597.40
413.88	3637.19
414.07	3679.32
414.26	3630.17
414.45	3672.30
414.64	3775.28
414.83	3705.07
415.02	3829.12
415.22	3824.44
415.41	3953.16
415.60	3990.61
415.79	3925.08
415.98	3815.07
416.17	3836.14
416.36	4035.08
416.55	4037.42
416.74	4058.49
416.93	4189.56
417.12	4086.58
417.31	4182.54
417.50	4175.52
417.69	4259.78
417.88	4222.33
418.07	4325.31
418.26	4259.78
418.45	4332.33
418.64	4367.44
418.83	4322.97
419.02	4500.85
419.21	4545.32
419.39	4414.25
419.58	4606.17
419.77	4535.96
419.96	4531.28
420.15	4559.36
420.34	4554.68
420.53	4566.39
420.72	4594.47
420.91	4741.93
421.10	4734.90
421.29	4816.82
421.48	4596.81
421.67	4706.82
421.86	4746.61
422.05	4739.58
422.24	4791.08
422.43	4870.65
422.61	4898.74
422.80	4980.66
422.99	4947.89
423.18	4849.59
423.37	4851.93
423.56	5078.96
423.75	5020.45
423.94	4896.40
424.13	4765.33
424.32	4805.12
424.50	5048.54
424.69	5036.83
424.88	5046.20
425.07	4943.21
425.26	4978.32
425.45	5015.77
425.64	4940.87
425.83	5055.56
426.01	5064.92
426.20	5163.22
426.39	5207.69
426.58	5076.62
426.77	4936.19
426.96	5048.54
427.15	5041.51
427.33	5331.74
427.52	5308.34
427.71	5371.53
427.90	5228.76
428.09	5355.15
428.28	5359.83
428.46	5366.85
428.65	5500.26
428.84	5633.67
429.03	5631.33
429.22	5343.44
429.40	5596.22
429.59	5558.77
429.78	5146.84
429.97	5420.68
430.16	5579.84
430.34	5605.58
430.53	5703.89
430.72	5577.50
430.91	5636.01
431.10	5626.65
431.28	5626.65
431.47	5769.42
431.66	5771.76
431.85	5753.04
432.03	6012.84
432.22	6040.92
432.41	5973.05
432.60	5872.40
432.79	5923.90
432.97	5907.51
433.16	5973.05
433.35	5912.19
433.54	6118.16
433.72	6113.48
433.91	6164.97
434.10	6218.80
434.28	6106.46
434.47	6434.13
434.66	6422.43
434.85	6380.30
435.03	6197.74
435.22	6279.66
435.41	6370.94
435.59	6541.80
435.78	6333.49
435.97	6525.41
436.16	6310.08
436.34	6478.60
436.53	6614.35
436.72	6668.19
436.90	6497.33
437.09	6785.21
437.28	6677.55
437.46	6626.06
437.65	6562.86
437.84	6698.61
438.02	6593.29
438.21	6881.18
438.40	6558.18
438.58	7061.40
438.77	7096.50
438.96	6956.07
439.14	7288.43
439.33	7274.38
439.52	7199.49
439.70	7208.85
439.89	7307.15
440.08	7428.86
440.26	7494.40
440.45	7318.86
440.63	7447.58
440.82	7721.43
441.01	7562.27
441.19	7559.93
441.38	7667.60
441.57	7896.97
441.75	7611.42
441.94	7953.14
442.12	7999.95
442.31	8170.81
442.50	8226.98
442.68	7880.58
442.87	7868.88
443.05	8205.92
443.24	8173.15
443.43	8280.82
443.61	8351.03
443.80	8376.78
443.98	7955.48
444.17	7852.50
444.35	8313.58
444.54	8294.86
444.73	8428.27
444.91	8402.52
445.10	8315.92
445.28	8344.01
445.47	8234.00
445.65	8243.37
445.84	8484.44
446.02	8425.93
446.21	8564.02
446.39	8587.43
446.58	8678.71
446.77	8456.36
446.95	8449.33
447.14	8386.14
447.32	8507.85
447.51	8278.47
447.69	8484.44
447.88	8421.25
448.06	8580.40
448.25	8498.49
448.43	8624.87
448.62	8688.07
448.80	8676.37
448.99	8610.83
449.17	8711.47
449.36	8564.02
449.54	8865.95
449.73	8968.93
449.91	8887.01
450.10	8952.55
450.28	9331.72
450.46	9081.28
450.65	8992.34
450.83	9018.08
451.02	9011.06
451.20	9188.94
451.39	9245.12
451.57	9179.58
451.76	9004.04
451.94	9111.71
452.13	9320.01
452.31	9366.82
452.49	9200.65
452.68	9373.85
452.86	9350.44
453.05	9502.58
453.23	9465.13
453.42	9348.10
453.60	9385.55
453.78	9610.24
453.97	9568.11
454.15	9565.77
454.34	9486.19
454.52	9664.07
454.70	10043.24
454.89	9923.87
455.07	9886.42
455.26	9851.31
455.44	9968.34
455.62	9905.15
455.81	9958.98
455.99	10207.08
456.17	10005.79
456.36	10136.86
456.54	10101.75
456.73	10218.78
456.91	10431.77
457.09	10441.13
457.28	10600.29
457.46	10221.12
457.64	10672.84
457.83	10532.41
458.01	10284.31
458.19	10775.83
458.38	10689.23
458.56	10782.85
458.74	10628.37
458.93	10972.43
459.11	10768.80
459.29	10630.71
459.48	10862.43
459.66	10672.84
459.84	11052.01
460.03	11028.60
460.21	11037.97
460.39	10911.58
460.57	10892.85
460.76	11030.94
460.94	11424.15
461.12	11328.19
461.31	11192.44
461.49	11007.54
461.67	11351.60
461.85	11442.88
462.04	11269.68
462.22	11520.12
462.40	11618.42
462.59	11660.55
462.77	11639.48
462.95	11700.34
463.13	11793.96
463.32	11775.24
463.50	11805.66
463.68	11763.53
463.86	12105.25
464.05	11660.55
464.23	11705.02
464.41	11969.50
464.59	11536.50
464.78	12175.47
464.96	11995.25
465.14	11838.43
465.32	12086.53
465.50	12067.80
465.69	12224.62
465.87	12065.46
466.05	12159.08
466.23	12435.27
466.41	12421.22
466.60	12603.78
466.78	12416.54
466.96	12386.12
467.14	12329.94
467.32	12400.16
467.51	12463.35
467.69	12510.16
467.87	12650.60
468.05	12699.75
468.23	12732.51
468.41	12641.23
468.60	12645.91
468.78	12877.63
468.96	12402.50
469.14	12762.94
469.32	13139.77
469.50	12645.91
469.69	12814.43
469.87	13486.17
470.05	13142.11
470.23	13200.62
470.41	13341.05
470.59	13338.71
470.77	13376.16
470.95	13359.78
471.14	13605.53
471.32	13177.22
471.50	13521.27
471.68	13767.03
471.86	13760.01
472.04	13788.10
472.22	13961.30
472.40	13792.78
472.58	13881.72
472.77	13970.66
472.95	14288.97
473.13	14586.22
473.31	14122.79
473.49	14216.41
473.67	14218.75
473.85	14616.65
474.03	14775.80
474.21	14640.05
474.39	14815.59
474.57	14611.96
474.75	14796.87
474.93	14768.78
475.12	15091.77
475.30	15325.83
475.48	14979.43
475.66	15463.92
475.84	15159.65
476.02	15356.25
476.20	15690.95
476.38	15800.96
476.56	16079.48
476.74	16030.33
476.92	16049.05
477.10	15950.75
477.28	16142.67
477.46	16313.53
477.64	16346.30
477.82	16821.43
478.00	16959.52
478.18	16666.95
478.36	17078.89
478.54	17135.06
478.72	17406.56
478.90	17483.80
479.08	17444.01
479.26	17898.08
479.44	17572.74
479.62	17806.80
479.80	17635.94
479.98	18401.29
480.16	19084.73
480.34	18389.59
480.52	18768.76
480.70	18635.35
480.88	18452.78
481.06	18932.59
481.24	18710.24
481.41	19337.51
481.59	19477.94
481.77	19723.69
481.95	19690.93
482.13	19798.59
482.31	19800.93
482.49	20079.46
482.67	20353.30
482.85	20423.51
483.03	20692.68
483.21	20854.17
483.39	21076.52
483.57	21064.82
483.74	21195.89
483.92	21493.14
484.10	21247.38
484.28	21738.90
484.46	22012.74
484.64	22434.03
484.82	21975.29
485.00	22511.27
485.18	23002.78
485.35	23103.43
485.53	22878.74
485.71	23215.77
485.89	23920.28
486.07	23323.44
486.25	23482.59
486.43	23733.03
486.61	23948.36
486.78	24243.27
486.96	24416.47
487.14	24680.95
487.32	24947.77
487.50	25120.97
487.68	25219.27
487.85	25551.63
488.03	25692.06
488.21	25830.15
488.39	25954.20
488.57	25928.45
488.75	26274.85
488.92	26574.44
489.10	26651.68
489.28	26911.48
489.46	27421.72
489.64	27194.68
489.81	27988.13
489.99	27967.06
490.17	27779.82
490.35	28034.94
490.53	28177.71
490.70	28517.09
490.88	28210.48
491.06	28842.42
491.24	28849.44
491.41	29392.45
491.59	29820.77
491.77	29324.57
491.95	29816.08
492.13	30085.25
492.30	29972.90
492.48	30338.02
492.66	30178.87
492.84	30438.67
493.01	30817.83
493.19	30808.47
493.37	31307.01
493.54	30965.29
493.72	32098.11
493.90	31295.30
494.08	31608.93
494.25	32161.30
494.43	32004.49
494.61	32673.88
494.79	32517.06
494.96	32994.53
495.14	32971.13
495.32	33244.97
495.49	33163.05
495.67	33567.96
495.85	33497.75
496.02	34120.33
496.20	34153.10
496.38	34267.78
496.55	34153.10
496.73	34906.75
496.91	34684.40
497.09	34864.62
497.26	34862.28
497.44	35480.18
497.62	35309.32
497.79	36070.00
497.97	35314.00
498.14	36072.34
498.32	35871.05
498.50	36503.00
498.67	36961.74
498.85	36414.05
499.03	36636.41
499.20	36664.49
499.38	36861.10
499.56	37256.65
499.73	37153.66
499.91	37556.24
500.08	37432.19
500.26	37413.46
500.44	37780.93
500.61	38075.84
500.79	38611.82
500.97	38211.59
501.14	38913.75
501.32	39056.52
501.49	38408.19
501.67	38742.89
501.84	39002.69
502.02	38550.96
502.20	39349.09
502.37	39445.05
502.55	39196.95
502.72	39957.63
502.90	39693.15
503.07	39629.95
503.25	40229.13
503.43	39728.25
503.60	40247.85
503.78	40446.80
503.95	40589.57
504.13	41069.38
504.30	40830.65
504.48	40914.90
504.65	40767.45
504.83	41003.85
505.01	41689.62
505.18	41563.23
505.36	41890.91
505.53	41577.28
505.71	41989.21
505.88	42286.46
506.06	41698.98
506.23	42124.96
506.41	41839.42
506.58	42005.59
506.76	42440.93
506.93	42677.33
507.11	42394.12
507.28	42572.00
507.46	42892.66
507.63	43072.88
507.81	43934.20
507.98	42990.96
508.16	43409.92
508.33	43328.00
508.50	43672.06
508.68	43941.22
508.85	43971.64
509.03	44526.35
509.20	44032.50
509.38	44486.56
509.55	44734.66
509.73	44320.38
509.90	44776.79
510.08	44793.17
510.25	45237.87
510.42	44706.57
510.60	45106.80
510.77	45535.12
510.95	45752.79
511.12	45172.34
511.30	45558.53
511.47	45443.84
511.64	46155.36
511.82	46351.97
511.99	45848.75
512.17	46618.79
512.34	46253.67
512.51	46457.29
512.69	46717.09
512.86	46653.90
513.04	46799.01
513.21	46754.54
513.38	46983.91
513.56	47562.03
513.73	46644.54
513.90	47243.71
514.08	47157.11
514.25	47168.82
514.43	47435.64
514.60	47606.50
514.77	47810.12
514.95	47899.06
515.12	47695.44
515.29	47737.57
515.47	48184.61
515.64	48507.60
515.81	48313.34
515.99	48538.03
516.16	49036.56
516.33	48350.79
516.51	48615.27
516.68	48406.96
516.85	48837.62
517.03	49291.68
517.20	49179.34
517.37	48924.22
517.54	49165.29
517.72	49385.30
517.89	49017.84
518.06	49338.49
518.24	49315.09
518.41	49394.67
518.58	49406.37
518.75	49652.12
518.93	49947.03
519.10	49879.16
519.27	49977.46
519.45	50106.19
519.62	50342.58
519.79	50157.68
519.96	49975.12
520.14	50351.94
520.31	50281.73
520.48	50403.44
520.65	50464.29
520.83	50747.50
521.00	50660.90
521.17	50791.97
521.34	50719.41
521.52	50780.26
521.69	50782.60
521.86	51290.50
522.03	51332.63
522.20	51512.85
522.38	51632.22
522.55	51573.70
522.72	51260.07
522.89	51774.99
523.07	52079.26
523.24	51557.32
523.41	51885.00
523.58	51632.22
523.75	52020.75
523.92	51983.30
524.10	51931.81
524.27	52268.84
524.44	52392.89
524.61	52589.50
524.78	52474.81
524.96	52381.19
525.13	52413.96
525.30	52889.09
525.47	52580.13
525.64	52640.99
525.81	52800.15
525.98	52938.24
526.16	52587.16
526.33	52687.80
526.50	53041.22
526.67	52615.24
526.84	53162.93
527.01	53062.29
527.18	53017.82
527.36	53188.67
527.53	53066.97
527.70	53429.75
527.87	53645.08
528.04	53198.04
528.21	53499.97
528.38	53240.17
528.55	53439.11
528.72	53312.72
528.89	53628.69
529.07	53738.70
529.24	53565.50
529.41	53872.11
529.58	53977.43
529.75	54033.61
529.92	53806.58
530.09	53984.46
530.26	53757.42
530.43	54265.32
530.60	54059.35
530.77	54096.80
530.94	54080.42
531.11	53832.32
531.28	54148.29
531.46	54312.13
531.63	54438.52
531.80	54307.45
531.97	54574.27
532.14	54365.96
532.31	54604.70
532.48	54855.14
532.65	54609.38
532.82	54398.73
532.99	54962.80
533.16	54670.23
533.33	54990.89
533.50	54990.89
533.67	54934.71
533.84	54892.58
534.01	54997.91
534.18	55304.52
534.35	55332.60
534.52	55091.53
534.69	55271.75
534.86	55416.86
535.03	55175.79
535.20	55236.64
535.37	55648.58
535.54	55571.34
535.71	55531.55
535.88	55576.02
536.05	55524.53
536.22	55583.04
536.38	55749.22
536.55	55793.69
536.72	55704.75
536.89	55454.31
537.06	55704.75
537.23	55882.63
537.40	55655.60
537.57	55674.32
537.74	55943.48
537.91	56123.71
538.08	56219.67
538.25	55821.78
538.42	55936.46
538.59	56332.01
538.75	55835.82
538.92	56404.57
539.09	56463.08
539.26	56189.24
539.43	56254.78
539.60	56498.19
539.77	56706.50
539.94	56573.09
540.11	56420.95
540.28	56662.03
540.44	56570.75
540.61	56685.43
540.78	56697.14
540.95	56463.08
541.12	56329.67
541.29	56647.99
541.46	56561.39
541.62	56715.86
541.79	56647.99
541.96	56643.30
542.13	56718.20
542.30	56736.93
542.47	56985.02
542.63	56882.04
542.80	56851.61
542.97	57183.97
543.14	57153.54
543.31	56980.34
543.48	57158.22
543.64	57460.15
543.81	57705.91
543.98	57427.38
544.15	57464.83
544.32	57556.11
544.48	57705.91
544.65	57485.90
544.82	57628.67
544.99	57347.81
545.16	57626.33
545.32	57703.57
545.49	57790.17
545.66	58010.18
545.83	57839.32
546.00	57867.40
546.16	57930.60
546.33	57832.30
546.50	57581.86
546.67	57916.56
546.83	57687.18
547.00	57804.21
547.17	57818.25
547.34	57879.11
547.50	57977.41
547.67	58213.80
547.84	57930.60
548.00	58466.58
548.17	58473.60
548.34	58136.57
548.51	58152.95
548.67	58391.68
548.84	58356.58
549.01	58071.03
549.18	58431.47
549.34	58192.74
549.51	58450.20
549.68	58452.54
549.84	58340.19
550.01	58473.60
550.18	58445.52
550.34	58457.22
550.51	58548.50
550.68	58604.67
550.84	58454.88
551.01	58691.27
551.18	58574.25
551.34	58714.68
551.51	58468.92
551.68	58726.38
551.84	58492.33
552.01	58562.54
552.18	58913.62
552.34	58700.64
552.51	58838.73
552.68	58681.91
552.84	58871.49
553.01	59119.59
553.18	58972.14
553.34	59002.56
553.51	59110.23
553.67	58941.71
553.84	59105.55
554.01	58986.18
554.17	59194.49
554.34	58925.33
554.51	59018.95
554.67	59178.10
554.84	59112.57
555.00	59093.85
555.17	59304.49
555.33	59147.68
555.50	58937.03
555.67	59044.69
555.83	58983.84
556.00	59157.04
556.16	59721.11
556.33	59470.67
556.50	59428.54
556.66	59564.29
556.83	59224.92
556.99	59585.36
557.16	59442.59
557.32	59655.57
557.49	59718.77
557.65	59531.53
557.82	59468.33
557.98	59554.93
558.15	59655.57
558.32	59465.99
558.48	59391.09
558.65	59526.84
558.81	59601.74
558.98	59496.42
559.14	59657.91
559.31	59786.64
559.47	59955.16
559.64	59936.44
559.80	59814.73
559.97	59770.26
560.13	59503.44
560.30	59945.80
560.46	59866.22
560.63	59847.50
560.79	60151.77
560.96	60011.34
561.12	60037.08
561.29	60025.38
561.45	59969.21
561.61	59793.67
561.78	59906.01
561.94	59859.20
562.11	59901.33
562.27	60013.68
562.44	59854.52
562.60	60130.70
562.77	60046.44
562.93	59950.48
563.10	60198.58
563.26	60001.97
563.42	60397.52
563.59	60062.83
563.75	59955.16
563.92	60196.24
564.08	60371.78
564.24	60259.43
564.41	60207.94
564.57	60282.84
564.74	60303.90
564.90	60191.56
565.07	60165.81
565.23	60294.54
565.39	60212.62
565.56	60507.53
565.72	60095.60
565.88	60544.98
566.05	60119.00
566.21	60236.03
566.38	60463.06
566.54	60355.39
566.70	60603.49
566.87	60360.08
567.03	60081.55
567.19	60718.18
567.36	60533.28
567.52	60472.42
567.68	60544.98
567.85	60369.44
568.01	60573.06
568.17	60371.78
568.34	60446.68
568.50	60439.65
568.66	60259.43
568.83	60516.89
568.99	60369.44
569.15	60643.28
569.32	60413.91
569.48	60519.23
569.64	60676.05
569.81	60685.41
569.97	60533.28
570.13	60640.94
570.30	60629.24
570.46	60598.81
570.62	60589.45
570.78	60671.37
570.95	60584.77
571.11	60790.73
571.27	60589.45
571.43	60676.05
571.60	60804.78
571.76	60704.13
571.92	60502.85
572.09	60790.73
572.25	60615.19
572.41	60790.73
572.57	60774.35
572.74	61006.06
572.90	60835.20
573.06	60743.92
573.22	60828.18
573.38	60666.69
573.55	60729.88
573.71	61041.17
573.87	60912.44
574.03	60580.09
574.20	60776.69
574.36	60722.86
574.52	60849.25
574.68	60807.12
574.84	60942.87
575.01	60788.39
575.17	60874.99
575.33	60720.52
575.49	60970.96
575.65	60734.56
575.82	60959.25
575.98	60720.52
576.14	61080.96
576.30	60921.80
576.46	61031.81
576.62	60926.49
576.79	60664.35
576.95	60631.58
577.11	60973.30
577.27	60898.40
577.43	60921.80
577.59	60893.72
577.75	61043.51
577.92	60624.56
578.08	60729.88
578.24	61087.98
578.40	60917.12
578.56	61118.41
578.72	60900.74
578.88	61043.51
579.04	61111.39
579.21	61097.34
579.37	61116.07
579.53	61219.05
579.69	60917.12
579.85	60954.57
580.01	61050.53
580.17	60886.70
580.33	61085.64
580.49	61214.37
580.65	61134.79
580.82	60872.65
580.98	60919.46
581.14	60935.85
581.30	61188.63
581.46	61036.49
581.62	61031.81
581.78	61137.13
581.94	60926.49
582.10	61022.45
582.26	61017.77
582.42	61085.64
582.58	61001.38
582.74	60975.64
582.90	60874.99
583.06	60935.85
583.22	60949.89
583.38	61048.19
583.54	61153.52
583.70	61127.77
583.86	61064.58
584.02	60966.27
584.18	61106.71
584.34	61165.22
584.50	61123.09
584.66	61015.43
584.82	60884.36
584.98	61315.01
585.14	61247.14
585.30	60961.59
585.46	61036.49
585.62	61134.79
585.78	61085.64
585.94	60935.85
586.10	61151.18
586.26	61132.45
586.42	61392.25
586.58	61263.52
586.74	61202.67
586.90	61102.03
587.06	61045.85
587.22	61188.63
587.38	61364.17
587.54	61249.48
587.70	61345.44
587.86	61127.77
588.02	61076.28
588.18	61148.84
588.34	61221.39
588.49	61162.88
