SpectraSuite Data File
++++++++++++++++++++++++++++++++++++
Date: Fri Oct 25 11:34:09 EDT 2013
User: price-jones
Dark Spectrum Present: No
Reference Spectrum Present: No
Number of Sampled Component Spectra: 1
Spectrometers: USB2+H05261
Integration Time (usec): 100000 (USB2+H05261)
Spectra Averaged: 1 (USB2+H05261)
Boxcar Smoothing: 0 (USB2+H05261)
Correct for Electrical Dark: No (USB2+H05261)
Strobe/Lamp Enabled: No (USB2+H05261)
Correct for Detector Non-linearity: No (USB2+H05261)
Correct for Stray Light: No (USB2+H05261)
Number of Pixels in Processed Spectrum: 2048
>>>>>Begin Processed Spectral Data<<<<<
365.73	290.23
365.92	290.23
366.12	290.23
366.32	198.95
366.52	191.92
366.72	248.10
366.91	147.45
367.11	238.73
367.31	220.01
367.51	131.07
367.70	180.22
367.90	124.05
368.10	187.24
368.30	117.03
368.49	145.11
368.69	245.76
368.89	220.01
369.09	227.03
369.28	180.22
369.48	231.71
369.68	266.82
369.87	306.61
370.07	208.31
370.27	262.14
370.47	332.36
370.66	535.98
370.86	472.79
371.06	484.49
371.25	538.32
371.45	503.22
371.65	540.66
371.84	564.07
372.04	568.75
372.24	599.18
372.44	545.34
372.63	578.11
372.83	594.50
373.03	596.84
373.22	545.34
373.42	662.37
373.62	678.76
373.81	620.24
374.01	695.14
374.21	683.44
374.40	641.31
374.60	615.56
374.79	594.50
374.99	629.60
375.19	681.10
375.38	648.33
375.58	613.22
375.78	681.10
375.97	676.41
376.17	760.67
376.37	561.73
376.56	667.05
376.76	641.31
376.95	641.31
377.15	678.76
377.35	634.29
377.54	746.63
377.74	737.27
377.93	653.01
378.13	723.23
378.33	737.27
378.52	671.73
378.72	674.07
378.91	699.82
379.11	674.07
379.31	709.18
379.50	655.35
379.70	669.39
379.89	697.48
380.09	788.76
380.28	781.74
380.48	798.12
380.68	720.88
380.87	681.10
381.07	760.67
381.26	784.08
381.46	657.69
381.65	777.06
381.85	828.55
382.04	856.64
382.24	767.70
382.43	727.91
382.63	765.36
382.83	805.14
383.02	802.80
383.22	763.01
383.41	767.70
383.61	791.10
383.80	774.72
384.00	704.50
384.19	851.96
384.39	781.74
384.58	880.04
384.78	793.44
384.97	816.85
385.17	819.19
385.36	706.84
385.56	828.55
385.75	847.27
385.95	823.87
386.14	863.66
386.34	727.91
386.53	917.49
386.72	795.78
386.92	933.87
387.11	884.72
387.31	866.00
387.50	835.57
387.70	802.80
387.89	891.74
388.09	849.61
388.28	835.57
388.48	849.61
388.67	903.45
388.86	922.17
389.06	868.34
389.25	964.30
389.45	947.92
389.64	905.79
389.84	945.58
390.03	931.53
390.22	947.92
390.42	997.07
390.61	922.17
390.81	968.98
391.00	1050.90
391.19	978.34
391.39	866.00
391.58	1018.13
391.78	999.41
391.97	1020.47
392.16	868.34
392.36	1001.75
392.55	1041.54
392.75	1093.03
392.94	952.60
393.13	1020.47
393.33	1032.18
393.52	1057.92
393.71	1034.52
393.91	1116.44
394.10	1053.24
394.29	1048.56
394.49	1015.79
394.68	1076.65
394.88	1149.20
395.07	1095.37
395.26	1135.16
395.46	1078.99
395.65	1130.48
395.84	1252.19
396.04	1142.18
396.23	1249.85
396.42	1158.57
396.62	1188.99
396.81	1217.08
397.00	1116.44
397.19	1198.35
397.39	1137.50
397.58	1214.74
397.77	1240.48
397.97	1200.69
398.16	1198.35
398.35	1266.23
398.55	1224.10
398.74	1170.27
398.93	1188.99
399.12	1273.25
399.32	1233.46
399.51	1221.76
399.70	1322.40
399.90	1308.36
400.09	1270.91
400.28	1397.30
400.47	1411.34
400.67	1350.49
400.86	1406.66
401.05	1460.49
401.24	1380.92
401.44	1317.72
401.63	1401.98
401.82	1383.26
402.01	1369.21
402.21	1418.36
402.40	1486.24
402.59	1411.34
402.78	1469.86
402.97	1423.05
403.17	1474.54
403.36	1579.86
403.55	1554.12
403.74	1598.59
403.93	1584.54
404.13	1570.50
404.32	1528.37
404.51	1577.52
404.70	1577.52
404.89	1610.29
405.09	1715.61
405.28	1682.85
405.47	1666.46
405.66	1706.25
405.85	1671.14
406.05	1703.91
406.24	1666.46
406.43	1652.42
406.62	1832.64
406.81	1804.55
407.00	1774.13
407.20	1795.19
407.39	1692.21
407.58	1832.64
407.77	1860.73
407.96	1823.28
408.15	1727.32
408.34	1818.60
408.54	1870.09
408.73	1792.85
408.92	1877.11
409.11	1982.43
409.30	1935.62
409.49	1930.94
409.68	1919.24
409.87	1961.37
410.07	1980.09
410.26	2073.71
410.45	1994.14
410.64	2090.10
410.83	2069.03
411.02	2115.84
411.21	2106.48
411.40	2031.58
411.59	2172.02
411.78	2073.71
411.98	2104.14
412.17	2134.57
412.36	2267.98
412.55	2275.00
412.74	2244.57
412.93	2218.83
413.12	2207.13
413.31	2413.09
413.50	2286.70
413.69	2286.70
413.88	2495.01
414.07	2438.84
414.26	2476.29
414.45	2380.32
414.64	2352.24
414.83	2551.18
415.02	2452.88
415.22	2551.18
415.41	2616.72
415.60	2642.46
415.79	2626.08
415.98	2684.59
416.17	2675.23
416.36	2708.00
416.55	2628.42
416.74	2736.09
416.93	2757.15
417.12	2796.94
417.31	2789.92
417.50	2789.92
417.69	2967.80
417.88	2834.39
418.07	2834.39
418.26	2895.24
418.45	2951.42
418.64	2916.31
418.83	2967.80
419.02	3002.91
419.21	3059.08
419.39	3049.72
419.58	2928.01
419.77	2988.86
419.96	3073.12
420.15	3141.00
420.34	3026.31
420.53	3126.96
420.72	3183.13
420.91	3183.13
421.10	3192.49
421.29	3229.94
421.48	3281.43
421.67	3136.32
421.86	3251.00
422.05	3122.27
422.24	3117.59
422.43	3073.12
422.61	3222.92
422.80	3386.76
422.99	3344.63
423.18	3356.33
423.37	3419.52
423.56	3293.13
423.75	3384.41
423.94	3272.07
424.13	3190.15
424.32	3094.19
424.50	3279.09
424.69	3375.05
424.88	3342.28
425.07	3480.38
425.26	3342.28
425.45	3251.00
425.64	3342.28
425.83	3485.06
426.01	3447.61
426.20	3412.50
426.39	3454.63
426.58	3304.84
426.77	3461.65
426.96	3375.05
427.15	3389.10
427.33	3555.27
427.52	3522.51
427.71	3527.19
427.90	3545.91
428.09	3609.11
428.28	3555.27
428.46	3618.47
428.65	3616.13
428.84	3721.45
429.03	3794.01
429.22	3723.79
429.40	3672.30
429.59	3695.71
429.78	3485.06
429.97	3641.87
430.16	3684.00
430.34	3794.01
430.53	3889.97
430.72	3777.62
430.91	3758.90
431.10	3714.43
431.28	3794.01
431.47	3941.46
431.66	3934.44
431.85	3866.56
432.03	4030.40
432.22	4018.70
432.41	3983.59
432.60	3927.42
432.79	3976.57
432.97	4049.13
433.16	4028.06
433.35	3953.16
433.54	4025.72
433.72	4140.41
433.91	4086.58
434.10	4140.41
434.28	4042.11
434.47	4152.11
434.66	4138.07
434.85	4219.99
435.03	4313.61
435.22	4088.92
435.41	4351.06
435.59	4236.37
435.78	4248.07
435.97	4320.63
436.16	4423.61
436.34	4325.31
436.53	4322.97
436.72	4503.19
436.90	4203.60
437.09	4613.20
437.28	4346.37
437.46	4400.21
437.65	4503.19
437.84	4603.83
438.02	4613.20
438.21	4456.38
438.40	4440.00
438.58	4678.73
438.77	4692.77
438.96	4660.01
439.14	4727.88
439.33	4788.74
439.52	4692.77
439.70	4655.33
439.89	4961.94
440.08	4863.63
440.26	4819.16
440.45	4861.29
440.63	5046.20
440.82	5046.20
441.01	5008.75
441.19	5069.60
441.38	5090.67
441.57	5156.20
441.75	5167.90
441.94	5247.48
442.12	5310.68
442.31	5261.52
442.50	5355.15
442.68	5067.26
442.87	5448.77
443.05	5416.00
443.24	5434.72
443.43	5423.02
443.61	5521.32
443.80	5504.94
443.98	5507.28
444.17	5219.39
444.35	5427.70
444.54	5584.52
444.73	5584.52
444.91	5474.51
445.10	5500.26
445.28	5514.30
445.47	5600.90
445.65	5521.32
445.84	5598.56
446.02	5624.31
446.21	5453.45
446.39	5619.63
446.58	5650.05
446.77	5628.99
446.95	5551.75
447.14	5551.75
447.32	5729.63
447.51	5603.24
447.69	5624.31
447.88	5607.92
448.06	5617.29
448.25	5612.60
448.43	5652.39
448.62	5701.54
448.80	5624.31
448.99	5724.95
449.17	5654.73
449.36	5785.80
449.54	5987.09
449.73	5930.92
449.91	5891.13
450.10	5928.58
450.28	5825.59
450.46	5959.00
450.65	6139.23
450.83	5954.32
451.02	5886.45
451.20	6052.63
451.39	6146.25
451.57	5877.09
451.76	5860.70
451.94	5991.77
452.13	6090.07
452.31	6127.52
452.49	5963.68
452.68	6108.80
452.86	6087.73
453.05	6284.34
453.23	6164.97
453.42	6181.35
453.60	6150.93
453.78	6335.83
453.97	6171.99
454.15	6232.85
454.34	6132.20
454.52	6333.49
454.70	6331.15
454.89	6354.55
455.07	6300.72
455.26	6707.98
455.44	6492.65
455.62	6525.41
455.81	6487.96
455.99	6590.95
456.17	6532.44
456.36	6621.38
456.54	6661.16
456.73	6661.16
456.91	6677.55
457.09	6848.41
457.28	6951.39
457.46	6686.91
457.64	6904.58
457.83	7047.35
458.01	6904.58
458.19	7087.14
458.38	6703.29
458.56	6946.71
458.74	6995.86
458.93	6857.77
459.11	7084.80
459.29	7042.67
459.48	6991.18
459.66	7126.93
459.84	7220.55
460.03	7119.91
460.21	7183.10
460.39	7150.34
460.57	7360.98
460.76	7155.02
460.94	7365.67
461.12	7318.86
461.31	7232.26
461.49	7391.41
461.67	7258.00
461.85	7372.69
462.04	7356.30
462.22	7669.94
462.40	7323.54
462.59	7375.03
462.77	7487.37
462.95	7468.65
463.13	7492.05
463.32	7492.05
463.50	7915.69
463.68	7693.34
463.86	7758.88
464.05	7831.43
464.23	7646.53
464.41	7805.69
464.59	7630.15
464.78	7709.72
464.96	7775.26
465.14	7864.20
465.32	7850.16
465.50	7918.03
465.69	7925.05
465.87	7843.14
466.05	7840.79
466.23	7840.79
466.41	8147.40
466.60	8126.34
466.78	7967.18
466.96	7866.54
467.14	8070.17
467.32	8152.09
467.51	8119.32
467.69	7960.16
467.87	8023.36
468.05	8196.56
468.23	8189.53
468.41	8262.09
468.60	8236.35
468.78	8238.69
468.96	8229.32
469.14	8489.12
469.32	8381.46
469.50	8311.24
469.69	8355.71
469.87	8404.86
470.05	8430.61
470.23	8449.33
470.41	8739.56
470.59	8512.53
470.77	8514.87
470.95	8592.11
471.14	8819.14
471.32	8571.04
471.50	8709.13
471.68	8901.06
471.86	8901.06
472.04	8828.50
472.22	8990.00
472.40	8826.16
472.58	8966.59
472.77	9050.85
472.95	9301.29
473.13	9518.96
473.31	8980.64
473.49	9102.34
473.67	9343.42
473.85	9317.67
474.03	9392.57
474.21	9476.83
474.39	9458.10
474.57	9605.56
474.75	9687.48
474.93	9621.94
475.12	9827.91
475.30	9694.50
475.48	9724.93
475.66	9713.22
475.84	9951.96
476.02	10066.64
476.20	9982.38
476.38	10073.67
476.56	10204.74
476.74	10200.05
476.92	10190.69
477.10	10221.12
477.28	10307.72
477.46	10452.83
477.64	10441.13
477.82	10516.03
478.00	10841.36
478.18	10736.04
478.36	11042.65
478.54	11131.59
478.72	11070.73
478.90	11119.89
479.08	11309.47
479.26	11569.27
479.44	11386.71
479.62	11487.35
479.80	11609.06
479.98	11662.89
480.16	12109.93
480.34	11566.93
480.52	11929.71
480.70	11943.75
480.88	11557.57
481.06	12081.85
481.24	12119.29
481.41	12236.32
481.59	12533.57
481.77	12442.29
481.95	12475.06
482.13	12753.58
482.31	12531.23
482.49	13008.70
482.67	12725.49
482.85	13167.85
483.03	13289.56
483.21	13481.49
483.39	13451.06
483.57	13415.95
483.74	13343.39
483.92	13511.91
484.10	13635.96
484.28	13886.40
484.46	14169.60
484.64	14464.51
484.82	13944.91
485.00	13930.87
485.18	14534.73
485.35	14663.46
485.53	14956.02
485.71	14616.65
485.89	15005.17
486.07	14813.25
486.25	15255.61
486.43	15075.39
486.61	15140.93
486.78	15473.28
486.96	15545.84
487.14	15564.56
487.32	15702.65
487.50	15852.45
487.68	15515.41
487.85	16166.08
488.03	16121.61
488.21	16432.90
488.39	16563.97
488.57	16788.66
488.75	16755.90
488.92	17060.16
489.10	17334.01
489.28	17195.92
489.46	17228.68
489.64	17310.60
489.81	17542.32
489.99	17879.35
490.17	17570.40
490.35	17607.85
490.53	17617.21
490.70	18377.89
490.88	18178.94
491.06	18286.61
491.24	18518.32
491.41	18597.90
491.59	18675.13
491.77	18445.76
491.95	18927.91
492.13	19323.46
492.30	19000.47
492.48	19019.19
492.66	19410.06
492.84	19129.20
493.01	19545.81
493.19	19569.22
493.37	19721.35
493.54	19920.30
493.72	20346.28
493.90	20002.22
494.08	20201.16
494.25	20236.27
494.43	20692.68
494.61	20624.80
494.79	20568.63
494.96	20650.55
495.14	21116.31
495.32	21116.31
495.49	20868.22
495.67	21181.85
495.85	21474.42
496.02	21329.30
496.20	21586.76
496.38	21720.17
496.55	21982.31
496.73	22108.70
496.91	21776.34
497.09	22040.82
497.26	22244.45
497.44	22476.16
497.62	22485.53
497.79	22939.59
497.97	22347.44
498.14	22916.19
498.32	22988.74
498.50	23243.86
498.67	23154.92
498.85	23042.57
499.03	23297.69
499.20	23501.32
499.38	23688.56
499.56	23681.54
499.73	23728.35
499.91	24058.37
500.08	24332.21
500.26	23648.77
500.44	23967.09
500.61	24065.39
500.79	24159.01
500.97	24409.45
501.14	24528.81
501.32	24727.76
501.49	24507.75
501.67	24765.21
501.84	24891.60
502.02	24388.38
502.20	24973.52
502.37	25404.17
502.55	25029.69
502.72	25127.99
502.90	25514.18
503.07	25228.63
503.25	25280.13
503.43	25032.03
503.60	25834.83
503.78	25893.35
503.95	25326.94
504.13	25781.00
504.30	25956.54
504.48	25766.96
504.65	26101.65
504.83	26099.31
505.01	26691.47
505.18	26361.45
505.36	26747.64
505.53	26249.11
505.71	26651.68
505.88	26780.41
506.06	26380.18
506.23	26785.09
506.41	27124.47
506.58	26974.67
506.76	26789.77
506.93	27122.13
507.11	27292.99
507.28	27515.34
507.46	27307.03
507.63	27754.07
507.81	27564.49
507.98	27466.19
508.16	27388.95
508.33	28004.51
508.50	28163.67
508.68	27854.72
508.85	27962.38
509.03	28247.93
509.20	28402.40
509.38	28453.89
509.55	28416.44
509.73	28580.28
509.90	28526.45
510.08	28800.29
510.25	28826.04
510.42	28704.33
510.60	29369.04
510.77	29151.37
510.95	29326.91
511.12	28903.28
511.30	29418.19
511.47	29298.83
511.64	29125.63
511.82	29549.26
511.99	29284.78
512.17	29427.56
512.34	29855.87
512.51	29993.97
512.69	30225.68
512.86	29982.26
513.04	29916.73
513.21	30167.16
513.38	30190.57
513.56	30230.36
513.73	30045.46
513.90	30143.76
514.08	30043.12
514.25	30859.96
514.43	30932.52
514.60	30813.15
514.77	30637.61
514.95	30888.05
515.12	30883.37
515.29	30995.71
515.47	31330.41
515.64	31395.95
515.81	30888.05
515.99	31042.53
516.16	31817.24
516.33	31204.02
516.51	31805.54
516.68	31356.16
516.85	31288.28
517.03	31763.41
517.20	31913.20
517.37	31737.66
517.54	32224.50
517.72	31955.33
517.89	31524.68
518.06	32100.45
518.24	32233.86
518.41	31983.42
518.58	32165.98
518.75	31922.57
518.93	32701.96
519.10	32620.05
519.27	32680.90
519.45	32694.94
519.62	32563.87
519.79	32732.39
519.96	33043.68
520.14	33151.35
520.31	32627.07
520.48	33301.14
520.65	32996.87
520.83	33811.38
521.00	33546.90
521.17	33535.20
521.34	33315.19
521.52	33715.42
521.69	33729.46
521.86	33675.63
522.03	33759.89
522.20	33757.55
522.38	34305.23
522.55	33867.55
522.72	33993.94
522.89	33961.17
523.07	34078.20
523.24	34190.55
523.41	34384.81
523.58	34108.63
523.75	34658.65
523.92	34244.38
524.10	34562.69
524.27	34841.21
524.44	34815.47
524.61	34768.66
524.78	34888.03
524.96	34904.41
525.13	35021.44
525.30	35047.18
525.47	35218.04
525.64	34834.19
525.81	35646.36
525.98	35356.13
526.16	34995.69
526.33	35164.21
526.50	35765.73
526.67	35601.89
526.84	35620.61
527.01	35545.72
527.18	35580.82
527.36	35910.84
527.53	35995.10
527.70	36442.14
527.87	35674.45
528.04	36004.46
528.21	35901.48
528.38	36034.89
528.55	36170.64
528.72	36123.83
528.89	36500.65
529.07	36238.51
529.24	35878.07
529.41	36421.08
529.58	36400.01
529.75	36304.05
529.92	36734.71
530.09	36264.26
530.26	36781.52
530.43	36966.42
530.60	36512.36
530.77	36531.08
530.94	37127.92
531.11	36891.52
531.28	36671.51
531.46	37106.85
531.63	37001.53
531.80	36840.03
531.97	37277.71
532.14	37137.28
532.31	36975.78
532.48	37347.93
532.65	37876.89
532.82	37301.12
532.99	37406.44
533.16	37469.64
533.33	37769.22
533.50	37792.63
533.67	37034.30
533.84	37490.70
534.01	37799.65
534.18	37549.21
534.35	37912.00
534.52	38160.09
534.69	38370.74
534.86	38557.99
535.03	37907.32
535.20	38120.31
535.37	38377.76
535.54	38274.78
535.71	38302.87
535.88	38623.52
536.05	38323.93
536.22	38808.42
536.38	38424.57
536.55	38663.31
536.72	38553.30
536.89	38920.77
537.06	38962.90
537.23	39077.58
537.40	39019.07
537.57	38487.77
537.74	38532.24
537.91	38742.89
538.08	38792.04
538.25	38464.36
538.42	39328.02
538.59	39660.38
538.75	38749.91
538.92	39398.24
539.09	39093.97
539.26	39360.79
539.43	39557.39
539.60	39075.24
539.77	39482.50
539.94	39716.55
540.11	39793.79
540.28	39838.26
540.44	39732.93
540.61	39641.65
540.78	39550.37
540.95	39416.96
541.12	39793.79
541.29	39154.82
541.46	39751.66
541.62	39695.49
541.79	40217.43
541.96	40006.78
542.13	39613.57
542.30	40395.31
542.47	39847.62
542.63	40556.80
542.80	40495.95
542.97	40538.08
543.14	40676.17
543.31	40680.85
543.48	40418.71
543.64	41097.47
543.81	41282.37
543.98	40910.22
544.15	40942.99
544.32	40940.65
544.48	41167.68
544.65	41181.73
544.82	41488.34
544.99	40884.48
545.16	40596.59
545.32	41486.00
545.49	41605.36
545.66	41378.33
545.83	41343.22
546.00	41811.33
546.16	41394.71
546.33	41474.29
546.50	41172.36
546.67	41532.81
546.83	41294.07
547.00	41371.31
547.17	40905.54
547.34	41944.74
547.50	42045.38
547.67	41918.99
547.84	42038.36
548.00	41862.82
548.17	42234.97
548.34	42220.92
548.51	42232.63
548.67	42293.48
548.84	42202.20
549.01	42218.58
549.18	42326.25
549.34	42101.56
549.51	42518.17
549.68	42209.22
549.84	42646.90
550.01	42564.98
550.18	42110.92
550.34	42405.83
550.51	42473.70
550.68	42677.33
550.84	42253.69
551.01	42752.23
551.18	42424.55
551.34	42471.36
551.51	42897.34
551.68	42972.24
551.84	42270.08
552.01	42593.07
552.18	42803.72
552.34	43058.84
552.51	43037.77
552.68	42660.94
552.84	42995.64
553.01	42897.34
553.18	43157.14
553.34	43044.79
553.51	42651.58
553.67	43056.50
553.84	43594.82
554.01	43196.93
554.17	43232.04
554.34	43243.74
554.51	43264.80
554.67	43590.14
554.84	43365.45
555.00	43409.92
555.17	43241.40
555.33	43477.79
555.50	43746.95
555.67	43569.07
555.83	43550.35
556.00	43587.80
556.16	43688.44
556.33	43646.31
556.50	43658.01
556.66	44009.09
556.83	43503.54
556.99	43852.28
557.16	44332.09
557.32	44301.66
557.49	44030.16
557.65	43587.80
557.82	43777.38
557.98	43913.13
558.15	43880.36
558.32	44222.08
558.48	44100.37
558.65	43936.54
558.81	44102.71
558.98	44032.50
559.14	43985.69
559.31	44020.80
559.47	44196.34
559.64	43856.96
559.80	44289.96
559.97	44650.40
560.13	44231.44
560.30	44126.12
560.46	44732.32
560.63	44474.86
560.79	44818.92
560.96	45013.18
561.12	45099.78
561.29	44582.52
561.45	44339.11
561.61	44659.76
561.78	44430.39
561.94	44589.55
562.11	44444.43
562.27	44245.49
562.44	44699.55
562.60	44458.48
562.77	44924.24
562.93	44975.73
563.10	44835.30
563.26	44652.74
563.42	45134.89
563.59	44879.77
563.75	44392.94
563.92	45013.18
564.08	44917.22
564.24	44760.40
564.41	44516.99
564.57	44748.70
564.74	45036.59
564.90	44863.39
565.07	44776.79
565.23	44961.69
565.39	45015.52
565.56	44978.07
565.72	44973.39
565.88	45247.24
566.05	44935.95
566.21	44793.17
566.38	45071.70
566.54	45483.63
566.70	45385.33
566.87	45034.25
567.03	44879.77
567.19	45148.93
567.36	44973.39
567.52	45146.59
567.68	45305.75
567.85	45446.18
568.01	45294.05
568.17	44886.79
568.34	45478.95
568.50	45549.17
568.66	44828.28
568.83	45528.10
568.99	45237.87
569.15	45202.77
569.32	45179.36
569.48	45422.78
569.64	45670.87
569.81	45485.97
569.97	45453.20
570.13	45099.78
570.30	45375.97
570.46	45340.86
570.62	45595.98
570.78	45453.20
570.95	45177.02
571.11	45975.14
571.27	45717.68
571.43	45696.62
571.60	45312.77
571.76	45841.73
571.92	45947.06
572.09	45626.40
572.25	45464.91
572.41	45324.47
572.57	45844.07
572.74	46293.46
572.90	45757.47
573.06	45986.85
573.22	46064.08
573.38	46028.98
573.55	45776.20
573.71	46026.63
573.87	46167.07
574.03	46047.70
574.20	45687.26
574.36	45687.26
574.52	45691.94
574.68	45858.12
574.84	46117.92
575.01	45860.46
575.17	45787.90
575.33	46036.00
575.49	45640.45
575.65	46082.81
575.82	45846.41
575.98	45539.80
576.14	45879.18
576.30	45886.20
576.46	46007.91
576.62	46131.96
576.79	46057.06
576.95	45825.35
577.11	45553.85
577.27	45724.71
577.43	45972.80
577.59	46101.53
577.75	45797.26
577.92	45715.34
578.08	45890.88
578.24	45998.55
578.40	46192.81
578.56	45916.63
578.72	46181.11
578.88	45823.01
579.04	46199.83
579.21	45832.37
579.37	45984.51
579.53	45996.21
579.69	45633.42
579.85	45808.96
580.01	45771.52
580.17	46330.90
580.33	46274.73
580.49	46143.66
580.65	46342.61
580.82	45940.04
580.98	46080.47
581.14	45783.22
581.30	46110.89
581.46	46354.31
581.62	45998.55
581.78	45750.45
581.94	45937.69
582.10	46248.99
582.26	46134.30
582.42	45815.99
582.58	46124.94
582.74	46117.92
582.90	45867.48
583.06	46003.23
583.22	45752.79
583.38	46199.83
583.54	45933.01
583.70	46616.45
583.86	46036.00
584.02	45851.09
584.18	46616.45
584.34	46457.29
584.50	46061.74
584.66	46286.43
584.82	46419.84
584.98	46553.26
585.14	46284.09
585.30	45881.52
585.46	46040.68
585.62	46197.49
585.78	46431.55
585.94	45961.10
586.10	46274.73
586.26	45729.39
586.42	45942.38
586.58	46433.89
586.74	46153.02
586.90	46232.60
587.06	45830.03
587.22	46557.94
587.38	46000.89
587.54	46099.19
587.70	46560.28
587.86	46473.68
588.02	45942.38
588.18	46518.15
588.34	46356.65
588.49	46508.79
588.65	46138.98
588.81	46293.46
588.97	46094.51
589.13	46733.48
589.29	46246.65
589.45	46534.53
589.61	46038.34
589.77	46740.50
589.93	46452.61
590.08	46777.95
