SpectraSuite Data File
++++++++++++++++++++++++++++++++++++
Date: Fri Oct 25 10:44:16 EDT 2013
User: price-jones
Dark Spectrum Present: No
Reference Spectrum Present: No
Number of Sampled Component Spectra: 1
Spectrometers: USB2+H05261
Integration Time (usec): 100000 (USB2+H05261)
Spectra Averaged: 1 (USB2+H05261)
Boxcar Smoothing: 0 (USB2+H05261)
Correct for Electrical Dark: No (USB2+H05261)
Strobe/Lamp Enabled: No (USB2+H05261)
Correct for Detector Non-linearity: No (USB2+H05261)
Correct for Stray Light: No (USB2+H05261)
Number of Pixels in Processed Spectrum: 2048
>>>>>Begin Processed Spectral Data<<<<<
365.73	107.66
365.92	107.66
366.12	107.66
366.32	18.72
366.52	4.68
366.72	126.39
366.91	37.45
367.11	23.41
367.31	32.77
367.51	70.22
367.70	0.00
367.90	11.70
368.10	35.11
368.30	0.00
368.49	102.98
368.69	0.00
368.89	28.09
369.09	16.38
369.28	16.38
369.48	70.22
369.68	107.66
369.87	37.45
370.07	79.58
370.27	110.01
370.47	203.63
370.66	308.95
370.86	486.83
371.06	430.66
371.25	456.40
371.45	416.62
371.65	433.00
371.84	435.34
372.04	395.55
372.24	454.06
372.44	500.87
372.63	512.58
372.83	535.98
373.03	500.87
373.22	503.22
373.42	514.92
373.62	505.56
373.81	641.31
374.01	559.39
374.21	561.73
374.40	545.34
374.60	526.62
374.79	564.07
374.99	617.90
375.19	585.13
375.38	564.07
375.58	575.77
375.78	615.56
375.97	601.52
376.17	587.47
376.37	641.31
376.56	610.88
376.76	676.41
376.95	620.24
377.15	603.86
377.35	638.97
377.54	648.33
377.74	594.50
377.93	648.33
378.13	669.39
378.33	631.94
378.52	601.52
378.72	629.60
378.91	589.82
379.11	573.43
379.31	695.14
379.50	671.73
379.70	732.59
379.89	608.54
380.09	648.33
380.28	798.12
380.48	692.80
380.68	678.76
380.87	725.57
381.07	763.01
381.26	748.97
381.46	753.65
381.65	697.48
381.85	770.04
382.04	718.54
382.24	716.20
382.43	676.41
382.63	770.04
382.83	779.40
383.02	751.31
383.22	720.88
383.41	781.74
383.61	741.95
383.80	819.19
384.00	681.10
384.19	800.46
384.39	765.36
384.58	802.80
384.78	793.44
384.97	755.99
385.17	770.04
385.36	770.04
385.56	835.57
385.75	882.38
385.95	880.04
386.14	884.72
386.34	837.91
386.53	866.00
386.72	828.55
386.92	781.74
387.11	917.49
387.31	858.98
387.50	800.46
387.70	798.12
387.89	858.98
388.09	851.96
388.28	821.53
388.48	868.34
388.67	976.00
388.86	1011.11
389.06	894.08
389.25	1001.75
389.45	903.45
389.64	910.47
389.84	1025.15
390.03	964.30
390.22	980.68
390.42	1004.09
390.61	1018.13
390.81	1001.75
391.00	1006.43
391.19	1137.50
391.39	1128.14
391.58	985.37
391.78	1069.62
391.97	1111.75
392.16	1004.09
392.36	1097.71
392.55	1039.20
392.75	1041.54
392.94	1001.75
393.13	1060.26
393.33	1144.52
393.52	1041.54
393.71	1008.77
393.91	1046.22
394.10	1102.39
394.29	1247.51
394.49	1121.12
394.68	1172.61
394.88	1224.10
395.07	1245.16
395.26	1156.22
395.46	1156.22
395.65	1261.55
395.84	1263.89
396.04	1289.64
396.23	1210.06
396.42	1186.65
396.62	1231.12
396.81	1219.42
397.00	1296.66
397.19	1256.87
397.39	1221.76
397.58	1334.11
397.77	1380.92
397.97	1383.26
398.16	1390.28
398.35	1430.07
398.55	1437.09
398.74	1523.69
398.93	1521.35
399.12	1544.75
399.32	1441.77
399.51	1423.05
399.70	1570.50
399.90	1530.71
400.09	1605.61
400.28	1607.95
400.47	1650.08
400.67	1668.80
400.86	1631.35
401.05	1657.10
401.24	1640.72
401.44	1689.87
401.63	1764.76
401.82	1724.97
402.01	1589.22
402.21	1689.87
402.40	1703.91
402.59	1727.32
402.78	1853.70
402.97	1743.70
403.17	1884.13
403.36	1757.74
403.55	1785.83
403.74	1762.42
403.93	1851.36
404.13	1870.09
404.32	1916.90
404.51	1879.45
404.70	1977.75
404.89	1834.98
405.09	2069.03
405.28	1886.47
405.47	1970.73
405.66	1863.07
405.85	2017.54
406.05	1975.41
406.24	1919.24
406.43	1994.14
406.62	2073.71
406.81	2122.87
407.00	2078.40
407.20	1949.67
407.39	2019.88
407.58	2207.13
407.77	2186.06
407.96	2244.57
408.15	2232.87
408.34	2256.28
408.54	2228.19
408.73	2319.47
408.92	2267.98
409.11	2181.38
409.30	2321.81
409.49	2251.60
409.68	2284.36
409.87	2298.41
410.07	2225.85
410.26	2235.21
410.45	2382.67
410.64	2436.50
410.83	2413.09
411.02	2502.03
411.21	2541.82
411.40	2609.70
411.59	2619.06
411.78	2527.78
411.98	2619.06
412.17	2630.76
412.36	2726.72
412.55	2724.38
412.74	2665.87
412.93	2689.28
413.12	2839.07
413.31	2871.84
413.50	2799.28
413.69	3012.27
413.88	2916.31
414.07	2988.86
414.26	2902.26
414.45	2902.26
414.64	2977.16
414.83	3068.44
415.02	3052.06
415.22	3075.46
415.41	3035.67
415.60	3162.06
415.79	3248.66
415.98	3155.04
416.17	3272.07
416.36	3225.26
416.55	3218.24
416.74	3234.62
416.93	3159.72
417.12	3211.22
417.31	3286.11
417.50	3283.77
417.69	3410.16
417.88	3468.67
418.07	3407.82
418.26	3421.86
418.45	3522.51
418.64	3585.70
418.83	3545.91
419.02	3569.32
419.21	3524.85
419.39	3421.86
419.58	3566.98
419.77	3611.45
419.96	3370.37
420.15	3784.65
420.34	3616.13
420.53	3714.43
420.72	3847.84
420.91	3810.39
421.10	3756.56
421.29	3756.56
421.48	3885.29
421.67	3819.75
421.86	3794.01
422.05	3714.43
422.24	3918.06
422.43	3770.60
422.61	3878.27
422.80	3803.37
422.99	3784.65
423.18	3939.12
423.37	4081.89
423.56	3878.27
423.75	3936.78
423.94	3782.31
424.13	3613.79
424.32	3707.41
424.50	3997.64
424.69	4021.04
424.88	3955.51
425.07	3871.25
425.26	3920.40
425.45	3974.23
425.64	3779.97
425.83	4037.42
426.01	4098.28
426.20	3967.21
426.39	3948.48
426.58	4009.34
426.77	3978.91
426.96	4042.11
427.15	4002.32
427.33	3950.82
427.52	4117.00
427.71	4152.11
427.90	4119.34
428.09	4252.75
428.28	4091.26
428.46	4224.67
428.65	4142.75
428.84	4210.62
429.03	4262.12
429.22	4238.71
429.40	4245.73
429.59	4168.49
429.78	3899.33
429.97	4056.15
430.16	3925.08
430.34	4119.34
430.53	4126.36
430.72	4133.39
430.91	4259.78
431.10	4393.19
431.28	4496.17
431.47	4681.07
431.66	4660.01
431.85	4767.67
432.03	4592.13
432.22	4725.54
432.41	4648.30
432.60	4840.23
432.79	4737.24
432.97	4765.33
433.16	4753.63
433.35	4615.54
433.54	4657.67
433.72	4582.77
433.91	4688.09
434.10	4638.94
434.28	4727.88
434.47	4849.59
434.66	4835.55
434.85	4952.57
435.03	4968.96
435.22	5018.11
435.41	4980.66
435.59	5018.11
435.78	5034.49
435.97	5132.79
436.16	5179.61
436.34	4947.89
436.53	5174.92
436.72	5289.61
436.90	5181.95
437.09	5268.55
437.28	5083.64
437.46	5123.43
437.65	5184.29
437.84	5076.62
438.02	5263.86
438.21	5193.65
438.40	5184.29
438.58	5362.17
438.77	5441.75
438.96	5327.06
439.14	5526.00
439.33	5607.92
439.52	5582.18
439.70	5488.56
439.89	5755.38
440.08	5738.99
440.26	5607.92
440.45	5874.74
440.63	5900.49
440.82	5951.98
441.01	5830.27
441.19	6106.46
441.38	5884.11
441.57	6078.37
441.75	6186.04
441.94	6263.27
442.12	6298.38
442.31	6291.36
442.50	6286.68
442.68	6424.77
442.87	6307.74
443.05	6328.81
443.24	6516.05
443.43	6511.37
443.61	6623.72
443.80	6841.39
443.98	6368.60
444.17	6279.66
444.35	6513.71
444.54	6668.19
444.73	6497.33
444.91	6480.94
445.10	6466.90
445.28	6520.73
445.47	6307.74
445.65	6684.57
445.84	6476.26
446.02	6562.86
446.21	6576.91
446.39	6586.27
446.58	6525.41
446.77	6630.74
446.95	6516.05
447.14	6736.06
447.32	6834.36
447.51	6785.21
447.69	6668.19
447.88	6754.79
448.06	6647.12
448.25	6513.71
448.43	6883.52
448.62	6700.95
448.80	6745.42
448.99	6857.77
449.17	6965.43
449.36	6825.00
449.54	6860.11
449.73	7033.31
449.91	7101.19
450.10	7089.48
450.28	7126.93
450.46	7286.09
450.65	7360.98
450.83	7166.72
451.02	7094.16
451.20	7150.34
451.39	7370.35
451.57	7150.34
451.76	7229.91
451.94	7206.51
452.13	7150.34
452.31	7056.72
452.49	6998.20
452.68	7201.83
452.86	7197.15
453.05	7419.50
453.23	7389.07
453.42	7351.62
453.60	7478.01
453.78	7410.14
453.97	7393.75
454.15	7248.64
454.34	7426.52
454.52	7590.36
454.70	7564.61
454.89	7552.91
455.07	7459.29
455.26	7705.04
455.44	7660.57
455.62	7784.62
455.81	7709.72
455.99	7681.64
456.17	7761.22
456.36	7798.66
456.54	7978.89
456.73	8074.85
456.91	8147.40
457.09	8149.75
457.28	8369.76
457.46	8074.85
457.64	8222.30
457.83	8093.57
458.01	7990.59
458.19	8280.82
458.38	8147.40
458.56	8257.41
458.74	8149.75
458.93	8217.62
459.11	8372.10
459.29	8292.52
459.48	8402.52
459.66	8219.96
459.84	8425.93
460.03	8589.77
460.21	8500.83
460.39	8608.49
460.57	8603.81
460.76	8442.31
460.94	8739.56
461.12	8606.15
461.31	8814.46
461.49	8784.03
461.67	8622.53
461.85	8711.47
462.04	8755.94
462.22	8912.76
462.40	8769.99
462.59	8915.10
462.77	8828.50
462.95	8601.47
463.13	8748.92
463.32	8781.69
463.50	9085.96
463.68	9011.06
463.86	9046.17
464.05	8868.29
464.23	8966.59
464.41	8992.34
464.59	8877.65
464.78	9083.62
464.96	9029.79
465.14	9085.96
465.32	9235.75
465.50	9177.24
465.69	9334.06
465.87	9233.41
466.05	9282.56
466.23	9048.51
466.41	9107.02
466.60	9282.56
466.78	9146.81
466.96	9369.16
467.14	9383.21
467.32	9437.04
467.51	9769.40
467.69	9118.73
467.87	9448.74
468.05	9540.02
468.23	9312.99
468.41	9329.38
468.60	9334.06
468.78	9614.92
468.96	9371.50
469.14	9654.71
469.32	9762.37
469.50	9423.00
469.69	9797.48
469.87	9851.31
470.05	9771.74
470.23	9816.21
470.41	9799.82
470.59	9933.23
470.77	9898.13
470.95	9898.13
471.14	10195.37
471.32	9951.96
471.50	10314.74
471.68	10396.66
471.86	10370.91
472.04	10183.67
472.22	10373.25
472.40	10188.35
472.58	10457.51
472.77	10413.04
472.95	10738.38
473.13	10892.85
473.31	10586.24
473.49	10602.63
473.67	10614.33
473.85	10918.60
474.03	11147.97
474.21	10911.58
474.39	11154.99
474.57	10951.37
474.75	11035.63
474.93	11213.51
475.12	11056.69
475.30	11169.04
475.48	11257.98
475.66	11117.54
475.84	11332.87
476.02	11548.20
476.20	11311.81
476.38	11796.30
476.56	11838.43
476.74	11613.74
476.92	11599.70
477.10	12088.87
477.28	12250.36
477.46	12081.85
477.64	12224.62
477.82	12472.71
478.00	12659.96
478.18	12446.97
478.36	12491.44
478.54	12903.37
478.72	12910.40
478.90	12950.18
479.08	13310.63
479.26	13238.07
479.44	13121.04
479.62	13472.12
479.80	13362.12
479.98	13451.06
480.16	13689.79
480.34	13467.44
480.52	13818.52
480.70	13865.33
480.88	13661.71
481.06	13811.50
481.24	13928.53
481.41	14324.08
481.59	14349.82
481.77	14167.26
481.95	14396.64
482.13	14469.19
482.31	14602.60
482.49	14843.68
482.67	14829.63
482.85	15180.71
483.03	15440.51
483.21	15213.48
483.39	15719.04
483.57	15192.42
483.74	15407.75
483.92	15838.41
484.10	15847.77
484.28	15782.23
484.46	16105.23
484.64	16468.01
484.82	16032.67
485.00	16224.59
485.18	16145.02
485.35	16587.38
485.53	16287.79
485.71	16418.86
485.89	16379.07
486.07	16341.62
486.25	16425.88
486.43	16905.69
486.61	17226.34
486.78	17130.38
486.96	17214.64
487.14	17788.07
487.32	17586.79
487.50	17909.78
487.68	18452.78
487.85	18272.56
488.03	18590.88
488.21	18707.90
488.39	18698.54
488.57	18792.16
488.75	18855.36
488.92	18970.04
489.10	19396.02
489.28	19424.11
489.46	19772.85
489.64	19503.68
489.81	20051.37
489.99	20247.97
490.17	20023.28
490.35	20463.30
490.53	20147.33
490.70	20262.02
490.88	20524.16
491.06	20549.90
491.24	20741.83
491.41	20917.37
491.59	20943.11
491.77	20851.83
491.95	21158.44
492.13	21039.08
492.30	21490.80
492.48	21451.01
492.66	22059.55
492.84	21682.72
493.01	22022.10
493.19	22066.57
493.37	22134.45
493.54	22438.72
493.72	22586.17
493.90	22717.24
494.08	22693.83
494.25	23215.77
494.43	23115.13
494.61	23159.60
494.79	23381.95
494.96	23482.59
495.14	23616.01
495.32	23983.47
495.49	23807.93
495.67	23695.58
495.85	24072.41
496.02	24271.36
496.20	24297.10
496.38	24290.08
496.55	24383.70
496.73	25113.95
496.91	24826.06
497.09	25090.54
497.26	25060.12
497.44	25263.74
497.62	25095.22
497.79	25422.90
497.97	25247.36
498.14	25490.77
498.32	25694.40
498.50	25598.44
498.67	26272.51
498.85	25942.50
499.03	26237.41
499.20	25855.90
499.38	26190.59
499.56	26235.06
499.73	26513.59
499.91	26644.66
500.08	26471.46
500.26	26211.66
500.44	26628.27
500.61	26850.63
500.79	26480.82
500.97	26951.27
501.14	27290.65
501.32	26859.99
501.49	27262.56
501.67	27178.30
501.84	27363.20
502.02	27562.15
502.20	27505.98
502.37	27751.73
502.55	27950.68
502.72	28070.04
502.90	28229.20
503.07	28091.11
503.25	28304.10
503.43	27894.50
503.60	27924.93
503.78	27983.44
503.95	28292.40
504.13	28400.06
504.30	28814.34
504.48	28807.31
504.65	29139.67
504.83	28940.72
505.01	29163.08
505.18	29273.08
505.36	29535.22
505.53	29607.78
505.71	29769.27
505.88	29649.91
506.06	29343.30
506.23	29738.85
506.41	29860.55
506.58	29883.96
506.76	29883.96
506.93	29984.60
507.11	29914.39
507.28	29855.87
507.46	29851.19
507.63	30490.16
507.81	30071.20
507.98	30209.29
508.16	30352.07
508.33	30532.29
508.50	30663.36
508.68	31012.10
508.85	30979.33
509.03	30859.96
509.20	31040.18
509.38	30981.67
509.55	31321.05
509.73	31314.03
509.90	31391.26
510.08	31454.46
510.25	31260.20
510.42	31641.70
510.60	31744.69
510.77	31871.07
510.95	31969.38
511.12	32121.51
511.30	32292.37
511.47	32144.92
511.64	32613.02
511.82	32514.72
511.99	32184.71
512.17	32472.59
512.34	32556.85
512.51	32769.84
512.69	32510.04
512.86	32601.32
513.04	33031.98
513.21	32783.88
513.38	32954.74
513.56	32716.01
513.73	32615.37
513.90	33273.06
514.08	32994.53
514.25	33146.67
514.43	33401.79
514.60	33317.53
514.77	33413.49
514.95	33617.11
515.12	33759.89
515.29	33493.07
515.47	33736.48
515.64	34078.20
515.81	34153.10
515.99	33607.75
516.16	34005.64
516.33	33598.39
516.51	33834.78
516.68	33392.42
516.85	33331.57
517.03	33820.74
517.20	33811.38
517.37	34171.82
517.54	34550.99
517.72	34061.82
517.89	33956.49
518.06	34382.47
518.24	34146.08
518.41	34328.64
518.58	34621.20
518.75	34668.02
518.93	35129.10
519.10	34696.10
519.27	35199.32
519.45	34855.26
519.62	35281.24
519.79	35835.94
519.96	35641.68
520.14	35683.81
520.31	35386.56
520.48	35693.17
520.65	35323.36
520.83	35903.82
521.00	36095.74
521.17	36016.16
521.34	36313.41
521.52	36353.20
521.69	36308.73
521.86	36524.06
522.03	36385.97
522.20	36465.55
522.38	36102.76
522.55	36673.85
522.72	36116.81
522.89	36514.70
523.07	36676.19
523.24	36863.44
523.41	36643.43
523.58	36797.90
523.75	37319.84
523.92	37450.91
524.10	37310.48
524.27	37376.01
524.44	37738.80
524.61	37408.78
524.78	37476.66
524.96	38000.94
525.13	37926.04
525.30	38024.34
525.47	38206.90
525.64	37933.06
525.81	37954.13
525.98	37507.08
526.16	37783.27
526.33	37284.73
526.50	37516.45
526.67	37109.19
526.84	37483.68
527.01	37446.23
527.18	37631.13
527.36	37907.32
527.53	38536.92
527.70	38363.72
527.87	38078.18
528.04	38087.54
528.21	38792.04
528.38	38588.41
528.55	38766.29
528.72	38469.04
528.89	39084.61
529.07	39175.89
529.24	39166.52
529.41	39203.97
529.58	38836.51
529.75	38557.99
529.92	39210.99
530.09	39505.90
530.26	39075.24
530.43	39377.17
530.60	39180.57
530.77	39856.98
530.94	39068.22
531.11	39370.15
531.28	39536.33
531.46	39599.52
531.63	39463.77
531.80	39477.82
531.97	39580.80
532.14	39651.02
532.31	39360.79
532.48	39426.32
532.65	39625.27
532.82	39674.42
532.99	39948.26
533.16	39185.25
533.33	39934.22
533.50	40175.30
533.67	40238.49
533.84	40205.72
534.01	39751.66
534.18	40081.67
534.35	40381.26
534.52	40683.19
534.69	40964.06
534.86	40568.51
535.03	40664.47
535.20	40856.39
535.37	40954.69
535.54	40905.54
535.71	40648.08
535.88	40814.26
536.05	40816.60
536.22	40612.98
536.38	40722.98
536.55	40809.58
536.72	40755.75
536.89	40601.27
537.06	40872.78
537.23	41055.34
537.40	41186.41
537.57	41333.86
537.74	41378.33
537.91	41427.48
538.08	41579.62
538.25	40945.33
538.42	41350.24
538.59	41551.53
538.75	41315.14
538.92	41394.71
539.09	41603.02
539.26	41427.48
539.43	41982.19
539.60	41476.63
539.77	41170.02
539.94	41420.46
540.11	41184.07
540.28	41820.69
540.44	41586.64
540.61	41523.44
540.78	41518.76
540.95	41867.50
541.12	41827.71
541.29	41954.10
541.46	41844.10
541.62	41659.20
541.79	42462.00
541.96	41801.97
542.13	42232.63
542.30	42012.62
542.47	42134.32
542.63	41963.46
542.80	42286.46
542.97	42190.50
543.14	42651.58
543.31	42401.14
543.48	42670.31
543.64	43054.15
543.81	43356.08
543.98	43047.13
544.15	42506.47
544.32	42845.85
544.48	43299.91
544.65	42754.57
544.82	43257.78
544.99	42754.57
545.16	43168.84
545.32	42740.52
545.49	43557.37
545.66	43454.39
545.83	43430.98
546.00	43290.55
546.16	43339.70
546.33	43021.39
546.50	43175.86
546.67	43503.54
546.83	43084.58
547.00	43599.50
547.17	42958.19
547.34	43320.98
547.50	43491.83
547.67	43725.89
547.84	43653.33
548.00	43847.60
548.17	43852.28
548.34	43643.97
548.51	43761.00
548.67	44121.44
548.84	43966.96
549.01	43505.88
549.18	43421.62
549.34	43749.29
549.51	44123.78
549.68	44020.80
549.84	43819.51
550.01	44144.84
550.18	43922.49
550.34	43983.35
550.51	43899.09
550.68	44072.29
550.84	43601.84
551.01	44495.92
551.18	44421.03
551.34	44238.47
551.51	44327.41
551.68	44233.78
551.84	44196.34
552.01	44102.71
552.18	44598.91
552.34	44495.92
552.51	44091.01
552.68	44051.22
552.84	44561.46
553.01	44666.78
553.18	44547.42
553.34	44538.05
553.51	44009.09
553.67	44584.86
553.84	44861.05
554.01	44793.17
554.17	44605.93
554.34	44910.20
554.51	44921.90
554.67	45174.68
554.84	44767.43
555.00	45001.48
555.17	44587.21
555.33	44800.19
555.50	44701.89
555.67	44868.07
555.83	44830.62
556.00	44732.32
556.16	45453.20
556.33	44809.56
556.50	44734.66
556.66	45067.02
556.83	44744.02
556.99	45560.87
557.16	45230.85
557.32	45441.50
557.49	45022.54
557.65	44919.56
557.82	45272.98
557.98	44945.31
558.15	45329.16
558.32	45251.92
558.48	45270.64
558.65	45141.91
558.81	45294.05
558.98	44959.35
559.14	45174.68
559.31	45069.36
559.47	45614.70
559.64	45656.83
559.80	45214.47
559.97	45361.92
560.13	45191.06
560.30	45188.72
560.46	45668.53
560.63	45497.67
560.79	45921.31
560.96	45930.67
561.12	45565.55
561.29	45263.62
561.45	45647.47
561.61	45607.68
561.78	45446.18
561.94	45790.24
562.11	45509.38
562.27	45422.78
562.44	45631.08
562.60	45727.05
562.77	45570.23
562.93	45481.29
563.10	45918.97
563.26	45551.51
563.42	45867.48
563.59	45607.68
563.75	45460.23
563.92	45773.86
564.08	45851.09
564.24	45876.84
564.41	45921.31
564.57	45556.19
564.74	45783.22
564.90	45911.95
565.07	45818.33
565.23	46005.57
565.39	45518.74
565.56	45916.63
565.72	45230.85
565.88	45797.26
566.05	45741.09
566.21	45792.58
566.38	45830.03
566.54	45586.61
566.70	46305.16
566.87	46110.89
567.03	46562.62
567.19	46216.22
567.36	46188.13
567.52	45853.44
567.68	45977.48
567.85	46003.23
568.01	46216.22
568.17	45481.29
568.34	46038.34
568.50	45984.51
568.66	45743.43
568.83	45975.14
568.99	45703.64
569.15	45633.42
569.32	46085.15
569.48	45680.24
569.64	46487.72
569.81	46340.27
569.97	46113.23
570.13	45881.52
570.30	45502.35
570.46	45588.95
570.62	45717.68
570.78	45588.95
570.95	45801.94
571.11	46099.19
571.27	45911.95
571.43	45839.39
571.60	45624.06
571.76	45560.87
571.92	46454.95
572.09	45640.45
572.25	46213.88
572.41	46014.93
572.57	46361.33
572.74	46382.40
572.90	46265.37
573.06	46298.14
573.22	45640.45
573.38	46108.55
573.55	46138.98
573.71	46564.96
573.87	46436.23
574.03	45914.29
574.20	46344.95
574.36	46050.04
574.52	45937.69
574.68	45691.94
574.84	46206.86
575.01	45909.61
575.17	46305.16
575.33	45717.68
575.49	45961.10
575.65	46295.80
575.82	46436.23
575.98	45478.95
576.14	46190.47
576.30	46230.26
576.46	45865.14
576.62	45780.88
576.79	46096.85
576.95	46256.01
577.11	46293.46
577.27	46403.46
577.43	46270.05
577.59	46101.53
577.75	46141.32
577.92	45366.60
578.08	46045.36
578.24	46092.17
578.40	46122.60
578.56	46092.17
578.72	46471.34
578.88	46684.33
579.04	46726.46
579.21	46075.79
579.37	45837.05
579.53	46078.13
579.69	46206.86
579.85	46452.61
580.01	46277.07
580.17	46466.66
580.33	46127.28
580.49	46363.67
580.65	46286.43
580.82	46810.71
580.98	46499.42
581.14	46300.48
581.30	46548.57
581.46	46302.82
581.62	45949.40
581.78	46508.79
581.94	46747.52
582.10	45940.04
582.26	46246.65
582.42	46422.19
582.58	46469.00
582.74	46412.82
582.90	46557.94
583.06	46270.05
583.22	46181.11
583.38	46361.33
583.54	46899.65
583.70	46656.24
583.86	46986.25
584.02	46281.75
584.18	46515.81
584.34	46625.81
584.50	46571.98
584.66	46108.55
584.82	46373.03
584.98	46382.40
585.14	46763.90
585.30	46398.78
585.46	46520.49
585.62	46183.45
585.78	46286.43
585.94	46028.98
586.10	46539.21
586.26	46223.24
586.42	46190.47
586.58	46176.43
586.74	46309.84
586.90	46408.14
587.06	46382.40
587.22	46026.63
587.38	46089.83
587.54	46401.12
587.70	46630.49
587.86	46312.18
588.02	46457.29
588.18	46466.66
588.34	45801.94
588.49	45815.99
588.65	45483.63
588.81	45713.00
588.97	45937.69
589.13	45799.60
589.29	45993.87
589.45	46209.20
589.61	45963.44
589.77	46239.62
589.93	46237.28
