SpectraSuite Data File
++++++++++++++++++++++++++++++++++++
Date: Fri Oct 25 11:22:55 EDT 2013
User: price-jones
Dark Spectrum Present: No
Reference Spectrum Present: No
Number of Sampled Component Spectra: 1
Spectrometers: USB2+H05261
Integration Time (usec): 100000 (USB2+H05261)
Spectra Averaged: 1 (USB2+H05261)
Boxcar Smoothing: 0 (USB2+H05261)
Correct for Electrical Dark: No (USB2+H05261)
Strobe/Lamp Enabled: No (USB2+H05261)
Correct for Detector Non-linearity: No (USB2+H05261)
Correct for Stray Light: No (USB2+H05261)
Number of Pixels in Processed Spectrum: 2048
>>>>>Begin Processed Spectral Data<<<<<
365.73	201.29
365.92	201.29
366.12	201.29
366.32	140.43
366.52	128.73
366.72	203.63
366.91	138.09
367.11	126.39
367.31	112.35
367.51	152.13
367.70	126.39
367.90	67.88
368.10	107.66
368.30	156.82
368.49	98.30
368.69	182.56
368.89	110.01
369.09	131.07
369.28	156.82
369.48	163.84
369.68	138.09
369.87	170.86
370.07	161.50
370.27	283.20
370.47	346.40
370.66	657.69
370.86	624.92
371.06	655.35
371.25	697.48
371.45	662.37
371.65	737.27
371.84	739.61
372.04	662.37
372.24	697.48
372.44	732.59
372.63	683.44
372.83	702.16
373.03	763.01
373.22	758.33
373.42	748.97
373.62	720.88
373.81	751.31
374.01	851.96
374.21	816.85
374.40	779.40
374.60	837.91
374.79	795.78
374.99	826.21
375.19	873.02
375.38	880.04
375.58	847.27
375.78	858.98
375.97	884.72
376.17	936.21
376.37	837.91
376.56	863.66
376.76	976.00
376.95	896.43
377.15	898.77
377.35	912.81
377.54	901.11
377.74	922.17
377.93	884.72
378.13	945.58
378.33	903.45
378.52	938.55
378.72	849.61
378.91	978.34
379.11	987.71
379.31	894.08
379.50	1013.45
379.70	1008.77
379.89	940.90
380.09	973.66
380.28	915.15
380.48	1062.60
380.68	1076.65
380.87	936.21
381.07	971.32
381.26	959.62
381.46	1020.47
381.65	1008.77
381.85	1008.77
382.04	1043.88
382.24	1053.24
382.43	997.07
382.63	1071.97
382.83	1032.18
383.02	1170.27
383.22	1149.20
383.41	1062.60
383.61	1095.37
383.80	1095.37
384.00	1074.31
384.19	1130.48
384.39	1165.59
384.58	1125.80
384.78	1181.97
384.97	1086.01
385.17	1130.48
385.36	1172.61
385.56	1177.29
385.75	1125.80
385.95	1107.07
386.14	1207.72
386.34	1151.54
386.53	1327.08
386.72	1165.59
386.92	1249.85
387.11	1294.32
387.31	1163.25
387.50	1109.41
387.70	1231.12
387.89	1224.10
388.09	1277.93
388.28	1259.21
388.48	1210.06
388.67	1273.25
388.86	1331.76
389.06	1357.51
389.25	1294.32
389.45	1277.93
389.64	1322.40
389.84	1306.02
390.03	1322.40
390.22	1451.13
390.42	1338.79
390.61	1315.38
390.81	1378.58
391.00	1444.11
391.19	1427.73
391.39	1486.24
391.58	1383.26
391.78	1455.81
391.97	1308.36
392.16	1490.92
392.36	1373.89
392.55	1516.67
392.75	1521.35
392.94	1523.69
393.13	1540.07
393.33	1554.12
393.52	1593.90
393.71	1537.73
393.91	1514.33
394.10	1526.03
394.29	1720.29
394.49	1638.38
394.68	1755.40
394.88	1687.53
395.07	1664.12
395.26	1708.59
395.46	1645.40
395.65	1720.29
395.84	1724.97
396.04	1757.74
396.23	1652.42
396.42	1776.47
396.62	1795.19
396.81	1750.72
397.00	1806.89
397.19	1837.32
397.39	1853.70
397.58	1837.32
397.77	1858.39
397.97	1846.68
398.16	1760.08
398.35	1930.94
398.55	1952.01
398.74	1947.33
398.93	1963.71
399.12	1963.71
399.32	1867.75
399.51	1893.49
399.70	1954.35
399.90	2022.22
400.09	1989.46
400.28	2101.80
400.47	2087.76
400.67	1982.43
400.86	2005.84
401.05	2092.44
401.24	2085.42
401.44	2188.40
401.63	2228.19
401.82	2183.72
402.01	2108.82
402.21	2174.36
402.40	2183.72
402.59	2174.36
402.78	2176.70
402.97	2230.53
403.17	2237.55
403.36	2260.96
403.55	2363.94
403.74	2270.32
403.93	2389.69
404.13	2375.64
404.32	2368.62
404.51	2438.84
404.70	2438.84
404.89	2438.84
405.09	2445.86
405.28	2473.95
405.47	2389.69
405.66	2523.10
405.85	2513.74
406.05	2516.08
406.24	2600.34
406.43	2562.89
406.62	2609.70
406.81	2726.72
407.00	2525.44
407.20	2640.12
407.39	2541.82
407.58	2630.76
407.77	2766.51
407.96	2731.41
408.15	2731.41
408.34	2822.69
408.54	2911.63
408.73	2869.50
408.92	2855.45
409.11	2902.26
409.30	2867.16
409.49	2846.09
409.68	2909.29
409.87	3019.29
410.07	3026.31
410.26	2993.55
410.45	2984.18
410.64	2991.20
410.83	3094.19
411.02	3110.57
411.21	3173.77
411.40	3141.00
411.59	3396.12
411.78	3314.20
411.98	3169.09
412.17	3332.92
412.36	3379.73
412.55	3473.36
412.74	3571.66
412.93	3522.51
413.12	3372.71
413.31	3606.77
413.50	3473.36
413.69	3480.38
413.88	3639.53
414.07	3616.13
414.26	3609.11
414.45	3756.56
414.64	3716.77
414.83	3817.41
415.02	3782.31
415.22	3840.82
415.41	3742.52
415.60	3929.76
415.79	3868.91
415.98	3960.19
416.17	4037.42
416.36	4060.83
416.55	3962.53
416.74	4072.53
416.93	4091.26
417.12	4098.28
417.31	4142.75
417.50	4252.75
417.69	4411.91
417.88	4088.92
418.07	4161.47
418.26	4304.25
418.45	4458.72
418.64	4468.08
418.83	4486.81
419.02	4458.72
419.21	4550.00
419.39	4596.81
419.58	4517.23
419.77	4449.36
419.96	4491.49
420.15	4594.47
420.34	4730.22
420.53	4629.58
420.72	4652.98
420.91	4809.80
421.10	4706.82
421.29	4865.97
421.48	4650.64
421.67	4758.31
421.86	4926.83
422.05	4779.37
422.24	4901.08
422.43	4835.55
422.61	4959.60
422.80	4919.81
422.99	4945.55
423.18	4868.31
423.37	5008.75
423.56	5055.56
423.75	4767.67
423.94	4734.90
424.13	4650.64
424.32	4688.09
424.50	4868.31
424.69	5128.11
424.88	5095.35
425.07	5069.60
425.26	4931.51
425.45	4992.36
425.64	4964.28
425.83	4931.51
426.01	5053.22
426.20	5139.82
426.39	5186.63
426.58	5158.54
426.77	5170.24
426.96	5093.01
427.15	5102.37
427.33	5357.49
427.52	5188.97
427.71	5284.93
427.90	5273.23
428.09	5350.46
428.28	5460.47
428.46	5371.53
428.65	5547.07
428.84	5628.99
429.03	5526.00
429.22	5397.28
429.40	5504.94
429.59	5717.93
429.78	5324.72
429.97	5336.42
430.16	5570.48
430.34	5715.59
430.53	5682.82
430.72	5722.61
430.91	5760.06
431.10	5804.53
431.28	5895.81
431.47	5727.29
431.66	5757.72
431.85	5872.40
432.03	6017.52
432.22	6064.33
432.41	5987.09
432.60	6104.12
432.79	6040.92
432.97	5970.71
433.16	5935.60
433.35	6155.61
433.54	6122.84
433.72	6071.35
433.91	6200.08
434.10	6197.74
434.28	6122.84
434.47	6335.83
434.66	6171.99
434.85	6415.41
435.03	6368.60
435.22	6279.66
435.41	6497.33
435.59	6509.03
435.78	6614.35
435.97	6478.60
436.16	6434.13
436.34	6361.58
436.53	6532.44
436.72	6677.55
436.90	6429.45
437.09	6665.85
437.28	6593.29
437.46	6558.18
437.65	6759.47
437.84	6717.34
438.02	6801.60
438.21	6937.35
438.40	6733.72
438.58	7215.87
438.77	7084.80
438.96	7105.87
439.14	7087.14
439.33	7260.34
439.52	7396.09
439.70	7506.10
439.89	7459.29
440.08	7435.88
440.26	7513.12
440.45	7442.90
440.63	7644.19
440.82	7726.11
441.01	7524.82
441.19	7712.07
441.38	7695.68
441.57	7896.97
441.75	7880.58
441.94	8032.72
442.12	7988.25
442.31	8042.08
442.50	8081.87
442.68	8131.02
442.87	7939.10
443.05	8114.64
443.24	8173.15
443.43	7976.55
443.61	8325.29
443.80	8463.38
443.98	8112.30
444.17	7698.02
444.35	8203.58
444.54	8425.93
444.73	8238.69
444.91	8273.79
445.10	8369.76
445.28	8393.16
445.47	8446.99
445.65	8318.26
445.84	8353.37
446.02	8573.38
446.21	8573.38
446.39	8397.84
446.58	8463.38
446.77	8496.14
446.95	8507.85
447.14	8416.57
447.32	8634.24
447.51	8610.83
447.69	8465.72
447.88	8674.03
448.06	8430.61
448.25	8589.77
448.43	8533.59
448.62	8676.37
448.80	8510.19
448.99	8650.62
449.17	8875.31
449.36	8491.46
449.54	8746.58
449.73	9167.88
449.91	8896.38
450.10	9011.06
450.28	9090.64
450.46	9226.39
450.65	9034.47
450.83	9226.39
451.02	9238.09
451.20	9083.62
451.39	9238.09
451.57	9076.60
451.76	9067.24
451.94	9156.18
452.13	9359.80
452.31	9577.47
452.49	9413.63
452.68	9371.50
452.86	9423.00
453.05	9563.43
453.23	9687.48
453.42	9408.95
453.60	9523.64
453.78	9708.54
453.97	9455.76
454.15	9671.09
454.34	9603.22
454.52	9664.07
454.70	9633.64
454.89	9755.35
455.07	9722.59
455.26	9853.66
455.44	10071.33
455.62	9750.67
455.81	9977.70
455.99	10214.10
456.17	10176.65
456.36	10251.55
456.54	10148.56
456.73	10298.36
456.91	10677.52
457.09	10513.69
457.28	10626.03
457.46	10321.76
457.64	10485.60
457.83	10597.95
458.01	10658.80
458.19	10796.89
458.38	10757.10
458.56	10757.10
458.74	10782.85
458.93	10766.46
459.11	10874.13
459.29	10850.72
459.48	10731.36
459.66	11012.22
459.84	10984.13
460.03	11185.42
460.21	10981.79
460.39	11295.43
460.57	11274.36
460.76	11119.89
460.94	11243.93
461.12	11337.56
461.31	11255.64
461.49	11091.80
461.67	11180.74
461.85	11527.14
462.04	11351.60
462.22	11936.73
462.40	11564.59
462.59	11651.19
462.77	11557.57
462.95	11784.60
463.13	11641.82
463.32	11655.87
463.50	11744.81
463.68	11943.75
463.86	11906.31
464.05	11775.24
464.23	11852.47
464.41	11861.84
464.59	11630.12
464.78	12016.31
464.96	12149.72
465.14	12112.27
465.32	12264.41
465.50	12313.56
465.69	12294.83
465.87	12341.64
466.05	12152.06
466.23	12217.60
466.41	12241.00
466.60	12432.93
466.78	12067.80
466.96	12472.71
467.14	12329.94
467.32	12451.65
467.51	12535.91
467.69	12432.93
467.87	12355.69
468.05	12601.44
468.23	12437.61
468.41	12404.84
468.60	12657.62
468.78	12706.77
468.96	12706.77
469.14	12854.22
469.32	12980.61
469.50	12961.89
469.69	13018.06
469.87	13266.16
470.05	13322.33
470.23	13195.94
470.41	13177.22
470.59	13535.32
470.77	13327.01
470.95	13233.39
471.14	13659.37
471.32	13181.90
471.50	13549.36
471.68	13547.02
471.86	13549.36
472.04	13886.40
472.22	14113.43
472.40	13891.08
472.58	13921.51
472.77	14253.86
472.95	14050.24
473.13	14609.62
473.31	14272.59
473.49	14469.19
473.67	14190.67
473.85	14450.47
474.03	14590.90
474.21	14633.03
474.39	14836.66
474.57	14815.59
474.75	14958.36
474.93	15103.48
475.12	15489.67
475.30	15281.36
475.48	15576.27
475.66	15379.66
475.84	15262.63
476.02	15723.72
476.20	15630.10
476.38	15857.13
476.56	16112.25
476.74	16121.61
476.92	15941.39
477.10	15988.20
477.28	16065.44
477.46	16217.57
477.64	16570.99
477.82	16779.30
478.00	17128.04
478.18	16819.09
478.36	17135.06
478.54	17315.28
478.72	17207.62
478.90	17479.12
479.08	17872.33
479.26	17827.86
479.44	17940.21
479.62	18122.77
479.80	18251.50
479.98	18429.38
480.16	18775.78
480.34	18384.91
480.52	18740.67
480.70	19126.86
480.88	18508.96
481.06	18972.38
481.24	19019.19
481.41	19281.33
481.59	19349.21
481.77	19686.25
481.95	19845.40
482.13	19641.78
482.31	19824.34
482.49	20512.46
482.67	20299.47
482.85	20472.67
483.03	20678.63
483.21	21060.14
483.39	21270.79
483.57	20980.56
483.74	21326.96
483.92	21649.96
484.10	21312.92
484.28	22221.05
484.46	22178.92
484.64	22530.00
484.82	22111.04
485.00	22394.25
485.18	23080.02
485.35	23019.17
485.53	23058.96
485.71	23428.76
485.89	23611.32
486.07	23449.83
486.25	23889.85
486.43	23611.32
486.61	23606.64
486.78	24397.74
486.96	24517.11
487.14	24896.28
487.32	24924.36
487.50	25078.84
487.68	25546.95
487.85	25570.35
488.03	25729.51
488.21	25986.97
488.39	25748.23
488.57	26529.97
488.75	26492.52
488.92	26525.29
489.10	26876.37
489.28	26651.68
489.46	27431.08
489.64	27447.46
489.81	27920.25
489.99	28156.64
490.17	28238.56
490.35	28442.19
490.53	28435.17
490.70	29156.05
490.88	28807.31
491.06	28645.82
491.24	29221.59
491.41	29443.94
491.59	29125.63
491.77	29479.05
491.95	30057.16
492.13	29935.45
492.30	30448.03
492.48	30644.63
492.66	30464.41
492.84	30443.35
493.01	31000.40
493.19	31255.51
493.37	31168.91
493.54	31358.50
493.72	31789.16
493.90	31489.57
494.08	31936.61
494.25	32098.11
494.43	32201.09
494.61	32584.94
494.79	33064.75
494.96	32872.82
495.14	32818.99
495.32	33195.82
495.49	33621.80
495.67	33537.54
495.85	34040.75
496.02	34075.86
496.20	34216.29
496.38	34155.44
496.55	34705.46
496.73	35161.87
496.91	35089.31
497.09	34820.15
497.26	35166.55
497.44	35044.84
497.62	35782.11
497.79	36034.89
497.97	35878.07
498.14	36390.65
498.32	36760.45
498.50	36650.45
498.67	36968.76
498.85	37127.92
499.03	37228.56
499.20	37195.79
499.38	37076.43
499.56	37188.77
499.73	37511.77
499.91	38251.38
500.08	38333.29
500.26	37434.53
500.44	38017.32
500.61	38260.74
500.79	37701.35
500.97	38337.98
501.14	38967.58
501.32	39229.72
501.49	39026.09
501.67	39276.53
501.84	39285.89
502.02	39103.33
502.20	39208.65
502.37	39775.06
502.55	39545.69
502.72	39868.69
502.90	40004.44
503.07	40030.18
503.25	40191.68
503.43	40116.78
503.60	40582.55
503.78	40708.94
503.95	40612.98
504.13	41104.49
504.30	41024.91
504.48	41177.04
504.65	41216.83
504.83	41624.09
505.01	41771.54
505.18	42174.11
505.36	42078.15
505.53	41813.67
505.71	41628.77
505.88	42162.41
506.06	42052.41
506.23	42450.30
506.41	42087.51
506.58	42511.15
506.76	42958.19
506.93	42967.55
507.11	42691.37
507.28	42974.58
507.46	43131.39
507.63	43234.38
507.81	43658.01
507.98	43150.12
508.16	43480.13
508.33	43430.98
508.50	43683.76
508.68	44044.20
508.85	44018.46
509.03	44119.10
509.20	44399.96
509.38	44542.74
509.55	44762.75
509.73	44863.39
509.90	45132.55
510.08	44669.12
510.25	44975.73
510.42	45125.53
510.60	45247.24
510.77	45390.01
510.95	45799.60
511.12	45408.73
511.30	45464.91
511.47	45586.61
511.64	45818.33
511.82	46288.77
511.99	46089.83
512.17	46344.95
512.34	45911.95
512.51	46876.25
512.69	46791.99
512.86	46742.84
513.04	47143.07
513.21	47033.07
513.38	46892.63
513.56	47229.67
513.73	47129.03
513.90	47374.78
514.08	47129.03
514.25	47697.78
514.43	47988.00
514.60	47868.64
514.77	47852.25
514.95	48137.80
515.12	48060.56
515.29	47793.74
515.47	48271.21
515.64	48086.31
515.81	48275.89
515.99	48800.17
516.16	49013.16
516.33	48514.62
516.51	48933.58
516.68	49169.97
516.85	48891.45
517.03	49057.63
517.20	49256.57
517.37	49364.24
517.54	49029.54
517.72	49270.62
517.89	49375.94
518.06	49675.53
518.24	50019.59
518.41	49565.52
518.58	49886.18
518.75	49411.05
518.93	49827.66
519.10	49619.36
519.27	49886.18
519.45	50120.23
519.62	50232.58
519.79	50241.94
519.96	50382.37
520.14	50841.12
520.31	50279.39
520.48	51009.64
520.65	50506.42
520.83	51072.83
521.00	51121.98
521.17	51035.38
521.34	51173.47
521.52	51192.20
521.69	51096.24
521.86	51667.33
522.03	51578.39
522.20	51484.76
522.38	51924.78
522.55	51501.15
522.72	51835.84
522.89	51533.92
523.07	52310.97
523.24	51892.02
523.41	52083.94
523.58	51894.36
523.75	52271.18
523.92	52210.33
524.10	52645.67
524.27	52109.69
524.44	52409.28
524.61	52435.02
524.78	52467.79
524.96	52486.51
525.13	52624.60
525.30	52678.44
525.47	52832.91
525.64	52678.44
525.81	53223.78
525.98	53191.01
526.16	52900.79
526.33	52956.96
526.50	53544.44
526.67	53141.86
526.84	53172.29
527.01	53059.94
527.18	53396.98
527.36	53256.55
527.53	53008.45
527.70	53624.01
527.87	53815.94
528.04	53490.60
528.21	53691.89
528.38	53546.78
528.55	53918.92
528.72	53607.63
528.89	53640.40
529.07	53731.68
529.24	53921.26
529.41	53982.12
529.58	53947.01
529.75	53605.29
529.92	53982.12
530.09	54129.57
530.26	54403.41
530.43	54511.08
530.60	54321.49
530.77	53916.58
530.94	54258.30
531.11	54298.09
531.28	54447.88
531.46	54307.45
531.63	54639.81
531.80	54665.55
531.97	54604.70
532.14	54827.05
532.31	54944.08
532.48	54789.60
532.65	54742.79
532.82	54775.56
532.99	54934.71
533.16	54974.50
533.33	55199.19
533.50	55187.49
533.67	55386.44
533.84	55004.93
534.01	55079.83
534.18	55398.14
534.35	55597.09
534.52	55363.03
534.69	55529.21
534.86	55426.23
535.03	55543.25
535.20	55800.71
535.37	55613.47
535.54	55716.45
535.71	55267.07
535.88	55667.30
536.05	55559.64
536.22	55845.18
536.38	55973.91
536.55	55941.14
536.72	55856.88
536.89	55817.10
537.06	55859.23
537.23	55959.87
537.40	56002.00
537.57	55990.30
537.74	56100.30
537.91	56324.99
538.08	56266.48
538.25	56170.52
538.42	55950.51
538.59	56275.84
538.75	56067.53
538.92	56332.01
539.09	56521.60
539.26	56226.69
539.43	56547.34
539.60	56750.97
539.77	56229.03
539.94	56678.41
540.11	56666.71
540.28	56617.56
540.44	56647.99
540.61	56807.14
540.78	56638.62
540.95	56699.48
541.12	56596.49
541.29	56545.00
541.46	56975.66
541.62	56811.82
541.79	56952.26
541.96	56743.95
542.13	56802.46
542.30	56884.38
542.47	57249.50
542.63	57088.01
542.80	57127.80
542.97	57270.57
543.14	57476.54
543.31	57401.64
543.48	57392.28
543.64	57593.56
543.81	57558.45
543.98	57497.60
544.15	57560.79
544.32	57642.71
544.48	57783.15
544.65	57661.44
544.82	57598.24
544.99	57490.58
545.16	57776.12
545.32	57652.08
545.49	57851.02
545.66	57811.23
545.83	58033.58
546.00	58010.18
546.16	57832.30
546.33	57766.76
546.50	57825.28
546.67	58092.10
546.83	57736.34
547.00	58246.57
547.17	57914.22
547.34	58040.60
547.50	58248.91
547.67	58230.19
547.84	58131.89
548.00	58351.90
548.17	58628.08
548.34	58262.96
548.51	58494.67
548.67	58543.82
548.84	58403.39
549.01	58363.60
549.18	58267.64
549.34	58415.09
549.51	58450.20
549.68	58525.10
549.84	58597.65
550.01	58621.06
550.18	58773.19
550.34	58660.85
550.51	58787.24
550.68	58660.85
550.84	58574.25
551.01	58922.99
551.18	58756.81
551.34	58852.77
551.51	58702.98
551.68	58958.09
551.84	58698.30
552.01	58890.22
552.18	58740.42
552.34	58901.92
552.51	59000.22
552.68	58864.47
552.84	58981.50
553.01	59138.32
553.18	59248.32
553.34	59143.00
553.51	59175.76
553.67	59117.25
553.84	59206.19
554.01	59070.44
554.17	59103.21
554.34	59283.43
554.51	59203.85
554.67	59264.70
554.84	59496.42
555.00	59285.77
555.17	59203.85
555.33	59084.48
555.50	59255.34
555.67	59075.12
555.83	59384.07
556.00	59428.54
556.16	59370.03
556.33	59402.80
556.50	59517.48
556.66	59423.86
556.83	59707.07
556.99	59531.53
557.16	59693.02
557.32	59578.34
557.49	59896.65
557.65	59629.83
557.82	59522.16
557.98	59538.55
558.15	59903.67
558.32	59835.80
558.48	59585.36
558.65	59812.39
558.81	59746.86
558.98	59730.47
559.14	59840.48
559.31	59943.46
559.47	59882.61
559.64	59604.08
559.80	59880.27
559.97	59938.78
560.13	59861.54
560.30	59934.10
560.46	60030.06
560.63	60079.21
560.79	60123.68
560.96	60137.72
561.12	59990.27
561.29	59906.01
561.45	60179.85
561.61	60053.47
561.78	60018.36
561.94	60104.96
562.11	60163.47
562.27	60165.81
562.44	59992.61
562.60	60219.64
562.77	60186.88
562.93	60151.77
563.10	60207.94
563.26	60247.73
563.42	60516.89
563.59	60236.03
563.75	60245.39
563.92	60200.92
564.08	60090.91
564.24	60355.39
564.41	60238.37
564.57	60540.30
564.74	60390.50
564.90	60374.12
565.07	60423.27
565.23	60439.65
565.39	60411.57
565.56	60331.99
565.72	60441.99
565.88	60481.78
566.05	60343.69
566.21	60437.31
566.38	60729.88
566.54	60484.12
566.70	60465.40
566.87	60762.65
567.03	60449.02
567.19	60631.58
567.36	60427.95
567.52	60523.91
567.68	60692.43
567.85	60577.75
568.01	60603.49
568.17	60519.23
568.34	60540.30
568.50	60554.34
568.66	60484.12
568.83	60652.64
568.99	60603.49
569.15	60605.83
569.32	60629.24
569.48	60617.53
569.64	60629.24
569.81	60718.18
569.97	60617.53
570.13	60699.45
570.30	60458.38
570.46	60750.94
570.62	60849.25
570.78	60886.70
570.95	60704.13
571.11	60924.14
571.27	60795.42
571.43	60767.33
571.60	60884.36
571.76	60753.29
571.92	60767.33
572.09	60755.63
572.25	60858.61
572.41	60736.90
572.57	60783.71
572.74	61043.51
572.90	60816.48
573.06	60865.63
573.22	60893.72
573.38	60746.26
573.55	60956.91
573.71	61038.83
573.87	60980.32
574.03	60549.66
574.20	60940.53
574.36	60786.05
574.52	61104.37
574.68	61001.38
574.84	61034.15
575.01	60987.34
575.17	60807.12
575.33	60842.23
575.49	60989.68
575.65	60989.68
575.82	61083.30
575.98	61146.50
576.14	61099.68
576.30	61148.84
576.46	60947.55
576.62	60949.89
576.79	60750.94
576.95	61031.81
577.11	61055.21
577.27	61027.13
577.43	60910.10
577.59	60924.14
577.75	60907.76
577.92	60729.88
578.08	61029.47
578.24	60940.53
578.40	61261.18
578.56	61130.11
578.72	61087.98
578.88	61085.64
579.04	61200.33
579.21	61008.40
579.37	61298.63
579.53	61162.88
579.69	60933.51
579.85	61162.88
580.01	61240.12
580.17	60996.70
580.33	61293.95
580.49	61013.08
580.65	61043.51
580.82	60952.23
580.98	61221.39
581.14	60748.60
581.30	61137.13
581.46	61197.99
581.62	61195.65
581.78	61106.71
581.94	61286.93
582.10	61109.05
582.26	61244.80
582.42	61216.71
582.58	61291.61
582.74	61097.34
582.90	61031.81
583.06	61195.65
583.22	60987.34
583.38	61071.60
583.54	61158.20
583.70	61272.88
583.86	61130.11
584.02	61076.28
584.18	61387.57
584.34	61188.63
584.50	61254.16
584.66	61221.39
584.82	61151.18
584.98	61364.17
585.14	61366.51
585.30	61104.37
585.46	61134.79
585.62	61396.93
585.78	61406.30
585.94	61069.26
586.10	61289.27
586.26	61385.23
586.42	61219.05
586.58	61247.14
586.74	61258.84
586.90	61043.51
587.06	61073.94
587.22	61312.67
587.38	61221.39
587.54	61520.98
587.70	61394.59
587.86	61221.39
588.02	61326.72
588.18	61347.78
588.34	61146.50
588.49	61137.13
