SpectraSuite Data File
++++++++++++++++++++++++++++++++++++
Date: Fri Oct 25 10:43:41 EDT 2013
User: price-jones
Dark Spectrum Present: No
Reference Spectrum Present: No
Number of Sampled Component Spectra: 1
Spectrometers: USB2+H05261
Integration Time (usec): 100000 (USB2+H05261)
Spectra Averaged: 1 (USB2+H05261)
Boxcar Smoothing: 0 (USB2+H05261)
Correct for Electrical Dark: No (USB2+H05261)
Strobe/Lamp Enabled: No (USB2+H05261)
Correct for Detector Non-linearity: No (USB2+H05261)
Correct for Stray Light: No (USB2+H05261)
Number of Pixels in Processed Spectrum: 2048
>>>>>Begin Processed Spectral Data<<<<<
365.73	128.73
365.92	128.73
366.12	128.73
366.32	74.90
366.52	30.43
366.72	11.70
366.91	0.00
367.11	95.96
367.31	0.00
367.51	42.13
367.70	4.68
367.90	35.11
368.10	63.19
368.30	23.41
368.49	25.75
368.69	18.72
368.89	46.81
369.09	60.85
369.28	49.15
369.48	56.17
369.68	79.58
369.87	110.01
370.07	145.11
370.27	166.18
370.47	203.63
370.66	367.46
370.86	503.22
371.06	433.00
371.25	416.62
371.45	475.13
371.65	416.62
371.84	475.13
372.04	484.49
372.24	601.52
372.44	423.64
372.63	440.02
372.83	547.69
373.03	538.32
373.22	517.26
373.42	566.41
373.62	500.87
373.81	580.45
374.01	550.03
374.21	564.07
374.40	571.09
374.60	627.26
374.79	575.77
374.99	634.29
375.19	566.41
375.38	603.86
375.58	561.73
375.78	645.99
375.97	603.86
376.17	634.29
376.37	596.84
376.56	631.94
376.76	554.71
376.95	566.41
377.15	645.99
377.35	683.44
377.54	624.92
377.74	638.97
377.93	671.73
378.13	624.92
378.33	676.41
378.52	648.33
378.72	641.31
378.91	657.69
379.11	674.07
379.31	629.60
379.50	669.39
379.70	734.93
379.89	669.39
380.09	692.80
380.28	669.39
380.48	784.08
380.68	746.63
380.87	720.88
381.07	734.93
381.26	741.95
381.46	676.41
381.65	753.65
381.85	660.03
382.04	737.27
382.24	767.70
382.43	763.01
382.63	763.01
382.83	704.50
383.02	830.89
383.22	760.67
383.41	802.80
383.61	720.88
383.80	814.51
384.00	770.04
384.19	685.78
384.39	814.51
384.58	875.36
384.78	800.46
384.97	800.46
385.17	812.17
385.36	866.00
385.56	858.98
385.75	809.83
385.95	875.36
386.14	849.61
386.34	891.74
386.53	854.30
386.72	807.48
386.92	894.08
387.11	866.00
387.31	945.58
387.50	905.79
387.70	964.30
387.89	887.06
388.09	898.77
388.28	905.79
388.48	870.68
388.67	908.13
388.86	954.94
389.06	961.96
389.25	992.39
389.45	1004.09
389.64	980.68
389.84	1083.67
390.03	964.30
390.22	971.32
390.42	1034.52
390.61	1032.18
390.81	1151.54
391.00	1064.94
391.19	1015.79
391.39	1071.97
391.58	1048.56
391.78	1116.44
391.97	1029.84
392.16	1032.18
392.36	1067.28
392.55	1109.41
392.75	1043.88
392.94	978.34
393.13	987.71
393.33	976.00
393.52	1011.11
393.71	1048.56
393.91	1135.16
394.10	1104.73
394.29	1074.31
394.49	1153.88
394.68	1224.10
394.88	1263.89
395.07	1172.61
395.26	1277.93
395.46	1291.98
395.65	1320.06
395.84	1270.91
396.04	1247.51
396.23	1144.52
396.42	1174.95
396.62	1210.06
396.81	1205.38
397.00	1275.59
397.19	1238.14
397.39	1315.38
397.58	1313.04
397.77	1301.34
397.97	1324.74
398.16	1378.58
398.35	1476.88
398.55	1378.58
398.74	1465.18
398.93	1528.37
399.12	1542.41
399.32	1427.73
399.51	1519.01
399.70	1568.16
399.90	1675.82
400.09	1621.99
400.28	1605.61
400.47	1743.70
400.67	1685.19
400.86	1626.67
401.05	1720.29
401.24	1645.40
401.44	1671.14
401.63	1638.38
401.82	1774.13
402.01	1710.93
402.21	1736.68
402.40	1729.66
402.59	1720.29
402.78	1750.72
402.97	1816.26
403.17	1701.57
403.36	1863.07
403.55	1844.34
403.74	1874.77
403.93	1863.07
404.13	1870.09
404.32	1954.35
404.51	1781.15
404.70	1930.94
404.89	1881.79
405.09	1994.14
405.28	1989.46
405.47	1954.35
405.66	1944.99
405.85	2059.67
406.05	1921.58
406.24	1952.01
406.43	2031.58
406.62	2054.99
406.81	2157.97
407.00	2064.35
407.20	2012.86
407.39	2078.40
407.58	2209.47
407.77	2190.74
407.96	2141.59
408.15	2195.42
408.34	2260.96
408.54	2326.49
408.73	2277.34
408.92	2279.68
409.11	2270.32
409.30	2331.17
409.49	2431.82
409.68	2321.81
409.87	2293.72
410.07	2256.28
410.26	2431.82
410.45	2410.75
410.64	2509.05
410.83	2532.46
411.02	2546.50
411.21	2619.06
411.40	2700.98
411.59	2740.77
411.78	2621.40
411.98	2663.53
412.17	2609.70
412.36	2597.99
412.55	2752.47
412.74	2754.81
412.93	2841.41
413.12	2766.51
413.31	2944.39
413.50	2822.69
413.69	2813.32
413.88	2972.48
414.07	2935.03
414.26	3066.10
414.45	3000.57
414.64	2897.58
414.83	3068.44
415.02	3183.13
415.22	3255.69
415.41	3096.53
415.60	3281.43
415.79	3185.47
415.98	3356.33
416.17	3243.98
416.36	3353.99
416.55	3267.39
416.74	3368.03
416.93	3255.69
417.12	3393.78
417.31	3260.37
417.50	3400.80
417.69	3571.66
417.88	3428.88
418.07	3536.55
418.26	3550.59
418.45	3496.76
418.64	3648.90
418.83	3667.62
419.02	3555.27
419.21	3749.54
419.39	3618.47
419.58	3534.21
419.77	3541.23
419.96	3700.39
420.15	3581.02
420.34	3744.86
420.53	3782.31
420.72	3824.44
420.91	3981.25
421.10	3770.60
421.29	3960.19
421.48	3836.14
421.67	4037.42
421.86	3763.58
422.05	3768.26
422.24	3885.29
422.43	3882.95
422.61	3950.82
422.80	4014.02
422.99	3974.23
423.18	3978.91
423.37	3997.64
423.56	3859.54
423.75	3950.82
423.94	4021.04
424.13	3623.15
424.32	3911.04
424.50	4014.02
424.69	4074.87
424.88	4119.34
425.07	3861.88
425.26	3950.82
425.45	3927.42
425.64	3911.04
425.83	3995.29
426.01	4215.30
426.20	4081.89
426.39	4124.02
426.58	3999.98
426.77	3953.16
426.96	4128.70
427.15	3992.95
427.33	4126.36
427.52	4180.20
427.71	4243.39
427.90	4208.28
428.09	4304.25
428.28	4280.84
428.46	4175.52
428.65	4229.35
428.84	4236.37
429.03	4278.50
429.22	4224.67
429.40	4170.83
429.59	4124.02
429.78	4021.04
429.97	3838.48
430.16	4163.81
430.34	4135.73
430.53	4133.39
430.72	4351.06
430.91	4201.26
431.10	4402.55
431.28	4613.20
431.47	4643.62
431.66	4704.48
431.85	4660.01
432.03	4589.79
432.22	4737.24
432.41	4725.54
432.60	4755.97
432.79	4819.16
432.97	4830.87
433.16	4681.07
433.35	4868.31
433.54	4858.95
433.72	4798.10
433.91	4777.03
434.10	4835.55
434.28	4851.93
434.47	4933.85
434.66	5078.96
434.85	5036.83
435.03	5135.14
435.22	5060.24
435.41	5205.35
435.59	5179.61
435.78	5167.90
435.97	5191.31
436.16	5076.62
436.34	5224.08
436.53	5235.78
436.72	5226.42
436.90	5151.52
437.09	5294.29
437.28	5034.49
437.46	5210.03
437.65	5198.33
437.84	5305.99
438.02	5125.77
438.21	5142.16
438.40	5071.94
438.58	5448.77
438.77	5404.30
438.96	5432.38
439.14	5558.77
439.33	5776.44
439.52	5820.91
439.70	5577.50
439.89	5757.72
440.08	5753.04
440.26	5771.76
440.45	5673.46
440.63	5799.85
440.82	5891.13
441.01	5844.32
441.19	6256.25
441.38	6438.81
441.57	6129.86
441.75	6303.06
441.94	6394.34
442.12	6384.98
442.31	6452.86
442.50	6256.25
442.68	6319.45
442.87	6389.66
443.05	6600.31
443.24	6436.47
443.43	6427.11
443.61	6523.07
443.80	6750.10
443.98	6368.60
444.17	6326.47
444.35	6752.45
444.54	6813.30
444.73	6506.69
444.91	6602.65
445.10	6637.76
445.28	6607.33
445.47	6562.86
445.65	6413.07
445.84	6642.44
446.02	6670.53
446.21	6579.25
446.39	6588.61
446.58	6679.89
446.77	6729.04
446.95	6565.20
447.14	6876.49
447.32	6789.89
447.51	6754.79
447.69	6754.79
447.88	6768.83
448.06	6768.83
448.25	6736.06
448.43	6853.09
448.62	6895.22
448.80	6759.47
448.99	6904.58
449.17	6864.79
449.36	6773.51
449.54	7089.48
449.73	7155.02
449.91	7227.57
450.10	7166.72
450.28	7148.00
450.46	7293.11
450.65	7206.51
450.83	7274.38
451.02	7227.57
451.20	7335.24
451.39	7286.09
451.57	7302.47
451.76	7199.49
451.94	7328.22
452.13	7417.16
452.31	7199.49
452.49	7073.10
452.68	7452.27
452.86	7328.22
453.05	7337.58
453.23	7403.11
453.42	7286.09
453.60	7255.66
453.78	7396.09
453.97	7307.15
454.15	7564.61
454.34	7529.50
454.52	7630.15
454.70	7576.31
454.89	7705.04
455.07	7798.66
455.26	7695.68
455.44	7882.92
455.62	7850.16
455.81	7878.24
455.99	7995.27
456.17	7981.23
456.36	7960.16
456.54	7880.58
456.73	7950.80
456.91	8215.28
457.09	8217.62
457.28	8442.31
457.46	8177.83
457.64	8140.38
457.83	8208.26
458.01	8131.02
458.19	8393.16
458.38	8346.35
458.56	8444.65
458.74	8463.38
458.93	8355.71
459.11	8273.79
459.29	8231.66
459.48	8250.39
459.66	8442.31
459.84	8297.20
460.03	8657.64
460.21	8430.61
460.39	8720.84
460.57	8559.34
460.76	8641.26
460.94	8709.13
461.12	8730.20
461.31	8793.39
461.49	8821.48
461.67	8683.39
461.85	8950.21
462.04	8830.84
462.22	9490.87
462.40	9125.75
462.59	9100.00
462.77	9149.15
462.95	9128.09
463.13	9055.53
463.32	8957.23
463.50	9022.77
463.68	9312.99
463.86	9139.79
464.05	9050.85
464.23	9125.75
464.41	9266.18
464.59	8954.89
464.78	9170.22
464.96	9273.20
465.14	9090.64
465.32	9224.05
465.50	9280.22
465.69	9483.85
465.87	9357.46
466.05	9472.15
466.23	9158.52
466.41	9430.02
466.60	9486.19
466.78	9287.25
466.96	9287.25
467.14	9420.66
467.32	9425.34
467.51	9462.79
467.69	9563.43
467.87	9542.36
468.05	9570.45
468.23	9383.21
468.41	9415.98
468.60	9661.73
468.78	9804.50
468.96	9717.90
469.14	9909.83
469.32	9867.70
469.50	9547.05
469.69	9530.66
469.87	9778.76
470.05	9895.78
470.23	9951.96
470.41	9947.28
470.59	9816.21
470.77	9961.32
470.95	9984.73
471.14	10197.71
471.32	10047.92
471.50	10523.05
471.68	10296.02
471.86	10494.96
472.04	10375.59
472.22	10766.46
472.40	10478.58
472.58	10501.98
472.77	10553.48
472.95	10656.46
473.13	10949.03
473.31	10579.22
473.49	10665.82
473.67	10640.08
473.85	10778.17
474.03	10986.47
474.21	10988.82
474.39	11129.25
474.57	11178.40
474.75	11316.49
474.93	11353.94
475.12	11323.51
475.30	11307.13
475.48	11190.10
475.66	11438.20
475.84	11363.30
476.02	11545.86
476.20	11592.67
476.38	11751.83
476.56	11936.73
476.74	12039.72
476.92	11901.62
477.10	12046.74
477.28	12133.34
477.46	12212.92
477.64	12369.73
477.82	12739.54
478.00	12788.69
478.18	12833.16
478.36	12512.50
478.54	12863.58
478.72	12879.97
478.90	13039.12
479.08	13252.11
479.26	13383.18
479.44	13413.61
479.62	13493.19
479.80	13429.99
479.98	13755.33
480.16	13724.90
480.34	13673.41
480.52	13870.01
480.70	13855.97
480.88	13809.16
481.06	13853.63
481.24	14118.11
481.41	14195.35
481.59	14478.55
481.77	14539.41
481.95	14427.06
482.13	14787.50
482.31	14738.35
482.49	15002.83
482.67	15002.83
482.85	15173.69
483.03	15484.98
483.21	15295.40
483.39	15438.17
483.57	15487.32
483.74	15393.70
483.92	15597.33
484.10	15709.68
484.28	16135.65
484.46	16339.28
484.64	16599.08
484.82	16133.31
485.00	16524.18
485.18	16655.25
485.35	16908.03
485.53	16578.01
485.71	16210.55
485.89	16353.32
486.07	16622.48
486.25	16542.91
486.43	16858.88
486.61	17069.53
486.78	17268.47
486.96	17359.75
487.14	17539.97
487.32	17806.80
487.50	18017.44
487.68	18216.39
487.85	18539.38
488.03	18644.71
488.21	18878.76
488.39	18640.03
488.57	18771.10
488.75	19143.24
488.92	19391.34
489.10	19325.80
489.28	19749.44
489.46	19857.10
489.64	20034.99
489.81	20294.79
489.99	20187.12
490.17	20430.54
490.35	20353.30
490.53	20414.15
490.70	20699.70
490.88	20851.83
491.06	21303.56
491.24	21043.76
491.41	21135.04
491.59	20823.75
491.77	21074.18
491.95	21179.51
492.13	21366.75
492.30	22001.04
492.48	21921.46
492.66	21825.50
492.84	21830.18
493.01	22314.67
493.19	22230.41
493.37	22349.78
493.54	22338.07
493.72	22862.35
493.90	22551.06
494.08	22951.29
494.25	23164.28
494.43	23470.89
494.61	23606.64
494.79	23688.56
494.96	23716.65
495.14	23960.06
495.32	23889.85
495.49	23955.38
495.67	24025.60
495.85	24325.19
496.02	24601.37
496.20	24350.93
496.38	24524.13
496.55	24779.25
496.73	25490.77
496.91	25151.40
497.09	24903.30
497.26	25181.82
497.44	25584.40
497.62	25680.36
497.79	25317.57
497.97	25280.13
498.14	25432.26
498.32	25549.29
498.50	26008.03
498.67	25968.24
498.85	26375.50
499.03	26345.07
499.20	26490.18
499.38	26630.62
499.56	26768.71
499.73	26897.44
499.91	26927.86
500.08	27304.69
500.26	26548.70
500.44	26623.59
500.61	26960.63
500.79	26742.96
500.97	27098.72
501.14	27201.71
501.32	27098.72
501.49	27379.59
501.67	27632.36
501.84	27496.61
502.02	27297.67
502.20	27880.46
502.37	28285.37
502.55	28474.96
502.72	28512.41
502.90	28212.82
503.07	28201.11
503.25	28486.66
503.43	27831.31
503.60	28634.11
503.78	28400.06
503.95	28517.09
504.13	28753.48
504.30	28980.51
504.48	29095.20
504.65	29347.98
504.83	29380.74
505.01	29450.96
505.18	29345.64
505.36	29572.67
505.53	29654.59
505.71	29839.49
505.88	30078.22
506.06	29397.13
506.23	29956.52
506.41	29528.20
506.58	29975.24
506.76	30066.52
506.93	30211.64
507.11	30103.97
507.28	30349.73
507.46	30022.05
507.63	29930.77
507.81	30644.63
507.98	30572.08
508.16	30682.08
508.33	30698.47
508.50	30984.01
508.68	31447.44
508.85	31325.73
509.03	31199.34
509.20	31318.71
509.38	31211.04
509.55	31508.29
509.73	31419.35
509.90	31674.47
510.08	31281.26
510.25	31580.85
510.42	31798.52
510.60	32552.17
510.77	32409.40
510.95	32100.45
511.12	32339.18
511.30	32308.76
511.47	32765.16
511.64	32486.64
511.82	33085.81
511.99	32652.81
512.17	32451.53
512.34	33099.86
512.51	32662.18
512.69	33053.05
512.86	33277.74
513.04	33254.33
513.21	33141.99
513.38	32795.59
513.56	32989.85
513.73	32938.36
513.90	33273.06
514.08	33256.67
514.25	33282.42
514.43	33369.02
514.60	33495.41
514.77	33692.01
514.95	33982.24
515.12	34050.11
515.29	34022.03
515.47	34323.96
515.64	34225.65
515.81	33757.55
515.99	34092.24
516.16	33858.19
516.33	33752.87
516.51	34113.31
516.68	33689.67
516.85	33701.37
517.03	33928.41
517.20	33944.79
517.37	34473.75
517.54	34700.78
517.72	34558.01
517.89	34305.23
518.06	34307.57
518.24	34089.90
518.41	34529.92
518.58	35005.05
518.75	34712.49
518.93	35239.11
519.10	35302.30
519.27	35145.48
519.45	35243.79
519.62	35351.45
519.79	35983.40
519.96	35784.45
520.14	35686.15
520.31	35606.57
520.48	35845.30
520.65	35526.99
520.83	36460.87
521.00	36055.95
521.17	36009.14
521.34	36203.41
521.52	36238.51
521.69	36657.47
521.86	36638.75
522.03	36769.82
522.20	36353.20
522.38	36458.52
522.55	36353.20
522.72	36697.26
522.89	36825.99
523.07	37221.54
523.24	37041.32
523.41	37490.70
523.58	36879.82
523.75	37460.27
523.92	37310.48
524.10	36917.27
524.27	37813.70
524.44	37521.13
524.61	37741.14
524.78	37247.29
524.96	37867.53
525.13	38134.35
525.30	37904.98
525.47	38415.21
525.64	38092.22
525.81	37930.72
525.98	37827.74
526.16	37542.19
526.33	37422.83
526.50	37752.84
526.67	37179.41
526.84	37741.14
527.01	37647.52
527.18	37703.69
527.36	38373.08
527.53	38249.03
527.70	38522.88
527.87	38408.19
528.04	38597.77
528.21	38902.04
528.38	38866.94
528.55	39250.78
528.72	39084.61
528.89	39012.05
529.07	39016.73
529.24	38923.11
529.41	39533.99
529.58	38927.79
529.75	39168.87
529.92	39426.32
530.09	39346.75
530.26	39206.31
530.43	39466.11
530.60	39452.07
530.77	39452.07
530.94	39739.96
531.11	39147.80
531.28	39653.36
531.46	39718.89
531.63	39775.06
531.80	39414.62
531.97	39716.55
532.14	39466.11
532.31	39569.10
532.48	39651.02
532.65	39894.43
532.82	39899.11
532.99	40402.33
533.16	39765.70
533.33	40346.15
533.50	40093.38
533.67	40177.64
533.84	39899.11
534.01	40343.81
534.18	40088.70
534.35	40699.58
534.52	40397.65
534.69	41097.47
534.86	40957.03
535.03	40748.73
535.20	41553.87
535.37	41029.59
535.54	41708.35
535.71	41195.77
535.88	40884.48
536.05	41324.50
536.22	41057.68
536.38	41109.17
536.55	40470.20
536.72	41043.63
536.89	41179.39
537.06	40931.29
537.23	40999.16
537.40	41003.85
537.57	41130.23
537.74	41684.94
537.91	41783.24
538.08	41221.52
538.25	41549.19
538.42	41301.09
538.59	41965.81
538.75	41359.61
538.92	41521.10
539.09	41895.59
539.26	41654.51
539.43	41633.45
539.60	41469.61
539.77	41811.33
539.94	41762.18
540.11	41586.64
540.28	41280.03
540.44	42099.22
540.61	41696.64
540.78	42349.65
540.95	41497.70
541.12	41518.76
541.29	42209.22
541.46	42361.36
541.62	42469.02
541.79	42583.71
541.96	42007.94
542.13	41837.08
542.30	42333.27
542.47	42457.32
542.63	41940.06
542.80	42576.69
542.97	42625.84
543.14	42939.47
543.31	42899.68
543.48	42391.78
543.64	42824.78
543.81	42920.74
543.98	42962.87
544.15	43157.14
544.32	43337.36
544.48	43627.59
544.65	43089.26
544.82	43122.03
544.99	42581.37
545.16	43360.76
545.32	43292.89
545.49	43377.15
545.66	43454.39
545.83	43320.98
546.00	43690.78
546.16	43384.17
546.33	43522.26
546.50	43056.50
546.67	43363.11
546.83	43091.60
547.00	43571.41
547.17	43477.79
547.34	42981.60
547.50	43634.61
547.67	43768.02
547.84	43814.83
548.00	43629.93
548.17	44170.59
548.34	43859.30
548.51	43988.03
548.67	44165.91
548.84	43981.01
549.01	43959.94
549.18	43896.75
549.34	43793.76
549.51	44095.69
549.68	43798.44
549.84	44271.23
550.01	44257.19
550.18	43812.49
550.34	44725.30
550.51	44034.84
550.68	44002.07
550.84	43917.81
551.01	44264.21
551.18	44362.51
551.34	44032.50
551.51	44304.00
551.68	44769.77
551.84	44547.42
552.01	44671.46
552.18	44376.56
552.34	44247.83
552.51	44273.57
552.68	44903.18
552.84	44507.63
553.01	44772.11
553.18	44481.88
553.34	44715.93
553.51	44137.82
553.67	44737.00
553.84	45301.07
554.01	44856.37
554.17	45408.73
554.34	45392.35
554.51	45052.97
554.67	44755.72
554.84	45118.51
555.00	45116.17
555.17	44781.47
555.33	45167.66
555.50	44961.69
555.67	45249.58
555.83	45237.87
556.00	45237.87
556.16	45418.10
556.33	45223.83
556.50	45111.49
556.66	45123.19
556.83	45237.87
556.99	45008.50
557.16	45015.52
557.32	45296.39
557.49	45368.94
557.65	44825.94
557.82	45343.20
557.98	45563.21
558.15	45343.20
558.32	45649.81
558.48	45013.18
558.65	45441.50
558.81	45221.49
558.98	45146.59
559.14	45336.18
559.31	45305.75
559.47	45170.00
559.64	45572.57
559.80	45223.83
559.97	45553.85
560.13	45357.24
560.30	45390.01
560.46	45724.71
560.63	45659.17
560.79	45645.13
560.96	45813.65
561.12	45462.57
561.29	45059.99
561.45	45535.12
561.61	45794.92
561.78	45638.11
561.94	45425.12
562.11	45528.10
562.27	45560.87
562.44	45940.04
562.60	45853.44
562.77	45935.35
562.93	45647.47
563.10	45888.54
563.26	45471.93
563.42	46073.45
563.59	45713.00
563.75	46061.74
563.92	46218.56
564.08	46206.86
564.24	46087.49
564.41	45801.94
564.57	45691.94
564.74	45647.47
564.90	45797.26
565.07	45813.65
565.23	45574.91
565.39	46099.19
565.56	45815.99
565.72	45352.56
565.88	45703.64
566.05	45783.22
566.21	45371.28
566.38	45600.66
566.54	45598.32
566.70	46518.15
566.87	46017.27
567.03	45895.56
567.19	46494.74
567.36	46408.14
567.52	46082.81
567.68	46319.20
567.85	45689.60
568.01	46106.21
568.17	45930.67
568.34	46541.55
568.50	45893.22
568.66	45720.02
568.83	46312.18
568.99	46080.47
569.15	46314.52
569.32	46211.54
569.48	45603.00
569.64	46227.92
569.81	45925.99
569.97	46036.00
570.13	46131.96
570.30	45598.32
570.46	45752.79
570.62	45485.97
570.78	45724.71
570.95	46068.76
571.11	45600.66
571.27	45996.21
571.43	45897.91
571.60	46160.05
571.76	46277.07
571.92	46089.83
572.09	46199.83
572.25	46501.76
572.41	46272.39
572.57	46162.39
572.74	46632.83
572.90	46136.64
573.06	46366.01
573.22	46267.71
573.38	45883.86
573.55	45694.28
573.71	46548.57
573.87	46487.72
574.03	46251.33
574.20	46375.37
574.36	46335.59
574.52	46028.98
574.68	46403.46
574.84	46281.75
575.01	46007.91
575.17	46525.17
575.33	45989.19
575.49	46148.34
575.65	46630.49
575.82	46777.95
575.98	46202.18
576.14	46494.74
576.30	46370.69
576.46	46375.37
576.62	45991.53
576.79	46241.96
576.95	45844.07
577.11	46012.59
577.27	46092.17
577.43	45918.97
577.59	46155.36
577.75	46059.40
577.92	45617.04
578.08	46354.31
578.24	45624.06
578.40	46115.58
578.56	46021.95
578.72	46344.95
578.88	46403.46
579.04	46642.20
579.21	46595.38
579.37	46251.33
579.53	46784.97
579.69	46202.18
579.85	46260.69
580.01	46527.51
580.17	46131.96
580.33	46560.28
580.49	46302.82
580.65	46244.30
580.82	46209.20
580.98	45928.33
581.14	46096.85
581.30	46520.49
581.46	46174.09
581.62	46202.18
581.78	46342.61
581.94	46553.26
582.10	46443.25
582.26	46658.58
582.42	46740.50
582.58	46380.06
582.74	46043.02
582.90	46574.32
583.06	46454.95
583.22	46447.93
583.38	46899.65
583.54	46532.19
583.70	46445.59
583.86	46473.68
584.02	46082.81
584.18	46239.62
584.34	46415.16
584.50	46401.12
584.66	46113.23
584.82	46426.87
584.98	46337.93
585.14	46153.02
585.30	46141.32
585.46	46138.98
585.62	45921.31
585.78	46136.64
585.94	46129.62
586.10	45918.97
586.26	46078.13
586.42	46358.99
586.58	46581.34
586.74	46501.76
586.90	46043.02
587.06	46450.27
587.22	46204.52
587.38	46312.18
587.54	46539.21
587.70	46616.45
587.86	46581.34
588.02	46457.29
588.18	46618.79
588.34	46181.11
588.49	45986.85
588.65	46366.01
588.81	46363.67
588.97	46120.26
589.13	46092.17
589.29	45713.00
589.45	46211.54
589.61	46199.83
589.77	46347.29
589.93	46461.97
