SpectraSuite Data File
++++++++++++++++++++++++++++++++++++
Date: Fri Oct 25 11:34:41 EDT 2013
User: price-jones
Dark Spectrum Present: No
Reference Spectrum Present: No
Number of Sampled Component Spectra: 1
Spectrometers: USB2+H05261
Integration Time (usec): 100000 (USB2+H05261)
Spectra Averaged: 1 (USB2+H05261)
Boxcar Smoothing: 0 (USB2+H05261)
Correct for Electrical Dark: No (USB2+H05261)
Strobe/Lamp Enabled: No (USB2+H05261)
Correct for Detector Non-linearity: No (USB2+H05261)
Correct for Stray Light: No (USB2+H05261)
Number of Pixels in Processed Spectrum: 2048
>>>>>Begin Processed Spectral Data<<<<<
365.73	276.18
365.92	276.18
366.12	276.18
366.32	231.71
366.52	107.66
366.72	131.07
366.91	135.75
367.11	163.84
367.31	98.30
367.51	229.37
367.70	152.13
367.90	175.54
368.10	163.84
368.30	182.56
368.49	173.20
368.69	154.48
368.89	196.60
369.09	231.71
369.28	212.99
369.48	147.45
369.68	250.44
369.87	210.65
370.07	227.03
370.27	315.97
370.47	379.17
370.66	463.43
370.86	477.47
371.06	528.96
371.25	512.58
371.45	526.62
371.65	545.34
371.84	571.09
372.04	521.94
372.24	561.73
372.44	566.41
372.63	559.39
372.83	571.09
373.03	554.71
373.22	498.53
373.42	622.58
373.62	603.86
373.81	634.29
374.01	638.97
374.21	608.54
374.40	723.23
374.60	669.39
374.79	627.26
374.99	667.05
375.19	660.03
375.38	601.52
375.58	636.63
375.78	674.07
375.97	645.99
376.17	641.31
376.37	648.33
376.56	678.76
376.76	667.05
376.95	664.71
377.15	669.39
377.35	645.99
377.54	624.92
377.74	676.41
377.93	671.73
378.13	690.46
378.33	613.22
378.52	730.25
378.72	641.31
378.91	706.84
379.11	634.29
379.31	667.05
379.50	720.88
379.70	734.93
379.89	711.52
380.09	692.80
380.28	753.65
380.48	662.37
380.68	732.59
380.87	669.39
381.07	716.20
381.26	706.84
381.46	685.78
381.65	795.78
381.85	671.73
382.04	755.99
382.24	772.38
382.43	819.19
382.63	795.78
382.83	770.04
383.02	720.88
383.22	837.91
383.41	809.83
383.61	795.78
383.80	802.80
384.00	781.74
384.19	770.04
384.39	760.67
384.58	887.06
384.78	873.02
384.97	828.55
385.17	763.01
385.36	849.61
385.56	856.64
385.75	763.01
385.95	856.64
386.14	856.64
386.34	795.78
386.53	889.40
386.72	791.10
386.92	840.25
387.11	875.36
387.31	882.38
387.50	781.74
387.70	812.17
387.89	866.00
388.09	795.78
388.28	973.66
388.48	866.00
388.67	933.87
388.86	873.02
389.06	919.83
389.25	901.11
389.45	912.81
389.64	917.49
389.84	954.94
390.03	968.98
390.22	922.17
390.42	1029.84
390.61	936.21
390.81	950.26
391.00	905.79
391.19	1004.09
391.39	957.28
391.58	950.26
391.78	1060.26
391.97	983.02
392.16	1001.75
392.36	954.94
392.55	1046.22
392.75	1027.50
392.94	947.92
393.13	1032.18
393.33	999.41
393.52	1055.58
393.71	1064.94
393.91	1048.56
394.10	983.02
394.29	1062.60
394.49	1111.75
394.68	973.66
394.88	1086.01
395.07	1104.73
395.26	1160.91
395.46	1128.14
395.65	1062.60
395.84	1193.67
396.04	1177.29
396.23	1076.65
396.42	1109.41
396.62	1121.12
396.81	1198.35
397.00	1174.95
397.19	1221.76
397.39	1200.69
397.58	1193.67
397.77	1163.25
397.97	1174.95
398.16	1226.44
398.35	1233.46
398.55	1268.57
398.74	1254.53
398.93	1306.02
399.12	1210.06
399.32	1329.42
399.51	1245.16
399.70	1277.93
399.90	1219.42
400.09	1299.00
400.28	1322.40
400.47	1221.76
400.67	1446.45
400.86	1345.81
401.05	1371.55
401.24	1348.15
401.44	1350.49
401.63	1392.62
401.82	1394.96
402.01	1378.58
402.21	1425.39
402.40	1472.20
402.59	1437.09
402.78	1462.83
402.97	1409.00
403.17	1423.05
403.36	1476.88
403.55	1490.92
403.74	1565.82
403.93	1530.71
404.13	1490.92
404.32	1544.75
404.51	1521.35
404.70	1558.80
404.89	1528.37
405.09	1586.88
405.28	1540.07
405.47	1544.75
405.66	1544.75
405.85	1675.82
406.05	1666.46
406.24	1643.06
406.43	1626.67
406.62	1722.63
406.81	1729.66
407.00	1689.87
407.20	1664.12
407.39	1685.19
407.58	1795.19
407.77	1816.26
407.96	1884.13
408.15	1842.00
408.34	1753.06
408.54	1867.75
408.73	1771.79
408.92	1839.66
409.11	1867.75
409.30	1874.77
409.49	1778.81
409.68	1888.81
409.87	1860.73
410.07	1886.47
410.26	1930.94
410.45	1914.56
410.64	1902.86
410.83	2057.33
411.02	2026.90
411.21	2092.44
411.40	2099.46
411.59	2059.67
411.78	2087.76
411.98	2052.65
412.17	2204.78
412.36	2059.67
412.55	2160.31
412.74	2272.66
412.93	2167.34
413.12	2211.81
413.31	2284.36
413.50	2326.49
413.69	2197.76
413.88	2324.15
414.07	2314.79
414.26	2495.01
414.45	2424.80
414.64	2497.35
414.83	2385.01
415.02	2438.84
415.22	2621.40
415.41	2612.04
415.60	2455.22
415.79	2516.08
415.98	2485.65
416.17	2607.36
416.36	2649.49
416.55	2644.81
416.74	2670.55
416.93	2689.28
417.12	2764.17
417.31	2764.17
417.50	2743.11
417.69	2810.98
417.88	2789.92
418.07	2740.77
418.26	2853.11
418.45	2752.47
418.64	2895.24
418.83	2911.63
419.02	2881.20
419.21	2981.84
419.39	2892.90
419.58	2946.73
419.77	2909.29
419.96	3101.21
420.15	3089.51
420.34	3030.99
420.53	3028.65
420.72	3171.43
420.91	3012.27
421.10	3059.08
421.29	3038.02
421.48	3052.06
421.67	3091.85
421.86	3236.96
422.05	3178.45
422.24	3126.96
422.43	3173.77
422.61	3229.94
422.80	3157.38
422.99	3152.70
423.18	3253.34
423.37	3211.22
423.56	3150.36
423.75	3185.47
423.94	3197.17
424.13	3068.44
424.32	3225.26
424.50	3269.73
424.69	3377.39
424.88	3318.88
425.07	3152.70
425.26	3274.41
425.45	3272.07
425.64	3222.92
425.83	3162.06
426.01	3267.39
426.20	3393.78
426.39	3403.14
426.58	3478.04
426.77	3384.41
426.96	3269.73
427.15	3545.91
427.33	3417.18
427.52	3440.59
427.71	3309.52
427.90	3372.71
428.09	3485.06
428.28	3548.25
428.46	3471.01
428.65	3405.48
428.84	3501.44
429.03	3597.40
429.22	3454.63
429.40	3634.85
429.59	3543.57
429.78	3454.63
429.97	3393.78
430.16	3637.19
430.34	3770.60
430.53	3838.48
430.72	3688.68
430.91	3644.21
431.10	3646.55
431.28	3714.43
431.47	3808.05
431.66	4007.00
431.85	3875.93
432.03	3681.66
432.22	3978.91
432.41	3719.11
432.60	3852.52
432.79	3803.37
432.97	3878.27
433.16	3962.53
433.35	3824.44
433.54	3801.03
433.72	3925.08
433.91	4145.09
434.10	3995.29
434.28	4009.34
434.47	3978.91
434.66	4067.85
434.85	4168.49
435.03	4058.49
435.22	4021.04
435.41	4236.37
435.59	4175.52
435.78	4161.47
435.97	4175.52
436.16	4262.12
436.34	4053.81
436.53	4238.71
436.72	4189.56
436.90	4194.24
437.09	4198.92
437.28	4187.22
437.46	4348.72
437.65	4327.65
437.84	4404.89
438.02	4273.82
438.21	4365.10
438.40	4386.16
438.58	4411.91
438.77	4554.68
438.96	4444.68
439.14	4634.26
439.33	4692.77
439.52	4720.86
439.70	4751.29
439.89	4720.86
440.08	4828.53
440.26	4840.23
440.45	4709.16
440.63	4966.62
440.82	5011.09
441.01	4744.27
441.19	4999.38
441.38	4826.18
441.57	4936.19
441.75	5111.73
441.94	5018.11
442.12	5100.03
442.31	5170.24
442.50	5090.67
442.68	5048.54
442.87	5109.39
443.05	5125.77
443.24	5345.78
443.43	5322.38
443.61	5399.62
443.80	5294.29
443.98	5153.86
444.17	5029.81
444.35	5266.21
444.54	5479.19
444.73	5479.19
444.91	5399.62
445.10	5397.28
445.28	5238.12
445.47	5348.12
445.65	5320.04
445.84	5345.78
446.02	5348.12
446.21	5423.02
446.39	5423.02
446.58	5418.34
446.77	5385.57
446.95	5488.56
447.14	5453.45
447.32	5488.56
447.51	5467.49
447.69	5462.81
447.88	5518.98
448.06	5343.44
448.25	5528.35
448.43	5439.40
448.62	5479.19
448.80	5467.49
448.99	5647.71
449.17	5554.09
449.36	5767.08
449.54	5600.90
449.73	5664.10
449.91	5633.67
450.10	5713.25
450.28	5790.49
450.46	5792.83
450.65	5795.17
450.83	5818.57
451.02	5781.12
451.20	5898.15
451.39	5834.96
451.57	5813.89
451.76	5966.03
451.94	5799.85
452.13	6092.41
452.31	6029.22
452.49	5841.98
452.68	5928.58
452.86	5832.62
453.05	6022.20
453.23	6167.31
453.42	6022.20
453.60	5916.87
453.78	6155.61
453.97	5930.92
454.15	6083.05
454.34	6097.10
454.52	6359.24
454.70	6064.33
454.89	6230.51
455.07	6235.19
455.26	6272.64
455.44	6300.72
455.62	6401.37
455.81	6237.53
455.99	6340.51
456.17	6480.94
456.36	6310.08
456.54	6485.62
456.73	6546.48
456.91	6642.44
457.09	6604.99
457.28	6719.68
457.46	6604.99
457.64	6775.85
457.83	6766.49
458.01	6523.07
458.19	6848.41
458.38	6684.57
458.56	6700.95
458.74	6881.18
458.93	6754.79
459.11	6693.93
459.29	6743.08
459.48	6913.94
459.66	6855.43
459.84	6949.05
460.03	6876.49
460.21	6864.79
460.39	6972.46
460.57	7140.97
460.76	6902.24
460.94	7026.29
461.12	6993.52
461.31	7197.15
461.49	6988.84
461.67	6939.69
461.85	7454.61
462.04	7080.12
462.22	7880.58
462.40	7253.32
462.59	7377.37
462.77	7112.89
462.95	7365.67
463.13	7442.90
463.32	7382.05
463.50	7363.33
463.68	7435.88
463.86	7510.78
464.05	7288.43
464.23	7571.63
464.41	7428.86
464.59	7466.31
464.78	7744.83
464.96	7557.59
465.14	7625.47
465.32	7683.98
465.50	7707.38
465.69	7843.14
465.87	7606.74
466.05	7662.91
466.23	7782.28
466.41	7784.62
466.60	8009.31
466.78	7744.83
466.96	7812.71
467.14	7927.39
467.32	7784.62
467.51	8086.55
467.69	7559.93
467.87	7840.79
468.05	7969.52
468.23	7676.96
468.41	8107.62
468.60	8018.68
468.78	8016.33
468.96	7859.52
469.14	8088.89
469.32	8189.53
469.50	7974.21
469.69	8311.24
469.87	8280.82
470.05	8390.82
470.23	8250.39
470.41	8273.79
470.59	8418.91
470.77	8358.05
470.95	8519.55
471.14	8372.10
471.32	8369.76
471.50	8671.68
471.68	8423.59
471.86	8439.97
472.04	8669.34
472.22	8905.74
472.40	8461.04
472.58	8561.68
472.77	8791.05
472.95	8898.72
473.13	8915.10
473.31	8821.48
473.49	8737.22
473.67	8933.82
473.85	8917.44
474.03	9139.79
474.21	9034.47
474.39	9350.44
474.57	9301.29
474.75	9558.75
474.93	9376.19
475.12	9259.16
475.30	9664.07
475.48	9153.84
475.66	9432.36
475.84	9467.47
476.02	9504.92
476.20	9479.17
476.38	9837.27
476.56	10090.05
476.74	10040.90
476.92	9902.81
477.10	9884.08
477.28	10136.86
477.46	10066.64
477.64	10256.23
477.82	10338.15
478.00	10658.80
478.18	10494.96
478.36	10665.82
478.54	10698.59
478.72	10747.74
478.90	10871.79
479.08	10925.62
479.26	10984.13
479.44	10995.84
479.62	11185.42
479.80	11171.38
479.98	11199.46
480.16	11440.54
480.34	11466.28
480.52	11595.01
480.70	11487.35
480.88	11550.54
481.06	11618.42
481.24	11667.57
481.41	12004.61
481.59	11929.71
481.77	12112.27
481.95	12175.47
482.13	12224.62
482.31	12318.24
482.49	12575.70
482.67	12493.78
482.85	12690.38
483.03	12826.14
483.21	13018.06
483.39	13055.51
483.57	12999.34
483.74	13411.27
483.92	12975.93
484.10	13184.24
484.28	13376.16
484.46	13664.05
484.64	13844.27
484.82	13490.85
485.00	13970.66
485.18	14085.34
485.35	14286.63
485.53	14071.30
485.71	14281.95
485.89	14429.40
486.07	14427.06
486.25	14473.87
486.43	14764.10
486.61	14808.57
486.78	14848.36
486.96	15110.50
487.14	15531.80
487.32	15016.88
487.50	15515.41
487.68	15470.94
487.85	15613.71
488.03	15953.09
488.21	16205.87
488.39	15950.75
488.57	16027.99
488.75	16376.73
488.92	16376.73
489.10	16596.74
489.28	16657.59
489.46	16470.35
489.64	16519.50
489.81	16917.39
489.99	17106.98
490.17	17027.40
490.35	17451.03
490.53	17198.26
490.70	17565.72
490.88	17661.68
491.06	17928.50
491.24	17776.37
491.41	17914.46
491.59	17928.50
491.77	17631.26
491.95	18232.77
492.13	18368.52
492.30	18352.14
492.48	18387.25
492.66	18607.26
492.84	18871.74
493.01	19007.49
493.19	18848.33
493.37	19115.16
493.54	19087.07
493.72	19452.19
493.90	19396.02
494.08	19646.46
494.25	20088.82
494.43	19833.70
494.61	19751.78
494.79	20173.08
494.96	19990.52
495.14	20297.13
495.32	20355.64
495.49	20685.65
495.67	20198.82
495.85	20524.16
496.02	20676.29
496.20	21071.84
496.38	21160.78
496.55	21036.74
496.73	21425.26
496.91	21116.31
497.09	21460.37
497.26	21549.31
497.44	21425.26
497.62	21474.42
497.79	22246.79
497.97	21891.03
498.14	22188.28
498.32	22253.81
498.50	22202.32
498.67	22913.84
498.85	22670.43
499.03	22923.21
499.20	22803.84
499.38	22609.58
499.56	23105.77
499.73	23110.45
499.91	23131.51
500.08	23283.65
500.26	23288.33
500.44	23307.05
500.61	23639.41
500.79	23321.10
500.97	23442.81
501.14	23906.23
501.32	24039.64
501.49	23789.20
501.67	24306.46
501.84	23960.06
502.02	24226.89
502.20	24182.42
502.37	23812.61
502.55	24329.87
502.72	24416.47
502.90	24266.67
503.07	24393.06
503.25	24676.27
503.43	24582.65
503.60	25095.22
503.78	24964.15
503.95	24545.20
504.13	25085.86
504.30	24940.75
504.48	24870.53
504.65	25336.30
504.83	25144.38
505.01	25640.57
505.18	25795.04
505.36	25715.47
505.53	25546.95
505.71	25766.96
505.88	25989.31
506.06	25804.41
506.23	26066.55
506.41	25673.34
506.58	26260.81
506.76	25923.77
506.93	26534.65
507.11	26422.31
507.28	26490.18
507.46	26721.90
507.63	26485.50
507.81	26998.08
507.98	26895.10
508.16	26878.71
508.33	26874.03
508.50	27061.27
508.68	26953.61
508.85	27510.66
509.03	26927.86
509.20	27690.88
509.38	27522.36
509.55	27679.18
509.73	27290.65
509.90	27803.22
510.08	27695.56
510.25	27857.06
510.42	27990.47
510.60	27700.24
510.77	28046.64
510.95	28318.14
511.12	28123.88
511.30	28360.27
511.47	28250.27
511.64	28432.83
511.82	28577.94
511.99	28245.58
512.17	28755.82
512.34	28566.24
512.51	29252.02
512.69	29165.42
512.86	28802.63
513.04	29081.16
513.21	29062.43
513.38	29256.70
513.56	29125.63
513.73	29305.85
513.90	29151.37
514.08	29546.92
514.25	29390.11
514.43	29624.16
514.60	29764.59
514.77	29872.26
514.95	29921.41
515.12	29902.68
515.29	29645.23
515.47	30010.35
515.64	30160.14
515.81	30176.53
515.99	30178.87
516.16	30373.13
516.33	30003.33
516.51	30761.66
516.68	30368.45
516.85	30637.61
517.03	30651.66
517.20	30691.44
517.37	30508.88
517.54	30738.26
517.72	31016.78
517.89	31281.26
518.06	31201.68
518.24	31356.16
518.41	30871.67
518.58	31082.31
518.75	31065.93
518.93	31220.41
519.10	31470.84
519.27	31438.08
519.45	31735.32
519.62	31842.99
519.79	32093.43
519.96	31531.70
520.14	31988.10
520.31	31938.95
520.48	31908.52
520.65	32060.66
520.83	32325.14
521.00	32393.01
521.17	32524.08
521.34	32376.63
521.52	32402.38
521.69	32458.55
521.86	32697.28
522.03	32680.90
522.20	32776.86
522.38	32917.29
522.55	33195.82
522.72	32919.63
522.89	33027.30
523.07	33165.39
523.24	33031.98
523.41	33376.04
523.58	33343.27
523.75	33544.56
523.92	33488.38
524.10	33158.37
524.27	33780.95
524.44	33881.60
524.61	33865.21
524.78	33558.60
524.96	33813.72
525.13	34127.35
525.30	33890.96
525.47	34190.55
525.64	34078.20
525.81	33640.52
525.98	34586.10
526.16	33984.58
526.33	33933.09
526.50	33921.38
526.67	34155.44
526.84	34384.81
527.01	34370.77
527.18	34670.36
527.36	35194.64
527.53	34731.21
527.70	35255.49
527.87	34866.96
528.04	34918.45
528.21	34902.07
528.38	34881.00
528.55	35028.46
528.72	34803.77
528.89	34974.63
529.07	35218.04
529.24	34731.21
529.41	35332.73
529.58	35145.48
529.75	35171.23
529.92	35522.31
530.09	35201.66
530.26	35005.05
530.43	35697.85
530.60	35449.75
530.77	35505.93
530.94	35945.95
531.11	35482.52
531.28	35765.73
531.46	35920.20
531.63	35957.65
531.80	35931.90
531.97	36320.43
532.14	36205.75
532.31	35955.31
532.48	36407.03
532.65	36486.61
532.82	36041.91
532.99	36474.91
533.16	36212.77
533.33	36650.45
533.50	36369.58
533.67	36318.09
533.84	36542.78
534.01	36718.32
534.18	36725.35
534.35	36727.69
534.52	37305.80
534.69	37092.81
534.86	36786.20
535.03	36912.59
535.20	37240.26
535.37	37558.58
535.54	37469.64
535.71	36655.13
535.88	37509.43
536.05	37261.33
536.22	37785.61
536.38	37324.52
536.55	37256.65
536.72	37553.90
536.89	37251.97
537.06	37329.20
537.23	38000.94
537.40	37287.07
537.57	37298.78
537.74	37263.67
537.91	38047.75
538.08	37310.48
538.25	37682.62
538.42	37242.60
538.59	37933.06
538.75	38169.46
538.92	38110.94
539.09	38548.62
539.26	38389.47
539.43	38466.70
539.60	38665.65
539.77	38174.14
539.94	38321.59
540.11	38368.40
540.28	38363.72
540.44	38370.74
540.61	38022.00
540.78	38497.13
540.95	38450.32
541.12	37944.76
541.29	38595.43
541.46	38595.43
541.62	38717.14
541.79	39468.45
541.96	38663.31
542.13	38766.29
542.30	38677.35
542.47	38703.10
542.63	39002.69
542.80	39426.32
542.97	39026.09
543.14	39351.43
543.31	39070.56
543.48	39842.94
543.64	39826.56
543.81	39793.79
543.98	39494.20
544.15	40009.12
544.32	39721.23
544.48	40081.67
544.65	39903.79
544.82	40439.78
544.99	39754.00
545.16	39737.62
545.32	39901.45
545.49	40495.95
545.66	40463.18
545.83	40027.84
546.00	40360.20
546.16	39990.39
546.33	40332.11
546.50	39878.05
546.67	40655.11
546.83	39847.62
547.00	40201.04
547.17	40107.42
547.34	40559.14
547.50	40561.48
547.67	40627.02
547.84	40437.44
548.00	40533.40
548.17	40917.25
548.34	41013.21
548.51	41029.59
548.67	40484.25
548.84	40493.61
549.01	40811.92
549.18	40900.86
549.34	41008.53
549.51	40982.78
549.68	41001.50
549.84	40999.16
550.01	41153.64
550.18	41088.10
550.34	41394.71
550.51	41357.27
550.68	41043.63
550.84	40914.90
551.01	40898.52
551.18	40921.93
551.34	41514.08
551.51	41123.21
551.68	41427.48
551.84	41273.01
552.01	41167.68
552.18	41502.38
552.34	41270.67
552.51	41574.94
552.68	41167.68
552.84	41724.73
553.01	41813.67
553.18	41523.44
553.34	42024.32
553.51	41457.91
553.67	41799.63
553.84	41902.61
554.01	41553.87
554.17	41991.55
554.34	41766.86
554.51	41743.45
554.67	42265.39
554.84	42218.58
555.00	41991.55
555.17	41483.66
555.33	42349.65
555.50	42438.59
555.67	42478.38
555.83	41977.51
556.00	42256.03
556.16	42883.30
556.33	42543.92
556.50	42752.23
556.66	42258.37
556.83	42265.39
556.99	42588.39
557.16	42784.99
557.32	42801.38
557.49	42974.58
557.65	42747.54
557.82	42398.80
557.98	42454.98
558.15	42562.64
558.32	42756.91
558.48	42450.30
558.65	42171.77
558.81	42513.49
558.98	42574.34
559.14	42677.33
559.31	42607.11
559.47	42988.62
559.64	42806.06
559.80	42782.65
559.97	43192.25
560.13	42555.62
560.30	42983.94
560.46	43157.14
560.63	43430.98
560.79	43150.12
560.96	43185.22
561.12	42946.49
561.29	43131.39
561.45	43154.80
561.61	42829.46
561.78	43325.66
561.94	43084.58
562.11	43171.18
562.27	43138.41
562.44	43014.37
562.60	43608.86
562.77	43496.52
562.93	43021.39
563.10	43522.26
563.26	43194.59
563.42	43613.54
563.59	43473.11
563.75	43037.77
563.92	43232.04
564.08	43079.90
564.24	43566.73
564.41	43122.03
564.57	43686.10
564.74	43620.56
564.90	43356.08
565.07	43501.20
565.23	43665.03
565.39	43351.40
565.56	43660.35
565.72	43379.49
565.88	43756.32
566.05	43842.92
566.21	43742.27
566.38	43695.46
566.54	43859.30
566.70	43789.08
566.87	43185.22
567.03	43639.29
567.19	43981.01
567.36	43536.30
567.52	43409.92
567.68	44189.31
567.85	44037.18
568.01	44058.24
568.17	43398.21
568.34	44072.29
568.50	44126.12
568.66	43756.32
568.83	43814.83
568.99	44334.43
569.15	43779.72
569.32	43992.71
569.48	43672.06
569.64	43873.34
569.81	44156.55
569.97	44149.53
570.13	43634.61
570.30	43845.26
570.46	44264.21
570.62	44334.43
570.78	43772.70
570.95	44428.05
571.11	43908.45
571.27	44128.46
571.43	43969.30
571.60	44004.41
571.76	43894.41
571.92	44437.41
572.09	43735.25
572.25	44280.60
572.41	44189.31
572.57	44147.18
572.74	44566.14
572.90	44247.83
573.06	43894.41
573.22	44458.48
573.38	44299.32
573.55	44671.46
573.71	44978.07
573.87	44299.32
574.03	44250.17
574.20	44505.29
574.36	44313.36
574.52	44397.62
574.68	44538.05
574.84	44540.39
575.01	44561.46
575.17	44856.37
575.33	44694.87
575.49	44294.64
575.65	45059.99
575.82	44624.65
575.98	44140.16
576.14	44678.49
576.30	44877.43
576.46	44306.34
576.62	44734.66
576.79	44423.37
576.95	43936.54
577.11	43784.40
577.27	44608.27
577.43	44687.85
577.59	44350.81
577.75	44161.23
577.92	44212.72
578.08	44687.85
578.24	44678.49
578.40	44701.89
578.56	44308.68
578.72	44626.99
578.88	44577.84
579.04	44296.98
579.21	44315.70
579.37	44741.68
579.53	44430.39
579.69	44266.55
579.85	44566.14
580.01	44989.78
580.17	44727.64
580.33	45038.93
580.49	44760.40
580.65	44549.76
580.82	44516.99
580.98	44619.97
581.14	44329.75
581.30	44788.49
581.46	44741.68
581.62	44458.48
581.78	44666.78
581.94	44491.24
582.10	44933.60
582.26	45144.25
582.42	44919.56
582.58	45003.82
582.74	44467.84
582.90	44753.38
583.06	44500.61
583.22	44355.49
583.38	44776.79
583.54	44720.62
583.70	44811.90
583.86	44421.03
584.02	44554.44
584.18	44996.80
584.34	44961.69
584.50	44942.97
584.66	44774.45
584.82	45118.51
584.98	45179.36
585.14	44734.66
585.30	44818.92
585.46	44886.79
585.62	44467.84
585.78	44959.35
585.94	44722.96
586.10	45078.72
586.26	44442.09
586.42	44491.24
586.58	44528.69
586.74	44966.37
586.90	44900.84
587.06	44594.23
587.22	44638.70
587.38	44580.18
587.54	44905.52
587.70	45303.41
587.86	44823.60
588.02	44718.28
588.18	45036.59
588.34	44680.83
588.49	44645.72
588.65	44919.56
588.81	44797.85
588.97	44961.69
589.13	44414.01
589.29	45120.85
589.45	45111.49
589.61	44580.18
589.77	45109.14
589.93	44931.26
590.08	45343.20
590.24	45427.46
