SpectraSuite Data File
++++++++++++++++++++++++++++++++++++
Date: Fri Oct 25 11:33:37 EDT 2013
User: price-jones
Dark Spectrum Present: No
Reference Spectrum Present: No
Number of Sampled Component Spectra: 1
Spectrometers: USB2+H05261
Integration Time (usec): 100000 (USB2+H05261)
Spectra Averaged: 1 (USB2+H05261)
Boxcar Smoothing: 0 (USB2+H05261)
Correct for Electrical Dark: No (USB2+H05261)
Strobe/Lamp Enabled: No (USB2+H05261)
Correct for Detector Non-linearity: No (USB2+H05261)
Correct for Stray Light: No (USB2+H05261)
Number of Pixels in Processed Spectrum: 2048
>>>>>Begin Processed Spectral Data<<<<<
365.73	257.46
365.92	257.46
366.12	257.46
366.32	234.05
366.52	142.77
366.72	224.69
366.91	100.64
367.11	152.13
367.31	110.01
367.51	161.50
367.70	229.37
367.90	152.13
368.10	217.67
368.30	177.88
368.49	156.82
368.69	203.63
368.89	180.22
369.09	196.60
369.28	245.76
369.48	215.33
369.68	229.37
369.87	154.48
370.07	198.95
370.27	236.39
370.47	276.18
370.66	444.70
370.86	451.72
371.06	568.75
371.25	580.45
371.45	582.79
371.65	489.17
371.84	557.05
372.04	550.03
372.24	538.32
372.44	547.69
372.63	634.29
372.83	592.16
373.03	620.24
373.22	620.24
373.42	638.97
373.62	594.50
373.81	678.76
374.01	617.90
374.21	620.24
374.40	631.94
374.60	617.90
374.79	706.84
374.99	697.48
375.19	650.67
375.38	662.37
375.58	681.10
375.78	631.94
375.97	653.01
376.17	667.05
376.37	732.59
376.56	624.92
376.76	669.39
376.95	737.27
377.15	695.14
377.35	671.73
377.54	706.84
377.74	751.31
377.93	744.29
378.13	723.23
378.33	774.72
378.52	681.10
378.72	711.52
378.91	730.25
379.11	697.48
379.31	793.44
379.50	685.78
379.70	669.39
379.89	690.46
380.09	732.59
380.28	755.99
380.48	760.67
380.68	718.54
380.87	690.46
381.07	657.69
381.26	786.42
381.46	826.21
381.65	713.86
381.85	777.06
382.04	744.29
382.24	748.97
382.43	765.36
382.63	763.01
382.83	711.52
383.02	734.93
383.22	781.74
383.41	870.68
383.61	866.00
383.80	856.64
384.00	854.30
384.19	835.57
384.39	856.64
384.58	882.38
384.78	819.19
384.97	833.23
385.17	873.02
385.36	816.85
385.56	828.55
385.75	823.87
385.95	858.98
386.14	826.21
386.34	882.38
386.53	882.38
386.72	889.40
386.92	915.15
387.11	870.68
387.31	856.64
387.50	821.53
387.70	884.72
387.89	816.85
388.09	856.64
388.28	947.92
388.48	980.68
388.67	917.49
388.86	922.17
389.06	968.98
389.25	929.19
389.45	933.87
389.64	950.26
389.84	1008.77
390.03	912.81
390.22	971.32
390.42	929.19
390.61	978.34
390.81	959.62
391.00	957.28
391.19	933.87
391.39	1027.50
391.58	1015.79
391.78	1090.69
391.97	1060.26
392.16	1008.77
392.36	1088.35
392.55	1071.97
392.75	1039.20
392.94	1083.67
393.13	1135.16
393.33	1083.67
393.52	1100.05
393.71	1109.41
393.91	1043.88
394.10	1107.07
394.29	976.00
394.49	1020.47
394.68	1071.97
394.88	1135.16
395.07	1165.59
395.26	1123.46
395.46	1149.20
395.65	1128.14
395.84	1219.42
396.04	1153.88
396.23	1132.82
396.42	1221.76
396.62	1217.08
396.81	1170.27
397.00	1158.57
397.19	1240.48
397.39	1287.29
397.58	1284.95
397.77	1226.44
397.97	1341.13
398.16	1235.80
398.35	1275.59
398.55	1268.57
398.74	1331.76
398.93	1369.21
399.12	1308.36
399.32	1322.40
399.51	1263.89
399.70	1296.66
399.90	1308.36
400.09	1362.19
400.28	1343.47
400.47	1401.98
400.67	1404.32
400.86	1392.62
401.05	1357.51
401.24	1423.05
401.44	1507.30
401.63	1423.05
401.82	1490.92
402.01	1409.00
402.21	1387.94
402.40	1514.33
402.59	1427.73
402.78	1469.86
402.97	1544.75
403.17	1451.13
403.36	1568.16
403.55	1521.35
403.74	1586.88
403.93	1673.48
404.13	1701.57
404.32	1645.40
404.51	1633.69
404.70	1621.99
404.89	1657.10
405.09	1696.89
405.28	1654.76
405.47	1657.10
405.66	1734.34
405.85	1746.04
406.05	1706.25
406.24	1678.16
406.43	1769.44
406.62	1802.21
406.81	1827.96
407.00	1788.17
407.20	1729.66
407.39	1891.15
407.58	1837.32
407.77	1842.00
407.96	1743.70
408.15	1935.62
408.34	1872.43
408.54	1895.83
408.73	1973.07
408.92	1895.83
409.11	1989.46
409.30	2001.16
409.49	1991.80
409.68	2045.63
409.87	2050.31
410.07	2050.31
410.26	2064.35
410.45	2022.22
410.64	2050.31
410.83	2176.70
411.02	2017.54
411.21	2141.59
411.40	2165.00
411.59	2139.25
411.78	2267.98
411.98	2244.57
412.17	2319.47
412.36	2214.15
412.55	2317.13
412.74	2373.30
412.93	2352.24
413.12	2195.42
413.31	2366.28
413.50	2361.60
413.69	2422.45
413.88	2579.27
414.07	2518.42
414.26	2504.37
414.45	2450.54
414.64	2469.27
414.83	2619.06
415.02	2518.42
415.22	2619.06
415.41	2537.14
415.60	2593.31
415.79	2698.64
415.98	2787.58
416.17	2761.83
416.36	2693.96
416.55	2658.85
416.74	2801.62
416.93	2736.09
417.12	2853.11
417.31	2946.73
417.50	3047.38
417.69	2998.23
417.88	2977.16
418.07	2979.50
418.26	2965.46
418.45	2869.50
418.64	3073.12
418.83	2970.14
419.02	3061.42
419.21	3096.53
419.39	3157.38
419.58	3063.76
419.77	3075.46
419.96	3108.23
420.15	3105.89
420.34	3187.81
420.53	3183.13
420.72	3274.41
420.91	3211.22
421.10	3290.79
421.29	3314.20
421.48	3274.41
421.67	3229.94
421.86	3311.86
422.05	3426.54
422.24	3358.67
422.43	3407.82
422.61	3309.52
422.80	3421.86
422.99	3332.92
423.18	3379.73
423.37	3468.67
423.56	3449.95
423.75	3389.10
423.94	3286.11
424.13	3190.15
424.32	3269.73
424.50	3405.48
424.69	3494.42
424.88	3428.88
425.07	3440.59
425.26	3365.69
425.45	3372.71
425.64	3471.01
425.83	3471.01
426.01	3545.91
426.20	3449.95
426.39	3468.67
426.58	3522.51
426.77	3473.36
426.96	3494.42
427.15	3449.95
427.33	3555.27
427.52	3428.88
427.71	3672.30
427.90	3634.85
428.09	3548.25
428.28	3644.21
428.46	3749.54
428.65	3655.92
428.84	3829.12
429.03	3915.72
429.22	3592.72
429.40	3634.85
429.59	3796.35
429.78	3592.72
429.97	3515.48
430.16	3606.77
430.34	3749.54
430.53	3836.14
430.72	3803.37
430.91	3791.67
431.10	3794.01
431.28	3808.05
431.47	4021.04
431.66	4018.70
431.85	4009.34
432.03	4105.30
432.22	4227.01
432.41	3988.27
432.60	4070.19
432.79	4077.21
432.97	4079.55
433.16	4189.56
433.35	4081.89
433.54	4273.82
433.72	4219.99
433.91	4252.75
434.10	4266.80
434.28	4159.13
434.47	4255.09
434.66	4442.34
434.85	4329.99
435.03	4367.44
435.22	4315.95
435.41	4470.42
435.59	4273.82
435.78	4449.36
435.97	4418.93
436.16	4381.48
436.34	4437.66
436.53	4491.49
436.72	4631.92
436.90	4327.65
437.09	4463.40
437.28	4456.38
437.46	4500.85
437.65	4505.53
437.84	4510.21
438.02	4667.03
438.21	4603.83
438.40	4603.83
438.58	4622.56
438.77	4671.71
438.96	4615.54
439.14	4767.67
439.33	5001.72
439.52	4793.42
439.70	4758.31
439.89	4938.53
440.08	4894.06
440.26	5151.52
440.45	4966.62
440.63	5043.85
440.82	5252.16
441.01	5219.39
441.19	5165.56
441.38	5214.71
441.57	5217.05
441.75	5334.08
441.94	5460.47
442.12	5493.24
442.31	5373.87
442.50	5504.94
442.68	5465.15
442.87	5336.42
443.05	5399.62
443.24	5621.97
443.43	5448.77
443.61	5617.29
443.80	5638.35
443.98	5511.96
444.17	5383.23
444.35	5633.67
444.54	5636.01
444.73	5537.71
444.91	5650.05
445.10	5554.09
445.28	5708.57
445.47	5561.11
445.65	5540.05
445.84	5820.91
446.02	5811.55
446.21	5626.65
446.39	5738.99
446.58	5736.65
446.77	5818.57
446.95	5666.44
447.14	5788.14
447.32	5856.02
447.51	5769.42
447.69	5638.35
447.88	5694.52
448.06	5937.94
448.25	5715.59
448.43	5834.96
448.62	5795.17
448.80	5743.67
448.99	5933.26
449.17	5813.89
449.36	5839.64
449.54	5991.77
449.73	6113.48
449.91	6141.57
450.10	6228.17
450.28	6197.74
450.46	6047.94
450.65	6214.12
450.83	6272.64
451.02	6253.91
451.20	6223.48
451.39	6249.23
451.57	6193.06
451.76	6085.39
451.94	6347.53
452.13	6310.08
452.31	6139.23
452.49	6476.26
452.68	6340.51
452.86	6466.90
453.05	6218.80
453.23	6431.79
453.42	6356.90
453.60	6349.87
453.78	6373.28
453.97	6499.67
454.15	6445.84
454.34	6335.83
454.52	6445.84
454.70	6558.18
454.89	6574.56
455.07	6750.10
455.26	6649.46
455.44	6747.76
455.62	6775.85
455.81	6588.61
455.99	6902.24
456.17	6810.96
456.36	6888.20
456.54	6792.23
456.73	6960.75
456.91	6984.16
457.09	6944.37
457.28	7028.63
457.46	6899.90
457.64	6993.52
457.83	7112.89
458.01	7007.56
458.19	7360.98
458.38	7005.22
458.56	7108.21
458.74	7262.68
458.93	7201.83
459.11	7234.60
459.29	7283.75
459.48	7255.66
459.66	7180.76
459.84	7353.96
460.03	7316.51
460.21	7328.22
460.39	7463.97
460.57	7328.22
460.76	7496.74
460.94	7349.28
461.12	7356.30
461.31	7555.25
461.49	7534.18
461.67	7517.80
461.85	7707.38
462.04	7576.31
462.22	8210.60
462.40	7789.30
462.59	7735.47
462.77	7873.56
462.95	7751.85
463.13	7667.60
463.32	7660.57
463.50	7941.44
463.68	7812.71
463.86	7953.14
464.05	7772.92
464.23	7742.49
464.41	8067.83
464.59	7946.12
464.78	8271.45
464.96	8021.02
465.14	7943.78
465.32	8037.40
465.50	8273.79
465.69	8241.03
465.87	8081.87
466.05	8142.72
466.23	7911.01
466.41	8081.87
466.60	8442.31
466.78	8121.66
466.96	8257.41
467.14	8168.47
467.32	8336.99
467.51	8500.83
467.69	8182.51
467.87	8418.91
468.05	8489.12
468.23	8393.16
468.41	8173.15
468.60	8498.49
468.78	8486.78
468.96	8461.04
469.14	8566.36
469.32	8538.27
469.50	8456.36
469.69	8603.81
469.87	8657.64
470.05	8652.96
470.23	8720.84
470.41	8575.72
470.59	9013.40
470.77	8667.00
470.95	9006.38
471.14	8957.23
471.32	8702.11
471.50	9156.18
471.68	9156.18
471.86	8957.23
472.04	9359.80
472.22	9385.55
472.40	9085.96
472.58	9195.96
472.77	9385.55
472.95	9404.27
473.13	9825.57
473.31	9495.55
473.49	9584.49
473.67	9444.06
473.85	9493.21
474.03	9767.06
474.21	9823.23
474.39	9652.37
474.57	9853.66
474.75	9919.19
474.93	10076.01
475.12	10097.07
475.30	9872.38
475.48	9940.26
475.66	10207.08
475.84	10312.40
476.02	10345.17
476.20	10125.16
476.38	10413.04
476.56	10647.10
476.74	10553.48
476.92	10658.80
477.10	10649.44
477.28	10834.34
477.46	10644.76
477.64	11012.22
477.82	10824.98
478.00	11180.74
478.18	10974.77
478.36	11297.77
478.54	11323.51
478.72	11426.50
478.90	11459.26
479.08	11754.17
479.26	11714.38
479.44	11772.89
479.62	12077.16
479.80	11978.86
479.98	12180.15
480.16	12393.14
480.34	12023.33
480.52	12243.34
480.70	12489.10
480.88	12170.79
481.06	12367.39
481.24	12353.35
481.41	12531.23
481.59	12903.37
481.77	12844.86
481.95	12716.13
482.13	12882.31
482.31	13174.88
482.49	13444.04
482.67	13415.95
482.85	13540.00
483.03	13605.53
483.21	13767.03
483.39	13872.36
483.57	13706.18
483.74	13818.52
483.92	13987.04
484.10	13965.98
484.28	14396.64
484.46	14553.45
484.64	14686.86
484.82	14267.91
485.00	14773.46
485.18	14733.67
485.35	15405.41
485.53	15028.58
485.71	14843.68
485.89	15805.64
486.07	15346.89
486.25	15363.28
486.43	15566.90
486.61	15576.27
486.78	15971.82
486.96	15681.59
487.14	15955.43
487.32	16037.35
487.50	16315.87
487.68	16444.60
487.85	16573.33
488.03	17048.46
488.21	17109.32
488.39	17144.42
488.57	17008.67
488.75	17570.40
488.92	17472.10
489.10	17591.47
489.28	18005.74
489.46	17731.90
489.64	17769.35
489.81	18188.30
489.99	18181.28
490.17	18412.99
490.35	18354.48
490.53	18326.39
490.70	18792.16
490.88	18726.63
491.06	18967.70
491.24	18869.40
491.41	19026.21
491.59	19295.38
491.77	19403.04
491.95	19627.73
492.13	19690.93
492.30	19726.04
492.48	19927.32
492.66	20173.08
492.84	19854.76
493.01	20144.99
493.19	20224.57
493.37	20514.80
493.54	20430.54
493.72	20699.70
493.90	20847.15
494.08	20477.35
494.25	21055.46
494.43	21128.02
494.61	21275.47
494.79	21376.11
494.96	21275.47
495.14	21635.91
495.32	22047.85
495.49	21631.23
495.67	21809.11
495.85	22143.81
496.02	22368.50
496.20	22515.95
496.38	22314.67
496.55	22427.01
496.73	22778.09
496.91	22698.52
497.09	22857.67
497.26	23108.11
497.44	22890.44
497.62	22944.27
497.79	23243.86
497.97	23161.94
498.14	23454.51
498.32	23613.66
498.50	23538.77
498.67	24013.90
498.85	23896.87
499.03	24229.23
499.20	24428.17
499.38	24224.54
499.56	24290.08
499.73	24631.80
499.91	24645.84
500.08	24694.99
500.26	24819.04
500.44	24884.58
500.61	24844.79
500.79	25195.87
500.97	25085.86
501.14	25404.17
501.32	25127.99
501.49	25481.41
501.67	25348.00
501.84	25748.23
502.02	25605.46
502.20	25553.97
502.37	25886.32
502.55	25876.96
502.72	26078.25
502.90	25717.81
503.07	26462.10
503.25	25795.04
503.43	26064.21
503.60	26520.61
503.78	26431.67
503.95	26410.60
504.13	26848.29
504.30	26834.24
504.48	26913.82
504.65	27077.66
504.83	26911.48
505.01	27218.09
505.18	27236.81
505.36	27269.58
505.53	27459.16
505.71	27175.96
505.88	27213.41
506.06	27573.85
506.23	27372.57
506.41	27477.89
506.58	27878.12
506.76	27718.96
506.93	27990.47
507.11	27623.00
507.28	28053.66
507.46	28182.39
507.63	28336.87
507.81	28219.84
507.98	28350.91
508.16	28411.76
508.33	28900.94
508.50	28826.04
508.68	28975.83
508.85	28893.91
509.03	28840.08
509.20	28943.06
509.38	29139.67
509.55	29397.13
509.73	29687.36
509.90	29500.11
510.08	29708.42
510.25	29406.49
510.42	29776.30
510.60	29598.41
510.77	30167.16
510.95	30326.32
511.12	29626.50
511.30	30033.75
511.47	30190.57
511.64	30132.06
511.82	30497.18
511.99	30593.14
512.17	30499.52
512.34	30466.75
512.51	30829.54
512.69	30888.05
512.86	31161.89
513.04	30939.54
513.21	31105.72
513.38	31426.37
513.56	31508.29
513.73	30897.41
513.90	31215.72
514.08	31096.36
514.25	31449.78
514.43	31435.74
514.60	32051.30
514.77	31922.57
514.95	31695.53
515.12	31758.73
515.29	32194.07
515.47	32158.96
515.64	32060.66
515.81	31826.60
515.99	32584.94
516.16	32552.17
516.33	32472.59
516.51	32811.97
516.68	32474.93
516.85	32943.04
517.03	32402.38
517.20	32683.24
517.37	32746.44
517.54	32896.23
517.72	32830.69
517.89	32947.72
518.06	33064.75
518.24	33399.44
518.41	32872.82
518.58	33003.89
518.75	33104.54
518.93	33322.21
519.10	33418.17
519.27	33755.21
519.45	33460.30
519.62	33844.15
519.79	33940.11
519.96	33778.61
520.14	33752.87
520.31	33490.73
520.48	33963.51
520.65	33940.11
520.83	34696.10
521.00	34373.11
521.17	34497.16
521.34	34543.97
521.52	34394.17
521.69	34668.02
521.86	34944.20
522.03	34742.91
522.20	35175.91
522.38	35573.80
522.55	35072.93
522.72	35356.13
522.89	35316.34
523.07	35840.62
523.24	35393.58
523.41	35173.57
523.58	35213.36
523.75	35328.05
523.92	35126.76
524.10	35426.35
524.27	35945.95
524.44	35718.92
524.61	35833.60
524.78	35871.05
524.96	36224.47
525.13	36191.70
525.30	36526.40
525.47	36100.42
525.64	36407.03
525.81	35882.75
525.98	36407.03
526.16	36233.83
526.33	36418.74
526.50	37010.89
526.67	36479.59
526.84	36758.11
527.01	36322.77
527.18	36638.75
527.36	36690.24
527.53	36620.02
527.70	37174.73
527.87	37745.82
528.04	37081.11
528.21	37240.26
528.38	37097.49
528.55	36954.72
528.72	37345.59
528.89	37275.37
529.07	37177.07
529.24	36985.15
529.41	37675.60
529.58	37479.00
529.75	37687.31
529.92	37446.23
530.09	37668.58
530.26	37600.71
530.43	37546.87
530.60	37429.85
530.77	37652.20
530.94	37841.78
531.11	38094.56
531.28	38202.22
531.46	38139.03
531.63	38141.37
531.80	38363.72
531.97	38328.61
532.14	38396.49
532.31	37830.08
532.48	38707.78
532.65	38976.94
532.82	38501.81
532.99	38529.90
533.16	38583.73
533.33	38848.21
533.50	39058.86
533.67	38897.36
533.84	38609.48
534.01	38836.51
534.18	38728.84
534.35	39276.53
534.52	39374.83
534.69	39304.62
534.86	39124.40
535.03	39152.48
535.20	39220.36
535.37	39548.03
535.54	39625.27
535.71	39459.09
535.88	39185.25
536.05	39704.85
536.22	39583.14
536.38	39845.28
536.55	39468.45
536.72	39786.77
536.89	39784.43
537.06	39569.10
537.23	40304.02
537.40	39878.05
537.57	39763.36
537.74	39871.03
537.91	40128.48
538.08	40362.54
538.25	40004.44
538.42	39945.92
538.59	40563.82
538.75	40072.31
538.92	40439.78
539.09	41132.57
539.26	41092.79
539.43	40381.26
539.60	40458.50
539.77	40825.96
539.94	41179.39
540.11	40774.47
540.28	40797.88
540.44	40662.13
540.61	40886.82
540.78	40437.44
540.95	41106.83
541.12	40596.59
541.29	40999.16
541.46	40961.72
541.62	40828.30
541.79	41134.92
541.96	40964.06
542.13	40715.96
542.30	40907.88
542.47	41558.55
542.63	41909.63
542.80	41504.72
542.97	41612.38
543.14	41993.89
543.31	42017.30
543.48	42066.45
543.64	42164.75
543.81	42103.90
543.98	42211.56
544.15	41743.45
544.32	42351.99
544.48	42728.82
544.65	42539.24
544.82	42665.63
544.99	41701.32
545.16	42419.87
545.32	42092.19
545.49	42859.89
545.66	42604.77
545.83	42532.22
546.00	42679.67
546.16	42497.11
546.33	42864.57
546.50	42246.67
546.67	42822.44
546.83	42422.21
547.00	42815.42
547.17	42431.57
547.34	42742.86
547.50	42939.47
547.67	43047.13
547.84	43281.19
548.00	43028.41
548.17	43580.78
548.34	43428.64
548.51	43168.84
548.67	42993.30
548.84	43480.13
549.01	43435.66
549.18	43533.96
549.34	43578.43
549.51	43482.47
549.68	43349.06
549.84	43056.50
550.01	43660.35
550.18	43239.06
550.34	43459.07
550.51	43707.16
550.68	43866.32
550.84	43704.82
551.01	43693.12
551.18	43854.62
551.34	43723.55
551.51	44048.88
551.68	43992.71
551.84	44219.74
552.01	43356.08
552.18	43988.03
552.34	43749.29
552.51	44282.94
552.68	44254.85
552.84	44313.36
553.01	43803.13
553.18	44259.53
553.34	44521.67
553.51	44414.01
553.67	44149.53
553.84	44168.25
554.01	44451.45
554.17	44505.29
554.34	44397.62
554.51	44486.56
554.67	44961.69
554.84	44392.94
555.00	44397.62
555.17	44509.97
555.33	45048.29
555.50	44697.21
555.67	44842.32
555.83	45050.63
556.00	45294.05
556.16	45467.25
556.33	44996.80
556.50	45074.04
556.66	45050.63
556.83	44961.69
556.99	45212.13
557.16	45055.31
557.32	45462.57
557.49	45298.73
557.65	44807.22
557.82	45521.08
557.98	45352.56
558.15	45368.94
558.32	45106.80
558.48	45235.53
558.65	45502.35
558.81	45024.89
558.98	44942.97
559.14	45120.85
559.31	45200.43
559.47	45429.80
559.64	45621.72
559.80	45336.18
559.97	45364.26
560.13	45469.59
560.30	45722.37
560.46	45968.12
560.63	46050.04
560.79	45940.04
560.96	45701.30
561.12	46206.86
561.29	45722.37
561.45	45794.92
561.61	45818.33
561.78	45757.47
561.94	45743.43
562.11	45813.65
562.27	45691.94
562.44	46024.29
562.60	45682.58
562.77	45764.49
562.93	46010.25
563.10	46302.82
563.26	45790.24
563.42	45916.63
563.59	46164.73
563.75	45921.31
563.92	46223.24
564.08	45570.23
564.24	46382.40
564.41	46305.16
564.57	45998.55
564.74	45727.05
564.90	46309.84
565.07	45900.25
565.23	45862.80
565.39	45907.27
565.56	46248.99
565.72	46239.62
565.88	46248.99
566.05	46410.48
566.21	46136.64
566.38	46436.23
566.54	46445.59
566.70	46419.84
566.87	46707.73
567.03	46387.08
567.19	46518.15
567.36	46293.46
567.52	46756.88
567.68	46478.36
567.85	46361.33
568.01	46602.41
568.17	46534.53
568.34	46586.02
568.50	46366.01
568.66	46302.82
568.83	46667.94
568.99	46494.74
569.15	46972.21
569.32	46480.70
569.48	46454.95
569.64	46768.58
569.81	46721.77
569.97	46469.00
570.13	46513.47
570.30	46146.00
570.46	46637.51
570.62	46583.68
570.78	46820.08
570.95	47061.15
571.11	46642.20
571.27	46997.96
571.43	46946.47
571.60	46529.85
571.76	46806.03
571.92	46625.81
572.09	46513.47
572.25	47002.64
572.41	46497.08
572.57	46679.64
572.74	47023.70
572.90	46930.08
573.06	46969.87
573.22	46995.62
573.38	47246.05
573.55	47058.81
573.71	47311.59
573.87	47026.04
574.03	47161.79
574.20	47295.21
574.36	46986.25
574.52	47047.11
574.68	46941.78
574.84	47358.40
575.01	47119.66
575.17	47327.97
575.33	47098.60
575.49	47114.98
575.65	47037.75
575.82	47185.20
575.98	46813.05
576.14	47285.84
576.30	47330.31
576.46	47194.56
576.62	47091.58
576.79	47164.14
576.95	46951.15
577.11	47136.05
577.27	46841.14
577.43	47192.22
577.59	47173.50
577.75	47061.15
577.92	46714.75
578.08	47075.19
578.24	47489.47
578.40	47433.30
578.56	47264.78
578.72	47189.88
578.88	47004.98
579.04	46951.15
579.21	47555.00
579.37	47058.81
579.53	47627.56
579.69	46796.67
579.85	46990.94
580.01	46951.15
580.17	47281.16
580.33	47519.90
580.49	46962.85
580.65	47299.89
580.82	47103.28
580.98	47206.26
581.14	46920.72
581.30	47143.07
581.46	47213.29
581.62	47239.03
581.78	47136.05
581.94	47360.74
582.10	47367.76
582.26	47379.46
582.42	47119.66
582.58	47580.75
582.74	47288.18
582.90	47236.69
583.06	47807.78
583.22	47145.41
583.38	47316.27
583.54	47714.16
583.70	47793.74
583.86	47208.61
584.02	46930.08
584.18	47676.71
584.34	47358.40
584.50	47782.04
584.66	47613.52
584.82	46941.78
584.98	47566.71
585.14	47351.38
585.30	47447.34
585.46	47892.04
585.62	47299.89
585.78	47522.24
585.94	47454.36
586.10	47442.66
586.26	47468.40
586.42	47470.75
586.58	47267.12
586.74	47100.94
586.90	46887.95
587.06	47325.63
587.22	47922.47
587.38	47178.18
587.54	47363.08
587.70	48088.65
587.86	47578.41
588.02	47437.98
588.18	47313.93
588.34	47533.94
588.49	47828.85
588.65	47288.18
588.81	47400.53
588.97	47339.68
589.13	47615.86
589.29	47583.09
589.45	47821.83
589.61	47859.27
589.77	47782.04
589.93	48002.05
590.08	48044.18
