SpectraSuite Data File
++++++++++++++++++++++++++++++++++++
Date: Fri Oct 25 10:43:40 EDT 2013
User: price-jones
Dark Spectrum Present: No
Reference Spectrum Present: No
Number of Sampled Component Spectra: 1
Spectrometers: USB2+H05261
Integration Time (usec): 100000 (USB2+H05261)
Spectra Averaged: 1 (USB2+H05261)
Boxcar Smoothing: 0 (USB2+H05261)
Correct for Electrical Dark: No (USB2+H05261)
Strobe/Lamp Enabled: No (USB2+H05261)
Correct for Detector Non-linearity: No (USB2+H05261)
Correct for Stray Light: No (USB2+H05261)
Number of Pixels in Processed Spectrum: 2048
>>>>>Begin Processed Spectral Data<<<<<
365.73	161.50
365.92	161.50
366.12	161.50
366.32	74.90
366.52	21.06
366.72	81.92
366.91	0.00
367.11	32.77
367.31	4.68
367.51	23.41
367.70	21.06
367.90	65.54
368.10	0.00
368.30	100.64
368.49	79.58
368.69	51.49
368.89	16.38
369.09	28.09
369.28	32.77
369.48	0.00
369.68	88.94
369.87	133.41
370.07	133.41
370.27	95.96
370.47	152.13
370.66	365.12
370.86	449.38
371.06	465.77
371.25	482.15
371.45	395.55
371.65	519.60
371.84	482.15
372.04	496.19
372.24	421.30
372.44	472.79
372.63	531.30
372.83	517.26
373.03	496.19
373.22	468.11
373.42	578.11
373.62	519.60
373.81	503.22
374.01	521.94
374.21	674.07
374.40	554.71
374.60	615.56
374.79	535.98
374.99	552.37
375.19	587.47
375.38	580.45
375.58	535.98
375.78	617.90
375.97	650.67
376.17	610.88
376.37	561.73
376.56	580.45
376.76	685.78
376.95	678.76
377.15	692.80
377.35	690.46
377.54	678.76
377.74	692.80
377.93	662.37
378.13	638.97
378.33	744.29
378.52	620.24
378.72	587.47
378.91	657.69
379.11	634.29
379.31	629.60
379.50	608.54
379.70	641.31
379.89	596.84
380.09	662.37
380.28	629.60
380.48	678.76
380.68	697.48
380.87	753.65
381.07	716.20
381.26	727.91
381.46	695.14
381.65	674.07
381.85	711.52
382.04	713.86
382.24	765.36
382.43	716.20
382.63	718.54
382.83	713.86
383.02	723.23
383.22	664.71
383.41	667.05
383.61	770.04
383.80	833.23
384.00	802.80
384.19	788.76
384.39	826.21
384.58	880.04
384.78	772.38
384.97	814.51
385.17	828.55
385.36	854.30
385.56	833.23
385.75	737.27
385.95	821.53
386.14	844.93
386.34	807.48
386.53	936.21
386.72	802.80
386.92	854.30
387.11	779.40
387.31	889.40
387.50	889.40
387.70	929.19
387.89	880.04
388.09	889.40
388.28	840.25
388.48	961.96
388.67	917.49
388.86	952.60
389.06	947.92
389.25	901.11
389.45	940.90
389.64	884.72
389.84	973.66
390.03	1053.24
390.22	1006.43
390.42	976.00
390.61	915.15
390.81	1027.50
391.00	1057.92
391.19	1083.67
391.39	1071.97
391.58	1088.35
391.78	1062.60
391.97	1081.33
392.16	1053.24
392.36	1088.35
392.55	1067.28
392.75	1102.39
392.94	994.73
393.13	1088.35
393.33	999.41
393.52	966.64
393.71	1060.26
393.91	1179.63
394.10	1193.67
394.29	1081.33
394.49	1198.35
394.68	1135.16
394.88	1235.80
395.07	1289.64
395.26	1259.21
395.46	1235.80
395.65	1233.46
395.84	1219.42
396.04	1268.57
396.23	1233.46
396.42	1146.86
396.62	1294.32
396.81	1165.59
397.00	1280.27
397.19	1259.21
397.39	1350.49
397.58	1322.40
397.77	1404.32
397.97	1448.79
398.16	1357.51
398.35	1359.85
398.55	1451.13
398.74	1624.33
398.93	1474.54
399.12	1514.33
399.32	1465.18
399.51	1528.37
399.70	1650.08
399.90	1497.94
400.09	1579.86
400.28	1659.44
400.47	1645.40
400.67	1781.15
400.86	1605.61
401.05	1694.55
401.24	1788.17
401.44	1708.59
401.63	1732.00
401.82	1708.59
402.01	1643.06
402.21	1734.34
402.40	1760.08
402.59	1764.76
402.78	1753.06
402.97	1809.23
403.17	1788.17
403.36	1788.17
403.55	1830.30
403.74	1987.11
403.93	1968.39
404.13	1874.77
404.32	1891.15
404.51	1900.52
404.70	1996.48
404.89	1961.37
405.09	1989.46
405.28	1898.17
405.47	1956.69
405.66	2083.08
405.85	1982.43
406.05	1952.01
406.24	2019.88
406.43	2141.59
406.62	2097.12
406.81	2223.51
407.00	2005.84
407.20	2127.55
407.39	2059.67
407.58	2275.00
407.77	2169.68
407.96	2314.79
408.15	2291.38
408.34	2221.17
408.54	2263.30
408.73	2328.83
408.92	2317.13
409.11	2272.66
409.30	2284.36
409.49	2324.15
409.68	2258.62
409.87	2293.72
410.07	2471.61
410.26	2473.95
410.45	2476.29
410.64	2363.94
410.83	2532.46
411.02	2544.16
411.21	2525.44
411.40	2663.53
411.59	2574.59
411.78	2602.68
411.98	2670.55
412.17	2719.70
412.36	2700.98
412.55	2757.15
412.74	2813.32
412.93	2796.94
413.12	2771.19
413.31	2729.06
413.50	2787.58
413.69	2904.60
413.88	2920.99
414.07	3030.99
414.26	3098.87
414.45	2913.97
414.64	2920.99
414.83	3005.25
415.02	3056.74
415.22	3084.83
415.41	3211.22
415.60	3185.47
415.79	3169.09
415.98	3328.24
416.17	3389.10
416.36	3258.03
416.55	3328.24
416.74	3290.79
416.93	3377.39
417.12	3190.15
417.31	3349.31
417.50	3276.75
417.69	3501.44
417.88	3379.73
418.07	3513.14
418.26	3562.30
418.45	3529.53
418.64	3653.58
418.83	3585.70
419.02	3543.57
419.21	3557.61
419.39	3737.84
419.58	3648.90
419.77	3557.61
419.96	3653.58
420.15	3798.69
420.34	3758.90
420.53	3808.05
420.72	3803.37
420.91	3822.09
421.10	3943.80
421.29	3810.39
421.48	3812.73
421.67	3920.40
421.86	3859.54
422.05	3808.05
422.24	3684.00
422.43	3892.31
422.61	3974.23
422.80	3964.87
422.99	3967.21
423.18	3932.10
423.37	4009.34
423.56	3957.85
423.75	3983.59
423.94	3859.54
424.13	3714.43
424.32	3901.67
424.50	4067.85
424.69	4067.85
424.88	4056.15
425.07	3770.60
425.26	3885.29
425.45	3995.29
425.64	3962.53
425.83	4053.81
426.01	4093.60
426.20	4079.55
426.39	4032.74
426.58	3932.10
426.77	4009.34
426.96	4187.22
427.15	4023.38
427.33	4131.05
427.52	4208.28
427.71	4091.26
427.90	4180.20
428.09	4327.65
428.28	4271.48
428.46	4093.60
428.65	4067.85
428.84	4166.15
429.03	4250.41
429.22	4049.13
429.40	4114.66
429.59	4173.18
429.78	3899.33
429.97	3901.67
430.16	4145.09
430.34	4100.62
430.53	4262.12
430.72	4257.43
430.91	4145.09
431.10	4503.19
431.28	4627.24
431.47	4683.41
431.66	4732.56
431.85	4458.72
432.03	4709.16
432.22	4716.18
432.41	4706.82
432.60	4709.16
432.79	4690.43
432.97	4901.08
433.16	4870.65
433.35	4777.03
433.54	4636.60
433.72	4723.20
433.91	4711.50
434.10	4793.42
434.28	4795.76
434.47	4760.65
434.66	5043.85
434.85	4983.00
435.03	5088.32
435.22	5055.56
435.41	5191.31
435.59	5083.64
435.78	5111.73
435.97	5184.29
436.16	5102.37
436.34	5160.88
436.53	5090.67
436.72	5242.80
436.90	5214.71
437.09	5170.24
437.28	5013.43
437.46	5212.37
437.65	5261.52
437.84	5287.27
438.02	5191.31
438.21	5355.15
438.40	5221.74
438.58	5427.70
438.77	5420.68
438.96	5462.81
439.14	5598.56
439.33	5727.29
439.52	5804.53
439.70	5678.14
439.89	5596.22
440.08	5804.53
440.26	5790.49
440.45	5891.13
440.63	5921.56
440.82	5788.14
441.01	6106.46
441.19	6094.76
441.38	6190.72
441.57	6186.04
441.75	6190.72
441.94	6267.95
442.12	6366.26
442.31	6480.94
442.50	6373.28
442.68	6420.09
442.87	6413.07
443.05	6527.75
443.24	6656.48
443.43	6455.20
443.61	6373.28
443.80	6710.32
443.98	6441.15
444.17	6349.87
444.35	6696.27
444.54	6813.30
444.73	6574.56
444.91	6649.46
445.10	6616.69
445.28	6689.25
445.47	6314.77
445.65	6520.73
445.84	6604.99
446.02	6825.00
446.21	6637.76
446.39	6633.08
446.58	6518.39
446.77	6597.97
446.95	6637.76
447.14	6890.54
447.32	6927.99
447.51	6937.35
447.69	6740.74
447.88	6736.06
448.06	6775.85
448.25	6895.22
448.43	6822.66
448.62	6698.61
448.80	6642.44
448.99	6761.81
449.17	7009.90
449.36	6808.62
449.54	7094.16
449.73	7206.51
449.91	7281.41
450.10	7176.08
450.28	7269.70
450.46	7290.77
450.65	7288.43
450.83	7236.94
451.02	7337.58
451.20	7466.31
451.39	7276.73
451.57	7499.08
451.76	7396.09
451.94	7140.97
452.13	7403.11
452.31	7208.85
452.49	7169.06
452.68	7225.23
452.86	7258.00
453.05	7534.18
453.23	7379.71
453.42	7382.05
453.60	7470.99
453.78	7421.84
453.97	7410.14
454.15	7463.97
454.34	7597.38
454.52	7609.08
454.70	7786.96
454.89	7506.10
455.07	7576.31
455.26	7611.42
455.44	7632.49
455.62	7779.94
455.81	7840.79
455.99	7798.66
456.17	8114.64
456.36	8018.68
456.54	7880.58
456.73	8154.43
456.91	8245.71
457.09	8257.41
457.28	8465.72
457.46	8121.66
457.64	8189.53
457.83	8056.12
458.01	8140.38
458.19	8351.03
458.38	8332.31
458.56	8421.25
458.74	8341.67
458.93	8257.41
459.11	8271.45
459.29	8489.12
459.48	8425.93
459.66	8465.72
459.84	8400.18
460.03	8648.28
460.21	8699.77
460.39	8561.68
460.57	8620.19
460.76	8615.51
460.94	8830.84
461.12	8737.22
461.31	8748.92
461.49	8737.22
461.67	8936.17
461.85	8926.80
462.04	8833.18
462.22	9394.91
462.40	9193.62
462.59	9036.81
462.77	9198.31
462.95	9015.74
463.13	8999.36
463.32	9128.09
463.50	9107.02
463.68	9006.38
463.86	9111.71
464.05	8910.42
464.23	9137.45
464.41	9200.65
464.59	9123.41
464.78	9406.61
464.96	9231.07
465.14	9137.45
465.32	9315.33
465.50	9394.91
465.69	9327.03
465.87	9280.22
466.05	9273.20
466.23	9198.31
466.41	9362.14
466.60	9586.83
466.78	9343.42
466.96	9392.57
467.14	9420.66
467.32	9540.02
467.51	9397.25
467.69	9282.56
467.87	9640.67
468.05	9776.42
468.23	9530.66
468.41	9694.50
468.60	9724.93
468.78	9699.18
468.96	9551.73
469.14	9785.78
469.32	9949.62
469.50	9575.13
469.69	9832.59
469.87	10061.96
470.05	10104.09
470.23	10113.45
470.41	10047.92
470.59	10183.67
470.77	9982.38
470.95	10132.18
471.14	10150.90
471.32	9998.77
471.50	10387.30
471.68	10382.62
471.86	10516.03
472.04	10312.40
472.22	10733.70
472.40	10286.65
472.58	10623.69
472.77	10609.65
472.95	10771.15
473.13	10719.65
473.31	10516.03
473.49	10626.03
473.67	10684.55
473.85	10768.80
474.03	11272.02
474.21	10883.49
474.39	10885.83
474.57	11138.61
474.75	11330.53
474.93	11419.47
475.12	11328.19
475.30	11321.17
475.48	11225.21
475.66	11363.30
475.84	11391.39
476.02	11192.44
476.20	11419.47
476.38	11758.85
476.56	11950.78
476.74	11913.33
476.92	11922.69
477.10	11976.52
477.28	12156.74
477.46	12208.23
477.64	12198.87
477.82	12351.01
478.00	12943.16
478.18	12533.57
478.36	12514.84
478.54	12863.58
478.72	12767.62
478.90	13092.96
479.08	13418.29
479.26	12943.16
479.44	13331.69
479.62	13509.57
479.80	13404.25
479.98	13783.41
480.16	14078.32
480.34	13867.67
480.52	13760.01
480.70	13635.96
480.88	13984.70
481.06	13977.68
481.24	14190.67
481.41	14267.91
481.59	14340.46
481.77	14780.48
481.95	14494.94
482.13	14778.14
482.31	14719.63
482.49	15211.14
482.67	15016.88
482.85	15218.16
483.03	15510.73
483.21	15510.73
483.39	15679.25
483.57	15672.23
483.74	15676.91
483.92	15744.78
484.10	15602.01
484.28	15950.75
484.46	16147.36
484.64	16589.72
484.82	16016.29
485.00	16315.87
485.18	16702.06
485.35	16528.86
485.53	16444.60
485.71	16072.46
485.89	16453.97
486.07	16376.73
486.25	16648.23
486.43	17046.12
486.61	16772.28
486.78	17579.76
486.96	17415.93
487.14	17788.07
487.32	17514.23
487.50	18314.69
487.68	17923.82
487.85	18506.62
488.03	18675.13
488.21	18602.58
488.39	19122.18
488.57	19073.03
488.75	18944.30
488.92	19377.30
489.10	19625.39
489.28	19424.11
489.46	19805.61
489.64	19875.83
489.81	20285.42
489.99	20236.27
490.17	20269.04
490.35	20648.21
490.53	20671.61
490.70	20533.52
490.88	20826.09
491.06	20971.20
491.24	20985.24
491.41	20528.84
491.59	20896.30
491.77	20802.68
491.95	21128.02
492.13	21617.19
492.30	21687.40
492.48	21888.69
492.66	21841.88
492.84	21898.05
493.01	22176.58
493.19	22235.09
493.37	22253.81
493.54	22581.49
493.72	22855.33
493.90	22759.37
494.08	23131.51
494.25	23522.38
494.43	23136.20
494.61	23709.63
494.79	23608.98
494.96	23573.88
495.14	23917.93
495.32	23726.01
495.49	23718.99
495.67	24121.56
495.85	24360.30
496.02	24613.07
496.20	24292.42
496.38	24797.98
496.55	24929.05
496.73	25366.73
496.91	25415.88
497.09	25287.15
497.26	25200.55
497.44	25443.96
497.62	25406.52
497.79	25612.48
497.97	25642.91
498.14	25680.36
498.32	25982.29
498.50	25977.61
498.67	26265.49
498.85	26565.08
499.03	26546.36
499.20	26384.86
499.38	26661.04
499.56	26670.40
499.73	26817.86
499.91	26841.26
500.08	26726.58
500.26	26522.95
500.44	27005.10
500.61	27152.55
500.79	26696.15
500.97	27147.87
501.14	27508.32
501.32	27365.54
501.49	27201.71
501.67	27503.64
501.84	27419.38
502.02	27875.78
502.20	27833.65
502.37	28011.53
502.55	28233.88
502.72	27960.04
502.90	28503.04
503.07	27889.82
503.25	28318.14
503.43	28243.24
503.60	28360.27
503.78	28393.04
503.95	28379.00
504.13	28776.89
504.30	28844.76
504.48	28596.67
504.65	29198.18
504.83	29158.39
505.01	29717.78
505.18	29256.70
505.36	29689.70
505.53	29675.65
505.71	29970.56
505.88	29965.88
506.06	29567.99
506.23	29926.09
506.41	29993.97
506.58	30134.40
506.76	30167.16
506.93	30450.37
507.11	29832.47
507.28	30125.04
507.46	30031.41
507.63	30518.25
507.81	30518.25
507.98	30490.16
508.16	30775.70
508.33	30843.58
508.50	31211.04
508.68	31470.84
508.85	31353.82
509.03	31021.46
509.20	31569.15
509.38	31529.36
509.55	31435.74
509.73	31716.60
509.90	31819.58
510.08	31508.29
510.25	31407.65
510.42	31299.98
510.60	32027.89
510.77	31765.75
510.95	32055.98
511.12	32247.90
511.30	32542.81
511.47	32334.50
511.64	32329.82
511.82	32964.10
511.99	32676.22
512.17	32903.25
512.34	32577.92
512.51	33109.22
512.69	33010.92
512.86	32638.77
513.04	33502.43
513.21	33130.28
513.38	32903.25
513.56	33233.27
513.73	32833.04
513.90	32783.88
514.08	32975.81
514.25	33350.29
514.43	33579.67
514.60	33804.36
514.77	33504.77
514.95	34015.01
515.12	33596.05
515.29	33970.54
515.47	34220.97
515.64	34103.95
515.81	34007.98
515.99	34000.96
516.16	34038.41
516.33	33589.03
516.51	33853.51
516.68	33415.83
516.85	33486.04
517.03	34031.39
517.20	34174.16
517.37	34550.99
517.54	34803.77
517.72	34700.78
517.89	33883.94
518.06	34312.25
518.24	34490.13
518.41	34370.77
518.58	34941.86
518.75	34515.88
518.93	35110.38
519.10	35023.78
519.27	35173.57
519.45	35618.27
519.62	35505.93
519.79	35658.06
519.96	35889.77
520.14	35730.62
520.31	35489.54
520.48	35756.36
520.65	35555.08
520.83	35871.05
521.00	36079.36
521.17	36175.32
521.34	35894.46
521.52	36503.00
521.69	36657.47
521.86	36517.04
522.03	36517.04
522.20	36407.03
522.38	36788.54
522.55	37017.91
522.72	36500.65
522.89	36746.41
523.07	36968.76
523.24	36882.16
523.41	37518.79
523.58	37038.98
523.75	37675.60
523.92	37174.73
524.10	37586.66
524.27	37809.01
524.44	37787.95
524.61	37584.32
524.78	37523.47
524.96	37600.71
525.13	37605.39
525.30	38279.46
525.47	38071.15
525.64	37586.66
525.81	38031.36
525.98	37610.07
526.16	37455.59
526.33	37523.47
526.50	37626.45
526.67	37535.17
526.84	37727.10
527.01	37984.55
527.18	37881.57
527.36	38171.80
527.53	38162.43
527.70	39119.71
527.87	38646.93
528.04	38651.61
528.21	38775.66
528.38	38806.08
528.55	39255.46
528.72	38913.75
528.89	39346.75
529.07	38785.02
529.24	39236.74
529.41	39257.81
529.58	38623.52
529.75	38974.60
529.92	39402.92
530.09	39419.30
530.26	39117.37
530.43	39606.55
530.60	39702.51
530.77	39129.08
530.94	40020.82
531.11	39866.34
531.28	39779.74
531.46	39789.11
531.63	40009.12
531.80	39913.16
531.97	40067.63
532.14	39903.79
532.31	39229.72
532.48	39405.26
532.65	40374.24
532.82	39679.10
532.99	39784.43
533.16	40016.14
533.33	40535.74
533.50	40711.28
533.67	40259.55
533.84	39903.79
534.01	40268.92
534.18	40350.84
534.35	40952.35
534.52	40194.02
534.69	40545.10
534.86	40994.48
535.03	40753.41
535.20	41371.31
535.37	40917.25
535.54	41380.67
535.71	41048.32
535.88	40978.10
536.05	40832.99
536.22	41001.50
536.38	40994.48
536.55	41240.24
536.72	41221.52
536.89	40938.31
537.06	41148.96
537.23	41584.30
537.40	41525.78
537.57	41544.51
537.74	41317.48
537.91	41907.29
538.08	41443.87
538.25	41546.85
538.42	41392.37
538.59	41441.53
538.75	40935.97
538.92	41734.09
539.09	41652.17
539.26	41390.03
539.43	41745.80
539.60	41689.62
539.77	41738.77
539.94	41593.66
540.11	41816.01
540.28	42068.79
540.44	41727.07
540.61	41825.37
540.78	41965.81
540.95	41596.00
541.12	42014.96
541.29	41993.89
541.46	42211.56
541.62	42485.40
541.79	42401.14
541.96	41698.98
542.13	41844.10
542.30	42099.22
542.47	42476.04
542.63	42080.49
542.80	42139.00
542.97	42501.79
543.14	42890.32
543.31	42469.02
543.48	42871.59
543.64	43112.67
543.81	43072.88
543.98	43325.66
544.15	43138.41
544.32	43440.34
544.48	43379.49
544.65	43365.45
544.82	43501.20
544.99	43178.20
545.16	43412.26
545.32	43299.91
545.49	43253.10
545.66	43585.46
545.83	43189.91
546.00	43585.46
546.16	43372.47
546.33	43533.96
546.50	43192.25
546.67	43428.64
546.83	42869.25
547.00	43866.32
547.17	43372.47
547.34	43475.45
547.50	43597.16
547.67	43868.66
547.84	43730.57
548.00	43910.79
548.17	44383.58
548.34	44076.97
548.51	44191.65
548.67	44402.30
548.84	44322.72
549.01	43501.20
549.18	44292.30
549.34	44311.02
549.51	44100.37
549.68	44332.09
549.84	44336.77
550.01	44311.02
550.18	44126.12
550.34	44306.34
550.51	43768.02
550.68	44381.24
550.84	43742.27
551.01	43985.69
551.18	44011.43
551.34	43889.73
551.51	44612.95
551.68	44917.22
551.84	44502.95
552.01	44428.05
552.18	44493.58
552.34	44329.75
552.51	44619.97
552.68	44624.65
552.84	44772.11
553.01	44568.48
553.18	44765.09
553.34	44545.08
553.51	45137.23
553.67	44781.47
553.84	44940.63
554.01	44751.04
554.17	45214.47
554.34	45244.90
554.51	45214.47
554.67	44793.17
554.84	44861.05
555.00	45174.68
555.17	45052.97
555.33	44992.12
555.50	44973.39
555.67	45059.99
555.83	44935.95
556.00	45081.06
556.16	45413.41
556.33	45020.20
556.50	44601.25
556.66	45132.55
556.83	44898.50
556.99	45097.44
557.16	45177.02
557.32	45205.11
557.49	45191.06
557.65	45029.57
557.82	45272.98
557.98	45200.43
558.15	45017.86
558.32	45689.60
558.48	45392.35
558.65	45261.28
558.81	44961.69
558.98	45170.00
559.14	45244.90
559.31	45418.10
559.47	45233.19
559.64	45345.54
559.80	45338.52
559.97	45177.02
560.13	45518.74
560.30	46043.02
560.46	45918.97
560.63	45708.32
560.79	45593.64
560.96	46190.47
561.12	45593.64
561.29	45062.33
561.45	45741.09
561.61	45701.30
561.78	45680.24
561.94	45815.99
562.11	45511.72
562.27	45757.47
562.44	46045.36
562.60	46052.38
562.77	45380.65
562.93	45703.64
563.10	46532.19
563.26	45415.76
563.42	45986.85
563.59	46050.04
563.75	45734.07
563.92	45940.04
564.08	45930.67
564.24	46167.07
564.41	45710.66
564.57	45352.56
564.74	45434.48
564.90	45909.61
565.07	46066.42
565.23	45909.61
565.39	45764.49
565.56	46251.33
565.72	45595.98
565.88	46328.56
566.05	45855.78
566.21	45759.81
566.38	45663.85
566.54	46199.83
566.70	46160.05
566.87	46253.67
567.03	46108.55
567.19	46712.41
567.36	45982.16
567.52	46019.61
567.68	46162.39
567.85	45167.66
568.01	45951.74
568.17	46052.38
568.34	46066.42
568.50	45881.52
568.66	46160.05
568.83	46188.13
568.99	46007.91
569.15	46131.96
569.32	46066.42
569.48	46054.72
569.64	46382.40
569.81	46532.19
569.97	45762.15
570.13	45874.50
570.30	45624.06
570.46	46033.66
570.62	45801.94
570.78	45689.60
570.95	45663.85
571.11	46057.06
571.27	46061.74
571.43	45663.85
571.60	46157.70
571.76	46040.68
571.92	46075.79
572.09	46387.08
572.25	46234.94
572.41	46457.29
572.57	46576.66
572.74	46902.00
572.90	45841.73
573.06	46356.65
573.22	46171.75
573.38	46560.28
573.55	45989.19
573.71	46183.45
573.87	46560.28
574.03	46391.76
574.20	46127.28
574.36	46024.29
574.52	46241.96
574.68	46251.33
574.84	45951.74
575.01	46007.91
575.17	46394.10
575.33	46064.08
575.49	45984.51
575.65	46136.64
575.82	46876.25
575.98	46120.26
576.14	46609.43
576.30	46244.30
576.46	46073.45
576.62	46394.10
576.79	46300.48
576.95	46415.16
577.11	46408.14
577.27	46796.67
577.43	46122.60
577.59	45752.79
577.75	46246.65
577.92	45780.88
578.08	46038.34
578.24	46031.32
578.40	45937.69
578.56	46564.96
578.72	46691.35
578.88	46515.81
579.04	46497.08
579.21	46164.73
579.37	46064.08
579.53	46368.35
579.69	46019.61
579.85	46150.68
580.01	46328.56
580.17	46005.57
580.33	46426.87
580.49	46344.95
580.65	46106.21
580.82	46220.90
580.98	46174.09
581.14	46108.55
581.30	46366.01
581.46	46604.75
581.62	46321.54
581.78	46241.96
581.94	46586.02
582.10	46862.21
582.26	46784.97
582.42	46316.86
582.58	46763.90
582.74	46248.99
582.90	46429.21
583.06	46473.68
583.22	46733.48
583.38	46618.79
583.54	46689.01
583.70	46625.81
583.86	46569.64
584.02	46412.82
584.18	46384.74
584.34	46684.33
584.50	46171.75
584.66	46473.68
584.82	46520.49
584.98	46665.60
585.14	46525.17
585.30	46330.90
585.46	46057.06
585.62	46014.93
585.78	46136.64
585.94	46122.60
586.10	46265.37
586.26	46300.48
586.42	46754.54
586.58	46398.78
586.74	46220.90
586.90	46387.08
587.06	46204.52
587.22	46625.81
587.38	46536.87
587.54	46649.22
587.70	46733.48
587.86	46181.11
588.02	46314.52
588.18	46630.49
588.34	46270.05
588.49	46082.81
588.65	45848.75
588.81	46028.98
588.97	46396.44
589.13	46050.04
589.29	45666.19
589.45	46096.85
589.61	45869.82
589.77	46131.96
589.93	46719.43
