SpectraSuite Data File
++++++++++++++++++++++++++++++++++++
Date: Fri Oct 25 10:44:48 EDT 2013
User: price-jones
Dark Spectrum Present: No
Reference Spectrum Present: No
Number of Sampled Component Spectra: 1
Spectrometers: USB2+H05261
Integration Time (usec): 100000 (USB2+H05261)
Spectra Averaged: 1 (USB2+H05261)
Boxcar Smoothing: 0 (USB2+H05261)
Correct for Electrical Dark: No (USB2+H05261)
Strobe/Lamp Enabled: No (USB2+H05261)
Correct for Detector Non-linearity: No (USB2+H05261)
Correct for Stray Light: No (USB2+H05261)
Number of Pixels in Processed Spectrum: 2048
>>>>>Begin Processed Spectral Data<<<<<
365.73	135.75
365.92	135.75
366.12	135.75
366.32	84.26
366.52	11.70
366.72	0.00
366.91	0.00
367.11	11.70
367.31	86.60
367.51	0.00
367.70	0.00
367.90	79.58
368.10	30.43
368.30	44.47
368.49	9.36
368.69	131.07
368.89	67.88
369.09	25.75
369.28	25.75
369.48	37.45
369.68	107.66
369.87	81.92
370.07	142.77
370.27	88.94
370.47	205.97
370.66	306.61
370.86	397.89
371.06	383.85
371.25	486.83
371.45	421.30
371.65	449.38
371.84	402.57
372.04	393.21
372.24	433.00
372.44	528.96
372.63	510.24
372.83	486.83
373.03	547.69
373.22	545.34
373.42	489.17
373.62	461.09
373.81	554.71
374.01	526.62
374.21	543.00
374.40	545.34
374.60	545.34
374.79	538.32
374.99	514.92
375.19	557.05
375.38	559.39
375.58	554.71
375.78	594.50
375.97	592.16
376.17	610.88
376.37	617.90
376.56	648.33
376.76	538.32
376.95	580.45
377.15	559.39
377.35	617.90
377.54	664.71
377.74	599.18
377.93	610.88
378.13	592.16
378.33	615.56
378.52	557.05
378.72	662.37
378.91	636.63
379.11	627.26
379.31	592.16
379.50	629.60
379.70	657.69
379.89	678.76
380.09	608.54
380.28	629.60
380.48	655.35
380.68	636.63
380.87	629.60
381.07	688.12
381.26	713.86
381.46	636.63
381.65	638.97
381.85	631.94
382.04	643.65
382.24	692.80
382.43	655.35
382.63	676.41
382.83	643.65
383.02	690.46
383.22	697.48
383.41	638.97
383.61	645.99
383.80	751.31
384.00	676.41
384.19	734.93
384.39	781.74
384.58	730.25
384.78	777.06
384.97	678.76
385.17	751.31
385.36	772.38
385.56	809.83
385.75	748.97
385.95	795.78
386.14	725.57
386.34	807.48
386.53	788.76
386.72	758.33
386.92	760.67
387.11	807.48
387.31	858.98
387.50	781.74
387.70	751.31
387.89	814.51
388.09	758.33
388.28	830.89
388.48	826.21
388.67	821.53
388.86	868.34
389.06	814.51
389.25	861.32
389.45	917.49
389.64	821.53
389.84	947.92
390.03	915.15
390.22	903.45
390.42	903.45
390.61	891.74
390.81	877.70
391.00	926.85
391.19	908.13
391.39	926.85
391.58	917.49
391.78	950.26
391.97	1055.58
392.16	945.58
392.36	997.07
392.55	922.17
392.75	945.58
392.94	950.26
393.13	1043.88
393.33	1020.47
393.52	961.96
393.71	1043.88
393.91	1020.47
394.10	1043.88
394.29	1043.88
394.49	1125.80
394.68	1107.07
394.88	1142.18
395.07	1146.86
395.26	1083.67
395.46	1142.18
395.65	1107.07
395.84	1102.39
396.04	1088.35
396.23	1170.27
396.42	1050.90
396.62	1095.37
396.81	1116.44
397.00	1174.95
397.19	1212.40
397.39	1163.25
397.58	1156.22
397.77	1196.01
397.97	1313.04
398.16	1287.29
398.35	1294.32
398.55	1266.23
398.74	1366.87
398.93	1334.11
399.12	1291.98
399.32	1385.60
399.51	1472.20
399.70	1509.65
399.90	1385.60
400.09	1411.34
400.28	1481.56
400.47	1296.66
400.67	1479.22
400.86	1394.96
401.05	1481.56
401.24	1427.73
401.44	1533.05
401.63	1650.08
401.82	1483.90
402.01	1488.58
402.21	1521.35
402.40	1521.35
402.59	1563.48
402.78	1504.96
402.97	1486.24
403.17	1530.71
403.36	1605.61
403.55	1610.29
403.74	1629.01
403.93	1715.61
404.13	1673.48
404.32	1640.72
404.51	1631.35
404.70	1699.23
404.89	1696.89
405.09	1746.04
405.28	1710.93
405.47	1811.57
405.66	1736.68
405.85	1708.59
406.05	1682.85
406.24	1717.95
406.43	1851.36
406.62	1928.60
406.81	1923.92
407.00	1893.49
407.20	1774.13
407.39	1781.15
407.58	1919.24
407.77	1877.11
407.96	1930.94
408.15	1975.41
408.34	1884.13
408.54	1902.86
408.73	1987.11
408.92	2059.67
409.11	2052.65
409.30	2073.71
409.49	1987.11
409.68	1989.46
409.87	1933.28
410.07	2120.53
410.26	2106.48
410.45	2148.61
410.64	2263.30
410.83	2148.61
411.02	2106.48
411.21	2321.81
411.40	2162.66
411.59	2249.25
411.78	2338.20
411.98	2361.60
412.17	2429.48
412.36	2279.68
412.55	2279.68
412.74	2464.58
412.93	2445.86
413.12	2483.31
413.31	2462.24
413.50	2457.56
413.69	2534.80
413.88	2527.78
414.07	2569.91
414.26	2605.02
414.45	2595.65
414.64	2555.86
414.83	2766.51
415.02	2602.68
415.22	2818.00
415.41	2796.94
415.60	2818.00
415.79	2885.88
415.98	2883.54
416.17	2913.97
416.36	2878.86
416.55	2794.60
416.74	2892.90
416.93	3012.27
417.12	2916.31
417.31	3049.72
417.50	2920.99
417.69	3042.70
417.88	3178.45
418.07	3002.91
418.26	3012.27
418.45	3075.46
418.64	3222.92
418.83	3208.87
419.02	3222.92
419.21	3236.96
419.39	3211.22
419.58	3150.36
419.77	3098.87
419.96	3246.32
420.15	3288.45
420.34	3323.56
420.53	3346.97
420.72	3304.84
420.91	3318.88
421.10	3414.84
421.29	3442.93
421.48	3452.29
421.67	3454.63
421.86	3435.91
422.05	3407.82
422.24	3386.76
422.43	3335.26
422.61	3403.14
422.80	3541.23
422.99	3534.21
423.18	3508.46
423.37	3513.14
423.56	3431.23
423.75	3545.91
423.94	3524.85
424.13	3253.34
424.32	3473.36
424.50	3583.36
424.69	3515.48
424.88	3641.87
425.07	3410.16
425.26	3552.93
425.45	3606.77
425.64	3588.04
425.83	3480.38
426.01	3531.87
426.20	3681.66
426.39	3639.53
426.58	3559.95
426.77	3576.34
426.96	3639.53
427.15	3686.34
427.33	3637.19
427.52	3648.90
427.71	3651.24
427.90	3672.30
428.09	3798.69
428.28	3693.37
428.46	3775.28
428.65	3794.01
428.84	3957.85
429.03	3843.16
429.22	3789.33
429.40	3894.65
429.59	3782.31
429.78	3606.77
429.97	3662.94
430.16	3550.59
430.34	3705.07
430.53	3843.16
430.72	3941.46
430.91	3934.44
431.10	3875.93
431.28	4112.32
431.47	4072.53
431.66	4088.92
431.85	3999.98
432.03	4142.75
432.22	4229.35
432.41	4140.41
432.60	4030.40
432.79	4159.13
432.97	4271.48
433.16	4348.72
433.35	4280.84
433.54	4264.46
433.72	4222.33
433.91	4112.32
434.10	4337.01
434.28	4337.01
434.47	4194.24
434.66	4587.45
434.85	4416.59
435.03	4482.13
435.22	4603.83
435.41	4608.51
435.59	4547.66
435.78	4592.13
435.97	4550.00
436.16	4545.32
436.34	4578.09
436.53	4713.84
436.72	4634.26
436.90	4624.90
437.09	4772.35
437.28	4540.64
437.46	4631.92
437.65	4589.79
437.84	4741.93
438.02	4739.58
438.21	4755.97
438.40	4643.62
438.58	4875.34
438.77	4882.36
438.96	4884.70
439.14	4908.10
439.33	5181.95
439.52	5200.67
439.70	4983.00
439.89	5205.35
440.08	5121.09
440.26	5184.29
440.45	5160.88
440.63	5268.55
440.82	5537.71
441.01	5233.44
441.19	5338.76
441.38	5455.79
441.57	5448.77
441.75	5469.83
441.94	5617.29
442.12	5689.84
442.31	5832.62
442.50	5638.35
442.68	5516.64
442.87	5685.16
443.05	5746.02
443.24	5596.22
443.43	5643.03
443.61	5731.97
443.80	6069.01
443.98	5792.83
444.17	5701.54
444.35	5846.66
444.54	5846.66
444.73	5846.66
444.91	5823.25
445.10	5804.53
445.28	5827.93
445.47	5696.86
445.65	5708.57
445.84	5762.40
446.02	5949.64
446.21	5767.08
446.39	5891.13
446.58	5867.72
446.77	5975.39
446.95	5968.37
447.14	5865.38
447.32	6155.61
447.51	5994.11
447.69	6134.54
447.88	6120.50
448.06	6043.26
448.25	5905.17
448.43	6012.84
448.62	5919.21
448.80	5926.24
448.99	6214.12
449.17	6050.28
449.36	6174.33
449.54	6141.57
449.73	6354.55
449.91	6242.21
450.10	6448.18
450.28	6392.00
450.46	6415.41
450.65	6555.84
450.83	6457.54
451.02	6300.72
451.20	6480.94
451.39	6612.01
451.57	6480.94
451.76	6396.68
451.94	6399.02
452.13	6642.44
452.31	6546.48
452.49	6167.31
452.68	6576.91
452.86	6462.22
453.05	6579.25
453.23	6553.50
453.42	6630.74
453.60	6499.67
453.78	6572.22
453.97	6651.80
454.15	6640.10
454.34	6516.05
454.52	6738.40
454.70	6771.17
454.89	6810.96
455.07	6722.02
455.26	7084.80
455.44	6878.83
455.62	6939.69
455.81	6892.88
455.99	6855.43
456.17	6998.20
456.36	7066.08
456.54	7112.89
456.73	7152.68
456.91	7218.21
457.09	7218.21
457.28	7358.64
457.46	7042.67
457.64	7194.81
457.83	7262.68
458.01	7248.64
458.19	7290.77
458.38	7433.54
458.56	7625.47
458.74	7236.94
458.93	7295.45
459.11	7300.13
459.29	7417.16
459.48	7433.54
459.66	7459.29
459.84	7585.68
460.03	7772.92
460.21	7508.44
460.39	7751.85
460.57	7805.69
460.76	7517.80
460.94	7763.56
461.12	7779.94
461.31	8060.80
461.49	7595.04
461.67	7791.64
461.85	8006.97
462.04	7815.05
462.22	8049.10
462.40	8194.22
462.59	8114.64
462.77	7896.97
462.95	7859.52
463.13	7985.91
463.32	8046.76
463.50	8184.85
463.68	8294.86
463.86	8217.62
464.05	8126.34
464.23	7992.93
464.41	8163.79
464.59	8044.42
464.78	8341.67
464.96	8222.30
465.14	8304.22
465.32	8353.37
465.50	8386.14
465.69	8348.69
465.87	8482.10
466.05	8379.12
466.23	8430.61
466.41	8402.52
466.60	8596.79
466.78	8098.25
466.96	8243.37
467.14	8444.65
467.32	8226.98
467.51	8444.65
467.69	8407.20
467.87	8535.93
468.05	8713.81
468.23	8489.12
468.41	8622.53
468.60	8610.83
468.78	8578.06
468.96	8461.04
469.14	8849.57
469.32	8748.92
469.50	8648.28
469.69	8807.44
469.87	9020.42
470.05	8966.59
470.23	8805.10
470.41	8957.23
470.59	8872.97
470.77	8809.78
470.95	9109.36
471.14	9078.94
471.32	9027.45
471.50	9355.12
471.68	9343.42
471.86	9451.08
472.04	9341.08
472.22	9593.86
472.40	9525.98
472.58	9523.64
472.77	9404.27
472.95	9490.87
473.13	9795.14
473.31	9490.87
473.49	9565.77
473.67	9474.49
473.85	9518.96
474.03	9902.81
474.21	9900.47
474.39	9905.15
474.57	9874.72
474.75	10209.42
474.93	10307.72
475.12	9954.30
475.30	10092.39
475.48	10202.40
475.66	10083.03
475.84	10162.61
476.02	10415.38
476.20	10218.78
476.38	10642.42
476.56	10656.46
476.74	10616.67
476.92	10693.91
477.10	10771.15
477.28	11133.93
477.46	10888.17
477.64	11084.78
477.82	11110.52
478.00	11417.13
478.18	11346.92
478.36	11389.05
478.54	11428.84
478.72	11754.17
478.90	11735.45
479.08	11756.51
479.26	11763.53
479.44	11777.58
479.62	12002.27
479.80	12126.32
479.98	12044.40
480.16	12456.33
480.34	12304.20
480.52	12472.71
480.70	12461.01
480.88	12496.12
481.06	12542.93
481.24	12676.34
481.41	12856.56
481.59	12966.57
481.77	13029.76
481.95	13135.09
482.13	13092.96
482.31	13280.20
482.49	13579.79
482.67	13640.64
482.85	13614.90
483.03	13937.89
483.21	14143.86
483.39	14104.07
483.57	13984.70
483.74	14263.22
483.92	14230.46
484.10	14045.55
484.28	14256.20
484.46	14658.78
484.64	14520.68
484.82	14497.28
485.00	14941.98
485.18	15225.18
485.35	15166.67
485.53	14934.96
485.71	14946.66
485.89	15379.66
486.07	15192.42
486.25	15344.55
486.43	15545.84
486.61	15604.35
486.78	16065.44
486.96	16030.33
487.14	16154.38
487.32	16210.55
487.50	16453.97
487.68	16683.34
487.85	16699.72
488.03	16840.15
488.21	17099.95
488.39	17172.51
488.57	17172.51
488.75	17238.05
488.92	17350.39
489.10	17668.70
489.28	17832.54
489.46	18090.00
489.64	18040.85
489.81	18010.42
489.99	18143.83
490.17	18466.83
490.35	18642.37
490.53	18939.62
490.70	18651.73
490.88	18597.90
491.06	19035.58
491.24	18956.00
491.41	18911.53
491.59	19000.47
491.77	19379.64
491.95	19527.09
492.13	19262.61
492.30	19730.72
492.48	19534.11
492.66	19833.70
492.84	20135.63
493.01	20004.56
493.19	20013.92
493.37	20231.59
493.54	20570.97
493.72	20603.74
493.90	20528.84
494.08	21118.65
494.25	21020.35
494.43	21490.80
494.61	21563.36
494.79	21561.02
494.96	21420.58
495.14	21289.51
495.32	21860.60
495.49	21919.12
495.67	22015.08
495.85	22094.66
496.02	22260.84
496.20	22368.50
496.38	22422.33
496.55	22537.02
496.73	22852.99
496.91	22766.39
497.09	22979.38
497.26	22906.82
497.44	23002.78
497.62	23063.64
497.79	23208.75
497.97	23543.45
498.14	23594.94
498.32	23702.61
498.50	23690.90
498.67	23793.89
498.85	23761.12
499.03	23964.75
499.20	24254.97
499.38	24245.61
499.56	24032.62
499.73	24383.70
499.91	24397.74
500.08	24549.88
500.26	24367.32
500.44	24592.01
500.61	24828.40
500.79	24421.15
500.97	25261.40
501.14	25242.68
501.32	25186.50
501.49	25247.36
501.67	24819.04
501.84	25542.27
502.02	25336.30
502.20	25385.45
502.37	25851.22
502.55	25467.37
502.72	25841.85
502.90	26185.91
503.07	26113.36
503.25	26029.10
503.43	25649.93
503.60	25947.18
503.78	26052.50
503.95	25865.26
504.13	26181.23
504.30	26242.09
504.48	26455.08
504.65	26597.85
504.83	27009.78
505.01	27335.12
505.18	26808.50
505.36	27080.00
505.53	27115.11
505.71	27384.27
505.88	27351.50
506.06	27248.52
506.23	27316.39
506.41	27346.82
506.58	27676.83
506.76	27662.79
506.93	27859.40
507.11	27695.56
507.28	27702.58
507.46	27569.17
507.63	27782.16
507.81	27997.49
507.98	27936.63
508.16	28355.59
508.33	27941.32
508.50	28627.09
508.68	28624.75
508.85	28706.67
509.03	28580.28
509.20	28505.38
509.38	28601.35
509.55	28748.80
509.73	29010.94
509.90	29259.04
510.08	28982.85
510.25	28699.65
510.42	29460.32
510.60	29036.69
510.77	29558.63
510.95	29668.63
511.12	29570.33
511.30	29806.72
511.47	30031.41
511.64	30089.93
511.82	30085.25
511.99	29703.74
512.17	29759.91
512.34	29656.93
512.51	30209.29
512.69	30654.00
512.86	30363.77
513.04	30700.81
513.21	30646.97
513.38	30558.03
513.56	30827.20
513.73	30906.77
513.90	30841.24
514.08	30834.22
514.25	30773.36
514.43	31065.93
514.60	30848.26
514.77	30658.68
514.95	31552.76
515.12	31150.19
515.29	31393.61
515.47	31503.61
515.64	31646.38
515.81	31667.45
515.99	31948.31
516.16	31573.83
516.33	31204.02
516.51	31590.21
516.68	31531.70
516.85	31414.67
517.03	31707.24
517.20	31974.06
517.37	31917.89
517.54	32535.79
517.72	32203.43
517.89	31950.65
518.06	32229.18
518.24	31974.06
518.41	31971.72
518.58	32257.26
518.75	32205.77
518.93	32371.95
519.10	32610.68
519.27	32395.35
519.45	32690.26
519.62	33120.92
519.79	32730.05
519.96	32999.21
520.14	33301.14
520.31	32835.38
520.48	33298.80
520.65	32723.03
520.83	33546.90
521.00	33509.45
521.17	33268.37
521.34	33354.97
521.52	33797.34
521.69	33268.37
521.86	34160.12
522.03	33727.12
522.20	34136.71
522.38	34059.48
522.55	34384.81
522.72	33893.30
522.89	34096.92
523.07	34242.04
523.24	34323.96
523.41	34543.97
523.58	34611.84
523.75	35101.01
523.92	34810.79
524.10	34546.31
524.27	34602.48
524.44	34583.76
524.61	35262.51
524.78	35534.01
524.96	35054.20
525.13	35435.71
525.30	35030.80
525.47	35519.97
525.64	35470.82
525.81	35278.89
525.98	35363.15
526.16	35246.13
526.33	34885.68
526.50	35192.30
526.67	35119.74
526.84	35105.70
527.01	35239.11
527.18	35393.58
527.36	35934.24
527.53	36224.47
527.70	36053.61
527.87	36297.03
528.04	35737.64
528.21	36355.54
528.38	35845.30
528.55	36154.26
528.72	36093.40
528.89	36790.88
529.07	36444.48
529.24	35875.73
529.41	36425.76
529.58	36449.16
529.75	36194.04
529.92	36575.55
530.09	36657.47
530.26	37038.98
530.43	36547.47
530.60	36500.65
530.77	36416.40
530.94	37106.85
531.11	36980.46
531.28	37361.97
531.46	37483.68
531.63	37160.69
531.80	37263.67
531.97	36849.39
532.14	36933.65
532.31	37134.94
532.48	37322.18
532.65	37291.76
532.82	37027.28
532.99	37322.18
533.16	37317.50
533.33	37771.57
533.50	37993.92
533.67	37904.98
533.84	37296.44
534.01	37645.18
534.18	37787.95
534.35	38073.49
534.52	37488.36
534.69	37956.47
534.86	37677.94
535.03	38209.25
535.20	38609.48
535.37	38471.39
535.54	38511.17
535.71	38115.62
535.88	38227.97
536.05	38192.86
536.22	38726.50
536.38	38279.46
536.55	38242.01
536.72	38195.20
536.89	38345.00
537.06	38162.43
537.23	38782.68
537.40	38859.91
537.57	38946.51
537.74	38768.63
537.91	38579.05
538.08	38876.30
538.25	38770.97
538.42	38780.34
538.59	38848.21
538.75	38698.42
538.92	38787.36
539.09	38969.92
539.26	39295.25
539.43	39028.43
539.60	39189.93
539.77	39047.16
539.94	39152.48
540.11	39129.08
540.28	39033.11
540.44	39110.35
540.61	39091.63
540.78	39604.20
540.95	39325.68
541.12	39150.14
541.29	39372.49
541.46	39618.25
541.62	39264.83
541.79	39796.13
541.96	39133.76
542.13	39433.35
542.30	39962.31
542.47	39576.12
542.63	39634.63
542.80	40140.19
542.97	40100.40
543.14	40261.90
543.31	40226.79
543.48	40287.64
543.64	40942.99
543.81	40797.88
543.98	40524.04
544.15	40517.01
544.32	40322.75
544.48	40971.08
544.65	40809.58
544.82	40739.36
544.99	40467.86
545.16	40727.66
545.32	40765.11
545.49	40994.48
545.66	40767.45
545.83	40968.74
546.00	41102.15
546.16	41022.57
546.33	40964.06
546.50	40685.53
546.67	40776.81
546.83	40465.52
547.00	40945.33
547.17	41125.55
547.34	41198.11
547.50	41359.61
547.67	41294.07
547.84	41577.28
548.00	41242.58
548.17	41511.74
548.34	41670.90
548.51	41993.89
548.67	41804.31
548.84	41689.62
549.01	41565.57
549.18	41551.53
549.34	41141.94
549.51	41345.56
549.68	41975.17
549.84	41420.46
550.01	41923.68
550.18	41591.32
550.34	42181.13
550.51	41904.95
550.68	41731.75
550.84	41223.86
551.01	41769.20
551.18	42237.31
551.34	41698.98
551.51	41684.94
551.68	41975.17
551.84	41776.22
552.01	41986.87
552.18	42342.63
552.34	41897.93
552.51	42036.02
552.68	41914.31
552.84	42452.64
553.01	42527.53
553.18	41958.78
553.34	41975.17
553.51	42150.71
553.67	42529.87
553.84	42543.92
554.01	42784.99
554.17	42749.88
554.34	42892.66
554.51	42721.80
554.67	42738.18
554.84	42440.93
555.00	42202.20
555.17	42270.08
555.33	42873.93
555.50	42351.99
555.67	42541.58
555.83	42911.38
556.00	42930.11
556.16	42906.70
556.33	42569.66
556.50	42471.36
556.66	42670.31
556.83	42564.98
556.99	43063.52
557.16	43328.00
557.32	43416.94
557.49	43285.87
557.65	43009.68
557.82	42703.07
557.98	42939.47
558.15	43363.11
558.32	43194.59
558.48	43051.81
558.65	43311.61
558.81	42813.08
558.98	42927.77
559.14	43086.92
559.31	43042.45
559.47	43189.91
559.64	43658.01
559.80	43196.93
559.97	43349.06
560.13	43037.77
560.30	43203.95
560.46	43386.51
560.63	43665.03
560.79	43772.70
560.96	43393.53
561.12	43578.43
561.29	43732.91
561.45	43526.94
561.61	43367.79
561.78	43316.29
561.94	42850.53
562.11	43711.84
562.27	43262.46
562.44	43344.38
562.60	43632.27
562.77	43629.93
562.93	43526.94
563.10	43384.17
563.26	43342.04
563.42	43723.55
563.59	43447.36
563.75	43208.63
563.92	43604.18
564.08	43426.30
564.24	43683.76
564.41	43564.39
564.57	43618.22
564.74	43819.51
564.90	43786.74
565.07	43512.90
565.23	44034.84
565.39	43737.59
565.56	43290.55
565.72	43753.97
565.88	43751.63
566.05	43489.49
566.21	43466.09
566.38	43793.76
566.54	43615.88
566.70	44203.36
566.87	44201.02
567.03	43800.79
567.19	44486.56
567.36	43945.90
567.52	44140.16
567.68	43763.34
567.85	43894.41
568.01	43681.42
568.17	43910.79
568.34	43997.39
568.50	43959.94
568.66	43349.06
568.83	43903.77
568.99	43569.07
569.15	43667.37
569.32	43896.75
569.48	43342.04
569.64	44392.94
569.81	44231.44
569.97	44212.72
570.13	43800.79
570.30	43438.00
570.46	43636.95
570.62	43856.96
570.78	43435.66
570.95	43779.72
571.11	44135.48
571.27	44266.55
571.43	43592.48
571.60	44074.63
571.76	44285.28
571.92	43854.62
572.09	43833.55
572.25	44194.00
572.41	43906.11
572.57	44198.68
572.74	44238.47
572.90	44175.27
573.06	44336.77
573.22	44250.17
573.38	44268.89
573.55	44224.42
573.71	44528.69
573.87	44170.59
574.03	43964.62
574.20	44128.46
574.36	43845.26
574.52	44250.17
574.68	44034.84
574.84	43753.97
575.01	43962.28
575.17	44437.41
575.33	43601.84
575.49	43973.98
575.65	44451.45
575.82	44519.33
575.98	44137.82
576.14	44222.08
576.30	44212.72
576.46	44577.84
576.62	44037.18
576.79	43955.26
576.95	44205.70
577.11	44170.59
577.27	44322.72
577.43	43730.57
577.59	44273.57
577.75	44545.08
577.92	43845.26
578.08	43917.81
578.24	44184.63
578.40	44208.04
578.56	44294.64
578.72	44168.25
578.88	44238.47
579.04	44399.96
579.21	44325.07
579.37	44648.06
579.53	44369.54
579.69	44018.46
579.85	44535.71
580.01	44622.31
580.17	44575.50
580.33	44421.03
580.49	44662.10
580.65	44524.01
580.82	44399.96
580.98	43913.13
581.14	44549.76
581.30	44619.97
581.46	44411.67
581.62	44643.38
581.78	44294.64
581.94	44701.89
582.10	44086.33
582.26	44264.21
582.42	44582.52
582.58	44390.60
582.74	44271.23
582.90	44779.13
583.06	44568.48
583.22	44617.63
583.38	44729.98
583.54	44767.43
583.70	44259.53
583.86	44460.82
584.02	44519.33
584.18	44608.27
584.34	44643.38
584.50	44252.51
584.66	44376.56
584.82	44388.26
584.98	44615.29
585.14	44868.07
585.30	44322.72
585.46	44374.22
585.62	44423.37
585.78	44254.85
585.94	43873.34
586.10	44210.38
586.26	44114.42
586.42	44793.17
586.58	44669.12
586.74	44390.60
586.90	44329.75
587.06	44203.36
587.22	44734.66
587.38	44329.75
587.54	44727.64
587.70	44458.48
587.86	44612.95
588.02	44069.95
588.18	44449.11
588.34	44535.71
588.49	44170.59
588.65	43772.70
588.81	44280.60
588.97	44083.99
589.13	44137.82
589.29	44524.01
589.45	44722.96
589.61	44329.75
589.77	44673.81
589.93	44708.91
590.08	44758.06
590.24	44610.61
