SpectraSuite Data File
++++++++++++++++++++++++++++++++++++
Date: Fri Oct 25 10:43:55 EDT 2013
User: price-jones
Dark Spectrum Present: No
Reference Spectrum Present: No
Number of Sampled Component Spectra: 1
Spectrometers: USB2+H05261
Integration Time (usec): 100000 (USB2+H05261)
Spectra Averaged: 1 (USB2+H05261)
Boxcar Smoothing: 0 (USB2+H05261)
Correct for Electrical Dark: No (USB2+H05261)
Strobe/Lamp Enabled: No (USB2+H05261)
Correct for Detector Non-linearity: No (USB2+H05261)
Correct for Stray Light: No (USB2+H05261)
Number of Pixels in Processed Spectrum: 2048
>>>>>Begin Processed Spectral Data<<<<<
365.73	84.26
365.92	84.26
366.12	84.26
366.32	11.70
366.52	9.36
366.72	51.49
366.91	0.00
367.11	51.49
367.31	37.45
367.51	0.00
367.70	21.06
367.90	18.72
368.10	63.19
368.30	35.11
368.49	0.00
368.69	105.32
368.89	46.81
369.09	37.45
369.28	63.19
369.48	67.88
369.68	107.66
369.87	74.90
370.07	91.28
370.27	180.22
370.47	243.42
370.66	447.04
370.86	383.85
371.06	545.34
371.25	580.45
371.45	458.74
371.65	493.85
371.84	465.77
372.04	484.49
372.24	447.04
372.44	423.64
372.63	524.28
372.83	486.83
373.03	533.64
373.22	489.17
373.42	528.96
373.62	498.53
373.81	547.69
374.01	641.31
374.21	538.32
374.40	524.28
374.60	648.33
374.79	510.24
374.99	660.03
375.19	603.86
375.38	575.77
375.58	631.94
375.78	594.50
375.97	636.63
376.17	716.20
376.37	587.47
376.56	653.01
376.76	608.54
376.95	624.92
377.15	653.01
377.35	620.24
377.54	622.58
377.74	645.99
377.93	678.76
378.13	643.65
378.33	709.18
378.52	720.88
378.72	606.20
378.91	711.52
379.11	709.18
379.31	655.35
379.50	669.39
379.70	641.31
379.89	650.67
380.09	730.25
380.28	648.33
380.48	713.86
380.68	713.86
380.87	744.29
381.07	746.63
381.26	765.36
381.46	755.99
381.65	751.31
381.85	779.40
382.04	779.40
382.24	725.57
382.43	674.07
382.63	662.37
382.83	702.16
383.02	814.51
383.22	774.72
383.41	711.52
383.61	793.44
383.80	741.95
384.00	812.17
384.19	833.23
384.39	847.27
384.58	823.87
384.78	882.38
384.97	842.59
385.17	798.12
385.36	746.63
385.56	866.00
385.75	870.68
385.95	877.70
386.14	882.38
386.34	833.23
386.53	840.25
386.72	863.66
386.92	898.77
387.11	887.06
387.31	908.13
387.50	828.55
387.70	868.34
387.89	898.77
388.09	823.87
388.28	917.49
388.48	870.68
388.67	978.34
388.86	961.96
389.06	978.34
389.25	1013.45
389.45	997.07
389.64	971.32
389.84	957.28
390.03	992.39
390.22	978.34
390.42	1022.81
390.61	1036.86
390.81	1039.20
391.00	1034.52
391.19	1100.05
391.39	1069.62
391.58	994.73
391.78	1055.58
391.97	1041.54
392.16	1088.35
392.36	1100.05
392.55	1088.35
392.75	1046.22
392.94	966.64
393.13	1111.75
393.33	1114.10
393.52	1015.79
393.71	1137.50
393.91	1128.14
394.10	1186.65
394.29	1188.99
394.49	1242.82
394.68	1228.78
394.88	1275.59
395.07	1331.76
395.26	1219.42
395.46	1366.87
395.65	1308.36
395.84	1273.25
396.04	1282.61
396.23	1235.80
396.42	1149.20
396.62	1207.72
396.81	1158.57
397.00	1240.48
397.19	1310.70
397.39	1455.81
397.58	1385.60
397.77	1406.66
397.97	1444.11
398.16	1392.62
398.35	1554.12
398.55	1486.24
398.74	1495.60
398.93	1605.61
399.12	1577.52
399.32	1591.56
399.51	1612.63
399.70	1617.31
399.90	1654.76
400.09	1650.08
400.28	1703.91
400.47	1699.23
400.67	1750.72
400.86	1673.48
401.05	1607.95
401.24	1804.55
401.44	1928.60
401.63	1769.44
401.82	1820.94
402.01	1760.08
402.21	1853.70
402.40	1783.49
402.59	1879.45
402.78	1774.13
402.97	1788.17
403.17	1874.77
403.36	1806.89
403.55	1809.23
403.74	1954.35
403.93	1966.05
404.13	1980.09
404.32	1966.05
404.51	2003.50
404.70	1977.75
404.89	1867.75
405.09	2080.74
405.28	1973.07
405.47	2087.76
405.66	2073.71
405.85	2078.40
406.05	2040.95
406.24	2038.61
406.43	2239.89
406.62	2209.47
406.81	2265.64
407.00	2193.08
407.20	2062.01
407.39	2204.78
407.58	2314.79
407.77	2209.47
407.96	2368.62
408.15	2349.90
408.34	2349.90
408.54	2499.69
408.73	2422.45
408.92	2455.22
409.11	2455.22
409.30	2466.92
409.49	2394.37
409.68	2462.24
409.87	2370.96
410.07	2480.97
410.26	2429.48
410.45	2525.44
410.64	2696.30
410.83	2612.04
411.02	2700.98
411.21	2719.70
411.40	2640.12
411.59	2600.34
411.78	2668.21
411.98	2806.30
412.17	2686.94
412.36	2747.79
412.55	2813.32
412.74	2871.84
412.93	2818.00
413.12	2820.35
413.31	3124.62
413.50	2906.95
413.69	2913.97
413.88	3000.57
414.07	2993.55
414.26	3089.51
414.45	3035.67
414.64	3047.38
414.83	3145.68
415.02	3234.62
415.22	3180.79
415.41	3229.94
415.60	3410.16
415.79	3288.45
415.98	3459.31
416.17	3499.10
416.36	3375.05
416.55	3398.46
416.74	3529.53
416.93	3503.78
417.12	3555.27
417.31	3400.80
417.50	3522.51
417.69	3693.37
417.88	3578.68
418.07	3515.48
418.26	3602.08
418.45	3452.29
418.64	3723.79
418.83	3709.75
419.02	3679.32
419.21	3882.95
419.39	3878.27
419.58	3688.68
419.77	3754.22
419.96	3817.41
420.15	3934.44
420.34	3812.73
420.53	3833.80
420.72	3978.91
420.91	3901.67
421.10	4042.11
421.29	4126.36
421.48	4119.34
421.67	4004.66
421.86	3953.16
422.05	3826.78
422.24	4046.79
422.43	4021.04
422.61	3997.64
422.80	4028.06
422.99	3969.55
423.18	4145.09
423.37	4149.77
423.56	4245.73
423.75	4032.74
423.94	3990.61
424.13	3817.41
424.32	3899.33
424.50	4138.07
424.69	4180.20
424.88	4255.09
425.07	4168.49
425.26	4086.58
425.45	4182.54
425.64	4098.28
425.83	4205.94
426.01	4065.51
426.20	4180.20
426.39	4175.52
426.58	4184.88
426.77	4166.15
426.96	4140.41
427.15	4236.37
427.33	4194.24
427.52	4325.31
427.71	4360.42
427.90	4308.93
428.09	4372.12
428.28	4322.97
428.46	4344.03
428.65	4322.97
428.84	4369.78
429.03	4414.25
429.22	4266.80
429.40	4320.63
429.59	4292.54
429.78	4121.68
429.97	4028.06
430.16	4145.09
430.34	4306.59
430.53	4285.52
430.72	4437.66
430.91	4589.79
431.10	4521.92
431.28	4833.21
431.47	4821.50
431.66	4929.17
431.85	4629.58
432.03	4887.04
432.22	4692.77
432.41	4835.55
432.60	4833.21
432.79	4873.00
432.97	5015.77
433.16	4992.36
433.35	4903.42
433.54	4826.18
433.72	4844.91
433.91	4781.71
434.10	4858.95
434.28	5008.75
434.47	4950.23
434.66	5041.51
434.85	5149.18
435.03	5203.01
435.22	5144.50
435.41	5165.56
435.59	5165.56
435.78	5268.55
435.97	5373.87
436.16	5369.19
436.34	5308.34
436.53	5369.19
436.72	5547.07
436.90	5490.90
437.09	5437.06
437.28	5233.44
437.46	5341.10
437.65	5355.15
437.84	5270.89
438.02	5416.00
438.21	5352.81
438.40	5298.97
438.58	5488.56
438.77	5570.48
438.96	5722.61
439.14	5844.32
439.33	5762.40
439.52	5809.21
439.70	5944.96
439.89	5949.64
440.08	5947.30
440.26	5944.96
440.45	5977.73
440.63	6085.39
440.82	6223.48
441.01	6200.08
441.19	6370.94
441.38	6352.21
441.57	6377.96
441.75	6436.47
441.94	6583.93
442.12	6516.05
442.31	6551.16
442.50	6527.75
442.68	6546.48
442.87	6502.01
443.05	6644.78
443.24	6834.36
443.43	6628.40
443.61	6853.09
443.80	6993.52
443.98	6778.19
444.17	6455.20
444.35	6820.32
444.54	6963.09
444.73	6965.43
444.91	6787.55
445.10	6806.28
445.28	6705.63
445.47	6726.70
445.65	6686.91
445.84	6897.56
446.02	6736.06
446.21	6731.38
446.39	6752.45
446.58	7061.40
446.77	6890.54
446.95	6946.71
447.14	6998.20
447.32	7164.38
447.51	6942.03
447.69	6970.12
447.88	6855.43
448.06	7035.65
448.25	6888.20
448.43	6986.50
448.62	7028.63
448.80	7059.06
448.99	6965.43
449.17	7126.93
449.36	7190.13
449.54	7241.62
449.73	7332.90
449.91	7368.01
450.10	7468.65
450.28	7705.04
450.46	7562.27
450.65	7623.12
450.83	7562.27
451.02	7644.19
451.20	7588.02
451.39	7644.19
451.57	7637.17
451.76	7414.82
451.94	7602.06
452.13	7548.23
452.31	7442.90
452.49	7379.71
452.68	7466.31
452.86	7548.23
453.05	7543.55
453.23	7763.56
453.42	7812.71
453.60	7709.72
453.78	7815.05
453.97	7669.94
454.15	7714.41
454.34	7693.34
454.52	7913.35
454.70	7805.69
454.89	8004.63
455.07	7852.50
455.26	8215.28
455.44	8049.10
455.62	8051.44
455.81	8006.97
455.99	8100.59
456.17	8276.13
456.36	8264.43
456.54	8259.75
456.73	8383.80
456.91	8528.91
457.09	8507.85
457.28	8542.96
457.46	8416.57
457.64	8580.40
457.83	8297.20
458.01	8313.58
458.19	8369.76
458.38	8376.78
458.56	8585.08
458.74	8599.13
458.93	8671.68
459.11	8599.13
459.29	8458.70
459.48	8734.88
459.66	8713.81
459.84	8849.57
460.03	8805.10
460.21	8903.40
460.39	8870.63
460.57	8784.03
460.76	8891.70
460.94	8919.78
461.12	8844.88
461.31	8877.65
461.49	8938.51
461.67	9123.41
461.85	9104.68
462.04	9102.34
462.22	9144.47
462.40	9167.88
462.59	9310.65
462.77	9238.09
462.95	9490.87
463.13	9446.40
463.32	9224.05
463.50	9434.70
463.68	9343.42
463.86	9558.75
464.05	9228.73
464.23	9261.50
464.41	9404.27
464.59	9100.00
464.78	9575.13
464.96	9500.23
465.14	9483.85
465.32	9579.81
465.50	9687.48
465.69	9734.29
465.87	9692.16
466.05	9427.68
466.23	9462.79
466.41	9366.82
466.60	9923.87
466.78	9511.94
466.96	9444.06
467.14	9703.86
467.32	9675.77
467.51	10026.86
467.69	9631.30
467.87	9722.59
468.05	9853.66
468.23	9933.23
468.41	9830.25
468.60	9776.42
468.78	9830.25
468.96	9750.67
469.14	10155.58
469.32	10281.97
469.50	9898.13
469.69	10092.39
469.87	10211.76
470.05	10214.10
470.23	10417.72
470.41	10242.18
470.59	10256.23
470.77	10066.64
470.95	10214.10
471.14	10452.83
471.32	10441.13
471.50	10527.73
471.68	10892.85
471.86	10579.22
472.04	10775.83
472.22	11087.12
472.40	10768.80
472.58	10794.55
472.77	10743.06
472.95	10960.73
473.13	11337.56
473.31	10782.85
473.49	10942.00
473.67	11037.97
473.85	10998.18
474.03	11255.64
474.21	11339.90
474.39	11632.46
474.57	11428.84
474.75	11693.32
474.93	11726.08
475.12	11658.21
475.30	11616.08
475.48	11587.99
475.66	11934.39
475.84	11660.55
476.02	11882.90
476.20	11885.24
476.38	12147.38
476.56	12325.26
476.74	12526.55
476.92	12453.99
477.10	12290.15
477.28	12697.41
477.46	12725.49
477.64	12552.29
477.82	12884.65
478.00	12961.89
478.18	13011.04
478.36	12891.67
478.54	13277.86
478.72	13179.56
478.90	13305.95
479.08	13556.38
479.26	13551.70
479.44	13699.16
479.62	13724.90
479.80	13855.97
479.98	13956.61
480.16	14317.06
480.34	14136.84
480.52	14616.65
480.70	14038.53
480.88	14043.21
481.06	14530.05
481.24	14319.40
481.41	14808.57
481.59	14913.89
481.77	14979.43
481.95	15138.58
482.13	15403.07
482.31	15218.16
482.49	15417.11
482.67	15288.38
482.85	15770.53
483.03	15674.57
483.21	15915.64
483.39	15934.37
483.57	15880.53
483.74	16130.97
483.92	15920.32
484.10	16046.71
484.28	16477.37
484.46	16580.36
484.64	17001.65
484.82	16762.92
485.00	16575.67
485.18	16992.29
485.35	16952.50
485.53	16889.31
485.71	16917.39
485.89	16868.24
486.07	17179.53
486.25	17216.98
486.43	17378.48
486.61	17488.48
486.78	17846.58
486.96	17647.64
487.14	18272.56
487.32	18340.44
487.50	18780.46
487.68	18857.70
487.85	19213.46
488.03	19190.05
488.21	19208.78
488.39	19480.28
488.57	19499.00
488.75	19510.71
488.92	19714.33
489.10	19807.95
489.28	20292.44
489.46	20615.44
489.64	20313.51
489.81	20659.91
489.99	20744.17
490.17	21046.10
490.35	21020.35
490.53	21069.50
490.70	21273.13
490.88	21301.22
491.06	21530.59
491.24	21701.45
491.41	21420.58
491.59	21675.70
491.77	21656.98
491.95	21879.33
492.13	22141.47
492.30	22478.50
492.48	22338.07
492.66	22963.00
492.84	22656.39
493.01	23021.51
493.19	22506.59
493.37	23250.88
493.54	23180.67
493.72	23220.45
493.90	23274.29
494.08	23995.17
494.25	23875.80
494.43	24123.90
494.61	23990.49
494.79	24407.11
494.96	24390.72
495.14	24184.76
495.32	24975.86
495.49	24547.54
495.67	24655.20
495.85	24947.77
496.02	24882.24
496.20	25205.23
496.38	25376.09
496.55	25596.10
496.73	25977.61
496.91	25551.63
497.09	25748.23
497.26	26204.64
497.44	25692.06
497.62	26089.95
497.79	26335.71
497.97	26024.42
498.14	26349.75
498.32	26850.63
498.50	26747.64
498.67	26803.82
498.85	26827.22
499.03	27089.36
499.20	27215.75
499.38	26897.44
499.56	27054.25
499.73	27662.79
499.91	27307.03
500.08	27094.04
500.26	27377.25
500.44	27482.57
500.61	27377.25
500.79	27250.86
500.97	27915.57
501.14	27889.82
501.32	27751.73
501.49	28175.37
501.67	28240.90
501.84	28362.61
502.02	28481.98
502.20	28652.84
502.37	28971.15
502.55	28819.02
502.72	28966.47
502.90	28966.47
503.07	28774.55
503.25	29610.12
503.43	29095.20
503.60	29095.20
503.78	29027.32
503.95	29127.97
504.13	29502.45
504.30	29462.66
504.48	29130.31
504.65	30178.87
504.83	29881.62
505.01	30441.01
505.18	29855.87
505.36	30607.19
505.53	30918.48
505.71	30677.40
505.88	31072.95
506.06	30113.33
506.23	30602.50
506.41	30298.23
506.58	30686.76
506.76	31234.45
506.93	31065.93
507.11	30855.28
507.28	31061.25
507.46	30780.39
507.63	31042.53
507.81	31171.25
507.98	30810.81
508.16	31573.83
508.33	31576.17
508.50	31941.29
508.68	31922.57
508.85	32034.91
509.03	31784.48
509.20	32383.65
509.38	32313.44
509.55	32488.98
509.73	32128.53
509.90	32404.72
510.08	32266.63
510.25	32500.68
510.42	32687.92
510.60	33034.32
510.77	32790.91
510.95	33167.73
511.12	32753.46
511.30	32889.21
511.47	33202.84
511.64	33652.22
511.82	33373.70
511.99	33172.41
512.17	33249.65
512.34	33411.15
512.51	33652.22
512.69	33919.04
512.86	33715.42
513.04	34368.43
513.21	33766.91
513.38	33713.08
513.56	33816.06
513.73	33905.00
513.90	34363.75
514.08	33823.08
514.25	34448.00
514.43	34323.96
514.60	34845.90
514.77	34398.85
514.95	34602.48
515.12	34487.79
515.29	34665.67
515.47	35150.17
515.64	35365.49
515.81	34792.06
515.99	34749.93
516.16	35290.60
516.33	34555.67
516.51	34504.18
516.68	34438.64
516.85	33823.08
517.03	34246.72
517.20	34827.17
517.37	35112.72
517.54	35391.24
517.72	35449.75
517.89	34866.96
518.06	35248.47
518.24	35112.72
518.41	35405.28
518.58	35416.99
518.75	35599.55
518.93	35641.68
519.10	35936.59
519.27	36163.62
519.45	36339.16
519.62	36556.83
519.79	36299.37
519.96	36290.01
520.14	36641.09
520.31	36605.98
520.48	36650.45
520.65	36367.24
520.83	37109.19
521.00	36938.33
521.17	36917.27
521.34	37326.86
521.52	37151.32
521.69	37394.74
521.86	37539.85
522.03	37500.06
522.20	37361.97
522.38	37589.00
522.55	37729.44
522.72	37338.57
522.89	37530.49
523.07	37722.41
523.24	37867.53
523.41	38075.84
523.58	37858.17
523.75	38218.61
523.92	38471.39
524.10	38440.96
524.27	38033.71
524.44	38408.19
524.61	38565.01
524.78	38478.41
524.96	38724.16
525.13	38913.75
525.30	39033.11
525.47	38768.63
525.64	38925.45
525.81	38822.47
525.98	38583.73
526.16	38260.74
526.33	38197.54
526.50	38352.02
526.67	38134.35
526.84	38036.05
527.01	38335.63
527.18	38609.48
527.36	39051.84
527.53	39019.07
527.70	39517.60
527.87	39328.02
528.04	39395.90
528.21	39367.81
528.38	39840.60
528.55	40072.31
528.72	40121.46
528.89	40360.20
529.07	40212.74
529.24	39536.33
529.41	40273.60
529.58	39721.23
529.75	40189.34
529.92	40278.28
530.09	40332.11
530.26	40165.93
530.43	40861.07
530.60	40685.53
530.77	39920.18
530.94	40814.26
531.11	40744.05
531.28	40650.42
531.46	40818.94
531.63	40631.70
531.80	40322.75
531.97	40545.10
532.14	40549.78
532.31	40109.76
532.48	40374.24
532.65	40863.41
532.82	40933.63
532.99	40823.62
533.16	40800.22
533.33	41165.34
533.50	41123.21
533.67	41097.47
533.84	40854.05
534.01	40942.99
534.18	41083.42
534.35	41486.00
534.52	41413.44
534.69	41373.65
534.86	41329.18
535.03	41392.37
535.20	42082.83
535.37	41890.91
535.54	41972.83
535.71	41904.95
535.88	41893.25
536.05	41549.19
536.22	41729.41
536.38	42141.35
536.55	41944.74
536.72	41572.60
536.89	41759.84
537.06	41703.67
537.23	41986.87
537.40	42483.06
537.57	42527.53
537.74	42230.29
537.91	42660.94
538.08	42270.08
538.25	42527.53
538.42	41935.38
538.59	42457.32
538.75	41916.65
538.92	42555.62
539.09	43075.22
539.26	42663.28
539.43	42579.03
539.60	42382.42
539.77	42139.00
539.94	42330.93
540.11	42490.09
540.28	42415.19
540.44	42621.16
540.61	42134.32
540.78	42288.80
540.95	42464.34
541.12	42689.03
541.29	42649.24
541.46	43012.02
541.62	43182.88
541.79	43021.39
541.96	42745.20
542.13	42906.70
542.30	43072.88
542.47	43283.53
542.63	43009.68
542.80	43440.34
542.97	43517.58
543.14	43871.00
543.31	43880.36
543.48	43871.00
543.64	44095.69
543.81	44112.08
543.98	43608.86
544.15	43782.06
544.32	44067.61
544.48	44535.71
544.65	43681.42
544.82	44025.48
544.99	44156.55
545.16	44055.90
545.32	44091.01
545.49	44395.28
545.66	44547.42
545.83	44402.30
546.00	44189.31
546.16	44318.04
546.33	44266.55
546.50	43924.83
546.67	44832.96
546.83	43756.32
547.00	44205.70
547.17	44348.47
547.34	44023.14
547.50	44531.03
547.67	44519.33
547.84	44446.77
548.00	44751.04
548.17	45097.44
548.34	44402.30
548.51	45214.47
548.67	45076.38
548.84	45095.10
549.01	44706.57
549.18	44685.51
549.34	44879.77
549.51	45043.61
549.68	45085.74
549.84	45153.62
550.01	45067.02
550.18	44942.97
550.34	44781.47
550.51	44849.35
550.68	45036.59
550.84	44617.63
551.01	45116.17
551.18	45261.28
551.34	45305.75
551.51	45511.72
551.68	45687.26
551.84	45397.03
552.01	45523.42
552.18	45528.10
552.34	45251.92
552.51	45600.66
552.68	45223.83
552.84	45441.50
553.01	45785.56
553.18	45525.76
553.34	45345.54
553.51	45301.07
553.67	45771.52
553.84	46057.06
554.01	45928.33
554.17	45855.78
554.34	45867.48
554.51	45794.92
554.67	45710.66
554.84	45752.79
555.00	45537.46
555.17	45745.77
555.33	45624.06
555.50	45771.52
555.67	45610.02
555.83	45579.59
556.00	45762.15
556.16	46085.15
556.33	45752.79
556.50	45549.17
556.66	46000.89
556.83	45673.21
556.99	46417.50
557.16	46429.21
557.32	46036.00
557.49	46401.12
557.65	45717.68
557.82	45792.58
557.98	46522.83
558.15	45998.55
558.32	45890.88
558.48	45647.47
558.65	45977.48
558.81	45904.93
558.98	46248.99
559.14	46082.81
559.31	46043.02
559.47	46356.65
559.64	46241.96
559.80	46506.44
559.97	46501.76
560.13	46239.62
560.30	46443.25
560.46	46089.83
560.63	46590.70
560.79	46899.65
560.96	46220.90
561.12	46223.24
561.29	46096.85
561.45	46429.21
561.61	46380.06
561.78	46660.92
561.94	46057.06
562.11	46277.07
562.27	46211.54
562.44	46483.04
562.60	46499.42
562.77	46934.76
562.93	46309.84
563.10	46576.66
563.26	46476.02
563.42	46679.64
563.59	46625.81
563.75	46419.84
563.92	46820.08
564.08	46272.39
564.24	46754.54
564.41	46986.25
564.57	46897.31
564.74	46288.77
564.90	46799.01
565.07	46698.37
565.23	46557.94
565.39	46628.15
565.56	46944.12
565.72	46614.11
565.88	46686.67
566.05	46880.93
566.21	46651.56
566.38	46784.97
566.54	46473.68
566.70	47047.11
566.87	47033.07
567.03	47159.45
567.19	47302.23
567.36	47079.88
567.52	46773.27
567.68	47054.13
567.85	46389.42
568.01	46623.47
568.17	46899.65
568.34	47089.24
568.50	46831.78
568.66	46777.95
568.83	47100.94
568.99	46944.12
569.15	46653.90
569.32	46604.75
569.48	46569.64
569.64	46911.36
569.81	46660.92
569.97	46691.35
570.13	46859.87
570.30	46686.67
570.46	46569.64
570.62	46653.90
570.78	46403.46
570.95	46850.50
571.11	47091.58
571.27	46672.62
571.43	46546.23
571.60	47047.11
571.76	47339.68
571.92	47129.03
572.09	46988.60
572.25	46911.36
572.41	46834.12
572.57	46995.62
572.74	46960.51
572.90	46677.30
573.06	46466.66
573.22	46651.56
573.38	46813.05
573.55	46597.73
573.71	47189.88
573.87	47318.61
574.03	46658.58
574.20	47000.30
574.36	46923.06
574.52	47189.88
574.68	46988.60
574.84	47217.97
575.01	47061.15
575.17	46831.78
575.33	46583.68
575.49	46752.20
575.65	46925.40
575.82	47192.22
575.98	46506.44
576.14	47215.63
576.30	46990.94
576.46	47140.73
576.62	46974.55
576.79	46892.63
576.95	46738.16
577.11	47248.39
577.27	47000.30
577.43	46887.95
577.59	46754.54
577.75	47040.09
577.92	46843.48
578.08	46686.67
578.24	46426.87
578.40	46658.58
578.56	47061.15
578.72	46829.44
578.88	47353.72
579.04	46894.97
579.21	47042.43
579.37	46969.87
579.53	47054.13
579.69	47000.30
579.85	47042.43
580.01	46787.31
580.17	47131.37
580.33	46939.44
580.49	47278.82
580.65	47203.92
580.82	47136.05
580.98	46663.26
581.14	47229.67
581.30	46948.81
581.46	47168.82
581.62	47262.44
581.78	47110.30
581.94	47283.50
582.10	47145.41
582.26	47288.18
582.42	47192.22
582.58	47009.66
582.74	47274.14
582.90	47084.56
583.06	47210.95
583.22	47140.73
583.38	47217.97
583.54	47337.33
583.70	46850.50
583.86	47004.98
584.02	46780.29
584.18	46988.60
584.34	47339.68
584.50	46642.20
584.66	47033.07
584.82	46801.35
584.98	47213.29
585.14	46995.62
585.30	46665.60
585.46	47056.47
585.62	46651.56
585.78	46763.90
585.94	47014.34
586.10	46976.89
586.26	46997.96
586.42	47063.49
586.58	47377.12
586.74	46930.08
586.90	47026.04
587.06	46691.35
587.22	47210.95
587.38	46768.58
587.54	47267.12
587.70	47110.30
587.86	46948.81
588.02	47154.77
588.18	47213.29
588.34	46880.93
588.49	46815.40
588.65	46127.28
588.81	46450.27
588.97	46511.13
589.13	46543.89
589.29	46866.89
589.45	46618.79
589.61	47147.75
589.77	47283.50
589.93	47182.86
