SpectraSuite Data File
++++++++++++++++++++++++++++++++++++
Date: Fri Oct 25 11:34:06 EDT 2013
User: price-jones
Dark Spectrum Present: No
Reference Spectrum Present: No
Number of Sampled Component Spectra: 1
Spectrometers: USB2+H05261
Integration Time (usec): 100000 (USB2+H05261)
Spectra Averaged: 1 (USB2+H05261)
Boxcar Smoothing: 0 (USB2+H05261)
Correct for Electrical Dark: No (USB2+H05261)
Strobe/Lamp Enabled: No (USB2+H05261)
Correct for Detector Non-linearity: No (USB2+H05261)
Correct for Stray Light: No (USB2+H05261)
Number of Pixels in Processed Spectrum: 2048
>>>>>Begin Processed Spectral Data<<<<<
365.73	271.50
365.92	271.50
366.12	271.50
366.32	266.82
366.52	184.90
366.72	175.54
366.91	184.90
367.11	147.45
367.31	161.50
367.51	163.84
367.70	110.01
367.90	182.56
368.10	161.50
368.30	222.35
368.49	119.37
368.69	177.88
368.89	245.76
369.09	217.67
369.28	161.50
369.48	128.73
369.68	269.16
369.87	229.37
370.07	250.44
370.27	264.48
370.47	334.70
370.66	510.24
370.86	519.60
371.06	580.45
371.25	540.66
371.45	451.72
371.65	533.64
371.84	547.69
372.04	535.98
372.24	641.31
372.44	624.92
372.63	596.84
372.83	543.00
373.03	545.34
373.22	662.37
373.42	606.20
373.62	657.69
373.81	706.84
374.01	676.41
374.21	592.16
374.40	622.58
374.60	617.90
374.79	585.13
374.99	678.76
375.19	615.56
375.38	667.05
375.58	638.97
375.78	650.67
375.97	702.16
376.17	711.52
376.37	629.60
376.56	660.03
376.76	667.05
376.95	638.97
377.15	667.05
377.35	662.37
377.54	678.76
377.74	620.24
377.93	664.71
378.13	737.27
378.33	720.88
378.52	657.69
378.72	741.95
378.91	713.86
379.11	650.67
379.31	697.48
379.50	744.29
379.70	795.78
379.89	765.36
380.09	702.16
380.28	657.69
380.48	702.16
380.68	664.71
380.87	685.78
381.07	676.41
381.26	814.51
381.46	840.25
381.65	760.67
381.85	706.84
382.04	730.25
382.24	763.01
382.43	779.40
382.63	720.88
382.83	751.31
383.02	809.83
383.22	854.30
383.41	770.04
383.61	800.46
383.80	849.61
384.00	739.61
384.19	767.70
384.39	819.19
384.58	779.40
384.78	795.78
384.97	912.81
385.17	744.29
385.36	784.08
385.56	788.76
385.75	767.70
385.95	844.93
386.14	870.68
386.34	837.91
386.53	826.21
386.72	760.67
386.92	793.44
387.11	973.66
387.31	828.55
387.50	849.61
387.70	837.91
387.89	830.89
388.09	842.59
388.28	976.00
388.48	898.77
388.67	755.99
388.86	828.55
389.06	891.74
389.25	912.81
389.45	976.00
389.64	915.15
389.84	905.79
390.03	994.73
390.22	884.72
390.42	950.26
390.61	844.93
390.81	966.64
391.00	976.00
391.19	990.05
391.39	985.37
391.58	1062.60
391.78	976.00
391.97	966.64
392.16	1050.90
392.36	985.37
392.55	1069.62
392.75	1022.81
392.94	1071.97
393.13	1015.79
393.33	1078.99
393.52	1048.56
393.71	1013.45
393.91	1064.94
394.10	1174.95
394.29	1104.73
394.49	1053.24
394.68	1081.33
394.88	1203.04
395.07	1235.80
395.26	1036.86
395.46	1135.16
395.65	1114.10
395.84	1153.88
396.04	1252.19
396.23	1163.25
396.42	1219.42
396.62	1200.69
396.81	1226.44
397.00	1160.91
397.19	1188.99
397.39	1280.27
397.58	1284.95
397.77	1249.85
397.97	1228.78
398.16	1320.06
398.35	1275.59
398.55	1296.66
398.74	1172.61
398.93	1289.64
399.12	1315.38
399.32	1146.86
399.51	1355.17
399.70	1308.36
399.90	1301.34
400.09	1306.02
400.28	1343.47
400.47	1392.62
400.67	1409.00
400.86	1446.45
401.05	1437.09
401.24	1458.15
401.44	1380.92
401.63	1394.96
401.82	1359.85
402.01	1404.32
402.21	1413.68
402.40	1362.19
402.59	1448.79
402.78	1444.11
402.97	1469.86
403.17	1474.54
403.36	1469.86
403.55	1526.03
403.74	1455.81
403.93	1565.82
404.13	1600.93
404.32	1640.72
404.51	1575.18
404.70	1687.53
404.89	1650.08
405.09	1769.44
405.28	1650.08
405.47	1603.27
405.66	1647.74
405.85	1671.14
406.05	1671.14
406.24	1706.25
406.43	1743.70
406.62	1760.08
406.81	1788.17
407.00	1673.48
407.20	1753.06
407.39	1743.70
407.58	1783.49
407.77	1785.83
407.96	1816.26
408.15	1839.66
408.34	1832.64
408.54	1874.77
408.73	1912.22
408.92	1909.88
409.11	1959.03
409.30	1935.62
409.49	1987.11
409.68	1980.09
409.87	1954.35
410.07	1994.14
410.26	1989.46
410.45	2069.03
410.64	2054.99
410.83	2024.56
411.02	1987.11
411.21	2139.25
411.40	2071.37
411.59	2148.61
411.78	2115.84
411.98	2172.02
412.17	2230.53
412.36	2232.87
412.55	2429.48
412.74	2317.13
412.93	2326.49
413.12	2260.96
413.31	2441.18
413.50	2403.73
413.69	2413.09
413.88	2504.37
414.07	2527.78
414.26	2445.86
414.45	2424.80
414.64	2469.27
414.83	2567.57
415.02	2487.99
415.22	2473.95
415.41	2717.36
415.60	2541.82
415.79	2562.89
415.98	2665.87
416.17	2686.94
416.36	2696.30
416.55	2682.25
416.74	2785.24
416.93	2642.46
417.12	2773.53
417.31	2892.90
417.50	2686.94
417.69	2916.31
417.88	2939.71
418.07	2876.52
418.26	2874.18
418.45	2855.45
418.64	2946.73
418.83	3054.40
419.02	2986.52
419.21	3115.25
419.39	3126.96
419.58	3045.04
419.77	2974.82
419.96	3054.40
420.15	3103.55
420.34	3194.83
420.53	3164.40
420.72	3173.77
420.91	3297.81
421.10	3164.40
421.29	3248.66
421.48	3171.43
421.67	3091.85
421.86	3162.06
422.05	3311.86
422.24	3194.83
422.43	3192.49
422.61	3178.45
422.80	3358.67
422.99	3314.20
423.18	3314.20
423.37	3407.82
423.56	3400.80
423.75	3208.87
423.94	3316.54
424.13	3035.67
424.32	3255.69
424.50	3384.41
424.69	3407.82
424.88	3466.33
425.07	3398.46
425.26	3276.75
425.45	3325.90
425.64	3405.48
425.83	3398.46
426.01	3346.97
426.20	3293.13
426.39	3344.63
426.58	3426.54
426.77	3480.38
426.96	3428.88
427.15	3475.70
427.33	3344.63
427.52	3538.89
427.71	3447.61
427.90	3559.95
428.09	3513.14
428.28	3620.81
428.46	3564.64
428.65	3705.07
428.84	3726.13
429.03	3641.87
429.22	3644.21
429.40	3606.77
429.59	3527.19
429.78	3480.38
429.97	3583.36
430.16	3728.47
430.34	3733.15
430.53	3763.58
430.72	3714.43
430.91	3803.37
431.10	3726.13
431.28	3861.88
431.47	3833.80
431.66	3911.04
431.85	3838.48
432.03	4072.53
432.22	3997.64
432.41	3927.42
432.60	4014.02
432.79	3922.74
432.97	4145.09
433.16	4023.38
433.35	4102.96
433.54	4060.83
433.72	4016.36
433.91	4067.85
434.10	4170.83
434.28	4098.28
434.47	4201.26
434.66	4074.87
434.85	4264.46
435.03	4264.46
435.22	4201.26
435.41	4379.14
435.59	4222.33
435.78	4278.50
435.97	4355.74
436.16	4219.99
436.34	4341.69
436.53	4241.05
436.72	4503.19
436.90	4358.08
437.09	4496.17
437.28	4554.68
437.46	4524.26
437.65	4327.65
437.84	4414.25
438.02	4521.92
438.21	4615.54
438.40	4550.00
438.58	4624.90
438.77	4788.74
438.96	4657.67
439.14	4723.20
439.33	4968.96
439.52	4725.54
439.70	4830.87
439.89	4844.91
440.08	4875.34
440.26	4975.98
440.45	5048.54
440.63	5060.24
440.82	5050.88
441.01	5109.39
441.19	4966.62
441.38	5170.24
441.57	5186.63
441.75	5146.84
441.94	5282.59
442.12	5219.39
442.31	5334.08
442.50	5540.05
442.68	5376.21
442.87	5387.91
443.05	5411.32
443.24	5411.32
443.43	5364.51
443.61	5434.72
443.80	5589.20
443.98	5378.55
444.17	5329.40
444.35	5437.06
444.54	5617.29
444.73	5444.09
444.91	5511.96
445.10	5551.75
445.28	5448.77
445.47	5518.98
445.65	5636.01
445.84	5582.18
446.02	5647.71
446.21	5495.58
446.39	5610.26
446.58	5694.52
446.77	5692.18
446.95	5526.00
447.14	5549.41
447.32	5584.52
447.51	5636.01
447.69	5603.24
447.88	5727.29
448.06	5664.10
448.25	5544.73
448.43	5720.27
448.62	5715.59
448.80	5710.91
448.99	5708.57
449.17	5851.34
449.36	5703.89
449.54	5858.36
449.73	5914.53
449.91	6003.47
450.10	5966.03
450.28	5970.71
450.46	5928.58
450.65	5951.98
450.83	6108.80
451.02	6099.44
451.20	6207.10
451.39	6008.16
451.57	6066.67
451.76	6043.26
451.94	6092.41
452.13	6214.12
452.31	5991.77
452.49	5949.64
452.68	6171.99
452.86	6179.01
453.05	6335.83
453.23	6202.42
453.42	6193.06
453.60	6321.79
453.78	6207.10
453.97	6244.55
454.15	6289.02
454.34	6136.88
454.52	6387.32
454.70	6345.19
454.89	6373.28
455.07	6415.41
455.26	6457.54
455.44	6621.38
455.62	6516.05
455.81	6612.01
455.99	6588.61
456.17	6506.69
456.36	6590.95
456.54	6843.73
456.73	6640.10
456.91	6916.28
457.09	6825.00
457.28	7049.69
457.46	6853.09
457.64	6932.67
457.83	6785.21
458.01	6935.01
458.19	7049.69
458.38	6993.52
458.56	6995.86
458.74	7140.97
458.93	7019.27
459.11	7229.91
459.29	7187.79
459.48	7155.02
459.66	6904.58
459.84	7222.89
460.03	7276.73
460.21	7157.36
460.39	7281.41
460.57	7358.64
460.76	7260.34
460.94	7424.18
461.12	7407.80
461.31	7297.79
461.49	7302.47
461.67	7360.98
461.85	7365.67
462.04	7330.56
462.22	7929.74
462.40	7590.36
462.59	7489.71
462.77	7595.04
462.95	7786.96
463.13	7672.28
463.32	7559.93
463.50	7644.19
463.68	7700.36
463.86	7665.25
464.05	7702.70
464.23	7676.96
464.41	7775.26
464.59	7688.66
464.78	7939.10
464.96	7859.52
465.14	7854.84
465.32	7981.23
465.50	7761.22
465.69	8128.68
465.87	8021.02
466.05	7981.23
466.23	8107.62
466.41	7976.55
466.60	8070.17
466.78	7878.24
466.96	7941.44
467.14	7903.99
467.32	8215.28
467.51	8210.60
467.69	8058.46
467.87	8004.63
468.05	8276.13
468.23	8177.83
468.41	8264.43
468.60	8346.35
468.78	8304.22
468.96	8285.50
469.14	8388.48
469.32	8400.18
469.50	8128.68
469.69	8578.06
469.87	8456.36
470.05	8517.21
470.23	8657.64
470.41	8711.47
470.59	8531.25
470.77	8753.60
470.95	8667.00
471.14	8915.10
471.32	8723.18
471.50	8835.52
471.68	8753.60
471.86	8947.87
472.04	8844.88
472.22	9062.55
472.40	8819.14
472.58	9170.22
472.77	9048.51
472.95	9317.67
473.13	9404.27
473.31	9160.86
473.49	9188.94
473.67	9137.45
473.85	9378.53
474.03	9652.37
474.21	9474.49
474.39	9392.57
474.57	9710.88
474.75	9502.58
474.93	9731.95
475.12	9731.95
475.30	9837.27
475.48	9846.63
475.66	9930.89
475.84	9816.21
476.02	10087.71
476.20	10045.58
476.38	10251.55
476.56	10307.72
476.74	10356.87
476.92	10260.91
477.10	10251.55
477.28	10455.17
477.46	10384.96
477.64	10476.24
477.82	10518.37
478.00	11105.84
478.18	11005.20
478.36	11026.26
478.54	11063.71
478.72	11000.52
478.90	11229.89
479.08	11330.53
479.26	11379.68
479.44	11307.13
479.62	11372.66
479.80	11653.53
479.98	11690.98
480.16	11988.22
480.34	11894.60
480.52	12058.44
480.70	12123.98
480.88	11913.33
481.06	11936.73
481.24	12250.36
481.41	12231.64
481.59	12458.67
481.77	12500.80
481.95	12411.86
482.13	12776.98
482.31	12784.01
482.49	13205.30
482.67	13043.81
482.85	13158.49
483.03	13350.42
483.21	13268.50
483.39	13500.21
483.57	13390.20
483.74	13659.37
483.92	13851.29
484.10	13642.98
484.28	13935.55
484.46	13980.02
484.64	14565.15
484.82	14260.88
485.00	14230.46
485.18	14553.45
485.35	14799.21
485.53	14733.67
485.71	14946.66
485.89	14897.51
486.07	15204.12
486.25	15019.22
486.43	15119.86
486.61	15316.47
486.78	15683.93
486.96	15480.30
487.14	15758.83
487.32	15534.14
487.50	16004.58
487.68	16189.49
487.85	16386.09
488.03	16472.69
488.21	16734.83
488.39	16264.38
488.57	16695.04
488.75	16704.40
488.92	16781.64
489.10	17242.73
489.28	17310.60
489.46	17418.27
489.64	17507.21
489.81	17673.39
489.99	17703.81
490.17	17638.28
490.35	17905.10
490.53	18054.89
490.70	18333.42
490.88	18331.08
491.06	18148.51
491.24	18398.95
491.41	18670.45
491.59	18841.31
491.77	18630.66
491.95	18965.36
492.13	18998.13
492.30	19178.35
492.48	19140.90
492.66	19112.81
492.84	19239.20
493.01	19449.85
493.19	19768.16
493.37	19606.67
493.54	20027.96
493.72	20166.06
493.90	20189.46
494.08	20510.11
494.25	20676.29
494.43	20357.98
494.61	20601.40
494.79	20868.22
494.96	20851.83
495.14	20950.14
495.32	21099.93
495.49	21158.44
495.67	21500.16
495.85	21575.06
496.02	21537.61
496.20	21935.50
496.38	21572.72
496.55	21774.00
496.73	22157.85
496.91	22246.79
497.09	22651.70
497.26	22848.31
497.44	22459.78
497.62	22640.00
497.79	22780.43
497.97	22829.59
498.14	22955.97
498.32	23250.88
498.50	22918.53
498.67	23269.61
498.85	23278.97
499.03	23583.24
499.20	23513.02
499.38	23545.79
499.56	23733.03
499.73	24217.52
499.91	24039.64
500.08	24109.86
500.26	24016.24
500.44	24484.34
500.61	24226.89
500.79	23885.17
500.97	24528.81
501.14	24812.02
501.32	24547.54
501.49	24830.74
501.67	24807.34
501.84	24959.47
502.02	25057.78
502.20	25193.53
502.37	25186.50
502.55	25336.30
502.72	25343.32
502.90	25109.27
503.07	25418.22
503.25	25507.16
503.43	25479.07
503.60	25806.75
503.78	25495.46
503.95	26199.96
504.13	25759.94
504.30	26148.46
504.48	26045.48
504.65	26185.91
504.83	26209.32
505.01	26429.33
505.18	26518.27
505.36	26740.62
505.53	26539.33
505.71	26937.23
505.88	26827.22
506.06	26925.52
506.23	27009.78
506.41	26827.22
506.58	26869.35
506.76	27026.17
506.93	27267.24
507.11	27407.67
507.28	27545.76
507.46	27590.24
507.63	27817.27
507.81	28095.79
507.98	27470.87
508.16	27672.15
508.33	27803.22
508.50	27957.70
508.68	28077.07
508.85	28362.61
509.03	28388.36
509.20	28219.84
509.38	28662.20
509.55	28276.01
509.73	28947.75
509.90	28577.94
510.08	28580.28
510.25	28865.83
510.42	28940.72
510.60	28851.78
510.77	29205.20
510.95	29209.89
511.12	29277.76
511.30	29095.20
511.47	29249.67
511.64	29268.40
511.82	29799.70
511.99	29584.37
512.17	29874.60
512.34	29617.14
512.51	30202.27
512.69	30075.88
512.86	29977.58
513.04	30209.29
513.21	29972.90
513.38	30455.05
513.56	30143.76
513.73	30113.33
513.90	30412.92
514.08	31054.23
514.25	30572.08
514.43	30904.43
514.60	30789.75
514.77	30834.22
514.95	30738.26
515.12	30934.86
515.29	31094.02
515.47	31264.88
515.64	31119.76
515.81	31276.58
515.99	31374.88
516.16	31730.64
516.33	31627.66
516.51	31548.08
516.68	31449.78
516.85	31550.42
517.03	31398.29
517.20	32105.13
517.37	31805.54
517.54	32313.44
517.72	31871.07
517.89	32128.53
518.06	32566.21
518.24	32070.02
518.41	32252.58
518.58	32240.88
518.75	32308.76
518.93	32641.11
519.10	32765.16
519.27	32149.60
519.45	32613.02
519.62	33125.60
519.79	32950.06
519.96	32929.00
520.14	33146.67
520.31	32767.50
520.48	33132.62
520.65	33237.95
520.83	33853.51
521.00	33593.71
521.17	33525.83
521.34	33837.12
521.52	33905.00
521.69	33387.74
521.86	33708.40
522.03	34164.80
522.20	33989.26
522.38	34448.00
522.55	34092.24
522.72	34291.19
522.89	34225.65
523.07	34646.95
523.24	34242.04
523.41	34398.85
523.58	34433.96
523.75	34541.63
523.92	34412.90
524.10	34506.52
524.27	34593.12
524.44	35213.36
524.61	35189.95
524.78	34881.00
524.96	35232.08
525.13	35112.72
525.30	35442.73
525.47	35082.29
525.64	35101.01
525.81	35503.59
525.98	35597.21
526.16	35332.73
526.33	35416.99
526.50	35754.02
526.67	35175.91
526.84	35573.80
527.01	35402.94
527.18	35878.07
527.36	36048.93
527.53	35859.35
527.70	36231.49
527.87	36037.23
528.04	36032.55
528.21	36481.93
528.38	36266.60
528.55	36573.21
528.72	36044.25
528.89	36077.02
529.07	36322.77
529.24	36161.28
529.41	36598.96
529.58	36561.51
529.75	36451.50
529.92	36762.79
530.09	36973.44
530.26	36746.41
530.43	36893.86
530.60	36966.42
530.77	36957.06
530.94	37219.20
531.11	36889.18
531.28	36959.40
531.46	37373.67
531.63	37373.67
531.80	37373.67
531.97	37172.39
532.14	37603.05
532.31	37439.21
532.48	37748.16
532.65	37834.76
532.82	37509.43
532.99	37879.23
533.16	37642.84
533.33	37954.13
533.50	38115.62
533.67	38216.27
533.84	37743.48
534.01	38134.35
534.18	37640.50
534.35	38115.62
534.52	38234.99
534.69	38394.15
534.86	38249.03
535.03	38398.83
535.20	38576.71
535.37	38422.23
535.54	38670.33
535.71	38756.93
535.88	38621.18
536.05	38831.83
536.22	38806.08
536.38	38953.54
536.55	38403.51
536.72	38843.53
536.89	38508.83
537.06	38873.96
537.23	39484.84
537.40	38899.70
537.57	38817.78
537.74	39175.89
537.91	39423.98
538.08	39201.63
538.25	38969.92
538.42	39388.88
538.59	39456.75
538.75	39482.50
538.92	39395.90
539.09	39831.24
539.26	39669.74
539.43	39728.25
539.60	39966.99
539.77	39899.11
539.94	40112.10
540.11	39880.39
540.28	39627.61
540.44	39613.57
540.61	40245.51
540.78	39667.40
540.95	39852.30
541.12	39732.93
541.29	39929.54
541.46	39725.91
541.62	40318.07
541.79	40219.77
541.96	39885.07
542.13	40018.48
542.30	39915.50
542.47	40266.58
542.63	40432.75
542.80	40804.90
542.97	40577.87
543.14	41397.06
543.31	40737.02
543.48	41045.97
543.64	41380.67
543.81	41139.60
543.98	40863.41
544.15	40980.44
544.32	40762.77
544.48	41661.54
544.65	41390.03
544.82	41188.75
544.99	40940.65
545.16	40985.12
545.32	41301.09
545.49	41371.31
545.66	41652.17
545.83	41530.47
546.00	41855.80
546.16	41574.94
546.33	41542.17
546.50	41099.81
546.67	41853.46
546.83	40978.10
547.00	41614.72
547.17	41638.13
547.34	42040.70
547.50	41715.37
547.67	42078.15
547.84	41968.15
548.00	42281.78
548.17	42518.17
548.34	42244.33
548.51	42532.22
548.67	42284.12
548.84	42141.35
549.01	42258.37
549.18	42106.24
549.34	42607.11
549.51	42611.79
549.68	42473.70
549.84	42616.47
550.01	42679.67
550.18	42337.95
550.34	42604.77
550.51	42927.77
550.68	42965.21
550.84	42237.31
551.01	42696.05
551.18	42621.16
551.34	42747.54
551.51	42841.17
551.68	42429.23
551.84	43028.41
552.01	42813.08
552.18	43033.09
552.34	42600.09
552.51	43112.67
552.68	42864.57
552.84	43196.93
553.01	43496.52
553.18	43346.72
553.34	43344.38
553.51	42815.42
553.67	43243.74
553.84	43372.47
554.01	43232.04
554.17	43225.01
554.34	43540.99
554.51	43569.07
554.67	43695.46
554.84	43742.27
555.00	43496.52
555.17	43632.27
555.33	43770.36
555.50	43278.85
555.67	43594.82
555.83	43096.28
556.00	43566.73
556.16	44315.70
556.33	44018.46
556.50	43964.62
556.66	43803.13
556.83	43475.45
556.99	43721.21
557.16	44186.97
557.32	43861.64
557.49	44039.52
557.65	43791.42
557.82	43901.43
557.98	44194.00
558.15	44540.39
558.32	44009.09
558.48	44147.18
558.65	44435.07
558.81	44470.18
558.98	44498.26
559.14	44329.75
559.31	44275.91
559.47	44114.42
559.64	44652.74
559.80	44575.50
559.97	44701.89
560.13	44247.83
560.30	44573.16
560.46	45076.38
560.63	44409.32
560.79	44350.81
560.96	44921.90
561.12	44416.35
561.29	44381.24
561.45	44708.91
561.61	44458.48
561.78	44828.28
561.94	45095.10
562.11	44596.57
562.27	44252.51
562.44	44669.12
562.60	44945.31
562.77	44968.71
562.93	45160.64
563.10	45003.82
563.26	44697.21
563.42	45610.02
563.59	44334.43
563.75	45160.64
563.92	44748.70
564.08	44940.63
564.24	44842.32
564.41	44987.44
564.57	45209.79
564.74	44954.67
564.90	45167.66
565.07	45069.36
565.23	45233.19
565.39	45186.38
565.56	45366.60
565.72	44954.67
565.88	44975.73
566.05	45326.81
566.21	45397.03
566.38	44980.42
566.54	45420.44
566.70	45123.19
566.87	45088.08
567.03	45390.01
567.19	45401.71
567.36	45158.30
567.52	45045.95
567.68	45542.14
567.85	45373.63
568.01	45703.64
568.17	45186.38
568.34	45771.52
568.50	45656.83
568.66	45514.06
568.83	45872.16
568.99	45015.52
569.15	45708.32
569.32	45249.58
569.48	45495.33
569.64	45617.04
569.81	45588.95
569.97	45497.67
570.13	45989.19
570.30	44907.86
570.46	45780.88
570.62	45677.90
570.78	44992.12
570.95	45310.43
571.11	45776.20
571.27	45722.37
571.43	45846.41
571.60	45972.80
571.76	45649.81
571.92	45368.94
572.09	45776.20
572.25	45750.45
572.41	45755.13
572.57	45776.20
572.74	46263.03
572.90	45886.20
573.06	46284.09
573.22	46220.90
573.38	45897.91
573.55	46075.79
573.71	46394.10
573.87	45923.65
574.03	45778.54
574.20	45975.14
574.36	45659.17
574.52	46164.73
574.68	45851.09
574.84	46351.97
575.01	45888.54
575.17	46117.92
575.33	45907.27
575.49	45727.05
575.65	45933.01
575.82	46227.92
575.98	45865.14
576.14	46014.93
576.30	46286.43
576.46	46183.45
576.62	45551.51
576.79	45853.44
576.95	45897.91
577.11	45867.48
577.27	46344.95
577.43	46272.39
577.59	45752.79
577.75	45694.28
577.92	45530.44
578.08	45902.59
578.24	46108.55
578.40	46471.34
578.56	46525.17
578.72	46021.95
578.88	46501.76
579.04	46344.95
579.21	45839.39
579.37	45759.81
579.53	46094.51
579.69	46019.61
579.85	45972.80
580.01	46312.18
580.17	45925.99
580.33	46160.05
580.49	46094.51
580.65	46169.41
580.82	46401.12
580.98	45914.29
581.14	45963.44
581.30	46447.93
581.46	45701.30
581.62	45752.79
581.78	46162.39
581.94	46534.53
582.10	46415.16
582.26	46241.96
582.42	46419.84
582.58	46426.87
582.74	46052.38
582.90	46281.75
583.06	46841.14
583.22	46405.80
583.38	46461.97
583.54	46433.89
583.70	46307.50
583.86	46450.27
584.02	45996.21
584.18	46796.67
584.34	46520.49
584.50	46408.14
584.66	46466.66
584.82	46391.76
584.98	46763.90
585.14	46419.84
585.30	46784.97
585.46	46520.49
585.62	46256.01
585.78	46377.72
585.94	46298.14
586.10	46564.96
586.26	46052.38
586.42	46316.86
586.58	46621.13
586.74	46553.26
586.90	46405.80
587.06	46204.52
587.22	46464.32
587.38	46246.65
587.54	46885.61
587.70	46768.58
587.86	46735.82
588.02	46625.81
588.18	46457.29
588.34	46518.15
588.49	46452.61
588.65	46227.92
588.81	46223.24
588.97	46340.27
589.13	46543.89
589.29	46721.77
589.45	47267.12
589.61	46670.28
589.77	46527.51
589.93	46862.21
590.08	46958.17
