SpectraSuite Data File
++++++++++++++++++++++++++++++++++++
Date: Fri Oct 25 11:25:33 EDT 2013
User: price-jones
Dark Spectrum Present: No
Reference Spectrum Present: No
Number of Sampled Component Spectra: 1
Spectrometers: USB2+H05261
Integration Time (usec): 100000 (USB2+H05261)
Spectra Averaged: 1 (USB2+H05261)
Boxcar Smoothing: 0 (USB2+H05261)
Correct for Electrical Dark: No (USB2+H05261)
Strobe/Lamp Enabled: No (USB2+H05261)
Correct for Detector Non-linearity: No (USB2+H05261)
Correct for Stray Light: No (USB2+H05261)
Number of Pixels in Processed Spectrum: 2048
>>>>>Begin Processed Spectral Data<<<<<
365.73	238.73
365.92	238.73
366.12	238.73
366.32	191.92
366.52	128.73
366.72	170.86
366.91	133.41
367.11	170.86
367.31	72.56
367.51	128.73
367.70	126.39
367.90	161.50
368.10	191.92
368.30	166.18
368.49	56.17
368.69	163.84
368.89	102.98
369.09	131.07
369.28	224.69
369.48	135.75
369.68	205.97
369.87	227.03
370.07	210.65
370.27	252.78
370.47	287.89
370.66	580.45
370.86	653.01
371.06	667.05
371.25	681.10
371.45	648.33
371.65	688.12
371.84	622.58
372.04	695.14
372.24	723.23
372.44	697.48
372.63	812.17
372.83	744.29
373.03	690.46
373.22	784.08
373.42	802.80
373.62	767.70
373.81	812.17
374.01	758.33
374.21	772.38
374.40	863.66
374.60	823.87
374.79	739.61
374.99	716.20
375.19	858.98
375.38	929.19
375.58	889.40
375.78	847.27
375.97	826.21
376.17	943.24
376.37	798.12
376.56	884.72
376.76	840.25
376.95	891.74
377.15	917.49
377.35	873.02
377.54	954.94
377.74	908.13
377.93	896.43
378.13	924.51
378.33	931.53
378.52	891.74
378.72	917.49
378.91	980.68
379.11	999.41
379.31	1013.45
379.50	961.96
379.70	1011.11
379.89	990.05
380.09	903.45
380.28	959.62
380.48	1029.84
380.68	990.05
380.87	1020.47
381.07	1048.56
381.26	1142.18
381.46	940.90
381.65	999.41
381.85	985.37
382.04	1029.84
382.24	1029.84
382.43	1057.92
382.63	968.98
382.83	1121.12
383.02	1076.65
383.22	1179.63
383.41	1111.75
383.61	1139.84
383.80	1055.58
384.00	1022.81
384.19	1172.61
384.39	1097.71
384.58	1104.73
384.78	1142.18
384.97	1097.71
385.17	1116.44
385.36	1217.08
385.56	1170.27
385.75	1139.84
385.95	1188.99
386.14	1203.04
386.34	1186.65
386.53	1226.44
386.72	1114.10
386.92	1193.67
387.11	1247.51
387.31	1280.27
387.50	1273.25
387.70	1205.38
387.89	1226.44
388.09	1217.08
388.28	1200.69
388.48	1282.61
388.67	1327.08
388.86	1320.06
389.06	1299.00
389.25	1324.74
389.45	1352.83
389.64	1343.47
389.84	1294.32
390.03	1411.34
390.22	1448.79
390.42	1476.88
390.61	1317.72
390.81	1385.60
391.00	1404.32
391.19	1472.20
391.39	1434.75
391.58	1547.09
391.78	1495.60
391.97	1451.13
392.16	1472.20
392.36	1514.33
392.55	1427.73
392.75	1596.25
392.94	1472.20
393.13	1570.50
393.33	1462.83
393.52	1462.83
393.71	1598.59
393.91	1584.54
394.10	1526.03
394.29	1643.06
394.49	1692.21
394.68	1647.74
394.88	1563.48
395.07	1614.97
395.26	1664.12
395.46	1743.70
395.65	1603.27
395.84	1713.27
396.04	1743.70
396.23	1790.51
396.42	1694.55
396.62	1774.13
396.81	1834.98
397.00	1774.13
397.19	1764.76
397.39	1778.81
397.58	1767.10
397.77	1762.42
397.97	1851.36
398.16	1865.41
398.35	1830.30
398.55	1860.73
398.74	2010.52
398.93	2054.99
399.12	1900.52
399.32	1928.60
399.51	2045.63
399.70	2057.33
399.90	2033.93
400.09	2101.80
400.28	2150.95
400.47	1994.14
400.67	2085.42
400.86	2183.72
401.05	2094.78
401.24	2059.67
401.44	2045.63
401.63	2101.80
401.82	2090.10
402.01	2029.24
402.21	2153.29
402.40	2139.25
402.59	2202.44
402.78	2221.17
402.97	2181.38
403.17	2296.07
403.36	2221.17
403.55	2305.43
403.74	2324.15
403.93	2396.71
404.13	2431.82
404.32	2162.66
404.51	2429.48
404.70	2462.24
404.89	2389.69
405.09	2438.84
405.28	2370.96
405.47	2424.80
405.66	2490.33
405.85	2562.89
406.05	2399.05
406.24	2462.24
406.43	2626.08
406.62	2710.34
406.81	2705.66
407.00	2560.55
407.20	2586.29
407.39	2583.95
407.58	2794.60
407.77	2708.00
407.96	2780.56
408.15	2731.41
408.34	2715.02
408.54	2853.11
408.73	2827.37
408.92	2857.79
409.11	2810.98
409.30	2918.65
409.49	2918.65
409.68	2986.52
409.87	2925.67
410.07	3007.59
410.26	3035.67
410.45	3021.63
410.64	3009.93
410.83	3096.53
411.02	3061.42
411.21	3239.30
411.40	3112.91
411.59	3131.64
411.78	3084.83
411.98	3122.27
412.17	3199.51
412.36	3323.56
412.55	3342.28
412.74	3316.54
412.93	3339.94
413.12	3365.69
413.31	3494.42
413.50	3459.31
413.69	3473.36
413.88	3569.32
414.07	3438.25
414.26	3478.04
414.45	3709.75
414.64	3688.68
414.83	3667.62
415.02	3613.79
415.22	3770.60
415.41	3861.88
415.60	3808.05
415.79	3833.80
415.98	3960.19
416.17	4079.55
416.36	3974.23
416.55	3873.59
416.74	3960.19
416.93	3948.48
417.12	4049.13
417.31	4250.41
417.50	4308.93
417.69	4299.56
417.88	4135.73
418.07	4217.65
418.26	4161.47
418.45	4290.20
418.64	4465.74
418.83	4573.41
419.02	4435.32
419.21	4489.15
419.39	4486.81
419.58	4395.53
419.77	4484.47
419.96	4552.34
420.15	4645.96
420.34	4638.94
420.53	4463.40
420.72	4695.11
420.91	4767.67
421.10	4660.01
421.29	4720.86
421.48	4596.81
421.67	4844.91
421.86	4826.18
422.05	4739.58
422.24	4695.11
422.43	4781.71
422.61	4931.51
422.80	4704.48
422.99	4884.70
423.18	4919.81
423.37	4947.89
423.56	4938.53
423.75	4741.93
423.94	4924.49
424.13	4706.82
424.32	4732.56
424.50	4901.08
424.69	5067.26
424.88	4964.28
425.07	4828.53
425.26	4931.51
425.45	4901.08
425.64	4882.36
425.83	5050.88
426.01	5193.65
426.20	5111.73
426.39	5069.60
426.58	4987.68
426.77	5004.07
426.96	5048.54
427.15	5231.10
427.33	5088.32
427.52	5167.90
427.71	5301.31
427.90	5210.03
428.09	5172.58
428.28	5280.25
428.46	5259.18
428.65	5385.57
428.84	5488.56
429.03	5523.66
429.22	5210.03
429.40	5533.03
429.59	5474.51
429.78	5455.79
429.97	5282.59
430.16	5451.11
430.34	5598.56
430.53	5554.09
430.72	5614.95
430.91	5631.33
431.10	5703.89
431.28	5928.58
431.47	5776.44
431.66	5916.87
431.85	5654.73
432.03	5898.15
432.22	6026.88
432.41	5811.55
432.60	5928.58
432.79	6108.80
432.97	5933.26
433.16	5973.05
433.35	5809.21
433.54	5996.45
433.72	6085.39
433.91	6069.01
434.10	6176.67
434.28	6125.18
434.47	6136.88
434.66	6392.00
434.85	6333.49
435.03	6204.76
435.22	6342.85
435.41	6359.24
435.59	6399.02
435.78	6600.31
435.97	6459.88
436.16	6384.98
436.34	6448.18
436.53	6623.72
436.72	6700.95
436.90	6473.92
437.09	6614.35
437.28	6429.45
437.46	6626.06
437.65	6574.56
437.84	6537.12
438.02	6614.35
438.21	6614.35
438.40	6682.23
438.58	7061.40
438.77	6876.49
438.96	6874.15
439.14	7042.67
439.33	7096.50
439.52	7241.62
439.70	7246.30
439.89	7318.86
440.08	7293.11
440.26	7243.96
440.45	7286.09
440.63	7463.97
440.82	7461.63
441.01	7396.09
441.19	7562.27
441.38	7880.58
441.57	7691.00
441.75	7681.64
441.94	8142.72
442.12	7941.44
442.31	7981.23
442.50	8049.10
442.68	7861.86
442.87	8013.99
443.05	8067.83
443.24	8079.53
443.43	8042.08
443.61	8084.21
443.80	8329.97
443.98	8032.72
444.17	7913.35
444.35	8269.11
444.54	8344.01
444.73	8163.79
444.91	8203.58
445.10	8425.93
445.28	8367.42
445.47	8301.88
445.65	8308.90
445.84	8390.82
446.02	8423.59
446.21	8505.51
446.39	8374.44
446.58	8505.51
446.77	8463.38
446.95	8276.13
447.14	8362.73
447.32	8430.61
447.51	8348.69
447.69	8454.02
447.88	8468.06
448.06	8442.31
448.25	8482.10
448.43	8496.14
448.62	8533.59
448.80	8383.80
448.99	8482.10
449.17	8844.88
449.36	8727.86
449.54	8608.49
449.73	8926.80
449.91	9050.85
450.10	9032.13
450.28	9083.62
450.46	9055.53
450.65	8980.64
450.83	8908.08
451.02	9060.21
451.20	9153.84
451.39	9170.22
451.57	9114.05
451.76	8840.20
451.94	9144.47
452.13	9401.93
452.31	9399.59
452.49	9233.41
452.68	9207.67
452.86	9401.93
453.05	9380.87
453.23	9558.75
453.42	9303.63
453.60	9308.31
453.78	9490.87
453.97	9221.71
454.15	9591.52
454.34	9577.47
454.52	9675.77
454.70	9549.39
454.89	9514.28
455.07	9724.93
455.26	9657.05
455.44	9961.32
455.62	9987.07
455.81	9937.91
455.99	9631.30
456.17	9963.66
456.36	9748.33
456.54	9944.94
456.73	10125.16
456.91	10509.01
457.09	10312.40
457.28	10464.54
457.46	10401.34
457.64	10518.37
457.83	10455.17
458.01	10478.58
458.19	10607.31
458.38	10523.05
458.56	10726.68
458.74	10661.14
458.93	10492.62
459.11	10579.22
459.29	10787.53
459.48	10747.74
459.66	10747.74
459.84	10836.68
460.03	11005.20
460.21	10750.08
460.39	11073.07
460.57	10967.75
460.76	11021.58
460.94	11330.53
461.12	11162.01
461.31	10958.39
461.49	11040.31
461.67	10953.71
461.85	11414.79
462.04	11030.94
462.22	11716.72
462.40	11683.95
462.59	11431.18
462.77	11407.77
462.95	11566.93
463.13	11550.54
463.32	11740.13
463.50	11796.30
463.68	11786.94
463.86	11705.02
464.05	11730.76
464.23	11892.26
464.41	11770.55
464.59	11494.37
464.78	12030.35
464.96	11992.90
465.14	11817.36
465.32	11854.81
465.50	12039.72
465.69	12063.12
465.87	11995.25
466.05	11836.09
466.23	12238.66
466.41	12226.96
466.60	12416.54
466.78	12049.08
466.96	12065.46
467.14	12264.41
467.32	12259.73
467.51	12477.40
467.69	12222.28
467.87	12538.25
468.05	12767.62
468.23	12264.41
468.41	12482.08
468.60	12421.22
468.78	12650.60
468.96	12634.21
469.14	12709.11
469.32	12985.29
469.50	12545.27
469.69	12826.14
469.87	13144.45
470.05	13025.08
470.23	12968.91
470.41	13041.46
470.59	13373.82
470.77	13135.09
470.95	13406.59
471.14	13345.73
471.32	13090.62
471.50	13579.79
471.68	13687.45
471.86	13584.47
472.04	13584.47
472.22	14094.71
472.40	13752.99
472.58	13912.14
472.77	13841.93
472.95	14031.51
473.13	14572.18
473.31	13991.72
473.49	14052.58
473.67	14111.09
473.85	14450.47
474.03	14654.09
474.21	14633.03
474.39	14665.80
474.57	14693.88
474.75	14628.35
474.93	14972.41
475.12	14700.90
475.30	14970.07
475.48	14925.60
475.66	15124.54
475.84	15042.62
476.02	15283.70
476.20	15281.36
476.38	15662.86
476.56	15932.03
476.74	15852.45
476.92	15805.64
477.10	15908.62
477.28	16271.40
477.46	16039.69
477.64	16269.06
477.82	16603.76
478.00	16697.38
478.18	16826.11
478.36	16931.44
478.54	17062.51
478.72	17043.78
478.90	17413.59
479.08	17441.67
479.26	17649.98
479.44	17324.65
479.62	17823.18
479.80	18082.98
479.98	18345.12
480.16	18438.74
480.34	18342.78
480.52	18295.97
480.70	18618.96
480.88	18031.49
481.06	18506.62
481.24	18663.43
481.41	18801.52
481.59	19211.12
481.77	19728.38
481.95	19349.21
482.13	19379.64
482.31	19548.15
482.49	19946.05
482.67	20053.71
482.85	20669.27
483.03	20428.20
483.21	20467.98
483.39	21029.71
483.57	20627.14
483.74	21481.44
483.92	21472.07
484.10	20980.56
484.28	21706.13
484.46	22022.10
484.64	22370.84
484.82	21968.27
485.00	22260.84
485.18	22649.36
485.35	22532.34
485.53	22689.15
485.71	23080.02
485.89	23290.67
486.07	23115.13
486.25	23515.36
486.43	23967.09
486.61	23496.64
486.78	24093.47
486.96	23726.01
487.14	24404.77
487.32	24414.13
487.50	24884.58
487.68	25017.99
487.85	25422.90
488.03	25165.44
488.21	25598.44
488.39	25795.04
488.57	25883.98
488.75	26162.51
488.92	26169.53
489.10	26558.06
489.28	26506.57
489.46	27051.91
489.64	27026.17
489.81	27414.69
489.99	27679.18
490.17	27796.20
490.35	28175.37
490.53	28257.29
490.70	28250.27
490.88	28290.06
491.06	28594.32
491.24	28664.54
491.41	28629.43
491.59	29376.06
491.77	29132.65
491.95	29443.94
492.13	29406.49
492.30	29708.42
492.48	29769.27
492.66	30003.33
492.84	30223.34
493.01	30733.57
493.19	30473.78
493.37	30981.67
493.54	30981.67
493.72	31168.91
493.90	31260.20
494.08	31587.87
494.25	31674.47
494.43	32032.57
494.61	32165.98
494.79	32201.09
494.96	32383.65
495.14	32400.04
495.32	32769.84
495.49	32694.94
495.67	33078.79
495.85	33619.46
496.02	33497.75
496.20	34000.96
496.38	33846.49
496.55	34050.11
496.73	34553.33
496.91	34401.19
497.09	34644.61
497.26	34920.79
497.44	34916.11
497.62	34806.11
497.79	36093.40
497.97	34986.33
498.14	35957.65
498.32	35889.77
498.50	36404.69
498.67	36348.52
498.85	36151.91
499.03	36610.66
499.20	36290.01
499.38	36760.45
499.56	36945.36
499.73	36816.63
499.91	37333.89
500.08	37464.96
500.26	37156.00
500.44	37373.67
500.61	37600.71
500.79	37553.90
500.97	38108.60
501.14	38120.31
501.32	38270.10
501.49	38742.89
501.67	38424.57
501.84	38569.69
502.02	38478.41
502.20	39138.44
502.37	38565.01
502.55	39381.85
502.72	39639.31
502.90	39358.45
503.07	39604.20
503.25	39908.47
503.43	39969.33
503.60	40158.91
503.78	40376.58
503.95	40289.98
504.13	40259.55
504.30	40545.10
504.48	40376.58
504.65	40659.79
504.83	40727.66
505.01	41312.80
505.18	40940.65
505.36	41319.82
505.53	41181.73
505.71	41249.60
505.88	41780.90
506.06	41338.54
506.23	42139.00
506.41	41488.34
506.58	42066.45
506.76	41956.44
506.93	42314.55
507.11	42270.08
507.28	42206.88
507.46	42457.32
507.63	42836.48
507.81	43220.33
507.98	43035.43
508.16	43138.41
508.33	43611.20
508.50	43473.11
508.68	43423.96
508.85	43578.43
509.03	43716.53
509.20	43868.66
509.38	44041.86
509.55	44360.17
509.73	43999.73
509.90	44598.91
510.08	44275.91
510.25	44353.15
510.42	44392.94
510.60	45024.89
510.77	44861.05
510.95	45521.08
511.12	44980.42
511.30	44968.71
511.47	45432.14
511.64	45062.33
511.82	45867.48
511.99	45244.90
512.17	45698.96
512.34	45785.56
512.51	46169.41
512.69	46415.16
512.86	46127.28
513.04	46504.10
513.21	46401.12
513.38	46787.31
513.56	46859.87
513.73	46897.31
513.90	47196.90
514.08	46789.65
514.25	46990.94
514.43	47107.96
514.60	47143.07
514.77	47440.32
514.95	47311.59
515.12	47639.26
515.29	47089.24
515.47	47763.31
515.64	48179.93
515.81	48088.65
515.99	48182.27
516.16	48458.45
516.33	48535.69
516.51	48397.60
516.68	48437.39
516.85	48299.30
517.03	48816.55
517.20	48776.76
517.37	48645.69
517.54	48818.89
517.72	48769.74
517.89	49010.82
518.06	48896.13
518.24	49165.29
518.41	49610.00
518.58	49003.80
518.75	49029.54
518.93	49467.22
519.10	49223.81
519.27	49818.30
519.45	49778.51
519.62	49504.67
519.79	49663.83
519.96	50033.63
520.14	50288.75
520.31	50141.30
520.48	50263.00
520.65	49909.58
520.83	50518.12
521.00	50485.36
521.17	50307.47
521.34	50595.36
521.52	50616.43
521.69	50878.57
521.86	50672.60
522.03	51105.60
522.20	51313.90
522.38	51063.47
522.55	51257.73
522.72	51288.16
522.89	51185.18
523.07	51782.01
523.24	51129.00
523.41	51700.09
523.58	51189.86
523.75	51723.50
523.92	51782.01
524.10	51753.93
524.27	51894.36
524.44	51679.03
524.61	51943.51
524.78	51945.85
524.96	51978.62
525.13	52198.63
525.30	52388.21
525.47	52226.71
525.64	52287.57
525.81	52402.25
525.98	52676.10
526.16	52624.60
526.33	52568.43
526.50	53111.44
526.67	53045.90
526.84	53109.10
527.01	52741.63
527.18	52830.57
527.36	52559.07
527.53	52729.93
527.70	53146.54
527.87	53102.07
528.04	52900.79
528.21	53420.39
528.38	53340.81
528.55	53237.83
528.72	53268.25
528.89	53125.48
529.07	53406.34
529.24	53392.30
529.41	53631.04
529.58	53497.62
529.75	53574.86
529.92	53738.70
530.09	53525.71
530.26	53722.32
530.43	53921.26
530.60	53595.93
530.77	53932.96
530.94	53977.43
531.11	53989.14
531.28	53954.03
531.46	54071.06
531.63	54115.53
531.80	54223.19
531.97	54183.40
532.14	54597.68
532.31	54335.54
532.48	54363.62
532.65	54693.64
532.82	54424.48
532.99	54394.05
533.16	54518.10
533.33	54777.90
533.50	54695.98
533.67	54553.21
533.84	54621.08
534.01	54677.25
534.18	54808.32
534.35	55180.47
534.52	54885.56
534.69	55365.37
534.86	55028.34
535.03	54995.57
535.20	55173.45
535.37	55309.20
535.54	55098.55
535.71	55044.72
535.88	55529.21
536.05	55451.97
536.22	55487.08
536.38	55400.48
536.55	55561.98
536.72	55508.14
536.89	55398.14
537.06	55547.93
537.23	55667.30
537.40	55365.37
537.57	55636.87
537.74	55856.88
537.91	56107.32
538.08	55922.42
538.25	55676.66
538.42	55805.39
538.59	56013.70
538.75	55845.18
538.92	55835.82
539.09	55952.85
539.26	56123.71
539.43	56142.43
539.60	56142.43
539.77	56137.75
539.94	56313.29
540.11	56020.72
540.28	56451.38
540.44	56214.99
540.61	56458.40
540.78	56184.56
540.95	56189.24
541.12	56147.11
541.29	56596.49
541.46	56371.80
541.62	56596.49
541.79	56491.17
541.96	56189.24
542.13	56425.64
542.30	56575.43
542.47	56715.86
542.63	56378.82
542.80	56765.01
542.97	57083.33
543.14	57036.51
543.31	57233.12
543.48	57277.59
543.64	57453.13
543.81	57303.34
543.98	57205.03
544.15	57284.61
544.32	57336.10
544.48	57326.74
544.65	57151.20
544.82	57244.82
544.99	57069.28
545.16	57535.05
545.32	57125.46
545.49	57631.01
545.66	57633.35
545.83	57567.82
546.00	57715.27
546.16	57535.05
546.33	57652.08
546.50	57378.23
546.67	57799.53
546.83	57230.78
547.00	57687.18
547.17	57649.74
547.34	57703.57
547.50	57719.95
547.67	57860.38
547.84	57846.34
548.00	58038.26
548.17	57956.35
548.34	58136.57
548.51	58033.58
548.67	58267.64
548.84	58108.48
549.01	57907.19
549.18	58113.16
549.34	58162.31
549.51	58244.23
549.68	58298.06
549.84	58312.11
550.01	58234.87
550.18	57921.24
550.34	58335.51
550.51	58511.05
550.68	58227.85
550.84	58162.31
551.01	58557.86
551.18	58241.89
551.34	58515.73
551.51	58630.42
551.68	58316.79
551.84	58281.68
552.01	58478.28
552.18	58653.82
552.34	58255.93
552.51	58637.44
552.68	58485.31
552.84	58614.04
553.01	58717.02
553.18	58824.68
553.34	58817.66
553.51	58646.80
553.67	58815.32
553.84	58878.52
554.01	58880.86
554.17	58876.18
554.34	58724.04
554.51	58932.35
554.67	58969.80
554.84	58801.28
555.00	58777.87
555.17	58967.46
555.33	59112.57
555.50	58695.95
555.67	58934.69
555.83	58988.52
556.00	59065.76
556.16	59215.55
556.33	59358.33
556.50	59025.97
556.66	59407.48
556.83	59231.94
556.99	59304.49
557.16	59299.81
557.32	59257.68
557.49	59540.89
557.65	59135.98
557.82	59285.77
557.98	59341.94
558.15	59339.60
558.32	59355.99
558.48	59185.13
558.65	59442.59
558.81	59512.80
558.98	59405.14
559.14	59451.95
559.31	59461.31
559.47	59477.69
559.64	59704.73
559.80	59760.90
559.97	59788.98
560.13	59711.75
560.30	59358.33
560.46	59746.86
560.63	59681.32
560.79	59788.98
560.96	59875.58
561.12	59861.54
561.29	59700.04
561.45	59791.33
561.61	59524.50
561.78	59700.04
561.94	59856.86
562.11	59711.75
562.27	59908.35
562.44	59985.59
562.60	60097.94
562.77	59835.80
562.93	59618.13
563.10	59966.87
563.26	59756.22
563.42	60023.04
563.59	59880.27
563.75	59882.61
563.92	59906.01
564.08	60083.89
564.24	60004.31
564.41	60158.79
564.57	60046.44
564.74	59875.58
564.90	59894.31
565.07	59962.18
565.23	60065.17
565.39	60081.55
565.56	60364.76
565.72	60179.85
565.88	60144.75
566.05	60004.31
566.21	60044.10
566.38	60221.98
566.54	60434.97
566.70	60182.19
566.87	60296.88
567.03	59959.84
567.19	60397.52
567.36	60221.98
567.52	60186.88
567.68	60528.59
567.85	60362.42
568.01	60219.64
568.17	60252.41
568.34	60430.29
568.50	60348.37
568.66	60331.99
568.83	60460.72
568.99	60156.45
569.15	60420.93
569.32	60245.39
569.48	60236.03
569.64	60441.99
569.81	60296.88
569.97	60114.32
570.13	60383.48
570.30	60289.86
570.46	60474.76
570.62	60577.75
570.78	60397.52
570.95	60266.45
571.11	60385.82
571.27	60285.18
571.43	60533.28
571.60	60336.67
571.76	60458.38
571.92	60313.26
572.09	60420.93
572.25	60385.82
572.41	60327.31
572.57	60470.08
572.74	60741.58
572.90	60285.18
573.06	60444.33
573.22	60652.64
573.38	60608.17
573.55	60425.61
573.71	60570.72
573.87	60540.30
574.03	60420.93
574.20	60889.04
574.36	60547.32
574.52	60598.81
574.68	60425.61
574.84	60720.52
575.01	60640.94
575.17	60640.94
575.33	60556.68
575.49	60498.17
575.65	60608.17
575.82	60776.69
575.98	60743.92
576.14	60898.40
576.30	60889.04
576.46	60601.15
576.62	60488.80
576.79	60711.16
576.95	60568.38
577.11	60559.02
577.27	60774.35
577.43	60683.07
577.59	60636.26
577.75	60715.84
577.92	60704.13
578.08	60715.84
578.24	60795.42
578.40	60975.64
578.56	60877.33
578.72	60704.13
578.88	60874.99
579.04	61022.45
579.21	60788.39
579.37	60860.95
579.53	60973.30
579.69	60683.07
579.85	60647.96
580.01	60732.22
580.17	60516.89
580.33	60814.14
580.49	60977.98
580.65	60896.06
580.82	60903.08
580.98	60645.62
581.14	60554.34
581.30	60809.46
581.46	60732.22
581.62	60821.16
581.78	60828.18
581.94	61024.79
582.10	60757.97
582.26	60870.31
582.42	60846.91
582.58	60949.89
582.74	60851.59
582.90	60963.93
583.06	60877.33
583.22	60750.94
583.38	60891.38
583.54	60912.44
583.70	60889.04
583.86	61048.19
584.02	60654.98
584.18	60935.85
584.34	60935.85
584.50	60755.63
584.66	60863.29
584.82	60748.60
584.98	61123.09
585.14	60966.27
585.30	60846.91
585.46	61176.92
585.62	60877.33
585.78	60837.54
585.94	60711.16
586.10	60952.23
586.26	61095.00
586.42	60966.27
586.58	60970.96
586.74	60954.57
586.90	60966.27
587.06	60889.04
587.22	61022.45
587.38	61008.40
587.54	60977.98
587.70	61249.48
587.86	61017.77
588.02	60987.34
588.18	61202.67
588.34	60882.02
588.49	60924.14
