SpectraSuite Data File
++++++++++++++++++++++++++++++++++++
Date: Fri Oct 25 11:23:12 EDT 2013
User: price-jones
Dark Spectrum Present: No
Reference Spectrum Present: No
Number of Sampled Component Spectra: 1
Spectrometers: USB2+H05261
Integration Time (usec): 100000 (USB2+H05261)
Spectra Averaged: 1 (USB2+H05261)
Boxcar Smoothing: 0 (USB2+H05261)
Correct for Electrical Dark: No (USB2+H05261)
Strobe/Lamp Enabled: No (USB2+H05261)
Correct for Detector Non-linearity: No (USB2+H05261)
Correct for Stray Light: No (USB2+H05261)
Number of Pixels in Processed Spectrum: 2048
>>>>>Begin Processed Spectral Data<<<<<
365.73	217.67
365.92	217.67
366.12	217.67
366.32	161.50
366.52	121.71
366.72	112.35
366.91	74.90
367.11	117.03
367.31	140.43
367.51	154.48
367.70	95.96
367.90	149.79
368.10	140.43
368.30	166.18
368.49	107.66
368.69	170.86
368.89	95.96
369.09	149.79
369.28	170.86
369.48	175.54
369.68	227.03
369.87	170.86
370.07	203.63
370.27	231.71
370.47	273.84
370.66	610.88
370.86	615.56
371.06	730.25
371.25	610.88
371.45	709.18
371.65	723.23
371.84	608.54
372.04	702.16
372.24	695.14
372.44	725.57
372.63	720.88
372.83	842.59
373.03	774.72
373.22	765.36
373.42	830.89
373.62	758.33
373.81	777.06
374.01	805.14
374.21	861.32
374.40	760.67
374.60	716.20
374.79	819.19
374.99	755.99
375.19	779.40
375.38	772.38
375.58	863.66
375.78	868.34
375.97	903.45
376.17	912.81
376.37	901.11
376.56	791.10
376.76	929.19
376.95	866.00
377.15	931.53
377.35	884.72
377.54	786.42
377.74	814.51
377.93	954.94
378.13	954.94
378.33	866.00
378.52	866.00
378.72	971.32
378.91	992.39
379.11	882.38
379.31	943.24
379.50	971.32
379.70	929.19
379.89	992.39
380.09	1006.43
380.28	983.02
380.48	994.73
380.68	908.13
380.87	1006.43
381.07	1008.77
381.26	990.05
381.46	1025.15
381.65	1114.10
381.85	1043.88
382.04	1107.07
382.24	1060.26
382.43	1001.75
382.63	1064.94
382.83	1088.35
383.02	1076.65
383.22	1135.16
383.41	1200.69
383.61	1053.24
383.80	1128.14
384.00	1177.29
384.19	1149.20
384.39	1156.22
384.58	1151.54
384.78	1163.25
384.97	1135.16
385.17	1188.99
385.36	1170.27
385.56	1116.44
385.75	1116.44
385.95	1184.31
386.14	1172.61
386.34	1121.12
386.53	1170.27
386.72	1282.61
386.92	1203.04
387.11	1205.38
387.31	1320.06
387.50	1205.38
387.70	1249.85
387.89	1231.12
388.09	1322.40
388.28	1240.48
388.48	1282.61
388.67	1261.55
388.86	1331.76
389.06	1387.94
389.25	1334.11
389.45	1378.58
389.64	1380.92
389.84	1383.26
390.03	1348.15
390.22	1423.05
390.42	1401.98
390.61	1439.43
390.81	1465.18
391.00	1460.49
391.19	1577.52
391.39	1507.30
391.58	1535.39
391.78	1467.52
391.97	1490.92
392.16	1383.26
392.36	1500.28
392.55	1570.50
392.75	1504.96
392.94	1432.41
393.13	1437.09
393.33	1479.22
393.52	1568.16
393.71	1624.33
393.91	1614.97
394.10	1514.33
394.29	1593.90
394.49	1610.29
394.68	1708.59
394.88	1654.76
395.07	1673.48
395.26	1675.82
395.46	1696.89
395.65	1671.14
395.84	1750.72
396.04	1753.06
396.23	1675.82
396.42	1776.47
396.62	1769.44
396.81	1877.11
397.00	1804.55
397.19	1781.15
397.39	1797.53
397.58	1837.32
397.77	1865.41
397.97	1781.15
398.16	1785.83
398.35	1923.92
398.55	1834.98
398.74	1952.01
398.93	2038.61
399.12	1959.03
399.32	1961.37
399.51	1947.33
399.70	2097.12
399.90	1912.22
400.09	1984.77
400.28	1998.82
400.47	2012.86
400.67	2050.31
400.86	2132.23
401.05	2174.36
401.24	2122.87
401.44	2010.52
401.63	2106.48
401.82	2179.04
402.01	2092.44
402.21	2230.53
402.40	2221.17
402.59	2157.97
402.78	2209.47
402.97	2356.92
403.17	2326.49
403.36	2211.81
403.55	2282.02
403.74	2399.05
403.93	2403.73
404.13	2375.64
404.32	2368.62
404.51	2361.60
404.70	2354.58
404.89	2403.73
405.09	2502.03
405.28	2438.84
405.47	2572.25
405.66	2417.77
405.85	2588.63
406.05	2523.10
406.24	2630.76
406.43	2597.99
406.62	2658.85
406.81	2696.30
407.00	2605.02
407.20	2609.70
407.39	2605.02
407.58	2792.26
407.77	2726.72
407.96	2761.83
408.15	2867.16
408.34	2754.81
408.54	2841.41
408.73	2883.54
408.92	2881.20
409.11	2939.71
409.30	2956.10
409.49	2897.58
409.68	2871.84
409.87	2820.35
410.07	3014.61
410.26	3019.29
410.45	3042.70
410.64	3094.19
410.83	3049.72
411.02	3049.72
411.21	3211.22
411.40	3115.25
411.59	3164.40
411.78	3211.22
411.98	3206.53
412.17	3248.66
412.36	3438.25
412.55	3361.01
412.74	3267.39
412.93	3407.82
413.12	3405.48
413.31	3585.70
413.50	3475.70
413.69	3520.17
413.88	3426.54
414.07	3534.21
414.26	3646.55
414.45	3581.02
414.64	3714.43
414.83	3707.41
415.02	3791.67
415.22	3857.20
415.41	3985.93
415.60	3875.93
415.79	3803.37
415.98	4011.68
416.17	4023.38
416.36	4077.21
416.55	4046.79
416.74	4187.22
416.93	3999.98
417.12	4142.75
417.31	4154.45
417.50	4311.27
417.69	4365.10
417.88	4355.74
418.07	4348.72
418.26	4294.88
418.45	4404.89
418.64	4505.53
418.83	4456.38
419.02	4510.21
419.21	4582.77
419.39	4559.36
419.58	4580.43
419.77	4468.08
419.96	4528.94
420.15	4641.28
420.34	4660.01
420.53	4674.05
420.72	4854.27
420.91	4805.12
421.10	4699.80
421.29	4709.16
421.48	4851.93
421.67	4786.40
421.86	4835.55
422.05	4861.29
422.24	4861.29
422.43	4954.91
422.61	4971.30
422.80	4919.81
422.99	4884.70
423.18	4990.02
423.37	5114.07
423.56	4938.53
423.75	5123.43
423.94	4851.93
424.13	4688.09
424.32	4755.97
424.50	5083.64
424.69	5118.75
424.88	5062.58
425.07	5118.75
425.26	5083.64
425.45	5022.79
425.64	5006.41
425.83	5149.18
426.01	5210.03
426.20	5078.96
426.39	4952.57
426.58	5022.79
426.77	5177.26
426.96	5240.46
427.15	5170.24
427.33	5149.18
427.52	5153.86
427.71	5408.98
427.90	5310.68
428.09	5210.03
428.28	5481.53
428.46	5434.72
428.65	5425.36
428.84	5483.88
429.03	5540.05
429.22	5383.23
429.40	5624.31
429.59	5523.66
429.78	5348.12
429.97	5378.55
430.16	5544.73
430.34	5734.31
430.53	5612.60
430.72	5785.80
430.91	5706.23
431.10	5678.14
431.28	5825.59
431.47	5774.10
431.66	5839.64
431.85	5830.27
432.03	6118.16
432.22	6029.22
432.41	5874.74
432.60	5888.79
432.79	5928.58
432.97	6132.20
433.16	5980.07
433.35	6129.86
433.54	6092.41
433.72	6207.10
433.91	6153.27
434.10	6286.68
434.28	6160.29
434.47	6193.06
434.66	6384.98
434.85	6333.49
435.03	6347.53
435.22	6480.94
435.41	6504.35
435.59	6370.94
435.78	6609.67
435.97	6565.20
436.16	6361.58
436.34	6532.44
436.53	6640.10
436.72	6782.87
436.90	6331.15
437.09	6698.61
437.28	6623.72
437.46	6745.42
437.65	6642.44
437.84	6722.02
438.02	6932.67
438.21	6920.96
438.40	6932.67
438.58	6918.62
438.77	7101.19
438.96	7138.63
439.14	7164.38
439.33	7148.00
439.52	7470.99
439.70	7246.30
439.89	7428.86
440.08	7377.37
440.26	7398.43
440.45	7485.03
440.63	7515.46
440.82	7581.00
441.01	7634.83
441.19	7566.95
441.38	7838.45
441.57	7791.64
441.75	7817.39
441.94	7976.55
442.12	7978.89
442.31	8219.96
442.50	8114.64
442.68	8152.09
442.87	8241.03
443.05	8067.83
443.24	8472.74
443.43	8273.79
443.61	8236.35
443.80	8416.57
443.98	8222.30
444.17	7831.43
444.35	8278.47
444.54	8580.40
444.73	8341.67
444.91	8423.59
445.10	8549.98
445.28	8617.85
445.47	8271.45
445.65	8285.50
445.84	8538.27
446.02	8372.10
446.21	8475.08
446.39	8510.19
446.58	8400.18
446.77	8468.06
446.95	8369.76
447.14	8461.04
447.32	8772.33
447.51	8446.99
447.69	8645.94
447.88	8601.47
448.06	8493.80
448.25	8652.96
448.43	8795.73
448.62	8858.93
448.80	8737.22
448.99	8657.64
449.17	8849.57
449.36	8713.81
449.54	8924.46
449.73	8905.74
449.91	9036.81
450.10	8868.29
450.28	9104.68
450.46	9081.28
450.65	9179.58
450.83	9088.30
451.02	9018.08
451.20	9273.20
451.39	9200.65
451.57	9205.33
451.76	9217.03
451.94	9191.28
452.13	9303.63
452.31	9343.42
452.49	9317.67
452.68	9355.12
452.86	9348.10
453.05	9455.76
453.23	9776.42
453.42	9584.49
453.60	9423.00
453.78	9537.68
453.97	9563.43
454.15	9650.03
454.34	9448.74
454.52	9797.48
454.70	9778.76
454.89	9832.59
455.07	9820.89
455.26	9745.99
455.44	9998.77
455.62	10010.47
455.81	10136.86
455.99	9994.09
456.17	10087.71
456.36	10141.54
456.54	10228.14
456.73	10464.54
456.91	10516.03
457.09	10459.85
457.28	10607.31
457.46	10494.96
457.64	10663.48
457.83	10637.73
458.01	10555.82
458.19	10803.91
458.38	10597.95
458.56	10810.93
458.74	10789.87
458.93	10721.99
459.11	10787.53
459.29	10827.32
459.48	10668.16
459.66	10721.99
459.84	10956.05
460.03	11410.11
460.21	11199.46
460.39	11105.84
460.57	11075.42
460.76	11103.50
460.94	11470.97
461.12	11398.41
461.31	11325.85
461.49	11232.23
461.67	11389.05
461.85	11365.64
462.04	11290.74
462.22	11494.37
462.40	11590.33
462.59	11665.23
462.77	11555.22
462.95	11882.90
463.13	11910.99
463.32	11726.08
463.50	11864.18
463.68	12051.42
463.86	11695.66
464.05	11616.08
464.23	11721.40
464.41	11761.19
464.59	11688.64
464.78	12301.86
464.96	12049.08
465.14	11819.71
465.32	12009.29
465.50	12444.63
465.69	12339.30
465.87	12224.62
466.05	12222.28
466.23	12280.79
466.41	12325.26
466.60	12531.23
466.78	12402.50
466.96	12362.71
467.14	12568.68
467.32	12533.57
467.51	12559.31
467.69	12414.20
467.87	12683.36
468.05	12615.49
468.23	12498.46
468.41	12524.21
468.60	12629.53
468.78	12837.84
468.96	12652.94
469.14	12999.34
469.32	12989.97
469.50	12669.32
469.69	13064.87
469.87	13186.58
470.05	13317.65
470.23	13209.98
470.41	13172.54
470.59	13289.56
470.77	13111.68
470.95	13198.28
471.14	13645.32
471.32	13179.56
471.50	13633.62
471.68	13881.72
471.86	13724.90
472.04	13848.95
472.22	14015.13
472.40	13802.14
472.58	13851.29
472.77	14111.09
472.95	14017.47
473.13	14626.01
473.31	14200.03
473.49	14050.24
473.67	14380.25
473.85	14267.91
474.03	14785.16
474.21	14644.73
474.39	15094.11
474.57	15033.26
474.75	14878.79
474.93	14951.34
475.12	15094.11
475.30	15276.68
475.48	15246.25
475.66	15213.48
475.84	15403.07
476.02	15506.05
476.20	15370.30
476.38	15681.59
476.56	15995.22
476.74	16353.32
476.92	16189.49
477.10	15978.84
477.28	16264.38
477.46	16397.79
477.64	16421.20
477.82	16765.26
478.00	17018.04
478.18	17153.79
478.36	17193.58
478.54	17324.65
478.72	17371.46
478.90	17846.58
479.08	17940.21
479.26	17825.52
479.44	17972.97
479.62	18010.42
479.80	18284.26
479.98	18450.44
480.16	18899.83
480.34	18644.71
480.52	18642.37
480.70	18970.04
480.88	18848.33
481.06	18658.75
481.24	19033.24
481.41	19281.33
481.59	19424.11
481.77	19669.86
481.95	19852.42
482.13	20205.84
482.31	19880.51
482.49	20379.04
482.67	20081.80
482.85	20671.61
483.03	20713.74
483.21	20739.49
483.39	21025.03
483.57	21188.87
483.74	21596.12
483.92	21743.58
484.10	21448.67
484.28	22136.79
484.46	22370.84
484.64	22602.55
484.82	22499.57
485.00	22747.67
485.18	23131.51
485.35	23232.16
485.53	22829.59
485.71	23201.73
485.89	23885.17
486.07	23393.65
486.25	23929.64
486.43	23601.96
486.61	24240.93
486.78	24187.10
486.96	24442.21
487.14	24620.10
487.32	24554.56
487.50	24999.26
487.68	25336.30
487.85	25544.61
488.03	25947.18
488.21	26244.43
488.39	26146.12
488.57	26305.28
488.75	26602.53
488.92	26794.45
489.10	26948.93
489.28	26874.03
489.46	27346.82
489.64	27363.20
489.81	27819.61
489.99	27915.57
490.17	28034.94
490.35	28364.95
490.53	28390.70
490.70	28673.90
490.88	28638.80
491.06	29163.08
491.24	29097.54
491.41	29635.86
491.59	29844.17
491.77	29472.03
491.95	29809.06
492.13	29993.97
492.30	30302.92
492.48	30527.61
492.66	30181.21
492.84	30895.07
493.01	30897.41
493.19	31147.85
493.37	31538.72
493.54	31550.42
493.72	32121.51
493.90	31662.77
494.08	31796.18
494.25	32357.91
494.43	32126.19
494.61	32538.13
494.79	32610.68
494.96	33411.15
495.14	33376.04
495.32	33221.56
495.49	33514.13
495.67	33574.98
495.85	33654.56
496.02	33776.27
496.20	34232.68
496.38	34279.49
496.55	34448.00
496.73	35115.06
496.91	35101.01
497.09	35246.13
497.26	35267.19
497.44	35112.72
497.62	35314.00
497.79	36264.26
497.97	36238.51
498.14	36627.04
498.32	36538.10
498.50	36535.76
498.67	37139.62
498.85	36905.57
499.03	36926.63
499.20	37228.56
499.38	37244.94
499.56	37251.97
499.73	37427.51
499.91	37865.19
500.08	37837.10
500.26	37560.92
500.44	38089.88
500.61	38096.90
500.79	38354.36
500.97	38490.11
501.14	39077.58
501.32	38759.27
501.49	39208.65
501.67	38794.38
501.84	39178.23
502.02	39241.42
502.20	39175.89
502.37	39599.52
502.55	39611.23
502.72	39798.47
502.90	39992.73
503.07	39796.13
503.25	40084.01
503.43	40350.84
503.60	40517.01
503.78	40683.19
503.95	40870.43
504.13	40903.20
504.30	41064.70
504.48	40748.73
504.65	41258.96
504.83	41219.17
505.01	41614.72
505.18	41317.48
505.36	41755.16
505.53	41696.64
505.71	41893.25
505.88	42178.79
506.06	41820.69
506.23	42141.35
506.41	42230.29
506.58	42532.22
506.76	42450.30
506.93	42703.07
507.11	42682.01
507.28	43042.45
507.46	43260.12
507.63	43423.96
507.81	43578.43
507.98	43227.35
508.16	43789.08
508.33	43746.95
508.50	43805.47
508.68	43662.69
508.85	44512.31
509.03	44292.30
509.20	44186.97
509.38	45038.93
509.55	44907.86
509.73	45001.48
509.90	45045.95
510.08	44879.77
510.25	45162.98
510.42	45368.94
510.60	45612.36
510.77	45528.10
510.95	45860.46
511.12	45375.97
511.30	45649.81
511.47	46230.26
511.64	46012.59
511.82	46040.68
511.99	46031.32
512.17	46651.56
512.34	46167.07
512.51	46791.99
512.69	46890.29
512.86	46590.70
513.04	47161.79
513.21	47173.50
513.38	47232.01
513.56	47012.00
513.73	46829.44
513.90	47517.56
514.08	46997.96
514.25	47901.40
514.43	47910.77
514.60	47962.26
514.77	47796.08
514.95	48095.67
515.12	48301.64
515.29	48165.88
515.47	48563.78
515.64	48308.66
515.81	48165.88
515.99	48655.06
516.16	48893.79
516.33	48633.99
516.51	49223.81
516.68	48732.29
516.85	49031.88
517.03	49162.95
517.20	49368.92
517.37	49397.01
517.54	49319.77
517.72	49212.10
517.89	49656.81
518.06	49825.32
518.24	49539.78
518.41	49769.15
518.58	49834.69
518.75	49469.56
518.93	49972.78
519.10	50213.85
519.27	50258.32
519.45	50230.24
519.62	50358.97
519.79	50052.36
519.96	50171.72
520.14	50258.32
520.31	50340.24
520.48	50761.54
520.65	50710.05
520.83	50873.88
521.00	50988.57
521.17	50953.46
521.34	50955.80
521.52	51065.81
521.69	51470.72
521.86	51334.97
522.03	51669.67
522.20	51545.62
522.38	51751.59
522.55	51833.50
522.72	51646.26
522.89	51576.04
523.07	52097.98
523.24	52095.64
523.41	52055.85
523.58	51992.66
523.75	52458.43
523.92	52411.62
524.10	52182.24
524.27	52226.71
524.44	52327.36
524.61	52385.87
524.78	52500.56
524.96	52750.99
525.13	52701.84
525.30	52624.60
525.47	52727.59
525.64	52947.60
525.81	52963.98
525.98	53113.78
526.16	52891.43
526.33	52772.06
526.50	53062.29
526.67	53036.54
526.84	53322.08
527.01	53258.89
527.18	53221.44
527.36	53146.54
527.53	53516.35
527.70	53612.31
527.87	53616.99
528.04	53504.65
528.21	53616.99
528.38	53563.16
528.55	53916.58
528.72	53776.15
528.89	53820.62
529.07	53654.44
529.24	53748.06
529.41	54127.23
529.58	53876.79
529.75	54007.86
529.92	54265.32
530.09	53996.16
530.26	54232.55
530.43	54305.11
530.60	54012.54
530.77	54122.55
530.94	54358.94
531.11	54213.83
531.28	54560.23
531.46	54443.20
531.63	54948.76
531.80	54426.82
531.97	54918.33
532.14	54536.82
532.31	54777.90
532.48	54864.50
532.65	54782.58
532.82	54749.81
532.99	55042.38
533.16	54843.43
533.33	55168.77
533.50	55054.08
533.67	55241.32
533.84	55035.36
534.01	55248.35
534.18	55128.98
534.35	55538.57
534.52	55152.38
534.69	55545.59
534.86	55576.02
535.03	55180.47
535.20	55440.27
535.37	55522.19
535.54	55409.84
535.71	55704.75
535.88	55587.72
536.05	55910.72
536.22	55929.44
536.38	55805.39
536.55	55702.41
536.72	56074.55
536.89	55753.90
537.06	55515.17
537.23	55931.78
537.40	55807.73
537.57	55941.14
537.74	56200.94
537.91	56135.41
538.08	56062.85
538.25	56100.30
538.42	56196.26
538.59	56238.39
538.75	56072.21
538.92	56453.72
539.09	56427.98
539.26	56427.98
539.43	56315.63
539.60	56523.94
539.77	56530.96
539.94	56685.43
540.11	56554.36
540.28	56673.73
540.44	56657.35
540.61	56395.21
540.78	56713.52
540.95	57017.79
541.12	56521.60
541.29	56692.46
541.46	56853.95
541.62	56860.97
541.79	56750.97
541.96	56535.64
542.13	57106.73
542.30	56835.23
542.47	56966.30
542.63	57174.61
542.80	57343.12
542.97	57403.98
543.14	57677.82
543.31	57633.35
543.48	57324.40
543.64	57680.16
543.81	57717.61
543.98	57490.58
544.15	57595.90
544.32	57717.61
544.48	57942.30
544.65	57694.21
544.82	57408.66
544.99	57481.22
545.16	57792.51
545.32	57712.93
545.49	57766.76
545.66	57986.77
545.83	57755.06
546.00	57904.85
546.16	57904.85
546.33	57808.89
546.50	57771.44
546.67	57932.94
546.83	57696.55
547.00	57925.92
547.17	57991.45
547.34	57918.90
547.50	58232.53
547.67	58166.99
547.84	58031.24
548.00	58379.98
548.17	58555.52
548.34	58422.11
548.51	58494.67
548.67	58466.58
548.84	58473.60
549.01	58553.18
549.18	58204.44
549.34	58504.03
549.51	58731.06
549.68	58607.01
549.84	58375.30
550.01	58698.30
550.18	58684.25
550.34	58801.28
550.51	58663.19
550.68	58553.18
550.84	58497.01
551.01	58871.49
551.18	58925.33
551.34	58990.86
551.51	58876.18
551.68	58955.75
551.84	58820.00
552.01	58639.78
552.18	58974.48
552.34	58784.90
552.51	59068.10
552.68	58890.22
552.84	59040.01
553.01	59217.89
553.18	59007.25
553.34	59185.13
553.51	58990.86
553.67	59021.29
553.84	59419.18
554.01	59253.00
554.17	59185.13
554.34	59269.39
554.51	59196.83
554.67	59283.43
554.84	59135.98
555.00	59278.75
555.17	59358.33
555.33	59182.79
555.50	59318.54
555.67	59238.96
555.83	59339.60
556.00	59491.74
556.16	59686.00
556.33	59503.44
556.50	59430.88
556.66	59501.10
556.83	59463.65
556.99	59664.94
557.16	59707.07
557.32	59838.14
557.49	59756.22
557.65	59412.16
557.82	59348.96
557.98	59618.13
558.15	59573.66
558.32	59856.86
558.48	59613.44
558.65	59646.21
558.81	59580.68
558.98	59784.30
559.14	59760.90
559.31	59948.14
559.47	59732.81
559.64	59934.10
559.80	59943.46
559.97	59803.03
560.13	59814.73
560.30	59866.22
560.46	60236.03
560.63	59896.65
560.79	59910.69
560.96	60051.12
561.12	60149.43
561.29	59934.10
561.45	59971.55
561.61	60069.85
561.78	59873.24
561.94	60037.08
562.11	60055.81
562.27	60210.28
562.44	60128.36
562.60	60317.95
562.77	60170.49
562.93	60060.49
563.10	60203.26
563.26	59983.25
563.42	60507.53
563.59	60083.89
563.75	60123.68
563.92	60264.11
564.08	60226.66
564.24	60540.30
564.41	60385.82
564.57	60238.37
564.74	60348.37
564.90	60467.74
565.07	60498.17
565.23	60233.69
565.39	60465.40
565.56	60369.44
565.72	60432.63
565.88	60282.84
566.05	60402.21
566.21	60324.97
566.38	60320.29
566.54	60456.04
566.70	60624.56
566.87	60573.06
567.03	60313.26
567.19	60629.24
567.36	60505.19
567.52	60378.80
567.68	60580.09
567.85	60493.49
568.01	60591.79
568.17	60444.33
568.34	60573.06
568.50	60402.21
568.66	60521.57
568.83	60687.75
568.99	60357.74
569.15	60479.44
569.32	60390.50
569.48	60727.54
569.64	60776.69
569.81	60722.86
569.97	60563.70
570.13	60594.13
570.30	60610.51
570.46	60699.45
570.62	60680.73
570.78	60767.33
570.95	60662.00
571.11	60839.89
571.27	60521.57
571.43	60757.97
571.60	60797.76
571.76	60945.21
571.92	61055.21
572.09	60835.20
572.25	60919.46
572.41	60704.13
572.57	60994.36
572.74	61003.72
572.90	60985.00
573.06	60919.46
573.22	60860.95
573.38	60940.53
573.55	60949.89
573.71	60933.51
573.87	60938.19
574.03	60753.29
574.20	60846.91
574.36	60748.60
574.52	60846.91
574.68	60945.21
574.84	61123.09
575.01	60910.10
575.17	60999.04
575.33	60905.42
575.49	60980.32
575.65	60898.40
575.82	61052.87
575.98	61043.51
576.14	61188.63
576.30	61097.34
576.46	60678.39
576.62	60926.49
576.79	61059.90
576.95	60947.55
577.11	61176.92
577.27	61041.17
577.43	61160.54
577.59	61106.71
577.75	60987.34
577.92	60973.30
578.08	60917.12
578.24	60734.56
578.40	61209.69
578.56	61155.86
578.72	61050.53
578.88	61242.46
579.04	61155.86
579.21	61148.84
579.37	60980.32
579.53	61111.39
579.69	60961.59
579.85	61160.54
580.01	61015.43
580.17	60996.70
580.33	61289.27
580.49	61132.45
580.65	61176.92
580.82	60886.70
580.98	60975.64
581.14	61169.90
581.30	61296.29
581.46	61080.96
581.62	61071.60
581.78	61125.43
581.94	61153.52
582.10	61176.92
582.26	61123.09
582.42	61162.88
582.58	61095.00
582.74	61214.37
582.90	61174.58
583.06	61057.56
583.22	60987.34
583.38	61043.51
583.54	61272.88
583.70	61244.80
583.86	61254.16
584.02	61169.90
584.18	61099.68
584.34	61212.03
584.50	61394.59
584.66	61202.67
584.82	61029.47
584.98	61361.82
585.14	61293.95
585.30	61097.34
585.46	61043.51
585.62	61212.03
585.78	61258.84
585.94	61087.98
586.10	61076.28
586.26	61336.08
586.42	61237.78
586.58	61567.79
586.74	61268.20
586.90	61352.46
587.06	61207.35
587.22	61197.99
587.38	61340.76
587.54	61439.06
587.70	61488.21
587.86	61083.30
588.02	61343.10
588.18	61476.51
588.34	61153.52
588.49	61305.65
