SpectraSuite Data File
++++++++++++++++++++++++++++++++++++
Date: Fri Oct 25 11:22:44 EDT 2013
User: price-jones
Dark Spectrum Present: No
Reference Spectrum Present: No
Number of Sampled Component Spectra: 1
Spectrometers: USB2+H05261
Integration Time (usec): 100000 (USB2+H05261)
Spectra Averaged: 1 (USB2+H05261)
Boxcar Smoothing: 0 (USB2+H05261)
Correct for Electrical Dark: No (USB2+H05261)
Strobe/Lamp Enabled: No (USB2+H05261)
Correct for Detector Non-linearity: No (USB2+H05261)
Correct for Stray Light: No (USB2+H05261)
Number of Pixels in Processed Spectrum: 2048
>>>>>Begin Processed Spectral Data<<<<<
365.73	180.22
365.92	180.22
366.12	180.22
366.32	72.56
366.52	119.37
366.72	91.28
366.91	100.64
367.11	145.11
367.31	35.11
367.51	128.73
367.70	86.60
367.90	77.24
368.10	93.62
368.30	159.16
368.49	138.09
368.69	63.19
368.89	112.35
369.09	149.79
369.28	163.84
369.48	152.13
369.68	191.92
369.87	187.24
370.07	156.82
370.27	198.95
370.47	337.04
370.66	571.09
370.86	667.05
371.06	678.76
371.25	830.89
371.45	624.92
371.65	655.35
371.84	655.35
372.04	669.39
372.24	753.65
372.44	613.22
372.63	807.48
372.83	788.76
373.03	781.74
373.22	713.86
373.42	674.07
373.62	692.80
373.81	837.91
374.01	788.76
374.21	823.87
374.40	781.74
374.60	774.72
374.79	798.12
374.99	795.78
375.19	758.33
375.38	781.74
375.58	793.44
375.78	795.78
375.97	835.57
376.17	880.04
376.37	875.36
376.56	861.32
376.76	877.70
376.95	802.80
377.15	837.91
377.35	894.08
377.54	849.61
377.74	903.45
377.93	875.36
378.13	926.85
378.33	919.83
378.52	917.49
378.72	994.73
378.91	976.00
379.11	910.47
379.31	945.58
379.50	915.15
379.70	1004.09
379.89	976.00
380.09	889.40
380.28	966.64
380.48	1015.79
380.68	987.71
380.87	1018.13
381.07	997.07
381.26	1018.13
381.46	959.62
381.65	997.07
381.85	1151.54
382.04	1008.77
382.24	1144.52
382.43	1128.14
382.63	1011.11
382.83	1088.35
383.02	1128.14
383.22	1151.54
383.41	1053.24
383.61	1118.78
383.80	1114.10
384.00	1109.41
384.19	1153.88
384.39	1149.20
384.58	1191.33
384.78	1160.91
384.97	1137.50
385.17	1135.16
385.36	1149.20
385.56	1200.69
385.75	1158.57
385.95	1139.84
386.14	1135.16
386.34	1149.20
386.53	1191.33
386.72	1235.80
386.92	1207.72
387.11	1240.48
387.31	1261.55
387.50	1254.53
387.70	1221.76
387.89	1261.55
388.09	1289.64
388.28	1240.48
388.48	1277.93
388.67	1268.57
388.86	1345.81
389.06	1341.13
389.25	1371.55
389.45	1399.64
389.64	1245.16
389.84	1420.71
390.03	1486.24
390.22	1404.32
390.42	1343.47
390.61	1472.20
390.81	1465.18
391.00	1448.79
391.19	1439.43
391.39	1453.47
391.58	1404.32
391.78	1455.81
391.97	1434.75
392.16	1430.07
392.36	1481.56
392.55	1465.18
392.75	1549.43
392.94	1537.73
393.13	1547.09
393.33	1495.60
393.52	1549.43
393.71	1554.12
393.91	1577.52
394.10	1591.56
394.29	1584.54
394.49	1533.05
394.68	1619.65
394.88	1636.03
395.07	1633.69
395.26	1650.08
395.46	1692.21
395.65	1645.40
395.84	1687.53
396.04	1839.66
396.23	1659.44
396.42	1806.89
396.62	1879.45
396.81	1748.38
397.00	1657.10
397.19	1755.40
397.39	1776.47
397.58	1900.52
397.77	1921.58
397.97	1792.85
398.16	1858.39
398.35	1877.11
398.55	1928.60
398.74	1893.49
398.93	1973.07
399.12	1959.03
399.32	1891.15
399.51	2040.95
399.70	2015.20
399.90	1891.15
400.09	2057.33
400.28	2033.93
400.47	2101.80
400.67	2043.29
400.86	2125.21
401.05	2134.57
401.24	2101.80
401.44	2186.06
401.63	2235.21
401.82	2017.54
402.01	2174.36
402.21	2179.04
402.40	2165.00
402.59	2239.89
402.78	2263.30
402.97	2162.66
403.17	2183.72
403.36	2307.77
403.55	2293.72
403.74	2377.98
403.93	2319.47
404.13	2415.43
404.32	2408.41
404.51	2354.58
404.70	2516.08
404.89	2363.94
405.09	2480.97
405.28	2541.82
405.47	2530.12
405.66	2541.82
405.85	2576.93
406.05	2520.76
406.24	2623.74
406.43	2487.99
406.62	2705.66
406.81	2586.29
407.00	2698.64
407.20	2597.99
407.39	2633.10
407.58	2682.25
407.77	2708.00
407.96	2567.57
408.15	2693.96
408.34	2754.81
408.54	2787.58
408.73	2818.00
408.92	2888.22
409.11	2700.98
409.30	2916.31
409.49	2932.69
409.68	3084.83
409.87	2918.65
410.07	3066.10
410.26	3052.06
410.45	2958.44
410.64	3129.30
410.83	3103.55
411.02	3054.40
411.21	3129.30
411.40	3016.95
411.59	3265.05
411.78	3229.94
411.98	3311.86
412.17	3215.90
412.36	3361.01
412.55	3361.01
412.74	3496.76
412.93	3555.27
413.12	3370.37
413.31	3541.23
413.50	3482.72
413.69	3517.83
413.88	3559.95
414.07	3531.87
414.26	3545.91
414.45	3691.02
414.64	3618.47
414.83	3742.52
415.02	3819.75
415.22	3859.54
415.41	3831.46
415.60	3925.08
415.79	3962.53
415.98	3999.98
416.17	3939.12
416.36	3871.25
416.55	3985.93
416.74	4035.08
416.93	4079.55
417.12	4014.02
417.31	4025.72
417.50	4203.60
417.69	4285.52
417.88	4266.80
418.07	4194.24
418.26	4292.54
418.45	4341.69
418.64	4631.92
418.83	4292.54
419.02	4524.26
419.21	4510.21
419.39	4451.70
419.58	4582.77
419.77	4442.34
419.96	4648.30
420.15	4685.75
420.34	4683.41
420.53	4538.30
420.72	4695.11
420.91	4690.43
421.10	4746.61
421.29	4847.25
421.48	4657.67
421.67	4931.51
421.86	4791.08
422.05	4807.46
422.24	4800.44
422.43	4966.62
422.61	5015.77
422.80	5018.11
422.99	4905.76
423.18	4896.40
423.37	5146.84
423.56	4842.57
423.75	5020.45
423.94	4903.42
424.13	4655.33
424.32	4802.78
424.50	5046.20
424.69	5207.69
424.88	5043.85
425.07	5067.26
425.26	4912.78
425.45	4999.38
425.64	4997.04
425.83	4877.68
426.01	5137.48
426.20	5228.76
426.39	5245.14
426.58	5221.74
426.77	5081.30
426.96	5090.67
427.15	5205.35
427.33	5135.14
427.52	5130.45
427.71	5156.20
427.90	5324.72
428.09	5305.99
428.28	5416.00
428.46	5518.98
428.65	5301.31
428.84	5628.99
429.03	5427.70
429.22	5280.25
429.40	5631.33
429.59	5465.15
429.78	5310.68
429.97	5322.38
430.16	5526.00
430.34	5579.84
430.53	5682.82
430.72	5528.35
430.91	5605.58
431.10	5563.45
431.28	5659.42
431.47	5975.39
431.66	5949.64
431.85	5708.57
432.03	5846.66
432.22	5973.05
432.41	6040.92
432.60	5870.06
432.79	5973.05
432.97	5980.07
433.16	6101.78
433.35	5879.43
433.54	6066.67
433.72	6162.63
433.91	6134.54
434.10	6141.57
434.28	6108.80
434.47	6289.02
434.66	6251.57
434.85	6363.92
435.03	6366.26
435.22	6155.61
435.41	6548.82
435.59	6511.37
435.78	6483.28
435.97	6452.86
436.16	6387.32
436.34	6520.73
436.53	6429.45
436.72	6565.20
436.90	6511.37
437.09	6654.14
437.28	6527.75
437.46	6593.29
437.65	6682.23
437.84	6801.60
438.02	6806.28
438.21	6827.34
438.40	6846.07
438.58	7042.67
438.77	6822.66
438.96	6939.69
439.14	7194.81
439.33	7094.16
439.52	7241.62
439.70	7260.34
439.89	7328.22
440.08	7520.14
440.26	7552.91
440.45	7398.43
440.63	7555.25
440.82	7595.04
441.01	7716.75
441.19	7709.72
441.38	7791.64
441.57	7653.55
441.75	7786.96
441.94	7946.12
442.12	7831.43
442.31	7808.03
442.50	8056.12
442.68	7981.23
442.87	8297.20
443.05	8088.89
443.24	8222.30
443.43	8229.32
443.61	8318.26
443.80	8376.78
443.98	8004.63
444.17	8030.38
444.35	8292.52
444.54	8430.61
444.73	8465.72
444.91	8526.57
445.10	8264.43
445.28	8339.33
445.47	8306.56
445.65	8173.15
445.84	8383.80
446.02	8568.70
446.21	8421.25
446.39	8367.42
446.58	8589.77
446.77	8428.27
446.95	8383.80
447.14	8414.23
447.32	8449.33
447.51	8610.83
447.69	8418.91
447.88	8622.53
448.06	8706.79
448.25	8564.02
448.43	8571.04
448.62	8631.90
448.80	8578.06
448.99	8758.28
449.17	8615.51
449.36	8734.88
449.54	9004.04
449.73	8870.63
449.91	8990.00
450.10	8847.22
450.28	9111.71
450.46	8987.66
450.65	9125.75
450.83	9048.51
451.02	8898.72
451.20	9116.39
451.39	9404.27
451.57	9020.42
451.76	9233.41
451.94	9305.97
452.13	9280.22
452.31	9284.91
452.49	9195.96
452.68	9458.10
452.86	9348.10
453.05	9397.25
453.23	9600.88
453.42	9334.06
453.60	9334.06
453.78	9675.77
453.97	9530.66
454.15	9486.19
454.34	9376.19
454.52	9961.32
454.70	9638.33
454.89	9760.03
455.07	9844.29
455.26	9832.59
455.44	9837.27
455.62	9940.26
455.81	10099.41
455.99	9834.93
456.17	10345.17
456.36	10181.33
456.54	10155.58
456.73	10314.74
456.91	10544.11
457.09	10588.58
457.28	10487.94
457.46	10181.33
457.64	10370.91
457.83	10265.59
458.01	10555.82
458.19	10759.44
458.38	10754.76
458.56	10927.96
458.74	10778.17
458.93	10719.65
459.11	10761.78
459.29	10944.34
459.48	10761.78
459.66	10930.30
459.84	10750.08
460.03	11082.44
460.21	11005.20
460.39	11115.20
460.57	11044.99
460.76	11239.25
460.94	11370.32
461.12	11176.06
461.31	10836.68
461.49	11255.64
461.67	11112.86
461.85	11597.35
462.04	11442.88
462.22	11702.68
462.40	11672.25
462.59	11552.88
462.77	11424.15
462.95	11672.25
463.13	11552.88
463.32	11578.63
463.50	11698.00
463.68	11831.41
463.86	11894.60
464.05	11791.62
464.23	11466.28
464.41	11667.57
464.59	11573.95
464.78	12002.27
464.96	12002.27
465.14	11815.02
465.32	12166.10
465.50	12046.74
465.69	12269.09
465.87	12250.36
466.05	11925.03
466.23	12343.99
466.41	12313.56
466.60	12444.63
466.78	12217.60
466.96	12264.41
467.14	12217.60
467.32	12325.26
467.51	12542.93
467.69	12404.84
467.87	12542.93
468.05	12730.17
468.23	12503.14
468.41	12631.87
468.60	12610.81
468.78	12683.36
468.96	12690.38
469.14	13001.68
469.32	13123.38
469.50	12638.89
469.69	12985.29
469.87	13097.64
470.05	13090.62
470.23	13118.70
470.41	13221.69
470.59	13565.74
470.77	13404.25
470.95	13317.65
471.14	13600.85
471.32	13214.66
471.50	13572.77
471.68	13586.81
471.86	13743.63
472.04	13720.22
472.22	14242.16
472.40	14029.17
472.58	13907.46
472.77	13853.63
472.95	14071.30
473.13	14644.73
473.31	14120.45
473.49	14164.92
473.67	14188.33
473.85	14567.49
474.03	14621.33
474.21	14799.21
474.39	14923.26
474.57	14726.65
474.75	15243.91
474.93	15094.11
475.12	15073.05
475.30	15178.37
475.48	15101.14
475.66	15431.15
475.84	15367.96
476.02	15613.71
476.20	15272.00
476.38	15686.27
476.56	15896.92
476.74	15908.62
476.92	15957.77
477.10	15903.94
477.28	16198.85
477.46	16283.11
477.64	16271.40
477.82	16507.80
478.00	16879.94
478.18	16716.11
478.36	16971.22
478.54	17202.94
478.72	17394.86
478.90	17191.23
479.08	17621.89
479.26	17804.46
479.44	17785.73
479.62	17610.19
479.80	18260.86
479.98	18197.67
480.16	18691.52
480.34	18441.08
480.52	18820.25
480.70	18857.70
480.88	18544.06
481.06	18848.33
481.24	18780.46
481.41	19138.56
481.59	19522.41
481.77	19564.54
481.95	19538.79
482.13	19693.27
482.31	19389.00
482.49	20372.02
482.67	20093.50
482.85	20671.61
483.03	20547.56
483.21	20697.36
483.39	21111.63
483.57	21104.61
483.74	21069.50
483.92	21813.79
484.10	21420.58
484.28	21624.21
484.46	21968.27
484.64	22417.65
484.82	22031.46
485.00	22361.48
485.18	22742.99
485.35	23056.62
485.53	22829.59
485.71	23098.75
485.89	23660.48
486.07	23431.10
486.25	23527.06
486.43	23669.84
486.61	24395.40
486.78	24212.84
486.96	24402.43
487.14	24730.10
487.32	24748.82
487.50	25104.59
487.68	25020.33
487.85	25305.87
488.03	25450.99
488.21	25905.05
488.39	25748.23
488.57	26148.46
488.75	26398.90
488.92	26801.47
489.10	26693.81
489.28	26405.92
489.46	27538.74
489.64	27236.81
489.81	27700.24
489.99	27466.19
490.17	28044.30
490.35	28201.11
490.53	27981.10
490.70	28217.50
490.88	28814.34
491.06	28900.94
491.24	28830.72
491.41	29006.26
491.59	29310.53
491.77	29635.86
491.95	29961.20
492.13	30010.35
492.30	30251.42
492.48	30110.99
492.66	30539.31
492.84	30796.77
493.01	30773.36
493.19	30871.67
493.37	31218.07
493.54	31569.15
493.72	31988.10
493.90	31466.16
494.08	32102.79
494.25	32446.85
494.43	31793.84
494.61	32725.37
494.79	32870.48
494.96	32615.37
495.14	32788.56
495.32	33247.31
495.49	33076.45
495.67	33369.02
495.85	34064.16
496.02	33811.38
496.20	34003.30
496.38	34078.20
496.55	34405.88
496.73	35175.91
496.91	34817.81
497.09	34911.43
497.26	35168.89
497.44	34621.20
497.62	35653.38
497.79	35489.54
497.97	35725.94
498.14	35838.28
498.32	36519.38
498.50	36439.80
498.67	37027.28
498.85	36517.04
499.03	36905.57
499.20	37277.71
499.38	37038.98
499.56	36917.27
499.73	37294.10
499.91	37371.33
500.08	37743.48
500.26	37757.52
500.44	37853.48
500.61	38019.66
500.79	37848.80
500.97	38153.07
501.14	38768.63
501.32	38792.04
501.49	38806.08
501.67	38829.49
501.84	39335.04
502.02	38679.69
502.20	39386.54
502.37	39271.85
502.55	39524.63
502.72	39868.69
502.90	39817.19
503.07	39948.26
503.25	40254.87
503.43	39988.05
503.60	40432.75
503.78	40678.51
503.95	40334.45
504.13	40650.42
504.30	41031.93
504.48	40275.94
504.65	40912.56
504.83	41263.64
505.01	42031.34
505.18	41394.71
505.36	41900.27
505.53	41312.80
505.71	41549.19
505.88	42178.79
506.06	41743.45
506.23	42204.54
506.41	42059.43
506.58	42443.27
506.76	42351.99
506.93	42843.51
507.11	42373.06
507.28	43007.34
507.46	42824.78
507.63	43395.87
507.81	44067.61
507.98	43065.86
508.16	43449.70
508.33	43622.90
508.50	43835.89
508.68	43711.84
508.85	44336.77
509.03	43966.96
509.20	44306.34
509.38	44598.91
509.55	44451.45
509.73	44947.65
509.90	44662.10
510.08	44975.73
510.25	44886.79
510.42	44940.63
510.60	45207.45
510.77	45457.88
510.95	45539.80
511.12	45574.91
511.30	45090.42
511.47	45727.05
511.64	45806.62
511.82	45961.10
511.99	45677.90
512.17	46508.79
512.34	46068.76
512.51	46424.53
512.69	47033.07
512.86	46375.37
513.04	46934.76
513.21	46953.49
513.38	46857.52
513.56	47004.98
513.73	46979.23
513.90	47264.78
514.08	47189.88
514.25	47351.38
514.43	47653.31
514.60	47524.58
514.77	47681.39
514.95	48151.84
515.12	47461.38
515.29	48130.78
515.47	48268.87
515.64	48531.01
515.81	47789.06
515.99	48208.01
516.16	48727.61
516.33	48692.50
516.51	48664.42
516.68	48671.44
516.85	48453.77
517.03	49364.24
517.20	48910.17
517.37	49097.42
517.54	49230.83
517.72	49214.44
517.89	49504.67
518.06	49521.05
518.24	49565.52
518.41	49413.39
518.58	49371.26
518.75	49530.42
518.93	49736.38
519.10	49715.32
519.27	49909.58
519.45	49991.50
519.62	50120.23
519.79	49916.61
519.96	49890.86
520.14	50443.23
520.31	50167.04
520.48	50415.14
520.65	50202.15
520.83	50937.08
521.00	50852.82
521.17	50801.33
521.34	50798.99
521.52	51388.80
521.69	51126.66
521.86	51234.33
522.03	51224.96
522.20	51501.15
522.38	51763.29
522.55	51363.06
522.72	51388.80
522.89	51475.40
523.07	51700.09
523.24	51466.04
523.41	51756.27
523.58	51487.10
523.75	52151.82
523.92	52093.30
524.10	51987.98
524.27	52105.01
524.44	52198.63
524.61	52505.24
524.78	52493.54
524.96	52212.67
525.13	52287.57
525.30	52678.44
525.47	52701.84
525.64	52720.57
525.81	52835.25
525.98	52692.48
526.16	52699.50
526.33	52898.45
526.50	53109.10
526.67	53141.86
526.84	53214.42
527.01	52861.00
527.18	52896.11
527.36	53064.63
527.53	53113.78
527.70	53488.26
527.87	53729.34
528.04	53371.24
528.21	53439.11
528.38	53488.26
528.55	53574.86
528.72	53301.02
528.89	53476.56
529.07	53638.06
529.24	53631.04
529.41	53895.52
529.58	53703.59
529.75	53858.07
529.92	54150.63
530.09	54066.38
530.26	54169.36
530.43	54225.53
530.60	54071.06
530.77	54314.47
530.94	54160.00
531.11	54356.60
531.28	54342.56
531.46	54333.20
531.63	54543.84
531.80	54389.37
531.97	54403.41
532.14	54356.60
532.31	54520.44
532.48	54571.93
532.65	54628.10
532.82	54588.31
532.99	54820.03
533.16	55091.53
533.33	54913.65
533.50	54878.54
533.67	54869.18
533.84	54635.13
534.01	55145.36
534.18	55131.32
534.35	55304.52
534.52	55044.72
534.69	55501.12
534.86	55304.52
535.03	55201.53
535.20	55337.29
535.37	55442.61
535.54	55554.96
535.71	55454.31
535.88	55618.15
536.05	55536.23
536.22	55681.34
536.38	55730.50
536.55	55842.84
536.72	55618.15
536.89	55580.70
537.06	55618.15
537.23	56172.86
537.40	55786.67
537.57	55819.44
537.74	55884.97
537.91	56100.30
538.08	56090.94
538.25	55767.94
538.42	56097.96
538.59	56292.22
538.75	55903.70
538.92	56200.94
539.09	56346.06
539.26	56217.33
539.43	56334.35
539.60	56294.56
539.77	56086.26
539.94	56711.18
540.11	56353.08
540.28	56437.34
540.44	56509.89
540.61	56559.05
540.78	56484.15
540.95	56676.07
541.12	56584.79
541.29	56825.87
541.46	56547.34
541.62	56727.56
541.79	56718.20
541.96	56397.55
542.13	56708.84
542.30	56640.96
542.47	56793.10
542.63	56980.34
542.80	57090.35
542.97	57230.78
543.14	57310.36
543.31	57352.49
543.48	57235.46
543.64	57827.62
543.81	57394.62
543.98	57581.86
544.15	57476.54
544.32	57591.22
544.48	57755.06
544.65	57528.03
544.82	57476.54
544.99	57368.87
545.16	57502.28
545.32	57511.64
545.49	57598.24
545.66	57946.98
545.83	57640.37
546.00	57708.25
546.16	57886.13
546.33	57621.65
546.50	57708.25
546.67	57808.89
546.83	57492.92
547.00	57909.53
547.17	57722.29
547.34	58082.73
547.50	57942.30
547.67	58286.36
547.84	58157.63
548.00	58447.86
548.17	58370.62
548.34	58174.02
548.51	58269.98
548.67	58337.85
548.84	58398.71
549.01	58403.39
549.18	58251.25
549.34	58410.41
549.51	58356.58
549.68	58319.13
549.84	58522.76
550.01	58749.79
550.18	58433.81
550.34	58522.76
550.51	58489.99
550.68	58644.46
550.84	58452.54
551.01	58501.69
551.18	58904.26
551.34	58789.58
551.51	58892.56
551.68	58775.53
551.84	58747.45
552.01	58571.91
552.18	58635.10
552.34	58630.42
552.51	58993.20
552.68	58892.56
552.84	58845.75
553.01	59051.72
553.18	59121.93
553.34	58941.71
553.51	58899.58
553.67	58838.73
553.84	59049.38
554.01	59025.97
554.17	59082.14
554.34	59110.23
554.51	58993.20
554.67	59086.82
554.84	59126.61
555.00	59157.04
555.17	58922.99
555.33	59168.74
555.50	59157.04
555.67	59217.89
555.83	59011.93
556.00	59288.11
556.16	59641.53
556.33	59412.16
556.50	59405.14
556.66	59426.20
556.83	59089.16
556.99	59447.27
557.16	59573.66
557.32	59482.37
557.49	59796.01
557.65	59351.30
557.82	59341.94
557.98	59480.03
558.15	59611.10
558.32	59547.91
558.48	59496.42
558.65	59576.00
558.81	59540.89
558.98	59681.32
559.14	59639.19
559.31	59751.54
559.47	59812.39
559.64	59891.97
559.80	59779.62
559.97	59814.73
560.13	59742.17
560.30	59777.28
560.46	59868.56
560.63	59819.41
560.79	59962.18
560.96	59810.05
561.12	60053.47
561.29	59941.12
561.45	60039.42
561.61	59859.20
561.78	59835.80
561.94	59880.27
562.11	59845.16
562.27	60126.02
562.44	59866.22
562.60	60172.83
562.77	60065.17
562.93	60016.02
563.10	60053.47
563.26	59964.52
563.42	60397.52
563.59	60203.26
563.75	60072.19
563.92	60069.85
564.08	59765.58
564.24	60292.20
564.41	60158.79
564.57	60301.56
564.74	60205.60
564.90	60346.03
565.07	60254.75
565.23	60128.36
565.39	60381.14
565.56	60205.60
565.72	60163.47
565.88	60264.11
566.05	60245.39
566.21	59985.59
566.38	60465.40
566.54	60388.16
566.70	60275.82
566.87	60652.64
567.03	60294.54
567.19	60376.46
567.36	60650.30
567.52	60369.44
567.68	60669.03
567.85	60530.93
568.01	60521.57
568.17	60474.76
568.34	60437.31
568.50	60364.76
568.66	60221.98
568.83	60465.40
568.99	60502.85
569.15	60542.64
569.32	60418.59
569.48	60324.97
569.64	60491.15
569.81	60523.91
569.97	60231.35
570.13	60753.29
570.30	60640.94
570.46	60657.32
570.62	60685.41
570.78	60659.66
570.95	60484.12
571.11	60814.14
571.27	60786.05
571.43	60502.85
571.60	60912.44
571.76	60715.84
571.92	60718.18
572.09	60561.36
572.25	60858.61
572.41	60739.24
572.57	60666.69
572.74	60856.27
572.90	60835.20
573.06	60772.01
573.22	60732.22
573.38	60945.21
573.55	60654.98
573.71	60999.04
573.87	60711.16
574.03	60626.90
574.20	60842.23
574.36	60718.18
574.52	60781.37
574.68	60945.21
574.84	61069.26
575.01	60933.51
575.17	60750.94
575.33	60867.97
575.49	60919.46
575.65	60994.36
575.82	60676.05
575.98	60683.07
576.14	61045.85
576.30	60959.25
576.46	60977.98
576.62	60757.97
576.79	60669.03
576.95	60687.75
577.11	60828.18
577.27	61015.43
577.43	60764.99
577.59	60865.63
577.75	60757.97
577.92	60795.42
578.08	61034.15
578.24	60896.06
578.40	61069.26
578.56	61249.48
578.72	60872.65
578.88	60893.72
579.04	61139.47
579.21	60968.61
579.37	60985.00
579.53	61228.41
579.69	60741.58
579.85	60926.49
580.01	61066.92
580.17	60874.99
580.33	60931.17
580.49	61109.05
580.65	61062.24
580.82	60996.70
580.98	60975.64
581.14	60860.95
581.30	61141.81
581.46	61017.77
581.62	61127.77
581.78	60994.36
581.94	61176.92
582.10	60874.99
582.26	61017.77
582.42	61176.92
582.58	60994.36
582.74	61071.60
582.90	61059.90
583.06	61116.07
583.22	60748.60
583.38	61151.18
583.54	61034.15
583.70	61151.18
583.86	61104.37
584.02	60954.57
584.18	61251.82
584.34	61073.94
584.50	61024.79
584.66	61120.75
584.82	60973.30
584.98	61237.78
585.14	61134.79
585.30	61043.51
585.46	61083.30
585.62	61151.18
585.78	61312.67
585.94	60870.31
586.10	61059.90
586.26	61099.68
586.42	61277.57
586.58	61214.37
586.74	61132.45
586.90	61193.31
587.06	61233.10
587.22	61172.24
587.38	61165.22
587.54	61319.70
587.70	61237.78
587.86	61214.37
588.02	61144.16
588.18	61324.38
588.34	61319.70
588.49	61069.26
