SpectraSuite Data File
++++++++++++++++++++++++++++++++++++
Date: Fri Oct 25 10:44:43 EDT 2013
User: price-jones
Dark Spectrum Present: No
Reference Spectrum Present: No
Number of Sampled Component Spectra: 1
Spectrometers: USB2+H05261
Integration Time (usec): 100000 (USB2+H05261)
Spectra Averaged: 1 (USB2+H05261)
Boxcar Smoothing: 0 (USB2+H05261)
Correct for Electrical Dark: No (USB2+H05261)
Strobe/Lamp Enabled: No (USB2+H05261)
Correct for Detector Non-linearity: No (USB2+H05261)
Correct for Stray Light: No (USB2+H05261)
Number of Pixels in Processed Spectrum: 2048
>>>>>Begin Processed Spectral Data<<<<<
365.73	112.35
365.92	112.35
366.12	112.35
366.32	42.13
366.52	88.94
366.72	0.00
366.91	63.19
367.11	0.00
367.31	44.47
367.51	14.04
367.70	74.90
367.90	56.17
368.10	9.36
368.30	107.66
368.49	18.72
368.69	32.77
368.89	84.26
369.09	42.13
369.28	0.00
369.48	4.68
369.68	79.58
369.87	102.98
370.07	88.94
370.27	145.11
370.47	201.29
370.66	330.02
370.86	367.46
371.06	451.72
371.25	393.21
371.45	411.93
371.65	444.70
371.84	425.98
372.04	425.98
372.24	505.56
372.44	447.04
372.63	489.17
372.83	442.36
373.03	461.09
373.22	475.13
373.42	505.56
373.62	425.98
373.81	514.92
374.01	610.88
374.21	554.71
374.40	498.53
374.60	428.32
374.79	573.43
374.99	526.62
375.19	510.24
375.38	603.86
375.58	507.90
375.78	505.56
375.97	554.71
376.17	608.54
376.37	613.22
376.56	538.32
376.76	540.66
376.95	561.73
377.15	578.11
377.35	660.03
377.54	634.29
377.74	606.20
377.93	585.13
378.13	606.20
378.33	634.29
378.52	545.34
378.72	699.82
378.91	617.90
379.11	603.86
379.31	610.88
379.50	575.77
379.70	662.37
379.89	603.86
380.09	667.05
380.28	608.54
380.48	601.52
380.68	683.44
380.87	606.20
381.07	631.94
381.26	627.26
381.46	676.41
381.65	603.86
381.85	610.88
382.04	645.99
382.24	720.88
382.43	678.76
382.63	676.41
382.83	667.05
383.02	660.03
383.22	657.69
383.41	657.69
383.61	767.70
383.80	706.84
384.00	816.85
384.19	660.03
384.39	713.86
384.58	662.37
384.78	746.63
384.97	720.88
385.17	706.84
385.36	751.31
385.56	805.14
385.75	758.33
385.95	730.25
386.14	744.29
386.34	732.59
386.53	774.72
386.72	720.88
386.92	821.53
387.11	809.83
387.31	725.57
387.50	793.44
387.70	868.34
387.89	800.46
388.09	784.08
388.28	793.44
388.48	793.44
388.67	858.98
388.86	821.53
389.06	816.85
389.25	842.59
389.45	870.68
389.64	917.49
389.84	835.57
390.03	880.04
390.22	943.24
390.42	903.45
390.61	898.77
390.81	889.40
391.00	943.24
391.19	964.30
391.39	971.32
391.58	1067.28
391.78	945.58
391.97	947.92
392.16	973.66
392.36	968.98
392.55	929.19
392.75	929.19
392.94	915.15
393.13	983.02
393.33	966.64
393.52	1050.90
393.71	1083.67
393.91	1086.01
394.10	1039.20
394.29	1090.69
394.49	1041.54
394.68	1076.65
394.88	1146.86
395.07	1078.99
395.26	1036.86
395.46	1151.54
395.65	1128.14
395.84	1118.78
396.04	1167.93
396.23	1093.03
396.42	1064.94
396.62	1160.91
396.81	1095.37
397.00	1109.41
397.19	1221.76
397.39	1280.27
397.58	1327.08
397.77	1231.12
397.97	1427.73
398.16	1228.78
398.35	1291.98
398.55	1345.81
398.74	1313.04
398.93	1425.39
399.12	1308.36
399.32	1385.60
399.51	1390.28
399.70	1394.96
399.90	1416.02
400.09	1404.32
400.28	1390.28
400.47	1495.60
400.67	1465.18
400.86	1430.07
401.05	1530.71
401.24	1427.73
401.44	1481.56
401.63	1495.60
401.82	1528.37
402.01	1521.35
402.21	1486.24
402.40	1561.14
402.59	1495.60
402.78	1465.18
402.97	1593.90
403.17	1568.16
403.36	1537.73
403.55	1586.88
403.74	1643.06
403.93	1678.16
404.13	1584.54
404.32	1682.85
404.51	1640.72
404.70	1685.19
404.89	1732.00
405.09	1629.01
405.28	1783.49
405.47	1652.42
405.66	1753.06
405.85	1778.81
406.05	1874.77
406.24	1792.85
406.43	1783.49
406.62	1860.73
406.81	1874.77
407.00	1844.34
407.20	1764.76
407.39	1842.00
407.58	1907.54
407.77	1973.07
407.96	1961.37
408.15	2050.31
408.34	1937.96
408.54	2113.50
408.73	2036.27
408.92	2008.18
409.11	2024.56
409.30	2045.63
409.49	1966.05
409.68	1968.39
409.87	2132.23
410.07	2083.08
410.26	2160.31
410.45	2165.00
410.64	2165.00
410.83	2162.66
411.02	2209.47
411.21	2366.28
411.40	2307.77
411.59	2345.22
411.78	2272.66
411.98	2303.09
412.17	2300.75
412.36	2408.41
412.55	2443.52
412.74	2462.24
412.93	2429.48
413.12	2413.09
413.31	2581.61
413.50	2469.27
413.69	2513.74
413.88	2588.63
414.07	2544.16
414.26	2642.46
414.45	2607.36
414.64	2609.70
414.83	2778.22
415.02	2649.49
415.22	2658.85
415.41	2785.24
415.60	2747.79
415.79	2775.88
415.98	2960.78
416.17	2810.98
416.36	2899.92
416.55	2890.56
416.74	3026.31
416.93	2939.71
417.12	2892.90
417.31	2916.31
417.50	2993.55
417.69	3236.96
417.88	3152.70
418.07	3087.17
418.26	3087.17
418.45	3141.00
418.64	3339.94
418.83	3194.83
419.02	3197.17
419.21	3227.60
419.39	3269.73
419.58	3201.85
419.77	3300.16
419.96	3361.01
420.15	3419.52
420.34	3414.84
420.53	3335.26
420.72	3356.33
420.91	3262.71
421.10	3384.41
421.29	3506.12
421.48	3311.86
421.67	3389.10
421.86	3407.82
422.05	3405.48
422.24	3398.46
422.43	3438.25
422.61	3389.10
422.80	3517.83
422.99	3454.63
423.18	3524.85
423.37	3613.79
423.56	3478.04
423.75	3740.18
423.94	3431.23
424.13	3229.94
424.32	3463.99
424.50	3616.13
424.69	3595.06
424.88	3590.38
425.07	3454.63
425.26	3538.89
425.45	3440.59
425.64	3550.59
425.83	3588.04
426.01	3618.47
426.20	3585.70
426.39	3627.83
426.58	3665.28
426.77	3559.95
426.96	3658.26
427.15	3524.85
427.33	3782.31
427.52	3646.55
427.71	3555.27
427.90	3719.11
428.09	3808.05
428.28	3772.94
428.46	3735.50
428.65	3747.20
428.84	3831.46
429.03	3749.54
429.22	3735.50
429.40	3798.69
429.59	3761.24
429.78	3681.66
429.97	3616.13
430.16	3702.73
430.34	3892.31
430.53	3906.35
430.72	3852.52
430.91	3894.65
431.10	3822.09
431.28	4014.02
431.47	4133.39
431.66	4238.71
431.85	4208.28
432.03	4145.09
432.22	4262.12
432.41	4215.30
432.60	4250.41
432.79	4322.97
432.97	4283.18
433.16	4236.37
433.35	4168.49
433.54	4170.83
433.72	4234.03
433.91	4423.61
434.10	4428.29
434.28	4217.65
434.47	4166.15
434.66	4489.15
434.85	4308.93
435.03	4559.36
435.22	4463.40
435.41	4613.20
435.59	4636.60
435.78	4582.77
435.97	4716.18
436.16	4596.81
436.34	4491.49
436.53	4500.85
436.72	4760.65
436.90	4713.84
437.09	4524.26
437.28	4521.92
437.46	4496.17
437.65	4547.66
437.84	4655.33
438.02	4835.55
438.21	4762.99
438.40	4664.69
438.58	4854.27
438.77	5149.18
438.96	4952.57
439.14	4889.38
439.33	5123.43
439.52	4992.36
439.70	4964.28
439.89	5195.99
440.08	5125.77
440.26	5107.05
440.45	5224.08
440.63	5329.40
440.82	5345.78
441.01	5298.97
441.19	5338.76
441.38	5540.05
441.57	5380.89
441.75	5544.73
441.94	5610.26
442.12	5713.25
442.31	5692.18
442.50	5841.98
442.68	5757.72
442.87	5755.38
443.05	5734.31
443.24	5790.49
443.43	5940.28
443.61	5748.36
443.80	6083.05
443.98	5767.08
444.17	5682.82
444.35	5781.12
444.54	5928.58
444.73	6019.86
444.91	5919.21
445.10	5900.49
445.28	5769.42
445.47	5764.74
445.65	5790.49
445.84	5832.62
446.02	5933.26
446.21	5961.34
446.39	5951.98
446.58	6045.60
446.77	6031.56
446.95	5844.32
447.14	5930.92
447.32	6155.61
447.51	5928.58
447.69	5984.75
447.88	5942.62
448.06	6197.74
448.25	6160.29
448.43	6050.28
448.62	6064.33
448.80	5888.79
448.99	6090.07
449.17	6218.80
449.36	5989.43
449.54	6188.38
449.73	6223.48
449.91	6429.45
450.10	6260.93
450.28	6333.49
450.46	6410.73
450.65	6436.47
450.83	6572.22
451.02	6654.14
451.20	6438.81
451.39	6623.72
451.57	6511.37
451.76	6443.49
451.94	6464.56
452.13	6471.58
452.31	6392.00
452.49	6296.04
452.68	6602.65
452.86	6469.24
453.05	6600.31
453.23	6539.46
453.42	6565.20
453.60	6422.43
453.78	6778.19
453.97	6794.58
454.15	6754.79
454.34	6607.33
454.52	6679.89
454.70	6696.27
454.89	6773.51
455.07	6832.02
455.26	6820.32
455.44	6965.43
455.62	6953.73
455.81	6890.54
455.99	7040.33
456.17	7054.37
456.36	7026.29
456.54	7131.61
456.73	7330.56
456.91	7194.81
457.09	7281.41
457.28	7325.88
457.46	7176.08
457.64	7463.97
457.83	7389.07
458.01	7197.15
458.19	7323.54
458.38	7358.64
458.56	7466.31
458.74	7389.07
458.93	7405.46
459.11	7438.22
459.29	7550.57
459.48	7499.08
459.66	7536.52
459.84	7559.93
460.03	7765.90
460.21	7777.60
460.39	7520.14
460.57	7581.00
460.76	7777.60
460.94	7730.79
461.12	7763.56
461.31	7826.75
461.49	7798.66
461.67	7714.41
461.85	7850.16
462.04	8046.76
462.22	7983.57
462.40	8006.97
462.59	7852.50
462.77	7946.12
462.95	8081.87
463.13	7843.14
463.32	8018.68
463.50	8140.38
463.68	8009.31
463.86	8067.83
464.05	8234.00
464.23	8013.99
464.41	8184.85
464.59	8086.55
464.78	8355.71
464.96	8131.02
465.14	8278.47
465.32	8461.04
465.50	8409.54
465.69	8472.74
465.87	8224.64
466.05	8458.70
466.23	8250.39
466.41	8360.39
466.60	8578.06
466.78	8173.15
466.96	8400.18
467.14	8503.17
467.32	8524.23
467.51	8568.70
467.69	8353.37
467.87	8479.76
468.05	8613.17
468.23	8582.74
468.41	8622.53
468.60	8645.94
468.78	8557.00
468.96	8744.24
469.14	8812.12
469.32	8959.57
469.50	8793.39
469.69	8858.93
469.87	8777.01
470.05	8896.38
470.23	9011.06
470.41	9008.72
470.59	8821.48
470.77	8973.61
470.95	8950.21
471.14	9083.62
471.32	9137.45
471.50	9167.88
471.68	9301.29
471.86	9406.61
472.04	9378.53
472.22	9563.43
472.40	9357.46
472.58	9619.60
472.77	9432.36
472.95	9565.77
473.13	9750.67
473.31	9561.09
473.49	9652.37
473.67	9827.91
473.85	9720.24
474.03	10017.49
474.21	9823.23
474.39	9856.00
474.57	10153.24
474.75	10164.95
474.93	10010.47
475.12	10136.86
475.30	10354.53
475.48	10242.18
475.66	10291.34
475.84	10171.97
476.02	10403.68
476.20	10260.91
476.38	10665.82
476.56	10979.45
476.74	10677.52
476.92	10808.59
477.10	10810.93
477.28	11068.39
477.46	11044.99
477.64	11351.60
477.82	11176.06
478.00	11536.50
478.18	11337.56
478.36	11360.96
478.54	11389.05
478.72	11756.51
478.90	11651.19
479.08	11833.75
479.26	12205.89
479.44	11833.75
479.62	12025.67
479.80	12168.45
479.98	11908.65
480.16	12290.15
480.34	12463.35
480.52	12533.57
480.70	12603.78
480.88	12343.99
481.06	12744.22
481.24	12528.89
481.41	12863.58
481.59	13050.83
481.77	13057.85
481.95	13074.23
482.13	13172.54
482.31	13329.35
482.49	13390.20
482.67	13612.56
482.85	13984.70
483.03	13855.97
483.21	13816.18
483.39	14038.53
483.57	14005.77
483.74	14265.57
483.92	14427.06
484.10	14211.73
484.28	14455.15
484.46	14867.08
484.64	15037.94
484.82	14651.75
485.00	14944.32
485.18	15073.05
485.35	15150.29
485.53	14902.19
485.71	15028.58
485.89	15213.48
486.07	15342.21
486.25	15484.98
486.43	15833.72
486.61	15852.45
486.78	15960.11
486.96	15978.84
487.14	16479.71
487.32	16343.96
487.50	16376.73
487.68	16568.65
487.85	16919.73
488.03	17043.78
488.21	17088.25
488.39	17036.76
488.57	17158.47
488.75	17207.62
488.92	17561.04
489.10	17624.23
489.28	17692.11
489.46	17991.70
489.64	17963.61
489.81	18333.42
489.99	18455.12
490.17	18586.19
490.35	18515.98
490.53	18937.27
490.70	18953.66
490.88	18663.43
491.06	19051.96
491.24	19236.86
491.41	19129.20
491.59	19026.21
491.77	19098.77
491.95	19323.46
492.13	19606.67
492.30	19744.76
492.48	20046.69
492.66	19735.40
492.84	20255.00
493.01	20086.48
493.19	20463.30
493.37	20528.84
493.54	20683.31
493.72	20788.64
493.90	21128.02
494.08	21163.12
494.25	21118.65
494.43	21394.84
494.61	21298.88
494.79	21486.12
494.96	21266.11
495.14	21682.72
495.32	21596.12
495.49	21638.25
495.67	22050.19
495.85	22139.13
496.02	22188.28
496.20	22632.98
496.38	22609.58
496.55	22663.41
496.73	23138.54
496.91	23246.20
497.09	22829.59
497.26	23159.60
497.44	23026.19
497.62	22944.27
497.79	23356.21
497.97	22874.06
498.14	23534.09
498.32	23655.79
498.50	23520.04
498.67	24210.50
498.85	24126.24
499.03	24166.03
499.20	24215.18
499.38	24133.26
499.56	24151.99
499.73	24278.38
499.91	24702.01
500.08	24861.17
500.26	24269.01
500.44	24449.24
500.61	24786.27
500.79	24709.04
500.97	24959.47
501.14	25317.57
501.32	25252.04
501.49	25238.00
501.67	25186.50
501.84	25781.00
502.02	25612.48
502.20	25607.80
502.37	25759.94
502.55	25710.78
502.72	25986.97
502.90	25935.48
503.07	25947.18
503.25	26078.25
503.43	25832.49
503.60	26218.68
503.78	26284.22
503.95	26431.67
504.13	26401.24
504.30	26710.19
504.48	26651.68
504.65	26726.58
504.83	27054.25
505.01	26630.62
505.18	26946.59
505.36	27468.53
505.53	27220.43
505.71	27292.99
505.88	27683.86
506.06	27178.30
506.23	27412.35
506.41	27496.61
506.58	27524.70
506.76	27803.22
506.93	28023.23
507.11	27658.11
507.28	27985.79
507.46	27447.46
507.63	27632.36
507.81	28254.95
507.98	27882.80
508.16	28306.44
508.33	28517.09
508.50	28730.08
508.68	28472.62
508.85	29118.60
509.03	28545.17
509.20	28503.04
509.38	28882.21
509.55	28823.70
509.73	29289.46
509.90	29188.82
510.08	29125.63
510.25	29125.63
510.42	29230.95
510.60	29472.03
510.77	29621.82
510.95	29551.60
511.12	29383.09
511.30	29495.43
511.47	30211.64
511.64	30389.52
511.82	30352.07
511.99	30157.80
512.17	30176.53
512.34	30221.00
512.51	30026.73
512.69	30476.12
512.86	30625.91
513.04	30813.15
513.21	30478.46
513.38	30354.41
513.56	30382.49
513.73	30237.38
513.90	31119.76
514.08	30803.79
514.25	31543.40
514.43	30796.77
514.60	30920.82
514.77	30927.84
514.95	31449.78
515.12	31435.74
515.29	31211.04
515.47	32016.19
515.64	31770.43
515.81	31321.05
515.99	31473.18
516.16	31468.50
516.33	31370.20
516.51	31854.69
516.68	31278.92
516.85	31227.43
517.03	31651.06
517.20	31910.86
517.37	32290.03
517.54	32184.71
517.72	31857.03
517.89	31894.48
518.06	32470.25
518.24	32055.98
518.41	32467.91
518.58	32203.43
518.75	32100.45
518.93	32900.91
519.10	32723.03
519.27	32779.20
519.45	32804.95
519.62	33020.28
519.79	32854.10
519.96	33017.94
520.14	33490.73
520.31	33123.26
520.48	33390.08
520.65	33259.01
520.83	33331.57
521.00	33780.95
521.17	33928.41
521.34	33624.14
521.52	33369.02
521.69	33677.97
521.86	33738.82
522.03	34068.84
522.20	34356.72
522.38	34071.18
522.55	33853.51
522.72	33972.88
522.89	34080.54
523.07	34197.57
523.24	34052.45
523.41	34572.05
523.58	34443.32
523.75	34698.44
523.92	34780.36
524.10	35306.98
524.27	35178.25
524.44	35086.97
524.61	35374.86
524.78	35274.21
524.96	35489.54
525.13	35033.14
525.30	35255.49
525.47	35660.40
525.64	35557.42
525.81	35407.62
525.98	35452.09
526.16	35274.21
526.33	35412.31
526.50	35739.98
526.67	35236.77
526.84	35463.80
527.01	35154.85
527.18	35840.62
527.36	35756.36
527.53	36119.15
527.70	36526.40
527.87	35992.76
528.04	36144.89
528.21	36208.09
528.38	36201.07
528.55	36535.76
528.72	36142.55
528.89	36814.29
529.07	36271.28
529.24	36297.03
529.41	36634.06
529.58	36584.91
529.75	36505.34
529.92	36800.24
530.09	36704.28
530.26	36741.73
530.43	36638.75
530.60	36907.91
530.77	36879.82
530.94	37013.23
531.11	37064.72
531.28	36928.97
531.46	36882.16
531.63	37074.09
531.80	37471.98
531.97	37233.24
532.14	37579.64
532.31	37177.07
532.48	36851.73
532.65	37621.77
532.82	37280.05
532.99	37722.41
533.16	37336.23
533.33	38050.09
533.50	38031.36
533.67	37886.25
533.84	37745.82
534.01	37677.94
534.18	37708.37
534.35	37853.48
534.52	37874.55
534.69	37514.11
534.86	37806.67
535.03	38249.03
535.20	38384.79
535.37	38391.81
535.54	38532.24
535.71	38202.22
535.88	38146.05
536.05	37979.87
536.22	38593.09
536.38	38497.13
536.55	38249.03
536.72	38808.42
536.89	38270.10
537.06	38361.38
537.23	38700.76
537.40	38361.38
537.57	38759.27
537.74	38902.04
537.91	38878.64
538.08	39276.53
538.25	38263.08
538.42	38986.30
538.59	38726.50
538.75	37935.40
538.92	38770.97
539.09	39206.31
539.26	39210.99
539.43	39100.99
539.60	39178.23
539.77	38691.40
539.94	39098.65
540.11	38967.58
540.28	39435.69
540.44	39133.76
540.61	39604.20
540.78	39405.26
540.95	39438.03
541.12	39442.71
541.29	39145.46
541.46	39257.81
541.62	39732.93
541.79	39662.72
541.96	39477.82
542.13	39466.11
542.30	39714.21
542.47	39896.77
542.63	39976.35
542.80	39665.06
542.97	40505.31
543.14	40495.95
543.31	40034.86
543.48	39957.63
543.64	40858.73
543.81	40807.24
543.98	40823.62
544.15	40437.44
544.32	40631.70
544.48	40854.05
544.65	40711.28
544.82	41036.61
544.99	40449.14
545.16	40975.76
545.32	40575.53
545.49	41191.09
545.66	40910.22
545.83	41226.20
546.00	41205.13
546.16	40762.77
546.33	40549.78
546.50	40545.10
546.67	40987.46
546.83	40601.27
547.00	41219.17
547.17	40912.56
547.34	41160.66
547.50	41017.89
547.67	41280.03
547.84	41001.50
548.00	41324.50
548.17	41684.94
548.34	41736.43
548.51	41581.96
548.67	41694.30
548.84	41750.48
549.01	41425.14
549.18	41223.86
549.34	41694.30
549.51	41954.10
549.68	41261.30
549.84	41909.63
550.01	41965.81
550.18	41647.49
550.34	41961.12
550.51	41771.54
550.68	41874.52
550.84	41336.20
551.01	41993.89
551.18	41968.15
551.34	42195.18
551.51	41979.85
551.68	42190.50
551.84	42021.98
552.01	42216.24
552.18	41942.40
552.34	41698.98
552.51	42485.40
552.68	42356.67
552.84	42136.66
553.01	42532.22
553.18	42572.00
553.34	42073.47
553.51	41689.62
553.67	42541.58
553.84	42522.85
554.01	42731.16
554.17	42703.07
554.34	42464.34
554.51	42501.79
554.67	42946.49
554.84	42515.83
555.00	42572.00
555.17	42476.04
555.33	42663.28
555.50	42115.60
555.67	43089.26
555.83	42876.27
556.00	42712.44
556.16	43040.11
556.33	42644.56
556.50	42649.24
556.66	42887.98
556.83	43122.03
556.99	43138.41
557.16	43246.08
557.32	43276.51
557.49	42997.98
557.65	43096.28
557.82	42478.38
557.98	42883.30
558.15	43391.19
558.32	43058.84
558.48	43302.25
558.65	42902.02
558.81	42939.47
558.98	43054.15
559.14	43159.48
559.31	43122.03
559.47	43283.53
559.64	43826.53
559.80	43213.31
559.97	43536.30
560.13	43040.11
560.30	43206.29
560.46	43154.80
560.63	43641.63
560.79	43791.42
560.96	43761.00
561.12	42960.53
561.29	43665.03
561.45	43522.26
561.61	43543.33
561.78	43449.70
561.94	43082.24
562.11	43611.20
562.27	43826.53
562.44	43349.06
562.60	43910.79
562.77	43723.55
562.93	43449.70
563.10	43477.79
563.26	43566.73
563.42	43775.04
563.59	43187.56
563.75	43636.95
563.92	43831.21
564.08	43789.08
564.24	43477.79
564.41	43999.73
564.57	43189.91
564.74	43550.35
564.90	43646.31
565.07	43786.74
565.23	43641.63
565.39	43765.68
565.56	43880.36
565.72	43402.89
565.88	44282.94
566.05	43885.04
566.21	43894.41
566.38	43620.56
566.54	43585.46
566.70	44135.48
566.87	44301.66
567.03	43840.57
567.19	44229.10
567.36	43910.79
567.52	44175.27
567.68	44030.16
567.85	43693.12
568.01	44016.11
568.17	44179.95
568.34	43885.04
568.50	43505.88
568.66	43971.64
568.83	44224.42
568.99	43632.27
569.15	43686.10
569.32	43693.12
569.48	43997.39
569.64	43906.11
569.81	44311.02
569.97	44079.31
570.13	44205.70
570.30	43718.87
570.46	43842.92
570.62	44107.40
570.78	44142.50
570.95	44243.15
571.11	44414.01
571.27	44161.23
571.43	44322.72
571.60	43744.61
571.76	43824.19
571.92	44098.03
572.09	44107.40
572.25	44053.56
572.41	44271.23
572.57	44348.47
572.74	44715.93
572.90	44285.28
573.06	44170.59
573.22	44083.99
573.38	44390.60
573.55	43840.57
573.71	44278.25
573.87	44446.77
574.03	44165.91
574.20	44170.59
574.36	44397.62
574.52	44271.23
574.68	44261.87
574.84	44388.26
575.01	44418.69
575.17	44266.55
575.33	44128.46
575.49	43999.73
575.65	44346.13
575.82	44516.99
575.98	44280.60
576.14	44491.24
576.30	44449.11
576.46	44231.44
576.62	44105.06
576.79	44343.79
576.95	44177.61
577.11	44189.31
577.27	44311.02
577.43	44500.61
577.59	44318.04
577.75	44224.42
577.92	43938.88
578.08	44161.23
578.24	43849.94
578.40	44432.73
578.56	44552.10
578.72	44100.37
578.88	44395.28
579.04	44320.38
579.21	44385.92
579.37	44545.08
579.53	44325.07
579.69	44037.18
579.85	44332.09
580.01	44446.77
580.17	44222.08
580.33	44673.81
580.49	44704.23
580.65	44533.37
580.82	44460.82
580.98	44257.19
581.14	44439.75
581.30	44392.94
581.46	44399.96
581.62	44720.62
581.78	44701.89
581.94	44437.41
582.10	44301.66
582.26	44509.97
582.42	44746.36
582.58	44144.84
582.74	44304.00
582.90	44708.91
583.06	44877.43
583.22	44308.68
583.38	44385.92
583.54	44456.14
583.70	44727.64
583.86	44208.04
584.02	44238.47
584.18	44800.19
584.34	44463.16
584.50	44289.96
584.66	44205.70
584.82	44259.53
584.98	44802.53
585.14	44823.60
585.30	44732.32
585.46	44701.89
585.62	44369.54
585.78	44603.59
585.94	44067.61
586.10	44395.28
586.26	44339.11
586.42	44751.04
586.58	45036.59
586.74	44643.38
586.90	44329.75
587.06	44060.58
587.22	44760.40
587.38	44458.48
587.54	44807.22
587.70	44287.62
587.86	44587.21
588.02	44596.57
588.18	44521.67
588.34	44425.71
588.49	44074.63
588.65	43896.75
588.81	44304.00
588.97	44254.85
589.13	44439.75
589.29	44755.72
589.45	44587.21
589.61	44388.26
589.77	44669.12
589.93	44631.68
590.08	44680.83
590.24	44807.22
