SpectraSuite Data File
++++++++++++++++++++++++++++++++++++
Date: Fri Oct 25 11:25:18 EDT 2013
User: price-jones
Dark Spectrum Present: No
Reference Spectrum Present: No
Number of Sampled Component Spectra: 1
Spectrometers: USB2+H05261
Integration Time (usec): 100000 (USB2+H05261)
Spectra Averaged: 1 (USB2+H05261)
Boxcar Smoothing: 0 (USB2+H05261)
Correct for Electrical Dark: No (USB2+H05261)
Strobe/Lamp Enabled: No (USB2+H05261)
Correct for Detector Non-linearity: No (USB2+H05261)
Correct for Stray Light: No (USB2+H05261)
Number of Pixels in Processed Spectrum: 2048
>>>>>Begin Processed Spectral Data<<<<<
365.73	168.52
365.92	168.52
366.12	168.52
366.32	212.99
366.52	138.09
366.72	203.63
366.91	170.86
367.11	152.13
367.31	102.98
367.51	77.24
367.70	84.26
367.90	105.32
368.10	86.60
368.30	105.32
368.49	182.56
368.69	140.43
368.89	128.73
369.09	187.24
369.28	147.45
369.48	182.56
369.68	210.65
369.87	250.44
370.07	173.20
370.27	252.78
370.47	264.48
370.66	545.34
370.86	650.67
371.06	636.63
371.25	685.78
371.45	662.37
371.65	676.41
371.84	660.03
372.04	634.29
372.24	758.33
372.44	678.76
372.63	777.06
372.83	730.25
373.03	755.99
373.22	737.27
373.42	821.53
373.62	821.53
373.81	774.72
374.01	805.14
374.21	847.27
374.40	861.32
374.60	730.25
374.79	793.44
374.99	828.55
375.19	805.14
375.38	807.48
375.58	851.96
375.78	828.55
375.97	795.78
376.17	903.45
376.37	926.85
376.56	858.98
376.76	837.91
376.95	830.89
377.15	924.51
377.35	933.87
377.54	844.93
377.74	964.30
377.93	919.83
378.13	952.60
378.33	880.04
378.52	943.24
378.72	875.36
378.91	940.90
379.11	870.68
379.31	915.15
379.50	908.13
379.70	943.24
379.89	1011.11
380.09	950.26
380.28	1020.47
380.48	1029.84
380.68	957.28
380.87	959.62
381.07	952.60
381.26	971.32
381.46	997.07
381.65	1057.92
381.85	1114.10
382.04	1032.18
382.24	1100.05
382.43	1039.20
382.63	1114.10
382.83	1064.94
383.02	1121.12
383.22	1121.12
383.41	1027.50
383.61	1114.10
383.80	1125.80
384.00	1001.75
384.19	1109.41
384.39	1153.88
384.58	1100.05
384.78	1088.35
384.97	1203.04
385.17	1191.33
385.36	1146.86
385.56	1128.14
385.75	1062.60
385.95	1203.04
386.14	1184.31
386.34	1177.29
386.53	1156.22
386.72	1226.44
386.92	1277.93
387.11	1177.29
387.31	1287.29
387.50	1289.64
387.70	1348.15
387.89	1263.89
388.09	1198.35
388.28	1317.72
388.48	1238.14
388.67	1291.98
388.86	1284.95
389.06	1296.66
389.25	1324.74
389.45	1394.96
389.64	1306.02
389.84	1331.76
390.03	1273.25
390.22	1394.96
390.42	1336.45
390.61	1479.22
390.81	1430.07
391.00	1432.41
391.19	1404.32
391.39	1409.00
391.58	1423.05
391.78	1528.37
391.97	1385.60
392.16	1479.22
392.36	1500.28
392.55	1465.18
392.75	1394.96
392.94	1486.24
393.13	1441.77
393.33	1547.09
393.52	1558.80
393.71	1600.93
393.91	1570.50
394.10	1565.82
394.29	1600.93
394.49	1638.38
394.68	1607.95
394.88	1603.27
395.07	1636.03
395.26	1710.93
395.46	1685.19
395.65	1710.93
395.84	1708.59
396.04	1806.89
396.23	1692.21
396.42	1741.36
396.62	1837.32
396.81	1849.02
397.00	1687.53
397.19	1769.44
397.39	1788.17
397.58	1827.96
397.77	1774.13
397.97	1809.23
398.16	1865.41
398.35	1975.41
398.55	1881.79
398.74	1895.83
398.93	1980.09
399.12	2043.29
399.32	1975.41
399.51	1884.13
399.70	1944.99
399.90	1865.41
400.09	1935.62
400.28	2090.10
400.47	1956.69
400.67	2003.50
400.86	1937.96
401.05	2040.95
401.24	2115.84
401.44	2073.71
401.63	1994.14
401.82	2076.06
402.01	2101.80
402.21	2122.87
402.40	2136.91
402.59	2134.57
402.78	2127.55
402.97	2291.38
403.17	2272.66
403.36	2263.30
403.55	2263.30
403.74	2324.15
403.93	2275.00
404.13	2277.34
404.32	2338.20
404.51	2260.96
404.70	2420.11
404.89	2303.09
405.09	2436.50
405.28	2394.37
405.47	2462.24
405.66	2436.50
405.85	2480.97
406.05	2485.65
406.24	2640.12
406.43	2619.06
406.62	2518.42
406.81	2623.74
407.00	2551.18
407.20	2705.66
407.39	2612.04
407.58	2569.91
407.77	2679.91
407.96	2684.59
408.15	2836.73
408.34	2719.70
408.54	2766.51
408.73	2822.69
408.92	2780.56
409.11	2778.22
409.30	2986.52
409.49	2848.43
409.68	2857.79
409.87	2956.10
410.07	2958.44
410.26	2925.67
410.45	2904.60
410.64	3021.63
410.83	3014.61
411.02	3110.57
411.21	3075.46
411.40	3126.96
411.59	3145.68
411.78	3124.62
411.98	3047.38
412.17	3258.03
412.36	3283.77
412.55	3269.73
412.74	3307.18
412.93	3241.64
413.12	3396.12
413.31	3480.38
413.50	3466.33
413.69	3382.07
413.88	3473.36
414.07	3623.15
414.26	3445.27
414.45	3531.87
414.64	3555.27
414.83	3761.24
415.02	3660.60
415.22	3751.88
415.41	3854.86
415.60	3758.90
415.79	3810.39
415.98	3934.44
416.17	3892.31
416.36	3885.29
416.55	3978.91
416.74	4037.42
416.93	3948.48
417.12	4065.51
417.31	4070.19
417.50	4105.30
417.69	4292.54
417.88	4404.89
418.07	4266.80
418.26	4255.09
418.45	4407.23
418.64	4535.96
418.83	4376.80
419.02	4402.55
419.21	4482.13
419.39	4498.51
419.58	4542.98
419.77	4393.19
419.96	4568.73
420.15	4500.85
420.34	4575.75
420.53	4683.41
420.72	4631.92
420.91	4685.75
421.10	4805.12
421.29	4648.30
421.48	4645.96
421.67	4699.80
421.86	4629.58
422.05	4765.33
422.24	4676.39
422.43	4758.31
422.61	4908.10
422.80	4919.81
422.99	5053.22
423.18	4812.14
423.37	4980.66
423.56	4865.97
423.75	4891.72
423.94	4828.53
424.13	4533.62
424.32	4697.46
424.50	4908.10
424.69	5050.88
424.88	5039.17
425.07	4922.15
425.26	4903.42
425.45	4910.44
425.64	4861.29
425.83	5020.45
426.01	5018.11
426.20	5062.58
426.39	5034.49
426.58	5006.41
426.77	5046.20
426.96	5088.32
427.15	5160.88
427.33	5224.08
427.52	5064.92
427.71	5188.97
427.90	5310.68
428.09	5252.16
428.28	5275.57
428.46	5238.12
428.65	5240.46
428.84	5472.17
429.03	5357.49
429.22	5308.34
429.40	5408.98
429.59	5329.40
429.78	5160.88
429.97	5181.95
430.16	5284.93
430.34	5441.75
430.53	5554.09
430.72	5696.86
430.91	5586.86
431.10	5563.45
431.28	5589.20
431.47	5614.95
431.66	5729.63
431.85	5755.38
432.03	5788.14
432.22	6054.97
432.41	5923.90
432.60	5996.45
432.79	5769.42
432.97	5760.06
433.16	5879.43
433.35	5856.02
433.54	5977.73
433.72	6036.24
433.91	5984.75
434.10	6148.59
434.28	6207.10
434.47	6171.99
434.66	6127.52
434.85	6127.52
435.03	6207.10
435.22	6218.80
435.41	6548.82
435.59	6242.21
435.78	6349.87
435.97	6534.78
436.16	6272.64
436.34	6347.53
436.53	6375.62
436.72	6532.44
436.90	6438.81
437.09	6623.72
437.28	6574.56
437.46	6558.18
437.65	6462.22
437.84	6832.02
438.02	6544.14
438.21	6815.64
438.40	6530.09
438.58	6965.43
438.77	7075.44
438.96	6932.67
439.14	7094.16
439.33	7082.46
439.52	7183.10
439.70	7082.46
439.89	7318.86
440.08	7337.58
440.26	7358.64
440.45	7337.58
440.63	7339.92
440.82	7400.77
441.01	7447.58
441.19	7613.76
441.38	7676.96
441.57	7756.54
441.75	7674.62
441.94	7815.05
442.12	7616.10
442.31	7999.95
442.50	7936.76
442.68	7815.05
442.87	7903.99
443.05	8173.15
443.24	7985.91
443.43	7995.27
443.61	8077.19
443.80	8348.69
443.98	7995.27
444.17	7796.32
444.35	8025.70
444.54	8255.07
444.73	8301.88
444.91	8194.22
445.10	8325.29
445.28	8327.63
445.47	8234.00
445.65	8355.71
445.84	8517.21
446.02	8241.03
446.21	8241.03
446.39	8301.88
446.58	8533.59
446.77	8351.03
446.95	8102.93
447.14	8383.80
447.32	8566.36
447.51	8163.79
447.69	8411.89
447.88	8442.31
448.06	8711.47
448.25	8496.14
448.43	8505.51
448.62	8540.61
448.80	8444.65
448.99	8521.89
449.17	8655.30
449.36	8549.98
449.54	8636.58
449.73	8844.88
449.91	8713.81
450.10	8985.32
450.28	8905.74
450.46	8987.66
450.65	8917.44
450.83	9020.42
451.02	8947.87
451.20	9088.30
451.39	9160.86
451.57	9067.24
451.76	8959.57
451.94	9139.79
452.13	9240.44
452.31	9172.56
452.49	9104.68
452.68	9263.84
452.86	9329.38
453.05	9378.53
453.23	9383.21
453.42	9434.70
453.60	8982.98
453.78	9540.02
453.97	9144.47
454.15	9284.91
454.34	9334.06
454.52	9788.12
454.70	9575.13
454.89	9666.41
455.07	9441.72
455.26	9706.20
455.44	9729.61
455.62	9738.97
455.81	9591.52
455.99	10024.51
456.17	10111.11
456.36	9865.36
456.54	9989.41
456.73	10307.72
456.91	10457.51
457.09	10319.42
457.28	10389.64
457.46	10129.84
457.64	10553.48
457.83	10272.61
458.01	10420.06
458.19	10616.67
458.38	10382.62
458.56	10443.47
458.74	10785.19
458.93	10391.98
459.11	10675.18
459.29	10597.95
459.48	10747.74
459.66	10698.59
459.84	10824.98
460.03	11110.52
460.21	10918.60
460.39	10869.45
460.57	10876.47
460.76	11059.03
460.94	11089.46
461.12	11066.05
461.31	11005.20
461.49	11117.54
461.67	10934.98
461.85	11571.61
462.04	11356.28
462.22	11627.78
462.40	11688.64
462.59	11571.61
462.77	11396.07
462.95	11524.80
463.13	11639.48
463.32	11447.56
463.50	11775.24
463.68	11662.89
463.86	11772.89
464.05	11698.00
464.23	11520.12
464.41	11819.71
464.59	11470.97
464.78	12116.95
464.96	11686.29
465.14	11613.74
465.32	12030.35
465.50	11880.56
465.69	11971.84
465.87	11906.31
466.05	12070.14
466.23	12156.74
466.41	12056.10
466.60	12402.50
466.78	12145.04
466.96	12067.80
467.14	12105.25
467.32	12271.43
467.51	12297.17
467.69	12044.40
467.87	12121.63
468.05	12507.82
468.23	12280.79
468.41	12243.34
468.60	12517.18
468.78	12535.91
468.96	12772.30
469.14	12681.02
469.32	12929.12
469.50	12421.22
469.69	12933.80
469.87	12915.08
470.05	13006.36
470.23	13188.92
470.41	13043.81
470.59	13249.77
470.77	13107.00
470.95	12926.78
471.14	13511.91
471.32	12798.05
471.50	13422.97
471.68	13160.83
471.86	13352.76
472.04	13500.21
472.22	13860.65
472.40	13781.07
472.58	13336.37
472.77	13848.95
472.95	13961.30
473.13	14560.47
473.31	13703.84
473.49	13853.63
473.67	13926.19
473.85	14118.11
474.03	14427.06
474.21	14626.01
474.39	14684.52
474.57	14581.54
474.75	14703.25
474.93	14773.46
475.12	14714.95
475.30	14754.74
475.48	15026.24
475.66	15023.90
475.84	14843.68
476.02	15492.01
476.20	15066.03
476.38	15426.47
476.56	15772.87
476.74	15866.49
476.92	15676.91
477.10	15805.64
477.28	16032.67
477.46	15967.13
477.64	16037.35
477.82	16510.14
478.00	16858.88
478.18	16517.16
478.36	16620.14
478.54	16875.26
478.72	16936.12
478.90	17156.13
479.08	17224.00
479.26	17305.92
479.44	17394.86
479.62	17657.00
479.80	17757.64
479.98	18038.51
480.16	18576.83
480.34	18218.73
480.52	18459.81
480.70	18134.47
480.88	18167.24
481.06	18548.75
481.24	18492.57
481.41	18864.72
481.59	19173.67
481.77	19307.08
481.95	19070.68
482.13	19288.35
482.31	19489.64
482.49	20135.63
482.67	19946.05
482.85	20325.21
483.03	20610.76
483.21	20519.48
483.39	20620.12
483.57	20709.06
483.74	20947.79
483.92	21294.19
484.10	21032.05
484.28	21369.09
484.46	21778.68
484.64	21979.97
484.82	21586.76
485.00	22281.90
485.18	22640.00
485.35	23204.07
485.53	22469.14
485.71	22436.38
485.89	23510.68
486.07	23316.42
486.25	22986.40
486.43	23644.09
486.61	23550.47
486.78	23882.83
486.96	23791.55
487.14	24393.06
487.32	24369.66
487.50	24041.98
487.68	24659.88
487.85	24926.71
488.03	25270.76
488.21	25572.69
488.39	25462.69
488.57	25745.89
488.75	25771.64
488.92	26291.24
489.10	26525.29
489.28	26647.00
489.46	26728.92
489.64	26796.79
489.81	27328.10
489.99	27166.60
490.17	27468.53
490.35	27798.54
490.53	27901.53
490.70	27957.70
490.88	28084.09
491.06	28814.34
491.24	28709.01
491.41	28465.60
491.59	29195.84
491.77	29158.39
491.95	29326.91
492.13	29600.76
492.30	29668.63
492.48	29951.84
492.66	29862.90
492.84	29984.60
493.01	30164.82
493.19	30558.03
493.37	30834.22
493.54	31026.14
493.72	31199.34
493.90	31208.70
494.08	31377.22
494.25	31920.23
494.43	31405.31
494.61	31927.25
494.79	32165.98
494.96	32023.21
495.14	32692.60
495.32	33015.60
495.49	32809.63
495.67	33221.56
495.85	33371.36
496.02	33469.66
496.20	34110.97
496.38	33738.82
496.55	33783.29
496.73	34658.65
496.91	34550.99
497.09	34644.61
497.26	34515.88
497.44	34749.93
497.62	35491.88
497.79	35337.41
497.97	35250.81
498.14	35747.00
498.32	35512.95
498.50	35716.58
498.67	36290.01
498.85	35772.75
499.03	36446.82
499.20	36350.86
499.38	36610.66
499.56	36495.97
499.73	36713.64
499.91	36954.72
500.08	36959.40
500.26	36961.74
500.44	37460.27
500.61	37134.94
500.79	37364.31
500.97	37642.84
501.14	37993.92
501.32	38368.40
501.49	38036.05
501.67	38206.90
501.84	38284.14
502.02	38522.88
502.20	38888.00
502.37	38646.93
502.55	39377.17
502.72	38623.52
502.90	39093.97
503.07	39505.90
503.25	39529.31
503.43	38988.64
503.60	39735.27
503.78	39826.56
503.95	39917.84
504.13	39819.53
504.30	40194.02
504.48	40355.52
504.65	40233.81
504.83	40605.95
505.01	41053.00
505.18	40779.15
505.36	41469.61
505.53	40847.03
505.71	41167.68
505.88	41408.76
506.06	41207.47
506.23	41680.26
506.41	41387.69
506.58	41593.66
506.76	41443.87
506.93	42433.91
507.11	42040.70
507.28	42274.76
507.46	42286.46
507.63	42663.28
507.81	43103.31
507.98	42527.53
508.16	42579.03
508.33	43515.24
508.50	43349.06
508.68	43023.73
508.85	43613.54
509.03	43569.07
509.20	43903.77
509.38	43683.76
509.55	43791.42
509.73	43971.64
509.90	44535.71
510.08	43995.05
510.25	44030.16
510.42	44268.89
510.60	44905.52
510.77	44788.49
510.95	44945.31
511.12	44729.98
511.30	44830.62
511.47	45118.51
511.64	44945.31
511.82	45656.83
511.99	45535.12
512.17	45851.09
512.34	45874.50
512.51	46162.39
512.69	46089.83
512.86	45949.40
513.04	45741.09
513.21	46136.64
513.38	46043.02
513.56	46389.42
513.73	46176.43
513.90	46623.47
514.08	46670.28
514.25	46724.11
514.43	47105.62
514.60	47274.14
514.77	46799.01
514.95	47461.38
515.12	47145.41
515.29	47056.47
515.47	47269.46
515.64	47634.58
515.81	47723.52
515.99	47789.06
516.16	48165.88
516.33	47735.23
516.51	48495.90
516.68	48100.35
516.85	48112.05
517.03	48250.14
517.20	48385.89
517.37	48626.97
517.54	48542.71
517.72	48542.71
517.89	48580.16
518.06	48776.76
518.24	49034.22
518.41	48924.22
518.58	48982.73
518.75	49045.93
518.93	48928.90
519.10	49181.68
519.27	49415.73
519.45	49169.97
519.62	49453.18
519.79	49619.36
519.96	49741.06
520.14	49539.78
520.31	49722.34
520.48	50061.72
520.65	49935.33
520.83	50094.49
521.00	50480.67
521.17	50272.37
521.34	50305.13
521.52	50382.37
521.69	50419.82
521.86	50475.99
522.03	50813.03
522.20	50857.50
522.38	51173.47
522.55	50768.56
522.72	50838.78
522.89	51126.66
523.07	51793.71
523.24	50997.93
523.41	51580.73
523.58	51112.62
523.75	51454.34
523.92	51531.57
524.10	51840.53
524.27	51777.33
524.44	51718.82
524.61	51742.22
524.78	51847.55
524.96	52102.67
525.13	52198.63
525.30	52339.06
525.47	52399.91
525.64	52203.31
525.81	52215.01
525.98	52236.08
526.16	52360.12
526.33	52648.01
526.50	52823.55
526.67	52540.35
526.84	52687.80
527.01	52488.85
527.18	52669.08
527.36	52706.52
527.53	52891.43
527.70	53008.45
527.87	53085.69
528.04	52849.30
528.21	53336.13
528.38	52835.25
528.55	53207.40
528.72	53223.78
528.89	53029.52
529.07	53062.29
529.24	53254.21
529.41	53483.58
529.58	53506.99
529.75	53408.68
529.92	53502.31
530.09	53394.64
530.26	53502.31
530.43	53560.82
530.60	53464.86
530.77	53741.04
530.94	53792.53
531.11	53930.62
531.28	53652.10
531.46	53837.00
531.63	53853.39
531.80	53682.53
531.97	54101.48
532.14	54078.08
532.31	54265.32
532.48	54363.62
532.65	54237.23
532.82	54295.75
532.99	54323.83
533.16	54419.80
533.33	54466.61
533.50	54553.21
533.67	54705.34
533.84	54225.53
534.01	54372.99
534.18	54719.38
534.35	54710.02
534.52	54623.42
534.69	54726.41
534.86	55049.40
535.03	54780.24
535.20	54756.83
535.37	55255.37
535.54	55063.44
535.71	54894.92
535.88	55323.24
536.05	55154.72
536.22	55234.30
536.38	55384.10
536.55	55114.94
536.72	55374.73
536.89	55065.78
537.06	55262.39
537.23	55550.27
537.40	55428.57
537.57	55470.70
537.74	55461.33
537.91	55730.50
538.08	55627.51
538.25	55454.31
538.42	55629.85
538.59	55889.65
538.75	55529.21
538.92	55718.79
539.09	55679.00
539.26	55854.54
539.43	56037.11
539.60	55976.25
539.77	56013.70
539.94	56170.52
540.11	56074.55
540.28	56378.82
540.44	56374.14
540.61	56097.96
540.78	55894.33
540.95	56147.11
541.12	56165.84
541.29	56046.47
541.46	56222.01
541.62	56367.12
541.79	56430.32
541.96	56102.64
542.13	56343.72
542.30	56320.31
542.47	56591.81
542.63	56774.37
542.80	56643.30
542.97	56996.73
543.14	57048.22
543.31	56893.74
543.48	57001.41
543.64	57256.53
543.81	57106.73
543.98	56774.37
544.15	56912.47
544.32	57071.62
544.48	57198.01
544.65	57165.24
544.82	57102.05
544.99	57284.61
545.16	57106.73
545.32	57095.03
545.49	57406.32
545.66	57584.20
545.83	57359.51
546.00	57366.53
546.16	57219.08
546.33	57387.60
546.50	57059.92
546.67	57286.95
546.83	57258.87
547.00	57439.09
547.17	57275.25
547.34	57663.78
547.50	57584.20
547.67	57790.17
547.84	57804.21
548.00	58094.44
548.17	58152.95
548.34	57556.11
548.51	58028.90
548.67	58047.63
548.84	58000.82
549.01	57689.52
549.18	57820.59
549.34	57961.03
549.51	58134.23
549.68	58251.25
549.84	58197.42
550.01	58288.70
550.18	58108.48
550.34	58157.63
550.51	58218.49
550.68	58218.49
550.84	57965.71
551.01	58326.15
551.18	58108.48
551.34	58288.70
551.51	58548.50
551.68	58218.49
551.84	58389.34
552.01	58314.45
552.18	58452.54
552.34	58337.85
552.51	58628.08
552.68	58361.26
552.84	58408.07
553.01	58698.30
553.18	58602.33
553.34	58796.60
553.51	58424.45
553.67	58663.19
553.84	58925.33
554.01	58770.85
554.17	58698.30
554.34	58824.68
554.51	58621.06
554.67	58747.45
554.84	58915.96
555.00	58616.38
555.17	58686.59
555.33	59051.72
555.50	58791.92
555.67	58972.14
555.83	58759.15
556.00	58899.58
556.16	59107.89
556.33	58979.16
556.50	59150.02
556.66	59250.66
556.83	58775.53
556.99	59213.21
557.16	59442.59
557.32	59346.62
557.49	59442.59
557.65	59253.00
557.82	59222.58
557.98	58974.48
558.15	59150.02
558.32	59351.30
558.48	59133.63
558.65	59206.19
558.81	59260.02
558.98	59348.96
559.14	59529.19
559.31	59503.44
559.47	59388.75
559.64	59522.16
559.80	59442.59
559.97	59566.63
560.13	59295.13
560.30	59267.05
560.46	59592.38
560.63	59620.47
560.79	59611.10
560.96	59662.60
561.12	59568.97
561.29	59714.09
561.45	59643.87
561.61	59526.84
561.78	59746.86
561.94	59583.02
562.11	59664.94
562.27	59646.21
562.44	59751.54
562.60	59938.78
562.77	59723.45
562.93	59625.15
563.10	59992.61
563.26	59643.87
563.42	59987.93
563.59	59882.61
563.75	59805.37
563.92	59779.62
564.08	59894.31
564.24	59791.33
564.41	59875.58
564.57	59852.18
564.74	59994.95
564.90	59929.42
565.07	59938.78
565.23	59742.17
565.39	59660.26
565.56	60025.38
565.72	59915.37
565.88	60046.44
566.05	59931.76
566.21	59917.71
566.38	60079.21
566.54	59962.18
566.70	60184.54
566.87	60079.21
567.03	60053.47
567.19	60257.09
567.36	59985.59
567.52	59976.23
567.68	60170.49
567.85	60126.02
568.01	60339.01
568.17	60046.44
568.34	60198.58
568.50	60128.36
568.66	60310.92
568.83	60252.41
568.99	60135.38
569.15	60027.72
569.32	60018.36
569.48	60090.91
569.64	60207.94
569.81	60355.39
569.97	60205.60
570.13	60184.54
570.30	60221.98
570.46	60226.66
570.62	60273.48
570.78	60348.37
570.95	60177.51
571.11	60189.22
571.27	60252.41
571.43	60287.52
571.60	60383.48
571.76	60282.84
571.92	60229.01
572.09	60514.55
572.25	60331.99
572.41	60254.75
572.57	60301.56
572.74	60657.32
572.90	60320.29
573.06	60360.08
573.22	60353.05
573.38	60420.93
573.55	60367.10
573.71	60512.21
573.87	60523.91
574.03	60573.06
574.20	60397.52
574.36	60411.57
574.52	60603.49
574.68	60636.26
574.84	60746.26
575.01	60406.89
575.17	60392.84
575.33	60549.66
575.49	60374.12
575.65	60626.90
575.82	60727.54
575.98	60697.11
576.14	60795.42
576.30	60662.00
576.46	60610.51
576.62	60432.63
576.79	60570.72
576.95	60500.51
577.11	60542.64
577.27	60535.62
577.43	60746.26
577.59	60577.75
577.75	60481.78
577.92	60512.21
578.08	60603.49
578.24	60425.61
578.40	60743.92
578.56	60804.78
578.72	60711.16
578.88	60596.47
579.04	60800.10
579.21	60683.07
579.37	60762.65
579.53	60809.46
579.69	60528.59
579.85	60603.49
580.01	60523.91
580.17	60573.06
580.33	60612.85
580.49	60650.30
580.65	60734.56
580.82	60594.13
580.98	60530.93
581.14	60479.44
581.30	60935.85
581.46	60603.49
581.62	60898.40
581.78	60610.51
581.94	60776.69
582.10	60631.58
582.26	60736.90
582.42	60552.00
582.58	60753.29
582.74	60725.20
582.90	60654.98
583.06	60638.60
583.22	60509.87
583.38	60750.94
583.54	60783.71
583.70	60657.32
583.86	60816.48
584.02	60718.18
584.18	60914.78
584.34	60893.72
584.50	60582.43
584.66	60640.94
584.82	60697.11
584.98	60917.12
585.14	60739.24
585.30	60680.73
585.46	60982.66
585.62	60989.68
585.78	60865.63
585.94	60566.04
586.10	60879.67
586.26	60945.21
586.42	60615.19
586.58	60938.19
586.74	60727.54
586.90	60666.69
587.06	60935.85
587.22	60874.99
587.38	60940.53
587.54	60896.06
587.70	61139.47
587.86	60748.60
588.02	60849.25
588.18	61165.22
588.34	60725.20
588.49	60734.56
