SpectraSuite Data File
++++++++++++++++++++++++++++++++++++
Date: Fri Oct 25 11:26:35 EDT 2013
User: price-jones
Dark Spectrum Present: No
Reference Spectrum Present: No
Number of Sampled Component Spectra: 1
Spectrometers: USB2+H05261
Integration Time (usec): 100000 (USB2+H05261)
Spectra Averaged: 1 (USB2+H05261)
Boxcar Smoothing: 0 (USB2+H05261)
Correct for Electrical Dark: No (USB2+H05261)
Strobe/Lamp Enabled: No (USB2+H05261)
Correct for Detector Non-linearity: No (USB2+H05261)
Correct for Stray Light: No (USB2+H05261)
Number of Pixels in Processed Spectrum: 2048
>>>>>Begin Processed Spectral Data<<<<<
365.73	248.10
365.92	248.10
366.12	248.10
366.32	163.84
366.52	184.90
366.72	156.82
366.91	112.35
367.11	161.50
367.31	102.98
367.51	119.37
367.70	152.13
367.90	161.50
368.10	145.11
368.30	135.75
368.49	163.84
368.69	145.11
368.89	147.45
369.09	161.50
369.28	210.65
369.48	243.42
369.68	191.92
369.87	264.48
370.07	273.84
370.27	220.01
370.47	273.84
370.66	624.92
370.86	610.88
371.06	706.84
371.25	692.80
371.45	685.78
371.65	690.46
371.84	723.23
372.04	617.90
372.24	727.91
372.44	751.31
372.63	784.08
372.83	723.23
373.03	706.84
373.22	763.01
373.42	779.40
373.62	814.51
373.81	755.99
374.01	788.76
374.21	875.36
374.40	870.68
374.60	873.02
374.79	875.36
374.99	755.99
375.19	833.23
375.38	800.46
375.58	849.61
375.78	929.19
375.97	844.93
376.17	994.73
376.37	875.36
376.56	898.77
376.76	873.02
376.95	873.02
377.15	924.51
377.35	971.32
377.54	905.79
377.74	915.15
377.93	901.11
378.13	856.64
378.33	987.71
378.52	959.62
378.72	983.02
378.91	912.81
379.11	938.55
379.31	931.53
379.50	912.81
379.70	1064.94
379.89	950.26
380.09	959.62
380.28	959.62
380.48	1043.88
380.68	931.53
380.87	903.45
381.07	1046.22
381.26	987.71
381.46	1048.56
381.65	1029.84
381.85	1034.52
382.04	1041.54
382.24	1123.46
382.43	1081.33
382.63	1111.75
382.83	1006.43
383.02	1067.28
383.22	1123.46
383.41	1177.29
383.61	1074.31
383.80	1179.63
384.00	1111.75
384.19	1097.71
384.39	1163.25
384.58	1069.62
384.78	1118.78
384.97	1067.28
385.17	1160.91
385.36	1163.25
385.56	1188.99
385.75	1198.35
385.95	1263.89
386.14	1144.52
386.34	1177.29
386.53	1254.53
386.72	1181.97
386.92	1261.55
387.11	1151.54
387.31	1294.32
387.50	1231.12
387.70	1228.78
387.89	1240.48
388.09	1327.08
388.28	1303.68
388.48	1303.68
388.67	1256.87
388.86	1308.36
389.06	1406.66
389.25	1401.98
389.45	1291.98
389.64	1385.60
389.84	1392.62
390.03	1401.98
390.22	1383.26
390.42	1434.75
390.61	1345.81
390.81	1350.49
391.00	1336.45
391.19	1404.32
391.39	1577.52
391.58	1441.77
391.78	1369.21
391.97	1411.34
392.16	1460.49
392.36	1540.07
392.55	1570.50
392.75	1537.73
392.94	1540.07
393.13	1556.46
393.33	1530.71
393.52	1570.50
393.71	1605.61
393.91	1514.33
394.10	1582.20
394.29	1593.90
394.49	1640.72
394.68	1708.59
394.88	1664.12
395.07	1764.76
395.26	1593.90
395.46	1631.35
395.65	1671.14
395.84	1671.14
396.04	1720.29
396.23	1863.07
396.42	1706.25
396.62	1774.13
396.81	1804.55
397.00	1685.19
397.19	1689.87
397.39	1795.19
397.58	1975.41
397.77	1844.34
397.97	1851.36
398.16	1785.83
398.35	1888.81
398.55	1860.73
398.74	2001.16
398.93	1928.60
399.12	1804.55
399.32	1916.90
399.51	1935.62
399.70	1968.39
399.90	1881.79
400.09	1984.77
400.28	2008.18
400.47	1942.64
400.67	2139.25
400.86	2064.35
401.05	2108.82
401.24	2085.42
401.44	2118.18
401.63	2120.53
401.82	2125.21
402.01	2127.55
402.21	2143.93
402.40	2179.04
402.59	2300.75
402.78	2193.08
402.97	2303.09
403.17	2157.97
403.36	2188.40
403.55	2289.04
403.74	2239.89
403.93	2366.28
404.13	2354.58
404.32	2291.38
404.51	2464.58
404.70	2385.01
404.89	2445.86
405.09	2450.54
405.28	2487.99
405.47	2569.91
405.66	2513.74
405.85	2485.65
406.05	2560.55
406.24	2527.78
406.43	2544.16
406.62	2616.72
406.81	2527.78
407.00	2712.68
407.20	2572.25
407.39	2621.40
407.58	2698.64
407.77	2782.90
407.96	2764.17
408.15	2846.09
408.34	2864.82
408.54	2792.26
408.73	2827.37
408.92	2743.11
409.11	2892.90
409.30	2829.71
409.49	2885.88
409.68	2867.16
409.87	3009.93
410.07	3059.08
410.26	2988.86
410.45	3052.06
410.64	3094.19
410.83	3012.27
411.02	3070.78
411.21	3131.64
411.40	3148.02
411.59	3178.45
411.78	3112.91
411.98	3269.73
412.17	3321.22
412.36	3262.71
412.55	3478.04
412.74	3428.88
412.93	3346.97
413.12	3283.77
413.31	3513.14
413.50	3459.31
413.69	3471.01
413.88	3588.04
414.07	3604.42
414.26	3719.11
414.45	3702.73
414.64	3714.43
414.83	3775.28
415.02	3740.18
415.22	3765.92
415.41	4002.32
415.60	3971.89
415.79	3929.76
415.98	4016.36
416.17	3927.42
416.36	3904.01
416.55	3999.98
416.74	4095.94
416.93	4084.23
417.12	4102.96
417.31	4203.60
417.50	4236.37
417.69	4224.67
417.88	4397.87
418.07	4255.09
418.26	4222.33
418.45	4414.25
418.64	4636.60
418.83	4367.44
419.02	4437.66
419.21	4526.60
419.39	4592.13
419.58	4482.13
419.77	4622.56
419.96	4550.00
420.15	4692.77
420.34	4540.64
420.53	4652.98
420.72	4833.21
420.91	4699.80
421.10	4870.65
421.29	4844.91
421.48	4669.37
421.67	4734.90
421.86	4746.61
422.05	4720.86
422.24	4779.37
422.43	4959.60
422.61	4774.69
422.80	4964.28
422.99	4910.44
423.18	4812.14
423.37	5029.81
423.56	4910.44
423.75	4931.51
423.94	4917.47
424.13	4681.07
424.32	4737.24
424.50	5069.60
424.69	5275.57
424.88	5163.22
425.07	5013.43
425.26	4835.55
425.45	5013.43
425.64	5055.56
425.83	5039.17
426.01	5050.88
426.20	5090.67
426.39	5041.51
426.58	5132.79
426.77	5034.49
426.96	5167.90
427.15	5029.81
427.33	5341.10
427.52	5188.97
427.71	5228.76
427.90	5268.55
428.09	5198.33
428.28	5303.65
428.46	5373.87
428.65	5385.57
428.84	5605.58
429.03	5411.32
429.22	5317.70
429.40	5528.35
429.59	5577.50
429.78	5256.84
429.97	5259.18
430.16	5469.83
430.34	5638.35
430.53	5671.12
430.72	5804.53
430.91	5738.99
431.10	5703.89
431.28	5888.79
431.47	5818.57
431.66	5895.81
431.85	5830.27
432.03	5977.73
432.22	5860.70
432.41	5863.04
432.60	5935.60
432.79	5949.64
432.97	5900.49
433.16	6019.86
433.35	6045.60
433.54	6040.92
433.72	6148.59
433.91	6153.27
434.10	6230.51
434.28	6249.23
434.47	6235.19
434.66	6146.25
434.85	6284.34
435.03	6305.40
435.22	6291.36
435.41	6513.71
435.59	6448.18
435.78	6359.24
435.97	6492.65
436.16	6305.40
436.34	6392.00
436.53	6415.41
436.72	6743.08
436.90	6263.27
437.09	6502.01
437.28	6408.39
437.46	6691.59
437.65	6693.93
437.84	6698.61
438.02	6792.23
438.21	6768.83
438.40	6619.04
438.58	7002.88
438.77	7148.00
438.96	7023.95
439.14	7227.57
439.33	7126.93
439.52	7208.85
439.70	7201.83
439.89	7442.90
440.08	7265.02
440.26	7428.86
440.45	7342.26
440.63	7487.37
440.82	7475.67
441.01	7515.46
441.19	7653.55
441.38	7679.30
441.57	7812.71
441.75	7815.05
441.94	7927.39
442.12	7918.03
442.31	8135.70
442.50	8002.29
442.68	7913.35
442.87	7934.42
443.05	8102.93
443.24	8311.24
443.43	8315.92
443.61	8224.64
443.80	8411.89
443.98	7903.99
444.17	7836.11
444.35	8367.42
444.54	8470.40
444.73	8252.73
444.91	8344.01
445.10	8273.79
445.28	8320.60
445.47	8280.82
445.65	8201.24
445.84	8318.26
446.02	8549.98
446.21	8540.61
446.39	8439.97
446.58	8571.04
446.77	8557.00
446.95	8397.84
447.14	8346.35
447.32	8528.91
447.51	8482.10
447.69	8329.97
447.88	8421.25
448.06	8676.37
448.25	8465.72
448.43	8734.88
448.62	8648.28
448.80	8580.40
448.99	8510.19
449.17	8800.41
449.36	8575.72
449.54	8856.59
449.73	9029.79
449.91	9001.70
450.10	9018.08
450.28	9034.47
450.46	9025.11
450.65	9123.41
450.83	9118.73
451.02	9078.94
451.20	9174.90
451.39	9090.64
451.57	9039.15
451.76	8884.67
451.94	9188.94
452.13	9303.63
452.31	9404.27
452.49	9149.15
452.68	9390.23
452.86	9310.65
453.05	9472.15
453.23	9549.39
453.42	9509.60
453.60	9430.02
453.78	9540.02
453.97	9437.04
454.15	9345.76
454.34	9408.95
454.52	9769.40
454.70	9795.14
454.89	9423.00
455.07	9856.00
455.26	10012.81
455.44	9966.00
455.62	9942.60
455.81	10052.60
455.99	10087.71
456.17	9839.61
456.36	10076.01
456.54	10207.08
456.73	10202.40
456.91	10214.10
457.09	10565.18
457.28	10588.58
457.46	10200.05
457.64	10609.65
457.83	10527.73
458.01	10555.82
458.19	10619.01
458.38	10586.24
458.56	10626.03
458.74	10637.73
458.93	10665.82
459.11	10553.48
459.29	10993.50
459.48	10937.32
459.66	10925.62
459.84	11040.31
460.03	11023.92
460.21	11063.71
460.39	10883.49
460.57	11239.25
460.76	11211.17
460.94	11164.36
461.12	11456.92
461.31	11061.37
461.49	11082.44
461.67	11197.12
461.85	11463.94
462.04	11599.70
462.22	11461.60
462.40	11719.06
462.59	11449.90
462.77	11578.63
462.95	11726.08
463.13	11723.74
463.32	11632.46
463.50	11667.57
463.68	11775.24
463.86	11871.20
464.05	11756.51
464.23	11632.46
464.41	12105.25
464.59	11576.29
464.78	12063.12
464.96	11866.52
465.14	11808.00
465.32	12079.50
465.50	12084.19
465.69	12039.72
465.87	11997.59
466.05	12219.94
466.23	12074.82
466.41	12285.47
466.60	12475.06
466.78	12182.49
466.96	12311.22
467.14	12271.43
467.32	12432.93
467.51	12666.98
467.69	12063.12
467.87	12634.21
468.05	12615.49
468.23	12358.03
468.41	12526.55
468.60	12713.79
468.78	12872.95
468.96	12610.81
469.14	12769.96
469.32	13018.06
469.50	12585.06
469.69	12854.22
469.87	13165.51
470.05	13165.51
470.23	13114.02
470.41	13359.78
470.59	13153.81
470.77	13121.04
470.95	13392.55
471.14	13540.00
471.32	13209.98
471.50	13579.79
471.68	13640.64
471.86	13970.66
472.04	13696.82
472.22	13909.80
472.40	13874.70
472.58	13661.71
472.77	14207.05
472.95	14237.48
473.13	14703.25
473.31	14057.26
473.49	14134.50
473.67	14087.68
473.85	14417.70
474.03	14801.55
474.21	14773.46
474.39	14949.00
474.57	14951.34
474.75	15000.49
474.93	15002.83
475.12	14946.66
475.30	15157.31
475.48	15129.22
475.66	15070.71
475.84	15257.95
476.02	15351.57
476.20	15562.22
476.38	15527.11
476.56	16006.92
476.74	15882.88
476.92	15822.02
477.10	15831.38
477.28	16156.72
477.46	15910.96
477.64	16578.01
477.82	16514.82
478.00	16915.05
478.18	16755.90
478.36	17015.69
478.54	17245.07
478.72	17324.65
478.90	17092.93
479.08	17734.24
479.26	17769.35
479.44	17689.77
479.62	17818.50
479.80	17947.23
479.98	18031.49
480.16	18551.09
480.34	18253.84
480.52	18668.11
480.70	18696.20
480.88	18412.99
481.06	18707.90
481.24	18792.16
481.41	19096.43
481.59	19180.69
481.77	19562.20
481.95	19330.48
482.13	19695.61
482.31	19407.72
482.49	20294.79
482.67	20051.37
482.85	20374.36
483.03	21060.14
483.21	20884.60
483.39	20989.92
483.57	20985.24
483.74	21039.08
483.92	21458.03
484.10	21233.34
484.28	21750.60
484.46	22057.21
484.64	22361.48
484.82	21979.97
485.00	22239.77
485.18	22932.57
485.35	23042.57
485.53	22801.50
485.71	23103.43
485.89	23679.20
486.07	23360.89
486.25	23702.61
486.43	23477.91
486.61	23887.51
486.78	23936.66
486.96	23983.47
487.14	24662.22
487.32	24737.12
487.50	24767.55
487.68	24961.81
487.85	25345.66
488.03	25614.82
488.21	25640.57
488.39	25902.71
488.57	26183.57
488.75	26139.10
488.92	26363.79
489.10	26548.70
489.28	26731.26
489.46	27124.47
489.64	27218.09
489.81	27882.80
489.99	27744.71
490.17	27608.96
490.35	28367.29
490.53	28678.58
490.70	28542.83
490.88	27936.63
491.06	29008.60
491.24	29008.60
491.41	29032.00
491.59	29439.26
491.77	29355.00
491.95	29656.93
492.13	30134.40
492.30	30213.98
492.48	30419.94
492.66	30323.98
492.84	30202.27
493.01	30235.04
493.19	30668.04
493.37	31248.49
493.54	31452.12
493.72	31817.24
493.90	31637.02
494.08	31747.03
494.25	31952.99
494.43	32280.67
494.61	32170.66
494.79	32287.69
494.96	32716.01
495.14	33022.62
495.32	33151.35
495.49	33116.24
495.67	33266.03
495.85	33188.80
496.02	33834.78
496.20	34010.32
496.38	33888.62
496.55	34401.19
496.73	34600.14
496.91	34457.37
497.09	34899.73
497.26	34855.26
497.44	34993.35
497.62	35271.87
497.79	35957.65
497.97	35445.07
498.14	36203.41
498.32	36392.99
498.50	36107.44
498.67	36800.24
498.85	36587.25
499.03	36624.70
499.20	36505.34
499.38	36973.44
499.56	36905.57
499.73	37469.64
499.91	36914.93
500.08	37972.85
500.26	37361.97
500.44	37479.00
500.61	37996.26
500.79	38139.03
500.97	38136.69
501.14	38850.55
501.32	39208.65
501.49	38473.73
501.67	38763.95
501.84	38906.73
502.02	38813.10
502.20	39014.39
502.37	39416.96
502.55	38981.62
502.72	39606.55
502.90	39519.95
503.07	40004.44
503.25	40062.95
503.43	39871.03
503.60	40479.57
503.78	40107.42
503.95	40411.69
504.13	40802.56
504.30	40837.67
504.48	40966.40
504.65	40620.00
504.83	41198.11
505.01	41268.33
505.18	41104.49
505.36	41780.90
505.53	41380.67
505.71	41801.97
505.88	42124.96
506.06	41703.67
506.23	41844.10
506.41	41928.36
506.58	42340.29
506.76	42319.23
506.93	42754.57
507.11	42410.51
507.28	42389.44
507.46	42749.88
507.63	43077.56
507.81	43241.40
507.98	43065.86
508.16	43285.87
508.33	43643.97
508.50	43583.12
508.68	43772.70
508.85	44179.95
509.03	43901.43
509.20	44065.27
509.38	44268.89
509.55	44495.92
509.73	44678.49
509.90	44488.90
510.08	45069.36
510.25	44762.75
510.42	44638.70
510.60	44914.88
510.77	45336.18
510.95	45509.38
511.12	45209.79
511.30	45336.18
511.47	45621.72
511.64	45614.70
511.82	46195.15
511.99	45619.38
512.17	46021.95
512.34	46141.32
512.51	46450.27
512.69	46452.61
512.86	46483.04
513.04	46864.55
513.21	46681.98
513.38	46637.51
513.56	46916.04
513.73	47112.64
513.90	46979.23
514.08	47016.68
514.25	47260.10
514.43	47313.93
514.60	47421.59
514.77	47150.09
514.95	47896.72
515.12	47676.71
515.29	47889.70
515.47	48142.48
515.64	48633.99
515.81	48292.27
515.99	48357.81
516.16	48474.84
516.33	48556.75
516.51	48580.16
516.68	48355.47
516.85	48697.19
517.03	48926.56
517.20	49146.57
517.37	48921.88
517.54	49392.33
517.72	48762.72
517.89	49113.80
518.06	49371.26
518.24	49214.44
518.41	49324.45
518.58	49427.43
518.75	49413.39
518.93	49544.46
519.10	49837.03
519.27	49450.84
519.45	49841.71
519.62	49996.18
519.79	49968.10
519.96	49923.63
520.14	50178.75
520.31	50272.37
520.48	50403.44
520.65	50499.40
520.83	50539.19
521.00	50710.05
521.17	50719.41
521.34	50710.05
521.52	50883.25
521.69	50932.40
521.86	50995.59
522.03	51044.74
522.20	51283.48
522.38	51615.83
522.55	51412.21
522.72	51185.18
522.89	51138.36
523.07	51564.34
523.24	51391.14
523.41	51835.84
523.58	51297.52
523.75	52198.63
523.92	51782.01
524.10	52072.24
524.27	51896.70
524.44	52273.52
524.61	52147.14
524.78	52065.22
524.96	52477.15
525.13	52636.31
525.30	52507.58
525.47	52500.56
525.64	52467.79
525.81	52694.82
525.98	52797.80
526.16	52598.86
526.33	52783.76
526.50	53336.13
526.67	52945.26
526.84	52898.45
527.01	52832.91
527.18	52940.58
527.36	52793.12
527.53	53111.44
527.70	53446.13
527.87	53158.25
528.04	53296.34
528.21	53574.86
528.38	53464.86
528.55	53907.22
528.72	53551.46
528.89	53961.05
529.07	53392.30
529.24	53642.74
529.41	53858.07
529.58	53633.38
529.75	53879.13
529.92	53820.62
530.09	53614.65
530.26	54000.84
530.43	54120.21
530.60	53708.27
530.77	53893.18
530.94	54185.74
531.11	54024.25
531.28	54375.33
531.46	54143.61
531.63	54244.26
531.80	54387.03
531.97	54246.60
532.14	54560.23
532.31	54192.76
532.48	54583.63
532.65	54625.76
532.82	54609.38
532.99	54731.09
533.16	54616.40
533.33	54789.60
533.50	54885.56
533.67	54756.83
533.84	54876.20
534.01	54967.48
534.18	55037.70
534.35	55173.45
534.52	55199.19
534.69	55187.49
534.86	55353.67
535.03	55257.71
535.20	55178.13
535.37	55388.78
535.54	55442.61
535.71	55143.02
535.88	55512.83
536.05	55669.64
536.22	55751.56
536.38	55789.01
536.55	55753.90
536.72	55770.28
536.89	55175.79
537.06	55646.24
537.23	55786.67
537.40	56002.00
537.57	55817.10
537.74	55660.28
537.91	55749.22
538.08	56025.40
538.25	55716.45
538.42	55999.66
538.59	56039.45
538.75	56266.48
538.92	56130.73
539.09	56327.33
539.26	56088.60
539.43	56222.01
539.60	56334.35
539.77	56385.85
539.94	56554.36
540.11	56472.45
540.28	56556.70
540.44	56465.42
540.61	56526.28
540.78	56460.74
540.95	56722.88
541.12	56521.60
541.29	56439.68
541.46	56566.07
541.62	56568.41
541.79	56727.56
541.96	56495.85
542.13	56694.80
542.30	56619.90
542.47	56865.66
542.63	56802.46
542.80	56734.59
542.97	57069.28
543.14	57530.37
543.31	57097.37
543.48	57373.55
543.64	57638.03
543.81	57368.87
543.98	57464.83
544.15	57497.60
544.32	57455.47
544.48	57666.12
544.65	57312.70
544.82	57291.63
544.99	57411.00
545.16	57509.30
545.32	57385.25
545.49	57743.36
545.66	57670.80
545.83	57478.88
546.00	57865.06
546.16	57595.90
546.33	57612.29
546.50	57539.73
546.67	57825.28
546.83	57425.04
547.00	57776.12
547.17	57881.45
547.34	57790.17
547.50	57918.90
547.67	57984.43
547.84	58141.25
548.00	58176.36
548.17	58333.17
548.34	58136.57
548.51	58204.44
548.67	58265.30
548.84	58038.26
549.01	58099.12
549.18	58468.92
549.34	58272.32
549.51	58295.72
549.68	58408.07
549.84	58307.43
550.01	58466.58
550.18	58321.47
550.34	58534.46
550.51	58536.80
550.68	58489.99
550.84	58344.87
551.01	58471.26
551.18	58632.76
551.34	58450.20
551.51	58513.39
551.68	58578.93
551.84	58585.95
552.01	58614.04
552.18	58508.71
552.34	58567.23
552.51	58717.02
552.68	58508.71
552.84	58672.55
553.01	59196.83
553.18	58906.60
553.34	58911.28
553.51	58897.24
553.67	58913.62
553.84	58808.30
554.01	59040.01
554.17	59047.04
554.34	58937.03
554.51	58972.14
554.67	59161.72
554.84	59037.67
555.00	59056.40
555.17	58841.07
555.33	59327.90
555.50	58834.05
555.67	58904.26
555.83	59119.59
556.00	59089.16
556.16	59377.05
556.33	59407.48
556.50	59400.46
556.66	59274.07
556.83	59220.23
556.99	59454.29
557.16	59377.05
557.32	59484.72
557.49	59522.16
557.65	59477.69
557.82	59334.92
557.98	59334.92
558.15	59646.21
558.32	59400.46
558.48	59454.29
558.65	59454.29
558.81	59723.45
558.98	59585.36
559.14	59622.81
559.31	59753.88
559.47	59660.26
559.64	59746.86
559.80	59744.51
559.97	59711.75
560.13	59559.61
560.30	59751.54
560.46	59725.79
560.63	60123.68
560.79	59686.00
560.96	59819.41
561.12	59889.63
561.29	60030.06
561.45	59917.71
561.61	59915.37
561.78	59824.09
561.94	59887.29
562.11	59915.37
562.27	59887.29
562.44	60086.23
562.60	60025.38
562.77	60069.85
562.93	59758.56
563.10	60271.14
563.26	59966.87
563.42	60346.03
563.59	60168.15
563.75	60030.06
563.92	60217.30
564.08	59948.14
564.24	60018.36
564.41	60322.63
564.57	60100.28
564.74	60287.52
564.90	60116.66
565.07	60074.53
565.23	60083.89
565.39	60121.34
565.56	60458.38
565.72	60177.51
565.88	60322.63
566.05	60282.84
566.21	60189.22
566.38	60137.72
566.54	60322.63
566.70	60341.35
566.87	60427.95
567.03	60219.64
567.19	60495.83
567.36	60261.77
567.52	60252.41
567.68	60624.56
567.85	60629.24
568.01	60542.64
568.17	60362.42
568.34	60582.43
568.50	60481.78
568.66	60301.56
568.83	60547.32
568.99	60336.67
569.15	60411.57
569.32	60575.40
569.48	60413.91
569.64	60598.81
569.81	60324.97
569.97	60477.10
570.13	60472.42
570.30	60299.22
570.46	60434.97
570.62	60486.46
570.78	60495.83
570.95	60357.74
571.11	60549.66
571.27	60432.63
571.43	60514.55
571.60	60732.22
571.76	60622.22
571.92	60587.11
572.09	60612.85
572.25	60610.51
572.41	60725.20
572.57	60446.68
572.74	60760.31
572.90	60491.15
573.06	60830.52
573.22	60633.92
573.38	60926.49
573.55	60577.75
573.71	60889.04
573.87	60757.97
574.03	60638.60
574.20	60874.99
574.36	60683.07
574.52	60690.09
574.68	60692.43
574.84	60924.14
575.01	60769.67
575.17	60828.18
575.33	60886.70
575.49	60776.69
575.65	60788.39
575.82	60769.67
575.98	60760.31
576.14	61022.45
576.30	60849.25
576.46	60821.16
576.62	60676.05
576.79	60743.92
576.95	60662.00
577.11	60844.57
577.27	60720.52
577.43	60931.17
577.59	60811.80
577.75	60701.79
577.92	60830.52
578.08	60935.85
578.24	60870.31
578.40	60889.04
578.56	60961.59
578.72	60921.80
578.88	60921.80
579.04	60968.61
579.21	61013.08
579.37	61050.53
579.53	60963.93
579.69	60697.11
579.85	60739.24
580.01	60786.05
580.17	60977.98
580.33	61038.83
580.49	61036.49
580.65	60968.61
580.82	60903.08
580.98	60816.48
581.14	60846.91
581.30	61113.73
581.46	60989.68
581.62	61006.06
581.78	60914.78
581.94	60985.00
582.10	60963.93
582.26	60872.65
582.42	60926.49
582.58	60851.59
582.74	60977.98
582.90	60882.02
583.06	60985.00
583.22	60851.59
583.38	61013.08
583.54	61013.08
583.70	60996.70
583.86	61057.56
584.02	60886.70
584.18	61062.24
584.34	60985.00
584.50	61212.03
584.66	60985.00
584.82	60865.63
584.98	61160.54
585.14	61010.74
585.30	60977.98
585.46	61169.90
585.62	60954.57
585.78	61092.66
585.94	60816.48
586.10	61031.81
586.26	60973.30
586.42	61092.66
586.58	61020.11
586.74	61130.11
586.90	61006.06
587.06	61263.52
587.22	61169.90
587.38	61090.32
587.54	61244.80
587.70	61080.96
587.86	61083.30
588.02	61176.92
588.18	61116.07
588.34	61080.96
