SpectraSuite Data File
++++++++++++++++++++++++++++++++++++
Date: Fri Oct 25 11:25:11 EDT 2013
User: price-jones
Dark Spectrum Present: No
Reference Spectrum Present: No
Number of Sampled Component Spectra: 1
Spectrometers: USB2+H05261
Integration Time (usec): 100000 (USB2+H05261)
Spectra Averaged: 1 (USB2+H05261)
Boxcar Smoothing: 0 (USB2+H05261)
Correct for Electrical Dark: No (USB2+H05261)
Strobe/Lamp Enabled: No (USB2+H05261)
Correct for Detector Non-linearity: No (USB2+H05261)
Correct for Stray Light: No (USB2+H05261)
Number of Pixels in Processed Spectrum: 2048
>>>>>Begin Processed Spectral Data<<<<<
365.73	217.67
365.92	217.67
366.12	217.67
366.32	173.20
366.52	112.35
366.72	170.86
366.91	145.11
367.11	88.94
367.31	145.11
367.51	77.24
367.70	180.22
367.90	114.69
368.10	131.07
368.30	175.54
368.49	98.30
368.69	154.48
368.89	217.67
369.09	140.43
369.28	224.69
369.48	149.79
369.68	135.75
369.87	222.35
370.07	177.88
370.27	238.73
370.47	327.68
370.66	507.90
370.86	678.76
371.06	603.86
371.25	704.50
371.45	690.46
371.65	706.84
371.84	709.18
372.04	699.82
372.24	737.27
372.44	650.67
372.63	746.63
372.83	725.57
373.03	737.27
373.22	786.42
373.42	830.89
373.62	793.44
373.81	788.76
374.01	791.10
374.21	858.98
374.40	777.06
374.60	807.48
374.79	795.78
374.99	692.80
375.19	805.14
375.38	868.34
375.58	842.59
375.78	821.53
375.97	784.08
376.17	924.51
376.37	849.61
376.56	840.25
376.76	828.55
376.95	798.12
377.15	896.43
377.35	896.43
377.54	938.55
377.74	861.32
377.93	945.58
378.13	952.60
378.33	973.66
378.52	903.45
378.72	938.55
378.91	997.07
379.11	992.39
379.31	924.51
379.50	933.87
379.70	959.62
379.89	971.32
380.09	1088.35
380.28	1050.90
380.48	1083.67
380.68	971.32
380.87	983.02
381.07	887.06
381.26	992.39
381.46	1001.75
381.65	1004.09
381.85	1050.90
382.04	1053.24
382.24	1121.12
382.43	1102.39
382.63	1139.84
382.83	1041.54
383.02	1025.15
383.22	1078.99
383.41	1039.20
383.61	1086.01
383.80	1008.77
384.00	1153.88
384.19	1121.12
384.39	1139.84
384.58	1083.67
384.78	1102.39
384.97	1121.12
385.17	1149.20
385.36	1177.29
385.56	1104.73
385.75	1121.12
385.95	1123.46
386.14	1310.70
386.34	1163.25
386.53	1172.61
386.72	1167.93
386.92	1210.06
387.11	1221.76
387.31	1219.42
387.50	1268.57
387.70	1266.23
387.89	1160.91
388.09	1275.59
388.28	1348.15
388.48	1219.42
388.67	1394.96
388.86	1341.13
389.06	1369.21
389.25	1355.17
389.45	1320.06
389.64	1217.08
389.84	1362.19
390.03	1380.92
390.22	1441.77
390.42	1306.02
390.61	1348.15
390.81	1448.79
391.00	1376.24
391.19	1416.02
391.39	1352.83
391.58	1523.69
391.78	1451.13
391.97	1448.79
392.16	1462.83
392.36	1497.94
392.55	1455.81
392.75	1600.93
392.94	1385.60
393.13	1556.46
393.33	1500.28
393.52	1497.94
393.71	1640.72
393.91	1558.80
394.10	1577.52
394.29	1526.03
394.49	1607.95
394.68	1638.38
394.88	1614.97
395.07	1661.78
395.26	1605.61
395.46	1675.82
395.65	1689.87
395.84	1781.15
396.04	1769.44
396.23	1689.87
396.42	1724.97
396.62	1799.87
396.81	1717.95
397.00	1778.81
397.19	1799.87
397.39	1785.83
397.58	1774.13
397.77	1785.83
397.97	1781.15
398.16	1849.02
398.35	1954.35
398.55	1900.52
398.74	1809.23
398.93	1956.69
399.12	1947.33
399.32	1914.56
399.51	1769.44
399.70	2033.93
399.90	1975.41
400.09	2033.93
400.28	1923.92
400.47	2005.84
400.67	2022.22
400.86	2050.31
401.05	2106.48
401.24	2094.78
401.44	2047.97
401.63	2146.27
401.82	2153.29
402.01	2136.91
402.21	2059.67
402.40	2090.10
402.59	2127.55
402.78	2183.72
402.97	2246.91
403.17	2335.85
403.36	2153.29
403.55	2267.98
403.74	2293.72
403.93	2354.58
404.13	2314.79
404.32	2303.09
404.51	2286.70
404.70	2385.01
404.89	2373.30
405.09	2480.97
405.28	2452.88
405.47	2399.05
405.66	2492.67
405.85	2485.65
406.05	2471.61
406.24	2399.05
406.43	2583.95
406.62	2445.86
406.81	2747.79
407.00	2562.89
407.20	2658.85
407.39	2562.89
407.58	2766.51
407.77	2633.10
407.96	2857.79
408.15	2733.75
408.34	2761.83
408.54	2705.66
408.73	2752.47
408.92	2733.75
409.11	2841.41
409.30	2778.22
409.49	2871.84
409.68	2930.35
409.87	2881.20
410.07	2993.55
410.26	2930.35
410.45	3047.38
410.64	3052.06
410.83	3133.98
411.02	3133.98
411.21	3213.56
411.40	3082.49
411.59	3208.87
411.78	3150.36
411.98	3206.53
412.17	3363.35
412.36	3290.79
412.55	3407.82
412.74	3363.35
412.93	3393.78
413.12	3398.46
413.31	3513.14
413.50	3389.10
413.69	3501.44
413.88	3564.64
414.07	3641.87
414.26	3581.02
414.45	3487.40
414.64	3630.17
414.83	3644.21
415.02	3693.37
415.22	3789.33
415.41	3798.69
415.60	3747.20
415.79	3789.33
415.98	3960.19
416.17	3866.56
416.36	3932.10
416.55	4091.26
416.74	4070.19
416.93	3943.80
417.12	4131.05
417.31	3978.91
417.50	4166.15
417.69	4236.37
417.88	4175.52
418.07	4315.95
418.26	4266.80
418.45	4339.35
418.64	4531.28
418.83	4404.89
419.02	4292.54
419.21	4503.19
419.39	4491.49
419.58	4521.92
419.77	4568.73
419.96	4592.13
420.15	4610.86
420.34	4531.28
420.53	4627.24
420.72	4599.15
420.91	4730.22
421.10	4638.94
421.29	4730.22
421.48	4702.14
421.67	4774.69
421.86	4837.89
422.05	4835.55
422.24	4802.78
422.43	4802.78
422.61	4905.76
422.80	4851.93
422.99	4873.00
423.18	4774.69
423.37	5004.07
423.56	4999.38
423.75	4978.32
423.94	4828.53
424.13	4608.51
424.32	4786.40
424.50	4952.57
424.69	5111.73
424.88	4931.51
425.07	4938.53
425.26	4975.98
425.45	4873.00
425.64	4891.72
425.83	4856.61
426.01	5090.67
426.20	5074.28
426.39	4945.55
426.58	5095.35
426.77	5097.69
426.96	5034.49
427.15	5114.07
427.33	4959.60
427.52	5064.92
427.71	5345.78
427.90	5167.90
428.09	5167.90
428.28	5397.28
428.46	5217.05
428.65	5284.93
428.84	5341.10
429.03	5385.57
429.22	5233.44
429.40	5432.38
429.59	5476.85
429.78	5284.93
429.97	5336.42
430.16	5472.17
430.34	5448.77
430.53	5666.44
430.72	5668.78
430.91	5542.39
431.10	5451.11
431.28	5736.65
431.47	5610.26
431.66	5706.23
431.85	5778.78
432.03	5970.71
432.22	5692.18
432.41	5951.98
432.60	5827.93
432.79	5898.15
432.97	5961.34
433.16	5998.79
433.35	5914.53
433.54	5884.11
433.72	6225.82
433.91	6136.88
434.10	6157.95
434.28	6047.94
434.47	6087.73
434.66	5966.03
434.85	6424.77
435.03	6284.34
435.22	6244.55
435.41	6408.39
435.59	6520.73
435.78	6530.09
435.97	6583.93
436.16	6415.41
436.34	6293.70
436.53	6317.11
436.72	6593.29
436.90	6431.79
437.09	6518.39
437.28	6420.09
437.46	6441.15
437.65	6509.03
437.84	6698.61
438.02	6621.38
438.21	6848.41
438.40	6761.81
438.58	6967.77
438.77	6871.81
438.96	7056.72
439.14	7094.16
439.33	7246.30
439.52	7103.53
439.70	7215.87
439.89	7403.11
440.08	7393.75
440.26	7185.44
440.45	7250.98
440.63	7414.82
440.82	7630.15
441.01	7433.54
441.19	7461.63
441.38	7599.72
441.57	7676.96
441.75	7964.84
441.94	7927.39
442.12	7880.58
442.31	7866.54
442.50	7967.18
442.68	7978.89
442.87	8002.29
443.05	7981.23
443.24	8252.73
443.43	7903.99
443.61	8273.79
443.80	8348.69
443.98	8028.04
444.17	7721.43
444.35	7999.95
444.54	8346.35
444.73	8084.21
444.91	7852.50
445.10	8198.90
445.28	8229.32
445.47	8292.52
445.65	8285.50
445.84	8390.82
446.02	8533.59
446.21	8344.01
446.39	8285.50
446.58	8589.77
446.77	8241.03
446.95	8210.60
447.14	8416.57
447.32	8484.44
447.51	8643.60
447.69	8280.82
447.88	8372.10
448.06	8507.85
448.25	8388.48
448.43	8652.96
448.62	8629.56
448.80	8442.31
448.99	8526.57
449.17	8580.40
449.36	8631.90
449.54	8748.92
449.73	8840.20
449.91	8908.08
450.10	8933.82
450.28	8898.72
450.46	9039.15
450.65	8896.38
450.83	9090.64
451.02	9076.60
451.20	9104.68
451.39	8926.80
451.57	9081.28
451.76	8959.57
451.94	9146.81
452.13	9317.67
452.31	9226.39
452.49	9039.15
452.68	9418.32
452.86	9259.16
453.05	9390.23
453.23	9329.38
453.42	9322.35
453.60	9364.48
453.78	9603.22
453.97	9163.20
454.15	9394.91
454.34	9516.62
454.52	9582.15
454.70	9701.52
454.89	9825.57
455.07	9572.79
455.26	9652.37
455.44	9755.35
455.62	9919.19
455.81	9617.26
455.99	10064.30
456.17	10071.33
456.36	9923.87
456.54	10036.22
456.73	10134.52
456.91	10408.36
457.09	10424.75
457.28	10167.29
457.46	10115.80
457.64	10492.62
457.83	10272.61
458.01	10417.72
458.19	10530.07
458.38	10471.56
458.56	10597.95
458.74	10932.64
458.93	10934.98
459.11	10663.48
459.29	10682.20
459.48	10738.38
459.66	10757.10
459.84	10668.16
460.03	11033.29
460.21	10906.90
460.39	10787.53
460.57	10853.06
460.76	10827.32
460.94	11047.33
461.12	11101.16
461.31	11241.59
461.49	11286.06
461.67	10984.13
461.85	11442.88
462.04	11028.60
462.22	11878.22
462.40	11522.46
462.59	11365.64
462.77	11360.96
462.95	11433.52
463.13	11641.82
463.32	11543.52
463.50	11826.73
463.68	11571.61
463.86	11672.25
464.05	11515.44
464.23	11571.61
464.41	11885.24
464.59	11679.27
464.78	12131.00
464.96	11824.39
465.14	11768.21
465.32	11913.33
465.50	12208.23
465.69	12084.19
465.87	12109.93
466.05	12140.36
466.23	11985.88
466.41	12154.40
466.60	12339.30
466.78	12060.78
466.96	12107.59
467.14	12114.61
467.32	12294.83
467.51	12470.37
467.69	11969.50
467.87	12339.30
468.05	12379.09
468.23	12404.84
468.41	12404.84
468.60	12622.51
468.78	12629.53
468.96	12482.08
469.14	12910.40
469.32	12898.69
469.50	12674.00
469.69	12980.61
469.87	12872.95
470.05	12929.12
470.23	13053.17
470.41	13050.83
470.59	13345.73
470.77	13130.41
470.95	13132.75
471.14	13268.50
471.32	12989.97
471.50	13678.09
471.68	13460.42
471.86	13748.31
472.04	13654.69
472.22	14005.77
472.40	13369.14
472.58	13818.52
472.77	13806.82
472.95	14139.18
473.13	14537.07
473.31	13930.87
473.49	13980.02
473.67	14202.37
473.85	14281.95
474.03	14672.82
474.21	14523.02
474.39	14630.69
474.57	14836.66
474.75	14850.70
474.93	14906.87
475.12	14733.67
475.30	15185.40
475.48	14927.94
475.66	15239.23
475.84	14904.53
476.02	15360.94
476.20	15077.73
476.38	15744.78
476.56	15840.75
476.74	15672.23
476.92	15686.27
477.10	16004.58
477.28	16222.25
477.46	16126.29
477.64	16444.60
477.82	16243.32
478.00	16791.00
478.18	16482.05
478.36	16844.84
478.54	16908.03
478.72	17186.55
478.90	17088.25
479.08	17436.99
479.26	17820.84
479.44	17628.92
479.62	17607.85
479.80	18040.85
479.98	18115.75
480.16	18565.13
480.34	18422.36
480.52	18714.92
480.70	18354.48
480.88	18441.08
481.06	18560.45
481.24	18738.33
481.41	19117.50
481.59	19012.17
481.77	19138.56
481.95	19403.04
482.13	19733.06
482.31	19428.79
482.49	20334.57
482.67	19812.63
482.85	20376.70
483.03	20498.41
483.21	20458.62
483.39	20795.66
483.57	20863.54
483.74	21022.69
483.92	21263.77
484.10	21205.25
484.28	21521.23
484.46	21628.89
484.64	22106.36
484.82	21591.44
485.00	21998.70
485.18	22265.52
485.35	22640.00
485.53	22324.03
485.71	22640.00
485.89	23143.22
486.07	23159.60
486.25	22860.01
486.43	23494.30
486.61	23676.86
486.78	24023.26
486.96	23997.51
487.14	24528.81
487.32	24479.66
487.50	24386.04
487.68	24456.26
487.85	25245.02
488.03	25249.70
488.21	25546.95
488.39	25465.03
488.57	26204.64
488.75	25766.96
488.92	25949.52
489.10	26548.70
489.28	26368.48
489.46	27002.76
489.64	26579.12
489.81	27316.39
489.99	27468.53
490.17	27730.67
490.35	27765.78
490.53	27936.63
490.70	27957.70
490.88	27892.16
491.06	28744.12
491.24	28395.38
491.41	28409.42
491.59	28940.72
491.77	29010.94
491.95	29486.07
492.13	29319.89
492.30	29762.25
492.48	29680.33
492.66	30059.50
492.84	30132.06
493.01	30366.11
493.19	30417.60
493.37	30745.28
493.54	30433.99
493.72	31089.34
493.90	31133.81
494.08	31220.41
494.25	31622.98
494.43	32205.77
494.61	32158.96
494.79	32320.46
494.96	32140.24
495.14	32720.69
495.32	32896.23
495.49	32816.65
495.67	32893.89
495.85	33340.93
496.02	33546.90
496.20	33397.10
496.38	33755.21
496.55	33682.65
496.73	34958.24
496.91	34370.77
497.09	34831.85
497.26	34752.27
497.44	34698.44
497.62	35192.30
497.79	35234.42
497.97	35154.85
498.14	35264.85
498.32	36348.52
498.50	35597.21
498.67	35955.31
498.85	36212.77
499.03	36493.63
499.20	36875.14
499.38	36601.30
499.56	36673.85
499.73	36400.01
499.91	37141.96
500.08	37268.35
500.26	36825.99
500.44	37479.00
500.61	37827.74
500.79	37656.88
500.97	37956.47
501.14	38080.52
501.32	38412.87
501.49	38384.79
501.67	38230.31
501.84	38384.79
502.02	38445.64
502.20	38866.94
502.37	38768.63
502.55	38962.90
502.72	39454.41
502.90	39358.45
503.07	39590.16
503.25	39854.64
503.43	39407.60
503.60	39700.17
503.78	39966.99
503.95	39833.58
504.13	40343.81
504.30	40446.80
504.48	40261.90
504.65	40053.59
504.83	40748.73
505.01	41280.03
505.18	41151.30
505.36	41064.70
505.53	41280.03
505.71	41155.98
505.88	42089.85
506.06	41422.80
506.23	41588.98
506.41	41701.32
506.58	41923.68
506.76	41624.09
506.93	42312.20
507.11	41621.75
507.28	42401.14
507.46	42419.87
507.63	43035.43
507.81	42979.26
507.98	42628.18
508.16	43234.38
508.33	43049.47
508.50	43107.99
508.68	43746.95
508.85	43730.57
509.03	43700.14
509.20	43976.33
509.38	44301.66
509.55	44065.27
509.73	44065.27
509.90	44254.85
510.08	44217.40
510.25	44350.81
510.42	44409.32
510.60	44720.62
510.77	44711.25
510.95	44861.05
511.12	44891.48
511.30	44968.71
511.47	45024.89
511.64	45043.61
511.82	45680.24
511.99	45446.18
512.17	45654.49
512.34	45429.80
512.51	46267.71
512.69	46239.62
512.86	46138.98
513.04	46604.75
513.21	46492.40
513.38	46621.13
513.56	46681.98
513.73	46576.66
513.90	46972.21
514.08	46635.17
514.25	46911.36
514.43	47372.44
514.60	47131.37
514.77	47196.90
514.95	47224.99
515.12	47459.04
515.29	46944.12
515.47	47571.39
515.64	47508.19
515.81	47456.70
515.99	47908.43
516.16	47980.98
516.33	48278.23
516.51	48662.08
516.68	48287.59
516.85	48011.41
517.03	48849.32
517.20	48704.21
517.37	48509.94
517.54	48612.93
517.72	48685.48
517.89	48701.87
518.06	48975.71
518.24	48631.65
518.41	49083.37
518.58	48924.22
518.75	48903.15
518.93	49305.73
519.10	49324.45
519.27	49305.73
519.45	49095.08
519.62	49727.02
519.79	49708.30
519.96	49869.79
520.14	49734.04
520.31	49647.44
520.48	50197.47
520.65	49830.01
520.83	50295.77
521.00	50506.42
521.17	50148.32
521.34	50464.29
521.52	50581.32
521.69	50569.61
521.86	50876.22
522.03	50974.53
522.20	51042.40
522.38	51161.77
522.55	50911.33
522.72	51105.60
522.89	51121.98
523.07	51339.65
523.24	51304.54
523.41	51433.27
523.58	51285.82
523.75	51585.41
523.92	51496.47
524.10	51672.01
524.27	52013.73
524.44	51760.95
524.61	51913.08
524.78	51952.87
524.96	51966.91
525.13	52013.73
525.30	52114.37
525.47	52413.96
525.64	52296.93
525.81	52491.19
525.98	52259.48
526.16	52376.51
526.33	52137.77
526.50	52692.48
526.67	52081.60
526.84	52512.26
527.01	52729.93
527.18	52889.09
527.36	52444.38
527.53	53148.88
527.70	53214.42
527.87	53111.44
528.04	52898.45
528.21	53441.45
528.38	53251.87
528.55	53528.05
528.72	52992.07
528.89	53525.71
529.07	53324.43
529.24	53298.68
529.41	53406.34
529.58	53411.02
529.75	53301.02
529.92	53633.38
530.09	53504.65
530.26	53869.77
530.43	53647.42
530.60	53556.14
530.77	53717.64
530.94	53712.95
531.11	53874.45
531.28	53811.26
531.46	54087.44
531.63	54195.10
531.80	53881.47
531.97	54218.51
532.14	54195.10
532.31	54213.83
532.48	54372.99
532.65	54494.69
532.82	54431.50
532.99	54487.67
533.16	54344.90
533.33	54328.52
533.50	54810.67
533.67	54590.66
533.84	54646.83
534.01	54585.97
534.18	54862.16
534.35	54986.21
534.52	54770.88
534.69	55093.87
534.86	55093.87
535.03	54801.30
535.20	55077.49
535.37	55079.83
535.54	54986.21
535.71	54890.24
535.88	55592.40
536.05	55374.73
536.22	55554.96
536.38	55180.47
536.55	55461.33
536.72	55491.76
536.89	55166.43
537.06	55526.87
537.23	55430.91
537.40	55281.11
537.57	55599.43
537.74	55477.72
537.91	55828.80
538.08	55807.73
538.25	55337.29
538.42	55440.27
538.59	55969.23
538.75	55604.11
538.92	55976.25
539.09	56067.53
539.26	55859.23
539.43	55938.80
539.60	56069.87
539.77	56083.92
539.94	56048.81
540.11	56226.69
540.28	56189.24
540.44	56119.02
540.61	56327.33
540.78	55849.86
540.95	56243.07
541.12	56053.49
541.29	56313.29
541.46	56313.29
541.62	56367.12
541.79	56453.72
541.96	56179.88
542.13	56367.12
542.30	56640.96
542.47	56505.21
542.63	56647.99
542.80	56844.59
542.97	57088.01
543.14	57057.58
543.31	57008.43
543.48	57333.76
543.64	57368.87
543.81	57293.97
543.98	56978.00
544.15	57022.47
544.32	57450.79
544.48	57422.70
544.65	57244.82
544.82	57359.51
544.99	57286.95
545.16	57411.00
545.32	57282.27
545.49	57256.53
545.66	57439.09
545.83	57406.32
546.00	57666.12
546.16	57556.11
546.33	57443.77
546.50	57411.00
546.67	57783.15
546.83	57181.63
547.00	57652.08
547.17	57504.62
547.34	57350.15
547.50	57778.46
547.67	57858.04
547.84	57799.53
548.00	57846.34
548.17	57858.04
548.34	57783.15
548.51	58007.84
548.67	58014.86
548.84	57846.34
549.01	57944.64
549.18	57982.09
549.34	58255.93
549.51	58026.56
549.68	58040.60
549.84	58246.57
550.01	58408.07
550.18	58202.10
550.34	58370.62
550.51	58337.85
550.68	58246.57
550.84	58082.73
551.01	58440.84
551.18	58335.51
551.34	58363.60
551.51	58269.98
551.68	58330.83
551.84	58419.77
552.01	58379.98
552.18	58548.50
552.34	58244.23
552.51	58518.07
552.68	58272.32
552.84	58475.94
553.01	58862.13
553.18	58567.23
553.34	58731.06
553.51	58602.33
553.67	58688.93
553.84	58773.19
554.01	59040.01
554.17	58677.23
554.34	58983.84
554.51	58885.54
554.67	58960.44
554.84	58906.60
555.00	58869.15
555.17	58721.70
555.33	58976.82
555.50	58623.40
555.67	58906.60
555.83	58740.42
556.00	58890.22
556.16	59325.56
556.33	59150.02
556.50	59068.10
556.66	59077.46
556.83	58939.37
556.99	59157.04
557.16	59253.00
557.32	59201.51
557.49	59454.29
557.65	59164.06
557.82	59295.13
557.98	59152.36
558.15	59150.02
558.32	59044.69
558.48	59269.39
558.65	59311.52
558.81	59341.94
558.98	59384.07
559.14	59454.29
559.31	59393.43
559.47	59531.53
559.64	59646.21
559.80	59395.77
559.97	59636.85
560.13	59309.18
560.30	59353.65
560.46	59618.13
560.63	59529.19
560.79	59594.72
560.96	59767.92
561.12	59648.55
561.29	59650.89
561.45	59777.28
561.61	59721.11
561.78	59505.78
561.94	59700.04
562.11	59732.81
562.27	59765.58
562.44	59927.08
562.60	59929.42
562.77	59990.27
562.93	59910.69
563.10	59992.61
563.26	59566.63
563.42	60090.91
563.59	59859.20
563.75	59817.07
563.92	59805.37
564.08	59788.98
564.24	60065.17
564.41	60023.04
564.57	59966.87
564.74	59924.74
564.90	60030.06
565.07	60037.08
565.23	59812.39
565.39	59901.33
565.56	59931.76
565.72	60086.23
565.88	60025.38
566.05	59959.84
566.21	60051.12
566.38	59917.71
566.54	60065.17
566.70	60214.96
566.87	60275.82
567.03	59978.57
567.19	60280.50
567.36	60128.36
567.52	60058.15
567.68	60278.16
567.85	60336.67
568.01	60212.62
568.17	60034.74
568.34	60193.90
568.50	60205.60
568.66	60191.56
568.83	60217.30
568.99	60137.72
569.15	60130.70
569.32	60376.46
569.48	60418.59
569.64	60388.16
569.81	60252.41
569.97	60273.48
570.13	60406.89
570.30	60362.42
570.46	60493.49
570.62	60530.93
570.78	60406.89
570.95	60313.26
571.11	60591.79
571.27	60226.66
571.43	60357.74
571.60	60491.15
571.76	60282.84
571.92	60364.76
572.09	60437.31
572.25	60516.89
572.41	60329.65
572.57	60474.76
572.74	60439.65
572.90	60416.25
573.06	60142.41
573.22	60498.17
573.38	60397.52
573.55	60423.27
573.71	60605.83
573.87	60570.72
574.03	60273.48
574.20	60467.74
574.36	60472.42
574.52	60547.32
574.68	60662.00
574.84	60526.25
575.01	60636.26
575.17	60364.76
575.33	60666.69
575.49	60378.80
575.65	60605.83
575.82	60559.02
575.98	60729.88
576.14	60662.00
576.30	60608.17
576.46	60505.19
576.62	60615.19
576.79	60427.95
576.95	60584.77
577.11	60732.22
577.27	60718.18
577.43	60690.09
577.59	60645.62
577.75	60626.90
577.92	60432.63
578.08	60633.92
578.24	60708.82
578.40	60561.36
578.56	60659.66
578.72	60533.28
578.88	60926.49
579.04	60786.05
579.21	60734.56
579.37	60704.13
579.53	60837.54
579.69	60533.28
579.85	60786.05
580.01	60610.51
580.17	60587.11
580.33	60755.63
580.49	60669.03
580.65	60746.26
580.82	60748.60
580.98	60671.37
581.14	60552.00
581.30	60980.32
581.46	60645.62
581.62	60654.98
581.78	60612.85
581.94	60713.50
582.10	60732.22
582.26	60654.98
582.42	60720.52
582.58	60809.46
582.74	60729.88
582.90	60942.87
583.06	60896.06
583.22	60718.18
583.38	60739.24
583.54	60968.61
583.70	60863.29
583.86	60711.16
584.02	60889.04
584.18	60825.84
584.34	60940.53
584.50	60767.33
584.66	60781.37
584.82	60734.56
584.98	60954.57
585.14	60788.39
585.30	60636.26
585.46	60996.70
585.62	60931.17
585.78	61080.96
585.94	60793.07
586.10	60891.38
586.26	60933.51
586.42	60912.44
586.58	60945.21
586.74	61071.60
586.90	60800.10
587.06	60830.52
587.22	60905.42
587.38	61116.07
587.54	60879.67
587.70	61188.63
587.86	61066.92
588.02	60729.88
588.18	60893.72
588.34	60746.26
588.49	60729.88
