SpectraSuite Data File
++++++++++++++++++++++++++++++++++++
Date: Fri Oct 25 11:24:01 EDT 2013
User: price-jones
Dark Spectrum Present: No
Reference Spectrum Present: No
Number of Sampled Component Spectra: 1
Spectrometers: USB2+H05261
Integration Time (usec): 100000 (USB2+H05261)
Spectra Averaged: 1 (USB2+H05261)
Boxcar Smoothing: 0 (USB2+H05261)
Correct for Electrical Dark: No (USB2+H05261)
Strobe/Lamp Enabled: No (USB2+H05261)
Correct for Detector Non-linearity: No (USB2+H05261)
Correct for Stray Light: No (USB2+H05261)
Number of Pixels in Processed Spectrum: 2048
>>>>>Begin Processed Spectral Data<<<<<
365.73	220.01
365.92	220.01
366.12	220.01
366.32	156.82
366.52	152.13
366.72	198.95
366.91	88.94
367.11	88.94
367.31	91.28
367.51	105.32
367.70	81.92
367.90	196.60
368.10	166.18
368.30	77.24
368.49	117.03
368.69	269.16
368.89	147.45
369.09	117.03
369.28	194.26
369.48	194.26
369.68	112.35
369.87	138.09
370.07	217.67
370.27	292.57
370.47	301.93
370.66	540.66
370.86	603.86
371.06	608.54
371.25	711.52
371.45	690.46
371.65	692.80
371.84	788.76
372.04	667.05
372.24	812.17
372.44	739.61
372.63	704.50
372.83	711.52
373.03	746.63
373.22	788.76
373.42	851.96
373.62	786.42
373.81	765.36
374.01	786.42
374.21	844.93
374.40	720.88
374.60	809.83
374.79	763.01
374.99	889.40
375.19	798.12
375.38	924.51
375.58	823.87
375.78	777.06
375.97	844.93
376.17	894.08
376.37	833.23
376.56	847.27
376.76	840.25
376.95	847.27
377.15	950.26
377.35	968.98
377.54	978.34
377.74	912.81
377.93	950.26
378.13	940.90
378.33	901.11
378.52	910.47
378.72	896.43
378.91	931.53
379.11	947.92
379.31	983.02
379.50	873.02
379.70	947.92
379.89	1008.77
380.09	1001.75
380.28	999.41
380.48	931.53
380.68	971.32
380.87	978.34
381.07	943.24
381.26	1067.28
381.46	1062.60
381.65	1046.22
381.85	1081.33
382.04	952.60
382.24	1104.73
382.43	1032.18
382.63	1053.24
382.83	1097.71
383.02	1163.25
383.22	1142.18
383.41	1083.67
383.61	1165.59
383.80	1088.35
384.00	1139.84
384.19	973.66
384.39	1020.47
384.58	1109.41
384.78	1102.39
384.97	1181.97
385.17	1167.93
385.36	1163.25
385.56	1163.25
385.75	1224.10
385.95	1224.10
386.14	1235.80
386.34	1219.42
386.53	1226.44
386.72	1170.27
386.92	1235.80
387.11	1181.97
387.31	1273.25
387.50	1235.80
387.70	1184.31
387.89	1247.51
388.09	1261.55
388.28	1277.93
388.48	1270.91
388.67	1313.04
388.86	1306.02
389.06	1362.19
389.25	1343.47
389.45	1282.61
389.64	1317.72
389.84	1390.28
390.03	1355.17
390.22	1411.34
390.42	1364.53
390.61	1373.89
390.81	1425.39
391.00	1455.81
391.19	1425.39
391.39	1455.81
391.58	1331.76
391.78	1413.68
391.97	1486.24
392.16	1411.34
392.36	1502.62
392.55	1495.60
392.75	1500.28
392.94	1547.09
393.13	1551.78
393.33	1439.43
393.52	1629.01
393.71	1612.63
393.91	1603.27
394.10	1563.48
394.29	1561.14
394.49	1612.63
394.68	1748.38
394.88	1596.25
395.07	1682.85
395.26	1673.48
395.46	1631.35
395.65	1788.17
395.84	1722.63
396.04	1748.38
396.23	1750.72
396.42	1818.60
396.62	1776.47
396.81	1727.32
397.00	1783.49
397.19	1823.28
397.39	1762.42
397.58	1844.34
397.77	1785.83
397.97	1858.39
398.16	1902.86
398.35	1900.52
398.55	1856.04
398.74	1933.28
398.93	2019.88
399.12	1937.96
399.32	1837.32
399.51	1916.90
399.70	1949.67
399.90	2031.58
400.09	2043.29
400.28	2043.29
400.47	2059.67
400.67	2087.76
400.86	2101.80
401.05	2038.61
401.24	2076.06
401.44	2064.35
401.63	2115.84
401.82	2218.83
402.01	2122.87
402.21	2125.21
402.40	2289.04
402.59	2207.13
402.78	2214.15
402.97	2256.28
403.17	2246.91
403.36	2237.55
403.55	2275.00
403.74	2342.88
403.93	2225.85
404.13	2359.26
404.32	2459.90
404.51	2291.38
404.70	2473.95
404.89	2326.49
405.09	2476.29
405.28	2445.86
405.47	2464.58
405.66	2530.12
405.85	2609.70
406.05	2691.62
406.24	2562.89
406.43	2607.36
406.62	2799.28
406.81	2796.94
407.00	2696.30
407.20	2532.46
407.39	2722.04
407.58	2771.19
407.77	2780.56
407.96	2822.69
408.15	2822.69
408.34	2656.51
408.54	2857.79
408.73	2871.84
408.92	2925.67
409.11	2710.34
409.30	2813.32
409.49	3049.72
409.68	2909.29
409.87	2963.12
410.07	3009.93
410.26	2991.20
410.45	3000.57
410.64	3089.51
410.83	3110.57
411.02	3023.97
411.21	3232.28
411.40	3183.13
411.59	3201.85
411.78	3096.53
411.98	3241.64
412.17	3321.22
412.36	3393.78
412.55	3412.50
412.74	3386.76
412.93	3428.88
413.12	3412.50
413.31	3588.04
413.50	3452.29
413.69	3419.52
413.88	3569.32
414.07	3627.83
414.26	3744.86
414.45	3733.15
414.64	3651.24
414.83	3679.32
415.02	3840.82
415.22	3803.37
415.41	3840.82
415.60	3892.31
415.79	3882.95
415.98	3885.29
416.17	3936.78
416.36	3939.12
416.55	4067.85
416.74	4051.47
416.93	3992.95
417.12	4168.49
417.31	4175.52
417.50	4109.98
417.69	4376.80
417.88	4337.01
418.07	4287.86
418.26	4241.05
418.45	4332.33
418.64	4444.68
418.83	4493.83
419.02	4461.06
419.21	4552.34
419.39	4578.09
419.58	4648.30
419.77	4393.19
419.96	4524.26
420.15	4561.70
420.34	4690.43
420.53	4498.51
420.72	4697.46
420.91	4744.27
421.10	4617.88
421.29	4779.37
421.48	4915.12
421.67	4791.08
421.86	4983.00
422.05	4854.27
422.24	4830.87
422.43	4933.85
422.61	4985.34
422.80	4959.60
422.99	4950.23
423.18	5107.05
423.37	5074.28
423.56	4952.57
423.75	5048.54
423.94	4997.04
424.13	4636.60
424.32	4732.56
424.50	5001.72
424.69	5036.83
424.88	5006.41
425.07	4931.51
425.26	4873.00
425.45	5025.13
425.64	5067.26
425.83	5135.14
426.01	5114.07
426.20	5027.47
426.39	5020.45
426.58	5081.30
426.77	5123.43
426.96	5151.52
427.15	5231.10
427.33	5263.86
427.52	5256.84
427.71	5289.61
427.90	5317.70
428.09	5247.48
428.28	5472.17
428.46	5313.02
428.65	5289.61
428.84	5577.50
429.03	5570.48
429.22	5556.43
429.40	5432.38
429.59	5399.62
429.78	5308.34
429.97	5336.42
430.16	5565.79
430.34	5626.65
430.53	5638.35
430.72	5626.65
430.91	5689.84
431.10	5734.31
431.28	5755.38
431.47	5837.30
431.66	5879.43
431.85	5804.53
432.03	5968.37
432.22	6073.69
432.41	5949.64
432.60	5902.83
432.79	5839.64
432.97	6052.63
433.16	6036.24
433.35	6073.69
433.54	6209.44
433.72	6132.20
433.91	6129.86
434.10	6019.86
434.28	6073.69
434.47	6047.94
434.66	6377.96
434.85	6228.17
435.03	6211.78
435.22	6415.41
435.41	6544.14
435.59	6408.39
435.78	6380.30
435.97	6459.88
436.16	6370.94
436.34	6445.84
436.53	6502.01
436.72	6569.88
436.90	6331.15
437.09	6588.61
437.28	6464.56
437.46	6513.71
437.65	6665.85
437.84	6832.02
438.02	6869.47
438.21	6794.58
438.40	6757.13
438.58	6904.58
438.77	6942.03
438.96	6813.30
439.14	7197.15
439.33	7325.88
439.52	7201.83
439.70	7117.57
439.89	7606.74
440.08	7424.18
440.26	7332.90
440.45	7356.30
440.63	7449.93
440.82	7630.15
441.01	7447.58
441.19	7599.72
441.38	7880.58
441.57	7676.96
441.75	7864.20
441.94	8070.17
442.12	7981.23
442.31	8098.25
442.50	8046.76
442.68	8102.93
442.87	8114.64
443.05	8074.85
443.24	8257.41
443.43	8243.37
443.61	8124.00
443.80	8564.02
443.98	8093.57
444.17	8035.06
444.35	8238.69
444.54	8365.07
444.73	8241.03
444.91	8215.28
445.10	8596.79
445.28	8243.37
445.47	8315.92
445.65	8472.74
445.84	8449.33
446.02	8528.91
446.21	8552.32
446.39	8381.46
446.58	8484.44
446.77	8559.34
446.95	8390.82
447.14	8496.14
447.32	8465.72
447.51	8482.10
447.69	8367.42
447.88	8814.46
448.06	8486.78
448.25	8573.38
448.43	8695.09
448.62	8505.51
448.80	8564.02
448.99	8746.58
449.17	8664.66
449.36	8624.87
449.54	8940.85
449.73	8929.14
449.91	8901.06
450.10	9090.64
450.28	9315.33
450.46	9352.78
450.65	8819.14
450.83	9076.60
451.02	8945.53
451.20	9259.16
451.39	9268.52
451.57	9219.37
451.76	8809.78
451.94	9212.35
452.13	9348.10
452.31	9336.40
452.49	9280.22
452.68	9408.95
452.86	9408.95
453.05	9680.46
453.23	9533.00
453.42	9401.93
453.60	9397.25
453.78	9605.56
453.97	9633.64
454.15	9537.68
454.34	9657.05
454.52	9671.09
454.70	9809.19
454.89	9900.47
455.07	9806.84
455.26	9820.89
455.44	10005.79
455.62	9963.66
455.81	10003.45
455.99	9912.17
456.17	10139.20
456.36	9902.81
456.54	10148.56
456.73	10157.92
456.91	10567.52
457.09	10235.16
457.28	10642.42
457.46	10445.81
457.64	10614.33
457.83	10654.12
458.01	10466.88
458.19	10860.09
458.38	10682.20
458.56	10920.94
458.74	10729.02
458.93	10920.94
459.11	10752.42
459.29	11009.88
459.48	10897.53
459.66	10874.13
459.84	10619.01
460.03	11094.14
460.21	11019.24
460.39	11171.38
460.57	11206.48
460.76	11077.76
460.94	11365.64
461.12	11466.28
461.31	11035.63
461.49	11234.57
461.67	11211.17
461.85	11679.27
462.04	11173.72
462.22	11552.88
462.40	11698.00
462.59	11468.62
462.77	11779.92
462.95	11868.86
463.13	11779.92
463.32	11805.66
463.50	11779.92
463.68	11695.66
463.86	11871.20
464.05	11690.98
464.23	11861.84
464.41	11805.66
464.59	11744.81
464.78	12018.65
464.96	12196.53
465.14	11997.59
465.32	12009.29
465.50	12018.65
465.69	12018.65
465.87	12236.32
466.05	12180.15
466.23	12248.02
466.41	12107.59
466.60	12727.83
466.78	12336.96
466.96	12416.54
467.14	12283.13
467.32	12215.26
467.51	12353.35
467.69	12255.04
467.87	12629.53
468.05	12795.71
468.23	12711.45
468.41	12409.52
468.60	12800.39
468.78	12992.31
468.96	12690.38
469.14	12950.18
469.32	13069.55
469.50	12765.28
469.69	12905.71
469.87	13102.32
470.05	13256.79
470.23	13336.37
470.41	13221.69
470.59	13378.50
470.77	13303.60
470.95	13383.18
471.14	13668.73
471.32	13135.09
471.50	13584.47
471.68	13682.77
471.86	13514.25
472.04	13591.49
472.22	14160.24
472.40	13593.83
472.58	13839.59
472.77	14202.37
472.95	14391.95
473.13	14408.34
473.31	14202.37
473.49	14307.69
473.67	14181.31
473.85	14560.47
474.03	14750.06
474.21	15012.20
474.39	15000.49
474.57	14904.53
474.75	15033.26
474.93	15077.73
475.12	15161.99
475.30	15222.84
475.48	15133.90
475.66	15206.46
475.84	15101.14
476.02	15475.62
476.20	15426.47
476.38	15784.57
476.56	15772.87
476.74	16233.96
476.92	16154.38
477.10	16091.18
477.28	16280.77
477.46	16238.64
477.64	16187.14
477.82	16489.07
478.00	17231.02
478.18	16877.60
478.36	16842.50
478.54	17268.47
478.72	17219.32
478.90	17326.99
479.08	17682.75
479.26	17884.03
479.44	17848.93
479.62	17820.84
479.80	17907.44
479.98	18312.35
480.16	18829.61
480.34	18452.78
480.52	18909.19
480.70	18586.19
480.88	18405.97
481.06	18803.86
481.24	18991.11
481.41	19133.88
481.59	19484.96
481.77	19627.73
481.95	19667.52
482.13	20027.96
482.31	19836.04
482.49	20428.20
482.67	20622.46
482.85	20496.07
483.03	20706.72
483.21	20945.45
483.39	20933.75
483.57	20966.52
483.74	21191.21
483.92	21710.81
484.10	21528.25
484.28	21926.14
484.46	22008.06
484.64	22328.71
484.82	22008.06
485.00	22586.17
485.18	23044.91
485.35	23016.83
485.53	23204.07
485.71	23012.15
485.89	23616.01
486.07	23339.82
486.25	23564.51
486.43	23899.21
486.61	23999.85
486.78	24343.91
486.96	24711.38
487.14	24535.84
487.32	24657.54
487.50	25116.29
487.68	25315.23
487.85	25392.47
488.03	25820.79
488.21	26019.74
488.39	25991.65
488.57	25965.90
488.75	26326.35
488.92	26588.49
489.10	26782.75
489.28	27283.62
489.46	27185.32
489.64	27274.26
489.81	27810.25
489.99	28006.85
490.17	27545.76
490.35	28301.76
490.53	28250.27
490.70	28781.57
490.88	28648.16
491.06	28645.82
491.24	28882.21
491.41	29050.73
491.59	29605.44
491.77	29336.27
491.95	29745.87
492.13	29659.27
492.30	30150.78
492.48	30155.46
492.66	30602.50
492.84	30595.48
493.01	30820.17
493.19	30656.34
493.37	31278.92
493.54	31594.89
493.72	32006.83
493.90	31522.34
494.08	31419.35
494.25	32170.66
494.43	32474.93
494.61	32568.55
494.79	32416.42
494.96	32779.20
495.14	33013.26
495.32	33462.64
495.49	33455.62
495.67	33209.86
495.85	33570.30
496.02	34050.11
496.20	33886.28
496.38	34150.76
496.55	34527.58
496.73	34955.90
496.91	34836.53
497.09	35243.79
497.26	35129.10
497.44	35360.81
497.62	35117.40
497.79	35840.62
497.97	35482.52
498.14	36514.70
498.32	36556.83
498.50	36208.09
498.67	36842.37
498.85	36568.53
499.03	36718.32
499.20	36704.28
499.38	36943.02
499.56	37361.97
499.73	37277.71
499.91	37284.73
500.08	37750.50
500.26	37794.97
500.44	38094.56
500.61	38398.83
500.79	37853.48
500.97	38328.61
501.14	38742.89
501.32	38855.23
501.49	38967.58
501.67	39086.95
501.84	39077.58
502.02	39161.84
502.20	39262.49
502.37	39569.10
502.55	39608.89
502.72	39590.16
502.90	40006.78
503.07	39358.45
503.25	39955.29
503.43	39915.50
503.60	40474.88
503.78	40404.67
503.95	40765.11
504.13	40732.34
504.30	40643.40
504.48	40559.14
504.65	41120.87
504.83	41434.50
505.01	41441.53
505.18	41811.33
505.36	41500.04
505.53	41528.13
505.71	41752.82
505.88	41972.83
506.06	41633.45
506.23	42363.70
506.41	42054.75
506.58	42539.24
506.76	42553.28
506.93	42789.67
507.11	42422.21
507.28	42983.94
507.46	42742.86
507.63	42618.81
507.81	43271.82
507.98	43023.73
508.16	43597.16
508.33	43335.02
508.50	43800.79
508.68	44034.84
508.85	44093.35
509.03	44287.62
509.20	44240.81
509.38	44847.00
509.55	44509.97
509.73	45001.48
509.90	45155.96
510.08	44931.26
510.25	44863.39
510.42	44893.82
510.60	45422.78
510.77	45282.34
510.95	45776.20
511.12	45460.23
511.30	45607.68
511.47	45308.09
511.64	45612.36
511.82	46108.55
511.99	45993.87
512.17	46415.16
512.34	46038.34
512.51	46466.66
512.69	47103.28
512.86	46644.54
513.04	46761.56
513.21	47122.01
513.38	47035.41
513.56	47239.03
513.73	47264.78
513.90	47358.40
514.08	46965.19
514.25	47538.62
514.43	47484.79
514.60	47945.87
514.77	47122.01
514.95	47931.83
515.12	47676.71
515.29	48004.39
515.47	48402.28
515.64	48243.12
515.81	48147.16
515.99	48044.18
516.16	49074.01
516.33	48580.16
516.51	48720.59
516.68	48399.94
516.85	48823.58
517.03	48949.96
517.20	49118.48
517.37	49055.29
517.54	48828.26
517.72	48697.19
517.89	49092.74
518.06	49322.11
518.24	49661.49
518.41	49172.31
518.58	49680.21
518.75	49572.55
518.93	49975.12
519.10	49586.59
519.27	50216.19
519.45	50014.91
519.62	50124.91
519.79	50080.44
519.96	50031.29
520.14	50202.15
520.31	50330.88
520.48	50609.40
520.65	50403.44
520.83	50841.12
521.00	51021.34
521.17	50677.28
521.34	50859.84
521.52	51171.13
521.69	50925.38
521.86	51075.17
522.03	51484.76
522.20	51557.32
522.38	51917.76
522.55	51243.69
522.72	51311.56
522.89	51332.63
523.07	51934.15
523.24	51880.31
523.41	52090.96
523.58	51667.33
523.75	52053.51
523.92	51681.37
524.10	52381.19
524.27	51969.26
524.44	52210.33
524.61	52079.26
524.78	52367.15
524.96	52413.96
525.13	52608.22
525.30	52736.95
525.47	52617.58
525.64	52671.42
525.81	52547.37
525.98	53064.63
526.16	52758.02
526.33	53008.45
526.50	53167.61
526.67	52931.22
526.84	53294.00
527.01	53340.81
527.18	53069.31
527.36	53422.73
527.53	52734.61
527.70	53572.52
527.87	53432.09
528.04	53460.18
528.21	53490.60
528.38	53680.19
528.55	53822.96
528.72	53399.32
528.89	53698.91
529.07	53649.76
529.24	53858.07
529.41	53776.15
529.58	53858.07
529.75	53790.19
529.92	54071.06
530.09	53827.64
530.26	54225.53
530.43	54047.65
530.60	53837.00
530.77	54019.56
530.94	54499.37
531.11	54138.93
531.28	54293.41
531.46	54340.22
531.63	54480.65
531.80	54564.91
531.97	54646.83
532.14	54724.07
532.31	54578.95
532.48	54597.68
532.65	54834.07
532.82	54838.75
532.99	54789.60
533.16	54508.74
533.33	54773.22
533.50	55091.53
533.67	54948.76
533.84	54883.22
534.01	54960.46
534.18	55281.11
534.35	55491.76
534.52	55117.28
534.69	55222.60
534.86	55297.50
535.03	55196.85
535.20	55077.49
535.37	55611.13
535.54	55606.45
535.71	55491.76
535.88	55554.96
536.05	55737.52
536.22	55887.31
536.38	55760.92
536.55	55903.70
536.72	55718.79
536.89	55554.96
537.06	55957.53
537.23	55980.93
537.40	55835.82
537.57	55833.48
537.74	56011.36
537.91	56074.55
538.08	56130.73
538.25	56034.77
538.42	55906.04
538.59	56266.48
538.75	56051.15
538.92	55866.25
539.09	56332.01
539.26	56137.75
539.43	56488.83
539.60	56552.02
539.77	56231.37
539.94	56692.46
540.11	56605.86
540.28	56477.13
540.44	56404.57
540.61	56765.01
540.78	56287.54
540.95	56521.60
541.12	56465.42
541.29	56736.93
541.46	56390.53
541.62	56917.15
541.79	56875.02
541.96	56566.07
542.13	56767.35
542.30	57043.54
542.47	56882.04
542.63	57078.64
542.80	56940.55
542.97	57284.61
543.14	57212.06
543.31	57361.85
543.48	57368.87
543.64	57453.13
543.81	57406.32
543.98	57668.46
544.15	57535.05
544.32	57619.31
544.48	57853.36
544.65	57743.36
544.82	57642.71
544.99	57581.86
545.16	57659.10
545.32	57591.22
545.49	57736.34
545.66	57888.47
545.83	57820.59
546.00	58035.92
546.16	58082.73
546.33	57769.10
546.50	57696.55
546.67	57918.90
546.83	57530.37
547.00	57862.72
547.17	58035.92
547.34	57909.53
547.50	57965.71
547.67	58202.10
547.84	58094.44
548.00	58164.65
548.17	58253.59
548.34	58080.39
548.51	58450.20
548.67	58379.98
548.84	58335.51
549.01	58087.42
549.18	58162.31
549.34	58379.98
549.51	58578.93
549.68	58504.03
549.84	58417.43
550.01	58546.16
550.18	58440.84
550.34	58681.91
550.51	58499.35
550.68	58546.16
550.84	58356.58
551.01	58621.06
551.18	58618.72
551.34	58728.72
551.51	58653.82
551.68	58702.98
551.84	58724.04
552.01	58599.99
552.18	58794.26
552.34	58791.92
552.51	58831.71
552.68	58560.20
552.84	58782.55
553.01	58967.46
553.18	58880.86
553.34	59093.85
553.51	58873.84
553.67	58960.44
553.84	59093.85
554.01	59173.42
554.17	59178.10
554.34	59056.40
554.51	59063.42
554.67	59196.83
554.84	58995.54
555.00	59196.83
555.17	59234.28
555.33	59009.59
555.50	59063.42
555.67	59185.13
555.83	59178.10
556.00	59419.18
556.16	59554.93
556.33	59444.93
556.50	59295.13
556.66	59290.45
556.83	59208.53
556.99	59639.19
557.16	59412.16
557.32	59611.10
557.49	59669.62
557.65	59377.05
557.82	59526.84
557.98	59433.22
558.15	59606.42
558.32	59800.69
558.48	59573.66
558.65	59435.56
558.81	59746.86
558.98	59561.95
559.14	59814.73
559.31	59833.46
559.47	59777.28
559.64	59770.26
559.80	60037.08
559.97	59917.71
560.13	59735.15
560.30	59924.74
560.46	60009.00
560.63	59884.95
560.79	59721.11
560.96	59941.12
561.12	59889.63
561.29	60009.00
561.45	60142.41
561.61	59962.18
561.78	59929.42
561.94	59948.14
562.11	59924.74
562.27	60210.28
562.44	59950.48
562.60	59994.95
562.77	60257.09
562.93	60009.00
563.10	60226.66
563.26	59992.61
563.42	60360.08
563.59	60268.79
563.75	60107.30
563.92	60109.64
564.08	60144.75
564.24	60278.16
564.41	60257.09
564.57	60233.69
564.74	60196.24
564.90	60294.54
565.07	60416.25
565.23	60313.26
565.39	60172.83
565.56	60360.08
565.72	60111.98
565.88	60261.77
566.05	60217.30
566.21	60369.44
566.38	60430.29
566.54	60198.58
566.70	60413.91
566.87	60519.23
567.03	60310.92
567.19	60697.11
567.36	60411.57
567.52	60486.46
567.68	60832.86
567.85	60460.72
568.01	60430.29
568.17	60519.23
568.34	60601.15
568.50	60374.12
568.66	60353.05
568.83	60650.30
568.99	60479.44
569.15	60594.13
569.32	60598.81
569.48	60470.08
569.64	60559.02
569.81	60465.40
569.97	60523.91
570.13	60561.36
570.30	60411.57
570.46	60484.12
570.62	60687.75
570.78	60704.13
570.95	60753.29
571.11	60783.71
571.27	60528.59
571.43	60622.22
571.60	60832.86
571.76	60533.28
571.92	60809.46
572.09	60666.69
572.25	60821.16
572.41	60474.76
572.57	60889.04
572.74	60999.04
572.90	60764.99
573.06	60783.71
573.22	60575.40
573.38	60757.97
573.55	60666.69
573.71	60961.59
573.87	60825.84
574.03	60853.93
574.20	60851.59
574.36	60872.65
574.52	61031.81
574.68	60811.80
574.84	60828.18
575.01	60757.97
575.17	60924.14
575.33	60774.35
575.49	60767.33
575.65	60659.66
575.82	60853.93
575.98	60851.59
576.14	60963.93
576.30	61017.77
576.46	60940.53
576.62	60809.46
576.79	61038.83
576.95	60654.98
577.11	61078.62
577.27	60846.91
577.43	60774.35
577.59	60874.99
577.75	60994.36
577.92	60757.97
578.08	60818.82
578.24	60874.99
578.40	61057.56
578.56	60954.57
578.72	61006.06
578.88	61076.28
579.04	61338.42
579.21	60931.17
579.37	61139.47
579.53	61258.84
579.69	60886.70
579.85	60905.42
580.01	61017.77
580.17	60800.10
580.33	60919.46
580.49	61364.17
580.65	61095.00
580.82	61113.73
580.98	60858.61
581.14	60940.53
581.30	61378.21
581.46	60949.89
581.62	61078.62
581.78	61050.53
581.94	61326.72
582.10	60977.98
582.26	60926.49
582.42	61179.26
582.58	60996.70
582.74	60938.19
582.90	61057.56
583.06	61134.79
583.22	61080.96
583.38	61118.41
583.54	61165.22
583.70	61099.68
583.86	61223.73
584.02	61036.49
584.18	61153.52
584.34	61155.86
584.50	61048.19
584.66	61095.00
584.82	60945.21
584.98	61329.06
585.14	60954.57
585.30	61078.62
585.46	60992.02
585.62	61176.92
585.78	61317.35
585.94	61064.58
586.10	61064.58
586.26	61275.22
586.42	61401.61
586.58	61249.48
586.74	61158.20
586.90	61130.11
587.06	61200.33
587.22	61403.95
587.38	61272.88
587.54	61286.93
587.70	61420.34
587.86	61226.07
588.02	61144.16
588.18	61457.79
588.34	61174.58
588.49	61057.56
