SpectraSuite Data File
++++++++++++++++++++++++++++++++++++
Date: Fri Oct 25 11:23:13 EDT 2013
User: price-jones
Dark Spectrum Present: No
Reference Spectrum Present: No
Number of Sampled Component Spectra: 1
Spectrometers: USB2+H05261
Integration Time (usec): 100000 (USB2+H05261)
Spectra Averaged: 1 (USB2+H05261)
Boxcar Smoothing: 0 (USB2+H05261)
Correct for Electrical Dark: No (USB2+H05261)
Strobe/Lamp Enabled: No (USB2+H05261)
Correct for Detector Non-linearity: No (USB2+H05261)
Correct for Stray Light: No (USB2+H05261)
Number of Pixels in Processed Spectrum: 2048
>>>>>Begin Processed Spectral Data<<<<<
365.73	142.77
365.92	142.77
366.12	142.77
366.32	140.43
366.52	138.09
366.72	133.41
366.91	79.58
367.11	86.60
367.31	147.45
367.51	114.69
367.70	117.03
367.90	168.52
368.10	51.49
368.30	180.22
368.49	114.69
368.69	81.92
368.89	117.03
369.09	117.03
369.28	175.54
369.48	154.48
369.68	110.01
369.87	212.99
370.07	154.48
370.27	229.37
370.47	374.49
370.66	561.73
370.86	688.12
371.06	634.29
371.25	655.35
371.45	695.14
371.65	667.05
371.84	692.80
372.04	655.35
372.24	711.52
372.44	655.35
372.63	767.70
372.83	706.84
373.03	779.40
373.22	730.25
373.42	805.14
373.62	819.19
373.81	777.06
374.01	737.27
374.21	823.87
374.40	760.67
374.60	786.42
374.79	837.91
374.99	821.53
375.19	854.30
375.38	814.51
375.58	887.06
375.78	844.93
375.97	840.25
376.17	903.45
376.37	851.96
376.56	968.98
376.76	875.36
376.95	842.59
377.15	826.21
377.35	898.77
377.54	854.30
377.74	901.11
377.93	884.72
378.13	933.87
378.33	933.87
378.52	950.26
378.72	976.00
378.91	943.24
379.11	910.47
379.31	938.55
379.50	936.21
379.70	1013.45
379.89	1083.67
380.09	1055.58
380.28	1036.86
380.48	966.64
380.68	964.30
380.87	994.73
381.07	1034.52
381.26	1064.94
381.46	999.41
381.65	1041.54
381.85	1064.94
382.04	1076.65
382.24	1069.62
382.43	1015.79
382.63	1025.15
382.83	1006.43
383.02	1015.79
383.22	1008.77
383.41	1118.78
383.61	1207.72
383.80	1132.82
384.00	1090.69
384.19	1170.27
384.39	1210.06
384.58	1284.95
384.78	1102.39
384.97	1144.52
385.17	1132.82
385.36	1177.29
385.56	1226.44
385.75	1233.46
385.95	1179.63
386.14	1181.97
386.34	1254.53
386.53	1132.82
386.72	1212.40
386.92	1198.35
387.11	1242.82
387.31	1252.19
387.50	1299.00
387.70	1273.25
387.89	1315.38
388.09	1268.57
388.28	1336.45
388.48	1345.81
388.67	1320.06
388.86	1338.79
389.06	1355.17
389.25	1362.19
389.45	1401.98
389.64	1352.83
389.84	1338.79
390.03	1313.04
390.22	1439.43
390.42	1390.28
390.61	1378.58
390.81	1357.51
391.00	1334.11
391.19	1446.45
391.39	1502.62
391.58	1453.47
391.78	1453.47
391.97	1362.19
392.16	1514.33
392.36	1540.07
392.55	1600.93
392.75	1561.14
392.94	1523.69
393.13	1593.90
393.33	1453.47
393.52	1565.82
393.71	1664.12
393.91	1500.28
394.10	1521.35
394.29	1666.46
394.49	1589.22
394.68	1636.03
394.88	1661.78
395.07	1746.04
395.26	1710.93
395.46	1652.42
395.65	1701.57
395.84	1755.40
396.04	1797.53
396.23	1844.34
396.42	1811.57
396.62	1781.15
396.81	1724.97
397.00	1834.98
397.19	1839.66
397.39	1820.94
397.58	1860.73
397.77	1818.60
397.97	1905.20
398.16	1900.52
398.35	1921.58
398.55	1844.34
398.74	1944.99
398.93	1886.47
399.12	1923.92
399.32	2001.16
399.51	1996.48
399.70	1980.09
399.90	1916.90
400.09	2005.84
400.28	1987.11
400.47	2064.35
400.67	2029.24
400.86	2129.89
401.05	2134.57
401.24	1947.33
401.44	2153.29
401.63	2153.29
401.82	2195.42
402.01	2218.83
402.21	2186.06
402.40	2179.04
402.59	2232.87
402.78	2249.25
402.97	2211.81
403.17	2347.56
403.36	2188.40
403.55	2267.98
403.74	2389.69
403.93	2370.96
404.13	2312.45
404.32	2415.43
404.51	2354.58
404.70	2408.41
404.89	2303.09
405.09	2466.92
405.28	2431.82
405.47	2485.65
405.66	2413.09
405.85	2569.91
406.05	2574.59
406.24	2614.38
406.43	2569.91
406.62	2595.65
406.81	2698.64
407.00	2579.27
407.20	2630.76
407.39	2754.81
407.58	2792.26
407.77	2719.70
407.96	2787.58
408.15	2726.72
408.34	2726.72
408.54	2766.51
408.73	2869.50
408.92	2841.41
409.11	2843.75
409.30	2874.18
409.49	2965.46
409.68	2928.01
409.87	2939.71
410.07	3056.74
410.26	3038.02
410.45	3045.04
410.64	2956.10
410.83	2981.84
411.02	3068.44
411.21	3126.96
411.40	3243.98
411.59	3255.69
411.78	3190.15
411.98	3185.47
412.17	3323.56
412.36	3297.81
412.55	3335.26
412.74	3421.86
412.93	3456.97
413.12	3449.95
413.31	3576.34
413.50	3421.86
413.69	3538.89
413.88	3588.04
414.07	3534.21
414.26	3674.64
414.45	3672.30
414.64	3768.26
414.83	3749.54
415.02	3761.24
415.22	3791.67
415.41	3887.63
415.60	3904.01
415.79	3840.82
415.98	4007.00
416.17	3878.27
416.36	3964.87
416.55	3995.29
416.74	4079.55
416.93	3887.63
417.12	4098.28
417.31	4257.43
417.50	4147.43
417.69	4332.33
417.88	4322.97
418.07	4156.79
418.26	4269.14
418.45	4315.95
418.64	4341.69
418.83	4472.76
419.02	4482.13
419.21	4580.43
419.39	4456.38
419.58	4491.49
419.77	4465.74
419.96	4489.15
420.15	4596.81
420.34	4725.54
420.53	4615.54
420.72	4671.71
420.91	4643.62
421.10	4774.69
421.29	4912.78
421.48	4718.52
421.67	4784.06
421.86	4851.93
422.05	4826.18
422.24	4812.14
422.43	4877.68
422.61	4880.02
422.80	5046.20
422.99	4997.04
423.18	5039.17
423.37	5039.17
423.56	5128.11
423.75	5053.22
423.94	4802.78
424.13	4620.22
424.32	4912.78
424.50	4975.98
424.69	5235.78
424.88	5078.96
425.07	4912.78
425.26	5015.77
425.45	5060.24
425.64	4910.44
425.83	4968.96
426.01	5144.50
426.20	5053.22
426.39	5088.32
426.58	5149.18
426.77	5130.45
426.96	5294.29
427.15	5104.71
427.33	5207.69
427.52	5198.33
427.71	5390.25
427.90	5198.33
428.09	5263.86
428.28	5191.31
428.46	5320.04
428.65	5345.78
428.84	5530.69
429.03	5638.35
429.22	5509.62
429.40	5523.66
429.59	5579.84
429.78	5451.11
429.97	5397.28
430.16	5589.20
430.34	5675.80
430.53	5750.70
430.72	5689.84
430.91	5540.05
431.10	5727.29
431.28	5865.38
431.47	5769.42
431.66	5753.04
431.85	5750.70
432.03	5968.37
432.22	6010.50
432.41	6031.56
432.60	6099.44
432.79	6069.01
432.97	6076.03
433.16	5982.41
433.35	6061.99
433.54	6113.48
433.72	6108.80
433.91	6282.00
434.10	6324.13
434.28	6186.04
434.47	6373.28
434.66	6279.66
434.85	6384.98
435.03	6422.43
435.22	6537.12
435.41	6445.84
435.59	6485.62
435.78	6478.60
435.97	6579.25
436.16	6490.31
436.34	6291.36
436.53	6532.44
436.72	6820.32
436.90	6410.73
437.09	6630.74
437.28	6757.13
437.46	6626.06
437.65	6665.85
437.84	6773.51
438.02	6693.93
438.21	6834.36
438.40	6677.55
438.58	7033.31
438.77	7171.40
438.96	7103.53
439.14	7258.00
439.33	7178.42
439.52	7222.89
439.70	7339.92
439.89	7248.64
440.08	7417.16
440.26	7290.77
440.45	7360.98
440.63	7653.55
440.82	7702.70
441.01	7494.40
441.19	7747.17
441.38	7691.00
441.57	7854.84
441.75	7964.84
441.94	7932.08
442.12	7981.23
442.31	8088.89
442.50	8175.49
442.68	8009.31
442.87	8189.53
443.05	8290.18
443.24	8248.05
443.43	8304.22
443.61	8222.30
443.80	8444.65
443.98	8149.75
444.17	8042.08
444.35	8290.18
444.54	8418.91
444.73	8341.67
444.91	8262.09
445.10	8542.96
445.28	8454.02
445.47	8472.74
445.65	8374.44
445.84	8547.64
446.02	8409.54
446.21	8545.30
446.39	8360.39
446.58	8617.85
446.77	8564.02
446.95	8383.80
447.14	8636.58
447.32	8561.68
447.51	8442.31
447.69	8468.06
447.88	8622.53
448.06	8725.52
448.25	8624.87
448.43	8706.79
448.62	8723.18
448.80	8549.98
448.99	8688.07
449.17	8681.05
449.36	8788.71
449.54	8954.89
449.73	9109.36
449.91	8990.00
450.10	8982.98
450.28	9095.32
450.46	9193.62
450.65	9001.70
450.83	9027.45
451.02	9071.92
451.20	9186.60
451.39	9289.59
451.57	9090.64
451.76	9359.80
451.94	9415.98
452.13	9504.92
452.31	9296.61
452.49	9055.53
452.68	9256.82
452.86	9408.95
453.05	9352.78
453.23	9453.42
453.42	9659.39
453.60	9320.01
453.78	9521.30
453.97	9502.58
454.15	9380.87
454.34	9668.75
454.52	9790.46
454.70	9643.01
454.89	9818.55
455.07	9666.41
455.26	9968.34
455.44	9994.09
455.62	9858.34
455.81	9895.78
455.99	10403.68
456.17	10237.50
456.36	10019.83
456.54	10251.55
456.73	10436.45
456.91	10619.01
457.09	10637.73
457.28	10724.33
457.46	10342.83
457.64	10686.89
457.83	10434.11
458.01	10663.48
458.19	10675.18
458.38	10583.90
458.56	10839.02
458.74	10843.70
458.93	10738.38
459.11	10810.93
459.29	10883.49
459.48	10757.10
459.66	10939.66
459.84	11126.91
460.03	11173.72
460.21	11054.35
460.39	10970.09
460.57	11049.67
460.76	11426.50
460.94	11190.10
461.12	11304.79
461.31	11101.16
461.49	11197.12
461.67	11517.78
461.85	11634.80
462.04	11234.57
462.22	11602.04
462.40	11482.67
462.59	11583.31
462.77	11541.18
462.95	11714.38
463.13	11672.25
463.32	11658.21
463.50	11948.43
463.68	11798.64
463.86	12004.61
464.05	11779.92
464.23	11667.57
464.41	11943.75
464.59	11850.13
464.78	12241.00
464.96	12093.55
465.14	12173.13
465.32	12343.99
465.50	12102.91
465.69	12409.52
465.87	12266.75
466.05	12243.34
466.23	12320.58
466.41	12386.12
466.60	12772.30
466.78	12327.60
466.96	12290.15
467.14	12404.84
467.32	12505.48
467.51	12568.68
467.69	12257.39
467.87	12285.47
468.05	12903.37
468.23	12512.50
468.41	12526.55
468.60	12669.32
468.78	12854.22
468.96	12650.60
469.14	13156.15
469.32	13123.38
469.50	12662.30
469.69	13200.62
469.87	13249.77
470.05	13275.52
470.23	13312.97
470.41	13135.09
470.59	13607.87
470.77	13273.18
470.95	13556.38
471.14	13481.49
471.32	13404.25
471.50	13652.34
471.68	13591.49
471.86	13877.04
472.04	14122.79
472.22	14017.47
472.40	13710.86
472.58	14064.28
472.77	13968.32
472.95	14300.67
473.13	14675.16
473.31	14164.92
473.49	14171.94
473.67	14155.56
473.85	14508.98
474.03	14745.38
474.21	14923.26
474.39	14991.13
474.57	14824.95
474.75	15131.56
474.93	15370.30
475.12	15059.01
475.30	15379.66
475.48	15061.35
475.66	15414.77
475.84	15131.56
476.02	15550.52
476.20	15534.14
476.38	15955.43
476.56	16004.58
476.74	16044.37
476.92	16039.69
477.10	15967.13
477.28	16479.71
477.46	16208.21
477.64	16404.81
477.82	16961.86
478.00	16964.20
478.18	17039.10
478.36	16961.86
478.54	17032.08
478.72	17378.48
478.90	17547.00
479.08	17949.57
479.26	17804.46
479.44	17572.74
479.62	18047.87
479.80	18115.75
479.98	18363.84
480.16	18789.82
480.34	18352.14
480.52	18841.31
480.70	18888.12
480.88	18572.15
481.06	18913.87
481.24	19023.87
481.41	19044.94
481.59	19805.61
481.77	19555.18
481.95	19517.73
482.13	19871.15
482.31	19754.12
482.49	20365.00
482.67	20439.90
482.85	20783.96
483.03	20760.55
483.21	21034.39
483.39	20922.05
483.57	20727.78
483.74	21603.14
483.92	21563.36
484.10	21525.91
484.28	21692.08
484.46	22101.68
484.64	22579.15
484.82	22499.57
485.00	22717.24
485.18	22958.31
485.35	23250.88
485.53	23410.04
485.71	23047.26
485.89	23501.32
486.07	23606.64
486.25	23417.06
486.43	24013.90
486.61	24074.75
486.78	23950.70
486.96	24580.31
487.14	25200.55
487.32	24709.04
487.50	25252.04
487.68	25139.69
487.85	25385.45
488.03	25811.43
488.21	25937.82
488.39	26136.76
488.57	26370.82
488.75	26141.44
488.92	27026.17
489.10	26904.46
489.28	26752.32
489.46	27473.21
489.64	26981.70
489.81	28063.02
489.99	27800.88
490.17	28065.36
490.35	28350.91
490.53	28247.93
490.70	28814.34
490.88	28126.22
491.06	29043.71
491.24	29172.44
491.41	29493.09
491.59	29603.10
491.77	29589.05
491.95	29947.15
492.13	30216.32
492.30	30373.13
492.48	30457.39
492.66	30682.08
492.84	30518.25
493.01	30909.11
493.19	30719.53
493.37	31033.16
493.54	31637.02
493.72	32032.57
493.90	31901.50
494.08	31777.45
494.25	32322.80
494.43	32271.31
494.61	32769.84
494.79	32917.29
494.96	33031.98
495.14	32779.20
495.32	33198.16
495.49	33418.17
495.67	33647.54
495.85	33872.23
496.02	34054.79
496.20	34270.12
496.38	34586.10
496.55	34490.13
496.73	34841.21
496.91	34466.73
497.09	35051.86
497.26	35407.62
497.44	35246.13
497.62	35538.69
497.79	36170.64
497.97	36201.07
498.14	36053.61
498.32	36767.48
498.50	36430.44
498.67	36730.03
498.85	36556.83
499.03	36872.80
499.20	37163.03
499.38	37333.89
499.56	37368.99
499.73	37361.97
499.91	37691.99
500.08	37818.38
500.26	37453.25
500.44	37895.61
500.61	38132.01
500.79	38134.35
500.97	38565.01
501.14	38904.38
501.32	38913.75
501.49	38969.92
501.67	38880.98
501.84	39548.03
502.02	39012.05
502.20	39842.94
502.37	39335.04
502.55	39529.31
502.72	39917.84
502.90	39861.66
503.07	39728.25
503.25	39828.90
503.43	39969.33
503.60	40350.84
503.78	40577.87
503.95	40821.28
504.13	41153.64
504.30	41354.93
504.48	40781.49
504.65	41141.94
504.83	41361.95
505.01	41750.48
505.18	41612.38
505.36	41883.89
505.53	41310.46
505.71	42349.65
505.88	42440.93
506.06	42094.53
506.23	42014.96
506.41	42050.06
506.58	42466.68
506.76	42564.98
506.93	42990.96
507.11	42670.31
507.28	42880.95
507.46	43325.66
507.63	43342.04
507.81	43653.33
507.98	42904.36
508.16	43627.59
508.33	43735.25
508.50	44374.22
508.68	43957.60
508.85	44212.72
509.03	44201.02
509.20	44573.16
509.38	44847.00
509.55	44582.52
509.73	44734.66
509.90	44940.63
510.08	44561.46
510.25	45083.40
510.42	45570.23
510.60	45691.94
510.77	45207.45
510.95	45741.09
511.12	45640.45
511.30	45422.78
511.47	45907.27
511.64	46005.57
511.82	46522.83
511.99	45748.11
512.17	46354.31
512.34	46246.65
512.51	46808.37
512.69	46731.14
512.86	46962.85
513.04	47157.11
513.21	46958.17
513.38	47140.73
513.56	47758.63
513.73	47173.50
513.90	47669.69
514.08	47412.23
514.25	47606.50
514.43	47744.59
514.60	47983.32
514.77	47653.31
514.95	48020.77
515.12	47583.09
515.29	47955.24
515.47	48722.93
515.64	48301.64
515.81	48205.67
515.99	48229.08
516.16	48858.68
516.33	48720.59
516.51	49081.03
516.68	48921.88
516.85	48851.66
517.03	49029.54
517.20	48720.59
517.37	49237.85
517.54	49006.14
517.72	49017.84
517.89	49415.73
518.06	49649.78
518.24	49289.34
518.41	49818.30
518.58	49897.88
518.75	49549.14
518.93	49832.35
519.10	49787.88
519.27	49930.65
519.45	49797.24
519.62	50190.45
519.79	50396.42
519.96	50160.02
520.14	50351.94
520.31	50396.42
520.48	50686.64
520.65	50686.64
520.83	50539.19
521.00	51288.16
521.17	51147.73
521.34	50827.07
521.52	51171.13
521.69	51114.96
521.86	51388.80
522.03	51416.89
522.20	51505.83
522.38	52006.70
522.55	51814.78
522.72	51798.40
522.89	51487.10
523.07	51992.66
523.24	52041.81
523.41	52172.88
523.58	51566.68
523.75	52317.99
523.92	51863.93
524.10	52212.67
524.27	52196.29
524.44	52060.54
524.61	52301.61
524.78	52449.06
524.96	52374.17
525.13	52334.38
525.30	52666.73
525.47	52596.52
525.64	53003.77
525.81	52912.49
525.98	52725.25
526.16	52746.31
526.33	52900.79
526.50	53251.87
526.67	53226.12
526.84	53347.83
527.01	53160.59
527.18	53453.15
527.36	53310.38
527.53	53368.90
527.70	53579.54
527.87	53429.75
528.04	53179.31
528.21	53364.21
528.38	53621.67
528.55	53820.62
528.72	53446.13
528.89	53844.02
529.07	53633.38
529.24	53675.51
529.41	53762.11
529.58	53862.75
529.75	53626.35
529.92	54122.55
530.09	53935.30
530.26	54169.36
530.43	54319.15
530.60	54087.44
530.77	54045.31
530.94	54272.34
531.11	54763.85
531.28	54351.92
531.46	54351.92
531.63	54541.50
531.80	54459.58
531.97	54585.97
532.14	54719.38
532.31	54553.21
532.48	54787.26
532.65	54930.03
532.82	54677.25
532.99	55004.93
533.16	54951.10
533.33	55234.30
533.50	55138.34
533.67	55061.10
533.84	54813.01
534.01	54859.82
534.18	55348.99
534.35	55590.06
534.52	55435.59
534.69	55468.36
534.86	55526.87
535.03	55512.83
535.20	55297.50
535.37	55494.10
535.54	55625.17
535.71	55405.16
535.88	55524.53
536.05	55671.98
536.22	55922.42
536.38	55952.85
536.55	55798.37
536.72	55695.39
536.89	55957.53
537.06	55950.51
537.23	56023.06
537.40	55739.86
537.57	56205.62
537.74	56002.00
537.91	56306.27
538.08	56182.22
538.25	55934.12
538.42	56168.18
538.59	56128.39
538.75	56205.62
538.92	56268.82
539.09	56690.12
539.26	56470.11
539.43	56320.31
539.60	56334.35
539.77	56516.92
539.94	56540.32
540.11	56587.13
540.28	56456.06
540.44	56664.37
540.61	56783.74
540.78	56542.66
540.95	56762.67
541.12	56615.22
541.29	56526.28
541.46	56802.46
541.62	56863.32
541.79	57120.77
541.96	56601.18
542.13	56797.78
542.30	57085.67
542.47	56996.73
542.63	57024.81
542.80	57113.75
542.97	57373.55
543.14	57392.28
543.31	57434.41
543.48	57492.92
543.64	57645.05
543.81	57722.29
543.98	57467.17
544.15	57581.86
544.32	57570.16
544.48	57841.66
544.65	57794.85
544.82	57722.29
544.99	57560.79
545.16	57806.55
545.32	57443.77
545.49	57909.53
545.66	57958.69
545.83	58110.82
546.00	57860.38
546.16	58136.57
546.33	57879.11
546.50	57607.61
546.67	57621.65
546.83	57616.97
547.00	57937.62
547.17	58052.31
547.34	57944.64
547.50	58152.95
547.67	57977.41
547.84	58206.78
548.00	58389.34
548.17	58511.05
548.34	58403.39
548.51	58475.94
548.67	58429.13
548.84	58452.54
549.01	58206.78
549.18	58487.65
549.34	58408.07
549.51	58574.25
549.68	58506.37
549.84	58700.64
550.01	58761.49
550.18	58223.17
550.34	58604.67
550.51	58712.34
550.68	58623.40
550.84	58408.07
551.01	58688.93
551.18	58726.38
551.34	58705.32
551.51	58684.25
551.68	58848.09
551.84	58602.33
552.01	58890.22
552.18	58859.79
552.34	58562.54
552.51	58972.14
552.68	58721.70
552.84	58899.58
553.01	59028.31
553.18	58843.41
553.34	59054.06
553.51	58808.30
553.67	58918.31
553.84	59234.28
554.01	59016.61
554.17	59213.21
554.34	59189.81
554.51	59222.58
554.67	59185.13
554.84	59238.96
555.00	59000.22
555.17	59135.98
555.33	59152.36
555.50	59171.08
555.67	59213.21
555.83	59217.89
556.00	59536.21
556.16	59648.55
556.33	59578.34
556.50	59391.09
556.66	59442.59
556.83	58976.82
556.99	59454.29
557.16	59629.83
557.32	59606.42
557.49	59763.24
557.65	59657.91
557.82	59494.08
557.98	59440.24
558.15	59601.74
558.32	59508.12
558.48	59683.66
558.65	59571.32
558.81	59465.99
558.98	59814.73
559.14	59906.01
559.31	59819.41
559.47	59948.14
559.64	60111.98
559.80	59824.09
559.97	59943.46
560.13	59863.88
560.30	59901.33
560.46	59896.65
560.63	60004.31
560.79	59969.21
560.96	60247.73
561.12	59980.91
561.29	60158.79
561.45	59927.08
561.61	59917.71
561.78	60282.84
561.94	60090.91
562.11	59906.01
562.27	60116.66
562.44	60097.94
562.60	60310.92
562.77	60186.88
562.93	60058.15
563.10	60301.56
563.26	59980.91
563.42	60224.32
563.59	60149.43
563.75	60041.76
563.92	60172.83
564.08	60097.94
564.24	60205.60
564.41	60367.10
564.57	60427.95
564.74	60303.90
564.90	60336.67
565.07	60336.67
565.23	60315.61
565.39	60402.21
565.56	60507.53
565.72	60217.30
565.88	60523.91
566.05	60289.86
566.21	60374.12
566.38	60374.12
566.54	60350.71
566.70	60640.94
566.87	60528.59
567.03	60294.54
567.19	60514.55
567.36	60364.76
567.52	60556.68
567.68	60671.37
567.85	60552.00
568.01	60636.26
568.17	60561.36
568.34	60465.40
568.50	60449.02
568.66	60364.76
568.83	60603.49
568.99	60650.30
569.15	60357.74
569.32	60722.86
569.48	60465.40
569.64	60697.11
569.81	60495.83
569.97	60542.64
570.13	60666.69
570.30	60594.13
570.46	60729.88
570.62	60619.88
570.78	60676.05
570.95	60669.03
571.11	60807.12
571.27	60683.07
571.43	60790.73
571.60	60999.04
571.76	60837.54
571.92	60790.73
572.09	60750.94
572.25	60692.43
572.41	60715.84
572.57	60802.44
572.74	61116.07
572.90	60657.32
573.06	60783.71
573.22	60776.69
573.38	60910.10
573.55	60985.00
573.71	61183.94
573.87	61003.72
574.03	60790.73
574.20	60685.41
574.36	60652.64
574.52	60931.17
574.68	60973.30
574.84	61069.26
575.01	60823.50
575.17	61043.51
575.33	60968.61
575.49	60830.52
575.65	61043.51
575.82	60942.87
575.98	61055.21
576.14	60811.80
576.30	60893.72
576.46	60846.91
576.62	61041.17
576.79	60793.07
576.95	60830.52
577.11	60994.36
577.27	60996.70
577.43	60811.80
577.59	60935.85
577.75	60853.93
577.92	61090.32
578.08	61186.28
578.24	60940.53
578.40	61300.97
578.56	61244.80
578.72	61197.99
578.88	61113.73
579.04	61258.84
579.21	60903.08
579.37	61027.13
579.53	61003.72
579.69	60949.89
579.85	60959.25
580.01	61020.11
580.17	61059.90
580.33	61284.59
580.49	61282.25
580.65	61197.99
580.82	60926.49
580.98	61055.21
581.14	61057.56
581.30	61130.11
581.46	61062.24
581.62	61155.86
581.78	60910.10
581.94	61179.26
582.10	61237.78
582.26	61052.87
582.42	60935.85
582.58	61169.90
582.74	61069.26
582.90	61197.99
583.06	61066.92
583.22	60907.76
583.38	61104.37
583.54	61183.94
583.70	61282.25
583.86	61202.67
584.02	60966.27
584.18	61141.81
584.34	61190.97
584.50	61214.37
584.66	61148.84
584.82	61312.67
584.98	61080.96
585.14	61176.92
585.30	61052.87
585.46	61233.10
585.62	61298.63
585.78	61340.76
585.94	61085.64
586.10	61205.01
586.26	61254.16
586.42	61298.63
586.58	61357.14
586.74	61310.33
586.90	61087.98
587.06	61186.28
587.22	61460.13
587.38	61310.33
587.54	61300.97
587.70	61378.21
587.86	61279.91
588.02	61261.18
588.18	61340.76
588.34	61130.11
588.49	61202.67
