SpectraSuite Data File
++++++++++++++++++++++++++++++++++++
Date: Fri Oct 25 11:23:09 EDT 2013
User: price-jones
Dark Spectrum Present: No
Reference Spectrum Present: No
Number of Sampled Component Spectra: 1
Spectrometers: USB2+H05261
Integration Time (usec): 100000 (USB2+H05261)
Spectra Averaged: 1 (USB2+H05261)
Boxcar Smoothing: 0 (USB2+H05261)
Correct for Electrical Dark: No (USB2+H05261)
Strobe/Lamp Enabled: No (USB2+H05261)
Correct for Detector Non-linearity: No (USB2+H05261)
Correct for Stray Light: No (USB2+H05261)
Number of Pixels in Processed Spectrum: 2048
>>>>>Begin Processed Spectral Data<<<<<
365.73	203.63
365.92	203.63
366.12	203.63
366.32	131.07
366.52	133.41
366.72	145.11
366.91	32.77
367.11	138.09
367.31	105.32
367.51	98.30
367.70	100.64
367.90	124.05
368.10	58.51
368.30	110.01
368.49	114.69
368.69	128.73
368.89	283.20
369.09	119.37
369.28	177.88
369.48	117.03
369.68	196.60
369.87	147.45
370.07	147.45
370.27	124.05
370.47	322.99
370.66	648.33
370.86	599.18
371.06	702.16
371.25	685.78
371.45	681.10
371.65	690.46
371.84	727.91
372.04	727.91
372.24	713.86
372.44	730.25
372.63	690.46
372.83	709.18
373.03	807.48
373.22	723.23
373.42	858.98
373.62	737.27
373.81	779.40
374.01	781.74
374.21	788.76
374.40	774.72
374.60	763.01
374.79	786.42
374.99	828.55
375.19	809.83
375.38	887.06
375.58	842.59
375.78	919.83
375.97	793.44
376.17	870.68
376.37	894.08
376.56	840.25
376.76	849.61
376.95	830.89
377.15	954.94
377.35	915.15
377.54	919.83
377.74	851.96
377.93	894.08
378.13	889.40
378.33	961.96
378.52	938.55
378.72	863.66
378.91	957.28
379.11	917.49
379.31	961.96
379.50	961.96
379.70	947.92
379.89	903.45
380.09	990.05
380.28	1027.50
380.48	1032.18
380.68	952.60
380.87	983.02
381.07	1041.54
381.26	1039.20
381.46	919.83
381.65	1057.92
381.85	992.39
382.04	1057.92
382.24	1078.99
382.43	1055.58
382.63	1083.67
382.83	1025.15
383.02	1062.60
383.22	1050.90
383.41	1039.20
383.61	1139.84
383.80	1111.75
384.00	1156.22
384.19	1116.44
384.39	1207.72
384.58	1139.84
384.78	1172.61
384.97	1139.84
385.17	1100.05
385.36	1186.65
385.56	1245.16
385.75	1107.07
385.95	1294.32
386.14	1247.51
386.34	1109.41
386.53	1287.29
386.72	1282.61
386.92	1247.51
387.11	1247.51
387.31	1299.00
387.50	1231.12
387.70	1217.08
387.89	1256.87
388.09	1315.38
388.28	1385.60
388.48	1355.17
388.67	1308.36
388.86	1329.42
389.06	1327.08
389.25	1296.66
389.45	1341.13
389.64	1352.83
389.84	1423.05
390.03	1437.09
390.22	1404.32
390.42	1376.24
390.61	1348.15
390.81	1481.56
391.00	1453.47
391.19	1495.60
391.39	1345.81
391.58	1446.45
391.78	1364.53
391.97	1465.18
392.16	1483.90
392.36	1483.90
392.55	1561.14
392.75	1502.62
392.94	1533.05
393.13	1521.35
393.33	1563.48
393.52	1626.67
393.71	1533.05
393.91	1619.65
394.10	1540.07
394.29	1614.97
394.49	1561.14
394.68	1708.59
394.88	1521.35
395.07	1614.97
395.26	1600.93
395.46	1685.19
395.65	1729.66
395.84	1813.92
396.04	1694.55
396.23	1778.81
396.42	1715.61
396.62	1834.98
396.81	1799.87
397.00	1776.47
397.19	1834.98
397.39	1762.42
397.58	1830.30
397.77	1724.97
397.97	1846.68
398.16	1858.39
398.35	1902.86
398.55	1832.64
398.74	1909.88
398.93	2054.99
399.12	1959.03
399.32	1806.89
399.51	1984.77
399.70	1977.75
399.90	1989.46
400.09	2108.82
400.28	2066.69
400.47	2022.22
400.67	2181.38
400.86	2097.12
401.05	2045.63
401.24	2207.13
401.44	2162.66
401.63	2181.38
401.82	2179.04
402.01	2092.44
402.21	2237.55
402.40	2249.25
402.59	2160.31
402.78	2223.51
402.97	2239.89
403.17	2305.43
403.36	2251.60
403.55	2270.32
403.74	2363.94
403.93	2375.64
404.13	2483.31
404.32	2363.94
404.51	2300.75
404.70	2492.67
404.89	2478.63
405.09	2562.89
405.28	2539.48
405.47	2403.73
405.66	2541.82
405.85	2590.97
406.05	2506.71
406.24	2569.91
406.43	2534.80
406.62	2684.59
406.81	2715.02
407.00	2696.30
407.20	2586.29
407.39	2567.57
407.58	2752.47
407.77	2787.58
407.96	2750.13
408.15	2827.37
408.34	2761.83
408.54	2752.47
408.73	2789.92
408.92	2867.16
409.11	2951.42
409.30	2942.05
409.49	2944.39
409.68	3012.27
409.87	3000.57
410.07	3059.08
410.26	3019.29
410.45	2918.65
410.64	3098.87
410.83	3103.55
411.02	3131.64
411.21	3171.43
411.40	3077.80
411.59	3276.75
411.78	3110.57
411.98	3281.43
412.17	3232.28
412.36	3421.86
412.55	3382.07
412.74	3400.80
412.93	3337.60
413.12	3389.10
413.31	3527.19
413.50	3609.11
413.69	3435.91
413.88	3478.04
414.07	3520.17
414.26	3728.47
414.45	3679.32
414.64	3691.02
414.83	3754.22
415.02	3801.03
415.22	3955.51
415.41	3889.97
415.60	3758.90
415.79	4007.00
415.98	4046.79
416.17	3960.19
416.36	3971.89
416.55	3974.23
416.74	4119.34
416.93	4053.81
417.12	4107.64
417.31	4252.75
417.50	4147.43
417.69	4219.99
417.88	4280.84
418.07	4320.63
418.26	4346.37
418.45	4374.46
418.64	4489.15
418.83	4402.55
419.02	4355.74
419.21	4641.28
419.39	4599.15
419.58	4493.83
419.77	4484.47
419.96	4678.73
420.15	4748.95
420.34	4737.24
420.53	4657.67
420.72	4774.69
420.91	4697.46
421.10	4697.46
421.29	4980.66
421.48	4809.80
421.67	4784.06
421.86	4924.49
422.05	4915.12
422.24	4837.89
422.43	5083.64
422.61	4994.70
422.80	4973.64
422.99	4985.34
423.18	4851.93
423.37	5135.14
423.56	5015.77
423.75	4964.28
423.94	4737.24
424.13	4615.54
424.32	4800.44
424.50	5071.94
424.69	5085.98
424.88	5076.62
425.07	5001.72
425.26	4959.60
425.45	4999.38
425.64	4945.55
425.83	4919.81
426.01	4994.70
426.20	5043.85
426.39	5034.49
426.58	5088.32
426.77	5029.81
426.96	5177.26
427.15	5039.17
427.33	5188.97
427.52	5320.04
427.71	5322.38
427.90	5341.10
428.09	5376.21
428.28	5408.98
428.46	5362.17
428.65	5387.91
428.84	5479.19
429.03	5551.75
429.22	5214.71
429.40	5530.69
429.59	5598.56
429.78	5345.78
429.97	5334.08
430.16	5359.83
430.34	5591.54
430.53	5680.48
430.72	5715.59
430.91	5664.10
431.10	5682.82
431.28	5813.89
431.47	5841.98
431.66	5902.83
431.85	5790.49
432.03	5966.03
432.22	5921.56
432.41	5930.92
432.60	5912.19
432.79	5900.49
432.97	6129.86
433.16	6076.03
433.35	6022.20
433.54	6139.23
433.72	6106.46
433.91	6104.12
434.10	6291.36
434.28	6108.80
434.47	6146.25
434.66	6548.82
434.85	6284.34
435.03	6317.11
435.22	6169.65
435.41	6595.63
435.59	6473.92
435.78	6399.02
435.97	6436.47
436.16	6356.90
436.34	6471.58
436.53	6553.50
436.72	6846.07
436.90	6445.84
437.09	6487.96
437.28	6544.14
437.46	6747.76
437.65	6621.38
437.84	6967.77
438.02	6916.28
438.21	7117.57
438.40	6867.13
438.58	6937.35
438.77	7187.79
438.96	7129.27
439.14	7171.40
439.33	7234.60
439.52	7293.11
439.70	7396.09
439.89	7269.70
440.08	7403.11
440.26	7555.25
440.45	7243.96
440.63	7499.08
440.82	7698.02
441.01	7473.33
441.19	7604.40
441.38	7756.54
441.57	7721.43
441.75	7829.09
441.94	8067.83
442.12	7950.80
442.31	8086.55
442.50	7953.14
442.68	7932.08
442.87	8177.83
443.05	8215.28
443.24	8414.23
443.43	8397.84
443.61	8404.86
443.80	8491.46
443.98	8135.70
444.17	8138.04
444.35	8285.50
444.54	8308.90
444.73	8442.31
444.91	8442.31
445.10	8346.35
445.28	8311.24
445.47	8372.10
445.65	8262.09
445.84	8351.03
446.02	8484.44
446.21	8491.46
446.39	8432.95
446.58	8643.60
446.77	8643.60
446.95	8222.30
447.14	8557.00
447.32	8669.34
447.51	8552.32
447.69	8463.38
447.88	8690.41
448.06	8744.24
448.25	8456.36
448.43	8788.71
448.62	8727.86
448.80	8615.51
448.99	8718.50
449.17	8737.22
449.36	8683.39
449.54	9142.13
449.73	9006.38
449.91	8945.53
450.10	9001.70
450.28	9149.15
450.46	9172.56
450.65	9104.68
450.83	9338.74
451.02	9298.95
451.20	9287.25
451.39	9174.90
451.57	9200.65
451.76	9132.77
451.94	9401.93
452.13	9584.49
452.31	9476.83
452.49	9394.91
452.68	9432.36
452.86	9373.85
453.05	9607.90
453.23	9640.67
453.42	9507.26
453.60	9507.26
453.78	9757.69
453.97	9458.10
454.15	9535.34
454.34	9689.82
454.52	9914.51
454.70	9680.46
454.89	9734.29
455.07	9834.93
455.26	9879.40
455.44	10195.37
455.62	9982.38
455.81	9895.78
455.99	10104.09
456.17	10342.83
456.36	10090.05
456.54	10141.54
456.73	10478.58
456.91	10581.56
457.09	10562.84
457.28	10553.48
457.46	10317.08
457.64	10576.88
457.83	10611.99
458.01	10588.58
458.19	10705.61
458.38	10703.27
458.56	10897.53
458.74	10693.91
458.93	10881.15
459.11	10817.96
459.29	10881.15
459.48	10923.28
459.66	10981.79
459.84	10967.75
460.03	11166.70
460.21	11367.98
460.39	11225.21
460.57	10963.07
460.76	11403.09
460.94	11260.32
461.12	11337.56
461.31	11080.10
461.49	11288.40
461.67	11417.13
461.85	11494.37
462.04	11407.77
462.22	11637.14
462.40	11716.72
462.59	11702.68
462.77	11627.78
462.95	11690.98
463.13	11716.72
463.32	11852.47
463.50	11948.43
463.68	11854.81
463.86	11618.42
464.05	11960.14
464.23	11576.29
464.41	12049.08
464.59	11761.19
464.78	12191.85
464.96	12395.48
465.14	11737.79
465.32	12257.39
465.50	12208.23
465.69	12301.86
465.87	12346.33
466.05	12154.40
466.23	12287.81
466.41	12250.36
466.60	12500.80
466.78	12285.47
466.96	12229.30
467.14	12381.43
467.32	12519.53
467.51	12592.08
467.69	12201.21
467.87	12559.31
468.05	12968.91
468.23	12388.46
468.41	12400.16
468.60	12847.20
468.78	12938.48
468.96	12627.19
469.14	12746.56
469.32	13221.69
469.50	12769.96
469.69	13212.32
469.87	13139.77
470.05	13397.23
470.23	13476.80
470.41	13172.54
470.59	13233.39
470.77	13261.48
470.95	13385.52
471.14	13476.80
471.32	13476.80
471.50	13495.53
471.68	13860.65
471.86	13813.84
472.04	13837.25
472.22	14258.54
472.40	13769.37
472.58	13954.27
472.77	13984.70
472.95	14494.94
473.13	14630.69
473.31	14303.01
473.49	14249.18
473.67	14424.72
473.85	14415.36
474.03	14841.34
474.21	14647.07
474.39	14801.55
474.57	14775.80
474.75	15030.92
474.93	14977.09
475.12	15220.50
475.30	14925.60
475.48	15136.24
475.66	15515.41
475.84	15293.06
476.02	15613.71
476.20	15227.53
476.38	15985.86
476.56	16315.87
476.74	16121.61
476.92	15920.32
477.10	15995.22
477.28	16100.55
477.46	16386.09
477.64	16105.23
477.82	16720.79
478.00	17181.87
478.18	16933.78
478.36	16945.48
478.54	17214.64
478.72	17338.69
478.90	17359.75
479.08	17792.75
479.26	17963.61
479.44	17895.74
479.62	17891.06
479.80	17956.59
479.98	18223.41
480.16	18391.93
480.34	18635.35
480.52	18853.02
480.70	18766.42
480.88	18778.12
481.06	18838.97
481.24	18881.10
481.41	19339.85
481.59	19257.93
481.77	19606.67
481.95	20013.92
482.13	19770.51
482.31	19962.43
482.49	20446.92
482.67	20292.44
482.85	21078.86
483.03	21160.78
483.21	20819.07
483.39	20837.79
483.57	21036.74
483.74	21458.03
483.92	21551.65
484.10	21603.14
484.28	21947.20
484.46	22448.08
484.64	22436.38
484.82	22436.38
485.00	22663.41
485.18	22647.02
485.35	23386.63
485.53	23044.91
485.71	23405.36
485.89	23906.23
486.07	23690.90
486.25	23878.15
486.43	23707.29
486.61	24451.58
486.78	24500.73
486.96	24306.46
487.14	24725.42
487.32	24879.89
487.50	25165.44
487.68	25336.30
487.85	25184.16
488.03	25762.28
488.21	26228.04
488.39	26366.13
488.57	26405.92
488.75	26635.30
488.92	26717.22
489.10	26967.65
489.28	27124.47
489.46	27489.59
489.64	27297.67
489.81	28205.80
489.99	27821.95
490.17	28074.73
490.35	28467.94
490.53	29006.26
490.70	28552.20
490.88	28325.16
491.06	29221.59
491.24	29212.23
491.41	29340.96
491.59	29589.05
491.77	29619.48
491.95	29956.52
492.13	29940.13
492.30	30532.29
492.48	30338.02
492.66	30808.47
492.84	30646.97
493.01	31154.87
493.19	31075.29
493.37	31833.63
493.54	31679.15
493.72	31770.43
493.90	31929.59
494.08	32191.73
494.25	32364.93
494.43	32102.79
494.61	32676.22
494.79	32821.33
494.96	32844.74
495.14	33268.37
495.32	33425.19
495.49	33743.50
495.67	33970.54
495.85	33736.48
496.02	34178.84
496.20	34211.61
496.38	34307.57
496.55	34370.77
496.73	35351.45
496.91	35014.41
497.09	35288.26
497.26	35201.66
497.44	35569.12
497.62	35487.20
497.79	36254.90
497.97	35805.52
498.14	36327.45
498.32	36594.28
498.50	36690.24
498.67	36809.61
498.85	36933.65
499.03	36666.83
499.20	37132.60
499.38	37165.37
499.56	37380.70
499.73	37872.21
499.91	37741.14
500.08	38382.45
500.26	37427.51
500.44	37923.70
500.61	38160.09
500.79	38305.21
500.97	38150.73
501.14	38918.43
501.32	38965.24
501.49	39084.61
501.67	39236.74
501.84	39592.50
502.02	39112.69
502.20	39531.65
502.37	39864.00
502.55	39477.82
502.72	39885.07
502.90	40133.17
503.07	39791.45
503.25	40381.26
503.43	40034.86
503.60	40526.38
503.78	40795.54
503.95	40521.69
504.13	41301.09
504.30	41010.87
504.48	40823.62
504.65	41209.81
504.83	41057.68
505.01	41270.67
505.18	41750.48
505.36	41869.84
505.53	41691.96
505.71	42405.83
505.88	42026.66
506.06	42014.96
506.23	42438.59
506.41	42234.97
506.58	42464.34
506.76	42674.99
506.93	43044.79
507.11	43040.11
507.28	42965.21
507.46	43290.55
507.63	43110.33
507.81	43718.87
507.98	43115.01
508.16	43744.61
508.33	43821.85
508.50	43775.04
508.68	43990.37
508.85	44191.65
509.03	44245.49
509.20	44397.62
509.38	44971.05
509.55	45282.34
509.73	44650.40
509.90	45212.13
510.08	45188.72
510.25	45116.17
510.42	45083.40
510.60	44849.35
510.77	45689.60
510.95	45425.12
511.12	45605.34
511.30	45588.95
511.47	45876.84
511.64	46216.22
511.82	46199.83
511.99	45865.14
512.17	46071.10
512.34	46096.85
512.51	46672.62
512.69	46579.00
512.86	47082.22
513.04	47079.88
513.21	47122.01
513.38	47365.42
513.56	47257.76
513.73	46997.96
513.90	47344.36
514.08	47227.33
514.25	47709.48
514.43	47725.86
514.60	47812.46
514.77	47751.61
514.95	48229.08
515.12	48105.03
515.29	48039.50
515.47	48229.08
515.64	48381.21
515.81	48299.30
515.99	48556.75
516.16	48931.24
516.33	48851.66
516.51	48802.51
516.68	48690.16
516.85	48605.91
517.03	49249.55
517.20	49113.80
517.37	49345.51
517.54	49235.51
517.72	49193.38
517.89	49364.24
518.06	49467.22
518.24	49876.82
518.41	49715.32
518.58	49712.98
518.75	49720.00
518.93	50005.55
519.10	50188.11
519.27	49930.65
519.45	50150.66
519.62	50199.81
519.79	50560.25
519.96	50248.96
520.14	50623.45
520.31	50506.42
520.48	50548.55
520.65	50712.39
520.83	50904.31
521.00	50979.21
521.17	50848.14
521.34	51234.33
521.52	51402.85
521.69	51290.50
521.86	51643.92
522.03	51456.68
522.20	51639.24
522.38	51868.61
522.55	51861.59
522.72	51948.19
522.89	51966.91
523.07	52158.84
523.24	51992.66
523.41	51861.59
523.58	51536.26
523.75	52095.64
523.92	52519.28
524.10	52048.83
524.27	52498.22
524.44	52491.19
524.61	52392.89
524.78	52498.22
524.96	52692.48
525.13	52538.01
525.30	52556.73
525.47	52844.62
525.64	52767.38
525.81	52968.66
525.98	52830.57
526.16	53020.16
526.33	53118.46
526.50	53436.77
526.67	52980.37
526.84	53474.22
527.01	53209.74
527.18	53120.80
527.36	53095.05
527.53	53532.73
527.70	53647.42
527.87	53549.12
528.04	53385.28
528.21	53572.52
528.38	53598.27
528.55	54005.52
528.72	53605.29
528.89	53996.16
529.07	53762.11
529.24	53755.08
529.41	53918.92
529.58	54052.33
529.75	53829.98
529.92	53944.67
530.09	53942.33
530.26	54190.42
530.43	54525.12
530.60	54162.34
530.77	54087.44
530.94	54440.86
531.11	54167.02
531.28	54527.46
531.46	54525.12
531.63	54635.13
531.80	54651.51
531.97	55035.36
532.14	54789.60
532.31	54934.71
532.48	54707.68
532.65	54813.01
532.82	54581.29
532.99	55210.90
533.16	54787.26
533.33	55033.02
533.50	55262.39
533.67	55348.99
533.84	54883.22
534.01	55201.53
534.18	55367.71
534.35	55498.78
534.52	55559.64
534.69	55339.63
534.86	55585.38
535.03	55150.04
535.20	55299.84
535.37	55763.26
535.54	55554.96
535.71	55327.92
535.88	55812.41
536.05	55746.88
536.22	55948.17
536.38	56004.34
536.55	55781.99
536.72	55810.07
536.89	55786.67
537.06	56016.04
537.23	56154.13
537.40	55877.95
537.57	55957.53
537.74	55889.65
537.91	56214.99
538.08	56072.21
538.25	55920.08
538.42	56053.49
538.59	56463.08
538.75	56186.90
538.92	56226.69
539.09	56552.02
539.26	56498.19
539.43	56442.02
539.60	56687.78
539.77	56479.47
539.94	56577.77
540.11	56680.75
540.28	56512.23
540.44	56762.67
540.61	56633.94
540.78	56610.54
540.95	56722.88
541.12	56715.86
541.29	56715.86
541.46	56877.36
541.62	56849.27
541.79	57123.11
541.96	56755.65
542.13	56657.35
542.30	56978.00
542.47	57242.48
542.63	56949.92
542.80	57272.91
542.97	57471.85
543.14	57591.22
543.31	57329.08
543.48	57551.43
543.64	57851.02
543.81	57591.22
543.98	57511.64
544.15	57530.37
544.32	57806.55
544.48	57909.53
544.65	57820.59
544.82	57579.52
544.99	57354.83
545.16	57832.30
545.32	57457.81
545.49	57883.79
545.66	57979.75
545.83	57944.64
546.00	57963.37
546.16	57921.24
546.33	57846.34
546.50	57773.78
546.67	58000.82
546.83	57684.84
547.00	58071.03
547.17	58138.91
547.34	57944.64
547.50	58094.44
547.67	58323.81
547.84	58106.14
548.00	58401.05
548.17	58560.20
548.34	58471.26
548.51	58487.65
548.67	58443.18
548.84	58569.57
549.01	58370.62
549.18	58246.57
549.34	58452.54
549.51	58396.37
549.68	58581.27
549.84	58646.80
550.01	58562.54
550.18	58555.52
550.34	58798.94
550.51	58817.66
550.68	58539.14
550.84	58454.88
551.01	58674.89
551.18	58766.17
551.34	58787.24
551.51	58848.09
551.68	58651.48
551.84	58756.81
552.01	58777.87
552.18	58934.69
552.34	58955.75
552.51	59281.09
552.68	59011.93
552.84	59058.74
553.01	59250.66
553.18	59238.96
553.34	59037.67
553.51	58979.16
553.67	59262.36
553.84	59192.15
554.01	59222.58
554.17	59243.64
554.34	59245.98
554.51	59072.78
554.67	59215.55
554.84	59178.10
555.00	59288.11
555.17	59199.17
555.33	59189.81
555.50	59260.02
555.67	59227.26
555.83	59274.07
556.00	59405.14
556.16	59676.64
556.33	59538.55
556.50	59346.62
556.66	59751.54
556.83	59238.96
556.99	59629.83
557.16	59636.85
557.32	59716.43
557.49	59803.03
557.65	59590.04
557.82	59543.23
557.98	59456.63
558.15	59730.47
558.32	59999.63
558.48	59398.12
558.65	59814.73
558.81	59828.77
558.98	59784.30
559.14	59880.27
559.31	60067.51
559.47	59952.82
559.64	59847.50
559.80	59934.10
559.97	59852.18
560.13	59955.16
560.30	59859.20
560.46	60055.81
560.63	60151.77
560.79	60207.94
560.96	60048.78
561.12	59877.93
561.29	59978.57
561.45	60046.44
561.61	60100.28
561.78	59950.48
561.94	60268.79
562.11	60177.51
562.27	60133.04
562.44	60186.88
562.60	60353.05
562.77	60280.50
562.93	60207.94
563.10	60336.67
563.26	59927.08
563.42	60229.01
563.59	60158.79
563.75	60357.74
563.92	60219.64
564.08	60095.60
564.24	60516.89
564.41	60301.56
564.57	60441.99
564.74	60303.90
564.90	60432.63
565.07	60275.82
565.23	60336.67
565.39	60444.33
565.56	60381.14
565.72	60397.52
565.88	60420.93
566.05	60231.35
566.21	60561.36
566.38	60392.84
566.54	60542.64
566.70	60559.02
566.87	60680.73
567.03	60381.14
567.19	60610.51
567.36	60603.49
567.52	60399.86
567.68	60640.94
567.85	60500.51
568.01	60603.49
568.17	60685.41
568.34	60640.94
568.50	60692.43
568.66	60769.67
568.83	60753.29
568.99	60498.17
569.15	60652.64
569.32	60594.13
569.48	60647.96
569.64	60788.39
569.81	60659.66
569.97	60612.85
570.13	60760.31
570.30	60425.61
570.46	60711.16
570.62	60762.65
570.78	60779.03
570.95	60687.75
571.11	60884.36
571.27	60612.85
571.43	60898.40
571.60	61102.03
571.76	60793.07
571.92	60786.05
572.09	60839.89
572.25	60844.57
572.41	60893.72
572.57	60879.67
572.74	61003.72
572.90	60800.10
573.06	60858.61
573.22	60825.84
573.38	60905.42
573.55	60903.08
573.71	60968.61
573.87	61041.17
574.03	60542.64
574.20	60931.17
574.36	60802.44
574.52	60816.48
574.68	60963.93
574.84	61195.65
575.01	61071.60
575.17	60828.18
575.33	60940.53
575.49	60970.96
575.65	61134.79
575.82	61090.32
575.98	60921.80
576.14	61029.47
576.30	61048.19
576.46	61062.24
576.62	60938.19
576.79	61155.86
576.95	60893.72
577.11	60961.59
577.27	61027.13
577.43	61031.81
577.59	60914.78
577.75	60903.08
577.92	61111.39
578.08	61085.64
578.24	61064.58
578.40	61293.95
578.56	61202.67
578.72	60898.40
578.88	61160.54
579.04	61240.12
579.21	60949.89
579.37	61345.44
579.53	61315.01
579.69	60863.29
579.85	61270.54
580.01	61123.09
580.17	60879.67
580.33	61167.56
580.49	61162.88
580.65	61197.99
580.82	61141.81
580.98	61048.19
581.14	61052.87
581.30	61228.41
581.46	61017.77
581.62	61137.13
581.78	61209.69
581.94	61284.59
582.10	61118.41
582.26	61085.64
582.42	61017.77
582.58	61296.29
582.74	61226.07
582.90	61083.30
583.06	61209.69
583.22	61104.37
583.38	61069.26
583.54	61024.79
583.70	61263.52
583.86	61270.54
584.02	61181.60
584.18	61247.14
584.34	61188.63
584.50	61057.56
584.66	61041.17
584.82	60860.95
584.98	61352.46
585.14	61120.75
585.30	61010.74
585.46	61336.08
585.62	61261.18
585.78	61378.21
585.94	61130.11
586.10	61293.95
586.26	61317.35
586.42	61307.99
586.58	61326.72
586.74	61368.85
586.90	61343.10
587.06	61195.65
587.22	61474.17
587.38	61235.44
587.54	61392.25
587.70	61513.96
587.86	61226.07
588.02	61350.12
588.18	61556.09
588.34	61329.06
588.49	61174.58
