SpectraSuite Data File
++++++++++++++++++++++++++++++++++++
Date: Fri Oct 25 11:34:25 EDT 2013
User: price-jones
Dark Spectrum Present: No
Reference Spectrum Present: No
Number of Sampled Component Spectra: 1
Spectrometers: USB2+H05261
Integration Time (usec): 100000 (USB2+H05261)
Spectra Averaged: 1 (USB2+H05261)
Boxcar Smoothing: 0 (USB2+H05261)
Correct for Electrical Dark: No (USB2+H05261)
Strobe/Lamp Enabled: No (USB2+H05261)
Correct for Detector Non-linearity: No (USB2+H05261)
Correct for Stray Light: No (USB2+H05261)
Number of Pixels in Processed Spectrum: 2048
>>>>>Begin Processed Spectral Data<<<<<
365.73	222.35
365.92	222.35
366.12	222.35
366.32	166.18
366.52	187.24
366.72	241.08
366.91	222.35
367.11	182.56
367.31	182.56
367.51	166.18
367.70	138.09
367.90	189.58
368.10	152.13
368.30	128.73
368.49	135.75
368.69	276.18
368.89	135.75
369.09	184.90
369.28	210.65
369.48	215.33
369.68	266.82
369.87	294.91
370.07	262.14
370.27	273.84
370.47	299.59
370.66	489.17
370.86	489.17
371.06	498.53
371.25	519.60
371.45	493.85
371.65	454.06
371.84	517.26
372.04	540.66
372.24	557.05
372.44	550.03
372.63	631.94
372.83	596.84
373.03	669.39
373.22	610.88
373.42	568.75
373.62	573.43
373.81	629.60
374.01	690.46
374.21	606.20
374.40	617.90
374.60	620.24
374.79	620.24
374.99	725.57
375.19	653.01
375.38	643.65
375.58	657.69
375.78	662.37
375.97	601.52
376.17	711.52
376.37	641.31
376.56	681.10
376.76	624.92
376.95	648.33
377.15	655.35
377.35	725.57
377.54	620.24
377.74	624.92
377.93	622.58
378.13	678.76
378.33	779.40
378.52	695.14
378.72	683.44
378.91	641.31
379.11	734.93
379.31	755.99
379.50	629.60
379.70	741.95
379.89	826.21
380.09	704.50
380.28	603.86
380.48	720.88
380.68	699.82
380.87	760.67
381.07	760.67
381.26	741.95
381.46	741.95
381.65	814.51
381.85	692.80
382.04	779.40
382.24	812.17
382.43	739.61
382.63	737.27
382.83	711.52
383.02	800.46
383.22	837.91
383.41	720.88
383.61	819.19
383.80	798.12
384.00	739.61
384.19	732.59
384.39	854.30
384.58	798.12
384.78	795.78
384.97	800.46
385.17	826.21
385.36	875.36
385.56	858.98
385.75	763.01
385.95	828.55
386.14	858.98
386.34	870.68
386.53	882.38
386.72	866.00
386.92	903.45
387.11	884.72
387.31	763.01
387.50	896.43
387.70	816.85
387.89	908.13
388.09	917.49
388.28	828.55
388.48	933.87
388.67	940.90
388.86	880.04
389.06	903.45
389.25	868.34
389.45	938.55
389.64	919.83
389.84	999.41
390.03	997.07
390.22	903.45
390.42	896.43
390.61	943.24
390.81	898.77
391.00	966.64
391.19	1041.54
391.39	891.74
391.58	908.13
391.78	978.34
391.97	929.19
392.16	1006.43
392.36	1083.67
392.55	999.41
392.75	1050.90
392.94	964.30
393.13	1046.22
393.33	1057.92
393.52	1050.90
393.71	1029.84
393.91	1006.43
394.10	1043.88
394.29	1067.28
394.49	999.41
394.68	1121.12
394.88	1034.52
395.07	1093.03
395.26	1078.99
395.46	1062.60
395.65	1163.25
395.84	1170.27
396.04	1097.71
396.23	1121.12
396.42	1114.10
396.62	1203.04
396.81	1196.01
397.00	1224.10
397.19	1156.22
397.39	1149.20
397.58	1231.12
397.77	1200.69
397.97	1186.65
398.16	1214.74
398.35	1226.44
398.55	1193.67
398.74	1245.16
398.93	1263.89
399.12	1275.59
399.32	1282.61
399.51	1277.93
399.70	1252.19
399.90	1306.02
400.09	1371.55
400.28	1301.34
400.47	1317.72
400.67	1355.17
400.86	1409.00
401.05	1303.68
401.24	1434.75
401.44	1303.68
401.63	1371.55
401.82	1299.00
402.01	1352.83
402.21	1448.79
402.40	1495.60
402.59	1364.53
402.78	1425.39
402.97	1423.05
403.17	1341.13
403.36	1366.87
403.55	1584.54
403.74	1586.88
403.93	1507.30
404.13	1666.46
404.32	1572.84
404.51	1544.75
404.70	1633.69
404.89	1561.14
405.09	1621.99
405.28	1640.72
405.47	1610.29
405.66	1671.14
405.85	1699.23
406.05	1654.76
406.24	1659.44
406.43	1685.19
406.62	1706.25
406.81	1797.53
407.00	1757.74
407.20	1743.70
407.39	1687.53
407.58	1710.93
407.77	1776.47
407.96	1849.02
408.15	1884.13
408.34	1715.61
408.54	1825.62
408.73	1823.28
408.92	1877.11
409.11	1842.00
409.30	1895.83
409.49	2015.20
409.68	1961.37
409.87	1907.54
410.07	1998.82
410.26	2057.33
410.45	1942.64
410.64	2090.10
410.83	2122.87
411.02	2099.46
411.21	2165.00
411.40	2022.22
411.59	2167.34
411.78	2193.08
411.98	2132.23
412.17	2129.89
412.36	2076.06
412.55	2174.36
412.74	2221.17
412.93	2272.66
413.12	2143.93
413.31	2345.22
413.50	2335.85
413.69	2335.85
413.88	2473.95
414.07	2473.95
414.26	2382.67
414.45	2436.50
414.64	2546.50
414.83	2476.29
415.02	2544.16
415.22	2513.74
415.41	2605.02
415.60	2473.95
415.79	2539.48
415.98	2700.98
416.17	2665.87
416.36	2612.04
416.55	2740.77
416.74	2705.66
416.93	2668.21
417.12	2640.12
417.31	2565.23
417.50	2796.94
417.69	2946.73
417.88	2871.84
418.07	2803.96
418.26	2946.73
418.45	2864.82
418.64	2979.50
418.83	3131.64
419.02	2965.46
419.21	3009.93
419.39	2920.99
419.58	2913.97
419.77	2876.52
419.96	3002.91
420.15	2967.80
420.34	2993.55
420.53	2981.84
420.72	3176.11
420.91	3141.00
421.10	3206.53
421.29	3131.64
421.48	3103.55
421.67	3201.85
421.86	3152.70
422.05	3171.43
422.24	3239.30
422.43	3353.99
422.61	3311.86
422.80	3204.19
422.99	3197.17
423.18	3262.71
423.37	3433.57
423.56	3328.24
423.75	3349.31
423.94	3094.19
424.13	3166.74
424.32	3220.58
424.50	3276.75
424.69	3440.59
424.88	3405.48
425.07	3267.39
425.26	3316.54
425.45	3243.98
425.64	3316.54
425.83	3258.03
426.01	3480.38
426.20	3426.54
426.39	3405.48
426.58	3344.63
426.77	3316.54
426.96	3475.70
427.15	3449.95
427.33	3414.84
427.52	3494.42
427.71	3482.72
427.90	3412.50
428.09	3400.80
428.28	3604.42
428.46	3529.53
428.65	3552.93
428.84	3576.34
429.03	3595.06
429.22	3571.66
429.40	3550.59
429.59	3698.05
429.78	3414.84
429.97	3545.91
430.16	3693.37
430.34	3716.77
430.53	3655.92
430.72	3726.13
430.91	3843.16
431.10	3545.91
431.28	3728.47
431.47	3866.56
431.66	3875.93
431.85	3808.05
432.03	4039.76
432.22	4166.15
432.41	3812.73
432.60	3908.69
432.79	3908.69
432.97	3906.35
433.16	4051.47
433.35	3992.95
433.54	3941.46
433.72	4133.39
433.91	3934.44
434.10	4079.55
434.28	3953.16
434.47	4175.52
434.66	4065.51
434.85	4173.18
435.03	4182.54
435.22	4229.35
435.41	4299.56
435.59	4250.41
435.78	4280.84
435.97	4283.18
436.16	4245.73
436.34	4170.83
436.53	4250.41
436.72	4271.48
436.90	4339.35
437.09	4327.65
437.28	4341.69
437.46	4416.59
437.65	4477.44
437.84	4409.57
438.02	4514.89
438.21	4521.92
438.40	4482.13
438.58	4610.86
438.77	4596.81
438.96	4566.39
439.14	4678.73
439.33	4662.35
439.52	4683.41
439.70	4812.14
439.89	4762.99
440.08	4894.06
440.26	4844.91
440.45	4959.60
440.63	4863.63
440.82	4968.96
441.01	4968.96
441.19	5142.16
441.38	5219.39
441.57	5188.97
441.75	5233.44
441.94	5303.65
442.12	5242.80
442.31	5151.52
442.50	5327.06
442.68	5203.01
442.87	5317.70
443.05	5277.91
443.24	5453.45
443.43	5390.25
443.61	5378.55
443.80	5474.51
443.98	5282.59
444.17	5039.17
444.35	5364.51
444.54	5554.09
444.73	5451.11
444.91	5298.97
445.10	5504.94
445.28	5446.43
445.47	5313.02
445.65	5575.16
445.84	5666.44
446.02	5488.56
446.21	5315.36
446.39	5563.45
446.58	5500.26
446.77	5373.87
446.95	5416.00
447.14	5537.71
447.32	5654.73
447.51	5563.45
447.69	5551.75
447.88	5584.52
448.06	5692.18
448.25	5507.28
448.43	5668.78
448.62	5713.25
448.80	5628.99
448.99	5624.31
449.17	5743.67
449.36	5589.20
449.54	5804.53
449.73	5760.06
449.91	5837.30
450.10	5809.21
450.28	5900.49
450.46	5937.94
450.65	5942.62
450.83	5853.68
451.02	5935.60
451.20	6143.91
451.39	6097.10
451.57	5970.71
451.76	5928.58
451.94	6052.63
452.13	6078.37
452.31	5970.71
452.49	6141.57
452.68	6242.21
452.86	6001.13
453.05	6120.50
453.23	6146.25
453.42	6134.54
453.60	6069.01
453.78	6171.99
453.97	6129.86
454.15	5987.09
454.34	6256.25
454.52	6340.51
454.70	6279.66
454.89	6307.74
455.07	6328.81
455.26	6413.07
455.44	6392.00
455.62	6242.21
455.81	6476.26
455.99	6443.49
456.17	6354.55
456.36	6422.43
456.54	6649.46
456.73	6494.99
456.91	6759.47
457.09	6609.67
457.28	6874.15
457.46	6586.27
457.64	6677.55
457.83	6857.77
458.01	6771.17
458.19	6930.33
458.38	6878.83
458.56	6843.73
458.74	6942.03
458.93	7091.82
459.11	6963.09
459.29	6930.33
459.48	6942.03
459.66	6916.28
459.84	7171.40
460.03	7344.60
460.21	7063.74
460.39	7007.56
460.57	7232.26
460.76	7321.20
460.94	7482.69
461.12	7014.59
461.31	7112.89
461.49	7351.62
461.67	7246.30
461.85	7452.27
462.04	7204.17
462.22	7595.04
462.40	7485.03
462.59	7405.46
462.77	7431.20
462.95	7489.71
463.13	7318.86
463.32	7499.08
463.50	7599.72
463.68	7737.81
463.86	7777.60
464.05	7473.33
464.23	7588.02
464.41	7648.87
464.59	7513.12
464.78	7737.81
464.96	7698.02
465.14	7576.31
465.32	7637.17
465.50	7716.75
465.69	7875.90
465.87	7936.76
466.05	7892.29
466.23	7744.83
466.41	7808.03
466.60	8109.96
466.78	7805.69
466.96	7838.45
467.14	7822.07
467.32	7960.16
467.51	8046.76
467.69	7866.54
467.87	8018.68
468.05	8102.93
468.23	8028.04
468.41	7964.84
468.60	8063.15
468.78	8119.32
468.96	8149.75
469.14	8259.75
469.32	8372.10
469.50	8112.30
469.69	8636.58
469.87	8334.65
470.05	8489.12
470.23	8411.89
470.41	8400.18
470.59	8451.67
470.77	8418.91
470.95	8505.51
471.14	8643.60
471.32	8571.04
471.50	8706.79
471.68	8664.66
471.86	8674.03
472.04	8713.81
472.22	8982.98
472.40	8748.92
472.58	8905.74
472.77	8964.25
472.95	9212.35
473.13	9446.40
473.31	9006.38
473.49	9130.43
473.67	9055.53
473.85	9390.23
474.03	9310.65
474.21	9528.32
474.39	9446.40
474.57	9415.98
474.75	9493.21
474.93	9797.48
475.12	9493.21
475.30	9591.52
475.48	9507.26
475.66	9715.56
475.84	9699.18
476.02	9886.42
476.20	9675.77
476.38	10050.26
476.56	10157.92
476.74	10249.21
476.92	10097.07
477.10	10291.34
477.28	10396.66
477.46	10225.80
477.64	10317.08
477.82	10473.90
478.00	10668.16
478.18	10691.57
478.36	11019.24
478.54	10721.99
478.72	11019.24
478.90	11084.78
479.08	11030.94
479.26	11234.57
479.44	11225.21
479.62	11234.57
479.80	11576.29
479.98	11674.59
480.16	11585.65
480.34	11667.57
480.52	11843.11
480.70	11894.60
480.88	11648.85
481.06	11960.14
481.24	11793.96
481.41	12259.73
481.59	11950.78
481.77	12292.49
481.95	12425.90
482.13	12622.51
482.31	12198.87
482.49	12636.55
482.67	12730.17
482.85	12901.03
483.03	13032.10
483.21	13139.77
483.39	13476.80
483.57	13315.31
483.74	13638.30
483.92	13469.78
484.10	13394.89
484.28	13764.69
484.46	13926.19
484.64	14235.14
484.82	13949.59
485.00	14090.02
485.18	14389.61
485.35	14457.49
485.53	14389.61
485.71	14703.25
485.89	14775.80
486.07	14764.10
486.25	14883.47
486.43	14803.89
486.61	15084.75
486.78	15316.47
486.96	15227.53
487.14	15325.83
487.32	15449.88
487.50	15510.73
487.68	15613.71
487.85	16121.61
488.03	15917.98
488.21	16355.66
488.39	16177.78
488.57	16311.19
488.75	16400.13
488.92	16748.87
489.10	16821.43
489.28	16786.32
489.46	17006.33
489.64	16966.54
489.81	17589.13
489.99	17322.30
490.17	17598.49
490.35	17673.39
490.53	17781.05
490.70	17872.33
490.88	18022.12
491.06	18029.15
491.24	18162.56
491.41	18104.04
491.59	18359.16
491.77	18532.36
491.95	18555.77
492.13	18923.23
492.30	19007.49
492.48	18679.82
492.66	19131.54
492.84	18934.93
493.01	19302.40
493.19	19239.20
493.37	19693.27
493.54	19625.39
493.72	20065.41
493.90	20088.82
494.08	19899.23
494.25	20191.80
494.43	20449.26
494.61	20367.34
494.79	20311.17
494.96	20184.78
495.14	20388.41
495.32	20830.77
495.49	20835.45
495.67	20908.01
495.85	21078.86
496.02	21041.42
496.20	21535.27
496.38	21259.09
496.55	21341.00
496.73	21771.66
496.91	21818.47
497.09	21923.80
497.26	22085.30
497.44	21806.77
497.62	22089.98
497.79	22541.70
497.97	22160.19
498.14	22644.68
498.32	22307.65
498.50	22373.18
498.67	23047.26
498.85	23016.83
499.03	23131.51
499.20	23187.69
499.38	23267.27
499.56	23428.76
499.73	23407.70
499.91	23344.50
500.08	23779.84
500.26	23534.09
500.44	24049.00
500.61	23805.59
500.79	23702.61
500.97	24081.77
501.14	24280.72
501.32	24236.25
501.49	24299.44
501.67	24217.52
501.84	24552.22
502.02	24552.22
502.20	24428.17
502.37	24692.65
502.55	24570.94
502.72	24767.55
502.90	24683.29
503.07	25050.75
503.25	25156.08
503.43	25036.71
503.60	25483.75
503.78	25207.57
503.95	25371.41
504.13	25298.85
504.30	25392.47
504.48	25759.94
504.65	25731.85
504.83	26080.59
505.01	26113.36
505.18	25860.58
505.36	26340.39
505.53	26029.10
505.71	26258.47
505.88	26419.97
506.06	26490.18
506.23	26813.18
506.41	26335.71
506.58	26473.80
506.76	26745.30
506.93	27005.10
507.11	26670.40
507.28	27084.68
507.46	26813.18
507.63	27222.77
507.81	27278.94
507.98	27028.51
508.16	27393.63
508.33	27538.74
508.50	27468.53
508.68	27351.50
508.85	27943.66
509.03	27557.47
509.20	27758.75
509.38	27976.42
509.55	27962.38
509.73	27943.66
509.90	28290.06
510.08	28465.60
510.25	28449.21
510.42	28577.94
510.60	28360.27
510.77	28257.29
510.95	28797.95
511.12	28882.21
511.30	28982.85
511.47	29071.79
511.64	28854.12
511.82	29275.42
511.99	29078.82
512.17	29422.87
512.34	29132.65
512.51	29371.38
512.69	29804.38
512.86	29429.90
513.04	29771.61
513.21	29509.47
513.38	29869.92
513.56	29886.30
513.73	30012.69
513.90	30071.20
514.08	29888.64
514.25	30242.06
514.43	30644.63
514.60	30277.17
514.77	30450.37
514.95	30644.63
515.12	30160.14
515.29	30551.01
515.47	30731.23
515.64	30441.01
515.81	30824.86
515.99	30869.33
516.16	30934.86
516.33	30815.49
516.51	30904.43
516.68	31377.22
516.85	31131.47
517.03	30843.58
517.20	31377.22
517.37	31241.47
517.54	31578.51
517.72	31400.63
517.89	31842.99
518.06	31447.44
518.24	31777.45
518.41	31512.97
518.58	31721.28
518.75	31960.02
518.93	32163.64
519.10	31859.37
519.27	32156.62
519.45	32137.90
519.62	32350.88
519.79	32491.32
519.96	32385.99
520.14	32606.00
520.31	32060.66
520.48	32568.55
520.65	32765.16
520.83	33338.59
521.00	33130.28
521.17	32540.47
521.34	33090.49
521.52	32856.44
521.69	32870.48
521.86	33619.46
522.03	33282.42
522.20	33472.00
522.38	33504.77
522.55	33895.64
522.72	33418.17
522.89	33340.93
523.07	33722.44
523.24	33970.54
523.41	33949.47
523.58	34136.71
523.75	34096.92
523.92	34050.11
524.10	34146.08
524.27	33930.75
524.44	34452.69
524.61	34321.62
524.78	34415.24
524.96	34806.11
525.13	34558.01
525.30	34974.63
525.47	34660.99
525.64	34934.84
525.81	34895.05
525.98	35098.67
526.16	34965.26
526.33	34785.04
526.50	35051.86
526.67	34766.32
526.84	34820.15
527.01	35222.72
527.18	35122.08
527.36	35419.33
527.53	35508.27
527.70	35395.92
527.87	36072.34
528.04	35681.47
528.21	35709.55
528.38	35779.77
528.55	35814.88
528.72	35730.62
528.89	35910.84
529.07	35597.21
529.24	35648.70
529.41	36203.41
529.58	35644.02
529.75	35821.90
529.92	36215.11
530.09	36271.28
530.26	36219.79
530.43	36388.31
530.60	36271.28
530.77	36275.96
530.94	36112.13
531.11	36020.84
531.28	36755.77
531.46	36416.40
531.63	36587.25
531.80	36589.59
531.97	36671.51
532.14	36570.87
532.31	36418.74
532.48	37256.65
532.65	37282.39
532.82	36804.92
532.99	37127.92
533.16	36980.46
533.33	37186.43
533.50	37050.68
533.67	36994.51
533.84	37207.50
534.01	37120.90
534.18	37191.11
534.35	37912.00
534.52	37497.72
534.69	37743.48
534.86	37830.08
535.03	37443.89
535.20	37851.14
535.37	37551.56
535.54	38218.61
535.71	37652.20
535.88	38061.79
536.05	37841.78
536.22	38230.31
536.38	38155.41
536.55	38366.06
536.72	38029.02
536.89	38017.32
537.06	38059.45
537.23	38600.12
537.40	38361.38
537.57	38396.49
537.74	38522.88
537.91	38361.38
538.08	38665.65
538.25	38520.54
538.42	38550.96
538.59	38859.91
538.75	38770.97
538.92	38724.16
539.09	38941.83
539.26	39161.84
539.43	38864.60
539.60	38955.88
539.77	38567.35
539.94	39309.30
540.11	38932.47
540.28	39281.21
540.44	39124.40
540.61	39150.14
540.78	38820.13
540.95	39438.03
541.12	39119.71
541.29	39271.85
541.46	39470.79
541.62	39756.34
541.79	39716.55
541.96	39634.63
542.13	39328.02
542.30	39112.69
542.47	40011.46
542.63	39821.87
542.80	39662.72
542.97	40233.81
543.14	39849.96
543.31	40371.90
543.48	39988.05
543.64	40671.49
543.81	40397.65
543.98	40514.67
544.15	40634.04
544.32	40964.06
544.48	40978.10
544.65	40706.60
544.82	40793.20
544.99	40128.48
545.16	40673.83
545.32	40823.62
545.49	40978.10
545.66	41195.77
545.83	40837.67
546.00	41088.10
546.16	40776.81
546.33	41060.02
546.50	40858.73
546.67	40924.27
546.83	40804.90
547.00	40924.27
547.17	40912.56
547.34	40865.75
547.50	41301.09
547.67	41275.35
547.84	40601.27
548.00	41715.37
548.17	40966.40
548.34	41546.85
548.51	41839.42
548.67	42010.28
548.84	41837.08
549.01	41511.74
549.18	41565.57
549.34	41783.24
549.51	41839.42
549.68	41930.70
549.84	41406.42
550.01	41598.34
550.18	41649.83
550.34	42007.94
550.51	42117.94
550.68	41710.69
550.84	42080.49
551.01	41886.23
551.18	42073.47
551.34	42108.58
551.51	42068.79
551.68	42089.85
551.84	42131.98
552.01	42195.18
552.18	42087.51
552.34	42384.76
552.51	42066.45
552.68	41986.87
552.84	42349.65
553.01	42288.80
553.18	42443.27
553.34	42440.93
553.51	42529.87
553.67	42515.83
553.84	42665.63
554.01	42997.98
554.17	42487.74
554.34	42761.59
554.51	42848.19
554.67	43126.71
554.84	42944.15
555.00	42859.89
555.17	42752.23
555.33	43136.07
555.50	42918.40
555.67	43288.21
555.83	42749.88
556.00	43604.18
556.16	43587.80
556.33	43405.23
556.50	43115.01
556.66	43065.86
556.83	42684.35
556.99	43510.56
557.16	43456.73
557.32	43756.32
557.49	43346.72
557.65	42904.36
557.82	42967.55
557.98	43786.74
558.15	43236.72
558.32	43496.52
558.48	43646.31
558.65	43662.69
558.81	43309.27
558.98	43746.95
559.14	43255.44
559.31	43538.65
559.47	43732.91
559.64	43718.87
559.80	43803.13
559.97	43861.64
560.13	43725.89
560.30	43419.28
560.46	43739.93
560.63	44182.29
560.79	43791.42
560.96	44191.65
561.12	43959.94
561.29	43892.07
561.45	44128.46
561.61	44018.46
561.78	43756.32
561.94	44250.17
562.11	43988.03
562.27	43906.11
562.44	43765.68
562.60	44414.01
562.77	44350.81
562.93	43910.79
563.10	44409.32
563.26	44404.64
563.42	44329.75
563.59	44032.50
563.75	44304.00
563.92	44011.43
564.08	44250.17
564.24	44362.51
564.41	44334.43
564.57	44076.97
564.74	44619.97
564.90	44065.27
565.07	43751.63
565.23	44744.02
565.39	44395.28
565.56	44535.71
565.72	44472.52
565.88	44528.69
566.05	44292.30
566.21	44357.83
566.38	44381.24
566.54	44839.98
566.70	44910.20
566.87	44605.93
567.03	44278.25
567.19	44872.75
567.36	44332.09
567.52	44662.10
567.68	44779.13
567.85	44715.93
568.01	44605.93
568.17	44680.83
568.34	44964.03
568.50	45048.29
568.66	44584.86
568.83	44399.96
568.99	44596.57
569.15	44793.17
569.32	44786.15
569.48	44533.37
569.64	44898.50
569.81	44797.85
569.97	45111.49
570.13	44942.97
570.30	44861.05
570.46	44912.54
570.62	45277.66
570.78	44502.95
570.95	44945.31
571.11	45153.62
571.27	44498.26
571.43	44999.14
571.60	44783.81
571.76	44538.05
571.92	45123.19
572.09	44676.15
572.25	45034.25
572.41	44533.37
572.57	44856.37
572.74	45198.09
572.90	45020.20
573.06	45338.52
573.22	45181.70
573.38	45350.22
573.55	45148.93
573.71	45418.10
573.87	44896.16
574.03	45345.54
574.20	45230.85
574.36	45216.81
574.52	45031.91
574.68	45507.04
574.84	45191.06
575.01	45095.10
575.17	45460.23
575.33	45191.06
575.49	44793.17
575.65	45193.40
575.82	45455.54
575.98	45001.48
576.14	45361.92
576.30	45406.39
576.46	45502.35
576.62	44931.26
576.79	45165.32
576.95	45375.97
577.11	45148.93
577.27	45275.32
577.43	45315.11
577.59	45624.06
577.75	44947.65
577.92	45518.74
578.08	45249.58
578.24	45766.84
578.40	45911.95
578.56	45488.31
578.72	45277.66
578.88	45338.52
579.04	45144.25
579.21	45336.18
579.37	45237.87
579.53	45258.94
579.69	44921.90
579.85	44973.39
580.01	45507.04
580.17	45158.30
580.33	45614.70
580.49	45490.65
580.65	45460.23
580.82	45378.31
580.98	45298.73
581.14	45408.73
581.30	45518.74
581.46	45556.19
581.62	45352.56
581.78	45050.63
581.94	45696.62
582.10	45317.45
582.26	45294.05
582.42	45717.68
582.58	45579.59
582.74	45710.66
582.90	45603.00
583.06	45577.25
583.22	45682.58
583.38	45933.01
583.54	45778.54
583.70	45181.70
583.86	45537.46
584.02	45326.81
584.18	46122.60
584.34	45420.44
584.50	46026.63
584.66	45846.41
584.82	45418.10
584.98	45748.11
585.14	46293.46
585.30	45261.28
585.46	45687.26
585.62	45610.02
585.78	45890.88
585.94	44949.99
586.10	45481.29
586.26	45057.65
586.42	45914.29
586.58	45401.71
586.74	45315.11
586.90	45481.29
587.06	45172.34
587.22	45893.22
587.38	45373.63
587.54	46101.53
587.70	45827.69
587.86	45860.46
588.02	45263.62
588.18	45734.07
588.34	45855.78
588.49	45975.14
588.65	45787.90
588.81	45652.15
588.97	45940.04
589.13	46071.10
589.29	45532.78
589.45	45773.86
589.61	45390.01
589.77	45827.69
589.93	45708.32
590.08	45979.82
