SpectraSuite Data File
++++++++++++++++++++++++++++++++++++
Date: Fri Oct 25 10:44:41 EDT 2013
User: price-jones
Dark Spectrum Present: No
Reference Spectrum Present: No
Number of Sampled Component Spectra: 1
Spectrometers: USB2+H05261
Integration Time (usec): 100000 (USB2+H05261)
Spectra Averaged: 1 (USB2+H05261)
Boxcar Smoothing: 0 (USB2+H05261)
Correct for Electrical Dark: No (USB2+H05261)
Strobe/Lamp Enabled: No (USB2+H05261)
Correct for Detector Non-linearity: No (USB2+H05261)
Correct for Stray Light: No (USB2+H05261)
Number of Pixels in Processed Spectrum: 2048
>>>>>Begin Processed Spectral Data<<<<<
365.73	131.07
365.92	131.07
366.12	131.07
366.32	93.62
366.52	0.00
366.72	84.26
366.91	0.00
367.11	16.38
367.31	72.56
367.51	58.51
367.70	30.43
367.90	0.00
368.10	86.60
368.30	21.06
368.49	16.38
368.69	46.81
368.89	16.38
369.09	49.15
369.28	74.90
369.48	44.47
369.68	170.86
369.87	79.58
370.07	72.56
370.27	177.88
370.47	231.71
370.66	351.08
370.86	407.25
371.06	414.27
371.25	395.55
371.45	395.55
371.65	512.58
371.84	322.99
372.04	393.21
372.24	486.83
372.44	484.49
372.63	505.56
372.83	449.38
373.03	507.90
373.22	435.34
373.42	519.60
373.62	491.51
373.81	449.38
374.01	557.05
374.21	547.69
374.40	440.02
374.60	533.64
374.79	531.30
374.99	582.79
375.19	540.66
375.38	575.77
375.58	566.41
375.78	564.07
375.97	585.13
376.17	627.26
376.37	543.00
376.56	641.31
376.76	514.92
376.95	603.86
377.15	610.88
377.35	676.41
377.54	575.77
377.74	650.67
377.93	617.90
378.13	554.71
378.33	667.05
378.52	664.71
378.72	610.88
378.91	603.86
379.11	594.50
379.31	594.50
379.50	613.22
379.70	624.92
379.89	634.29
380.09	622.58
380.28	627.26
380.48	678.76
380.68	608.54
380.87	582.79
381.07	617.90
381.26	601.52
381.46	660.03
381.65	678.76
381.85	650.67
382.04	655.35
382.24	685.78
382.43	681.10
382.63	620.24
382.83	741.95
383.02	678.76
383.22	730.25
383.41	704.50
383.61	791.10
383.80	748.97
384.00	685.78
384.19	732.59
384.39	730.25
384.58	809.83
384.78	844.93
384.97	699.82
385.17	765.36
385.36	657.69
385.56	662.37
385.75	753.65
385.95	816.85
386.14	746.63
386.34	814.51
386.53	716.20
386.72	753.65
386.92	837.91
387.11	835.57
387.31	931.53
387.50	795.78
387.70	781.74
387.89	826.21
388.09	842.59
388.28	706.84
388.48	931.53
388.67	877.70
388.86	922.17
389.06	858.98
389.25	954.94
389.45	905.79
389.64	828.55
389.84	971.32
390.03	919.83
390.22	842.59
390.42	894.08
390.61	936.21
390.81	898.77
391.00	901.11
391.19	973.66
391.39	870.68
391.58	924.51
391.78	931.53
391.97	992.39
392.16	826.21
392.36	945.58
392.55	905.79
392.75	966.64
392.94	947.92
393.13	1032.18
393.33	1006.43
393.52	1027.50
393.71	980.68
393.91	1078.99
394.10	1050.90
394.29	1039.20
394.49	1088.35
394.68	1053.24
394.88	1018.13
395.07	1153.88
395.26	1081.33
395.46	1219.42
395.65	1174.95
395.84	1095.37
396.04	1118.78
396.23	1078.99
396.42	1048.56
396.62	1123.46
396.81	1210.06
397.00	1104.73
397.19	1167.93
397.39	1163.25
397.58	1268.57
397.77	1224.10
397.97	1282.61
398.16	1275.59
398.35	1364.53
398.55	1233.46
398.74	1331.76
398.93	1409.00
399.12	1313.04
399.32	1296.66
399.51	1303.68
399.70	1348.15
399.90	1409.00
400.09	1357.51
400.28	1474.54
400.47	1451.13
400.67	1448.79
400.86	1444.11
401.05	1441.77
401.24	1439.43
401.44	1502.62
401.63	1542.41
401.82	1472.20
402.01	1563.48
402.21	1549.43
402.40	1458.15
402.59	1458.15
402.78	1451.13
402.97	1540.07
403.17	1502.62
403.36	1617.31
403.55	1572.84
403.74	1619.65
403.93	1626.67
404.13	1610.29
404.32	1584.54
404.51	1624.33
404.70	1699.23
404.89	1591.56
405.09	1682.85
405.28	1678.16
405.47	1703.91
405.66	1715.61
405.85	1797.53
406.05	1703.91
406.24	1717.95
406.43	1804.55
406.62	1762.42
406.81	1832.64
407.00	1689.87
407.20	1790.51
407.39	1809.23
407.58	1865.41
407.77	1888.81
407.96	1919.24
408.15	1959.03
408.34	1949.67
408.54	1968.39
408.73	1881.79
408.92	2015.20
409.11	2062.01
409.30	2101.80
409.49	2012.86
409.68	1968.39
409.87	2017.54
410.07	2054.99
410.26	2134.57
410.45	2076.06
410.64	2134.57
410.83	2125.21
411.02	2190.74
411.21	2221.17
411.40	2253.94
411.59	2282.02
411.78	2235.21
411.98	2251.60
412.17	2415.43
412.36	2373.30
412.55	2410.75
412.74	2438.84
412.93	2401.39
413.12	2286.70
413.31	2602.68
413.50	2497.35
413.69	2443.52
413.88	2511.39
414.07	2567.57
414.26	2670.55
414.45	2612.04
414.64	2595.65
414.83	2757.15
415.02	2682.25
415.22	2684.59
415.41	2822.69
415.60	2682.25
415.79	2764.17
415.98	2829.71
416.17	2935.03
416.36	2857.79
416.55	2904.60
416.74	2916.31
416.93	2874.18
417.12	3023.97
417.31	3023.97
417.50	2939.71
417.69	3096.53
417.88	3094.19
418.07	3000.57
418.26	3105.89
418.45	3019.29
418.64	3176.11
418.83	3061.42
419.02	3059.08
419.21	3159.72
419.39	3382.07
419.58	3094.19
419.77	3141.00
419.96	3141.00
420.15	3199.51
420.34	3328.24
420.53	3372.71
420.72	3426.54
420.91	3225.26
421.10	3356.33
421.29	3426.54
421.48	3431.23
421.67	3314.20
421.86	3365.69
422.05	3438.25
422.24	3353.99
422.43	3524.85
422.61	3543.57
422.80	3353.99
422.99	3339.94
423.18	3613.79
423.37	3559.95
423.56	3492.08
423.75	3499.10
423.94	3440.59
424.13	3372.71
424.32	3283.77
424.50	3581.02
424.69	3634.85
424.88	3550.59
425.07	3452.29
425.26	3339.94
425.45	3515.48
425.64	3559.95
425.83	3496.76
426.01	3599.74
426.20	3595.06
426.39	3449.95
426.58	3447.61
426.77	3660.60
426.96	3550.59
427.15	3599.74
427.33	3679.32
427.52	3616.13
427.71	3723.79
427.90	3639.53
428.09	3786.99
428.28	3702.73
428.46	3801.03
428.65	3740.18
428.84	3831.46
429.03	3812.73
429.22	3819.75
429.40	3786.99
429.59	3716.77
429.78	3557.61
429.97	3684.00
430.16	3686.34
430.34	3777.62
430.53	3899.33
430.72	3854.86
430.91	3978.91
431.10	3887.63
431.28	3985.93
431.47	3971.89
431.66	4067.85
431.85	4051.47
432.03	4042.11
432.22	4135.73
432.41	4095.94
432.60	4222.33
432.79	4191.90
432.97	4159.13
433.16	4248.07
433.35	4198.92
433.54	4222.33
433.72	4222.33
433.91	4109.98
434.10	4163.81
434.28	4217.65
434.47	4355.74
434.66	4404.89
434.85	4468.08
435.03	4348.72
435.22	4409.57
435.41	4533.62
435.59	4510.21
435.78	4662.35
435.97	4634.26
436.16	4493.83
436.34	4470.42
436.53	4634.26
436.72	4641.28
436.90	4603.83
437.09	4788.74
437.28	4437.66
437.46	4585.11
437.65	4657.67
437.84	4678.73
438.02	4690.43
438.21	4732.56
438.40	4531.28
438.58	4873.00
438.77	4898.74
438.96	4936.19
439.14	4938.53
439.33	5004.07
439.52	5020.45
439.70	4999.38
439.89	5128.11
440.08	5116.41
440.26	5114.07
440.45	5102.37
440.63	5266.21
440.82	5394.93
441.01	5256.84
441.19	5401.96
441.38	5390.25
441.57	5458.13
441.75	5570.48
441.94	5652.39
442.12	5397.28
442.31	5671.12
442.50	5729.63
442.68	5685.16
442.87	5593.88
443.05	5675.80
443.24	5661.76
443.43	5760.06
443.61	5671.12
443.80	5860.70
443.98	5678.14
444.17	5479.19
444.35	5809.21
444.54	5996.45
444.73	5799.85
444.91	5907.51
445.10	5746.02
445.28	5867.72
445.47	5746.02
445.65	5790.49
445.84	5675.80
446.02	5902.83
446.21	5699.20
446.39	5792.83
446.58	6040.92
446.77	6120.50
446.95	5799.85
447.14	5996.45
447.32	6179.01
447.51	5893.47
447.69	5844.32
447.88	6061.99
448.06	5746.02
448.25	5907.51
448.43	6073.69
448.62	6057.31
448.80	6134.54
448.99	6080.71
449.17	6108.80
449.36	6033.90
449.54	5998.79
449.73	6218.80
449.91	6466.90
450.10	6373.28
450.28	6387.32
450.46	6420.09
450.65	6682.23
450.83	6321.79
451.02	6296.04
451.20	6527.75
451.39	6401.37
451.57	6354.55
451.76	6354.55
451.94	6593.29
452.13	6429.45
452.31	6422.43
452.49	6455.20
452.68	6492.65
452.86	6368.60
453.05	6544.14
453.23	6661.16
453.42	6612.01
453.60	6473.92
453.78	6724.36
453.97	6387.32
454.15	6583.93
454.34	6752.45
454.52	6757.13
454.70	6878.83
454.89	6888.20
455.07	6722.02
455.26	7049.69
455.44	6998.20
455.62	6935.01
455.81	6888.20
455.99	7019.27
456.17	6927.99
456.36	7026.29
456.54	7061.40
456.73	7227.57
456.91	7260.34
457.09	7204.17
457.28	7260.34
457.46	7155.02
457.64	7403.11
457.83	7246.30
458.01	7197.15
458.19	7501.42
458.38	7339.92
458.56	7433.54
458.74	7342.26
458.93	7389.07
459.11	7508.44
459.29	7478.01
459.48	7428.86
459.66	7258.00
459.84	7417.16
460.03	7744.83
460.21	7541.21
460.39	7655.89
460.57	7524.82
460.76	7744.83
460.94	7719.09
461.12	7611.42
461.31	7838.45
461.49	7653.55
461.67	7733.13
461.85	7861.86
462.04	7688.66
462.22	7995.27
462.40	8030.38
462.59	7962.50
462.77	7838.45
462.95	8072.51
463.13	8035.06
463.32	7967.18
463.50	8084.21
463.68	8217.62
463.86	8063.15
464.05	7969.52
464.23	8074.85
464.41	8231.66
464.59	7981.23
464.78	8259.75
464.96	8102.93
465.14	8126.34
465.32	8276.13
465.50	8344.01
465.69	8252.73
465.87	8226.98
466.05	8341.67
466.23	8346.35
466.41	8531.25
466.60	8386.14
466.78	8093.57
466.96	8372.10
467.14	8238.69
467.32	8505.51
467.51	8315.92
467.69	8446.99
467.87	8439.97
468.05	8519.55
468.23	8458.70
468.41	8374.44
468.60	8521.89
468.78	8580.40
468.96	8659.98
469.14	8718.50
469.32	8772.33
469.50	8711.47
469.69	8816.80
469.87	8922.12
470.05	8819.14
470.23	8758.28
470.41	8870.63
470.59	9027.45
470.77	8856.59
470.95	8940.85
471.14	9334.06
471.32	8982.98
471.50	9184.26
471.68	9116.39
471.86	9247.46
472.04	9268.52
472.22	9703.86
472.40	9184.26
472.58	9469.81
472.77	9521.30
472.95	9605.56
473.13	9923.87
473.31	9352.78
473.49	9441.72
473.67	9650.03
473.85	9668.75
474.03	9771.74
474.21	9816.21
474.39	10017.49
474.57	9818.55
474.75	9961.32
474.93	10188.35
475.12	9722.59
475.30	10106.43
475.48	10167.29
475.66	10235.16
475.84	10218.78
476.02	10267.93
476.20	10267.93
476.38	10567.52
476.56	10740.72
476.74	10944.34
476.92	10703.27
477.10	10600.29
477.28	10932.64
477.46	10848.38
477.64	10995.84
477.82	11419.47
478.00	11206.48
478.18	11318.83
478.36	11379.68
478.54	11482.67
478.72	11475.65
478.90	11641.82
479.08	11854.81
479.26	11676.93
479.44	11875.88
479.62	12030.35
479.80	12252.70
479.98	12198.87
480.16	12564.00
480.34	12325.26
480.52	12688.04
480.70	12652.94
480.88	12259.73
481.06	12556.97
481.24	12571.02
481.41	12784.01
481.59	13062.53
481.77	13238.07
481.95	12929.12
482.13	12971.25
482.31	13254.45
482.49	13490.85
482.67	13380.84
482.85	13738.94
483.03	13703.84
483.21	13827.88
483.39	13799.80
483.57	13738.94
483.74	14256.20
483.92	14008.11
484.10	14104.07
484.28	14368.55
484.46	14754.74
484.64	14761.76
484.82	14293.65
485.00	14719.63
485.18	14853.04
485.35	15021.56
485.53	14827.29
485.71	14979.43
485.89	15344.55
486.07	15183.06
486.25	15321.15
486.43	15506.05
486.61	15686.27
486.78	16102.89
486.96	16070.12
487.14	16348.64
487.32	16212.89
487.50	16315.87
487.68	16641.21
487.85	16830.79
488.03	16994.63
488.21	16823.77
488.39	16908.03
488.57	17043.78
488.75	17366.78
488.92	17469.76
489.10	17614.87
489.28	17649.98
489.46	17764.67
489.64	17757.64
489.81	18422.36
489.99	18228.09
490.17	18312.35
490.35	18654.07
490.53	18473.85
490.70	18834.29
490.88	18672.79
491.06	19082.39
491.24	19117.50
491.41	18841.31
491.59	19225.16
491.77	19014.51
491.95	19131.54
492.13	19644.12
492.30	19880.51
492.48	19906.26
492.66	20189.46
492.84	19974.13
493.01	19964.77
493.19	20142.65
493.37	20498.41
493.54	20343.94
493.72	20603.74
493.90	20467.98
494.08	20575.65
494.25	21092.91
494.43	21160.78
494.61	21341.00
494.79	21289.51
494.96	21069.50
495.14	21373.77
495.32	21731.87
495.49	21837.20
495.67	21523.57
495.85	21872.31
496.02	21862.94
496.20	22148.49
496.38	22199.98
496.55	22480.85
496.73	22867.03
496.91	22286.58
497.09	23056.62
497.26	22700.86
497.44	23208.75
497.62	23091.73
497.79	23475.57
497.97	23466.21
498.14	23360.89
498.32	23466.21
498.50	23585.58
498.67	23763.46
498.85	23878.15
499.03	23962.40
499.20	23939.00
499.38	23784.52
499.56	23964.75
499.73	24194.12
499.91	24486.68
500.08	24994.58
500.26	24023.26
500.44	24437.53
500.61	24467.96
500.79	24315.83
500.97	25053.09
501.14	25135.01
501.32	25254.38
501.49	25001.60
501.67	25078.84
501.84	25245.02
502.02	25160.76
502.20	25750.57
502.37	25518.86
502.55	25865.26
502.72	25563.33
502.90	25666.31
503.07	25708.44
503.25	25986.97
503.43	25968.24
503.60	26270.17
503.78	25986.97
503.95	25846.54
504.13	25879.30
504.30	26251.45
504.48	26375.50
504.65	26761.69
504.83	26651.68
505.01	26693.81
505.18	26850.63
505.36	27445.12
505.53	27133.83
505.71	27166.60
505.88	27147.87
506.06	27056.59
506.23	27307.03
506.41	27012.12
506.58	27304.69
506.76	27557.47
506.93	27662.79
507.11	27470.87
507.28	27534.06
507.46	27604.28
507.63	27840.67
507.81	27735.35
507.98	27681.52
508.16	28144.94
508.33	28128.56
508.50	28231.54
508.68	28795.61
508.85	28655.18
509.03	28556.88
509.20	28737.10
509.38	28968.81
509.55	29179.46
509.73	29156.05
509.90	28917.32
510.08	29006.26
510.25	29106.90
510.42	29153.71
510.60	29326.91
510.77	29331.59
510.95	29546.92
511.12	29420.53
511.30	29741.19
511.47	29919.07
511.64	29806.72
511.82	30064.18
511.99	29603.10
512.17	29792.68
512.34	29715.44
512.51	30064.18
512.69	30338.02
512.86	30808.47
513.04	30558.03
513.21	30522.93
513.38	30183.55
513.56	30693.79
513.73	30242.06
513.90	30684.42
514.08	30902.09
514.25	30888.05
514.43	30637.61
514.60	31115.08
514.77	30874.01
514.95	31325.73
515.12	30721.87
515.29	30998.06
515.47	31274.24
515.64	31388.92
515.81	31550.42
515.99	31735.32
516.16	31847.67
516.33	31847.67
516.51	31536.38
516.68	31552.76
516.85	31101.04
517.03	31262.54
517.20	31704.90
517.37	31826.60
517.54	32163.64
517.72	32481.95
517.89	31529.36
518.06	31999.80
518.24	31908.52
518.41	32039.59
518.58	32039.59
518.75	32297.05
518.93	32936.02
519.10	32393.01
519.27	32620.05
519.45	33001.55
519.62	32926.66
519.79	32971.13
519.96	33233.27
520.14	33179.43
520.31	32641.11
520.48	32561.53
520.65	33029.64
520.83	33467.32
521.00	33453.28
521.17	33373.70
521.34	34064.16
521.52	33703.71
521.69	33579.67
521.86	33429.87
522.03	33722.44
522.20	34272.46
522.38	34066.50
522.55	34436.30
522.72	33818.40
522.89	33752.87
523.07	34199.91
523.24	34141.39
523.41	34244.38
523.58	34206.93
523.75	34670.36
523.92	34644.61
524.10	34714.83
524.27	34717.17
524.44	34316.93
524.61	34904.41
524.78	34962.92
524.96	34848.24
525.13	34993.35
525.30	35365.49
525.47	35166.55
525.64	35278.89
525.81	35014.41
525.98	35473.16
526.16	35161.87
526.33	35154.85
526.50	35262.51
526.67	35182.93
526.84	35145.48
527.01	35335.07
527.18	35466.14
527.36	35842.96
527.53	35988.08
527.70	35999.78
527.87	35730.62
528.04	35597.21
528.21	35583.16
528.38	35845.30
528.55	36622.36
528.72	36411.71
528.89	36322.77
529.07	36191.70
529.24	36156.60
529.41	36561.51
529.58	35985.74
529.75	36552.15
529.92	36774.50
530.09	36844.71
530.26	36563.85
530.43	36804.92
530.60	36498.31
530.77	36561.51
530.94	36725.35
531.11	36730.03
531.28	37102.17
531.46	37062.38
531.63	36943.02
531.80	37174.73
531.97	37050.68
532.14	36994.51
532.31	36718.32
532.48	36928.97
532.65	37167.71
532.82	37081.11
532.99	37247.29
533.16	36952.38
533.33	37291.76
533.50	37567.94
533.67	37720.07
533.84	37326.86
534.01	37722.41
534.18	37914.34
534.35	37617.09
534.52	37631.13
534.69	38113.28
534.86	37736.46
535.03	37825.40
535.20	38197.54
535.37	38057.11
535.54	38466.70
535.71	38246.69
535.88	38089.88
536.05	38349.68
536.22	38005.62
536.38	38052.43
536.55	38340.32
536.72	38286.48
536.89	38213.93
537.06	38455.00
537.23	38349.68
537.40	38263.08
537.57	38995.67
537.74	38637.56
537.91	38583.73
538.08	38754.59
538.25	38316.91
538.42	39077.58
538.59	38848.21
538.75	38443.30
538.92	38440.96
539.09	39009.71
539.26	39096.31
539.43	38972.26
539.60	38913.75
539.77	38588.41
539.94	39407.60
540.11	38670.33
540.28	39313.98
540.44	39143.12
540.61	38803.74
540.78	39241.42
540.95	39555.05
541.12	39012.05
541.29	39435.69
541.46	39648.68
541.62	39590.16
541.79	39548.03
541.96	39431.01
542.13	39629.95
542.30	39276.53
542.47	39831.24
542.63	39887.41
542.80	39510.58
542.97	40194.02
543.14	40491.27
543.31	39707.19
543.48	40266.58
543.64	40898.52
543.81	40669.15
543.98	40479.57
544.15	40179.98
544.32	40561.48
544.48	40844.69
544.65	40397.65
544.82	40615.32
544.99	40243.17
545.16	40921.93
545.32	40811.92
545.49	41062.36
545.66	40793.20
545.83	41139.60
546.00	41127.89
546.16	40730.00
546.33	40465.52
546.50	40790.86
546.67	41038.95
546.83	40130.83
547.00	40779.15
547.17	40832.99
547.34	41298.75
547.50	40896.18
547.67	41624.09
547.84	41106.83
548.00	41027.25
548.17	41174.70
548.34	41319.82
548.51	41762.18
548.67	41612.38
548.84	41500.04
549.01	40924.27
549.18	41095.13
549.34	41361.95
549.51	41514.08
549.68	41666.22
549.84	41523.44
550.01	41518.76
550.18	41610.04
550.34	42024.32
550.51	41818.35
550.68	41696.64
550.84	41333.86
551.01	41214.49
551.18	41586.64
551.34	41518.76
551.51	42000.91
551.68	42068.79
551.84	41940.06
552.01	41766.86
552.18	41787.92
552.34	41551.53
552.51	42206.88
552.68	41977.51
552.84	42169.43
553.01	42239.65
553.18	42452.64
553.34	41792.61
553.51	41890.91
553.67	42642.22
553.84	42511.15
554.01	42176.45
554.17	42370.72
554.34	42576.69
554.51	42136.66
554.67	42536.90
554.84	42726.48
555.00	42827.12
555.17	41855.80
555.33	42424.55
555.50	42637.54
555.67	42728.82
555.83	42469.02
556.00	42642.22
556.16	42752.23
556.33	42351.99
556.50	42880.95
556.66	42810.74
556.83	42506.47
556.99	42841.17
557.16	43262.46
557.32	43040.11
557.49	42815.42
557.65	42653.92
557.82	42845.85
557.98	42897.34
558.15	42831.80
558.32	43054.15
558.48	43173.52
558.65	43047.13
558.81	42534.56
558.98	43522.26
559.14	43557.37
559.31	42803.72
559.47	43035.43
559.64	43627.59
559.80	43302.25
559.97	42658.60
560.13	42986.28
560.30	42890.32
560.46	42822.44
560.63	43196.93
560.79	43330.34
560.96	43512.90
561.12	43227.35
561.29	43414.60
561.45	43203.95
561.61	42979.26
561.78	43470.77
561.94	42710.10
562.11	43526.94
562.27	43393.53
562.44	43260.12
562.60	43915.47
562.77	43793.76
562.93	43449.70
563.10	43351.40
563.26	43129.05
563.42	43463.75
563.59	43082.24
563.75	43590.14
563.92	43959.94
564.08	44023.14
564.24	43552.69
564.41	43445.02
564.57	43306.93
564.74	43910.79
564.90	43594.82
565.07	43688.44
565.23	43941.22
565.39	43552.69
565.56	43716.53
565.72	43283.53
565.88	43775.04
566.05	43632.27
566.21	43519.92
566.38	43278.85
566.54	44095.69
566.70	44156.55
566.87	43952.92
567.03	43943.56
567.19	44194.00
567.36	43768.02
567.52	43679.08
567.68	44048.88
567.85	43737.59
568.01	44027.82
568.17	43557.37
568.34	43786.74
568.50	44081.65
568.66	43959.94
568.83	43899.09
568.99	43606.52
569.15	43503.54
569.32	44067.61
569.48	43330.34
569.64	44390.60
569.81	44226.76
569.97	43983.35
570.13	43913.13
570.30	43599.50
570.46	43438.00
570.62	43562.05
570.78	43739.93
570.95	43749.29
571.11	44231.44
571.27	43803.13
571.43	44109.74
571.60	43831.21
571.76	43540.99
571.92	44264.21
572.09	43889.73
572.25	43861.64
572.41	43716.53
572.57	44318.04
572.74	44137.82
572.90	43962.28
573.06	44147.18
573.22	43990.37
573.38	44196.34
573.55	43718.87
573.71	43945.90
573.87	44186.97
574.03	43969.30
574.20	43817.17
574.36	44121.44
574.52	44208.04
574.68	43878.02
574.84	44327.41
575.01	44177.61
575.17	44257.19
575.33	43751.63
575.49	44067.61
575.65	44116.76
575.82	44605.93
575.98	43796.10
576.14	44053.56
576.30	44535.71
576.46	44339.11
576.62	44273.57
576.79	44470.18
576.95	43735.25
577.11	44020.80
577.27	43913.13
577.43	44392.94
577.59	44147.18
577.75	44121.44
577.92	43613.54
578.08	43831.21
578.24	43878.02
578.40	44299.32
578.56	43899.09
578.72	43978.67
578.88	44437.41
579.04	44037.18
579.21	44198.68
579.37	44055.90
579.53	44198.68
579.69	43950.58
579.85	44142.50
580.01	44273.57
580.17	44399.96
580.33	44524.01
580.49	44289.96
580.65	44669.12
580.82	44252.51
580.98	44215.06
581.14	43976.33
581.30	44184.63
581.46	44083.99
581.62	44493.58
581.78	44116.76
581.94	44009.09
582.10	43995.05
582.26	44863.39
582.42	43739.93
582.58	44421.03
582.74	44203.36
582.90	44715.93
583.06	44577.84
583.22	44184.63
583.38	44587.21
583.54	44165.91
583.70	44430.39
583.86	44772.11
584.02	44123.78
584.18	44282.94
584.34	44453.79
584.50	44378.90
584.66	43856.96
584.82	44109.74
584.98	44285.28
585.14	44666.78
585.30	43913.13
585.46	44325.07
585.62	44320.38
585.78	43973.98
585.94	44055.90
586.10	44385.92
586.26	44549.76
586.42	44341.45
586.58	44685.51
586.74	44116.76
586.90	44067.61
587.06	44079.31
587.22	44823.60
587.38	44032.50
587.54	44470.18
587.70	44872.75
587.86	44573.16
588.02	44432.73
588.18	44149.53
588.34	44217.40
588.49	44215.06
588.65	43725.89
588.81	44296.98
588.97	43957.60
589.13	43955.26
589.29	44238.47
589.45	44069.95
589.61	44458.48
589.77	44737.00
589.93	44502.95
590.08	44830.62
590.24	44704.23
