SpectraSuite Data File
++++++++++++++++++++++++++++++++++++
Date: Fri Oct 25 10:44:32 EDT 2013
User: price-jones
Dark Spectrum Present: No
Reference Spectrum Present: No
Number of Sampled Component Spectra: 1
Spectrometers: USB2+H05261
Integration Time (usec): 100000 (USB2+H05261)
Spectra Averaged: 1 (USB2+H05261)
Boxcar Smoothing: 0 (USB2+H05261)
Correct for Electrical Dark: No (USB2+H05261)
Strobe/Lamp Enabled: No (USB2+H05261)
Correct for Detector Non-linearity: No (USB2+H05261)
Correct for Stray Light: No (USB2+H05261)
Number of Pixels in Processed Spectrum: 2048
>>>>>Begin Processed Spectral Data<<<<<
365.73	126.39
365.92	126.39
366.12	126.39
366.32	32.77
366.52	0.00
366.72	14.04
366.91	32.77
367.11	28.09
367.31	53.83
367.51	72.56
367.70	37.45
367.90	65.54
368.10	16.38
368.30	37.45
368.49	79.58
368.69	46.81
368.89	39.79
369.09	18.72
369.28	58.51
369.48	14.04
369.68	117.03
369.87	56.17
370.07	77.24
370.27	138.09
370.47	161.50
370.66	418.96
370.86	388.53
371.06	395.55
371.25	456.40
371.45	416.62
371.65	437.68
371.84	414.27
372.04	479.81
372.24	484.49
372.44	491.51
372.63	390.87
372.83	538.32
373.03	533.64
373.22	545.34
373.42	397.89
373.62	528.96
373.81	561.73
374.01	475.13
374.21	535.98
374.40	517.26
374.60	559.39
374.79	554.71
374.99	496.19
375.19	638.97
375.38	535.98
375.58	573.43
375.78	543.00
375.97	580.45
376.17	601.52
376.37	486.83
376.56	547.69
376.76	585.13
376.95	526.62
377.15	594.50
377.35	643.65
377.54	545.34
377.74	592.16
377.93	575.77
378.13	655.35
378.33	617.90
378.52	634.29
378.72	608.54
378.91	629.60
379.11	552.37
379.31	580.45
379.50	650.67
379.70	688.12
379.89	702.16
380.09	706.84
380.28	645.99
380.48	627.26
380.68	610.88
380.87	629.60
381.07	671.73
381.26	697.48
381.46	636.63
381.65	706.84
381.85	671.73
382.04	645.99
382.24	653.01
382.43	781.74
382.63	674.07
382.83	664.71
383.02	741.95
383.22	709.18
383.41	711.52
383.61	734.93
383.80	739.61
384.00	798.12
384.19	758.33
384.39	748.97
384.58	699.82
384.78	727.91
384.97	887.06
385.17	739.61
385.36	739.61
385.56	713.86
385.75	739.61
385.95	849.61
386.14	812.17
386.34	786.42
386.53	866.00
386.72	842.59
386.92	894.08
387.11	777.06
387.31	821.53
387.50	758.33
387.70	826.21
387.89	741.95
388.09	858.98
388.28	800.46
388.48	823.87
388.67	901.11
388.86	896.43
389.06	805.14
389.25	870.68
389.45	905.79
389.64	908.13
389.84	858.98
390.03	980.68
390.22	983.02
390.42	959.62
390.61	964.30
390.81	1015.79
391.00	912.81
391.19	1081.33
391.39	980.68
391.58	947.92
391.78	1048.56
391.97	994.73
392.16	968.98
392.36	973.66
392.55	1057.92
392.75	959.62
392.94	833.23
393.13	1062.60
393.33	952.60
393.52	950.26
393.71	1032.18
393.91	994.73
394.10	1074.31
394.29	1083.67
394.49	1128.14
394.68	1121.12
394.88	1174.95
395.07	1139.84
395.26	1118.78
395.46	1137.50
395.65	1184.31
395.84	1170.27
396.04	1212.40
396.23	1121.12
396.42	1144.52
396.62	1160.91
396.81	1212.40
397.00	1203.04
397.19	1156.22
397.39	1228.78
397.58	1336.45
397.77	1322.40
397.97	1324.74
398.16	1217.08
398.35	1291.98
398.55	1362.19
398.74	1315.38
398.93	1409.00
399.12	1345.81
399.32	1357.51
399.51	1378.58
399.70	1411.34
399.90	1373.89
400.09	1448.79
400.28	1441.77
400.47	1411.34
400.67	1460.49
400.86	1526.03
401.05	1483.90
401.24	1586.88
401.44	1605.61
401.63	1533.05
401.82	1481.56
402.01	1547.09
402.21	1633.69
402.40	1673.48
402.59	1591.56
402.78	1647.74
402.97	1570.50
403.17	1558.80
403.36	1600.93
403.55	1617.31
403.74	1629.01
403.93	1720.29
404.13	1734.34
404.32	1617.31
404.51	1650.08
404.70	1708.59
404.89	1689.87
405.09	1764.76
405.28	1748.38
405.47	1767.10
405.66	1755.40
405.85	1769.44
406.05	1842.00
406.24	1909.88
406.43	1907.54
406.62	1813.92
406.81	2017.54
407.00	1874.77
407.20	1757.74
407.39	1963.71
407.58	1907.54
407.77	1907.54
407.96	2043.29
408.15	1977.75
408.34	2022.22
408.54	2104.14
408.73	2059.67
408.92	2050.31
409.11	2134.57
409.30	2108.82
409.49	2143.93
409.68	2136.91
409.87	2113.50
410.07	2148.61
410.26	2167.34
410.45	2094.78
410.64	2190.74
410.83	2293.72
411.02	2204.78
411.21	2392.03
411.40	2389.69
411.59	2331.17
411.78	2340.54
411.98	2293.72
412.17	2363.94
412.36	2441.18
412.55	2534.80
412.74	2583.95
412.93	2516.08
413.12	2476.29
413.31	2579.27
413.50	2642.46
413.69	2581.61
413.88	2754.81
414.07	2750.13
414.26	2665.87
414.45	2710.34
414.64	2581.61
414.83	2775.88
415.02	2822.69
415.22	2902.26
415.41	2841.41
415.60	2911.63
415.79	2869.50
415.98	2796.94
416.17	2972.48
416.36	2995.89
416.55	2995.89
416.74	2862.48
416.93	2986.52
417.12	3047.38
417.31	2979.50
417.50	3098.87
417.69	3206.53
417.88	3190.15
418.07	3208.87
418.26	3293.13
418.45	3204.19
418.64	3251.00
418.83	3316.54
419.02	3138.66
419.21	3353.99
419.39	3267.39
419.58	3302.50
419.77	3318.88
419.96	3318.88
420.15	3501.44
420.34	3428.88
420.53	3365.69
420.72	3445.27
420.91	3485.06
421.10	3529.53
421.29	3536.55
421.48	3489.74
421.67	3538.89
421.86	3316.54
422.05	3503.78
422.24	3564.64
422.43	3445.27
422.61	3494.42
422.80	3632.51
422.99	3517.83
423.18	3669.96
423.37	3695.71
423.56	3632.51
423.75	3662.94
423.94	3522.51
424.13	3337.60
424.32	3372.71
424.50	3576.34
424.69	3709.75
424.88	3859.54
425.07	3674.64
425.26	3564.64
425.45	3623.15
425.64	3513.14
425.83	3737.84
426.01	3691.02
426.20	3597.40
426.39	3651.24
426.58	3747.20
426.77	3562.30
426.96	3620.81
427.15	3698.05
427.33	3693.37
427.52	3721.45
427.71	3833.80
427.90	3864.22
428.09	3784.65
428.28	3899.33
428.46	3822.09
428.65	3833.80
428.84	3957.85
429.03	4114.66
429.22	3850.18
429.40	3786.99
429.59	3796.35
429.78	3777.62
429.97	3555.27
430.16	3859.54
430.34	3922.74
430.53	4023.38
430.72	3894.65
430.91	3845.50
431.10	4093.60
431.28	4215.30
431.47	4329.99
431.66	4369.78
431.85	4273.82
432.03	4379.14
432.22	4376.80
432.41	4250.41
432.60	4243.39
432.79	4379.14
432.97	4360.42
433.16	4353.40
433.35	4255.09
433.54	4440.00
433.72	4432.97
433.91	4175.52
434.10	4397.87
434.28	4512.55
434.47	4461.06
434.66	4720.86
434.85	4594.47
435.03	4587.45
435.22	4622.56
435.41	4723.20
435.59	4727.88
435.78	4777.03
435.97	4664.69
436.16	4788.74
436.34	4557.02
436.53	4765.33
436.72	4772.35
436.90	4702.14
437.09	4704.48
437.28	4692.77
437.46	4788.74
437.65	4985.34
437.84	4828.53
438.02	4875.34
438.21	4896.40
438.40	4819.16
438.58	4990.02
438.77	5111.73
438.96	4936.19
439.14	5165.56
439.33	5137.48
439.52	5198.33
439.70	5123.43
439.89	5296.63
440.08	5254.50
440.26	5317.70
440.45	5153.86
440.63	5399.62
440.82	5474.51
441.01	5390.25
441.19	5518.98
441.38	5427.70
441.57	5565.79
441.75	5703.89
441.94	5717.93
442.12	5720.27
442.31	5846.66
442.50	5827.93
442.68	5785.80
442.87	5778.78
443.05	5781.12
443.24	6036.24
443.43	6059.65
443.61	5996.45
443.80	6029.22
443.98	5839.64
444.17	5734.31
444.35	5886.45
444.54	6120.50
444.73	5886.45
444.91	6001.13
445.10	6003.47
445.28	6040.92
445.47	5912.19
445.65	6045.60
445.84	6120.50
446.02	6232.85
446.21	6057.31
446.39	6115.82
446.58	6099.44
446.77	6078.37
446.95	6033.90
447.14	6148.59
447.32	6179.01
447.51	6188.38
447.69	6228.17
447.88	6146.25
448.06	6221.14
448.25	6225.82
448.43	6256.25
448.62	6157.95
448.80	6097.10
448.99	6305.40
449.17	6478.60
449.36	6134.54
449.54	6487.96
449.73	6476.26
449.91	6396.68
450.10	6403.71
450.28	6640.10
450.46	6534.78
450.65	6635.42
450.83	6600.31
451.02	6497.33
451.20	6513.71
451.39	6530.09
451.57	6581.59
451.76	6494.99
451.94	6604.99
452.13	6815.64
452.31	6520.73
452.49	6487.96
452.68	6773.51
452.86	6654.14
453.05	6736.06
453.23	6977.14
453.42	6731.38
453.60	6857.77
453.78	6846.07
453.97	6881.18
454.15	6843.73
454.34	6771.17
454.52	6937.35
454.70	6801.60
454.89	6958.41
455.07	7138.63
455.26	7176.08
455.44	7258.00
455.62	7290.77
455.81	7082.46
455.99	7157.36
456.17	7187.79
456.36	7293.11
456.54	7370.35
456.73	7358.64
456.91	7503.76
457.09	7466.31
457.28	7564.61
457.46	7644.19
457.64	7630.15
457.83	7679.30
458.01	7377.37
458.19	7712.07
458.38	7433.54
458.56	7517.80
458.74	7592.70
458.93	7798.66
459.11	7604.40
459.29	7688.66
459.48	7637.17
459.66	7754.19
459.84	7819.73
460.03	7925.05
460.21	7868.88
460.39	7770.58
460.57	7943.78
460.76	8198.90
460.94	8131.02
461.12	8021.02
461.31	7871.22
461.49	7962.50
461.67	8025.70
461.85	8056.12
462.04	7934.42
462.22	8381.46
462.40	8248.05
462.59	8102.93
462.77	8301.88
462.95	8182.51
463.13	8226.98
463.32	8360.39
463.50	8079.53
463.68	8278.47
463.86	8336.99
464.05	8177.83
464.23	8379.12
464.41	8437.63
464.59	7983.57
464.78	8409.54
464.96	8592.11
465.14	8372.10
465.32	8571.04
465.50	8617.85
465.69	8437.63
465.87	8519.55
466.05	8655.30
466.23	8645.94
466.41	8351.03
466.60	8601.47
466.78	8498.49
466.96	8355.71
467.14	8606.15
467.32	8659.98
467.51	8959.57
467.69	8559.34
467.87	8706.79
468.05	8994.68
468.23	8746.58
468.41	8879.99
468.60	8929.14
468.78	8931.48
468.96	8856.59
469.14	8908.08
469.32	9139.79
469.50	8779.35
469.69	9062.55
469.87	9132.77
470.05	9184.26
470.23	9221.71
470.41	9212.35
470.59	9198.31
470.77	9228.73
470.95	9397.25
471.14	9439.38
471.32	9345.76
471.50	9530.66
471.68	9467.47
471.86	9558.75
472.04	9671.09
472.22	9762.37
472.40	9628.96
472.58	9547.05
472.77	9795.14
472.95	9776.42
473.13	10146.22
473.31	9841.95
473.49	9783.44
473.67	9848.97
473.85	9879.40
474.03	10141.54
474.21	10136.86
474.39	10230.48
474.57	10214.10
474.75	10450.49
474.93	10303.04
475.12	10237.50
475.30	10499.64
475.48	10335.81
475.66	10590.92
475.84	10485.60
476.02	10572.20
476.20	10647.10
476.38	10888.17
476.56	11077.76
476.74	10810.93
476.92	10883.49
477.10	11276.70
477.28	11068.39
477.46	11234.57
477.64	11311.81
477.82	11459.26
478.00	11557.57
478.18	11833.75
478.36	11681.61
478.54	11595.01
478.72	11674.59
478.90	11950.78
479.08	12105.25
479.26	12175.47
479.44	12079.50
479.62	12435.27
479.80	12379.09
479.98	12599.10
480.16	12872.95
480.34	12688.04
480.52	12809.75
480.70	12898.69
480.88	12578.04
481.06	12791.03
481.24	13055.51
481.41	13270.84
481.59	13474.46
481.77	13528.30
481.95	13518.93
482.13	13783.41
482.31	13610.22
482.49	14019.81
482.67	14019.81
482.85	14193.01
483.03	13961.30
483.21	14293.65
483.39	14347.48
483.57	14225.78
483.74	14424.72
483.92	14525.36
484.10	14478.55
484.28	14831.97
484.46	15222.84
484.64	15328.17
484.82	14806.23
485.00	15227.53
485.18	15089.43
485.35	15454.56
485.53	15517.75
485.71	15447.54
485.89	15524.77
486.07	15234.55
486.25	15541.16
486.43	15878.19
486.61	15915.64
486.78	16252.68
486.96	16519.50
487.14	16332.26
487.32	16549.93
487.50	16795.68
487.68	16952.50
487.85	17064.85
488.03	17106.98
488.21	17582.10
488.39	17418.27
488.57	17586.79
488.75	17743.60
488.92	18040.85
489.10	18204.69
489.28	18272.56
489.46	18178.94
489.64	18574.49
489.81	18780.46
489.99	18815.57
490.17	18796.84
490.35	19145.58
490.53	18822.59
490.70	19194.73
490.88	19201.76
491.06	19236.86
491.24	19672.20
491.41	19377.30
491.59	19384.32
491.77	19742.42
491.95	19594.96
492.13	20135.63
492.30	20072.43
492.48	20294.79
492.66	20379.04
492.84	20510.11
493.01	20695.02
493.19	20592.03
493.37	20746.51
493.54	20634.16
493.72	21146.74
493.90	21020.35
494.08	21427.60
494.25	21874.65
494.43	21696.77
494.61	21771.66
494.79	21944.86
494.96	21963.59
495.14	21935.50
495.32	22574.47
495.49	22085.30
495.67	22272.54
495.85	22253.81
496.02	22457.44
496.20	22642.34
496.38	22930.23
496.55	23028.53
496.73	23597.28
496.91	23061.30
497.09	23686.22
497.26	23489.62
497.44	23541.11
497.62	23281.31
497.79	23840.70
497.97	23728.35
498.14	23948.36
498.32	24023.26
498.50	24121.56
498.67	24414.13
498.85	24503.07
499.03	24687.97
499.20	24437.53
499.38	24854.15
499.56	24788.61
499.73	24805.00
499.91	24980.54
500.08	25013.31
500.26	24877.55
500.44	25369.07
500.61	25043.73
500.79	25149.06
500.97	25408.86
501.14	25722.49
501.32	25656.95
501.49	25713.13
501.67	25596.10
501.84	25612.48
502.02	25446.30
502.20	26244.43
502.37	26026.76
502.55	25989.31
502.72	26366.13
502.90	26443.37
503.07	26284.22
503.25	26703.17
503.43	26349.75
503.60	26698.49
503.78	26401.24
503.95	26862.33
504.13	26815.52
504.30	26829.56
504.48	26820.20
504.65	27269.58
504.83	27096.38
505.01	27515.34
505.18	27613.64
505.36	27798.54
505.53	27747.05
505.71	27667.47
505.88	27931.95
506.06	27775.14
506.23	27931.95
506.41	27810.25
506.58	28030.26
506.76	28187.07
506.93	28716.03
507.11	28147.28
507.28	28240.90
507.46	28690.29
507.63	28524.11
507.81	28809.65
507.98	28603.69
508.16	28704.33
508.33	28641.14
508.50	28884.55
508.68	29174.78
508.85	29570.33
509.03	29266.06
509.20	29230.95
509.38	29692.04
509.55	29598.41
509.73	29296.49
509.90	29799.70
510.08	29722.46
510.25	29883.96
510.42	29633.52
510.60	30071.20
510.77	30242.06
510.95	30204.61
511.12	29916.73
511.30	30366.11
511.47	30363.77
511.64	30579.10
511.82	30810.81
511.99	30490.16
512.17	30714.85
512.34	30270.15
512.51	30733.57
512.69	30981.67
512.86	30925.50
513.04	31070.61
513.21	30958.27
513.38	31002.74
513.56	31236.79
513.73	31021.46
513.90	31545.74
514.08	30941.88
514.25	31412.33
514.43	31578.51
514.60	31445.10
514.77	31704.90
514.95	31777.45
515.12	31845.33
515.29	31964.70
515.47	32070.02
515.64	32264.28
515.81	31864.05
515.99	31885.12
516.16	32025.55
516.33	32203.43
516.51	32245.56
516.68	31831.29
516.85	31992.78
517.03	32151.94
517.20	32243.22
517.37	32755.80
517.54	32481.95
517.72	32479.61
517.89	32418.76
518.06	32304.07
518.24	32921.98
518.41	32945.38
518.58	33287.10
518.75	32896.23
518.93	33097.52
519.10	33160.71
519.27	33844.15
519.45	33303.48
519.62	33666.27
519.79	33537.54
519.96	33256.67
520.14	33418.17
520.31	33347.95
520.48	33949.47
520.65	33188.80
520.83	33865.21
521.00	34188.21
521.17	33879.25
521.34	34155.44
521.52	34679.72
521.69	34382.47
521.86	34485.45
522.03	34150.76
522.20	34312.25
522.38	34658.65
522.55	34614.18
522.72	34485.45
522.89	34897.39
523.07	34815.47
523.24	34817.81
523.41	34663.33
523.58	35068.25
523.75	35328.05
523.92	35414.65
524.10	35620.61
524.27	35288.26
524.44	35433.37
524.61	35739.98
524.78	35948.29
524.96	35697.85
525.13	35747.00
525.30	35871.05
525.47	36175.32
525.64	36191.70
525.81	35985.74
525.98	36034.89
526.16	35686.15
526.33	35732.96
526.50	35826.58
526.67	35161.87
526.84	36025.53
527.01	35889.77
527.18	36135.53
527.36	36257.24
527.53	36435.12
527.70	36802.58
527.87	36851.73
528.04	36629.38
528.21	37043.66
528.38	36472.57
528.55	36615.34
528.72	37050.68
528.89	37315.16
529.07	37132.60
529.24	37198.13
529.41	37081.11
529.58	36741.73
529.75	36987.49
529.92	37380.70
530.09	37476.66
530.26	37191.11
530.43	37277.71
530.60	37371.33
530.77	37570.28
530.94	37455.59
531.11	37493.04
531.28	37759.86
531.46	37937.74
531.63	37771.57
531.80	37532.83
531.97	37801.99
532.14	38033.71
532.31	37659.22
532.48	37888.59
532.65	37949.45
532.82	38232.65
532.99	37834.76
533.16	38356.70
533.33	37858.17
533.50	38101.58
533.67	38394.15
533.84	38169.46
534.01	38775.66
534.18	38323.93
534.35	38389.47
534.52	38263.08
534.69	38611.82
534.86	38848.21
535.03	38747.57
535.20	38778.00
535.37	39026.09
535.54	39232.06
535.71	38920.77
535.88	38871.62
536.05	39122.05
536.22	39122.05
536.38	39126.74
536.55	39178.23
536.72	39372.49
536.89	39154.82
537.06	39328.02
537.23	39173.55
537.40	39276.53
537.57	39302.28
537.74	39248.44
537.91	39400.58
538.08	39779.74
538.25	39119.71
538.42	39370.15
538.59	39594.84
538.75	39456.75
538.92	39110.35
539.09	39629.95
539.26	39966.99
539.43	39803.15
539.60	39512.92
539.77	39538.67
539.94	39421.64
540.11	39599.52
540.28	40102.74
540.44	40088.70
540.61	39831.24
540.78	39835.92
540.95	39608.89
541.12	39728.25
541.29	40311.05
541.46	39721.23
541.62	40041.88
541.79	40739.36
541.96	39878.05
542.13	39990.39
542.30	40170.61
542.47	40493.61
542.63	40318.07
542.80	40718.30
542.97	40802.56
543.14	41347.90
543.31	40940.65
543.48	40917.25
543.64	41214.49
543.81	41258.96
543.98	40968.74
544.15	41167.68
544.32	41617.07
544.48	41691.96
544.65	40940.65
544.82	41457.91
544.99	41205.13
545.16	41329.18
545.32	41301.09
545.49	41406.42
545.66	41825.37
545.83	41656.85
546.00	41535.15
546.16	41464.93
546.33	41467.27
546.50	41303.43
546.67	41556.21
546.83	41343.22
547.00	41937.72
547.17	41422.80
547.34	41542.17
547.50	42218.58
547.67	42045.38
547.84	42007.94
548.00	42141.35
548.17	41993.89
548.34	42253.69
548.51	42665.63
548.67	41853.46
548.84	42146.03
549.01	41975.17
549.18	42029.00
549.34	42139.00
549.51	41813.67
549.68	42356.67
549.84	42068.79
550.01	42497.11
550.18	42216.24
550.34	42557.96
550.51	42560.30
550.68	42869.25
550.84	42160.07
551.01	42543.92
551.18	42684.35
551.34	42473.70
551.51	42632.86
551.68	42447.96
551.84	42726.48
552.01	42616.47
552.18	42803.72
552.34	42314.55
552.51	42628.18
552.68	42745.20
552.84	42925.42
553.01	43227.35
553.18	42904.36
553.34	42513.49
553.51	42445.62
553.67	43075.22
553.84	43276.51
554.01	42810.74
554.17	43262.46
554.34	43220.33
554.51	42939.47
554.67	43342.04
554.84	42906.70
555.00	43288.21
555.17	43065.86
555.33	43194.59
555.50	43328.00
555.67	43129.05
555.83	42855.21
556.00	43686.10
556.16	44231.44
556.33	43650.99
556.50	42799.04
556.66	43332.68
556.83	43154.80
556.99	44186.97
557.16	43445.02
557.32	43496.52
557.49	43800.79
557.65	43264.80
557.82	43934.20
557.98	43786.74
558.15	43688.44
558.32	43501.20
558.48	43782.06
558.65	43700.14
558.81	43491.83
558.98	43580.78
559.14	43618.22
559.31	43594.82
559.47	44072.29
559.64	44053.56
559.80	43997.39
559.97	43856.96
560.13	43782.06
560.30	43629.93
560.46	44034.84
560.63	43934.20
560.79	44027.82
560.96	44205.70
561.12	43826.53
561.29	43789.08
561.45	44037.18
561.61	44098.03
561.78	43852.28
561.94	43950.58
562.11	43833.55
562.27	44009.09
562.44	43948.24
562.60	44425.71
562.77	44348.47
562.93	43854.62
563.10	44268.89
563.26	43487.15
563.42	44006.75
563.59	44341.45
563.75	43971.64
563.92	44388.26
564.08	44126.12
564.24	44287.62
564.41	44357.83
564.57	44011.43
564.74	44025.48
564.90	43955.26
565.07	44285.28
565.23	44151.87
565.39	44217.40
565.56	44299.32
565.72	44486.56
565.88	44568.48
566.05	43920.15
566.21	44013.77
566.38	44509.97
566.54	44086.33
566.70	44928.92
566.87	44837.64
567.03	44318.04
567.19	44605.93
567.36	44734.66
567.52	44231.44
567.68	44329.75
567.85	44622.31
568.01	44456.14
568.17	43983.35
568.34	44591.89
568.50	44577.84
568.66	43927.17
568.83	44538.05
568.99	44135.48
569.15	44114.42
569.32	44404.64
569.48	44170.59
569.64	44821.26
569.81	44612.95
569.97	44575.50
570.13	44320.38
570.30	44189.31
570.46	44378.90
570.62	44140.16
570.78	44289.96
570.95	44488.90
571.11	44694.87
571.27	44308.68
571.43	44734.66
571.60	44383.58
571.76	44610.61
571.92	44673.81
572.09	44725.30
572.25	44388.26
572.41	44659.76
572.57	44690.19
572.74	44802.53
572.90	44921.90
573.06	44992.12
573.22	45088.08
573.38	44629.34
573.55	44369.54
573.71	45141.91
573.87	44739.34
574.03	44849.35
574.20	44624.65
574.36	44816.58
574.52	44535.71
574.68	44666.78
574.84	44762.75
575.01	44587.21
575.17	44706.57
575.33	44594.23
575.49	44460.82
575.65	44769.77
575.82	44788.49
575.98	44498.26
576.14	44814.24
576.30	44783.81
576.46	44516.99
576.62	44451.45
576.79	44746.36
576.95	44266.55
577.11	44575.50
577.27	44889.13
577.43	44713.59
577.59	44704.23
577.75	44739.34
577.92	44233.78
578.08	44594.23
578.24	44348.47
578.40	44662.10
578.56	44360.17
578.72	44570.82
578.88	44589.55
579.04	44994.46
579.21	44676.15
579.37	44889.13
579.53	44900.84
579.69	44699.55
579.85	44488.90
580.01	44856.37
580.17	44854.03
580.33	45022.54
580.49	44978.07
580.65	45008.50
580.82	45200.43
580.98	44828.28
581.14	44711.25
581.30	44914.88
581.46	44809.56
581.62	44865.73
581.78	45158.30
581.94	45109.14
582.10	44601.25
582.26	44680.83
582.42	44746.36
582.58	44463.16
582.74	44362.51
582.90	45177.02
583.06	45029.57
583.22	45216.81
583.38	45221.49
583.54	44603.59
583.70	44966.37
583.86	44509.97
584.02	44570.82
584.18	45153.62
584.34	45429.80
584.50	45111.49
584.66	44547.42
584.82	44538.05
584.98	45186.38
585.14	45361.92
585.30	44727.64
585.46	45221.49
585.62	44685.51
585.78	44547.42
585.94	44718.28
586.10	44912.54
586.26	45294.05
586.42	45186.38
586.58	45324.47
586.74	44531.03
586.90	44861.05
587.06	44671.46
587.22	45106.80
587.38	44697.21
587.54	45050.63
587.70	44821.26
587.86	45263.62
588.02	44933.60
588.18	44898.50
588.34	44671.46
588.49	44769.77
588.65	44154.21
588.81	44362.51
588.97	44748.70
589.13	44488.90
589.29	45092.76
589.45	44879.77
589.61	44903.18
589.77	45057.65
589.93	44802.53
590.08	45139.57
590.24	45521.08
