SpectraSuite Data File
++++++++++++++++++++++++++++++++++++
Date: Fri Oct 25 11:25:01 EDT 2013
User: price-jones
Dark Spectrum Present: No
Reference Spectrum Present: No
Number of Sampled Component Spectra: 1
Spectrometers: USB2+H05261
Integration Time (usec): 100000 (USB2+H05261)
Spectra Averaged: 1 (USB2+H05261)
Boxcar Smoothing: 0 (USB2+H05261)
Correct for Electrical Dark: No (USB2+H05261)
Strobe/Lamp Enabled: No (USB2+H05261)
Correct for Detector Non-linearity: No (USB2+H05261)
Correct for Stray Light: No (USB2+H05261)
Number of Pixels in Processed Spectrum: 2048
>>>>>Begin Processed Spectral Data<<<<<
365.73	222.35
365.92	222.35
366.12	222.35
366.32	133.41
366.52	182.56
366.72	168.52
366.91	161.50
367.11	203.63
367.31	88.94
367.51	131.07
367.70	154.48
367.90	102.98
368.10	184.90
368.30	163.84
368.49	65.54
368.69	140.43
368.89	147.45
369.09	156.82
369.28	163.84
369.48	86.60
369.68	154.48
369.87	196.60
370.07	163.84
370.27	273.84
370.47	273.84
370.66	578.11
370.86	641.31
371.06	711.52
371.25	720.88
371.45	699.82
371.65	737.27
371.84	601.52
372.04	685.78
372.24	737.27
372.44	727.91
372.63	734.93
372.83	798.12
373.03	758.33
373.22	664.71
373.42	779.40
373.62	685.78
373.81	765.36
374.01	805.14
374.21	833.23
374.40	739.61
374.60	741.95
374.79	791.10
374.99	755.99
375.19	830.89
375.38	814.51
375.58	849.61
375.78	887.06
375.97	833.23
376.17	842.59
376.37	744.29
376.56	823.87
376.76	882.38
376.95	844.93
377.15	887.06
377.35	912.81
377.54	861.32
377.74	877.70
377.93	926.85
378.13	915.15
378.33	933.87
378.52	933.87
378.72	858.98
378.91	1004.09
379.11	889.40
379.31	896.43
379.50	873.02
379.70	954.94
379.89	973.66
380.09	1004.09
380.28	980.68
380.48	938.55
380.68	959.62
380.87	992.39
381.07	1111.75
381.26	936.21
381.46	968.98
381.65	1057.92
381.85	1018.13
382.04	1109.41
382.24	1118.78
382.43	1046.22
382.63	1139.84
382.83	1139.84
383.02	999.41
383.22	1057.92
383.41	1121.12
383.61	1104.73
383.80	1139.84
384.00	1055.58
384.19	1067.28
384.39	1142.18
384.58	1165.59
384.78	1142.18
384.97	1256.87
385.17	1200.69
385.36	1146.86
385.56	1153.88
385.75	1160.91
385.95	1221.76
386.14	1214.74
386.34	1153.88
386.53	1224.10
386.72	1233.46
386.92	1266.23
387.11	1259.21
387.31	1259.21
387.50	1315.38
387.70	1214.74
387.89	1179.63
388.09	1167.93
388.28	1373.89
388.48	1320.06
388.67	1289.64
388.86	1254.53
389.06	1320.06
389.25	1406.66
389.45	1362.19
389.64	1299.00
389.84	1313.04
390.03	1446.45
390.22	1334.11
390.42	1270.91
390.61	1406.66
390.81	1430.07
391.00	1343.47
391.19	1406.66
391.39	1350.49
391.58	1394.96
391.78	1488.58
391.97	1486.24
392.16	1406.66
392.36	1521.35
392.55	1530.71
392.75	1607.95
392.94	1523.69
393.13	1488.58
393.33	1488.58
393.52	1643.06
393.71	1523.69
393.91	1535.39
394.10	1547.09
394.29	1643.06
394.49	1629.01
394.68	1603.27
394.88	1577.52
395.07	1654.76
395.26	1694.55
395.46	1724.97
395.65	1631.35
395.84	1734.34
396.04	1799.87
396.23	1783.49
396.42	1668.80
396.62	1771.79
396.81	1729.66
397.00	1827.96
397.19	1792.85
397.39	1853.70
397.58	1867.75
397.77	1830.30
397.97	1893.49
398.16	1771.79
398.35	1891.15
398.55	1788.17
398.74	1984.77
398.93	2069.03
399.12	1872.43
399.32	1916.90
399.51	1860.73
399.70	2033.93
399.90	1980.09
400.09	2047.97
400.28	2059.67
400.47	2057.33
400.67	1996.48
400.86	2101.80
401.05	2092.44
401.24	2136.91
401.44	2031.58
401.63	2099.46
401.82	2113.50
402.01	2157.97
402.21	2218.83
402.40	2101.80
402.59	2200.10
402.78	2202.44
402.97	2148.61
403.17	2284.36
403.36	2349.90
403.55	2434.16
403.74	2251.60
403.93	2289.04
404.13	2256.28
404.32	2399.05
404.51	2413.09
404.70	2420.11
404.89	2408.41
405.09	2415.43
405.28	2525.44
405.47	2424.80
405.66	2497.35
405.85	2544.16
406.05	2368.62
406.24	2492.67
406.43	2544.16
406.62	2623.74
406.81	2668.21
407.00	2551.18
407.20	2630.76
407.39	2609.70
407.58	2731.41
407.77	2630.76
407.96	2738.43
408.15	2834.39
408.34	2696.30
408.54	2733.75
408.73	2848.43
408.92	2719.70
409.11	2759.49
409.30	2799.28
409.49	2843.75
409.68	3002.91
409.87	3030.99
410.07	2986.52
410.26	3094.19
410.45	2906.95
410.64	3082.49
410.83	3115.25
411.02	2925.67
411.21	3248.66
411.40	3122.27
411.59	3211.22
411.78	3098.87
411.98	3131.64
412.17	3232.28
412.36	3290.79
412.55	3311.86
412.74	3276.75
412.93	3421.86
413.12	3372.71
413.31	3595.06
413.50	3391.44
413.69	3393.78
413.88	3576.34
414.07	3665.28
414.26	3559.95
414.45	3576.34
414.64	3765.92
414.83	3756.56
415.02	3894.65
415.22	3866.56
415.41	3882.95
415.60	3904.01
415.79	3918.06
415.98	4060.83
416.17	3864.22
416.36	4030.40
416.55	3936.78
416.74	4081.89
416.93	4098.28
417.12	3983.59
417.31	4133.39
417.50	4135.73
417.69	4344.03
417.88	4198.92
418.07	4329.99
418.26	4341.69
418.45	4341.69
418.64	4327.65
418.83	4376.80
419.02	4458.72
419.21	4341.69
419.39	4564.04
419.58	4561.70
419.77	4491.49
419.96	4514.89
420.15	4475.10
420.34	4512.55
420.53	4585.11
420.72	4671.71
420.91	4816.82
421.10	4800.44
421.29	4765.33
421.48	4587.45
421.67	4732.56
421.86	4657.67
422.05	4606.17
422.24	4786.40
422.43	4627.24
422.61	4861.29
422.80	4922.15
422.99	4990.02
423.18	4774.69
423.37	4933.85
423.56	4835.55
423.75	4952.57
423.94	4781.71
424.13	4561.70
424.32	4748.95
424.50	4971.30
424.69	5090.67
424.88	4933.85
425.07	4805.12
425.26	5020.45
425.45	4896.40
425.64	4985.34
425.83	5100.03
426.01	5027.47
426.20	4968.96
426.39	5029.81
426.58	5055.56
426.77	4999.38
426.96	5167.90
427.15	5069.60
427.33	5163.22
427.52	5210.03
427.71	5371.53
427.90	5245.14
428.09	5228.76
428.28	5420.68
428.46	5518.98
428.65	5366.85
428.84	5547.07
429.03	5598.56
429.22	5369.19
429.40	5324.72
429.59	5425.36
429.78	5266.21
429.97	5404.30
430.16	5523.66
430.34	5514.30
430.53	5734.31
430.72	5547.07
430.91	5507.28
431.10	5565.79
431.28	5736.65
431.47	5825.59
431.66	5668.78
431.85	5738.99
432.03	5900.49
432.22	5940.28
432.41	5891.13
432.60	5816.23
432.79	5921.56
432.97	5802.19
433.16	5860.70
433.35	5774.10
433.54	6052.63
433.72	6186.04
433.91	6200.08
434.10	6183.70
434.28	6092.41
434.47	6260.93
434.66	6211.78
434.85	6317.11
435.03	6190.72
435.22	6312.42
435.41	6429.45
435.59	6286.68
435.78	6417.75
435.97	6403.71
436.16	6300.72
436.34	6424.77
436.53	6513.71
436.72	6649.46
436.90	6527.75
437.09	6604.99
437.28	6413.07
437.46	6572.22
437.65	6511.37
437.84	6766.49
438.02	6829.68
438.21	6897.56
438.40	6705.63
438.58	6995.86
438.77	6806.28
438.96	6787.55
439.14	7293.11
439.33	7052.03
439.52	7194.81
439.70	7213.53
439.89	7346.94
440.08	7360.98
440.26	7396.09
440.45	7433.54
440.63	7330.56
440.82	7515.46
441.01	7501.42
441.19	7709.72
441.38	7545.89
441.57	7632.49
441.75	7728.45
441.94	7894.63
442.12	7875.90
442.31	8032.72
442.50	8098.25
442.68	7903.99
442.87	7969.52
443.05	8147.40
443.24	8269.11
443.43	8215.28
443.61	8255.07
443.80	8243.37
443.98	7929.74
444.17	7911.01
444.35	8222.30
444.54	8313.58
444.73	8128.68
444.91	8203.58
445.10	8379.12
445.28	8191.88
445.47	8348.69
445.65	8390.82
445.84	8606.15
446.02	8388.48
446.21	8400.18
446.39	8259.75
446.58	8538.27
446.77	8472.74
446.95	8182.51
447.14	8271.45
447.32	8428.27
447.51	8540.61
447.69	8535.93
447.88	8559.34
448.06	8699.77
448.25	8713.81
448.43	8292.52
448.62	8304.22
448.80	8564.02
448.99	8634.24
449.17	8730.20
449.36	8573.38
449.54	8781.69
449.73	8961.91
449.91	9205.33
450.10	8945.53
450.28	8980.64
450.46	9266.18
450.65	8952.55
450.83	9008.72
451.02	9137.45
451.20	8968.93
451.39	9046.17
451.57	8954.89
451.76	9060.21
451.94	9226.39
452.13	9188.94
452.31	9317.67
452.49	9195.96
452.68	9317.67
452.86	9291.93
453.05	9343.42
453.23	9458.10
453.42	9233.41
453.60	9434.70
453.78	9493.21
453.97	9455.76
454.15	9437.04
454.34	9497.89
454.52	9600.88
454.70	9446.40
454.89	9708.54
455.07	9724.93
455.26	9841.95
455.44	9994.09
455.62	9813.87
455.81	10066.64
455.99	9966.00
456.17	10012.81
456.36	10017.49
456.54	10155.58
456.73	10242.18
456.91	10693.91
457.09	10232.82
457.28	10150.90
457.46	10230.48
457.64	10352.19
457.83	10506.66
458.01	10583.90
458.19	10677.52
458.38	10544.11
458.56	10782.85
458.74	10743.06
458.93	10864.77
459.11	10590.92
459.29	10834.34
459.48	10801.57
459.66	10595.61
459.84	11073.07
460.03	10883.49
460.21	11047.33
460.39	11054.35
460.57	10822.64
460.76	10803.91
460.94	11061.37
461.12	11033.29
461.31	11098.82
461.49	10944.34
461.67	10995.84
461.85	11499.05
462.04	11140.95
462.22	11967.16
462.40	11508.41
462.59	11396.07
462.77	11658.21
462.95	11573.95
463.13	11534.16
463.32	11452.24
463.50	11688.64
463.68	11555.22
463.86	11850.13
464.05	11646.51
464.23	11705.02
464.41	11941.41
464.59	11880.56
464.78	12016.31
464.96	11974.18
465.14	11850.13
465.32	11815.02
465.50	12009.29
465.69	12257.39
465.87	12224.62
466.05	11934.39
466.23	12121.63
466.41	12212.92
466.60	12491.44
466.78	12332.28
466.96	12294.83
467.14	12177.81
467.32	12318.24
467.51	12617.83
467.69	12079.50
467.87	12514.84
468.05	12730.17
468.23	12540.59
468.41	12465.69
468.60	12458.67
468.78	12596.76
468.96	12702.09
469.14	12711.45
469.32	12840.18
469.50	12666.98
469.69	12966.57
469.87	12996.99
470.05	13095.30
470.23	13226.37
470.41	13184.24
470.59	13305.95
470.77	13184.24
470.95	13200.62
471.14	13488.51
471.32	13322.33
471.50	13530.64
471.68	13582.13
471.86	13535.32
472.04	13397.23
472.22	14099.39
472.40	13610.22
472.58	14015.13
472.77	14045.55
472.95	13825.54
473.13	14295.99
473.31	14087.68
473.49	14155.56
473.67	14183.65
473.85	14043.21
474.03	14401.32
474.21	14738.35
474.39	14778.14
474.57	14728.99
474.75	14511.32
474.93	14981.77
475.12	15152.63
475.30	15119.86
475.48	14977.09
475.66	15239.23
475.84	15066.03
476.02	15314.13
476.20	15204.12
476.38	15538.82
476.56	15943.73
476.74	15831.38
476.92	15962.45
477.10	15726.06
477.28	16046.71
477.46	16137.99
477.64	16189.49
477.82	16659.93
478.00	16844.84
478.18	16556.95
478.36	16755.90
478.54	16833.13
478.72	16903.35
478.90	17106.98
479.08	17649.98
479.26	17436.99
479.44	17586.79
479.62	17839.56
479.80	17657.00
479.98	18064.25
480.16	18663.43
480.34	18214.05
480.52	18466.83
480.70	18625.98
480.88	18394.27
481.06	18684.50
481.24	18813.23
481.41	18939.62
481.59	19274.31
481.77	19573.90
481.95	19173.67
482.13	19431.13
482.31	19632.41
482.49	19983.49
482.67	20147.33
482.85	20231.59
483.03	20615.44
483.21	20739.49
483.39	21032.05
483.57	20922.05
483.74	20952.48
483.92	21441.65
484.10	21172.49
484.28	21764.64
484.46	21930.82
484.64	22071.25
484.82	21844.22
485.00	22239.77
485.18	22604.89
485.35	23133.86
485.53	22607.23
485.71	22665.75
485.89	23665.16
486.07	23124.49
486.25	23381.95
486.43	23400.68
486.61	23751.76
486.78	23590.26
486.96	24350.93
487.14	24547.54
487.32	24254.97
487.50	24924.36
487.68	24924.36
487.85	25427.58
488.03	25488.43
488.21	25549.29
488.39	25593.76
488.57	25893.35
488.75	26424.65
488.92	26316.98
489.10	26089.95
489.28	26693.81
489.46	26871.69
489.64	26850.63
489.81	27538.74
489.99	27498.95
490.17	27491.93
490.35	28093.45
490.53	27955.36
490.70	28175.37
490.88	28175.37
491.06	28685.61
491.24	28996.90
491.41	28987.53
491.59	28938.38
491.77	29039.03
491.95	29668.63
492.13	29867.58
492.30	29935.45
492.48	29996.31
492.66	30108.65
492.84	30120.35
493.01	30937.20
493.19	30387.18
493.37	30778.04
493.54	30998.06
493.72	31234.45
493.90	31021.46
494.08	31660.43
494.25	31805.54
494.43	31725.96
494.61	32123.85
494.79	32561.53
494.96	32631.75
495.14	32182.37
495.32	33338.59
495.49	33095.18
495.67	33687.33
495.85	33071.77
496.02	33521.15
496.20	33420.51
496.38	34078.20
496.55	34274.80
496.73	34340.34
496.91	34419.92
497.09	34759.30
497.26	34944.20
497.44	35000.37
497.62	35189.95
497.79	35662.74
497.97	35613.59
498.14	35676.79
498.32	36268.94
498.50	36055.95
498.67	36395.33
498.85	36247.88
499.03	36776.84
499.20	36533.42
499.38	36226.81
499.56	36552.15
499.73	36933.65
499.91	37193.45
500.08	37083.45
500.26	37134.94
500.44	37809.01
500.61	37663.90
500.79	37640.50
500.97	38099.24
501.14	38529.90
501.32	38288.82
501.49	38099.24
501.67	38705.44
501.84	38937.15
502.02	38628.20
502.20	39185.25
502.37	39138.44
502.55	39140.78
502.72	39194.61
502.90	38845.87
503.07	39489.52
503.25	39826.56
503.43	39718.89
503.60	40144.87
503.78	39842.94
503.95	40264.24
504.13	40081.67
504.30	40744.05
504.48	40477.22
504.65	40692.55
504.83	41027.25
505.01	40945.33
505.18	41333.86
505.36	41537.49
505.53	41497.70
505.71	41368.97
505.88	41787.92
506.06	41720.05
506.23	41684.94
506.41	41977.51
506.58	41673.24
506.76	42010.28
506.93	42082.83
507.11	42265.39
507.28	42731.16
507.46	42218.58
507.63	42394.12
507.81	43194.59
507.98	42770.95
508.16	42993.30
508.33	43381.83
508.50	43290.55
508.68	43384.17
508.85	43653.33
509.03	43803.13
509.20	43899.09
509.38	44259.53
509.55	44072.29
509.73	44596.57
509.90	44533.37
510.08	44339.11
510.25	44617.63
510.42	44964.03
510.60	44968.71
510.77	44760.40
510.95	44715.93
511.12	44896.16
511.30	44807.22
511.47	45331.50
511.64	45478.95
511.82	45860.46
511.99	45478.95
512.17	46080.47
512.34	46185.79
512.51	46567.30
512.69	46178.77
512.86	46564.96
513.04	46607.09
513.21	46494.74
513.38	46443.25
513.56	46735.82
513.73	46625.81
513.90	46356.65
514.08	46642.20
514.25	46995.62
514.43	47510.53
514.60	47187.54
514.77	47187.54
514.95	47433.30
515.12	47140.73
515.29	47557.35
515.47	48065.24
515.64	48034.81
515.81	47634.58
515.99	48193.97
516.16	47943.53
516.33	48236.10
516.51	48355.47
516.68	48222.06
516.85	48334.40
517.03	48280.57
517.20	49034.22
517.37	48584.84
517.54	48753.36
517.72	48575.48
517.89	48538.03
518.06	49141.89
518.24	49125.50
518.41	48931.24
518.58	49514.03
518.75	48854.00
518.93	49446.16
519.10	49031.88
519.27	49652.12
519.45	49471.90
519.62	49785.54
519.79	49797.24
519.96	49916.61
520.14	50108.53
520.31	50113.21
520.48	50178.75
520.65	49724.68
520.83	50408.12
521.00	50646.85
521.17	50466.63
521.34	50307.47
521.52	50773.24
521.69	50806.01
521.86	50911.33
522.03	50777.92
522.20	51234.33
522.38	51311.56
522.55	51229.65
522.72	51171.13
522.89	51536.26
523.07	51599.45
523.24	51267.09
523.41	51398.16
523.58	51325.61
523.75	51861.59
523.92	52079.26
524.10	51966.91
524.27	52116.71
524.44	51952.87
524.61	52116.71
524.78	52114.37
524.96	51999.68
525.13	52428.00
525.30	52444.38
525.47	52420.98
525.64	52238.42
525.81	52523.96
525.98	52729.93
526.16	52664.39
526.33	52516.94
526.50	53088.03
526.67	52769.72
526.84	53036.54
527.01	52924.19
527.18	52594.18
527.36	52697.16
527.53	53132.50
527.70	53588.91
527.87	53375.92
528.04	52935.90
528.21	53380.60
528.38	53174.63
528.55	53116.12
528.72	53183.99
528.89	53537.41
529.07	53457.84
529.24	53558.48
529.41	53544.44
529.58	53649.76
529.75	53457.84
529.92	53829.98
530.09	53736.36
530.26	53846.36
530.43	53942.33
530.60	53935.30
530.77	53869.77
530.94	53965.73
531.11	54096.80
531.28	54035.95
531.46	54092.12
531.63	54017.22
531.80	53907.22
531.97	54234.89
532.14	54515.76
532.31	54230.21
532.48	54419.80
532.65	54553.21
532.82	54693.64
532.99	54597.68
533.16	54314.47
533.33	54862.16
533.50	54672.57
533.67	54852.80
533.84	54609.38
534.01	54899.61
534.18	54777.90
534.35	55229.62
534.52	54967.48
534.69	55154.72
534.86	55281.11
535.03	54784.92
535.20	55107.91
535.37	55346.65
535.54	55257.71
535.71	55014.29
535.88	55447.29
536.05	55407.50
536.22	55433.25
536.38	55718.79
536.55	55693.05
536.72	55437.93
536.89	55391.12
537.06	55430.91
537.23	55765.60
537.40	55580.70
537.57	55384.10
537.74	55590.06
537.91	55910.72
538.08	55915.40
538.25	55571.34
538.42	55721.13
538.59	56086.26
538.75	55592.40
538.92	55906.04
539.09	56275.84
539.26	56151.79
539.43	56121.37
539.60	56182.22
539.77	56114.34
539.94	56214.99
540.11	56458.40
540.28	56193.92
540.44	56339.04
540.61	56268.82
540.78	56472.45
540.95	56570.75
541.12	56385.85
541.29	56259.46
541.46	56310.95
541.62	56423.29
541.79	56367.12
541.96	56378.82
542.13	56481.81
542.30	56685.43
542.47	56680.75
542.63	56846.93
542.80	57027.15
542.97	57219.08
543.14	57333.76
543.31	56999.07
543.48	57071.62
543.64	57167.58
543.81	57200.35
543.98	57401.64
544.15	57286.95
544.32	57467.17
544.48	57567.82
544.65	57275.25
544.82	57214.40
544.99	57134.82
545.16	57434.41
545.32	57544.41
545.49	57663.78
545.66	57586.54
545.83	57581.86
546.00	57638.03
546.16	57602.92
546.33	57537.39
546.50	57560.79
546.67	57499.94
546.83	57535.05
547.00	57661.44
547.17	57855.70
547.34	57874.43
547.50	57874.43
547.67	58026.56
547.84	57923.58
548.00	58129.54
548.17	58094.44
548.34	57968.05
548.51	58129.54
548.67	58066.35
548.84	58129.54
549.01	57939.96
549.18	58260.62
549.34	58288.70
549.51	58262.96
549.68	58092.10
549.84	58412.75
550.01	58291.04
550.18	58190.40
550.34	58255.93
550.51	58440.84
550.68	58145.93
550.84	58384.66
551.01	58653.82
551.18	58419.77
551.34	58356.58
551.51	58485.31
551.68	58562.54
551.84	58616.38
552.01	58473.60
552.18	58520.41
552.34	58316.79
552.51	58625.74
552.68	58588.29
552.84	58529.78
553.01	58913.62
553.18	58642.12
553.34	58850.43
553.51	58820.00
553.67	58796.60
553.84	58681.91
554.01	58913.62
554.17	58934.69
554.34	58880.86
554.51	58817.66
554.67	58937.03
554.84	59011.93
555.00	58972.14
555.17	58918.31
555.33	58951.07
555.50	58890.22
555.67	59077.46
555.83	58862.13
556.00	58822.34
556.16	59365.35
556.33	59318.54
556.50	59107.89
556.66	59084.48
556.83	58974.48
556.99	59419.18
557.16	59578.34
557.32	59386.41
557.49	59437.90
557.65	59409.82
557.82	59435.56
557.98	59222.58
558.15	59435.56
558.32	59430.88
558.48	59341.94
558.65	59531.53
558.81	59414.50
558.98	59587.70
559.14	59536.21
559.31	59391.09
559.47	59632.17
559.64	59573.66
559.80	59737.49
559.97	59646.21
560.13	59585.36
560.30	59578.34
560.46	59618.13
560.63	59756.22
560.79	59690.68
560.96	59812.39
561.12	59756.22
561.29	59702.38
561.45	59746.86
561.61	59690.68
561.78	59721.11
561.94	59578.34
562.11	59955.16
562.27	59812.39
562.44	59931.76
562.60	59962.18
562.77	59845.16
562.93	59842.82
563.10	60039.42
563.26	59805.37
563.42	60100.28
563.59	59817.07
563.75	59929.42
563.92	59999.63
564.08	59779.62
564.24	60001.97
564.41	60266.45
564.57	60111.98
564.74	60156.45
564.90	60093.25
565.07	59903.67
565.23	60142.41
565.39	60074.53
565.56	60250.07
565.72	60046.44
565.88	60243.05
566.05	60030.06
566.21	60243.05
566.38	60236.03
566.54	60196.24
566.70	60102.62
566.87	60142.41
567.03	60224.32
567.19	60411.57
567.36	60177.51
567.52	60079.21
567.68	60317.95
567.85	60287.52
568.01	60395.18
568.17	60020.70
568.34	60509.87
568.50	60161.13
568.66	60266.45
568.83	60374.12
568.99	60191.56
569.15	60303.90
569.32	60360.08
569.48	60198.58
569.64	60484.12
569.81	60210.28
569.97	60261.77
570.13	60371.78
570.30	60271.14
570.46	60350.71
570.62	60467.74
570.78	60477.10
570.95	60526.25
571.11	60493.49
571.27	60425.61
571.43	60364.76
571.60	60561.36
571.76	60477.10
571.92	60694.77
572.09	60568.38
572.25	60416.25
572.41	60409.23
572.57	60594.13
572.74	60722.86
572.90	60547.32
573.06	60568.38
573.22	60528.59
573.38	60666.69
573.55	60633.92
573.71	60685.41
573.87	60757.97
574.03	60556.68
574.20	60671.37
574.36	60409.23
574.52	60704.13
574.68	60701.79
574.84	60544.98
575.01	60748.60
575.17	60704.13
575.33	60678.39
575.49	60512.21
575.65	60633.92
575.82	60856.27
575.98	60760.31
576.14	60746.26
576.30	60755.63
576.46	60636.26
576.62	60645.62
576.79	60519.23
576.95	60458.38
577.11	60755.63
577.27	60898.40
577.43	60741.58
577.59	60722.86
577.75	60542.64
577.92	60732.22
578.08	60725.20
578.24	60664.35
578.40	61027.13
578.56	60891.38
578.72	60790.73
578.88	60853.93
579.04	60959.25
579.21	61045.85
579.37	60886.70
579.53	60940.53
579.69	60477.10
579.85	60537.96
580.01	60800.10
580.17	60535.62
580.33	60989.68
580.49	60762.65
580.65	60919.46
580.82	60697.11
580.98	60601.15
581.14	60711.16
581.30	60870.31
581.46	60645.62
581.62	60856.27
581.78	60874.99
581.94	60800.10
582.10	60931.17
582.26	60832.86
582.42	60807.12
582.58	60867.97
582.74	60809.46
582.90	60732.22
583.06	60830.52
583.22	60727.54
583.38	60690.09
583.54	60809.46
583.70	60800.10
583.86	60975.64
584.02	60706.47
584.18	61020.11
584.34	60645.62
584.50	60851.59
584.66	60846.91
584.82	60807.12
584.98	61041.17
585.14	61006.06
585.30	60809.46
585.46	60985.00
585.62	61090.32
585.78	60947.55
585.94	60797.76
586.10	60947.55
586.26	60933.51
586.42	60994.36
586.58	61181.60
586.74	61050.53
586.90	60949.89
587.06	60816.48
587.22	60961.59
587.38	60889.04
587.54	61062.24
587.70	61057.56
587.86	60999.04
588.02	60849.25
588.18	61024.79
588.34	60884.36
588.49	61059.90
