SpectraSuite Data File
++++++++++++++++++++++++++++++++++++
Date: Fri Oct 25 11:33:27 EDT 2013
User: price-jones
Dark Spectrum Present: No
Reference Spectrum Present: No
Number of Sampled Component Spectra: 1
Spectrometers: USB2+H05261
Integration Time (usec): 100000 (USB2+H05261)
Spectra Averaged: 1 (USB2+H05261)
Boxcar Smoothing: 0 (USB2+H05261)
Correct for Electrical Dark: No (USB2+H05261)
Strobe/Lamp Enabled: No (USB2+H05261)
Correct for Detector Non-linearity: No (USB2+H05261)
Correct for Stray Light: No (USB2+H05261)
Number of Pixels in Processed Spectrum: 2048
>>>>>Begin Processed Spectral Data<<<<<
365.73	285.55
365.92	285.55
366.12	285.55
366.32	222.35
366.52	250.44
366.72	175.54
366.91	194.26
367.11	182.56
367.31	149.79
367.51	191.92
367.70	114.69
367.90	205.97
368.10	124.05
368.30	154.48
368.49	124.05
368.69	166.18
368.89	161.50
369.09	203.63
369.28	217.67
369.48	205.97
369.68	245.76
369.87	250.44
370.07	243.42
370.27	306.61
370.47	337.04
370.66	526.62
370.86	503.22
371.06	557.05
371.25	566.41
371.45	627.26
371.65	564.07
371.84	592.16
372.04	547.69
372.24	568.75
372.44	449.38
372.63	496.19
372.83	627.26
373.03	580.45
373.22	592.16
373.42	638.97
373.62	636.63
373.81	594.50
374.01	685.78
374.21	599.18
374.40	650.67
374.60	674.07
374.79	627.26
374.99	613.22
375.19	685.78
375.38	543.00
375.58	613.22
375.78	582.79
375.97	653.01
376.17	746.63
376.37	629.60
376.56	671.73
376.76	692.80
376.95	678.76
377.15	660.03
377.35	699.82
377.54	685.78
377.74	631.94
377.93	681.10
378.13	732.59
378.33	718.54
378.52	683.44
378.72	674.07
378.91	692.80
379.11	730.25
379.31	653.01
379.50	678.76
379.70	781.74
379.89	716.20
380.09	767.70
380.28	683.44
380.48	648.33
380.68	720.88
380.87	739.61
381.07	706.84
381.26	823.87
381.46	741.95
381.65	758.33
381.85	798.12
382.04	716.20
382.24	643.65
382.43	664.71
382.63	812.17
382.83	851.96
383.02	770.04
383.22	812.17
383.41	856.64
383.61	819.19
383.80	858.98
384.00	800.46
384.19	718.54
384.39	760.67
384.58	828.55
384.78	786.42
384.97	816.85
385.17	842.59
385.36	802.80
385.56	777.06
385.75	866.00
385.95	741.95
386.14	903.45
386.34	786.42
386.53	877.70
386.72	786.42
386.92	880.04
387.11	856.64
387.31	816.85
387.50	889.40
387.70	875.36
387.89	901.11
388.09	882.38
388.28	882.38
388.48	931.53
388.67	980.68
388.86	905.79
389.06	884.72
389.25	973.66
389.45	938.55
389.64	945.58
389.84	994.73
390.03	901.11
390.22	905.79
390.42	940.90
390.61	898.77
390.81	922.17
391.00	1032.18
391.19	1034.52
391.39	964.30
391.58	952.60
391.78	971.32
391.97	1062.60
392.16	994.73
392.36	1018.13
392.55	1025.15
392.75	1055.58
392.94	1088.35
393.13	1083.67
393.33	1088.35
393.52	1032.18
393.71	1116.44
393.91	1123.46
394.10	1093.03
394.29	1186.65
394.49	1081.33
394.68	1214.74
394.88	1142.18
395.07	1111.75
395.26	1132.82
395.46	1160.91
395.65	1179.63
395.84	1170.27
396.04	1263.89
396.23	1284.95
396.42	1254.53
396.62	1198.35
396.81	1184.31
397.00	1153.88
397.19	1256.87
397.39	1057.92
397.58	1277.93
397.77	1210.06
397.97	1249.85
398.16	1320.06
398.35	1306.02
398.55	1306.02
398.74	1259.21
398.93	1296.66
399.12	1200.69
399.32	1224.10
399.51	1308.36
399.70	1380.92
399.90	1390.28
400.09	1313.04
400.28	1526.03
400.47	1441.77
400.67	1401.98
400.86	1404.32
401.05	1411.34
401.24	1432.41
401.44	1495.60
401.63	1486.24
401.82	1441.77
402.01	1458.15
402.21	1458.15
402.40	1500.28
402.59	1416.02
402.78	1490.92
402.97	1514.33
403.17	1504.96
403.36	1528.37
403.55	1493.26
403.74	1626.67
403.93	1451.13
404.13	1619.65
404.32	1661.78
404.51	1521.35
404.70	1696.89
404.89	1659.44
405.09	1795.19
405.28	1617.31
405.47	1682.85
405.66	1668.80
405.85	1631.35
406.05	1722.63
406.24	1699.23
406.43	1713.27
406.62	1743.70
406.81	1818.60
407.00	1760.08
407.20	1809.23
407.39	1736.68
407.58	1849.02
407.77	1874.77
407.96	1888.81
408.15	1877.11
408.34	1893.49
408.54	1867.75
408.73	1970.73
408.92	1853.70
409.11	1888.81
409.30	1940.30
409.49	1928.60
409.68	1930.94
409.87	1991.80
410.07	2015.20
410.26	2136.91
410.45	2005.84
410.64	2078.40
410.83	2054.99
411.02	2012.86
411.21	1996.48
411.40	2113.50
411.59	2310.11
411.78	2139.25
411.98	2204.78
412.17	2125.21
412.36	2380.32
412.55	2279.68
412.74	2291.38
412.93	2305.43
413.12	2284.36
413.31	2534.80
413.50	2352.24
413.69	2385.01
413.88	2495.01
414.07	2480.97
414.26	2480.97
414.45	2504.37
414.64	2406.07
414.83	2586.29
415.02	2478.63
415.22	2689.28
415.41	2567.57
415.60	2588.63
415.79	2621.40
415.98	2628.42
416.17	2614.38
416.36	2724.38
416.55	2747.79
416.74	2794.60
416.93	2871.84
417.12	2799.28
417.31	2801.62
417.50	2836.73
417.69	2911.63
417.88	2883.54
418.07	2935.03
418.26	2920.99
418.45	2946.73
418.64	3138.66
418.83	2956.10
419.02	3084.83
419.21	3110.57
419.39	3108.23
419.58	3091.85
419.77	3038.02
419.96	3169.09
420.15	3192.49
420.34	3236.96
420.53	3197.17
420.72	3246.32
420.91	3332.92
421.10	3286.11
421.29	3435.91
421.48	3276.75
421.67	3473.36
421.86	3222.92
422.05	3365.69
422.24	3293.13
422.43	3459.31
422.61	3351.65
422.80	3428.88
422.99	3279.09
423.18	3473.36
423.37	3513.14
423.56	3503.78
423.75	3382.07
423.94	3243.98
424.13	3178.45
424.32	3337.60
424.50	3433.57
424.69	3452.29
424.88	3447.61
425.07	3293.13
425.26	3370.37
425.45	3396.12
425.64	3485.06
425.83	3417.18
426.01	3522.51
426.20	3527.19
426.39	3482.72
426.58	3419.52
426.77	3585.70
426.96	3597.40
427.15	3618.47
427.33	3438.25
427.52	3705.07
427.71	3655.92
427.90	3538.89
428.09	3627.83
428.28	3744.86
428.46	3637.19
428.65	3716.77
428.84	3803.37
429.03	3740.18
429.22	3765.92
429.40	3723.79
429.59	3838.48
429.78	3644.21
429.97	3648.90
430.16	3756.56
430.34	3721.45
430.53	3922.74
430.72	3854.86
430.91	3896.99
431.10	3962.53
431.28	3964.87
431.47	4091.26
431.66	3871.25
431.85	3941.46
432.03	3936.78
432.22	4276.16
432.41	4070.19
432.60	4060.83
432.79	4067.85
432.97	4119.34
433.16	4121.68
433.35	4056.15
433.54	4112.32
433.72	4315.95
433.91	4138.07
434.10	4231.69
434.28	4159.13
434.47	4149.77
434.66	4276.16
434.85	4369.78
435.03	4311.27
435.22	4262.12
435.41	4381.48
435.59	4489.15
435.78	4428.29
435.97	4397.87
436.16	4432.97
436.34	4425.95
436.53	4381.48
436.72	4465.74
436.90	4475.10
437.09	4404.89
437.28	4301.90
437.46	4599.15
437.65	4683.41
437.84	4587.45
438.02	4578.09
438.21	4617.88
438.40	4594.47
438.58	4709.16
438.77	4779.37
438.96	4676.39
439.14	4830.87
439.33	4856.61
439.52	5015.77
439.70	5055.56
439.89	5057.90
440.08	4971.30
440.26	5039.17
440.45	5011.09
440.63	5006.41
440.82	5118.75
441.01	5055.56
441.19	5076.62
441.38	5100.03
441.57	5401.96
441.75	5327.06
441.94	5380.89
442.12	5413.66
442.31	5439.40
442.50	5518.98
442.68	5521.32
442.87	5568.13
443.05	5432.38
443.24	5514.30
443.43	5357.49
443.61	5598.56
443.80	5673.46
443.98	5490.90
444.17	5324.72
444.35	5568.13
444.54	5556.43
444.73	5598.56
444.91	5830.27
445.10	5579.84
445.28	5640.69
445.47	5612.60
445.65	5617.29
445.84	5685.16
446.02	5584.52
446.21	5748.36
446.39	5689.84
446.58	5750.70
446.77	5809.21
446.95	5710.91
447.14	5710.91
447.32	5898.15
447.51	5741.33
447.69	5809.21
447.88	5652.39
448.06	5879.43
448.25	5671.12
448.43	5865.38
448.62	5736.65
448.80	5778.78
448.99	5865.38
449.17	5809.21
449.36	5877.09
449.54	5935.60
449.73	6057.31
449.91	6066.67
450.10	5996.45
450.28	6047.94
450.46	6083.05
450.65	6061.99
450.83	6090.07
451.02	6235.19
451.20	6319.45
451.39	6270.30
451.57	6179.01
451.76	6101.78
451.94	6392.00
452.13	6204.76
452.31	6314.77
452.49	6230.51
452.68	6333.49
452.86	6417.75
453.05	6300.72
453.23	6239.87
453.42	6354.55
453.60	6228.17
453.78	6459.88
453.97	6214.12
454.15	6361.58
454.34	6399.02
454.52	6647.12
454.70	6590.95
454.89	6567.54
455.07	6612.01
455.26	6534.78
455.44	6682.23
455.62	6586.27
455.81	6682.23
455.99	6719.68
456.17	6731.38
456.36	6696.27
456.54	6939.69
456.73	6970.12
456.91	6904.58
457.09	7023.95
457.28	7068.42
457.46	6977.14
457.64	7023.95
457.83	7126.93
458.01	7005.22
458.19	7187.79
458.38	7159.70
458.56	7218.21
458.74	7300.13
458.93	7157.36
459.11	7260.34
459.29	7335.24
459.48	7318.86
459.66	7337.58
459.84	7225.23
460.03	7410.14
460.21	7522.48
460.39	7496.74
460.57	7576.31
460.76	7417.16
460.94	7826.75
461.12	7375.03
461.31	7494.40
461.49	7552.91
461.67	7468.65
461.85	7578.65
462.04	7489.71
462.22	8086.55
462.40	7896.97
462.59	7592.70
462.77	7712.07
462.95	8016.33
463.13	7646.53
463.32	7693.34
463.50	7967.18
463.68	7913.35
463.86	7903.99
464.05	7861.86
464.23	8037.40
464.41	7840.79
464.59	8037.40
464.78	8133.36
464.96	7943.78
465.14	7887.61
465.32	8234.00
465.50	8161.45
465.69	8056.12
465.87	8013.99
466.05	8138.04
466.23	8093.57
466.41	8105.28
466.60	8559.34
466.78	8184.85
466.96	8189.53
467.14	8196.56
467.32	8381.46
467.51	8465.72
467.69	8180.17
467.87	8404.86
468.05	8507.85
468.23	8358.05
468.41	8496.14
468.60	8336.99
468.78	8568.70
468.96	8444.65
469.14	8547.64
469.32	8737.22
469.50	8535.93
469.69	8709.13
469.87	8652.96
470.05	8538.27
470.23	8723.18
470.41	8606.15
470.59	8908.08
470.77	8746.58
470.95	9015.74
471.14	9011.06
471.32	8751.26
471.50	9177.24
471.68	9034.47
471.86	9043.83
472.04	9240.44
472.22	9235.75
472.40	9156.18
472.58	9268.52
472.77	9240.44
472.95	9273.20
473.13	9635.99
473.31	9371.50
473.49	9619.60
473.67	9432.36
473.85	9518.96
474.03	9760.03
474.21	9846.63
474.39	9893.44
474.57	9958.98
474.75	9996.43
474.93	9982.38
475.12	10129.84
475.30	9867.70
475.48	10001.11
475.66	10216.44
475.84	10150.90
476.02	10455.17
476.20	10277.29
476.38	10424.75
476.56	10651.78
476.74	10738.38
476.92	10359.21
477.10	10485.60
477.28	10684.55
477.46	10619.01
477.64	10712.63
477.82	11126.91
478.00	11265.00
478.18	11267.34
478.36	11152.65
478.54	11274.36
478.72	11367.98
478.90	11653.53
479.08	11550.54
479.26	11733.11
479.44	11662.89
479.62	11850.13
479.80	11971.84
479.98	11976.52
480.16	12072.48
480.34	12123.98
480.52	12250.36
480.70	12510.16
480.88	12402.50
481.06	12465.69
481.24	12332.28
481.41	12751.24
481.59	12613.15
481.77	12776.98
481.95	12772.30
482.13	12847.20
482.31	13011.04
482.49	13310.63
482.67	13495.53
482.85	13724.90
483.03	13514.25
483.21	13596.17
483.39	13989.38
483.57	13886.40
483.74	13891.08
483.92	13919.17
484.10	13973.00
484.28	14258.54
484.46	14398.98
484.64	14682.18
484.82	14331.10
485.00	14654.09
485.18	14906.87
485.35	15178.37
485.53	15063.69
485.71	15068.37
485.89	15487.32
486.07	15201.78
486.25	15396.04
486.43	15564.56
486.61	15695.63
486.78	15882.88
486.96	15822.02
487.14	16114.59
487.32	16393.11
487.50	16315.87
487.68	16601.42
487.85	16685.68
488.03	17015.69
488.21	16830.79
488.39	16765.26
488.57	17128.04
488.75	17048.46
488.92	17493.16
489.10	17741.26
489.28	17589.13
489.46	17792.75
489.64	17544.66
489.81	18312.35
489.99	18209.37
490.17	18263.20
490.35	18445.76
490.53	18483.21
490.70	18658.75
490.88	18670.45
491.06	18766.42
491.24	18726.63
491.41	19096.43
491.59	19262.61
491.77	19433.47
491.95	19367.93
492.13	19503.68
492.30	19875.83
492.48	19688.59
492.66	19976.47
492.84	19822.00
493.01	20023.28
493.19	20170.74
493.37	20198.82
493.54	20835.45
493.72	20397.77
493.90	20577.99
494.08	20945.45
494.25	21057.80
494.43	20950.14
494.61	21343.35
494.79	21191.21
494.96	21064.82
495.14	21586.76
495.32	21902.73
495.49	22066.57
495.67	21717.83
495.85	21921.46
496.02	22478.50
496.20	22363.82
496.38	22324.03
496.55	22848.31
496.73	22836.61
496.91	22712.56
497.09	22932.57
497.26	23108.11
497.44	23171.30
497.62	23117.47
497.79	23522.38
497.97	23431.10
498.14	23733.03
498.32	24018.58
498.50	23772.82
498.67	23840.70
498.85	24151.99
499.03	24229.23
499.20	24238.59
499.38	24456.26
499.56	24304.12
499.73	24428.17
499.91	24374.34
500.08	24833.08
500.26	24769.89
500.44	24863.51
500.61	24903.30
500.79	25067.14
500.97	24917.34
501.14	25280.13
501.32	25549.29
501.49	25179.48
501.67	25455.67
501.84	25729.51
502.02	25532.90
502.20	25603.12
502.37	25724.83
502.55	25862.92
502.72	25895.69
502.90	26324.01
503.07	26167.19
503.25	26040.80
503.43	26052.50
503.60	26415.29
503.78	26532.31
503.95	26553.38
504.13	26754.66
504.30	26881.05
504.48	26913.82
504.65	26843.60
504.83	26916.16
505.01	27452.14
505.18	26944.25
505.36	27407.67
505.53	27264.90
505.71	27199.37
505.88	27906.21
506.06	27466.19
506.23	27903.87
506.41	27955.36
506.58	27669.81
506.76	27920.25
506.93	27946.00
507.11	28098.13
507.28	28144.94
507.46	27955.36
507.63	28105.15
507.81	28772.21
507.98	28243.24
508.16	28161.33
508.33	28690.29
508.50	28926.68
508.68	28779.23
508.85	29184.14
509.03	28823.70
509.20	28760.50
509.38	29345.64
509.55	29509.47
509.73	29759.91
509.90	29717.78
510.08	29495.43
510.25	29317.55
510.42	29869.92
510.60	30015.03
510.77	29722.46
510.95	30258.45
511.12	29771.61
511.30	30232.70
511.47	30188.23
511.64	30419.94
511.82	30192.91
511.99	30546.33
512.17	30658.68
512.34	30555.69
512.51	30874.01
512.69	30937.20
512.86	30981.67
513.04	31044.87
513.21	30518.25
513.38	31517.65
513.56	30707.83
513.73	31168.91
513.90	31297.64
514.08	31321.05
514.25	31707.24
514.43	31791.50
514.60	31592.55
514.77	31782.13
514.95	31847.67
515.12	31740.00
515.29	31761.07
515.47	32161.30
515.64	32275.99
515.81	31777.45
515.99	32093.43
516.16	32603.66
516.33	32510.04
516.51	32341.52
516.68	32084.06
516.85	32474.93
517.03	32577.92
517.20	32739.41
517.37	32500.68
517.54	32591.96
517.72	32811.97
517.89	33013.26
518.06	33163.05
518.24	33177.09
518.41	32854.10
518.58	32905.59
518.75	33050.70
518.93	33797.34
519.10	33392.42
519.27	33476.68
519.45	33497.75
519.62	33605.41
519.79	33661.58
519.96	34010.32
520.14	33771.59
520.31	33900.32
520.48	33902.66
520.65	34167.14
520.83	34403.53
521.00	34462.05
521.17	34373.11
521.34	34625.89
521.52	34810.79
521.69	34792.06
521.86	35283.58
522.03	34721.85
522.20	34731.21
522.38	35463.80
522.55	35395.92
522.72	34852.92
522.89	35526.99
523.07	35655.72
523.24	35171.23
523.41	35559.76
523.58	35192.30
523.75	35873.39
523.92	35185.27
524.10	36355.54
524.27	35611.25
524.44	36070.00
524.61	35775.09
524.78	36287.67
524.96	35959.99
525.13	35758.70
525.30	35978.72
525.47	36392.99
525.64	36538.10
525.81	36304.05
525.98	36708.96
526.16	36453.84
526.33	36259.58
526.50	36854.08
526.67	36348.52
526.84	36636.41
527.01	36774.50
527.18	36751.09
527.36	37057.70
527.53	36882.16
527.70	37909.66
527.87	37413.46
528.04	36966.42
528.21	37151.32
528.38	37904.98
528.55	37645.18
528.72	36821.31
528.89	37710.71
529.07	37303.46
529.24	36959.40
529.41	37329.20
529.58	37743.48
529.75	37214.52
529.92	37778.59
530.09	37640.50
530.26	37860.51
530.43	38153.07
530.60	38129.67
530.77	37394.74
530.94	38841.19
531.11	37869.87
531.28	37867.53
531.46	38300.53
531.63	38368.40
531.80	38220.95
531.97	38403.51
532.14	38433.94
532.31	38256.06
532.48	38763.95
532.65	38567.35
532.82	38345.00
532.99	38431.60
533.16	37993.92
533.33	38981.62
533.50	39058.86
533.67	38515.86
533.84	38576.71
534.01	39164.18
534.18	38925.45
534.35	39590.16
534.52	39372.49
534.69	39578.46
534.86	39337.38
535.03	39257.81
535.20	39400.58
535.37	39566.76
535.54	39606.55
535.71	39337.38
535.88	39632.29
536.05	39491.86
536.22	39688.46
536.38	39758.68
536.55	39950.60
536.72	40287.64
536.89	39622.93
537.06	40041.88
537.23	40357.86
537.40	39849.96
537.57	39847.62
537.74	40364.88
537.91	40072.31
538.08	40208.06
538.25	40069.97
538.42	40205.72
538.59	40334.45
538.75	40217.43
538.92	40526.38
539.09	40650.42
539.26	40711.28
539.43	40849.37
539.60	40678.51
539.77	40900.86
539.94	41118.53
540.11	40554.46
540.28	40910.22
540.44	40933.63
540.61	40666.81
540.78	41160.66
540.95	41071.72
541.12	41090.44
541.29	40627.02
541.46	41146.62
541.62	41277.69
541.79	41338.54
541.96	41130.23
542.13	41001.50
542.30	41134.92
542.47	41436.84
542.63	41282.37
542.80	41811.33
542.97	42064.11
543.14	42113.26
543.31	41977.51
543.48	41687.28
543.64	42136.66
543.81	42059.43
543.98	41963.46
544.15	42419.87
544.32	41947.08
544.48	42478.38
544.65	42183.48
544.82	42497.11
544.99	42115.60
545.16	42305.18
545.32	42373.06
545.49	42913.72
545.66	42611.79
545.83	43248.42
546.00	42880.95
546.16	42607.11
546.33	42471.36
546.50	42293.48
546.67	42639.88
546.83	41902.61
547.00	42892.66
547.17	42752.23
547.34	42770.95
547.50	42969.90
547.67	43407.58
547.84	43019.05
548.00	43306.93
548.17	43920.15
548.34	43161.82
548.51	43381.83
548.67	43419.28
548.84	43402.89
549.01	43185.22
549.18	43192.25
549.34	43482.47
549.51	43182.88
549.68	43892.07
549.84	43358.42
550.01	43676.74
550.18	43473.11
550.34	43477.79
550.51	44069.95
550.68	43849.94
550.84	43896.75
551.01	44076.97
551.18	43756.32
551.34	43557.37
551.51	43887.39
551.68	44086.33
551.84	43707.16
552.01	44203.36
552.18	44123.78
552.34	43634.61
552.51	44226.76
552.68	43707.16
552.84	44257.19
553.01	44477.20
553.18	44442.09
553.34	44659.76
553.51	43976.33
553.67	44341.45
553.84	44643.38
554.01	44533.37
554.17	44432.73
554.34	45069.36
554.51	44631.68
554.67	44706.57
554.84	44760.40
555.00	44332.09
555.17	44678.49
555.33	44924.24
555.50	44596.57
555.67	44982.76
555.83	44739.34
556.00	45008.50
556.16	45354.90
556.33	44863.39
556.50	45059.99
556.66	44898.50
556.83	44519.33
556.99	45645.13
557.16	45638.11
557.32	45261.28
557.49	45284.68
557.65	44900.84
557.82	45270.64
557.98	44999.14
558.15	45109.14
558.32	45638.11
558.48	44659.76
558.65	45265.96
558.81	45071.70
558.98	45619.38
559.14	44994.46
559.31	45137.23
559.47	45350.22
559.64	45413.41
559.80	45638.11
559.97	45734.07
560.13	45518.74
560.30	45556.19
560.46	45825.35
560.63	45652.15
560.79	46045.36
560.96	45956.42
561.12	45762.15
561.29	45708.32
561.45	45799.60
561.61	45935.35
561.78	46047.70
561.94	45544.48
562.11	45638.11
562.27	45745.77
562.44	45804.28
562.60	45944.72
562.77	45900.25
562.93	45610.02
563.10	46328.56
563.26	45523.42
563.42	46199.83
563.59	46017.27
563.75	46061.74
563.92	46337.93
564.08	46167.07
564.24	45897.91
564.41	46024.29
564.57	46148.34
564.74	45986.85
564.90	45762.15
565.07	45823.01
565.23	46082.81
565.39	46426.87
565.56	46312.18
565.72	46195.15
565.88	46532.19
566.05	46150.68
566.21	46340.27
566.38	46480.70
566.54	46483.04
566.70	46843.48
566.87	46651.56
567.03	46071.10
567.19	46749.86
567.36	46593.04
567.52	46501.76
567.68	46958.17
567.85	46335.59
568.01	46108.55
568.17	46590.70
568.34	46672.62
568.50	46799.01
568.66	46384.74
568.83	46319.20
568.99	46604.75
569.15	46232.60
569.32	46576.66
569.48	46693.69
569.64	47068.17
569.81	46714.75
569.97	46742.84
570.13	46983.91
570.30	46452.61
570.46	46789.65
570.62	47079.88
570.78	46621.13
570.95	46696.03
571.11	47320.95
571.27	46738.16
571.43	46497.08
571.60	46756.88
571.76	46106.21
571.92	46815.40
572.09	46766.24
572.25	46894.97
572.41	46501.76
572.57	46941.78
572.74	47089.24
572.90	46899.65
573.06	46604.75
573.22	46976.89
573.38	47325.63
573.55	47416.91
573.71	47295.21
573.87	47082.22
574.03	46817.74
574.20	47494.15
574.36	47267.12
574.52	47187.54
574.68	46944.12
574.84	47131.37
575.01	47250.74
575.17	47349.04
575.33	47356.06
575.49	46927.74
575.65	47253.08
575.82	47501.17
575.98	46784.97
576.14	47292.86
576.30	47384.15
576.46	46965.19
576.62	47367.76
576.79	47136.05
576.95	46948.81
577.11	47285.84
577.27	47217.97
577.43	46911.36
577.59	47344.36
577.75	47264.78
577.92	46885.61
578.08	47028.38
578.24	47150.09
578.40	47363.08
578.56	47304.57
578.72	47224.99
578.88	47278.82
579.04	47442.66
579.21	47281.16
579.37	47047.11
579.53	47419.25
579.69	46857.52
579.85	46993.28
580.01	47351.38
580.17	47187.54
580.33	47749.27
580.49	47295.21
580.65	47477.77
580.82	47344.36
580.98	47051.79
581.14	47086.90
581.30	47311.59
581.46	47004.98
581.62	47555.00
581.78	47274.14
581.94	47512.88
582.10	47304.57
582.26	47423.93
582.42	47437.98
582.58	47468.40
582.74	47852.25
582.90	47344.36
583.06	47421.59
583.22	47402.87
583.38	47887.36
583.54	47388.83
583.70	47721.18
583.86	47690.76
584.02	47590.11
584.18	47442.66
584.34	47529.26
584.50	47721.18
584.66	47686.07
584.82	47592.45
584.98	47767.99
585.14	47749.27
585.30	47096.26
585.46	47571.39
585.62	47065.83
585.78	47634.58
585.94	47302.23
586.10	47531.60
586.26	47232.01
586.42	47489.47
586.58	47615.86
586.74	47669.69
586.90	47185.20
587.06	47459.04
587.22	48023.11
587.38	47325.63
587.54	47697.78
587.70	47592.45
587.86	47868.64
588.02	47187.54
588.18	47674.37
588.34	47288.18
588.49	47824.17
588.65	47672.03
588.81	47821.83
588.97	47927.15
589.13	47807.78
589.29	47819.49
589.45	47908.43
589.61	47702.46
589.77	47667.35
589.93	47819.49
590.08	47758.63
