SpectraSuite Data File
++++++++++++++++++++++++++++++++++++
Date: Fri Oct 25 11:33:12 EDT 2013
User: price-jones
Dark Spectrum Present: No
Reference Spectrum Present: No
Number of Sampled Component Spectra: 1
Spectrometers: USB2+H05261
Integration Time (usec): 100000 (USB2+H05261)
Spectra Averaged: 1 (USB2+H05261)
Boxcar Smoothing: 0 (USB2+H05261)
Correct for Electrical Dark: No (USB2+H05261)
Strobe/Lamp Enabled: No (USB2+H05261)
Correct for Detector Non-linearity: No (USB2+H05261)
Correct for Stray Light: No (USB2+H05261)
Number of Pixels in Processed Spectrum: 2048
>>>>>Begin Processed Spectral Data<<<<<
365.73	304.27
365.92	304.27
366.12	304.27
366.32	215.33
366.52	154.48
366.72	205.97
366.91	245.76
367.11	135.75
367.31	147.45
367.51	154.48
367.70	133.41
367.90	212.99
368.10	198.95
368.30	220.01
368.49	142.77
368.69	215.33
368.89	198.95
369.09	168.52
369.28	215.33
369.48	210.65
369.68	271.50
369.87	203.63
370.07	189.58
370.27	212.99
370.47	320.65
370.66	451.72
370.86	505.56
371.06	566.41
371.25	564.07
371.45	526.62
371.65	606.20
371.84	578.11
372.04	524.28
372.24	645.99
372.44	578.11
372.63	573.43
372.83	545.34
373.03	580.45
373.22	543.00
373.42	566.41
373.62	603.86
373.81	702.16
374.01	697.48
374.21	613.22
374.40	648.33
374.60	685.78
374.79	681.10
374.99	615.56
375.19	617.90
375.38	695.14
375.58	645.99
375.78	648.33
375.97	725.57
376.17	674.07
376.37	681.10
376.56	622.58
376.76	648.33
376.95	636.63
377.15	678.76
377.35	744.29
377.54	685.78
377.74	681.10
377.93	699.82
378.13	683.44
378.33	751.31
378.52	746.63
378.72	751.31
378.91	739.61
379.11	606.20
379.31	713.86
379.50	704.50
379.70	678.76
379.89	772.38
380.09	800.46
380.28	746.63
380.48	758.33
380.68	748.97
380.87	720.88
381.07	791.10
381.26	744.29
381.46	779.40
381.65	718.54
381.85	685.78
382.04	739.61
382.24	763.01
382.43	786.42
382.63	777.06
382.83	770.04
383.02	791.10
383.22	795.78
383.41	795.78
383.61	847.27
383.80	873.02
384.00	826.21
384.19	718.54
384.39	823.87
384.58	767.70
384.78	887.06
384.97	823.87
385.17	828.55
385.36	819.19
385.56	816.85
385.75	870.68
385.95	898.77
386.14	814.51
386.34	849.61
386.53	910.47
386.72	875.36
386.92	877.70
387.11	896.43
387.31	866.00
387.50	922.17
387.70	898.77
387.89	908.13
388.09	933.87
388.28	880.04
388.48	964.30
388.67	898.77
388.86	917.49
389.06	983.02
389.25	971.32
389.45	866.00
389.64	931.53
389.84	950.26
390.03	910.47
390.22	973.66
390.42	1041.54
390.61	933.87
390.81	997.07
391.00	980.68
391.19	1074.31
391.39	973.66
391.58	1029.84
391.78	1027.50
391.97	1062.60
392.16	971.32
392.36	1062.60
392.55	1048.56
392.75	1050.90
392.94	983.02
393.13	983.02
393.33	1067.28
393.52	1064.94
393.71	1100.05
393.91	1135.16
394.10	1088.35
394.29	1071.97
394.49	1107.07
394.68	1114.10
394.88	1083.67
395.07	1149.20
395.26	1191.33
395.46	1235.80
395.65	1184.31
395.84	1160.91
396.04	1200.69
396.23	1186.65
396.42	1214.74
396.62	1188.99
396.81	1214.74
397.00	1167.93
397.19	1238.14
397.39	1196.01
397.58	1338.79
397.77	1233.46
397.97	1177.29
398.16	1240.48
398.35	1409.00
398.55	1327.08
398.74	1303.68
398.93	1341.13
399.12	1322.40
399.32	1228.78
399.51	1289.64
399.70	1416.02
399.90	1277.93
400.09	1299.00
400.28	1369.21
400.47	1341.13
400.67	1423.05
400.86	1394.96
401.05	1385.60
401.24	1380.92
401.44	1490.92
401.63	1558.80
401.82	1521.35
402.01	1509.65
402.21	1392.62
402.40	1490.92
402.59	1420.71
402.78	1526.03
402.97	1565.82
403.17	1497.94
403.36	1511.99
403.55	1542.41
403.74	1547.09
403.93	1687.53
404.13	1530.71
404.32	1659.44
404.51	1549.43
404.70	1666.46
404.89	1650.08
405.09	1781.15
405.28	1652.42
405.47	1652.42
405.66	1753.06
405.85	1783.49
406.05	1746.04
406.24	1682.85
406.43	1806.89
406.62	1788.17
406.81	1963.71
407.00	1820.94
407.20	1755.40
407.39	1734.34
407.58	1769.44
407.77	1851.36
407.96	1846.68
408.15	1961.37
408.34	1933.28
408.54	2015.20
408.73	2026.90
408.92	1994.14
409.11	2064.35
409.30	1996.48
409.49	1886.47
409.68	1989.46
409.87	1973.07
410.07	2052.65
410.26	2019.88
410.45	2085.42
410.64	2080.74
410.83	2169.68
411.02	2085.42
411.21	2146.27
411.40	2209.47
411.59	2207.13
411.78	2160.31
411.98	2157.97
412.17	2181.38
412.36	2190.74
412.55	2289.04
412.74	2427.14
412.93	2385.01
413.12	2347.56
413.31	2427.14
413.50	2335.85
413.69	2305.43
413.88	2492.67
414.07	2509.05
414.26	2532.46
414.45	2394.37
414.64	2705.66
414.83	2621.40
415.02	2593.31
415.22	2698.64
415.41	2602.68
415.60	2593.31
415.79	2675.23
415.98	2761.83
416.17	2682.25
416.36	2569.91
416.55	2738.43
416.74	2876.52
416.93	2775.88
417.12	2822.69
417.31	2780.56
417.50	2853.11
417.69	3180.79
417.88	2932.69
418.07	2897.58
418.26	3000.57
418.45	2965.46
418.64	3119.93
418.83	3038.02
419.02	3030.99
419.21	3122.27
419.39	3159.72
419.58	3056.74
419.77	3141.00
419.96	3187.81
420.15	3187.81
420.34	3150.36
420.53	3180.79
420.72	3288.45
420.91	3222.92
421.10	3143.34
421.29	3171.43
421.48	3241.64
421.67	3283.77
421.86	3274.41
422.05	3393.78
422.24	3274.41
422.43	3424.20
422.61	3428.88
422.80	3351.65
422.99	3314.20
423.18	3384.41
423.37	3485.06
423.56	3515.48
423.75	3506.12
423.94	3382.07
424.13	3255.69
424.32	3318.88
424.50	3538.89
424.69	3503.78
424.88	3478.04
425.07	3391.44
425.26	3382.07
425.45	3515.48
425.64	3433.57
425.83	3449.95
426.01	3473.36
426.20	3510.80
426.39	3466.33
426.58	3456.97
426.77	3522.51
426.96	3478.04
427.15	3562.30
427.33	3597.40
427.52	3550.59
427.71	3662.94
427.90	3590.38
428.09	3749.54
428.28	3758.90
428.46	3719.11
428.65	3611.45
428.84	3747.20
429.03	3819.75
429.22	3768.26
429.40	3712.09
429.59	3719.11
429.78	3637.19
429.97	3693.37
430.16	3695.71
430.34	3779.97
430.53	3957.85
430.72	4065.51
430.91	3896.99
431.10	3927.42
431.28	3990.61
431.47	3939.12
431.66	4219.99
431.85	3866.56
432.03	4098.28
432.22	4135.73
432.41	3988.27
432.60	4107.64
432.79	4098.28
432.97	4154.45
433.16	4119.34
433.35	4131.05
433.54	4215.30
433.72	4166.15
433.91	4252.75
434.10	4287.86
434.28	4189.56
434.47	4180.20
434.66	4245.73
434.85	4374.46
435.03	4421.27
435.22	4262.12
435.41	4491.49
435.59	4461.06
435.78	4348.72
435.97	4414.25
436.16	4456.38
436.34	4461.06
436.53	4550.00
436.72	4678.73
436.90	4402.55
437.09	4568.73
437.28	4475.10
437.46	4638.94
437.65	4655.33
437.84	4610.86
438.02	4681.07
438.21	4674.05
438.40	4554.68
438.58	4788.74
438.77	4943.21
438.96	4933.85
439.14	4725.54
439.33	4973.64
439.52	4992.36
439.70	4889.38
439.89	4922.15
440.08	5032.15
440.26	5111.73
440.45	5107.05
440.63	5188.97
440.82	5188.97
441.01	5261.52
441.19	5184.29
441.38	5341.10
441.57	5348.12
441.75	5343.44
441.94	5390.25
442.12	5394.93
442.31	5366.85
442.50	5390.25
442.68	5640.69
442.87	5645.37
443.05	5554.09
443.24	5720.27
443.43	5701.54
443.61	5605.58
443.80	5570.48
443.98	5526.00
444.17	5324.72
444.35	5680.48
444.54	5657.07
444.73	5724.95
444.91	5605.58
445.10	5645.37
445.28	5675.80
445.47	5722.61
445.65	5783.46
445.84	5764.74
446.02	5865.38
446.21	5937.94
446.39	5706.23
446.58	5727.29
446.77	5762.40
446.95	5526.00
447.14	5743.67
447.32	5874.74
447.51	5884.11
447.69	5720.27
447.88	5886.45
448.06	5837.30
448.25	5844.32
448.43	5970.71
448.62	5893.47
448.80	5820.91
448.99	6022.20
449.17	5968.37
449.36	5830.27
449.54	5886.45
449.73	6127.52
449.91	6155.61
450.10	6101.78
450.28	6141.57
450.46	6148.59
450.65	6150.93
450.83	6148.59
451.02	6076.03
451.20	6263.27
451.39	6136.88
451.57	6167.31
451.76	6120.50
451.94	6345.19
452.13	6420.09
452.31	6258.59
452.49	6171.99
452.68	6312.42
452.86	6396.68
453.05	6478.60
453.23	6499.67
453.42	6289.02
453.60	6342.85
453.78	6502.01
453.97	6345.19
454.15	6576.91
454.34	6569.88
454.52	6597.97
454.70	6555.84
454.89	6647.12
455.07	6494.99
455.26	6813.30
455.44	6590.95
455.62	6593.29
455.81	6665.85
455.99	6874.15
456.17	6841.39
456.36	6892.88
456.54	6906.92
456.73	6920.96
456.91	6848.41
457.09	7073.10
457.28	7253.32
457.46	6979.48
457.64	7108.21
457.83	7082.46
458.01	6972.46
458.19	7110.55
458.38	7213.53
458.56	7166.72
458.74	7171.40
458.93	7213.53
459.11	7307.15
459.29	7339.92
459.48	7234.60
459.66	7173.74
459.84	7255.66
460.03	7618.44
460.21	7379.71
460.39	7414.82
460.57	7225.23
460.76	7449.93
460.94	7602.06
461.12	7592.70
461.31	7571.63
461.49	7332.90
461.67	7585.68
461.85	7590.36
462.04	7620.78
462.22	8013.99
462.40	8065.49
462.59	7700.36
462.77	7854.84
462.95	7840.79
463.13	7936.76
463.32	7829.09
463.50	7946.12
463.68	8140.38
463.86	8039.74
464.05	7913.35
464.23	7971.86
464.41	7946.12
464.59	7873.56
464.78	8229.32
464.96	8088.89
465.14	8058.46
465.32	8194.22
465.50	8168.47
465.69	8210.60
465.87	8381.46
466.05	8255.07
466.23	8379.12
466.41	8255.07
466.60	8482.10
466.78	8187.19
466.96	8215.28
467.14	8248.05
467.32	8524.23
467.51	8437.63
467.69	8159.11
467.87	8231.66
468.05	8557.00
468.23	8376.78
468.41	8414.23
468.60	8442.31
468.78	8390.82
468.96	8421.25
469.14	8564.02
469.32	8596.79
469.50	8503.17
469.69	8791.05
469.87	8732.54
470.05	8732.54
470.23	8985.32
470.41	8688.07
470.59	8887.01
470.77	8910.42
470.95	8856.59
471.14	8954.89
471.32	8879.99
471.50	8964.25
471.68	9123.41
471.86	9165.54
472.04	9153.84
472.22	9521.30
472.40	9104.68
472.58	9408.95
472.77	9320.01
472.95	9713.22
473.13	9694.50
473.31	9380.87
473.49	9474.49
473.67	9554.07
473.85	9561.09
474.03	9851.31
474.21	9799.82
474.39	9872.38
474.57	9851.31
474.75	9846.63
474.93	10015.15
475.12	9996.43
475.30	10143.88
475.48	9994.09
475.66	10134.52
475.84	10277.29
476.02	10326.44
476.20	10478.58
476.38	10567.52
476.56	10724.33
476.74	10349.85
476.92	10633.05
477.10	10452.83
477.28	10965.41
477.46	10672.84
477.64	10817.96
477.82	10958.39
478.00	11283.72
478.18	11225.21
478.36	11349.26
478.54	11545.86
478.72	11433.52
478.90	11550.54
479.08	11761.19
479.26	11866.52
479.44	11669.91
479.62	11609.06
479.80	11899.28
479.98	12079.50
480.16	12458.67
480.34	12287.81
480.52	12304.20
480.70	12222.28
480.88	12271.43
481.06	12390.80
481.24	12580.38
481.41	12692.73
481.59	12821.45
481.77	12812.09
481.95	12671.66
482.13	13137.43
482.31	12762.94
482.49	13345.73
482.67	13474.46
482.85	13336.37
483.03	13752.99
483.21	13809.16
483.39	13855.97
483.57	13748.31
483.74	14012.79
483.92	14099.39
484.10	13935.55
484.28	14338.12
484.46	14471.53
484.64	14796.87
484.82	14773.46
485.00	14876.44
485.18	14977.09
485.35	15515.41
485.53	15089.43
485.71	15140.93
485.89	15599.67
486.07	15499.03
486.25	15616.05
486.43	15604.35
486.61	15786.91
486.78	15882.88
486.96	15826.70
487.14	16004.58
487.32	16442.26
487.50	16453.97
487.68	16636.53
487.85	16889.31
488.03	16795.68
488.21	17130.38
488.39	17170.17
488.57	17090.59
488.75	17474.44
488.92	17561.04
489.10	17532.95
489.28	17755.30
489.46	18099.36
489.64	17982.34
489.81	18420.02
489.99	18567.47
490.17	18305.33
490.35	18799.18
490.53	18593.22
490.70	18712.58
490.88	18682.16
491.06	19110.47
491.24	18902.17
491.41	19009.83
491.59	19054.30
491.77	19260.27
491.95	19487.30
492.13	19901.58
492.30	19686.25
492.48	19679.22
492.66	20205.84
492.84	19939.02
493.01	20350.96
493.19	20306.49
493.37	20386.07
493.54	20851.83
493.72	21193.55
493.90	21130.36
494.08	20812.04
494.25	21200.57
494.43	21254.40
494.61	21516.54
494.79	21551.65
494.96	21399.52
495.14	21762.30
495.32	21776.34
495.49	21858.26
495.67	21923.80
495.85	22279.56
496.02	22787.46
496.20	22625.96
496.38	22560.42
496.55	22848.31
496.73	23030.87
496.91	22960.66
497.09	23295.35
497.26	23073.00
497.44	23124.49
497.62	23548.13
497.79	23302.37
497.97	23845.38
498.14	23946.02
498.32	24187.10
498.50	23676.86
498.67	24318.17
498.85	24046.66
499.03	24320.51
499.20	24285.40
499.38	24451.58
499.56	24638.82
499.73	24364.98
499.91	24819.04
500.08	24783.93
500.26	24830.74
500.44	25137.35
500.61	24877.55
500.79	25074.16
500.97	25230.98
501.14	25696.74
501.32	25544.61
501.49	25663.97
501.67	25717.81
501.84	25586.74
502.02	25701.42
502.20	26008.03
502.37	25898.03
502.55	26157.83
502.72	25977.61
502.90	26061.87
503.07	26183.57
503.25	26363.79
503.43	26316.98
503.60	26434.01
503.78	26911.48
503.95	26504.23
504.13	26541.68
504.30	26958.29
504.48	26939.57
504.65	26993.40
504.83	27110.43
505.01	27307.03
505.18	27590.24
505.36	27410.01
505.53	27353.84
505.71	27679.18
505.88	27683.86
506.06	27632.36
506.23	28107.49
506.41	27740.03
506.58	28168.35
506.76	28189.41
506.93	28121.54
507.11	28224.52
507.28	28362.61
507.46	28311.12
507.63	28577.94
507.81	28409.42
507.98	28741.78
508.16	28343.89
508.33	29153.71
508.50	29151.37
508.68	29390.11
508.85	29060.09
509.03	29195.84
509.20	28926.68
509.38	29635.86
509.55	29191.16
509.73	29488.41
509.90	29708.42
510.08	29706.08
510.25	29778.64
510.42	30148.44
510.60	30108.65
510.77	30221.00
510.95	30382.49
511.12	30038.44
511.30	30471.43
511.47	30375.47
511.64	30469.09
511.82	30586.12
511.99	30249.08
512.17	30637.61
512.34	30927.84
512.51	30724.21
512.69	31365.52
512.86	30838.90
513.04	31178.28
513.21	31068.27
513.38	31587.87
513.56	31391.26
513.73	31360.84
513.90	31412.33
514.08	31627.66
514.25	31821.92
514.43	31812.56
514.60	31824.26
514.77	31576.17
514.95	32294.71
515.12	31901.50
515.29	31854.69
515.47	32243.22
515.64	32058.32
515.81	31821.92
515.99	32336.84
516.16	32568.55
516.33	32826.01
516.51	32718.35
516.68	32577.92
516.85	32835.38
517.03	32694.94
517.20	32954.74
517.37	32931.34
517.54	33305.82
517.72	33099.86
517.89	33354.97
518.06	32982.83
518.24	33273.06
518.41	33574.98
518.58	33593.71
518.75	33642.86
518.93	33598.39
519.10	33488.38
519.27	33600.73
519.45	33773.93
519.62	33949.47
519.79	33684.99
519.96	34291.19
520.14	34279.49
520.31	34000.96
520.48	34321.62
520.65	34763.98
520.83	35056.54
521.00	34871.64
521.17	34817.81
521.34	34148.42
521.52	34541.63
521.69	34913.77
521.86	34988.67
522.03	34871.64
522.20	35189.95
522.38	35182.93
522.55	35140.80
522.72	35639.34
522.89	35339.75
523.07	35482.52
523.24	35482.52
523.41	35756.36
523.58	35524.65
523.75	36034.89
523.92	35669.76
524.10	36070.00
524.27	35700.19
524.44	36378.95
524.61	36360.22
524.78	36055.95
524.96	36432.78
525.13	36451.50
525.30	36697.26
525.47	36615.34
525.64	36552.15
525.81	36617.68
525.98	36800.24
526.16	36477.25
526.33	36367.24
526.50	37144.30
526.67	37226.22
526.84	37209.84
527.01	36603.64
527.18	36978.12
527.36	37244.94
527.53	37048.34
527.70	37275.37
527.87	37514.11
528.04	37207.50
528.21	37380.70
528.38	37624.11
528.55	37706.03
528.72	37212.18
528.89	37874.55
529.07	37497.72
529.24	37329.20
529.41	37804.33
529.58	37902.64
529.75	37965.83
529.92	38122.65
530.09	37687.31
530.26	38326.27
530.43	38216.27
530.60	37851.14
530.77	38132.01
530.94	38766.29
531.11	38260.74
531.28	38270.10
531.46	37809.01
531.63	38230.31
531.80	38639.90
531.97	38557.99
532.14	38440.96
532.31	38483.09
532.48	38726.50
532.65	38939.49
532.82	39388.88
532.99	39379.51
533.16	38738.21
533.33	38831.83
533.50	39026.09
533.67	39058.86
533.84	38864.60
534.01	39175.89
534.18	39082.27
534.35	40020.82
534.52	39496.54
534.69	39711.87
534.86	39292.91
535.03	39264.83
535.20	39529.31
535.37	40168.27
535.54	39974.01
535.71	39896.77
535.88	40390.62
536.05	39856.98
536.22	40149.55
536.38	40002.10
536.55	40023.16
536.72	40030.18
536.89	39826.56
537.06	40147.21
537.23	40584.89
537.40	40095.72
537.57	39824.22
537.74	40507.65
537.91	40540.42
538.08	40390.62
538.25	39882.73
538.42	40989.80
538.59	40790.86
538.75	40292.32
538.92	40898.52
539.09	41144.28
539.26	40872.78
539.43	40671.49
539.60	41273.01
539.77	41158.32
539.94	41273.01
540.11	41151.30
540.28	41109.17
540.44	41537.49
540.61	41092.79
540.78	40802.56
540.95	41214.49
541.12	41069.38
541.29	41184.07
541.46	41401.74
541.62	41886.23
541.79	41942.40
541.96	41399.40
542.13	41682.60
542.30	41460.25
542.47	41839.42
542.63	42003.25
542.80	41745.80
542.97	42169.43
543.14	42251.35
543.31	42017.30
543.48	42003.25
543.64	42564.98
543.81	42202.20
543.98	42396.46
544.15	42462.00
544.32	42485.40
544.48	42639.88
544.65	42632.86
544.82	42679.67
544.99	42759.25
545.16	42628.18
545.32	42630.52
545.49	43072.88
545.66	43033.09
545.83	43037.77
546.00	42866.91
546.16	43234.38
546.33	42799.04
546.50	42635.20
546.67	43239.06
546.83	42904.36
547.00	42796.70
547.17	43068.20
547.34	43124.37
547.50	43583.12
547.67	43608.86
547.84	43435.66
548.00	43763.34
548.17	44034.84
548.34	43714.19
548.51	43833.55
548.67	43562.05
548.84	43466.09
549.01	43445.02
549.18	43782.06
549.34	43768.02
549.51	43985.69
549.68	43779.72
549.84	43772.70
550.01	44341.45
550.18	43861.64
550.34	43952.92
550.51	44086.33
550.68	44142.50
550.84	43931.86
551.01	44105.06
551.18	43992.71
551.34	44107.40
551.51	44226.76
551.68	44013.77
551.84	43803.13
552.01	43964.62
552.18	44079.31
552.34	44238.47
552.51	44566.14
552.68	44271.23
552.84	44278.25
553.01	44500.61
553.18	44516.99
553.34	44830.62
553.51	44533.37
553.67	44383.58
553.84	44973.39
554.01	44755.72
554.17	44603.59
554.34	45144.25
554.51	44559.12
554.67	44704.23
554.84	44879.77
555.00	45017.86
555.17	44442.09
555.33	45055.31
555.50	44793.17
555.67	45195.74
555.83	45413.41
556.00	45277.66
556.16	45762.15
556.33	45371.28
556.50	45184.04
556.66	45191.06
556.83	45074.04
556.99	45549.17
557.16	45544.48
557.32	45614.70
557.49	45848.75
557.65	45237.87
557.82	45694.28
557.98	45340.86
558.15	45411.07
558.32	45462.57
558.48	45223.83
558.65	45914.29
558.81	45717.68
558.98	45626.40
559.14	45546.82
559.31	45504.70
559.47	45429.80
559.64	45893.22
559.80	45956.42
559.97	45893.22
560.13	45841.73
560.30	45642.79
560.46	45785.56
560.63	46082.81
560.79	46178.77
560.96	46014.93
561.12	45848.75
561.29	46057.06
561.45	46153.02
561.61	46087.49
561.78	46351.97
561.94	45748.11
562.11	46206.86
562.27	45713.00
562.44	45991.53
562.60	46241.96
562.77	45916.63
562.93	46117.92
563.10	46667.94
563.26	46677.30
563.42	46366.01
563.59	46532.19
563.75	46316.86
563.92	46569.64
564.08	46518.15
564.24	46557.94
564.41	46155.36
564.57	46258.35
564.74	46424.53
564.90	46567.30
565.07	46295.80
565.23	46323.88
565.39	46508.79
565.56	46768.58
565.72	46794.33
565.88	46944.12
566.05	46571.98
566.21	46541.55
566.38	46480.70
566.54	46997.96
566.70	46766.24
566.87	46490.06
567.03	46513.47
567.19	46752.20
567.36	45769.18
567.52	46742.84
567.68	46820.08
567.85	46756.88
568.01	46621.13
568.17	46925.40
568.34	46986.25
568.50	46955.83
568.66	46752.20
568.83	47026.04
568.99	46539.21
569.15	46445.59
569.32	47206.26
569.48	46791.99
569.64	47264.78
569.81	46934.76
569.97	47058.81
570.13	47571.39
570.30	46684.33
570.46	47480.11
570.62	47306.91
570.78	47157.11
570.95	46960.51
571.11	47182.86
571.27	46916.04
571.43	46775.61
571.60	47522.24
571.76	47037.75
571.92	47327.97
572.09	46871.57
572.25	46939.44
572.41	47325.63
572.57	47208.61
572.74	47302.23
572.90	47110.30
573.06	47049.45
573.22	47290.52
573.38	47662.67
573.55	47147.75
573.71	47697.78
573.87	47573.73
574.03	47035.41
574.20	47620.54
574.36	46904.34
574.52	47721.18
574.68	47363.08
574.84	47243.71
575.01	47395.85
575.17	47372.44
575.33	47517.56
575.49	47143.07
575.65	47639.26
575.82	47608.84
575.98	47171.16
576.14	47564.37
576.30	47756.29
576.46	47189.88
576.62	47044.77
576.79	47615.86
576.95	47107.96
577.11	47323.29
577.27	47590.11
577.43	47037.75
577.59	47466.06
577.75	47489.47
577.92	47012.00
578.08	47477.77
578.24	47679.05
578.40	47758.63
578.56	47445.00
578.72	47723.52
578.88	47325.63
579.04	47494.15
579.21	47775.02
579.37	47323.29
579.53	47547.98
579.69	47344.36
579.85	47430.96
580.01	47814.80
580.17	47194.56
580.33	47377.12
580.49	47679.05
580.65	47866.30
580.82	47562.03
580.98	47817.14
581.14	47166.48
581.30	47779.70
581.46	47805.44
581.62	47540.96
581.78	47283.50
581.94	47615.86
582.10	47721.18
582.26	47927.15
582.42	47782.04
582.58	47590.11
582.74	47746.93
582.90	47608.84
583.06	47281.16
583.22	47707.14
583.38	47943.53
583.54	47831.19
583.70	47660.33
583.86	47749.27
584.02	47402.87
584.18	47920.13
584.34	47730.54
584.50	47910.77
584.66	47817.14
584.82	47559.69
584.98	48154.18
585.14	47878.00
585.30	47494.15
585.46	47721.18
585.62	47332.65
585.78	47777.36
585.94	47278.82
586.10	47753.95
586.26	47702.46
586.42	47641.60
586.58	47770.33
586.74	47515.22
586.90	47805.44
587.06	47592.45
587.22	47901.40
587.38	47854.59
587.54	47793.74
587.70	48430.36
587.86	47847.57
588.02	47606.50
588.18	47957.58
588.34	47697.78
588.49	47611.18
588.65	47814.80
588.81	48037.16
588.97	47999.71
589.13	47714.16
589.29	48013.75
589.45	47814.80
589.61	48072.26
589.77	48016.09
589.93	48170.57
590.08	48009.07
