SpectraSuite Data File
++++++++++++++++++++++++++++++++++++
Date: Fri Oct 25 11:25:57 EDT 2013
User: price-jones
Dark Spectrum Present: No
Reference Spectrum Present: No
Number of Sampled Component Spectra: 1
Spectrometers: USB2+H05261
Integration Time (usec): 100000 (USB2+H05261)
Spectra Averaged: 1 (USB2+H05261)
Boxcar Smoothing: 0 (USB2+H05261)
Correct for Electrical Dark: No (USB2+H05261)
Strobe/Lamp Enabled: No (USB2+H05261)
Correct for Detector Non-linearity: No (USB2+H05261)
Correct for Stray Light: No (USB2+H05261)
Number of Pixels in Processed Spectrum: 2048
>>>>>Begin Processed Spectral Data<<<<<
365.73	231.71
365.92	231.71
366.12	231.71
366.32	133.41
366.52	175.54
366.72	170.86
366.91	177.88
367.11	117.03
367.31	128.73
367.51	133.41
367.70	124.05
367.90	152.13
368.10	121.71
368.30	112.35
368.49	152.13
368.69	159.16
368.89	77.24
369.09	114.69
369.28	262.14
369.48	184.90
369.68	184.90
369.87	159.16
370.07	187.24
370.27	250.44
370.47	337.04
370.66	571.09
370.86	664.71
371.06	674.07
371.25	664.71
371.45	674.07
371.65	669.39
371.84	697.48
372.04	711.52
372.24	695.14
372.44	702.16
372.63	746.63
372.83	774.72
373.03	823.87
373.22	779.40
373.42	802.80
373.62	788.76
373.81	821.53
374.01	753.65
374.21	814.51
374.40	767.70
374.60	830.89
374.79	835.57
374.99	802.80
375.19	830.89
375.38	877.70
375.58	947.92
375.78	844.93
375.97	826.21
376.17	835.57
376.37	915.15
376.56	896.43
376.76	863.66
376.95	851.96
377.15	910.47
377.35	858.98
377.54	929.19
377.74	896.43
377.93	947.92
378.13	861.32
378.33	877.70
378.52	877.70
378.72	940.90
378.91	929.19
379.11	940.90
379.31	966.64
379.50	938.55
379.70	964.30
379.89	994.73
380.09	968.98
380.28	1053.24
380.48	950.26
380.68	1027.50
380.87	1027.50
381.07	1057.92
381.26	1060.26
381.46	1046.22
381.65	1067.28
381.85	1090.69
382.04	1078.99
382.24	1060.26
382.43	1142.18
382.63	1055.58
382.83	1004.09
383.02	1210.06
383.22	1128.14
383.41	1078.99
383.61	1104.73
383.80	1186.65
384.00	1196.01
384.19	1132.82
384.39	1090.69
384.58	1198.35
384.78	1205.38
384.97	1149.20
385.17	1149.20
385.36	1146.86
385.56	1125.80
385.75	1252.19
385.95	1102.39
386.14	1203.04
386.34	1156.22
386.53	1306.02
386.72	1287.29
386.92	1167.93
387.11	1228.78
387.31	1188.99
387.50	1228.78
387.70	1317.72
387.89	1277.93
388.09	1268.57
388.28	1284.95
388.48	1235.80
388.67	1352.83
388.86	1350.49
389.06	1345.81
389.25	1310.70
389.45	1401.98
389.64	1268.57
389.84	1399.64
390.03	1409.00
390.22	1404.32
390.42	1345.81
390.61	1387.94
390.81	1373.89
391.00	1418.36
391.19	1416.02
391.39	1406.66
391.58	1387.94
391.78	1409.00
391.97	1476.88
392.16	1490.92
392.36	1526.03
392.55	1533.05
392.75	1493.26
392.94	1458.15
393.13	1614.97
393.33	1486.24
393.52	1409.00
393.71	1605.61
393.91	1621.99
394.10	1591.56
394.29	1610.29
394.49	1605.61
394.68	1603.27
394.88	1671.14
395.07	1586.88
395.26	1797.53
395.46	1612.63
395.65	1647.74
395.84	1708.59
396.04	1853.70
396.23	1774.13
396.42	1839.66
396.62	1900.52
396.81	1788.17
397.00	1727.32
397.19	1816.26
397.39	1771.79
397.58	1834.98
397.77	1785.83
397.97	1834.98
398.16	1767.10
398.35	1827.96
398.55	1846.68
398.74	1881.79
398.93	1863.07
399.12	2022.22
399.32	1806.89
399.51	2001.16
399.70	1973.07
399.90	1912.22
400.09	1980.09
400.28	1996.48
400.47	2010.52
400.67	2085.42
400.86	2155.63
401.05	2029.24
401.24	2120.53
401.44	2230.53
401.63	2059.67
401.82	2076.06
402.01	2080.74
402.21	2176.70
402.40	2235.21
402.59	2186.06
402.78	2176.70
402.97	2303.09
403.17	2314.79
403.36	2155.63
403.55	2237.55
403.74	2532.46
403.93	2284.36
404.13	2422.45
404.32	2420.11
404.51	2392.03
404.70	2403.73
404.89	2480.97
405.09	2424.80
405.28	2527.78
405.47	2537.14
405.66	2434.16
405.85	2513.74
406.05	2471.61
406.24	2527.78
406.43	2602.68
406.62	2647.15
406.81	2607.36
407.00	2562.89
407.20	2520.76
407.39	2703.32
407.58	2581.61
407.77	2679.91
407.96	2677.57
408.15	2857.79
408.34	2768.85
408.54	2693.96
408.73	2899.92
408.92	2869.50
409.11	2827.37
409.30	2909.29
409.49	2867.16
409.68	2839.07
409.87	2878.86
410.07	2972.48
410.26	3035.67
410.45	2993.55
410.64	3108.23
410.83	3030.99
411.02	2960.78
411.21	3236.96
411.40	3148.02
411.59	3073.12
411.78	3021.63
411.98	3171.43
412.17	3143.34
412.36	3321.22
412.55	3428.88
412.74	3438.25
412.93	3328.24
413.12	3251.00
413.31	3541.23
413.50	3412.50
413.69	3503.78
413.88	3543.57
414.07	3658.26
414.26	3705.07
414.45	3716.77
414.64	3726.13
414.83	3637.19
415.02	3735.50
415.22	3794.01
415.41	3822.09
415.60	3791.67
415.79	3829.12
415.98	3929.76
416.17	4042.11
416.36	3859.54
416.55	4014.02
416.74	4060.83
416.93	3894.65
417.12	4084.23
417.31	4152.11
417.50	4112.32
417.69	4269.14
417.88	4182.54
418.07	4098.28
418.26	4299.56
418.45	4301.90
418.64	4514.89
418.83	4449.36
419.02	4402.55
419.21	4390.84
419.39	4486.81
419.58	4322.97
419.77	4425.95
419.96	4601.49
420.15	4561.70
420.34	4531.28
420.53	4472.76
420.72	4596.81
420.91	4652.98
421.10	4552.34
421.29	4770.01
421.48	4664.69
421.67	4671.71
421.86	4847.25
422.05	4868.31
422.24	4739.58
422.43	4844.91
422.61	4865.97
422.80	4905.76
422.99	4880.02
423.18	4880.02
423.37	5008.75
423.56	4999.38
423.75	4945.55
423.94	4828.53
424.13	4657.67
424.32	4711.50
424.50	4938.53
424.69	5085.98
424.88	5043.85
425.07	4889.38
425.26	4884.70
425.45	4826.18
425.64	4936.19
425.83	5116.41
426.01	5050.88
426.20	5013.43
426.39	4994.70
426.58	4926.83
426.77	5048.54
426.96	5123.43
427.15	5191.31
427.33	5310.68
427.52	5242.80
427.71	5252.16
427.90	5233.44
428.09	5158.54
428.28	5310.68
428.46	5401.96
428.65	5331.74
428.84	5526.00
429.03	5467.49
429.22	5383.23
429.40	5378.55
429.59	5359.83
429.78	5359.83
429.97	5188.97
430.16	5500.26
430.34	5614.95
430.53	5563.45
430.72	5685.16
430.91	5724.95
431.10	5575.16
431.28	5664.10
431.47	5785.80
431.66	5701.54
431.85	5720.27
432.03	5795.17
432.22	5984.75
432.41	5980.07
432.60	5916.87
432.79	6033.90
432.97	5895.81
433.16	5998.79
433.35	5858.36
433.54	5984.75
433.72	6045.60
433.91	6120.50
434.10	6071.35
434.28	5989.43
434.47	6260.93
434.66	6258.59
434.85	6235.19
435.03	6520.73
435.22	6183.70
435.41	6277.32
435.59	6373.28
435.78	6434.13
435.97	6494.99
436.16	6506.69
436.34	6265.61
436.53	6546.48
436.72	6469.24
436.90	6459.88
437.09	6691.59
437.28	6396.68
437.46	6595.63
437.65	6551.16
437.84	6565.20
438.02	6698.61
438.21	6738.40
438.40	6712.66
438.58	6984.16
438.77	6871.81
438.96	6965.43
439.14	7000.54
439.33	7138.63
439.52	7136.29
439.70	7124.59
439.89	7382.05
440.08	7194.81
440.26	7419.50
440.45	7325.88
440.63	7541.21
440.82	7456.95
441.01	7541.21
441.19	7576.31
441.38	7679.30
441.57	7658.23
441.75	7920.37
441.94	7974.21
442.12	8070.17
442.31	7913.35
442.50	8095.91
442.68	7962.50
442.87	7887.61
443.05	8004.63
443.24	8147.40
443.43	8173.15
443.61	8245.71
443.80	8315.92
443.98	8032.72
444.17	7840.79
444.35	8194.22
444.54	8358.05
444.73	8353.37
444.91	8336.99
445.10	8442.31
445.28	8439.97
445.47	8313.58
445.65	8212.94
445.84	8339.33
446.02	8360.39
446.21	8519.55
446.39	8379.12
446.58	8442.31
446.77	8348.69
446.95	8107.62
447.14	8376.78
447.32	8575.72
447.51	8585.08
447.69	8374.44
447.88	8442.31
448.06	8475.08
448.25	8278.47
448.43	8702.11
448.62	8542.96
448.80	8578.06
448.99	8407.20
449.17	8571.04
449.36	8547.64
449.54	8636.58
449.73	8753.60
449.91	8901.06
450.10	8828.50
450.28	8936.17
450.46	9085.96
450.65	8992.34
450.83	9013.40
451.02	8978.30
451.20	9165.54
451.39	9202.99
451.57	9149.15
451.76	9001.70
451.94	9074.26
452.13	9315.33
452.31	9125.75
452.49	9069.58
452.68	9142.13
452.86	9296.61
453.05	9291.93
453.23	9659.39
453.42	9420.66
453.60	9561.09
453.78	9537.68
453.97	9479.17
454.15	9303.63
454.34	9338.74
454.52	9631.30
454.70	9687.48
454.89	9872.38
455.07	9994.09
455.26	9856.00
455.44	9987.07
455.62	9678.12
455.81	9834.93
455.99	9956.64
456.17	9989.41
456.36	10076.01
456.54	10005.79
456.73	10141.54
456.91	10202.40
457.09	10310.06
457.28	10602.63
457.46	10317.08
457.64	10487.94
457.83	10588.58
458.01	10377.94
458.19	10572.20
458.38	10459.85
458.56	10562.84
458.74	10581.56
458.93	10602.63
459.11	10602.63
459.29	10705.61
459.48	10684.55
459.66	10780.51
459.84	10881.15
460.03	10988.82
460.21	10736.04
460.39	10909.24
460.57	10925.62
460.76	10972.43
460.94	11028.60
461.12	11059.03
461.31	11035.63
461.49	11257.98
461.67	11040.31
461.85	11297.77
462.04	11248.61
462.22	11822.05
462.40	11618.42
462.59	11499.05
462.77	11433.52
462.95	11552.88
463.13	11459.26
463.32	11658.21
463.50	11782.26
463.68	11775.24
463.86	11772.89
464.05	11559.91
464.23	11800.98
464.41	11712.04
464.59	11700.34
464.78	12105.25
464.96	11946.09
465.14	11793.96
465.32	12039.72
465.50	12112.27
465.69	12138.02
465.87	11962.48
466.05	12259.73
466.23	12182.49
466.41	12196.53
466.60	12362.71
466.78	12037.38
466.96	12056.10
467.14	12205.89
467.32	12149.72
467.51	12524.21
467.69	12121.63
467.87	12325.26
468.05	12624.85
468.23	12358.03
468.41	12470.37
468.60	12573.36
468.78	12425.90
468.96	12622.51
469.14	12788.69
469.32	12961.89
469.50	12423.56
469.69	12891.67
469.87	13022.74
470.05	13050.83
470.23	13097.64
470.41	13062.53
470.59	13097.64
470.77	13036.78
470.95	13144.45
471.14	13280.20
471.32	13060.19
471.50	13626.60
471.68	13408.93
471.86	13619.58
472.04	13338.71
472.22	13984.70
472.40	13420.63
472.58	13762.35
472.77	13991.72
472.95	14001.08
473.13	14284.29
473.31	14115.77
473.49	14001.08
473.67	14143.86
473.85	14377.91
474.03	14644.73
474.21	14359.19
474.39	14668.14
474.57	14710.27
474.75	14831.97
474.93	14937.30
475.12	15051.99
475.30	14841.34
475.48	14787.50
475.66	15176.03
475.84	15260.29
476.02	15227.53
476.20	15555.20
476.38	15454.56
476.56	15831.38
476.74	15915.64
476.92	16032.67
477.10	15529.45
477.28	16060.76
477.46	15974.16
477.64	16250.34
477.82	16339.28
478.00	16992.29
478.18	16479.71
478.36	16938.46
478.54	17205.28
478.72	17099.95
478.90	17312.94
479.08	17350.39
479.26	17678.07
479.44	17930.84
479.62	17706.15
479.80	18075.96
479.98	18160.22
480.16	18436.40
480.34	18286.61
480.52	18246.82
480.70	18471.51
480.88	18251.50
481.06	18789.82
481.24	18640.03
481.41	19073.03
481.59	19176.01
481.77	19250.91
481.95	19459.21
482.13	19307.08
482.31	19447.51
482.49	20095.84
482.67	20262.02
482.85	20491.39
483.03	20231.59
483.21	20526.50
483.39	20805.02
483.57	20945.45
483.74	21041.42
483.92	21390.16
484.10	20975.88
484.28	21635.91
484.46	21818.47
484.64	22005.72
484.82	21638.25
485.00	22106.36
485.18	22356.80
485.35	22455.10
485.53	22993.42
485.71	22904.48
485.89	23403.02
486.07	23201.73
486.25	23243.86
486.43	23623.03
486.61	23498.98
486.78	24175.39
486.96	24231.57
487.14	24041.98
487.32	24376.68
487.50	24772.23
487.68	24865.85
487.85	25006.28
488.03	25827.81
488.21	25832.49
488.39	25858.24
488.57	25806.75
488.75	26059.52
488.92	26008.03
489.10	26239.75
489.28	26604.87
489.46	27009.78
489.64	27117.45
489.81	27393.63
489.99	27257.88
490.17	27571.51
490.35	27922.59
490.53	27688.54
490.70	28376.66
490.88	28252.61
491.06	28821.36
491.24	28734.76
491.41	28877.53
491.59	28858.81
491.77	29219.25
491.95	29139.67
492.13	29542.24
492.30	30005.67
492.48	29986.94
492.66	30096.95
492.84	30515.90
493.01	30714.85
493.19	30611.87
493.37	30969.97
493.54	30866.98
493.72	31171.25
493.90	31339.77
494.08	31718.94
494.25	31938.95
494.43	31784.48
494.61	32060.66
494.79	32488.98
494.96	32505.36
495.14	32264.28
495.32	33212.20
495.49	33036.66
495.67	33324.55
495.85	33560.94
496.02	33799.68
496.20	34061.82
496.38	34113.31
496.55	33689.67
496.73	34202.25
496.91	34281.83
497.09	34651.63
497.26	34754.61
497.44	34532.26
497.62	35150.17
497.79	35655.72
497.97	34866.96
498.14	36053.61
498.32	35999.78
498.50	35917.86
498.67	36229.15
498.85	36074.68
499.03	36266.60
499.20	36503.00
499.38	36376.61
499.56	36854.08
499.73	36847.05
499.91	37347.93
500.08	37479.00
500.26	37420.48
500.44	37244.94
500.61	37390.06
500.79	37352.61
500.97	37724.75
501.14	38408.19
501.32	38302.87
501.49	38370.74
501.67	38515.86
501.84	39072.90
502.02	38698.42
502.20	38775.66
502.37	39122.05
502.55	39243.76
502.72	39550.37
502.90	39028.43
503.07	38789.70
503.25	39655.70
503.43	39651.02
503.60	39761.02
503.78	40315.73
503.95	39807.83
504.13	40215.08
504.30	40423.39
504.48	39999.76
504.65	40671.49
504.83	40502.97
505.01	40788.52
505.18	40697.24
505.36	41060.02
505.53	40830.65
505.71	41338.54
505.88	41682.60
506.06	41273.01
506.23	41872.18
506.41	42057.09
506.58	42061.77
506.76	42026.66
506.93	42326.25
507.11	42387.10
507.28	42059.43
507.46	42679.67
507.63	42946.49
507.81	43000.32
507.98	42344.97
508.16	42983.94
508.33	43510.56
508.50	42997.98
508.68	43653.33
508.85	44105.06
509.03	43239.06
509.20	43297.57
509.38	43992.71
509.55	44282.94
509.73	44013.77
509.90	44411.67
510.08	44608.27
510.25	44289.96
510.42	44079.31
510.60	45015.52
510.77	44807.22
510.95	45062.33
511.12	44458.48
511.30	44458.48
511.47	45399.37
511.64	45181.70
511.82	45970.46
511.99	45820.67
512.17	45757.47
512.34	46213.88
512.51	45970.46
512.69	46094.51
512.86	46314.52
513.04	46574.32
513.21	46614.11
513.38	46616.45
513.56	46588.36
513.73	46705.39
513.90	46621.13
514.08	46440.91
514.25	46916.04
514.43	47395.85
514.60	47327.97
514.77	47070.51
514.95	47430.96
515.12	47086.90
515.29	47096.26
515.47	47505.85
515.64	47519.90
515.81	47875.66
515.99	48034.81
516.16	48442.07
516.33	48306.32
516.51	48439.73
516.68	48311.00
516.85	48212.70
517.03	48685.48
517.20	48465.47
517.37	48818.89
517.54	48598.88
517.72	48589.52
517.89	48765.06
518.06	49205.08
518.24	48940.60
518.41	49169.97
518.58	49088.06
518.75	48926.56
518.93	49626.38
519.10	49153.59
519.27	49633.40
519.45	49310.41
519.62	50099.17
519.79	49766.81
519.96	49631.06
520.14	49872.14
520.31	49762.13
520.48	50305.13
520.65	50115.55
520.83	50272.37
521.00	50632.81
521.17	50478.33
521.34	50581.32
521.52	50487.70
521.69	50789.62
521.86	50866.86
522.03	50791.97
522.20	51269.43
522.38	51044.74
522.55	51093.89
522.72	50955.80
522.89	50974.53
523.07	51281.14
523.24	51405.19
523.41	51686.05
523.58	51276.46
523.75	51547.96
523.92	51510.51
524.10	51999.68
524.27	51847.55
524.44	51765.63
524.61	51852.23
524.78	52051.17
524.96	51655.62
525.13	52018.41
525.30	52222.03
525.47	52198.63
525.64	52411.62
525.81	52460.77
525.98	52603.54
526.16	52535.66
526.33	52549.71
526.50	52739.29
526.67	52526.30
526.84	52818.87
527.01	53029.52
527.18	52523.96
527.36	52734.61
527.53	52851.64
527.70	52992.07
527.87	53029.52
528.04	52971.00
528.21	53537.41
528.38	53013.13
528.55	53336.13
528.72	53179.31
528.89	53209.74
529.07	53167.61
529.24	53357.19
529.41	53357.19
529.58	53434.43
529.75	53544.44
529.92	53469.54
530.09	53783.17
530.26	53825.30
530.43	53834.66
530.60	53724.66
530.77	53881.47
530.94	53776.15
531.11	53712.95
531.28	53771.47
531.46	53956.37
531.63	54478.31
531.80	53993.82
531.97	54218.51
532.14	54307.45
532.31	54473.63
532.48	54782.58
532.65	54262.98
532.82	54445.54
532.99	54415.11
533.16	54417.46
533.33	54398.73
533.50	54892.58
533.67	54539.16
533.84	54302.77
534.01	54766.20
534.18	54878.54
534.35	55215.58
534.52	54911.31
534.69	54822.37
534.86	54794.28
535.03	55147.70
535.20	54976.84
535.37	55248.35
535.54	55426.23
535.71	55250.69
535.88	55250.69
536.05	55437.93
536.22	55540.91
536.38	55538.57
536.55	55154.72
536.72	55569.00
536.89	55592.40
537.06	55332.60
537.23	55608.79
537.40	55622.83
537.57	55573.68
537.74	55540.91
537.91	55845.18
538.08	55730.50
538.25	55667.30
538.42	55767.94
538.59	56027.74
538.75	55683.69
538.92	55868.59
539.09	56156.47
539.26	56236.05
539.43	55999.66
539.60	56072.21
539.77	56371.80
539.94	56552.02
540.11	56301.59
540.28	56313.29
540.44	56151.79
540.61	56266.48
540.78	56289.88
540.95	56369.46
541.12	56472.45
541.29	56222.01
541.46	56142.43
541.62	56516.92
541.79	56367.12
541.96	56116.68
542.13	56690.12
542.30	56605.86
542.47	56601.18
542.63	56842.25
542.80	56655.01
542.97	56961.62
543.14	57139.50
543.31	57076.30
543.48	57340.78
543.64	57272.91
543.81	57190.99
543.98	57146.52
544.15	57003.75
544.32	57303.34
544.48	57443.77
544.65	57378.23
544.82	57401.64
544.99	57329.08
545.16	57233.12
545.32	57146.52
545.49	57481.22
545.66	57565.48
545.83	57446.11
546.00	57366.53
546.16	57537.39
546.33	57518.67
546.50	57345.47
546.67	57586.54
546.83	57350.15
547.00	57682.50
547.17	57621.65
547.34	57581.86
547.50	57909.53
547.67	57890.81
547.84	58101.46
548.00	57888.47
548.17	58176.36
548.34	57942.30
548.51	58169.33
548.67	58047.63
548.84	58085.07
549.01	58010.18
549.18	58094.44
549.34	58087.42
549.51	58255.93
549.68	58148.27
549.84	58124.86
550.01	58190.40
550.18	57965.71
550.34	58216.14
550.51	58204.44
550.68	58148.27
550.84	58113.16
551.01	58394.03
551.18	58489.99
551.34	58499.35
551.51	58232.53
551.68	58515.73
551.84	58417.43
552.01	58419.77
552.18	58419.77
552.34	58354.24
552.51	58461.90
552.68	58426.79
552.84	58721.70
553.01	58981.50
553.18	58686.59
553.34	58770.85
553.51	58487.65
553.67	58808.30
553.84	58904.26
554.01	58749.79
554.17	58885.54
554.34	58901.92
554.51	58866.81
554.67	58822.34
554.84	58843.41
555.00	58815.32
555.17	58817.66
555.33	58953.41
555.50	58932.35
555.67	58869.15
555.83	58852.77
556.00	58979.16
556.16	59267.05
556.33	59035.33
556.50	59089.16
556.66	59224.92
556.83	59133.63
556.99	59255.34
557.16	59325.56
557.32	59250.66
557.49	59512.80
557.65	59040.01
557.82	59203.85
557.98	59288.11
558.15	59386.41
558.32	59325.56
558.48	59355.99
558.65	59355.99
558.81	59381.73
558.98	59283.43
559.14	59664.94
559.31	59461.31
559.47	59517.48
559.64	59536.21
559.80	59629.83
559.97	59632.17
560.13	59451.95
560.30	59552.59
560.46	59695.36
560.63	59704.73
560.79	59697.70
560.96	59739.83
561.12	59756.22
561.29	59498.76
561.45	59770.26
561.61	59784.30
561.78	59601.74
561.94	59683.66
562.11	59707.07
562.27	59842.82
562.44	59723.45
562.60	60137.72
562.77	59721.11
562.93	59655.57
563.10	60177.51
563.26	59807.71
563.42	59980.91
563.59	59716.43
563.75	59849.84
563.92	59896.65
564.08	59873.24
564.24	59969.21
564.41	60039.42
564.57	59828.77
564.74	59913.03
564.90	59920.05
565.07	60200.92
565.23	60018.36
565.39	60009.00
565.56	60079.21
565.72	60123.68
565.88	60104.96
566.05	59901.33
566.21	59835.80
566.38	60104.96
566.54	60100.28
566.70	60111.98
566.87	60348.37
567.03	60102.62
567.19	60095.60
567.36	60299.22
567.52	60058.15
567.68	60512.21
567.85	60123.68
568.01	60135.38
568.17	60196.24
568.34	60280.50
568.50	60271.14
568.66	60374.12
568.83	60357.74
568.99	60163.47
569.15	60509.87
569.32	60240.71
569.48	60238.37
569.64	60346.03
569.81	60479.44
569.97	60243.05
570.13	60425.61
570.30	60214.96
570.46	60315.61
570.62	60200.92
570.78	60322.63
570.95	60388.16
571.11	60453.70
571.27	60341.35
571.43	60530.93
571.60	60404.55
571.76	60456.04
571.92	60306.24
572.09	60654.98
572.25	60451.36
572.41	60577.75
572.57	60179.85
572.74	60680.73
572.90	60308.58
573.06	60495.83
573.22	60289.86
573.38	60320.29
573.55	60423.27
573.71	60535.62
573.87	60608.17
574.03	60437.31
574.20	60811.80
574.36	60514.55
574.52	60556.68
574.68	60441.99
574.84	60767.33
575.01	60772.01
575.17	60629.24
575.33	60505.19
575.49	60622.22
575.65	60552.00
575.82	60732.22
575.98	60793.07
576.14	60856.27
576.30	60692.43
576.46	60636.26
576.62	60647.96
576.79	60631.58
576.95	60568.38
577.11	60781.37
577.27	60699.45
577.43	60853.93
577.59	60659.66
577.75	60713.50
577.92	60608.17
578.08	60594.13
578.24	60762.65
578.40	60776.69
578.56	60556.68
578.72	60580.09
578.88	60853.93
579.04	60683.07
579.21	60617.53
579.37	60830.52
579.53	60764.99
579.69	60420.93
579.85	60633.92
580.01	60683.07
580.17	60556.68
580.33	60633.92
580.49	60914.78
580.65	60797.76
580.82	60774.35
580.98	60699.45
581.14	60718.18
581.30	60938.19
581.46	60748.60
581.62	60825.84
581.78	60762.65
581.94	60662.00
582.10	60837.54
582.26	60783.71
582.42	60708.82
582.58	60853.93
582.74	60645.62
582.90	60734.56
583.06	60757.97
583.22	60633.92
583.38	60867.97
583.54	60928.83
583.70	60743.92
583.86	60987.34
584.02	60769.67
584.18	60795.42
584.34	61050.53
584.50	60837.54
584.66	60755.63
584.82	60776.69
584.98	61099.68
585.14	60860.95
585.30	60776.69
585.46	61102.03
585.62	60821.16
585.78	60947.55
585.94	60556.68
586.10	60985.00
586.26	60952.23
586.42	60942.87
586.58	60917.12
586.74	60776.69
586.90	60680.73
587.06	60767.33
587.22	60968.61
587.38	60879.67
587.54	60994.36
587.70	61038.83
587.86	60935.85
588.02	60949.89
588.18	61151.18
588.34	60837.54
588.49	60905.42
