SpectraSuite Data File
++++++++++++++++++++++++++++++++++++
Date: Fri Oct 25 11:33:40 EDT 2013
User: price-jones
Dark Spectrum Present: No
Reference Spectrum Present: No
Number of Sampled Component Spectra: 1
Spectrometers: USB2+H05261
Integration Time (usec): 100000 (USB2+H05261)
Spectra Averaged: 1 (USB2+H05261)
Boxcar Smoothing: 0 (USB2+H05261)
Correct for Electrical Dark: No (USB2+H05261)
Strobe/Lamp Enabled: No (USB2+H05261)
Correct for Detector Non-linearity: No (USB2+H05261)
Correct for Stray Light: No (USB2+H05261)
Number of Pixels in Processed Spectrum: 2048
>>>>>Begin Processed Spectral Data<<<<<
365.73	301.93
365.92	301.93
366.12	301.93
366.32	210.65
366.52	208.31
366.72	231.71
366.91	215.33
367.11	198.95
367.31	100.64
367.51	145.11
367.70	121.71
367.90	196.60
368.10	163.84
368.30	208.31
368.49	126.39
368.69	227.03
368.89	205.97
369.09	208.31
369.28	201.29
369.48	168.52
369.68	243.42
369.87	271.50
370.07	210.65
370.27	339.38
370.47	299.59
370.66	468.11
370.86	543.00
371.06	561.73
371.25	650.67
371.45	528.96
371.65	557.05
371.84	550.03
372.04	507.90
372.24	568.75
372.44	552.37
372.63	657.69
372.83	620.24
373.03	587.47
373.22	582.79
373.42	674.07
373.62	622.58
373.81	645.99
374.01	669.39
374.21	627.26
374.40	622.58
374.60	692.80
374.79	662.37
374.99	559.39
375.19	587.47
375.38	699.82
375.58	660.03
375.78	683.44
375.97	669.39
376.17	681.10
376.37	662.37
376.56	648.33
376.76	713.86
376.95	648.33
377.15	636.63
377.35	744.29
377.54	681.10
377.74	678.76
377.93	692.80
378.13	753.65
378.33	744.29
378.52	718.54
378.72	695.14
378.91	713.86
379.11	685.78
379.31	716.20
379.50	653.01
379.70	800.46
379.89	784.08
380.09	772.38
380.28	739.61
380.48	622.58
380.68	739.61
380.87	770.04
381.07	748.97
381.26	734.93
381.46	720.88
381.65	753.65
381.85	786.42
382.04	734.93
382.24	788.76
382.43	763.01
382.63	788.76
382.83	760.67
383.02	856.64
383.22	809.83
383.41	816.85
383.61	791.10
383.80	802.80
384.00	802.80
384.19	802.80
384.39	763.01
384.58	791.10
384.78	919.83
384.97	866.00
385.17	891.74
385.36	894.08
385.56	910.47
385.75	800.46
385.95	866.00
386.14	901.11
386.34	840.25
386.53	877.70
386.72	779.40
386.92	943.24
387.11	833.23
387.31	835.57
387.50	849.61
387.70	917.49
387.89	826.21
388.09	908.13
388.28	889.40
388.48	959.62
388.67	973.66
388.86	997.07
389.06	983.02
389.25	957.28
389.45	1001.75
389.64	980.68
389.84	964.30
390.03	1013.45
390.22	1029.84
390.42	929.19
390.61	919.83
390.81	1013.45
391.00	922.17
391.19	999.41
391.39	987.71
391.58	1022.81
391.78	1032.18
391.97	1076.65
392.16	1001.75
392.36	1128.14
392.55	1046.22
392.75	1067.28
392.94	1088.35
393.13	1074.31
393.33	1013.45
393.52	1008.77
393.71	1104.73
393.91	1146.86
394.10	1071.97
394.29	952.60
394.49	1062.60
394.68	1102.39
394.88	1170.27
395.07	1153.88
395.26	1174.95
395.46	1170.27
395.65	1184.31
395.84	1219.42
396.04	1167.93
396.23	1200.69
396.42	1139.84
396.62	1277.93
396.81	1172.61
397.00	1196.01
397.19	1256.87
397.39	1268.57
397.58	1247.51
397.77	1254.53
397.97	1341.13
398.16	1160.91
398.35	1259.21
398.55	1252.19
398.74	1228.78
398.93	1268.57
399.12	1275.59
399.32	1261.55
399.51	1252.19
399.70	1352.83
399.90	1268.57
400.09	1334.11
400.28	1420.71
400.47	1376.24
400.67	1334.11
400.86	1373.89
401.05	1455.81
401.24	1465.18
401.44	1530.71
401.63	1483.90
401.82	1469.86
402.01	1448.79
402.21	1413.68
402.40	1472.20
402.59	1455.81
402.78	1689.87
402.97	1479.22
403.17	1537.73
403.36	1607.95
403.55	1584.54
403.74	1654.76
403.93	1633.69
404.13	1516.67
404.32	1607.95
404.51	1568.16
404.70	1722.63
404.89	1514.33
405.09	1671.14
405.28	1729.66
405.47	1624.33
405.66	1713.27
405.85	1607.95
406.05	1673.48
406.24	1736.68
406.43	1722.63
406.62	1767.10
406.81	1874.77
407.00	1804.55
407.20	1788.17
407.39	1870.09
407.58	1788.17
407.77	1820.94
407.96	1842.00
408.15	1963.71
408.34	2001.16
408.54	1933.28
408.73	1825.62
408.92	1849.02
409.11	1989.46
409.30	1989.46
409.49	2050.31
409.68	1928.60
409.87	1963.71
410.07	2087.76
410.26	2092.44
410.45	2010.52
410.64	2071.37
410.83	2136.91
411.02	2181.38
411.21	2204.78
411.40	2132.23
411.59	2134.57
411.78	2181.38
411.98	2249.25
412.17	2134.57
412.36	2246.91
412.55	2310.11
412.74	2282.02
412.93	2258.62
413.12	2260.96
413.31	2448.20
413.50	2335.85
413.69	2300.75
413.88	2462.24
414.07	2455.22
414.26	2452.88
414.45	2436.50
414.64	2539.48
414.83	2499.69
415.02	2626.08
415.22	2726.72
415.41	2628.42
415.60	2686.94
415.79	2719.70
415.98	2813.32
416.17	2752.47
416.36	2745.45
416.55	2696.30
416.74	2911.63
416.93	2726.72
417.12	2766.51
417.31	2857.79
417.50	2827.37
417.69	3023.97
417.88	2967.80
418.07	2869.50
418.26	2871.84
418.45	2909.29
418.64	3054.40
418.83	3042.70
419.02	3035.67
419.21	3204.19
419.39	3007.59
419.58	3047.38
419.77	3059.08
419.96	3204.19
420.15	3173.77
420.34	3094.19
420.53	3145.68
420.72	3321.22
420.91	3236.96
421.10	3215.90
421.29	3309.52
421.48	3283.77
421.67	3201.85
421.86	3368.03
422.05	3307.18
422.24	3473.36
422.43	3466.33
422.61	3389.10
422.80	3461.65
422.99	3363.35
423.18	3454.63
423.37	3459.31
423.56	3251.00
423.75	3421.86
423.94	3426.54
424.13	3213.56
424.32	3426.54
424.50	3398.46
424.69	3456.97
424.88	3552.93
425.07	3396.12
425.26	3328.24
425.45	3531.87
425.64	3349.31
425.83	3382.07
426.01	3592.72
426.20	3665.28
426.39	3447.61
426.58	3485.06
426.77	3529.53
426.96	3562.30
427.15	3665.28
427.33	3627.83
427.52	3595.06
427.71	3653.58
427.90	3651.24
428.09	3693.37
428.28	3660.60
428.46	3716.77
428.65	3613.79
428.84	3772.94
429.03	3803.37
429.22	3655.92
429.40	3904.01
429.59	3765.92
429.78	3698.05
429.97	3623.15
430.16	3716.77
430.34	3826.78
430.53	3796.35
430.72	3868.91
430.91	3894.65
431.10	3974.23
431.28	3854.86
431.47	3946.14
431.66	3936.78
431.85	4011.68
432.03	4131.05
432.22	4379.14
432.41	4086.58
432.60	4070.19
432.79	4067.85
432.97	4049.13
433.16	4152.11
433.35	4180.20
433.54	4177.86
433.72	4166.15
433.91	4278.50
434.10	4212.96
434.28	4175.52
434.47	4203.60
434.66	4194.24
434.85	4362.76
435.03	4344.03
435.22	4297.22
435.41	4521.92
435.59	4271.48
435.78	4491.49
435.97	4297.22
436.16	4208.28
436.34	4465.74
436.53	4456.38
436.72	4648.30
436.90	4358.08
437.09	4531.28
437.28	4512.55
437.46	4475.10
437.65	4603.83
437.84	4552.34
438.02	4594.47
438.21	4596.81
438.40	4690.43
438.58	4678.73
438.77	4865.97
438.96	4908.10
439.14	4898.74
439.33	5015.77
439.52	4947.89
439.70	4990.02
439.89	4931.51
440.08	4997.04
440.26	5055.56
440.45	5081.30
440.63	4985.34
440.82	5210.03
441.01	5205.35
441.19	5156.20
441.38	5322.38
441.57	5280.25
441.75	5420.68
441.94	5378.55
442.12	5385.57
442.31	5334.08
442.50	5411.32
442.68	5338.76
442.87	5556.43
443.05	5596.22
443.24	5582.18
443.43	5647.71
443.61	5624.31
443.80	5652.39
443.98	5551.75
444.17	5317.70
444.35	5636.01
444.54	5750.70
444.73	5673.46
444.91	5610.26
445.10	5673.46
445.28	5720.27
445.47	5551.75
445.65	5589.20
445.84	5832.62
446.02	5736.65
446.21	5816.23
446.39	5650.05
446.58	5731.97
446.77	5776.44
446.95	5582.18
447.14	5710.91
447.32	5724.95
447.51	5813.89
447.69	5767.08
447.88	5703.89
448.06	5753.04
448.25	5893.47
448.43	5795.17
448.62	5844.32
448.80	5640.69
448.99	5944.96
449.17	5914.53
449.36	5895.81
449.54	5959.00
449.73	5944.96
449.91	6010.50
450.10	6012.84
450.28	6197.74
450.46	6153.27
450.65	6029.22
450.83	6092.41
451.02	6305.40
451.20	6258.59
451.39	6232.85
451.57	6101.78
451.76	6265.61
451.94	6230.51
452.13	6230.51
452.31	6319.45
452.49	6183.70
452.68	6296.04
452.86	6516.05
453.05	6349.87
453.23	6464.56
453.42	6171.99
453.60	6300.72
453.78	6499.67
453.97	6441.15
454.15	6462.22
454.34	6363.92
454.52	6520.73
454.70	6602.65
454.89	6640.10
455.07	6558.18
455.26	6480.94
455.44	6663.51
455.62	6642.44
455.81	6691.59
455.99	6827.34
456.17	6682.23
456.36	6892.88
456.54	6883.52
456.73	6878.83
456.91	7122.25
457.09	7082.46
457.28	7080.12
457.46	6998.20
457.64	7136.29
457.83	7260.34
458.01	7000.54
458.19	7117.57
458.38	7286.09
458.56	7234.60
458.74	7274.38
458.93	7145.66
459.11	7183.10
459.29	7201.83
459.48	7421.84
459.66	7417.16
459.84	7435.88
460.03	7712.07
460.21	7126.93
460.39	7321.20
460.57	7393.75
460.76	7454.61
460.94	7520.14
461.12	7592.70
461.31	7651.21
461.49	7379.71
461.67	7405.46
461.85	7702.70
462.04	7728.45
462.22	8011.65
462.40	7920.37
462.59	7662.91
462.77	7719.09
462.95	7960.16
463.13	7747.17
463.32	7705.04
463.50	8154.43
463.68	7793.98
463.86	7808.03
464.05	7801.01
464.23	7896.97
464.41	8091.23
464.59	8065.49
464.78	8203.58
464.96	8152.09
465.14	7789.30
465.32	8009.31
465.50	8072.51
465.69	8079.53
465.87	8175.49
466.05	7953.14
466.23	8128.68
466.41	8222.30
466.60	8262.09
466.78	8070.17
466.96	8187.19
467.14	8170.81
467.32	8442.31
467.51	8358.05
467.69	8381.46
467.87	8482.10
468.05	8578.06
468.23	8383.80
468.41	8397.84
468.60	8507.85
468.78	8542.96
468.96	8367.42
469.14	8667.00
469.32	8690.41
469.50	8528.91
469.69	8514.87
469.87	8896.38
470.05	8826.16
470.23	8741.90
470.41	8788.71
470.59	8971.27
470.77	8875.31
470.95	9027.45
471.14	8910.42
471.32	8863.61
471.50	9139.79
471.68	9210.01
471.86	9088.30
472.04	9256.82
472.22	9411.29
472.40	9254.48
472.58	9238.09
472.77	9158.52
472.95	9502.58
473.13	9834.93
473.31	9408.95
473.49	9301.29
473.67	9507.26
473.85	9500.23
474.03	9755.35
474.21	9675.77
474.39	9720.24
474.57	9870.04
474.75	9909.83
474.93	10061.96
475.12	9933.23
475.30	10160.27
475.48	9928.55
475.66	10188.35
475.84	10026.86
476.02	10296.02
476.20	10218.78
476.38	10380.28
476.56	10658.80
476.74	10623.69
476.92	10504.32
477.10	10424.75
477.28	10473.90
477.46	10789.87
477.64	10895.19
477.82	10951.37
478.00	11138.61
478.18	11056.69
478.36	11424.15
478.54	11180.74
478.72	11428.84
478.90	11686.29
479.08	11503.73
479.26	11688.64
479.44	11768.21
479.62	11826.73
479.80	11903.96
479.98	12121.63
480.16	12311.22
480.34	12084.19
480.52	12358.03
480.70	12355.69
480.88	12063.12
481.06	12472.71
481.24	12545.27
481.41	12561.66
481.59	12922.10
481.77	12762.94
481.95	12922.10
482.13	13088.28
482.31	13125.72
482.49	13394.89
482.67	13097.64
482.85	13338.71
483.03	13680.43
483.21	13654.69
483.39	13535.32
483.57	13748.31
483.74	13834.91
483.92	13965.98
484.10	14115.77
484.28	14207.05
484.46	14508.98
484.64	14787.50
484.82	14319.40
485.00	14689.20
485.18	14965.39
485.35	14934.96
485.53	14843.68
485.71	14995.81
485.89	15421.79
486.07	15206.46
486.25	15391.36
486.43	15812.66
486.61	15520.09
486.78	15981.18
486.96	15719.04
487.14	16102.89
487.32	16257.36
487.50	16231.62
487.68	16556.95
487.85	16690.36
488.03	16858.88
488.21	17165.49
488.39	16912.71
488.57	17504.87
488.75	17046.12
488.92	17474.44
489.10	17240.39
489.28	17448.69
489.46	17905.10
489.64	17841.90
489.81	18155.54
489.99	18071.28
490.17	18401.29
490.35	18272.56
490.53	18389.59
490.70	18806.20
490.88	18768.76
491.06	19047.28
491.24	18932.59
491.41	19211.12
491.59	19124.52
491.77	19400.70
491.95	19358.57
492.13	19644.12
492.30	19545.81
492.48	19934.34
492.66	19735.40
492.84	20222.23
493.01	20201.16
493.19	20332.23
493.37	20365.00
493.54	20563.95
493.72	20847.15
493.90	20589.69
494.08	20924.39
494.25	20863.54
494.43	20959.50
494.61	21109.29
494.79	21406.54
494.96	21397.18
495.14	21376.11
495.32	22033.80
495.49	21921.46
495.67	22052.53
495.85	21926.14
496.02	22424.67
496.20	22375.52
496.38	21998.70
496.55	22466.80
496.73	23070.66
496.91	22616.60
497.09	22878.74
497.26	22862.35
497.44	23171.30
497.62	23136.20
497.79	23381.95
497.97	23250.88
498.14	23585.58
498.32	23953.04
498.50	23814.95
498.67	24320.51
498.85	23971.77
499.03	23971.77
499.20	24264.33
499.38	24233.91
499.56	24191.78
499.73	24491.37
499.91	24465.62
500.08	24840.11
500.26	24746.48
500.44	24854.15
500.61	25109.27
500.79	24805.00
500.97	25270.76
501.14	25420.56
501.32	25626.53
501.49	25401.83
501.67	25228.63
501.84	25659.29
502.02	25289.49
502.20	25783.34
502.37	25551.63
502.55	25832.49
502.72	26150.81
502.90	26045.48
503.07	25954.20
503.25	26211.66
503.43	26125.06
503.60	26206.98
503.78	26494.86
503.95	26464.44
504.13	26600.19
504.30	26672.74
504.48	26937.23
504.65	26513.59
504.83	27094.04
505.01	27241.50
505.18	27065.96
505.36	27094.04
505.53	27061.27
505.71	27215.75
505.88	27484.91
506.06	27143.19
506.23	27826.63
506.41	27667.47
506.58	27850.03
506.76	27971.74
506.93	27960.04
507.11	28053.66
507.28	28088.77
507.46	28559.22
507.63	28027.92
507.81	28886.89
507.98	28271.33
508.16	28294.74
508.33	28680.92
508.50	28891.57
508.68	28767.52
508.85	29179.46
509.03	28809.65
509.20	29308.19
509.38	29212.23
509.55	29493.09
509.73	29411.17
509.90	29376.06
510.08	29937.79
510.25	29685.01
510.42	29752.89
510.60	30059.50
510.77	30153.12
510.95	29914.39
511.12	30057.16
511.30	29668.63
511.47	30398.88
511.64	30221.00
511.82	30323.98
511.99	30389.52
512.17	29940.13
512.34	30728.89
512.51	30658.68
512.69	30607.19
512.86	30838.90
513.04	30932.52
513.21	31072.95
513.38	31211.04
513.56	31133.81
513.73	31302.32
513.90	31206.36
514.08	31634.68
514.25	31564.46
514.43	31625.32
514.60	31536.38
514.77	31583.19
514.95	32407.06
515.12	31798.52
515.29	31817.24
515.47	31597.23
515.64	31828.95
515.81	32051.30
515.99	32584.94
516.16	32795.59
516.33	32755.80
516.51	32708.99
516.68	32563.87
516.85	32521.74
517.03	32814.31
517.20	33062.41
517.37	32879.85
517.54	32945.38
517.72	33090.49
517.89	33123.26
518.06	33071.77
518.24	33167.73
518.41	32816.65
518.58	33046.02
518.75	32996.87
518.93	33806.70
519.10	33486.04
519.27	33275.40
519.45	33656.90
519.62	33862.87
519.79	33521.15
519.96	33738.82
520.14	34127.35
520.31	34045.43
520.48	34103.95
520.65	34183.52
520.83	34377.79
521.00	34609.50
521.17	34307.57
521.34	34508.86
521.52	34763.98
521.69	34412.90
521.86	34780.36
522.03	35000.37
522.20	35143.14
522.38	35323.36
522.55	34813.13
522.72	34881.00
522.89	35227.40
523.07	35498.91
523.24	35215.70
523.41	35344.43
523.58	35335.07
523.75	35819.56
523.92	34895.05
524.10	35735.30
524.27	35435.71
524.44	35906.16
524.61	35920.20
524.78	36360.22
524.96	35943.61
525.13	35969.35
525.30	36687.90
525.47	36048.93
525.64	36278.30
525.81	36439.80
525.98	36556.83
526.16	36278.30
526.33	36645.77
526.50	36439.80
526.67	36517.04
526.84	36409.37
527.01	36947.70
527.18	37106.85
527.36	36802.58
527.53	37123.24
527.70	37474.32
527.87	37109.19
528.04	37228.56
528.21	37113.87
528.38	37139.62
528.55	37748.16
528.72	36825.99
528.89	37460.27
529.07	37507.08
529.24	37317.50
529.41	37462.61
529.58	37528.15
529.75	37661.56
529.92	37462.61
530.09	37916.68
530.26	37809.01
530.43	38162.43
530.60	37598.37
530.77	38110.94
530.94	37916.68
531.11	37923.70
531.28	38462.02
531.46	37991.58
531.63	38403.51
531.80	38548.62
531.97	38206.90
532.14	38284.14
532.31	38417.55
532.48	38972.26
532.65	38864.60
532.82	38148.39
532.99	38841.19
533.16	38387.13
533.33	38883.32
533.50	38841.19
533.67	38799.06
533.84	38588.41
534.01	39040.14
534.18	38759.27
534.35	39182.91
534.52	39283.55
534.69	39522.29
534.86	39313.98
535.03	39491.86
535.20	39672.08
535.37	39517.60
535.54	39894.43
535.71	39475.48
535.88	39805.49
536.05	39700.17
536.22	40067.63
536.38	39894.43
536.55	39728.25
536.72	40095.72
536.89	39611.23
537.06	39833.58
537.23	40762.77
537.40	39749.32
537.57	40046.57
537.74	39824.22
537.91	40238.49
538.08	39957.63
538.25	39578.46
538.42	40168.27
538.59	40849.37
538.75	40095.72
538.92	40568.51
539.09	40591.91
539.26	40449.14
539.43	40627.02
539.60	40966.40
539.77	40608.29
539.94	41099.81
540.11	40924.27
540.28	40868.09
540.44	41029.59
540.61	40793.20
540.78	40605.95
540.95	40744.05
541.12	41053.00
541.29	40854.05
541.46	40877.46
541.62	41055.34
541.79	41703.67
541.96	40659.79
542.13	41205.13
542.30	41474.29
542.47	41088.10
542.63	41762.18
542.80	41624.09
542.97	42284.12
543.14	41806.65
543.31	41731.75
543.48	41914.31
543.64	42043.04
543.81	42312.20
543.98	42085.17
544.15	41895.59
544.32	42560.30
544.48	42536.90
544.65	42454.98
544.82	42454.98
544.99	41993.89
545.16	42110.92
545.32	42234.97
545.49	42497.11
545.66	42574.34
545.83	42543.92
546.00	43079.90
546.16	42185.82
546.33	42396.46
546.50	42506.47
546.67	43047.13
546.83	42452.64
547.00	42501.79
547.17	42424.55
547.34	42951.17
547.50	43232.04
547.67	43402.89
547.84	43358.42
548.00	43070.54
548.17	43814.83
548.34	43313.95
548.51	43292.89
548.67	43447.36
548.84	43395.87
549.01	42967.55
549.18	43531.62
549.34	43363.11
549.51	43838.23
549.68	43941.22
549.84	43707.16
550.01	43594.82
550.18	43061.18
550.34	43613.54
550.51	44203.36
550.68	43583.12
550.84	43342.04
551.01	43938.88
551.18	43662.69
551.34	43732.91
551.51	43770.36
551.68	44105.06
551.84	44058.24
552.01	43878.02
552.18	44020.80
552.34	44126.12
552.51	44250.17
552.68	44032.50
552.84	44589.55
553.01	44292.30
553.18	44083.99
553.34	44247.83
553.51	44266.55
553.67	44271.23
553.84	44322.72
554.01	44320.38
554.17	44514.65
554.34	44566.14
554.51	44818.92
554.67	44891.48
554.84	44701.89
555.00	44669.12
555.17	44619.97
555.33	44748.70
555.50	44769.77
555.67	44554.44
555.83	44584.86
556.00	44863.39
556.16	45146.59
556.33	45165.32
556.50	44905.52
556.66	44779.13
556.83	44545.08
556.99	45139.57
557.16	45172.34
557.32	45214.47
557.49	45074.04
557.65	44809.56
557.82	45261.28
557.98	45226.17
558.15	45123.19
558.32	45603.00
558.48	45574.91
558.65	45127.87
558.81	45326.81
558.98	45055.31
559.14	45457.88
559.31	45413.41
559.47	45411.07
559.64	45392.35
559.80	45567.89
559.97	45654.49
560.13	45137.23
560.30	45464.91
560.46	45839.39
560.63	45797.26
560.79	45752.79
560.96	45745.77
561.12	45497.67
561.29	46150.68
561.45	45844.07
561.61	46092.17
561.78	45567.89
561.94	46101.53
562.11	45617.04
562.27	45633.42
562.44	45942.38
562.60	46024.29
562.77	45647.47
562.93	46185.79
563.10	46040.68
563.26	45855.78
563.42	46204.52
563.59	46089.83
563.75	46183.45
563.92	45918.97
564.08	46024.29
564.24	46087.49
564.41	45947.06
564.57	46106.21
564.74	46080.47
564.90	46204.52
565.07	45928.33
565.23	45954.08
565.39	45757.47
565.56	46719.43
565.72	46415.16
565.88	46506.44
566.05	46305.16
566.21	46499.42
566.38	46288.77
566.54	46206.86
566.70	46337.93
566.87	46480.70
567.03	45937.69
567.19	46174.09
567.36	46813.05
567.52	46057.06
567.68	46726.46
567.85	46593.04
568.01	46696.03
568.17	46553.26
568.34	46667.94
568.50	46670.28
568.66	45972.80
568.83	46712.41
568.99	46216.22
569.15	46768.58
569.32	46869.23
569.48	46515.81
569.64	46731.14
569.81	46897.31
569.97	46995.62
570.13	47065.83
570.30	46258.35
570.46	46941.78
570.62	46993.28
570.78	46719.43
570.95	47009.66
571.11	46642.20
571.27	46588.36
571.43	46583.68
571.60	46450.27
571.76	46759.22
571.92	46658.58
572.09	46143.66
572.25	46412.82
572.41	46656.24
572.57	46958.17
572.74	46976.89
572.90	46965.19
573.06	47192.22
573.22	47248.39
573.38	47297.55
573.55	47047.11
573.71	47140.73
573.87	47311.59
574.03	47201.58
574.20	47283.50
574.36	46904.34
574.52	47061.15
574.68	47037.75
574.84	47332.65
575.01	47531.60
575.17	47643.94
575.33	47061.15
575.49	46916.04
575.65	47037.75
575.82	47098.60
575.98	47093.92
576.14	47407.55
576.30	47445.00
576.46	47131.37
576.62	47047.11
576.79	46829.44
576.95	47004.98
577.11	46852.84
577.27	47393.51
577.43	47290.52
577.59	47180.52
577.75	46740.50
577.92	46848.16
578.08	47414.57
578.24	47379.46
578.40	47248.39
578.56	47419.25
578.72	47168.82
578.88	47339.68
579.04	47246.05
579.21	47138.39
579.37	47250.74
579.53	47281.16
579.69	46920.72
579.85	46883.27
580.01	47164.14
580.17	47131.37
580.33	47175.84
580.49	47358.40
580.65	47098.60
580.82	47019.02
580.98	47182.86
581.14	46911.36
581.30	47313.93
581.46	47391.17
581.62	47501.17
581.78	47185.20
581.94	47131.37
582.10	47168.82
582.26	47620.54
582.42	47442.66
582.58	47814.80
582.74	47304.57
582.90	47136.05
583.06	47749.27
583.22	47519.90
583.38	47334.99
583.54	47470.75
583.70	47360.74
583.86	47585.43
584.02	47510.53
584.18	47697.78
584.34	47697.78
584.50	47779.70
584.66	47945.87
584.82	47384.15
584.98	47789.06
585.14	47234.35
585.30	47283.50
585.46	47463.72
585.62	47625.22
585.78	47866.30
585.94	47555.00
586.10	47143.07
586.26	47325.63
586.42	47388.83
586.58	47580.75
586.74	47398.19
586.90	47119.66
587.06	47587.77
587.22	47688.42
587.38	47232.01
587.54	47709.48
587.70	47929.49
587.86	47702.46
588.02	47531.60
588.18	47416.91
588.34	47267.12
588.49	47938.85
588.65	47533.94
588.81	47452.02
588.97	47688.42
589.13	47613.52
589.29	47756.29
589.45	47882.68
589.61	47618.20
589.77	47786.72
589.93	47672.03
