SpectraSuite Data File
++++++++++++++++++++++++++++++++++++
Date: Fri Oct 25 11:25:34 EDT 2013
User: price-jones
Dark Spectrum Present: No
Reference Spectrum Present: No
Number of Sampled Component Spectra: 1
Spectrometers: USB2+H05261
Integration Time (usec): 100000 (USB2+H05261)
Spectra Averaged: 1 (USB2+H05261)
Boxcar Smoothing: 0 (USB2+H05261)
Correct for Electrical Dark: No (USB2+H05261)
Strobe/Lamp Enabled: No (USB2+H05261)
Correct for Detector Non-linearity: No (USB2+H05261)
Correct for Stray Light: No (USB2+H05261)
Number of Pixels in Processed Spectrum: 2048
>>>>>Begin Processed Spectral Data<<<<<
365.73	236.39
365.92	236.39
366.12	236.39
366.32	166.18
366.52	128.73
366.72	154.48
366.91	198.95
367.11	198.95
367.31	156.82
367.51	142.77
367.70	88.94
367.90	72.56
368.10	112.35
368.30	142.77
368.49	98.30
368.69	140.43
368.89	198.95
369.09	156.82
369.28	196.60
369.48	170.86
369.68	161.50
369.87	170.86
370.07	149.79
370.27	203.63
370.47	332.36
370.66	580.45
370.86	603.86
371.06	660.03
371.25	716.20
371.45	685.78
371.65	678.76
371.84	695.14
372.04	667.05
372.24	744.29
372.44	730.25
372.63	706.84
372.83	737.27
373.03	837.91
373.22	746.63
373.42	816.85
373.62	805.14
373.81	772.38
374.01	828.55
374.21	800.46
374.40	781.74
374.60	807.48
374.79	814.51
374.99	781.74
375.19	828.55
375.38	784.08
375.58	847.27
375.78	856.64
375.97	823.87
376.17	901.11
376.37	880.04
376.56	917.49
376.76	875.36
376.95	826.21
377.15	966.64
377.35	819.19
377.54	854.30
377.74	912.81
377.93	877.70
378.13	929.19
378.33	891.74
378.52	830.89
378.72	966.64
378.91	976.00
379.11	987.71
379.31	940.90
379.50	954.94
379.70	980.68
379.89	1004.09
380.09	1015.79
380.28	980.68
380.48	976.00
380.68	1006.43
380.87	985.37
381.07	1025.15
381.26	1069.62
381.46	968.98
381.65	1020.47
381.85	1102.39
382.04	964.30
382.24	1104.73
382.43	999.41
382.63	1158.57
382.83	1118.78
383.02	1104.73
383.22	1135.16
383.41	1128.14
383.61	1107.07
383.80	1069.62
384.00	1083.67
384.19	1156.22
384.39	1078.99
384.58	1191.33
384.78	1109.41
384.97	1069.62
385.17	1128.14
385.36	1111.75
385.56	1184.31
385.75	1149.20
385.95	1188.99
386.14	1317.72
386.34	1097.71
386.53	1221.76
386.72	1203.04
386.92	1275.59
387.11	1228.78
387.31	1242.82
387.50	1268.57
387.70	1254.53
387.89	1291.98
388.09	1266.23
388.28	1256.87
388.48	1263.89
388.67	1385.60
388.86	1357.51
389.06	1299.00
389.25	1334.11
389.45	1331.76
389.64	1373.89
389.84	1434.75
390.03	1383.26
390.22	1343.47
390.42	1378.58
390.61	1373.89
390.81	1394.96
391.00	1418.36
391.19	1380.92
391.39	1511.99
391.58	1448.79
391.78	1488.58
391.97	1458.15
392.16	1345.81
392.36	1516.67
392.55	1479.22
392.75	1500.28
392.94	1427.73
393.13	1448.79
393.33	1446.45
393.52	1547.09
393.71	1617.31
393.91	1638.38
394.10	1652.42
394.29	1516.67
394.49	1600.93
394.68	1624.33
394.88	1619.65
395.07	1699.23
395.26	1645.40
395.46	1643.06
395.65	1757.74
395.84	1659.44
396.04	1753.06
396.23	1839.66
396.42	1664.12
396.62	1739.02
396.81	1797.53
397.00	1741.36
397.19	1661.78
397.39	1764.76
397.58	1874.77
397.77	1785.83
397.97	1851.36
398.16	1767.10
398.35	1849.02
398.55	1792.85
398.74	1842.00
398.93	2029.24
399.12	1806.89
399.32	1849.02
399.51	1872.43
399.70	2031.58
399.90	1900.52
400.09	2015.20
400.28	1991.80
400.47	1959.03
400.67	2031.58
400.86	2090.10
401.05	2139.25
401.24	2132.23
401.44	2160.31
401.63	2097.12
401.82	2106.48
402.01	2101.80
402.21	2139.25
402.40	2127.55
402.59	2172.02
402.78	2253.94
402.97	2225.85
403.17	2237.55
403.36	2277.34
403.55	2293.72
403.74	2354.58
403.93	2312.45
404.13	2392.03
404.32	2340.54
404.51	2373.30
404.70	2434.16
404.89	2296.07
405.09	2401.39
405.28	2417.77
405.47	2415.43
405.66	2424.80
405.85	2525.44
406.05	2492.67
406.24	2569.91
406.43	2619.06
406.62	2619.06
406.81	2710.34
407.00	2607.36
407.20	2576.93
407.39	2541.82
407.58	2719.70
407.77	2693.96
407.96	2705.66
408.15	2733.75
408.34	2612.04
408.54	2794.60
408.73	2780.56
408.92	2923.33
409.11	2885.88
409.30	3007.59
409.49	2818.00
409.68	2923.33
409.87	2867.16
410.07	2853.11
410.26	3070.78
410.45	2984.18
410.64	3054.40
410.83	3075.46
411.02	2960.78
411.21	3169.09
411.40	3129.30
411.59	3098.87
411.78	3155.04
411.98	3122.27
412.17	3243.98
412.36	3396.12
412.55	3421.86
412.74	3337.60
412.93	3405.48
413.12	3391.44
413.31	3581.02
413.50	3431.23
413.69	3431.23
413.88	3695.71
414.07	3501.44
414.26	3634.85
414.45	3658.26
414.64	3831.46
414.83	3662.94
415.02	3843.16
415.22	3747.20
415.41	3918.06
415.60	3941.46
415.79	3801.03
415.98	3981.25
416.17	3995.29
416.36	3969.55
416.55	4032.74
416.74	4056.15
416.93	4107.64
417.12	4159.13
417.31	4189.56
417.50	4138.07
417.69	4241.05
417.88	4292.54
418.07	4142.75
418.26	4224.67
418.45	4234.03
418.64	4372.12
418.83	4440.00
419.02	4421.27
419.21	4442.34
419.39	4332.33
419.58	4456.38
419.77	4346.37
419.96	4444.68
420.15	4662.35
420.34	4505.53
420.53	4484.47
420.72	4599.15
420.91	4772.35
421.10	4690.43
421.29	4676.39
421.48	4755.97
421.67	4795.76
421.86	4629.58
422.05	4760.65
422.24	4788.74
422.43	4816.82
422.61	4858.95
422.80	4781.71
422.99	4835.55
423.18	4971.30
423.37	4990.02
423.56	4882.36
423.75	4947.89
423.94	4877.68
424.13	4610.86
424.32	4781.71
424.50	4931.51
424.69	5081.30
424.88	4966.62
425.07	5013.43
425.26	4933.85
425.45	4910.44
425.64	4849.59
425.83	4891.72
426.01	4973.64
426.20	5006.41
426.39	5078.96
426.58	5083.64
426.77	5001.72
426.96	5116.41
427.15	5107.05
427.33	5048.54
427.52	5174.92
427.71	5254.50
427.90	5287.27
428.09	5296.63
428.28	5305.99
428.46	5373.87
428.65	5266.21
428.84	5373.87
429.03	5465.15
429.22	5263.86
429.40	5607.92
429.59	5444.09
429.78	5254.50
429.97	5167.90
430.16	5446.43
430.34	5645.37
430.53	5701.54
430.72	5654.73
430.91	5633.67
431.10	5504.94
431.28	5720.27
431.47	5738.99
431.66	5947.30
431.85	5722.61
432.03	5961.34
432.22	6071.35
432.41	5921.56
432.60	5916.87
432.79	5940.28
432.97	6171.99
433.16	6052.63
433.35	5888.79
433.54	5916.87
433.72	6193.06
433.91	6097.10
434.10	6012.84
434.28	6085.39
434.47	6354.55
434.66	6225.82
434.85	6260.93
435.03	6237.53
435.22	6207.10
435.41	6361.58
435.59	6427.11
435.78	6523.07
435.97	6530.09
436.16	6399.02
436.34	6242.21
436.53	6424.77
436.72	6768.83
436.90	6452.86
437.09	6539.46
437.28	6429.45
437.46	6743.08
437.65	6520.73
437.84	6738.40
438.02	6686.91
438.21	6827.34
438.40	6612.01
438.58	6923.30
438.77	6967.77
438.96	6827.34
439.14	7061.40
439.33	7180.76
439.52	7136.29
439.70	7176.08
439.89	7260.34
440.08	7302.47
440.26	7398.43
440.45	7412.48
440.63	7459.29
440.82	7590.36
441.01	7550.57
441.19	7723.77
441.38	7630.15
441.57	7627.81
441.75	7693.34
441.94	7967.18
442.12	7946.12
442.31	7997.61
442.50	7911.01
442.68	7943.78
442.87	7903.99
443.05	8168.47
443.24	8006.97
443.43	8065.49
443.61	8241.03
443.80	8252.73
443.98	8159.11
444.17	7906.33
444.35	8215.28
444.54	8198.90
444.73	8248.05
444.91	8145.06
445.10	8465.72
445.28	8327.63
445.47	8198.90
445.65	8264.43
445.84	8301.88
446.02	8423.59
446.21	8496.14
446.39	8425.93
446.58	8397.84
446.77	8468.06
446.95	8217.62
447.14	8397.84
447.32	8407.20
447.51	8557.00
447.69	8404.86
447.88	8428.27
448.06	8428.27
448.25	8435.29
448.43	8505.51
448.62	8603.81
448.80	8470.40
448.99	8631.90
449.17	8519.55
449.36	8505.51
449.54	8699.77
449.73	9018.08
449.91	9039.15
450.10	9076.60
450.28	9055.53
450.46	9188.94
450.65	9067.24
450.83	9081.28
451.02	8896.38
451.20	9184.26
451.39	9076.60
451.57	9004.04
451.76	9013.40
451.94	9001.70
452.13	9312.99
452.31	9205.33
452.49	9060.21
452.68	9275.54
452.86	9322.35
453.05	9373.85
453.23	9376.19
453.42	9301.29
453.60	9465.13
453.78	9675.77
453.97	9390.23
454.15	9628.96
454.34	9589.17
454.52	9586.83
454.70	9830.25
454.89	9668.75
455.07	9682.80
455.26	9844.29
455.44	9729.61
455.62	9792.80
455.81	9921.53
455.99	9818.55
456.17	9947.28
456.36	10052.60
456.54	10132.18
456.73	10235.16
456.91	10251.55
457.09	10363.89
457.28	10448.15
457.46	10228.14
457.64	10368.57
457.83	10637.73
458.01	10441.13
458.19	10782.85
458.38	10537.09
458.56	10740.72
458.74	10600.29
458.93	10738.38
459.11	10642.42
459.29	10684.55
459.48	10874.13
459.66	10665.82
459.84	10785.19
460.03	10853.06
460.21	11140.95
460.39	11162.01
460.57	10920.94
460.76	10796.89
460.94	11087.12
461.12	11000.52
461.31	11037.97
461.49	11246.27
461.67	11126.91
461.85	11445.22
462.04	11293.08
462.22	11552.88
462.40	11407.77
462.59	11377.34
462.77	11410.11
462.95	11648.85
463.13	11475.65
463.32	11510.75
463.50	11763.53
463.68	11571.61
463.86	11901.62
464.05	11681.61
464.23	11660.55
464.41	11859.49
464.59	11449.90
464.78	12020.99
464.96	11915.67
465.14	11705.02
465.32	11913.33
465.50	12250.36
465.69	12294.83
465.87	11999.93
466.05	12006.95
466.23	11950.78
466.41	12079.50
466.60	12313.56
466.78	12131.00
466.96	12271.43
467.14	12353.35
467.32	12215.26
467.51	12652.94
467.69	12236.32
467.87	12329.94
468.05	12592.08
468.23	12475.06
468.41	12191.85
468.60	12549.95
468.78	12870.61
468.96	12503.14
469.14	12549.95
469.32	12596.76
469.50	12627.19
469.69	12931.46
469.87	13121.04
470.05	13067.21
470.23	13284.88
470.41	13102.32
470.59	13212.32
470.77	13160.83
470.95	13359.78
471.14	13462.76
471.32	13060.19
471.50	13586.81
471.68	13755.33
471.86	13774.05
472.04	13657.03
472.22	14108.75
472.40	13638.30
472.58	13823.20
472.77	13968.32
472.95	14045.55
473.13	14347.48
473.31	13968.32
473.49	14132.15
473.67	14193.01
473.85	13965.98
474.03	14752.40
474.21	14396.64
474.39	14698.56
474.57	14640.05
474.75	14567.49
474.93	14993.47
475.12	14904.53
475.30	15112.84
475.48	14834.32
475.66	15103.48
475.84	14984.11
476.02	15040.28
476.20	15367.96
476.38	15714.36
476.56	15716.70
476.74	15955.43
476.92	15559.88
477.10	15604.35
477.28	16058.42
477.46	15941.39
477.64	16397.79
477.82	16353.32
478.00	16772.28
478.18	16594.40
478.36	16893.99
478.54	17001.65
478.72	17191.23
478.90	17205.28
479.08	17324.65
479.26	17610.19
479.44	17572.74
479.62	17750.62
479.80	17975.31
479.98	18038.51
480.16	18600.24
480.34	18375.55
480.52	18356.82
480.70	18455.12
480.88	18298.31
481.06	18773.44
481.24	18778.12
481.41	18862.38
481.59	19208.78
481.77	19288.35
481.95	19356.23
482.13	19655.82
482.31	19239.20
482.49	20018.60
482.67	20346.28
482.85	20156.69
483.03	20231.59
483.21	20589.69
483.39	20964.18
483.57	20456.28
483.74	21165.46
483.92	21181.85
484.10	21088.23
484.28	21748.26
484.46	22111.04
484.64	22384.88
484.82	21996.35
485.00	22548.72
485.18	22857.67
485.35	22647.02
485.53	22958.31
485.71	22682.13
485.89	23576.22
486.07	23384.29
486.25	23435.78
486.43	23604.30
486.61	24114.54
486.78	24180.07
486.96	23850.06
487.14	24456.26
487.32	24512.43
487.50	24837.76
487.68	24720.74
487.85	25364.39
488.03	25291.83
488.21	25790.36
488.39	25820.79
488.57	25706.10
488.75	26132.08
488.92	26403.58
489.10	26436.35
489.28	26670.40
489.46	26801.47
489.64	26808.50
489.81	27716.62
489.99	27721.30
490.17	27232.13
490.35	27992.81
490.53	28189.41
490.70	28400.06
490.88	28290.06
491.06	28648.16
491.24	28608.37
491.41	28828.38
491.59	29160.73
491.77	29088.18
491.95	29216.91
492.13	29703.74
492.30	29881.62
492.48	29757.57
492.66	29799.70
492.84	30443.35
493.01	30476.12
493.19	30740.60
493.37	30742.94
493.54	31262.54
493.72	31234.45
493.90	31412.33
494.08	31707.24
494.25	31805.54
494.43	32016.19
494.61	32313.44
494.79	32215.13
494.96	32151.94
495.14	32325.14
495.32	33099.86
495.49	32910.27
495.67	33106.88
495.85	33558.60
496.02	33841.81
496.20	33593.71
496.38	33825.42
496.55	34134.37
496.73	34890.37
496.91	34466.73
497.09	34754.61
497.26	35117.40
497.44	34911.43
497.62	35000.37
497.79	35264.85
497.97	35335.07
498.14	35711.89
498.32	36320.43
498.50	36041.91
498.67	36456.18
498.85	36341.50
499.03	36652.79
499.20	36851.73
499.38	36996.85
499.56	37053.02
499.73	37404.10
499.91	37476.66
500.08	37572.62
500.26	36999.19
500.44	37331.54
500.61	37497.72
500.79	37303.46
500.97	37413.46
501.14	38345.00
501.32	38321.59
501.49	38394.15
501.67	38394.15
501.84	39491.86
502.02	38895.02
502.20	39365.47
502.37	38871.62
502.55	38773.31
502.72	39358.45
502.90	39529.31
503.07	39276.53
503.25	39569.10
503.43	39248.44
503.60	39922.52
503.78	39643.99
503.95	40547.44
504.13	40184.66
504.30	40502.97
504.48	40123.80
504.65	40542.76
504.83	40870.43
505.01	41265.99
505.18	41137.26
505.36	41392.37
505.53	41462.59
505.71	41324.50
505.88	41338.54
506.06	41069.38
506.23	41918.99
506.41	41572.60
506.58	42005.59
506.76	41958.78
506.93	42190.50
507.11	42174.11
507.28	42616.47
507.46	42927.77
507.63	42658.60
507.81	42916.06
507.98	42677.33
508.16	42930.11
508.33	42892.66
508.50	42876.27
508.68	43695.46
508.85	43899.09
509.03	43625.25
509.20	43711.84
509.38	44294.64
509.55	43903.77
509.73	44643.38
509.90	44329.75
510.08	44151.87
510.25	44435.07
510.42	44924.24
510.60	44961.69
510.77	44814.24
510.95	45104.46
511.12	45237.87
511.30	45277.66
511.47	44889.13
511.64	44884.45
511.82	45715.34
511.99	45455.54
512.17	45869.82
512.34	45745.77
512.51	46614.11
512.69	46019.61
512.86	46361.33
513.04	46256.01
513.21	46380.06
513.38	47054.13
513.56	46827.10
513.73	46433.89
513.90	46719.43
514.08	46724.11
514.25	46960.51
514.43	47098.60
514.60	46721.77
514.77	47157.11
514.95	47377.12
515.12	47618.20
515.29	47381.80
515.47	47660.33
515.64	47634.58
515.81	47707.14
515.99	48020.77
516.16	48697.19
516.33	47732.89
516.51	48793.15
516.68	48306.32
516.85	48533.35
517.03	48643.35
517.20	48708.89
517.37	48509.94
517.54	48662.08
517.72	48818.89
517.89	48617.61
518.06	48779.10
518.24	48980.39
518.41	49088.06
518.58	49200.40
518.75	49003.80
518.93	49593.61
519.10	49333.81
519.27	49909.58
519.45	49188.70
519.62	49680.21
519.79	50035.97
519.96	49762.13
520.14	49986.82
520.31	49839.37
520.48	50330.88
520.65	50220.87
520.83	50468.97
521.00	50602.38
521.17	50410.46
521.34	50768.56
521.52	50681.96
521.69	50791.97
521.86	50876.22
522.03	50859.84
522.20	51182.84
522.38	51201.56
522.55	51030.70
522.72	51011.98
522.89	50972.19
523.07	51274.12
523.24	51599.45
523.41	51746.90
523.58	51388.80
523.75	51744.56
523.92	51789.03
524.10	51866.27
524.27	51938.83
524.44	51838.18
524.61	51831.16
524.78	51913.08
524.96	52151.82
525.13	52383.53
525.30	52470.13
525.47	52526.30
525.64	52322.68
525.81	52369.49
525.98	52355.44
526.16	52493.54
526.33	52655.03
526.50	52673.76
526.67	52519.28
526.84	52856.32
527.01	52968.66
527.18	52720.57
527.36	52966.32
527.53	52879.72
527.70	53095.05
527.87	53162.93
528.04	52914.83
528.21	53301.02
528.38	53277.61
528.55	53078.67
528.72	53219.10
528.89	53186.33
529.07	53443.79
529.24	53654.44
529.41	53336.13
529.58	53705.93
529.75	53577.20
529.92	53654.44
530.09	53708.27
530.26	53724.66
530.43	53837.00
530.60	53635.72
530.77	53607.63
530.94	54131.91
531.11	53729.34
531.28	53750.40
531.46	54164.68
531.63	54031.27
531.80	54075.74
531.97	54096.80
532.14	54403.41
532.31	54415.11
532.48	54316.81
532.65	54621.08
532.82	54223.19
532.99	54653.85
533.16	54403.41
533.33	54740.45
533.50	54590.66
533.67	54670.23
533.84	54333.20
534.01	54681.94
534.18	54859.82
534.35	55004.93
534.52	54883.22
534.69	54925.35
534.86	54923.01
535.03	54972.16
535.20	55119.62
535.37	55267.07
535.54	55325.58
535.71	55213.24
535.88	55458.99
536.05	55433.25
536.22	55508.14
536.38	55552.62
536.55	55367.71
536.72	55454.31
536.89	55449.63
537.06	55426.23
537.23	55543.25
537.40	55524.53
537.57	55657.94
537.74	55945.83
537.91	55873.27
538.08	55884.97
538.25	55412.18
538.42	55962.21
538.59	56093.28
538.75	55887.31
538.92	55664.96
539.09	56104.98
539.26	56198.60
539.43	55896.67
539.60	56233.71
539.77	56034.77
539.94	56406.91
540.11	55950.51
540.28	56409.25
540.44	56243.07
540.61	56226.69
540.78	56313.29
540.95	56416.27
541.12	56296.91
541.29	56182.22
541.46	56423.29
541.62	56296.91
541.79	56409.25
541.96	56236.05
542.13	56556.70
542.30	56519.26
542.47	56601.18
542.63	56711.18
542.80	56865.66
542.97	56999.07
543.14	56989.70
543.31	56947.57
543.48	57286.95
543.64	57240.14
543.81	57343.12
543.98	57027.15
544.15	57272.91
544.32	57251.84
544.48	57333.76
544.65	57340.78
544.82	57249.50
544.99	57233.12
545.16	57338.44
545.32	57158.22
545.49	57738.68
545.66	57528.03
545.83	57434.41
546.00	57668.46
546.16	57460.15
546.33	57169.93
546.50	57104.39
546.67	57605.26
546.83	57359.51
547.00	57769.10
547.17	57640.37
547.34	57726.97
547.50	57661.44
547.67	57961.03
547.84	58026.56
548.00	58024.22
548.17	58014.86
548.34	58106.14
548.51	58108.48
548.67	58080.39
548.84	57991.45
549.01	57982.09
549.18	58047.63
549.34	58068.69
549.51	58136.57
549.68	58174.02
549.84	58010.18
550.01	58363.60
550.18	58166.99
550.34	58375.30
550.51	58454.88
550.68	58169.33
550.84	58188.06
551.01	58492.33
551.18	58410.41
551.34	58379.98
551.51	58384.66
551.68	58440.84
551.84	58443.18
552.01	58438.50
552.18	58550.84
552.34	58349.56
552.51	58382.32
552.68	58321.47
552.84	58628.08
553.01	58862.13
553.18	58625.74
553.34	58908.94
553.51	58569.57
553.67	58618.72
553.84	59051.72
554.01	58780.21
554.17	58892.56
554.34	58934.69
554.51	58913.62
554.67	58876.18
554.84	59021.29
555.00	59018.95
555.17	58719.36
555.33	58939.37
555.50	58651.48
555.67	58871.49
555.83	58885.54
556.00	58944.05
556.16	59437.90
556.33	59253.00
556.50	59025.97
556.66	59217.89
556.83	59138.32
556.99	59264.70
557.16	59475.35
557.32	59327.90
557.49	59545.57
557.65	59070.44
557.82	59283.43
557.98	59311.52
558.15	59325.56
558.32	59561.95
558.48	59348.96
558.65	59384.07
558.81	59421.52
558.98	59302.15
559.14	59393.43
559.31	59648.55
559.47	59704.73
559.64	59622.81
559.80	59529.19
559.97	59533.87
560.13	59578.34
560.30	59515.14
560.46	59524.50
560.63	59491.74
560.79	59686.00
560.96	59957.50
561.12	59746.86
561.29	59746.86
561.45	59959.84
561.61	59824.09
561.78	59854.52
561.94	59901.33
562.11	59625.15
562.27	59969.21
562.44	59929.42
562.60	60069.85
562.77	59693.02
562.93	59760.90
563.10	60018.36
563.26	59875.58
563.42	60175.17
563.59	59903.67
563.75	59758.56
563.92	59913.03
564.08	60018.36
564.24	59973.89
564.41	60058.15
564.57	59887.29
564.74	60116.66
564.90	60060.49
565.07	60044.10
565.23	60001.97
565.39	60119.00
565.56	59957.50
565.72	60004.31
565.88	60243.05
566.05	60072.19
566.21	60062.83
566.38	60081.55
566.54	60095.60
566.70	60189.22
566.87	60116.66
567.03	59936.44
567.19	60456.04
567.36	60130.70
567.52	60151.77
567.68	60441.99
567.85	60346.03
568.01	60357.74
568.17	60179.85
568.34	60282.84
568.50	60067.51
568.66	60315.61
568.83	60390.50
568.99	60266.45
569.15	60254.75
569.32	60381.14
569.48	60189.22
569.64	60427.95
569.81	60114.32
569.97	60315.61
570.13	60528.59
570.30	60156.45
570.46	60381.14
570.62	60439.65
570.78	60540.30
570.95	60472.42
571.11	60472.42
571.27	60364.76
571.43	60371.78
571.60	60432.63
571.76	60371.78
571.92	60362.42
572.09	60404.55
572.25	60521.57
572.41	60589.45
572.57	60470.08
572.74	60671.37
572.90	60439.65
573.06	60654.98
573.22	60713.50
573.38	60549.66
573.55	60486.46
573.71	60687.75
573.87	60505.19
574.03	60301.56
574.20	60584.77
574.36	60514.55
574.52	60566.04
574.68	60662.00
574.84	60519.23
575.01	60533.28
575.17	60505.19
575.33	60697.11
575.49	60383.48
575.65	60870.31
575.82	60544.98
575.98	60601.15
576.14	60764.99
576.30	60779.03
576.46	60708.82
576.62	60608.17
576.79	60720.52
576.95	60640.94
577.11	60643.28
577.27	60736.90
577.43	60793.07
577.59	60336.67
577.75	60779.03
577.92	60523.91
578.08	60657.32
578.24	60828.18
578.40	60772.01
578.56	60746.26
578.72	60837.54
578.88	60692.43
579.04	60963.93
579.21	60882.02
579.37	60741.58
579.53	60924.14
579.69	60732.22
579.85	60477.10
580.01	60769.67
580.17	60790.73
580.33	60772.01
580.49	60748.60
580.65	60844.57
580.82	60608.17
580.98	60582.43
581.14	60617.53
581.30	60825.84
581.46	60750.94
581.62	60772.01
581.78	60865.63
581.94	60828.18
582.10	60912.44
582.26	60757.97
582.42	60729.88
582.58	60856.27
582.74	60760.31
582.90	60786.05
583.06	60931.17
583.22	60657.32
583.38	60781.37
583.54	60692.43
583.70	60802.44
583.86	60954.57
584.02	60900.74
584.18	60977.98
584.34	60835.20
584.50	61052.87
584.66	60870.31
584.82	60769.67
584.98	60975.64
585.14	61027.13
585.30	60959.25
585.46	60987.34
585.62	60851.59
585.78	61001.38
585.94	60809.46
586.10	60919.46
586.26	60921.80
586.42	60968.61
586.58	61109.05
586.74	60975.64
586.90	60807.12
587.06	60872.65
587.22	60858.61
587.38	60795.42
587.54	60959.25
587.70	61127.77
587.86	61048.19
588.02	60954.57
588.18	60959.25
588.34	60910.10
588.49	60788.39
