SpectraSuite Data File
++++++++++++++++++++++++++++++++++++
Date: Fri Oct 25 10:47:11 EDT 2013
User: price-jones
Dark Spectrum Present: No
Reference Spectrum Present: No
Number of Sampled Component Spectra: 1
Spectrometers: USB2+H05261
Integration Time (usec): 100000 (USB2+H05261)
Spectra Averaged: 1 (USB2+H05261)
Boxcar Smoothing: 0 (USB2+H05261)
Correct for Electrical Dark: No (USB2+H05261)
Strobe/Lamp Enabled: No (USB2+H05261)
Correct for Detector Non-linearity: No (USB2+H05261)
Correct for Stray Light: No (USB2+H05261)
Number of Pixels in Processed Spectrum: 2048
>>>>>Begin Processed Spectral Data<<<<<
365.73	159.16
365.92	159.16
366.12	159.16
366.32	81.92
366.52	7.02
366.72	32.77
366.91	51.49
367.11	65.54
367.31	0.00
367.51	51.49
367.70	58.51
367.90	100.64
368.10	70.22
368.30	58.51
368.49	18.72
368.69	102.98
368.89	65.54
369.09	95.96
369.28	147.45
369.48	0.00
369.68	102.98
369.87	112.35
370.07	95.96
370.27	163.84
370.47	177.88
370.66	369.80
370.86	355.76
371.06	454.06
371.25	463.43
371.45	430.66
371.65	526.62
371.84	425.98
372.04	498.53
372.24	409.59
372.44	489.17
372.63	580.45
372.83	416.62
373.03	543.00
373.22	449.38
373.42	451.72
373.62	566.41
373.81	528.96
374.01	517.26
374.21	519.60
374.40	505.56
374.60	484.49
374.79	528.96
374.99	465.77
375.19	592.16
375.38	624.92
375.58	528.96
375.78	615.56
375.97	538.32
376.17	620.24
376.37	554.71
376.56	629.60
376.76	554.71
376.95	636.63
377.15	624.92
377.35	528.96
377.54	667.05
377.74	608.54
377.93	641.31
378.13	631.94
378.33	629.60
378.52	575.77
378.72	634.29
378.91	550.03
379.11	564.07
379.31	653.01
379.50	613.22
379.70	645.99
379.89	695.14
380.09	695.14
380.28	589.82
380.48	615.56
380.68	610.88
380.87	585.13
381.07	685.78
381.26	690.46
381.46	702.16
381.65	690.46
381.85	650.67
382.04	594.50
382.24	648.33
382.43	620.24
382.63	704.50
382.83	664.71
383.02	716.20
383.22	669.39
383.41	669.39
383.61	760.67
383.80	688.12
384.00	702.16
384.19	690.46
384.39	671.73
384.58	709.18
384.78	718.54
384.97	737.27
385.17	706.84
385.36	711.52
385.56	816.85
385.75	786.42
385.95	788.76
386.14	777.06
386.34	727.91
386.53	788.76
386.72	781.74
386.92	814.51
387.11	767.70
387.31	835.57
387.50	819.19
387.70	746.63
387.89	868.34
388.09	814.51
388.28	800.46
388.48	805.14
388.67	938.55
388.86	884.72
389.06	894.08
389.25	880.04
389.45	931.53
389.64	950.26
389.84	894.08
390.03	929.19
390.22	891.74
390.42	805.14
390.61	877.70
390.81	915.15
391.00	917.49
391.19	973.66
391.39	945.58
391.58	889.40
391.78	870.68
391.97	1029.84
392.16	908.13
392.36	898.77
392.55	950.26
392.75	917.49
392.94	940.90
393.13	954.94
393.33	1006.43
393.52	985.37
393.71	1018.13
393.91	968.98
394.10	929.19
394.29	1039.20
394.49	1069.62
394.68	1137.50
394.88	1156.22
395.07	1020.47
395.26	1137.50
395.46	1001.75
395.65	1151.54
395.84	1149.20
396.04	1172.61
396.23	1081.33
396.42	1198.35
396.62	1130.48
396.81	1203.04
397.00	1104.73
397.19	1139.84
397.39	1090.69
397.58	1170.27
397.77	1158.57
397.97	1207.72
398.16	1226.44
398.35	1357.51
398.55	1163.25
398.74	1266.23
398.93	1324.74
399.12	1226.44
399.32	1235.80
399.51	1219.42
399.70	1362.19
399.90	1376.24
400.09	1404.32
400.28	1289.64
400.47	1301.34
400.67	1394.96
400.86	1406.66
401.05	1376.24
401.24	1453.47
401.44	1437.09
401.63	1516.67
401.82	1425.39
402.01	1399.64
402.21	1444.11
402.40	1511.99
402.59	1493.26
402.78	1535.39
402.97	1514.33
403.17	1593.90
403.36	1467.52
403.55	1572.84
403.74	1612.63
403.93	1572.84
404.13	1678.16
404.32	1586.88
404.51	1551.78
404.70	1645.40
404.89	1565.82
405.09	1673.48
405.28	1605.61
405.47	1624.33
405.66	1664.12
405.85	1729.66
406.05	1645.40
406.24	1802.21
406.43	1809.23
406.62	1769.44
406.81	1809.23
407.00	1764.76
407.20	1769.44
407.39	1767.10
407.58	1839.66
407.77	1820.94
407.96	1888.81
408.15	1888.81
408.34	1827.96
408.54	1902.86
408.73	1937.96
408.92	1980.09
409.11	1982.43
409.30	1898.17
409.49	1940.30
409.68	2031.58
409.87	2026.90
410.07	2036.27
410.26	2012.86
410.45	1989.46
410.64	2085.42
410.83	2127.55
411.02	2120.53
411.21	2188.40
411.40	2214.15
411.59	2314.79
411.78	2258.62
411.98	2289.04
412.17	2218.83
412.36	2265.64
412.55	2417.77
412.74	2270.32
412.93	2352.24
413.12	2448.20
413.31	2555.86
413.50	2399.05
413.69	2466.92
413.88	2665.87
414.07	2495.01
414.26	2516.08
414.45	2471.61
414.64	2429.48
414.83	2609.70
415.02	2663.53
415.22	2530.12
415.41	2775.88
415.60	2605.02
415.79	2649.49
415.98	2874.18
416.17	2846.09
416.36	2890.56
416.55	2867.16
416.74	2743.11
416.93	2860.13
417.12	2822.69
417.31	2829.71
417.50	2832.05
417.69	3045.04
417.88	2878.86
418.07	2998.23
418.26	2928.01
418.45	3005.25
418.64	3117.59
418.83	3103.55
419.02	3080.14
419.21	3323.56
419.39	3094.19
419.58	3035.67
419.77	3016.95
419.96	3199.51
420.15	3300.16
420.34	3220.58
420.53	3222.92
420.72	3258.03
420.91	3325.90
421.10	3272.07
421.29	3407.82
421.48	3222.92
421.67	3342.28
421.86	3309.52
422.05	3342.28
422.24	3274.41
422.43	3321.22
422.61	3445.27
422.80	3471.01
422.99	3356.33
423.18	3517.83
423.37	3494.42
423.56	3428.88
423.75	3372.71
423.94	3407.82
424.13	3173.77
424.32	3314.20
424.50	3538.89
424.69	3590.38
424.88	3583.36
425.07	3442.93
425.26	3438.25
425.45	3447.61
425.64	3321.22
425.83	3419.52
426.01	3494.42
426.20	3506.12
426.39	3445.27
426.58	3559.95
426.77	3454.63
426.96	3566.98
427.15	3545.91
427.33	3604.42
427.52	3548.25
427.71	3632.51
427.90	3630.17
428.09	3791.67
428.28	3627.83
428.46	3592.72
428.65	3627.83
428.84	3705.07
429.03	3904.01
429.22	3632.51
429.40	3723.79
429.59	3655.92
429.78	3749.54
429.97	3562.30
430.16	3719.11
430.34	3611.45
430.53	3779.97
430.72	3859.54
430.91	3812.73
431.10	3698.05
431.28	4018.70
431.47	3988.27
431.66	4051.47
431.85	4004.66
432.03	4117.00
432.22	4102.96
432.41	4023.38
432.60	4217.65
432.79	4072.53
432.97	4133.39
433.16	4145.09
433.35	4135.73
433.54	4065.51
433.72	4175.52
433.91	4166.15
434.10	4400.21
434.28	4189.56
434.47	4236.37
434.66	4231.69
434.85	4510.21
435.03	4285.52
435.22	4404.89
435.41	4503.19
435.59	4454.04
435.78	4468.08
435.97	4475.10
436.16	4615.54
436.34	4510.21
436.53	4573.41
436.72	4615.54
436.90	4435.32
437.09	4613.20
437.28	4493.83
437.46	4739.58
437.65	4638.94
437.84	4617.88
438.02	4533.62
438.21	4709.16
438.40	4507.87
438.58	4800.44
438.77	4758.31
438.96	4718.52
439.14	4910.44
439.33	5036.83
439.52	4990.02
439.70	5090.67
439.89	4922.15
440.08	5001.72
440.26	5011.09
440.45	5121.09
440.63	4966.62
440.82	5203.01
441.01	5198.33
441.19	5296.63
441.38	5341.10
441.57	5343.44
441.75	5385.57
441.94	5479.19
442.12	5544.73
442.31	5523.66
442.50	5614.95
442.68	5767.08
442.87	5516.64
443.05	5544.73
443.24	5643.03
443.43	5467.49
443.61	5453.45
443.80	5865.38
443.98	5530.69
444.17	5364.51
444.35	5788.14
444.54	5788.14
444.73	5664.10
444.91	5633.67
445.10	5694.52
445.28	5760.06
445.47	5717.93
445.65	5636.01
445.84	5743.67
446.02	5872.40
446.21	5771.76
446.39	5760.06
446.58	6033.90
446.77	5703.89
446.95	5811.55
447.14	5809.21
447.32	5973.05
447.51	5874.74
447.69	5844.32
447.88	5916.87
448.06	5778.78
448.25	5975.39
448.43	5783.46
448.62	5823.25
448.80	5863.04
448.99	5891.13
449.17	5940.28
449.36	6197.74
449.54	6069.01
449.73	6120.50
449.91	6136.88
450.10	6237.53
450.28	6296.04
450.46	6239.87
450.65	6239.87
450.83	6300.72
451.02	6359.24
451.20	6230.51
451.39	6366.26
451.57	6193.06
451.76	6282.00
451.94	6179.01
452.13	6345.19
452.31	6384.98
452.49	6115.82
452.68	6401.37
452.86	6253.91
453.05	6387.32
453.23	6640.10
453.42	6312.42
453.60	6422.43
453.78	6621.38
453.97	6410.73
454.15	6602.65
454.34	6445.84
454.52	6682.23
454.70	6579.25
454.89	6616.69
455.07	6558.18
455.26	6675.21
455.44	6670.53
455.62	6712.66
455.81	6719.68
455.99	6712.66
456.17	6813.30
456.36	7080.12
456.54	6806.28
456.73	6874.15
456.91	7169.06
457.09	7005.22
457.28	7187.79
457.46	7056.72
457.64	7236.94
457.83	7192.47
458.01	7030.97
458.19	7272.04
458.38	7318.86
458.56	7206.51
458.74	7265.02
458.93	7218.21
459.11	7386.73
459.29	7309.49
459.48	7424.18
459.66	7321.20
459.84	7325.88
460.03	7616.10
460.21	7520.14
460.39	7438.22
460.57	7644.19
460.76	7625.47
460.94	7653.55
461.12	7588.02
461.31	7637.17
461.49	7599.72
461.67	7496.74
461.85	7756.54
462.04	7602.06
462.22	8142.72
462.40	7913.35
462.59	7946.12
462.77	7915.69
462.95	7847.82
463.13	7845.48
463.32	7896.97
463.50	7878.24
463.68	8028.04
463.86	8116.98
464.05	7796.32
464.23	8074.85
464.41	8037.40
464.59	7756.54
464.78	8124.00
464.96	8060.80
465.14	8147.40
465.32	8184.85
465.50	8215.28
465.69	8262.09
465.87	8116.98
466.05	8168.47
466.23	8058.46
466.41	8004.63
466.60	8549.98
466.78	8163.79
466.96	8346.35
467.14	8210.60
467.32	8456.36
467.51	8311.24
467.69	8276.13
467.87	8280.82
468.05	8365.07
468.23	8276.13
468.41	8475.08
468.60	8269.11
468.78	8571.04
468.96	8454.02
469.14	8528.91
469.32	8629.56
469.50	8486.78
469.69	8702.11
469.87	8662.32
470.05	8830.84
470.23	8690.41
470.41	8753.60
470.59	8933.82
470.77	9041.49
470.95	8861.27
471.14	9064.89
471.32	8908.08
471.50	9062.55
471.68	9067.24
471.86	9188.94
472.04	9121.07
472.22	9561.09
472.40	8980.64
472.58	9242.78
472.77	9336.40
472.95	9362.14
473.13	9706.20
473.31	9336.40
473.49	9352.78
473.67	9385.55
473.85	9310.65
474.03	9872.38
474.21	9572.79
474.39	9935.57
474.57	9767.06
474.75	9996.43
474.93	9888.76
475.12	10008.13
475.30	10174.31
475.48	9900.47
475.66	10150.90
475.84	10113.45
476.02	10284.31
476.20	10211.76
476.38	10450.49
476.56	10555.82
476.74	10600.29
476.92	10399.00
477.10	10611.99
477.28	10609.65
477.46	10590.92
477.64	10803.91
477.82	11012.22
478.00	11185.42
478.18	10995.84
478.36	11248.61
478.54	11463.94
478.72	11496.71
478.90	11515.44
479.08	11548.20
479.26	11733.11
479.44	11920.35
479.62	11690.98
479.80	12051.42
479.98	12009.29
480.16	12400.16
480.34	11960.14
480.52	12320.58
480.70	12559.31
480.88	12248.02
481.06	12372.07
481.24	12606.13
481.41	12720.81
481.59	12655.28
481.77	12786.35
481.95	12741.88
482.13	13114.02
482.31	13018.06
482.49	13329.35
482.67	13460.42
482.85	13338.71
483.03	13556.38
483.21	13392.55
483.39	13811.50
483.57	13914.48
483.74	13916.83
483.92	14176.62
484.10	13785.76
484.28	14221.10
484.46	14303.01
484.64	14843.68
484.82	14347.48
485.00	14513.66
485.18	14831.97
485.35	14724.31
485.53	14785.16
485.71	14651.75
485.89	15047.30
486.07	14864.74
486.25	15122.20
486.43	15517.75
486.61	15510.73
486.78	15466.26
486.96	15793.94
487.14	16245.66
487.32	16133.31
487.50	16137.99
487.68	16212.89
487.85	16620.14
488.03	16575.67
488.21	16816.75
488.39	16439.92
488.57	16837.81
488.75	16840.15
488.92	17296.56
489.10	17380.82
489.28	17404.22
489.46	17774.03
489.64	17568.06
489.81	18052.55
489.99	18195.32
490.17	18443.42
490.35	18305.33
490.53	18169.58
490.70	18506.62
490.88	18609.60
491.06	18860.04
491.24	18841.31
491.41	18771.10
491.59	18743.01
491.77	18883.44
491.95	19150.26
492.13	19199.41
492.30	19300.06
492.48	19704.97
492.66	19840.72
492.84	19786.89
493.01	19836.04
493.19	20042.01
493.37	20219.89
493.54	20311.17
493.72	20554.58
493.90	20596.71
494.08	20776.94
494.25	20786.30
494.43	20725.44
494.61	21013.33
494.79	20975.88
494.96	21022.69
495.14	20999.29
495.32	21523.57
495.49	21245.04
495.67	21689.74
495.85	21701.45
496.02	21788.05
496.20	21905.07
496.38	22214.02
496.55	22270.20
496.73	22768.73
496.91	22464.46
497.09	22544.04
497.26	22742.99
497.44	22607.23
497.62	23168.96
497.79	22836.61
497.97	22801.50
498.14	23239.18
498.32	23119.81
498.50	23426.42
498.67	23728.35
498.85	23489.62
499.03	23819.63
499.20	24051.34
499.38	23875.80
499.56	24107.52
499.73	23948.36
499.91	24652.86
500.08	24107.52
500.26	23917.93
500.44	24285.40
500.61	24360.30
500.79	24379.02
500.97	24613.07
501.14	24980.54
501.32	25008.62
501.49	24624.78
501.67	24753.51
501.84	24886.92
502.02	25097.56
502.20	25446.30
502.37	25329.28
502.55	25209.91
502.72	25355.02
502.90	25631.21
503.07	25568.01
503.25	25315.23
503.43	25649.93
503.60	25823.13
503.78	25813.77
503.95	25827.81
504.13	25771.64
504.30	26003.35
504.48	26586.15
504.65	26036.12
504.83	26686.79
505.01	26555.72
505.18	26757.00
505.36	27019.14
505.53	26450.39
505.71	27168.94
505.88	27318.73
506.06	26820.20
506.23	27094.04
506.41	26869.35
506.58	27260.22
506.76	27278.94
506.93	26998.08
507.11	27718.96
507.28	27555.13
507.46	27641.73
507.63	27447.46
507.81	27754.07
507.98	27775.14
508.16	27782.16
508.33	27931.95
508.50	28072.39
508.68	28402.40
508.85	28484.32
509.03	27906.21
509.20	28568.58
509.38	28638.80
509.55	28783.91
509.73	28835.40
509.90	28760.50
510.08	28800.29
510.25	28613.05
510.42	28774.55
510.60	29298.83
510.77	28922.00
510.95	29242.65
511.12	29214.57
511.30	29593.73
511.47	29631.18
511.64	29570.33
511.82	29558.63
511.99	29827.79
512.17	29666.29
512.34	30015.03
512.51	29907.37
512.69	30052.48
512.86	29724.80
513.04	30115.67
513.21	30398.88
513.38	30433.99
513.56	30146.10
513.73	30115.67
513.90	30632.93
514.08	30639.95
514.25	30717.19
514.43	30747.62
514.60	30291.21
514.77	30654.00
514.95	31147.85
515.12	30902.09
515.29	30871.67
515.47	31175.94
515.64	31377.22
515.81	31363.18
515.99	31363.18
516.16	31393.61
516.33	31262.54
516.51	31384.24
516.68	31264.88
516.85	31232.11
517.03	31569.15
517.20	31552.76
517.37	31770.43
517.54	31779.79
517.72	32137.90
517.89	31700.22
518.06	31618.30
518.24	31952.99
518.41	32041.93
518.58	31784.48
518.75	32039.59
518.93	32620.05
519.10	32378.97
519.27	32589.62
519.45	32151.94
519.62	32535.79
519.79	32811.97
519.96	32519.40
520.14	33228.59
520.31	32549.83
520.48	33106.88
520.65	33008.58
520.83	33247.31
521.00	33179.43
521.17	33202.84
521.34	33336.25
521.52	33699.03
521.69	33598.39
521.86	33401.79
522.03	33544.56
522.20	33752.87
522.38	33942.45
522.55	33539.88
522.72	33928.41
522.89	33900.32
523.07	34017.35
523.24	34092.24
523.41	34094.58
523.58	33825.42
523.75	34433.96
523.92	34501.84
524.10	34623.54
524.27	34499.50
524.44	34504.18
524.61	34450.35
524.78	34916.11
524.96	34705.46
525.13	34817.81
525.30	35271.87
525.47	35318.68
525.64	35035.48
525.81	35204.00
525.98	34911.43
526.16	34939.52
526.33	35115.06
526.50	35662.74
526.67	35388.90
526.84	35278.89
527.01	35194.64
527.18	35416.99
527.36	35498.91
527.53	35487.20
527.70	35639.34
527.87	35871.05
528.04	35847.64
528.21	35765.73
528.38	35557.42
528.55	36275.96
528.72	35894.46
528.89	36266.60
529.07	36154.26
529.24	36030.21
529.41	36130.85
529.58	35847.64
529.75	36023.19
529.92	36301.71
530.09	36098.08
530.26	36603.64
530.43	36840.03
530.60	36184.68
530.77	36266.60
530.94	36950.04
531.11	36376.61
531.28	36900.89
531.46	36587.25
531.63	37179.41
531.80	36711.30
531.97	37053.02
532.14	36856.42
532.31	36760.45
532.48	37596.03
532.65	37401.76
532.82	37408.78
532.99	37170.05
533.16	36971.10
533.33	36861.10
533.50	37258.99
533.67	37237.92
533.84	37464.96
534.01	37310.48
534.18	37553.90
534.35	37668.58
534.52	37596.03
534.69	37909.66
534.86	37762.20
535.03	37378.36
535.20	38073.49
535.37	38080.52
535.54	38286.48
535.71	37874.55
535.88	37907.32
536.05	37816.04
536.22	38471.39
536.38	38230.31
536.55	38651.61
536.72	38087.54
536.89	38293.50
537.06	38190.52
537.23	38054.77
537.40	38075.84
537.57	38415.21
537.74	38726.50
537.91	38740.55
538.08	38855.23
538.25	38490.11
538.42	38600.12
538.59	39005.03
538.75	38384.79
538.92	38906.73
539.09	38976.94
539.26	38721.82
539.43	38951.20
539.60	39147.80
539.77	38990.98
539.94	39056.52
540.11	38995.67
540.28	39009.71
540.44	39269.51
540.61	39100.99
540.78	39313.98
540.95	39267.17
541.12	39248.44
541.29	39229.72
541.46	39519.95
541.62	39250.78
541.79	39508.24
541.96	38820.13
542.13	39431.01
542.30	39672.08
542.47	39515.26
542.63	39196.95
542.80	39580.80
542.97	40121.46
543.14	40334.45
543.31	39906.13
543.48	40091.04
543.64	40596.59
543.81	40685.53
543.98	40236.15
544.15	40392.97
544.32	40575.53
544.48	40835.33
544.65	40224.45
544.82	40821.28
544.99	40287.64
545.16	40336.79
545.32	40039.54
545.49	40849.37
545.66	40896.18
545.83	40708.94
546.00	40509.99
546.16	40950.01
546.33	40793.20
546.50	40432.75
546.67	41024.91
546.83	40519.35
547.00	40788.52
547.17	41413.44
547.34	40673.83
547.50	40779.15
547.67	41270.67
547.84	41069.38
548.00	41041.29
548.17	41186.41
548.34	41397.06
548.51	41415.78
548.67	41200.45
548.84	41523.44
549.01	41233.22
549.18	41563.23
549.34	41462.59
549.51	41378.33
549.68	41591.32
549.84	41450.89
550.01	41581.96
550.18	41596.00
550.34	41317.48
550.51	41415.78
550.68	41703.67
550.84	41041.29
551.01	41757.50
551.18	41904.95
551.34	41607.70
551.51	41984.53
551.68	42174.11
551.84	41933.04
552.01	41603.02
552.18	41839.42
552.34	41404.08
552.51	42141.35
552.68	41940.06
552.84	42068.79
553.01	42115.60
553.18	42174.11
553.34	41895.59
553.51	41954.10
553.67	41893.25
553.84	42146.03
554.01	42300.50
554.17	42082.83
554.34	42644.56
554.51	42726.48
554.67	42607.11
554.84	42321.57
555.00	42244.33
555.17	42663.28
555.33	42476.04
555.50	42464.34
555.67	42632.86
555.83	42581.37
556.00	42564.98
556.16	42913.72
556.33	42897.34
556.50	42564.98
556.66	42806.06
556.83	42719.46
556.99	42693.71
557.16	43042.45
557.32	42913.72
557.49	43171.18
557.65	42651.58
557.82	42667.97
557.98	42513.49
558.15	42705.41
558.32	43026.07
558.48	42864.57
558.65	43086.92
558.81	42768.61
558.98	42946.49
559.14	43100.97
559.31	43182.88
559.47	43384.17
559.64	43194.59
559.80	43454.39
559.97	42939.47
560.13	42686.69
560.30	42972.24
560.46	42850.53
560.63	43140.75
560.79	43749.29
560.96	43225.01
561.12	43402.89
561.29	43414.60
561.45	43311.61
561.61	43360.76
561.78	43255.44
561.94	43115.01
562.11	42960.53
562.27	43463.75
562.44	43262.46
562.60	43459.07
562.77	43765.68
562.93	43592.48
563.10	43505.88
563.26	43203.95
563.42	43573.75
563.59	42995.64
563.75	43400.55
563.92	43683.76
564.08	43311.61
564.24	43709.50
564.41	43751.63
564.57	43590.14
564.74	43536.30
564.90	44135.48
565.07	43775.04
565.23	43702.48
565.39	43559.71
565.56	43618.22
565.72	43426.30
565.88	43489.49
566.05	43529.28
566.21	43768.02
566.38	43676.74
566.54	43512.90
566.70	43810.15
566.87	44006.75
567.03	43920.15
567.19	44133.14
567.36	44093.35
567.52	44135.48
567.68	44079.31
567.85	43735.25
568.01	44053.56
568.17	43728.23
568.34	43934.20
568.50	43868.66
568.66	43969.30
568.83	44018.46
568.99	43917.81
569.15	43700.14
569.32	44083.99
569.48	43585.46
569.64	44355.49
569.81	44144.84
569.97	44002.07
570.13	43955.26
570.30	44151.87
570.46	43765.68
570.62	43849.94
570.78	43772.70
570.95	43845.26
571.11	44072.29
571.27	43913.13
571.43	44301.66
571.60	44149.53
571.76	44093.35
571.92	43992.71
572.09	43973.98
572.25	44091.01
572.41	43800.79
572.57	44439.75
572.74	44687.85
572.90	43999.73
573.06	44266.55
573.22	44170.59
573.38	44018.46
573.55	43650.99
573.71	43969.30
573.87	43758.66
574.03	43985.69
574.20	43981.01
574.36	44421.03
574.52	43955.26
574.68	44371.88
574.84	44245.49
575.01	44236.12
575.17	44184.63
575.33	43894.41
575.49	43920.15
575.65	44364.85
575.82	45036.59
575.98	44470.18
576.14	44030.16
576.30	44191.65
576.46	44411.67
576.62	43995.05
576.79	43899.09
576.95	43796.10
577.11	44039.52
577.27	44107.40
577.43	44533.37
577.59	44112.08
577.75	44088.67
577.92	44205.70
578.08	43725.89
578.24	43817.17
578.40	44034.84
578.56	44072.29
578.72	44320.38
578.88	44704.23
579.04	44624.65
579.21	44201.02
579.37	44135.48
579.53	44313.36
579.69	43756.32
579.85	44414.01
580.01	44229.10
580.17	44514.65
580.33	44357.83
580.49	44694.87
580.65	44315.70
580.82	44671.46
580.98	44516.99
581.14	44591.89
581.30	44762.75
581.46	44137.82
581.62	44198.68
581.78	44680.83
581.94	44816.58
582.10	44444.43
582.26	44659.76
582.42	44493.58
582.58	44278.25
582.74	43957.60
582.90	44034.84
583.06	44374.22
583.22	45006.16
583.38	45050.63
583.54	44811.90
583.70	44334.43
583.86	44521.67
584.02	44367.20
584.18	44130.80
584.34	44554.44
584.50	44437.41
584.66	44645.72
584.82	44369.54
584.98	44498.26
585.14	44369.54
585.30	44273.57
585.46	44430.39
585.62	44516.99
585.78	44552.10
585.94	43973.98
586.10	44493.58
586.26	44507.63
586.42	44505.29
586.58	44526.35
586.74	44381.24
586.90	44463.16
587.06	44615.29
587.22	44355.49
587.38	44528.69
587.54	44666.78
587.70	44729.98
587.86	44886.79
588.02	44371.88
588.18	44823.60
588.34	44381.24
588.49	44315.70
588.65	44247.83
588.81	44383.58
588.97	44421.03
589.13	44098.03
589.29	44477.20
589.45	44596.57
589.61	44299.32
589.77	44676.15
589.93	44657.42
590.08	44435.07
590.24	45055.31
