SpectraSuite Data File
++++++++++++++++++++++++++++++++++++
Date: Fri Oct 25 11:23:38 EDT 2013
User: price-jones
Dark Spectrum Present: No
Reference Spectrum Present: No
Number of Sampled Component Spectra: 1
Spectrometers: USB2+H05261
Integration Time (usec): 100000 (USB2+H05261)
Spectra Averaged: 1 (USB2+H05261)
Boxcar Smoothing: 0 (USB2+H05261)
Correct for Electrical Dark: No (USB2+H05261)
Strobe/Lamp Enabled: No (USB2+H05261)
Correct for Detector Non-linearity: No (USB2+H05261)
Correct for Stray Light: No (USB2+H05261)
Number of Pixels in Processed Spectrum: 2048
>>>>>Begin Processed Spectral Data<<<<<
365.73	182.56
365.92	182.56
366.12	182.56
366.32	105.32
366.52	140.43
366.72	107.66
366.91	21.06
367.11	119.37
367.31	95.96
367.51	81.92
367.70	98.30
367.90	84.26
368.10	142.77
368.30	126.39
368.49	114.69
368.69	102.98
368.89	135.75
369.09	131.07
369.28	152.13
369.48	124.05
369.68	154.48
369.87	243.42
370.07	264.48
370.27	229.37
370.47	292.57
370.66	582.79
370.86	582.79
371.06	660.03
371.25	713.86
371.45	653.01
371.65	702.16
371.84	681.10
372.04	725.57
372.24	720.88
372.44	697.48
372.63	711.52
372.83	760.67
373.03	819.19
373.22	716.20
373.42	753.65
373.62	774.72
373.81	875.36
374.01	873.02
374.21	779.40
374.40	826.21
374.60	931.53
374.79	758.33
374.99	842.59
375.19	849.61
375.38	842.59
375.58	828.55
375.78	847.27
375.97	835.57
376.17	894.08
376.37	802.80
376.56	877.70
376.76	924.51
376.95	861.32
377.15	851.96
377.35	884.72
377.54	894.08
377.74	926.85
377.93	933.87
378.13	943.24
378.33	919.83
378.52	961.96
378.72	983.02
378.91	926.85
379.11	877.70
379.31	929.19
379.50	947.92
379.70	947.92
379.89	1029.84
380.09	903.45
380.28	1027.50
380.48	950.26
380.68	901.11
380.87	966.64
381.07	987.71
381.26	1064.94
381.46	1053.24
381.65	1060.26
381.85	1018.13
382.04	1034.52
382.24	1137.50
382.43	1057.92
382.63	1076.65
382.83	1060.26
383.02	1111.75
383.22	1184.31
383.41	1086.01
383.61	1057.92
383.80	1146.86
384.00	1165.59
384.19	1088.35
384.39	1153.88
384.58	1107.07
384.78	1015.79
384.97	1205.38
385.17	1116.44
385.36	1163.25
385.56	1102.39
385.75	1121.12
385.95	1179.63
386.14	1128.14
386.34	1177.29
386.53	1217.08
386.72	1210.06
386.92	1217.08
387.11	1184.31
387.31	1282.61
387.50	1177.29
387.70	1219.42
387.89	1165.59
388.09	1303.68
388.28	1259.21
388.48	1235.80
388.67	1315.38
388.86	1277.93
389.06	1259.21
389.25	1385.60
389.45	1406.66
389.64	1263.89
389.84	1387.94
390.03	1413.68
390.22	1259.21
390.42	1371.55
390.61	1392.62
390.81	1458.15
391.00	1455.81
391.19	1481.56
391.39	1465.18
391.58	1507.30
391.78	1446.45
391.97	1455.81
392.16	1495.60
392.36	1469.86
392.55	1394.96
392.75	1523.69
392.94	1544.75
393.13	1481.56
393.33	1509.65
393.52	1533.05
393.71	1563.48
393.91	1596.25
394.10	1514.33
394.29	1624.33
394.49	1643.06
394.68	1659.44
394.88	1614.97
395.07	1659.44
395.26	1764.76
395.46	1666.46
395.65	1717.95
395.84	1689.87
396.04	1727.32
396.23	1629.01
396.42	1764.76
396.62	1781.15
396.81	1764.76
397.00	1823.28
397.19	1746.04
397.39	1837.32
397.58	1792.85
397.77	1802.21
397.97	1734.34
398.16	1947.33
398.35	1921.58
398.55	1837.32
398.74	1930.94
398.93	1968.39
399.12	1900.52
399.32	1790.51
399.51	1952.01
399.70	2026.90
399.90	1846.68
400.09	2066.69
400.28	2076.06
400.47	1954.35
400.67	2026.90
400.86	2160.31
401.05	2003.50
401.24	2085.42
401.44	2160.31
401.63	2087.76
401.82	2073.71
402.01	2059.67
402.21	2031.58
402.40	2246.91
402.59	2282.02
402.78	2256.28
402.97	2228.19
403.17	2289.04
403.36	2225.85
403.55	2321.81
403.74	2317.13
403.93	2352.24
404.13	2349.90
404.32	2373.30
404.51	2399.05
404.70	2469.27
404.89	2427.14
405.09	2487.99
405.28	2366.28
405.47	2525.44
405.66	2490.33
405.85	2485.65
406.05	2572.25
406.24	2590.97
406.43	2476.29
406.62	2719.70
406.81	2715.02
407.00	2537.14
407.20	2602.68
407.39	2689.28
407.58	2597.99
407.77	2764.17
407.96	2808.64
408.15	2813.32
408.34	2724.38
408.54	2813.32
408.73	2818.00
408.92	2705.66
409.11	2942.05
409.30	2871.84
409.49	2981.84
409.68	2963.12
409.87	3061.42
410.07	3143.34
410.26	3059.08
410.45	2897.58
410.64	3019.29
410.83	3171.43
411.02	3075.46
411.21	3070.78
411.40	3094.19
411.59	3222.92
411.78	3243.98
411.98	3124.62
412.17	3222.92
412.36	3391.44
412.55	3386.76
412.74	3440.59
412.93	3220.58
413.12	3368.03
413.31	3534.21
413.50	3370.37
413.69	3459.31
413.88	3651.24
414.07	3564.64
414.26	3566.98
414.45	3749.54
414.64	3695.71
414.83	3761.24
415.02	3754.22
415.22	3768.26
415.41	3941.46
415.60	3798.69
415.79	4030.40
415.98	3866.56
416.17	3957.85
416.36	3922.74
416.55	3925.08
416.74	4201.26
416.93	4042.11
417.12	4205.94
417.31	4072.53
417.50	4170.83
417.69	4283.18
417.88	4250.41
418.07	4318.29
418.26	4250.41
418.45	4224.67
418.64	4503.19
418.83	4311.27
419.02	4393.19
419.21	4458.72
419.39	4496.17
419.58	4519.57
419.77	4479.79
419.96	4484.47
420.15	4606.17
420.34	4636.60
420.53	4753.63
420.72	4704.48
420.91	4676.39
421.10	4779.37
421.29	4751.29
421.48	4683.41
421.67	4814.48
421.86	4681.07
422.05	4720.86
422.24	4887.04
422.43	4798.10
422.61	4858.95
422.80	5006.41
422.99	4964.28
423.18	5001.72
423.37	5015.77
423.56	4936.19
423.75	5015.77
423.94	4791.08
424.13	4674.05
424.32	4697.46
424.50	5060.24
424.69	5139.82
424.88	5102.37
425.07	4961.94
425.26	4992.36
425.45	5001.72
425.64	4873.00
425.83	4980.66
426.01	5149.18
426.20	5184.29
426.39	4898.74
426.58	5018.11
426.77	5050.88
426.96	5170.24
427.15	5111.73
427.33	5142.16
427.52	5214.71
427.71	5235.78
427.90	5064.92
428.09	5188.97
428.28	5233.44
428.46	5404.30
428.65	5434.72
428.84	5551.75
429.03	5500.26
429.22	5348.12
429.40	5411.32
429.59	5355.15
429.78	5231.10
429.97	5245.14
430.16	5406.64
430.34	5523.66
430.53	5467.49
430.72	5699.20
430.91	5612.60
431.10	5493.24
431.28	5724.95
431.47	5769.42
431.66	5914.53
431.85	5769.42
432.03	6026.88
432.22	5912.19
432.41	5844.32
432.60	5942.62
432.79	5935.60
432.97	5956.66
433.16	6125.18
433.35	6052.63
433.54	6113.48
433.72	6171.99
433.91	6202.42
434.10	6085.39
434.28	6160.29
434.47	6097.10
434.66	6267.95
434.85	6303.06
435.03	6164.97
435.22	6246.89
435.41	6361.58
435.59	6455.20
435.78	6476.26
435.97	6513.71
436.16	6417.75
436.34	6401.37
436.53	6494.99
436.72	6663.51
436.90	6352.21
437.09	6710.32
437.28	6633.08
437.46	6848.41
437.65	6729.04
437.84	6981.82
438.02	6609.67
438.21	6775.85
438.40	6836.70
438.58	7194.81
438.77	6944.37
438.96	6913.94
439.14	7059.06
439.33	7279.07
439.52	7222.89
439.70	7026.29
439.89	7220.55
440.08	7435.88
440.26	7536.52
440.45	7281.41
440.63	7407.80
440.82	7639.51
441.01	7534.18
441.19	7733.13
441.38	7815.05
441.57	7569.29
441.75	7768.24
441.94	8135.70
442.12	7866.54
442.31	8229.32
442.50	8074.85
442.68	8028.04
442.87	7983.57
443.05	7861.86
443.24	8098.25
443.43	8051.44
443.61	8292.52
443.80	8388.48
443.98	8198.90
444.17	7887.61
444.35	8018.68
444.54	8198.90
444.73	8222.30
444.91	8339.33
445.10	8297.20
445.28	8430.61
445.47	8381.46
445.65	8175.49
445.84	8346.35
446.02	8454.02
446.21	8355.71
446.39	8414.23
446.58	8500.83
446.77	8557.00
446.95	8439.97
447.14	8517.21
447.32	8772.33
447.51	8451.67
447.69	8519.55
447.88	8428.27
448.06	8507.85
448.25	8519.55
448.43	8585.08
448.62	8678.71
448.80	8552.32
448.99	8557.00
449.17	8760.63
449.36	8690.41
449.54	8812.12
449.73	8835.52
449.91	8987.66
450.10	9001.70
450.28	9121.07
450.46	8968.93
450.65	9004.04
450.83	9048.51
451.02	9111.71
451.20	9266.18
451.39	9167.88
451.57	9111.71
451.76	9118.73
451.94	9048.51
452.13	9397.25
452.31	9277.88
452.49	9097.66
452.68	9432.36
452.86	9315.33
453.05	9568.11
453.23	9614.92
453.42	9392.57
453.60	9261.50
453.78	9572.79
453.97	9509.60
454.15	9247.46
454.34	9472.15
454.52	9692.16
454.70	9802.16
454.89	9820.89
455.07	9673.43
455.26	9771.74
455.44	9809.19
455.62	9853.66
455.81	9933.23
455.99	10090.05
456.17	10141.54
456.36	10071.33
456.54	10331.12
456.73	10190.69
456.91	10499.64
457.09	10424.75
457.28	10614.33
457.46	10218.78
457.64	10466.88
457.83	10544.11
458.01	10406.02
458.19	10862.43
458.38	10509.01
458.56	10761.78
458.74	10705.61
458.93	10679.86
459.11	10736.04
459.29	10817.96
459.48	10977.11
459.66	10724.33
459.84	11157.33
460.03	11012.22
460.21	11115.20
460.39	11016.90
460.57	11190.10
460.76	11164.36
460.94	11375.00
461.12	11302.45
461.31	11044.99
461.49	11211.17
461.67	11103.50
461.85	11501.39
462.04	11332.87
462.22	11810.34
462.40	11639.48
462.59	11499.05
462.77	11337.56
462.95	11370.32
463.13	11721.40
463.32	11817.36
463.50	11709.70
463.68	11545.86
463.86	11948.43
464.05	11604.38
464.23	11702.68
464.41	11934.39
464.59	11798.64
464.78	11941.41
464.96	11922.69
465.14	12016.31
465.32	12245.68
465.50	12287.81
465.69	12105.25
465.87	12060.78
466.05	12266.75
466.23	12217.60
466.41	12222.28
466.60	12444.63
466.78	12269.09
466.96	12100.57
467.14	12266.75
467.32	12442.29
467.51	12606.13
467.69	12149.72
467.87	12620.17
468.05	12795.71
468.23	12472.71
468.41	12299.52
468.60	12678.68
468.78	12861.24
468.96	12531.23
469.14	12868.27
469.32	13121.04
469.50	12695.07
469.69	12896.35
469.87	13219.35
470.05	13322.33
470.23	13429.99
470.41	13247.43
470.59	13369.14
470.77	13135.09
470.95	13280.20
471.14	13474.46
471.32	13165.51
471.50	13504.89
471.68	13825.54
471.86	13666.39
472.04	13975.34
472.22	13994.06
472.40	13727.24
472.58	13820.86
472.77	14132.15
472.95	14370.89
473.13	14331.10
473.31	14129.81
473.49	13846.61
473.67	14040.87
473.85	14326.42
474.03	14951.34
474.21	14696.22
474.39	14775.80
474.57	14581.54
474.75	15108.16
474.93	14869.42
475.12	14862.40
475.30	15122.20
475.48	14986.45
475.66	14855.38
475.84	15393.70
476.02	15550.52
476.20	15178.37
476.38	15751.81
476.56	16063.10
476.74	15880.53
476.92	15882.88
477.10	15660.52
477.28	16030.33
477.46	16496.10
477.64	16365.03
477.82	16725.47
478.00	16893.99
478.18	16732.49
478.36	16868.24
478.54	16940.80
478.72	17200.60
478.90	17348.05
479.08	17504.87
479.26	17858.29
479.44	17678.07
479.62	17551.68
479.80	18101.70
479.98	18288.95
480.16	18455.12
480.34	18288.95
480.52	18630.66
480.70	18743.01
480.88	18618.96
481.06	18614.28
481.24	18656.41
481.41	19073.03
481.59	19482.62
481.77	19744.76
481.95	19499.00
482.13	19733.06
482.31	19829.02
482.49	20395.43
482.67	20425.86
482.85	20439.90
483.03	20671.61
483.21	20596.71
483.39	20961.84
483.57	20931.41
483.74	20980.56
483.92	21324.62
484.10	21380.79
484.28	21937.84
484.46	21806.77
484.64	22047.85
484.82	21963.59
485.00	22398.93
485.18	22892.78
485.35	23309.40
485.53	22764.05
485.71	22967.68
485.89	23445.15
486.07	23360.89
486.25	23630.05
486.43	23662.82
486.61	23901.55
486.78	24067.73
486.96	24231.57
487.14	24854.15
487.32	25078.84
487.50	24795.64
487.68	24954.79
487.85	25493.12
488.03	25486.09
488.21	26101.65
488.39	25773.98
488.57	26354.43
488.75	26279.54
488.92	26654.02
489.10	26747.64
489.28	26799.13
489.46	27110.43
489.64	27133.83
489.81	27438.10
489.99	27529.38
490.17	28175.37
490.35	28297.08
490.53	28304.10
490.70	28173.03
490.88	28261.97
491.06	29036.69
491.24	28830.72
491.41	29006.26
491.59	29528.20
491.77	29689.70
491.95	29654.59
492.13	29986.94
492.30	30146.10
492.48	30036.09
492.66	30178.87
492.84	30506.54
493.01	30518.25
493.19	30646.97
493.37	31321.05
493.54	31178.28
493.72	31578.51
493.90	31335.09
494.08	31732.98
494.25	32407.06
494.43	31697.88
494.61	32512.38
494.79	32648.13
494.96	32533.45
495.14	32767.50
495.32	33202.84
495.49	33376.04
495.67	33319.87
495.85	33394.76
496.02	34155.44
496.20	33780.95
496.38	34352.04
496.55	34169.48
496.73	34930.16
496.91	34792.06
497.09	34913.77
497.26	35136.12
497.44	34981.65
497.62	35463.80
497.79	35524.65
497.97	35613.59
498.14	35718.92
498.32	36280.64
498.50	36605.98
498.67	36737.05
498.85	36559.17
499.03	36503.00
499.20	37013.23
499.38	36961.74
499.56	37120.90
499.73	37198.13
499.91	37406.44
500.08	37596.03
500.26	37436.87
500.44	37724.75
500.61	37607.73
500.79	37832.42
500.97	38085.20
501.14	38857.57
501.32	38548.62
501.49	38785.02
501.67	38565.01
501.84	39098.65
502.02	39014.39
502.20	39002.69
502.37	39391.22
502.55	39512.92
502.72	39562.08
502.90	39367.81
503.07	39328.02
503.25	39772.72
503.43	39838.26
503.60	40280.62
503.78	40414.03
503.95	40376.58
504.13	40568.51
504.30	40830.65
504.48	40851.71
504.65	41249.60
504.83	41361.95
505.01	41305.77
505.18	41439.18
505.36	41790.27
505.53	41347.90
505.71	41752.82
505.88	41720.05
506.06	41855.80
506.23	42450.30
506.41	41689.62
506.58	42171.77
506.76	42445.62
506.93	42829.46
507.11	42359.02
507.28	42733.50
507.46	42763.93
507.63	43311.61
507.81	43283.53
507.98	42871.59
508.16	43309.27
508.33	43119.69
508.50	43592.48
508.68	43847.60
508.85	43910.79
509.03	43473.11
509.20	43863.98
509.38	45038.93
509.55	44406.98
509.73	44935.95
509.90	44641.04
510.08	44589.55
510.25	44814.24
510.42	45097.44
510.60	45202.77
510.77	45132.55
510.95	45572.57
511.12	45626.40
511.30	45249.58
511.47	45476.61
511.64	45425.12
511.82	45883.86
511.99	45698.96
512.17	46337.93
512.34	45743.43
512.51	46630.49
512.69	46726.46
512.86	46672.62
513.04	46934.76
513.21	46801.35
513.38	46579.00
513.56	46986.25
513.73	47054.13
513.90	47428.62
514.08	47077.54
514.25	47150.09
514.43	47672.03
514.60	47351.38
514.77	47646.29
514.95	47838.21
515.12	47550.32
515.29	48011.41
515.47	47856.93
515.64	47945.87
515.81	47908.43
515.99	48633.99
516.16	48538.03
516.33	48463.13
516.51	48884.43
516.68	48861.02
516.85	48533.35
517.03	48982.73
517.20	48884.43
517.37	49113.80
517.54	49205.08
517.72	49015.50
517.89	48846.98
518.06	49633.40
518.24	49530.42
518.41	49331.47
518.58	48903.15
518.75	49287.00
518.93	49888.52
519.10	49392.33
519.27	49907.24
519.45	49825.32
519.62	50061.72
519.79	49977.46
519.96	50162.36
520.14	50511.10
520.31	50356.63
520.48	50120.23
520.65	50342.58
520.83	50714.73
521.00	51040.06
521.17	50602.38
521.34	50663.24
521.52	50679.62
521.69	51033.04
521.86	51159.43
522.03	51358.38
522.20	51210.92
522.38	51580.73
522.55	51341.99
522.72	51510.51
522.89	51632.22
523.07	51779.67
523.24	51622.86
523.41	51779.67
523.58	51510.51
523.75	51889.68
523.92	51672.01
524.10	51786.69
524.27	52313.31
524.44	52006.70
524.61	52266.50
524.78	52364.81
524.96	52442.04
525.13	52486.51
525.30	52603.54
525.47	52657.37
525.64	52538.01
525.81	52772.06
525.98	53017.82
526.16	52589.50
526.33	52858.66
526.50	53134.84
526.67	52919.51
526.84	53095.05
527.01	52898.45
527.18	52999.09
527.36	53216.76
527.53	53062.29
527.70	53600.61
527.87	53708.27
528.04	53268.25
528.21	53464.86
528.38	53315.06
528.55	53755.08
528.72	53268.25
528.89	53514.01
529.07	53443.79
529.24	53326.77
529.41	53979.78
529.58	53673.16
529.75	53675.51
529.92	53944.67
530.09	54155.32
530.26	54340.22
530.43	54064.03
530.60	53748.06
530.77	53743.38
530.94	54328.52
531.11	54178.72
531.28	54131.91
531.46	54323.83
531.63	54372.99
531.80	54361.28
531.97	54677.25
532.14	54564.91
532.31	54466.61
532.48	54672.57
532.65	54752.15
532.82	54532.14
532.99	54927.69
533.16	54639.81
533.33	54911.31
533.50	55096.21
533.67	54892.58
533.84	54890.24
534.01	54885.56
534.18	55140.68
534.35	55290.48
534.52	55416.86
534.69	55496.44
534.86	55353.67
535.03	55077.49
535.20	55440.27
535.37	55393.46
535.54	55503.46
535.71	55356.01
535.88	55477.72
536.05	55372.39
536.22	55704.75
536.38	55683.69
536.55	55536.23
536.72	55770.28
536.89	55758.58
537.06	55641.56
537.23	55980.93
537.40	55632.19
537.57	55856.88
537.74	56004.34
537.91	56037.11
538.08	55824.12
538.25	55753.90
538.42	56116.68
538.59	56191.58
538.75	56205.62
538.92	55852.20
539.09	56367.12
539.26	56409.25
539.43	56313.29
539.60	56259.46
539.77	56231.37
539.94	56435.00
540.11	56320.31
540.28	56388.19
540.44	56486.49
540.61	56566.07
540.78	56512.23
540.95	56491.17
541.12	56292.22
541.29	56591.81
541.46	56552.02
541.62	56643.30
541.79	56844.59
541.96	56488.83
542.13	56669.05
542.30	57006.09
542.47	56669.05
542.63	56765.01
542.80	56816.50
542.97	56966.30
543.14	57226.10
543.31	57193.33
543.48	57120.77
543.64	57279.93
543.81	57668.46
543.98	57462.49
544.15	57343.12
544.32	57385.25
544.48	57776.12
544.65	57329.08
544.82	57329.08
544.99	57263.55
545.16	57631.01
545.32	57490.58
545.49	57570.16
545.66	58038.26
545.83	57804.21
546.00	57879.11
546.16	57874.43
546.33	57593.56
546.50	57462.49
546.67	57586.54
546.83	57535.05
547.00	57876.77
547.17	57769.10
547.34	57965.71
547.50	57820.59
547.67	58356.58
547.84	58075.71
548.00	58056.99
548.17	58195.08
548.34	58251.25
548.51	58349.56
548.67	58234.87
548.84	58340.19
549.01	58028.90
549.18	58412.75
549.34	58363.60
549.51	58309.77
549.68	58293.38
549.84	58389.34
550.01	58637.44
550.18	58426.79
550.34	58461.90
550.51	58536.80
550.68	58508.71
550.84	58314.45
551.01	58518.07
551.18	58590.63
551.34	58749.79
551.51	58674.89
551.68	58599.99
551.84	58712.34
552.01	58602.33
552.18	58515.73
552.34	58684.25
552.51	58681.91
552.68	58651.48
552.84	58553.18
553.01	58873.84
553.18	58827.02
553.34	59138.32
553.51	58911.28
553.67	58920.65
553.84	59004.91
554.01	58932.35
554.17	58962.78
554.34	59154.70
554.51	59196.83
554.67	59196.83
554.84	59016.61
555.00	59164.06
555.17	58993.20
555.33	59112.57
555.50	58988.52
555.67	59121.93
555.83	59128.95
556.00	59215.55
556.16	59449.61
556.33	59458.97
556.50	59442.59
556.66	59332.58
556.83	59243.64
556.99	59346.62
557.16	59597.06
557.32	59568.97
557.49	59599.40
557.65	59262.36
557.82	59442.59
557.98	59416.84
558.15	59454.29
558.32	59547.91
558.48	59573.66
558.65	59604.08
558.81	59573.66
558.98	59512.80
559.14	59774.94
559.31	59618.13
559.47	59662.60
559.64	59688.34
559.80	59732.81
559.97	59929.42
560.13	59744.51
560.30	59891.97
560.46	59751.54
560.63	59781.96
560.79	59763.24
560.96	59716.43
561.12	59765.58
561.29	59887.29
561.45	59962.18
561.61	59833.46
561.78	59840.48
561.94	59749.20
562.11	59835.80
562.27	59812.39
562.44	59943.46
562.60	59901.33
562.77	60175.17
562.93	59863.88
563.10	60154.11
563.26	59957.50
563.42	60252.41
563.59	60011.34
563.75	60006.65
563.92	60097.94
564.08	59971.55
564.24	60224.32
564.41	60128.36
564.57	60406.89
564.74	60179.85
564.90	60364.76
565.07	59915.37
565.23	60093.25
565.39	60238.37
565.56	60224.32
565.72	60355.39
565.88	60200.92
566.05	60205.60
566.21	60278.16
566.38	60427.95
566.54	60444.33
566.70	60378.80
566.87	60406.89
567.03	60081.55
567.19	60530.93
567.36	60226.66
567.52	60322.63
567.68	60617.53
567.85	60477.10
568.01	60559.02
568.17	60331.99
568.34	60659.66
568.50	60601.15
568.66	60329.65
568.83	60451.36
568.99	60350.71
569.15	60362.42
569.32	60381.14
569.48	60418.59
569.64	60638.60
569.81	60561.36
569.97	60437.31
570.13	60591.79
570.30	60144.75
570.46	60488.80
570.62	60486.46
570.78	60685.41
570.95	60535.62
571.11	60645.62
571.27	60509.87
571.43	60650.30
571.60	60542.64
571.76	60692.43
571.92	60652.64
572.09	60790.73
572.25	60633.92
572.41	60666.69
572.57	60729.88
572.74	60959.25
572.90	60783.71
573.06	60722.86
573.22	60638.60
573.38	60722.86
573.55	60711.16
573.71	60851.59
573.87	60577.75
574.03	60694.77
574.20	60652.64
574.36	60757.97
574.52	60973.30
574.68	60914.78
574.84	60938.19
575.01	60919.46
575.17	60814.14
575.33	60764.99
575.49	60701.79
575.65	60760.31
575.82	60917.12
575.98	60807.12
576.14	61034.15
576.30	60832.86
576.46	60954.57
576.62	60940.53
576.79	60720.52
576.95	60736.90
577.11	60779.03
577.27	60884.36
577.43	60657.32
577.59	60952.23
577.75	60753.29
577.92	60809.46
578.08	60807.12
578.24	60928.83
578.40	60999.04
578.56	61062.24
578.72	60970.96
578.88	61031.81
579.04	61066.92
579.21	60949.89
579.37	61034.15
579.53	61090.32
579.69	60823.50
579.85	60900.74
580.01	60879.67
580.17	60832.86
580.33	61015.43
580.49	60938.19
580.65	60889.04
580.82	60804.78
580.98	61097.34
581.14	60926.49
581.30	60973.30
581.46	60914.78
581.62	61010.74
581.78	61066.92
581.94	60917.12
582.10	60757.97
582.26	61059.90
582.42	60839.89
582.58	61160.54
582.74	60987.34
582.90	60879.67
583.06	61179.26
583.22	60554.34
583.38	61118.41
583.54	60994.36
583.70	61095.00
583.86	61020.11
584.02	60823.50
584.18	61057.56
584.34	61020.11
584.50	61020.11
584.66	60949.89
584.82	60867.97
584.98	61181.60
585.14	61111.39
585.30	60914.78
585.46	61160.54
585.62	61064.58
585.78	61052.87
585.94	60921.80
586.10	61120.75
586.26	61120.75
586.42	61116.07
586.58	61291.61
586.74	61052.87
586.90	60963.93
587.06	61006.06
587.22	61263.52
587.38	61169.90
587.54	61174.58
587.70	61467.15
587.86	61247.14
588.02	61284.59
588.18	61125.43
588.34	61020.11
588.49	61134.79
