SpectraSuite Data File
++++++++++++++++++++++++++++++++++++
Date: Fri Oct 25 10:44:51 EDT 2013
User: price-jones
Dark Spectrum Present: No
Reference Spectrum Present: No
Number of Sampled Component Spectra: 1
Spectrometers: USB2+H05261
Integration Time (usec): 100000 (USB2+H05261)
Spectra Averaged: 1 (USB2+H05261)
Boxcar Smoothing: 0 (USB2+H05261)
Correct for Electrical Dark: No (USB2+H05261)
Strobe/Lamp Enabled: No (USB2+H05261)
Correct for Detector Non-linearity: No (USB2+H05261)
Correct for Stray Light: No (USB2+H05261)
Number of Pixels in Processed Spectrum: 2048
>>>>>Begin Processed Spectral Data<<<<<
365.73	119.37
365.92	119.37
366.12	119.37
366.32	117.03
366.52	65.54
366.72	51.49
366.91	49.15
367.11	0.00
367.31	0.00
367.51	35.11
367.70	0.00
367.90	49.15
368.10	56.17
368.30	84.26
368.49	18.72
368.69	14.04
368.89	0.00
369.09	72.56
369.28	88.94
369.48	37.45
369.68	74.90
369.87	117.03
370.07	67.88
370.27	145.11
370.47	182.56
370.66	358.10
370.86	472.79
371.06	425.98
371.25	372.15
371.45	353.42
371.65	433.00
371.84	409.59
372.04	423.64
372.24	477.47
372.44	491.51
372.63	397.89
372.83	479.81
373.03	475.13
373.22	505.56
373.42	489.17
373.62	493.85
373.81	571.09
374.01	503.22
374.21	554.71
374.40	498.53
374.60	557.05
374.79	629.60
374.99	524.28
375.19	566.41
375.38	559.39
375.58	538.32
375.78	594.50
375.97	645.99
376.17	690.46
376.37	599.18
376.56	585.13
376.76	615.56
376.95	650.67
377.15	573.43
377.35	554.71
377.54	653.01
377.74	608.54
377.93	615.56
378.13	660.03
378.33	629.60
378.52	608.54
378.72	596.84
378.91	636.63
379.11	538.32
379.31	631.94
379.50	660.03
379.70	643.65
379.89	610.88
380.09	615.56
380.28	631.94
380.48	653.01
380.68	716.20
380.87	596.84
381.07	713.86
381.26	566.41
381.46	704.50
381.65	706.84
381.85	683.44
382.04	732.59
382.24	662.37
382.43	629.60
382.63	683.44
382.83	622.58
383.02	795.78
383.22	704.50
383.41	758.33
383.61	641.31
383.80	814.51
384.00	765.36
384.19	723.23
384.39	816.85
384.58	758.33
384.78	739.61
384.97	772.38
385.17	692.80
385.36	716.20
385.56	725.57
385.75	739.61
385.95	725.57
386.14	734.93
386.34	681.10
386.53	751.31
386.72	805.14
386.92	851.96
387.11	786.42
387.31	786.42
387.50	784.08
387.70	833.23
387.89	732.59
388.09	828.55
388.28	793.44
388.48	826.21
388.67	877.70
388.86	863.66
389.06	851.96
389.25	819.19
389.45	861.32
389.64	830.89
389.84	891.74
390.03	887.06
390.22	880.04
390.42	884.72
390.61	877.70
390.81	938.55
391.00	919.83
391.19	957.28
391.39	983.02
391.58	1029.84
391.78	971.32
391.97	917.49
392.16	987.71
392.36	1018.13
392.55	926.85
392.75	957.28
392.94	922.17
393.13	985.37
393.33	938.55
393.52	952.60
393.71	1060.26
393.91	1057.92
394.10	1027.50
394.29	1034.52
394.49	1067.28
394.68	1039.20
394.88	1086.01
395.07	1081.33
395.26	1167.93
395.46	1137.50
395.65	1123.46
395.84	1139.84
396.04	1214.74
396.23	1163.25
396.42	1104.73
396.62	1097.71
396.81	1153.88
397.00	1125.80
397.19	1132.82
397.39	1240.48
397.58	1317.72
397.77	1221.76
397.97	1242.82
398.16	1249.85
398.35	1301.34
398.55	1373.89
398.74	1308.36
398.93	1364.53
399.12	1306.02
399.32	1308.36
399.51	1392.62
399.70	1341.13
399.90	1343.47
400.09	1359.85
400.28	1362.19
400.47	1397.30
400.67	1404.32
400.86	1483.90
401.05	1542.41
401.24	1483.90
401.44	1614.97
401.63	1486.24
401.82	1479.22
402.01	1502.62
402.21	1528.37
402.40	1490.92
402.59	1565.82
402.78	1579.86
402.97	1542.41
403.17	1558.80
403.36	1547.09
403.55	1600.93
403.74	1696.89
403.93	1748.38
404.13	1607.95
404.32	1706.25
404.51	1626.67
404.70	1654.76
404.89	1682.85
405.09	1790.51
405.28	1750.72
405.47	1675.82
405.66	1713.27
405.85	1804.55
406.05	1732.00
406.24	1818.60
406.43	1732.00
406.62	1870.09
406.81	1886.47
407.00	1827.96
407.20	1746.04
407.39	1856.04
407.58	1778.81
407.77	1813.92
407.96	1947.33
408.15	2050.31
408.34	1949.67
408.54	1956.69
408.73	2031.58
408.92	2024.56
409.11	2059.67
409.30	2150.95
409.49	2052.65
409.68	2052.65
409.87	2099.46
410.07	2179.04
410.26	2223.51
410.45	2174.36
410.64	2106.48
410.83	2258.62
411.02	2347.56
411.21	2296.07
411.40	2235.21
411.59	2424.80
411.78	2377.98
411.98	2396.71
412.17	2342.88
412.36	2310.11
412.55	2392.03
412.74	2361.60
412.93	2525.44
413.12	2448.20
413.31	2684.59
413.50	2614.38
413.69	2520.76
413.88	2586.29
414.07	2579.27
414.26	2612.04
414.45	2663.53
414.64	2682.25
414.83	2822.69
415.02	2780.56
415.22	2799.28
415.41	2832.05
415.60	2888.22
415.79	2836.73
415.98	2991.20
416.17	2911.63
416.36	2958.44
416.55	2785.24
416.74	2806.30
416.93	2864.82
417.12	3019.29
417.31	3091.85
417.50	2937.37
417.69	3155.04
417.88	3110.57
418.07	3016.95
418.26	3101.21
418.45	3115.25
418.64	3232.28
418.83	3049.72
419.02	3281.43
419.21	3208.87
419.39	3344.63
419.58	3246.32
419.77	3129.30
419.96	3309.52
420.15	3377.39
420.34	3276.75
420.53	3356.33
420.72	3454.63
420.91	3375.05
421.10	3574.00
421.29	3419.52
421.48	3393.78
421.67	3405.48
421.86	3463.99
422.05	3435.91
422.24	3492.08
422.43	3506.12
422.61	3522.51
422.80	3475.70
422.99	3627.83
423.18	3508.46
423.37	3468.67
423.56	3527.19
423.75	3630.17
423.94	3529.53
424.13	3251.00
424.32	3384.41
424.50	3529.53
424.69	3632.51
424.88	3651.24
425.07	3541.23
425.26	3489.74
425.45	3522.51
425.64	3632.51
425.83	3559.95
426.01	3609.11
426.20	3765.92
426.39	3639.53
426.58	3609.11
426.77	3442.93
426.96	3602.08
427.15	3606.77
427.33	3604.42
427.52	3655.92
427.71	3655.92
427.90	3742.52
428.09	3777.62
428.28	3770.60
428.46	3758.90
428.65	3819.75
428.84	3896.99
429.03	3946.14
429.22	3784.65
429.40	3751.88
429.59	3805.71
429.78	3613.79
429.97	3714.43
430.16	3791.67
430.34	3845.50
430.53	3847.84
430.72	3904.01
430.91	3836.14
431.10	3882.95
431.28	4117.00
431.47	4091.26
431.66	4086.58
431.85	4131.05
432.03	4086.58
432.22	4180.20
432.41	4292.54
432.60	4189.56
432.79	4133.39
432.97	4252.75
433.16	4191.90
433.35	4189.56
433.54	4238.71
433.72	4334.67
433.91	4379.14
434.10	4379.14
434.28	4367.44
434.47	4470.42
434.66	4430.63
434.85	4540.64
435.03	4447.02
435.22	4538.30
435.41	4723.20
435.59	4737.24
435.78	4655.33
435.97	4634.26
436.16	4526.60
436.34	4580.43
436.53	4652.98
436.72	4671.71
436.90	4711.50
437.09	4699.80
437.28	4744.27
437.46	4748.95
437.65	4683.41
437.84	4624.90
438.02	4828.53
438.21	4851.93
438.40	4638.94
438.58	4959.60
438.77	4800.44
438.96	5008.75
439.14	5144.50
439.33	5149.18
439.52	5057.90
439.70	5008.75
439.89	5123.43
440.08	5259.18
440.26	5249.82
440.45	5254.50
440.63	5446.43
440.82	5432.38
441.01	5406.64
441.19	5439.40
441.38	5568.13
441.57	5507.28
441.75	5472.17
441.94	5731.97
442.12	5570.48
442.31	5682.82
442.50	5610.26
442.68	5586.86
442.87	5694.52
443.05	5568.13
443.24	5701.54
443.43	5877.09
443.61	5849.00
443.80	5771.76
443.98	5778.78
444.17	5802.19
444.35	5940.28
444.54	5963.68
444.73	5788.14
444.91	5881.77
445.10	5820.91
445.28	5743.67
445.47	5792.83
445.65	5825.59
445.84	5996.45
446.02	5841.98
446.21	5902.83
446.39	5867.72
446.58	5956.66
446.77	5973.05
446.95	6038.58
447.14	6022.20
447.32	6356.90
447.51	6069.01
447.69	5750.70
447.88	5949.64
448.06	6047.94
448.25	6106.46
448.43	6066.67
448.62	5982.41
448.80	5963.68
448.99	6174.33
449.17	6183.70
449.36	6317.11
449.54	6155.61
449.73	6417.75
449.91	6373.28
450.10	6415.41
450.28	6429.45
450.46	6420.09
450.65	6452.86
450.83	6539.46
451.02	6324.13
451.20	6429.45
451.39	6715.00
451.57	6464.56
451.76	6569.88
451.94	6574.56
452.13	6691.59
452.31	6422.43
452.49	6300.72
452.68	6691.59
452.86	6553.50
453.05	6616.69
453.23	6700.95
453.42	6775.85
453.60	6581.59
453.78	6829.68
453.97	6504.35
454.15	6743.08
454.34	6686.91
454.52	6951.39
454.70	6839.05
454.89	6764.15
455.07	6895.22
455.26	6984.16
455.44	7073.10
455.62	7075.44
455.81	7063.74
455.99	6965.43
456.17	7049.69
456.36	6923.30
456.54	7286.09
456.73	7204.17
456.91	7442.90
457.09	7384.39
457.28	7531.84
457.46	7192.47
457.64	7283.75
457.83	7229.91
458.01	7232.26
458.19	7452.27
458.38	7363.33
458.56	7676.96
458.74	7449.93
458.93	7424.18
459.11	7538.87
459.29	7585.68
459.48	7541.21
459.66	7548.23
459.84	7602.06
460.03	7726.11
460.21	7758.88
460.39	7667.60
460.57	7803.35
460.76	7796.32
460.94	7833.77
461.12	7880.58
461.31	7906.33
461.49	7861.86
461.67	7702.70
461.85	8053.78
462.04	8025.70
462.22	8063.15
462.40	8077.19
462.59	8037.40
462.77	7723.77
462.95	8159.11
463.13	8124.00
463.32	8128.68
463.50	8124.00
463.68	8128.68
463.86	8081.87
464.05	8374.44
464.23	8201.24
464.41	8081.87
464.59	8203.58
464.78	8308.90
464.96	8163.79
465.14	8091.23
465.32	8386.14
465.50	8477.42
465.69	8442.31
465.87	8421.25
466.05	8439.97
466.23	8404.86
466.41	8571.04
466.60	8624.87
466.78	8290.18
466.96	8524.23
467.14	8519.55
467.32	8681.05
467.51	8655.30
467.69	8397.84
467.87	8800.41
468.05	8786.37
468.23	8533.59
468.41	8610.83
468.60	8704.45
468.78	8814.46
468.96	8688.07
469.14	8997.02
469.32	8924.46
469.50	8814.46
469.69	8898.72
469.87	8950.21
470.05	8903.40
470.23	8975.95
470.41	9146.81
470.59	8999.36
470.77	9151.49
470.95	9207.67
471.14	9078.94
471.32	8980.64
471.50	9348.10
471.68	9441.72
471.86	9268.52
472.04	9401.93
472.22	9682.80
472.40	9441.72
472.58	9465.13
472.77	9427.68
472.95	9724.93
473.13	10094.73
473.31	9600.88
473.49	9582.15
473.67	9734.29
473.85	9804.50
474.03	9989.41
474.21	9994.09
474.39	10106.43
474.57	10171.97
474.75	10211.76
474.93	10092.39
475.12	10359.21
475.30	10286.65
475.48	10160.27
475.66	10410.70
475.84	10384.96
476.02	10384.96
476.20	10204.74
476.38	10686.89
476.56	10869.45
476.74	10874.13
476.92	10558.16
477.10	10808.59
477.28	11122.23
477.46	11171.38
477.64	11183.08
477.82	11325.85
478.00	11482.67
478.18	11382.03
478.36	11377.34
478.54	11660.55
478.72	11721.40
478.90	11669.91
479.08	11997.59
479.26	11915.67
479.44	12177.81
479.62	12241.00
479.80	12306.54
479.98	12248.02
480.16	12016.31
480.34	12465.69
480.52	12521.87
480.70	12622.51
480.88	12681.02
481.06	12547.61
481.24	12692.73
481.41	12947.84
481.59	13315.31
481.77	13434.68
481.95	13153.81
482.13	13296.58
482.31	13310.63
482.49	13624.26
482.67	13685.11
482.85	13797.46
483.03	13879.38
483.21	13799.80
483.39	14061.94
483.57	14092.37
483.74	14235.14
483.92	14370.89
484.10	14394.29
484.28	14661.12
484.46	14698.56
484.64	15154.97
484.82	14895.17
485.00	14815.59
485.18	15089.43
485.35	15269.66
485.53	15070.71
485.71	14988.79
485.89	15442.85
486.07	15279.02
486.25	15569.24
486.43	15566.90
486.61	15845.43
486.78	16189.49
486.96	15971.82
487.14	16386.09
487.32	16032.67
487.50	16690.36
487.68	16858.88
487.85	16776.96
488.03	16999.31
488.21	17282.52
488.39	17116.34
488.57	17345.71
488.75	17649.98
488.92	17598.49
489.10	17635.94
489.28	17802.11
489.46	18160.22
489.64	17886.37
489.81	18661.09
489.99	18621.30
490.17	18534.70
490.35	18757.05
490.53	18464.49
490.70	18869.40
490.88	18745.35
491.06	19201.76
491.24	19115.16
491.41	19220.48
491.59	19255.59
491.77	19321.12
491.95	19536.45
492.13	19786.89
492.30	20042.01
492.48	19803.27
492.66	19924.98
492.84	20114.56
493.01	20250.32
493.19	20491.39
493.37	20596.71
493.54	20863.54
493.72	20704.38
493.90	21025.03
494.08	21018.01
494.25	21310.58
494.43	21275.47
494.61	21289.51
494.79	21553.99
494.96	21607.83
495.14	21687.40
495.32	22150.83
495.49	21806.77
495.67	21675.70
495.85	22352.12
496.02	22342.75
496.20	22544.04
496.38	22728.94
496.55	22618.94
496.73	23040.23
496.91	22895.12
497.09	23096.41
497.26	23412.38
497.44	23049.60
497.62	23594.94
497.79	23538.77
497.97	23204.07
498.14	23901.55
498.32	23901.55
498.50	23496.64
498.67	24140.29
498.85	24322.85
499.03	24470.30
499.20	24486.68
499.38	24329.87
499.56	24517.11
499.73	24364.98
499.91	24678.61
500.08	24620.10
500.26	24617.75
500.44	24802.66
500.61	24713.72
500.79	24987.56
500.97	25029.69
501.14	25139.69
501.32	25734.19
501.49	25188.85
501.67	25256.72
501.84	25490.77
502.02	25560.99
502.20	25553.97
502.37	26005.69
502.55	25778.66
502.72	25972.92
502.90	26047.82
503.07	26185.91
503.25	26551.04
503.43	25869.94
503.60	26167.19
503.78	26155.49
503.95	26328.69
504.13	26656.36
504.30	26700.83
504.48	26843.60
504.65	26899.78
504.83	26869.35
505.01	27344.48
505.18	27300.01
505.36	27449.80
505.53	27707.26
505.71	27899.19
505.88	27332.78
506.06	27115.11
506.23	27807.90
506.41	27517.68
506.58	27630.02
506.76	27646.41
506.93	28374.31
507.11	27878.12
507.28	27978.76
507.46	28084.09
507.63	28456.23
507.81	28116.86
507.98	28133.24
508.16	28496.02
508.33	28788.59
508.50	28732.42
508.68	28641.14
508.85	28985.19
509.03	29088.18
509.20	28992.22
509.38	29390.11
509.55	28971.15
509.73	29174.78
509.90	29364.36
510.08	29163.08
510.25	29317.55
510.42	29699.06
510.60	29469.69
510.77	29773.95
510.95	29738.85
511.12	29788.00
511.30	29947.15
511.47	30471.43
511.64	30150.78
511.82	30307.60
511.99	30209.29
512.17	30157.80
512.34	30331.00
512.51	30553.35
512.69	30501.86
512.86	30593.14
513.04	30960.61
513.21	30677.40
513.38	30888.05
513.56	31047.21
513.73	30991.03
513.90	30829.54
514.08	30822.51
514.25	31344.45
514.43	30995.71
514.60	31175.94
514.77	31178.28
514.95	31374.88
515.12	31330.41
515.29	31641.70
515.47	31639.36
515.64	31850.01
515.81	31927.25
515.99	31700.22
516.16	32105.13
516.33	31501.27
516.51	31826.60
516.68	31349.14
516.85	31826.60
517.03	31552.76
517.20	31997.46
517.37	32320.46
517.54	32456.21
517.72	32278.33
517.89	32081.72
518.06	32369.61
518.24	32402.38
518.41	32493.66
518.58	32659.84
518.75	32542.81
518.93	32919.63
519.10	32734.73
519.27	32868.14
519.45	33099.86
519.62	32896.23
519.79	33158.37
519.96	33338.59
520.14	33799.68
520.31	33317.53
520.48	33457.96
520.65	33144.33
520.83	34281.83
521.00	34148.42
521.17	33830.10
521.34	34054.79
521.52	33647.54
521.69	34178.84
521.86	34199.91
522.03	34314.59
522.20	34377.79
522.38	34398.85
522.55	34630.57
522.72	34340.34
522.89	34394.17
523.07	34513.54
523.24	34120.33
523.41	34724.19
523.58	34630.57
523.75	34859.94
523.92	34855.26
524.10	35314.00
524.27	35416.99
524.44	35407.62
524.61	35101.01
524.78	35255.49
524.96	35398.26
525.13	35276.55
525.30	35152.51
525.47	35669.76
525.64	35882.75
525.81	35548.06
525.98	35599.55
526.16	35349.11
526.33	35496.56
526.50	35807.86
526.67	35232.08
526.84	35548.06
527.01	35445.07
527.18	35812.54
527.36	36079.36
527.53	36341.50
527.70	36318.09
527.87	36357.88
528.04	36449.16
528.21	36811.95
528.38	36437.46
528.55	36889.18
528.72	36898.55
528.89	36779.18
529.07	36814.29
529.24	36458.52
529.41	36549.81
529.58	36613.00
529.75	36650.45
529.92	36760.45
530.09	36854.08
530.26	36854.08
530.43	37500.06
530.60	37006.21
530.77	37038.98
530.94	37567.94
531.11	37216.86
531.28	37420.48
531.46	37603.05
531.63	37422.83
531.80	37361.97
531.97	37488.36
532.14	37577.30
532.31	37207.50
532.48	37502.40
532.65	37801.99
532.82	37371.33
532.99	37612.41
533.16	37825.40
533.33	37661.56
533.50	37778.59
533.67	38164.78
533.84	37736.46
534.01	38185.84
534.18	37848.80
534.35	38036.05
534.52	38150.73
534.69	38050.09
534.86	38417.55
535.03	38277.12
535.20	38691.40
535.37	38768.63
535.54	38770.97
535.71	38684.37
535.88	38363.72
536.05	38106.26
536.22	38562.67
536.38	38759.27
536.55	38808.42
536.72	39049.50
536.89	38462.02
537.06	39168.87
537.23	39201.63
537.40	39012.05
537.57	38946.51
537.74	38976.94
537.91	39154.82
538.08	39283.55
538.25	39002.69
538.42	39086.95
538.59	39276.53
538.75	39218.02
538.92	39393.56
539.09	39517.60
539.26	39321.00
539.43	39194.61
539.60	39480.16
539.77	38684.37
539.94	39627.61
540.11	39098.65
540.28	39695.49
540.44	39210.99
540.61	39639.31
540.78	39328.02
540.95	39384.19
541.12	39683.78
541.29	39564.42
541.46	39786.77
541.62	40020.82
541.79	39580.80
541.96	39978.69
542.13	39728.25
542.30	39807.83
542.47	39922.52
542.63	39721.23
542.80	40119.12
542.97	40676.17
543.14	40844.69
543.31	40470.20
543.48	40655.11
543.64	41422.80
543.81	40898.52
543.98	40774.47
544.15	40685.53
544.32	40994.48
544.48	41141.94
544.65	40603.61
544.82	40877.46
544.99	40294.66
545.16	40971.08
545.32	41291.73
545.49	41530.47
545.66	41546.85
545.83	41635.79
546.00	40907.88
546.16	41413.44
546.33	40748.73
546.50	40959.38
546.67	41368.97
546.83	40940.65
547.00	41214.49
547.17	41013.21
547.34	41432.16
547.50	41654.51
547.67	41984.53
547.84	41787.92
548.00	41729.41
548.17	41918.99
548.34	41441.53
548.51	41902.61
548.67	41900.27
548.84	42080.49
549.01	41682.60
549.18	41586.64
549.34	41853.46
549.51	41771.54
549.68	42377.74
549.84	41757.50
550.01	42443.27
550.18	41624.09
550.34	42326.25
550.51	42003.25
550.68	42485.40
550.84	41790.27
551.01	42394.12
551.18	41926.02
551.34	41696.64
551.51	42307.52
551.68	42192.84
551.84	42087.51
552.01	42134.32
552.18	42480.72
552.34	41832.39
552.51	42230.29
552.68	41764.52
552.84	42726.48
553.01	43037.77
553.18	42543.92
553.34	42422.21
553.51	42260.71
553.67	42227.95
553.84	43316.29
554.01	42761.59
554.17	42923.08
554.34	42883.30
554.51	42827.12
554.67	42934.79
554.84	42784.99
555.00	42808.40
555.17	42885.64
555.33	42831.80
555.50	42794.36
555.67	42831.80
555.83	43124.37
556.00	43196.93
556.16	43330.34
556.33	43152.46
556.50	42953.51
556.66	43552.69
556.83	42951.17
556.99	43665.03
557.16	43515.24
557.32	43302.25
557.49	43477.79
557.65	42885.64
557.82	43295.23
557.98	43213.31
558.15	43203.95
558.32	43281.19
558.48	42981.60
558.65	43215.65
558.81	42803.72
558.98	43112.67
559.14	43859.30
559.31	43028.41
559.47	43679.08
559.64	43484.81
559.80	43704.82
559.97	43274.16
560.13	43353.74
560.30	43583.12
560.46	43508.22
560.63	43688.44
560.79	43981.01
560.96	43739.93
561.12	43924.83
561.29	43526.94
561.45	43681.42
561.61	43716.53
561.78	43367.79
561.94	43440.34
562.11	44091.01
562.27	43416.94
562.44	43817.17
562.60	44091.01
562.77	43845.26
562.93	44079.31
563.10	44149.53
563.26	43707.16
563.42	44140.16
563.59	43849.94
563.75	43779.72
563.92	44215.06
564.08	43800.79
564.24	44238.47
564.41	43938.88
564.57	43983.35
564.74	43854.62
564.90	43943.56
565.07	44243.15
565.23	44261.87
565.39	44016.11
565.56	43807.81
565.72	43749.29
565.88	44123.78
566.05	44126.12
566.21	44133.14
566.38	44025.48
566.54	43931.86
566.70	44107.40
566.87	44528.69
567.03	44004.41
567.19	44680.83
567.36	43981.01
567.52	43885.04
567.68	44194.00
567.85	44196.34
568.01	44729.98
568.17	43908.45
568.34	44493.58
568.50	43824.19
568.66	44189.31
568.83	44236.12
568.99	43955.26
569.15	43950.58
569.32	44037.18
569.48	44208.04
569.64	44559.12
569.81	44722.96
569.97	44208.04
570.13	44458.48
570.30	44275.91
570.46	44201.02
570.62	44285.28
570.78	43863.98
570.95	44350.81
571.11	44465.50
571.27	44163.57
571.43	44376.56
571.60	44184.63
571.76	44135.48
571.92	44524.01
572.09	44210.38
572.25	44603.59
572.41	44348.47
572.57	44444.43
572.74	44713.59
572.90	44376.56
573.06	44605.93
573.22	44360.17
573.38	44083.99
573.55	44385.92
573.71	44549.76
573.87	44788.49
574.03	44116.76
574.20	44645.72
574.36	44397.62
574.52	44493.58
574.68	44491.24
574.84	44786.15
575.01	44231.44
575.17	44898.50
575.33	44514.65
575.49	44399.96
575.65	44999.14
575.82	44362.51
575.98	44336.77
576.14	44371.88
576.30	44795.51
576.46	44208.04
576.62	44009.09
576.79	44542.74
576.95	44308.68
577.11	44432.73
577.27	44591.89
577.43	44252.51
577.59	44589.55
577.75	44100.37
577.92	44002.07
578.08	44570.82
578.24	44739.34
578.40	44397.62
578.56	44442.09
578.72	44481.88
578.88	44847.00
579.04	44769.77
579.21	44816.58
579.37	44605.93
579.53	44767.43
579.69	44273.57
579.85	44488.90
580.01	44701.89
580.17	44327.41
580.33	44652.74
580.49	44601.25
580.65	44786.15
580.82	45048.29
580.98	44463.16
581.14	44116.76
581.30	44662.10
581.46	45090.42
581.62	44914.88
581.78	44741.68
581.94	44924.24
582.10	44987.44
582.26	44767.43
582.42	44318.04
582.58	45118.51
582.74	44552.10
582.90	44713.59
583.06	44996.80
583.22	44657.42
583.38	44718.28
583.54	44879.77
583.70	44509.97
583.86	44961.69
584.02	44374.22
584.18	45118.51
584.34	44165.91
584.50	44954.67
584.66	44573.16
584.82	44587.21
584.98	44725.30
585.14	44760.40
585.30	44631.68
585.46	45106.80
585.62	44704.23
585.78	44573.16
585.94	44348.47
586.10	44243.15
586.26	44355.49
586.42	44849.35
586.58	44477.20
586.74	45024.89
586.90	44851.69
587.06	44509.97
587.22	44708.91
587.38	44311.02
587.54	44802.53
587.70	45069.36
587.86	44893.82
588.02	44622.31
588.18	45085.74
588.34	45045.95
588.49	44584.86
588.65	44369.54
588.81	44531.03
588.97	44406.98
589.13	44266.55
589.29	44842.32
589.45	44601.25
589.61	44966.37
589.77	44971.05
589.93	44919.56
590.08	45088.08
590.24	44994.46
