SpectraSuite Data File
++++++++++++++++++++++++++++++++++++
Date: Fri Oct 25 11:23:49 EDT 2013
User: price-jones
Dark Spectrum Present: No
Reference Spectrum Present: No
Number of Sampled Component Spectra: 1
Spectrometers: USB2+H05261
Integration Time (usec): 100000 (USB2+H05261)
Spectra Averaged: 1 (USB2+H05261)
Boxcar Smoothing: 0 (USB2+H05261)
Correct for Electrical Dark: No (USB2+H05261)
Strobe/Lamp Enabled: No (USB2+H05261)
Correct for Detector Non-linearity: No (USB2+H05261)
Correct for Stray Light: No (USB2+H05261)
Number of Pixels in Processed Spectrum: 2048
>>>>>Begin Processed Spectral Data<<<<<
365.73	290.23
365.92	290.23
366.12	290.23
366.32	131.07
366.52	154.48
366.72	49.15
366.91	140.43
367.11	156.82
367.31	140.43
367.51	110.01
367.70	95.96
367.90	95.96
368.10	107.66
368.30	182.56
368.49	163.84
368.69	142.77
368.89	168.52
369.09	156.82
369.28	159.16
369.48	140.43
369.68	126.39
369.87	163.84
370.07	262.14
370.27	227.03
370.47	292.57
370.66	531.30
370.86	667.05
371.06	723.23
371.25	702.16
371.45	610.88
371.65	788.76
371.84	697.48
372.04	697.48
372.24	751.31
372.44	732.59
372.63	713.86
372.83	737.27
373.03	716.20
373.22	758.33
373.42	795.78
373.62	751.31
373.81	866.00
374.01	763.01
374.21	802.80
374.40	683.44
374.60	898.77
374.79	823.87
374.99	809.83
375.19	877.70
375.38	854.30
375.58	830.89
375.78	858.98
375.97	814.51
376.17	922.17
376.37	882.38
376.56	873.02
376.76	882.38
376.95	919.83
377.15	898.77
377.35	858.98
377.54	985.37
377.74	847.27
377.93	758.33
378.13	943.24
378.33	964.30
378.52	910.47
378.72	924.51
378.91	894.08
379.11	931.53
379.31	877.70
379.50	940.90
379.70	1018.13
379.89	1050.90
380.09	1039.20
380.28	1006.43
380.48	1020.47
380.68	973.66
380.87	926.85
381.07	1034.52
381.26	1088.35
381.46	940.90
381.65	1039.20
381.85	1027.50
382.04	1001.75
382.24	1064.94
382.43	987.71
382.63	1006.43
382.83	1071.97
383.02	1160.91
383.22	1123.46
383.41	966.64
383.61	1029.84
383.80	1191.33
384.00	1132.82
384.19	1121.12
384.39	1095.37
384.58	1109.41
384.78	1097.71
384.97	1153.88
385.17	1109.41
385.36	1144.52
385.56	1203.04
385.75	1184.31
385.95	1163.25
386.14	1275.59
386.34	1158.57
386.53	1163.25
386.72	1242.82
386.92	1210.06
387.11	1245.16
387.31	1254.53
387.50	1238.14
387.70	1268.57
387.89	1240.48
388.09	1289.64
388.28	1350.49
388.48	1270.91
388.67	1317.72
388.86	1350.49
389.06	1357.51
389.25	1270.91
389.45	1266.23
389.64	1343.47
389.84	1364.53
390.03	1366.87
390.22	1401.98
390.42	1287.29
390.61	1355.17
390.81	1432.41
391.00	1462.83
391.19	1460.49
391.39	1490.92
391.58	1390.28
391.78	1465.18
391.97	1507.30
392.16	1373.89
392.36	1582.20
392.55	1495.60
392.75	1472.20
392.94	1556.46
393.13	1617.31
393.33	1542.41
393.52	1561.14
393.71	1652.42
393.91	1509.65
394.10	1519.01
394.29	1631.35
394.49	1612.63
394.68	1708.59
394.88	1640.72
395.07	1645.40
395.26	1624.33
395.46	1638.38
395.65	1664.12
395.84	1647.74
396.04	1701.57
396.23	1703.91
396.42	1720.29
396.62	1837.32
396.81	1729.66
397.00	1799.87
397.19	1806.89
397.39	1746.04
397.58	1956.69
397.77	1799.87
397.97	1881.79
398.16	1877.11
398.35	1944.99
398.55	1785.83
398.74	1827.96
398.93	1926.26
399.12	1816.26
399.32	1952.01
399.51	1909.88
399.70	1975.41
399.90	1909.88
400.09	1933.28
400.28	2071.37
400.47	2019.88
400.67	2099.46
400.86	2115.84
401.05	2090.10
401.24	2001.16
401.44	2076.06
401.63	2143.93
401.82	2148.61
402.01	2155.63
402.21	2193.08
402.40	2169.68
402.59	2127.55
402.78	2197.76
402.97	2370.96
403.17	2291.38
403.36	2267.98
403.55	2354.58
403.74	2317.13
403.93	2410.75
404.13	2326.49
404.32	2523.10
404.51	2455.22
404.70	2511.39
404.89	2434.16
405.09	2504.37
405.28	2389.69
405.47	2450.54
405.66	2569.91
405.85	2583.95
406.05	2511.39
406.24	2509.05
406.43	2569.91
406.62	2583.95
406.81	2623.74
407.00	2565.23
407.20	2530.12
407.39	2600.34
407.58	2834.39
407.77	2724.38
407.96	2850.77
408.15	2750.13
408.34	2712.68
408.54	2818.00
408.73	2871.84
408.92	2881.20
409.11	2853.11
409.30	2792.26
409.49	2843.75
409.68	2939.71
409.87	2960.78
410.07	2958.44
410.26	2939.71
410.45	2963.12
410.64	3040.36
410.83	2974.82
411.02	3197.17
411.21	3138.66
411.40	3089.51
411.59	3136.32
411.78	3318.88
411.98	3213.56
412.17	3307.18
412.36	3335.26
412.55	3410.16
412.74	3391.44
412.93	3475.70
413.12	3290.79
413.31	3611.45
413.50	3520.17
413.69	3459.31
413.88	3597.40
414.07	3702.73
414.26	3646.55
414.45	3768.26
414.64	3648.90
414.83	3749.54
415.02	3756.56
415.22	3798.69
415.41	3939.12
415.60	3742.52
415.79	3836.14
415.98	3932.10
416.17	4070.19
416.36	3999.98
416.55	4035.08
416.74	3934.44
416.93	4079.55
417.12	4121.68
417.31	4170.83
417.50	4152.11
417.69	4245.73
417.88	4432.97
418.07	4271.48
418.26	4299.56
418.45	4442.34
418.64	4477.44
418.83	4500.85
419.02	4395.53
419.21	4535.96
419.39	4561.70
419.58	4500.85
419.77	4425.95
419.96	4559.36
420.15	4629.58
420.34	4601.49
420.53	4702.14
420.72	4805.12
420.91	4650.64
421.10	4676.39
421.29	4784.06
421.48	4755.97
421.67	4699.80
421.86	4723.20
422.05	4915.12
422.24	4858.95
422.43	4997.04
422.61	4973.64
422.80	4931.51
422.99	4994.70
423.18	4788.74
423.37	5008.75
423.56	4973.64
423.75	5018.11
423.94	4917.47
424.13	4709.16
424.32	4798.10
424.50	4903.42
424.69	5245.14
424.88	5151.52
425.07	4968.96
425.26	4999.38
425.45	4990.02
425.64	5018.11
425.83	4926.83
426.01	5076.62
426.20	5111.73
426.39	5104.71
426.58	5146.84
426.77	5001.72
426.96	5261.52
427.15	5198.33
427.33	5088.32
427.52	5130.45
427.71	5331.74
427.90	5226.42
428.09	5313.02
428.28	5500.26
428.46	5397.28
428.65	5427.70
428.84	5467.49
429.03	5547.07
429.22	5317.70
429.40	5589.20
429.59	5518.98
429.78	5320.04
429.97	5268.55
430.16	5558.77
430.34	5746.02
430.53	5701.54
430.72	5748.36
430.91	5619.63
431.10	5561.11
431.28	5778.78
431.47	5844.32
431.66	5781.12
431.85	5668.78
432.03	5982.41
432.22	6003.47
432.41	5804.53
432.60	5893.47
432.79	5949.64
432.97	5994.11
433.16	5844.32
433.35	6099.44
433.54	6167.31
433.72	6092.41
433.91	6118.16
434.10	6249.23
434.28	6069.01
434.47	6237.53
434.66	6375.62
434.85	6328.81
435.03	6347.53
435.22	6263.27
435.41	6658.82
435.59	6333.49
435.78	6457.54
435.97	6642.44
436.16	6490.31
436.34	6375.62
436.53	6506.69
436.72	6733.72
436.90	6450.52
437.09	6801.60
437.28	6408.39
437.46	6560.52
437.65	6715.00
437.84	6752.45
438.02	6857.77
438.21	6869.47
438.40	6839.05
438.58	6825.00
438.77	7176.08
438.96	6815.64
439.14	7194.81
439.33	7091.82
439.52	7173.74
439.70	7176.08
439.89	7365.67
440.08	7316.51
440.26	7267.36
440.45	7328.22
440.63	7564.61
440.82	7609.08
441.01	7606.74
441.19	7812.71
441.38	8053.78
441.57	7730.79
441.75	7915.69
441.94	7896.97
442.12	7920.37
442.31	8163.79
442.50	8091.23
442.68	7777.60
442.87	7971.86
443.05	7946.12
443.24	8358.05
443.43	8114.64
443.61	8208.26
443.80	8451.67
443.98	8243.37
444.17	7941.44
444.35	8198.90
444.54	8491.46
444.73	8238.69
444.91	8360.39
445.10	8308.90
445.28	8348.69
445.47	8360.39
445.65	8430.61
445.84	8643.60
446.02	8643.60
446.21	8500.83
446.39	8393.16
446.58	8538.27
446.77	8404.86
446.95	8346.35
447.14	8383.80
447.32	8552.32
447.51	8519.55
447.69	8348.69
447.88	8526.57
448.06	8718.50
448.25	8739.56
448.43	8542.96
448.62	8748.92
448.80	8641.26
448.99	8699.77
449.17	8587.43
449.36	8702.11
449.54	8957.23
449.73	8971.27
449.91	8964.25
450.10	9083.62
450.28	9132.77
450.46	9268.52
450.65	9039.15
450.83	9334.06
451.02	8959.57
451.20	9228.73
451.39	9165.54
451.57	9242.78
451.76	9013.40
451.94	9240.44
452.13	9317.67
452.31	9352.78
452.49	9205.33
452.68	9404.27
452.86	9359.80
453.05	9460.45
453.23	9635.99
453.42	9256.82
453.60	9650.03
453.78	9776.42
453.97	9467.47
454.15	9554.07
454.34	9710.88
454.52	9870.04
454.70	9617.26
454.89	10010.47
455.07	9731.95
455.26	9877.06
455.44	10057.28
455.62	9748.33
455.81	9968.34
455.99	9956.64
456.17	10097.07
456.36	10200.05
456.54	10171.97
456.73	10190.69
456.91	10696.25
457.09	10394.32
457.28	10551.14
457.46	10700.93
457.64	10361.55
457.83	10534.75
458.01	10593.26
458.19	10949.03
458.38	10497.30
458.56	10836.68
458.74	10740.72
458.93	10733.70
459.11	10796.89
459.29	10806.25
459.48	11007.54
459.66	10817.96
459.84	10988.82
460.03	10981.79
460.21	11066.05
460.39	10899.87
460.57	11089.46
460.76	11122.23
460.94	11213.51
461.12	11091.80
461.31	11098.82
461.49	11257.98
461.67	11297.77
461.85	11386.71
462.04	11304.79
462.22	11454.58
462.40	11688.64
462.59	11721.40
462.77	11522.46
462.95	11810.34
463.13	11716.72
463.32	11604.38
463.50	11791.62
463.68	11950.78
463.86	12105.25
464.05	11644.17
464.23	11676.93
464.41	11960.14
464.59	11510.75
464.78	12056.10
464.96	11957.80
465.14	11889.92
465.32	12016.31
465.50	11943.75
465.69	12283.13
465.87	12079.50
466.05	12182.49
466.23	11943.75
466.41	12177.81
466.60	12524.21
466.78	12114.61
466.96	12133.34
467.14	12358.03
467.32	12482.08
467.51	12636.55
467.69	12184.83
467.87	12578.04
468.05	12662.30
468.23	12545.27
468.41	12379.09
468.60	12739.54
468.78	12896.35
468.96	12702.09
469.14	12868.27
469.32	12982.95
469.50	12767.62
469.69	13076.57
469.87	13163.17
470.05	13163.17
470.23	13280.20
470.41	13099.98
470.59	13411.27
470.77	13289.56
470.95	13671.07
471.14	13451.06
471.32	13252.11
471.50	13495.53
471.68	13781.07
471.86	13853.63
472.04	13818.52
472.22	13940.23
472.40	13984.70
472.58	13657.03
472.77	14080.66
472.95	14464.51
473.13	14377.91
473.31	14092.37
473.49	14197.69
473.67	14249.18
473.85	14333.44
474.03	14778.14
474.21	14431.74
474.39	15002.83
474.57	14740.69
474.75	15091.77
474.93	15087.09
475.12	15047.30
475.30	15087.09
475.48	15346.89
475.66	15393.70
475.84	15342.21
476.02	15655.84
476.20	15499.03
476.38	16044.37
476.56	16063.10
476.74	16037.35
476.92	16098.20
477.10	15726.06
477.28	16107.57
477.46	16266.72
477.64	16332.26
477.82	16690.36
478.00	16861.22
478.18	16596.74
478.36	17076.55
478.54	17291.88
478.72	17336.35
478.90	17767.01
479.08	17755.30
479.26	17701.47
479.44	17631.26
479.62	18059.57
479.80	18228.09
479.98	18104.04
480.16	18761.73
480.34	18129.79
480.52	18427.04
480.70	18902.17
480.88	18300.65
481.06	19054.30
481.24	18523.00
481.41	19161.97
481.59	19213.46
481.77	19557.52
481.95	19618.37
482.13	19747.10
482.31	19772.85
482.49	20554.58
482.67	20320.53
482.85	20723.10
483.03	20657.57
483.21	20908.01
483.39	21233.34
483.57	21074.18
483.74	21284.83
483.92	21495.48
484.10	21490.80
484.28	21790.39
484.46	22153.17
484.64	22504.25
484.82	22047.85
485.00	22230.41
485.18	22579.15
485.35	23218.11
485.53	23040.23
485.71	23014.49
485.89	23384.29
486.07	23442.81
486.25	23452.17
486.43	23480.25
486.61	23992.83
486.78	23903.89
486.96	24308.80
487.14	24819.04
487.32	24842.45
487.50	24964.15
487.68	25324.60
487.85	25322.26
488.03	25638.23
488.21	26036.12
488.39	26010.37
488.57	26099.31
488.75	26153.15
488.92	26434.01
489.10	26920.84
489.28	26782.75
489.46	27435.76
489.64	27431.08
489.81	27534.06
489.99	27667.47
490.17	27723.65
490.35	28559.22
490.53	27999.83
490.70	28407.08
490.88	28774.55
491.06	29202.86
491.24	29008.60
491.41	28954.77
491.59	29448.62
491.77	29420.53
491.95	30059.50
492.13	29738.85
492.30	30157.80
492.48	30300.58
492.66	30504.20
492.84	30323.98
493.01	30960.61
493.19	30824.86
493.37	30953.58
493.54	31447.44
493.72	31634.68
493.90	31789.16
494.08	32009.17
494.25	31920.23
494.43	32341.52
494.61	32463.23
494.79	32449.19
494.96	32678.56
495.14	33057.73
495.32	33338.59
495.49	33237.95
495.67	33549.24
495.85	33432.21
496.02	33949.47
496.20	33949.47
496.38	34061.82
496.55	34218.63
496.73	35040.16
496.91	34773.34
497.09	34785.04
497.26	35054.20
497.44	34789.72
497.62	35484.86
497.79	35922.54
497.97	35505.93
498.14	36201.07
498.32	36126.17
498.50	36353.20
498.67	36673.85
498.85	36601.30
499.03	37172.39
499.20	37432.19
499.38	37280.05
499.56	36615.34
499.73	37460.27
499.91	37525.81
500.08	37736.46
500.26	37551.56
500.44	37708.37
500.61	38476.07
500.79	37668.58
500.97	38326.27
501.14	38272.44
501.32	38511.17
501.49	38614.16
501.67	38827.15
501.84	39468.45
502.02	38768.63
502.20	39246.10
502.37	39770.38
502.55	39566.76
502.72	39360.79
502.90	39688.46
503.07	39669.74
503.25	40032.52
503.43	40051.25
503.60	40226.79
503.78	40465.52
503.95	40601.27
504.13	40685.53
504.30	41141.94
504.48	40472.54
504.65	40914.90
504.83	40832.99
505.01	41083.42
505.18	41324.50
505.36	41808.99
505.53	41244.92
505.71	41635.79
505.88	42136.66
506.06	41380.67
506.23	42440.93
506.41	41773.88
506.58	42550.94
506.76	42576.69
506.93	42543.92
507.11	42155.39
507.28	42880.95
507.46	42974.58
507.63	43061.18
507.81	43423.96
507.98	43124.37
508.16	43695.46
508.33	43557.37
508.50	44011.43
508.68	43814.83
508.85	43901.43
509.03	44371.88
509.20	44587.21
509.38	44243.15
509.55	44776.79
509.73	44687.85
509.90	44825.94
510.08	44531.03
510.25	44828.28
510.42	44697.21
510.60	45390.01
510.77	45757.47
510.95	45654.49
511.12	45422.78
511.30	44954.67
511.47	45570.23
511.64	45577.25
511.82	45977.48
511.99	45825.35
512.17	46155.36
512.34	46391.76
512.51	46747.52
512.69	46836.46
512.86	46223.24
513.04	47061.15
513.21	46801.35
513.38	46679.64
513.56	47325.63
513.73	46974.55
513.90	47129.03
514.08	46923.06
514.25	47339.68
514.43	47655.65
514.60	47353.72
514.77	47686.07
514.95	47896.72
515.12	47594.79
515.29	47831.19
515.47	48320.36
515.64	48165.88
515.81	47894.38
515.99	48706.55
516.16	48449.09
516.33	48500.58
516.51	48849.32
516.68	48746.34
516.85	48542.71
517.03	49055.29
517.20	49230.83
517.37	49186.36
517.54	48903.15
517.72	49006.14
517.89	49350.20
518.06	49598.29
518.24	49551.48
518.41	49429.77
518.58	49565.52
518.75	49734.04
518.93	49773.83
519.10	49705.96
519.27	50099.17
519.45	50129.59
519.62	50225.56
519.79	50176.40
519.96	49865.11
520.14	50305.13
520.31	50625.79
520.48	50728.77
520.65	50681.96
520.83	51138.36
521.00	50810.69
521.17	50670.26
521.34	50920.70
521.52	50880.91
521.69	51093.89
521.86	51086.87
522.03	51353.69
522.20	51285.82
522.38	51554.98
522.55	51634.56
522.72	51573.70
522.89	51468.38
523.07	51571.36
523.24	51800.74
523.41	52046.49
523.58	51870.95
523.75	51901.38
523.92	52135.43
524.10	52261.82
524.27	52299.27
524.44	52395.23
524.61	52322.68
524.78	52458.43
524.96	52327.36
525.13	52404.59
525.30	52680.78
525.47	52811.85
525.64	52823.55
525.81	52856.32
525.98	52458.43
526.16	52570.77
526.33	52774.40
526.50	53331.45
526.67	52884.40
526.84	53113.78
527.01	53130.16
527.18	52940.58
527.36	52968.66
527.53	53240.17
527.70	53305.70
527.87	53602.95
528.04	53453.15
528.21	53462.52
528.38	53539.75
528.55	53673.16
528.72	53638.06
528.89	53497.62
529.07	53312.72
529.24	53563.16
529.41	53942.33
529.58	53677.85
529.75	53551.46
529.92	53984.46
530.09	53656.78
530.26	54178.72
530.43	54253.62
530.60	54122.55
530.77	54096.80
530.94	54347.24
531.11	54316.81
531.28	54396.39
531.46	54569.59
531.63	54527.46
531.80	54539.16
531.97	54522.78
532.14	54424.48
532.31	54677.25
532.48	54564.91
532.65	54639.81
532.82	54457.24
532.99	54869.18
533.16	54700.66
533.33	54883.22
533.50	55021.31
533.67	55042.38
533.84	54635.13
534.01	55203.88
534.18	55215.58
534.35	55171.11
534.52	55611.13
534.69	55164.09
534.86	55510.49
535.03	54871.52
535.20	55412.18
535.37	55304.52
535.54	55620.49
535.71	55480.06
535.88	55402.82
536.05	55608.79
536.22	55683.69
536.38	55877.95
536.55	55763.26
536.72	55744.54
536.89	55608.79
537.06	55695.39
537.23	55800.71
537.40	55669.64
537.57	55648.58
537.74	56088.60
537.91	56179.88
538.08	56142.43
538.25	55791.35
538.42	56170.52
538.59	56081.58
538.75	56156.47
538.92	56339.04
539.09	56233.71
539.26	56360.10
539.43	56027.74
539.60	56273.50
539.77	56540.32
539.94	56596.49
540.11	56589.47
540.28	56633.94
540.44	56507.55
540.61	56631.60
540.78	56420.95
540.95	56226.69
541.12	56596.49
541.29	56678.41
541.46	56748.63
541.62	56570.75
541.79	56853.95
541.96	56409.25
542.13	56816.50
542.30	56985.02
542.47	56863.32
542.63	57123.11
542.80	56882.04
542.97	57265.89
543.14	57190.99
543.31	57329.08
543.48	57329.08
543.64	57614.63
543.81	57455.47
543.98	57425.04
544.15	57518.67
544.32	57563.14
544.48	57584.20
544.65	57364.19
544.82	57305.68
544.99	57226.10
545.16	57794.85
545.32	57560.79
545.49	57844.00
545.66	57654.42
545.83	57839.32
546.00	57567.82
546.16	57612.29
546.33	57549.09
546.50	57661.44
546.67	57733.99
546.83	57780.81
547.00	57893.15
547.17	57991.45
547.34	57928.26
547.50	58052.31
547.67	58120.18
547.84	58192.74
548.00	58164.65
548.17	58426.79
548.34	58024.22
548.51	58312.11
548.67	58340.19
548.84	58260.62
549.01	58202.10
549.18	58272.32
549.34	58370.62
549.51	58426.79
549.68	58543.82
549.84	58513.39
550.01	58394.03
550.18	58422.11
550.34	58646.80
550.51	58775.53
550.68	58438.50
550.84	58562.54
551.01	58773.19
551.18	58698.30
551.34	58691.27
551.51	58553.18
551.68	58731.06
551.84	58546.16
552.01	58461.90
552.18	58871.49
552.34	58724.04
552.51	58988.52
552.68	58534.46
552.84	58548.50
553.01	59030.65
553.18	58915.96
553.34	58850.43
553.51	58941.71
553.67	59032.99
553.84	58983.84
554.01	59192.15
554.17	58988.52
554.34	59248.32
554.51	59159.38
554.67	59117.25
554.84	58969.80
555.00	59025.97
555.17	59334.92
555.33	59028.31
555.50	59124.27
555.67	58948.73
555.83	59014.27
556.00	59281.09
556.16	59388.75
556.33	59480.03
556.50	59561.95
556.66	59388.75
556.83	59077.46
556.99	59489.40
557.16	59475.35
557.32	59465.99
557.49	59835.80
557.65	59590.04
557.82	59332.58
557.98	59419.18
558.15	59735.15
558.32	59718.77
558.48	59470.67
558.65	59601.74
558.81	59590.04
558.98	59545.57
559.14	59657.91
559.31	59737.49
559.47	59700.04
559.64	59891.97
559.80	60041.76
559.97	59894.31
560.13	59716.43
560.30	59810.05
560.46	59781.96
560.63	59910.69
560.79	60088.57
560.96	59994.95
561.12	59817.07
561.29	59835.80
561.45	59934.10
561.61	59936.44
561.78	59994.95
561.94	59779.62
562.11	59875.58
562.27	59877.93
562.44	60140.07
562.60	60196.24
562.77	60023.04
562.93	59873.24
563.10	60341.35
563.26	59870.90
563.42	60378.80
563.59	60069.85
563.75	60149.43
563.92	60044.10
564.08	59927.08
564.24	60133.04
564.41	60301.56
564.57	60303.90
564.74	60217.30
564.90	60317.95
565.07	60027.72
565.23	60437.31
565.39	60257.09
565.56	60224.32
565.72	60341.35
565.88	60434.97
566.05	60175.17
566.21	60420.93
566.38	60296.88
566.54	60378.80
566.70	60331.99
566.87	60608.17
567.03	60357.74
567.19	60516.89
567.36	60582.43
567.52	60446.68
567.68	60596.47
567.85	60444.33
568.01	60589.45
568.17	60488.80
568.34	60470.08
568.50	60458.38
568.66	60556.68
568.83	60446.68
568.99	60343.69
569.15	60498.17
569.32	60512.21
569.48	60355.39
569.64	60552.00
569.81	60465.40
569.97	60537.96
570.13	60680.73
570.30	60622.22
570.46	60683.07
570.62	60896.06
570.78	60760.31
570.95	60591.79
571.11	60830.52
571.27	60575.40
571.43	60535.62
571.60	60743.92
571.76	60825.84
571.92	60825.84
572.09	60704.13
572.25	60863.29
572.41	60809.46
572.57	60678.39
572.74	60896.06
572.90	60547.32
573.06	60870.31
573.22	60896.06
573.38	60809.46
573.55	60727.54
573.71	60961.59
573.87	60818.82
574.03	60931.17
574.20	60631.58
574.36	60893.72
574.52	60856.27
574.68	60779.03
574.84	61141.81
575.01	60849.25
575.17	60954.57
575.33	60786.05
575.49	60729.88
575.65	60823.50
575.82	60816.48
575.98	61001.38
576.14	60954.57
576.30	61006.06
576.46	60807.12
576.62	60896.06
576.79	60767.33
576.95	60851.59
577.11	60842.23
577.27	60748.60
577.43	60914.78
577.59	60982.66
577.75	60942.87
577.92	60910.10
578.08	60947.55
578.24	60856.27
578.40	61083.30
578.56	60912.44
578.72	60926.49
578.88	61130.11
579.04	61125.43
579.21	61038.83
579.37	61272.88
579.53	61106.71
579.69	60968.61
579.85	60804.78
580.01	61158.20
580.17	60776.69
580.33	60999.04
580.49	61130.11
580.65	61083.30
580.82	61057.56
580.98	60891.38
581.14	60996.70
581.30	61109.05
581.46	61226.07
581.62	61188.63
581.78	60912.44
581.94	61223.73
582.10	61307.99
582.26	61099.68
582.42	61024.79
582.58	61151.18
582.74	60903.08
582.90	60989.68
583.06	61230.75
583.22	60917.12
583.38	61057.56
583.54	61307.99
583.70	61340.76
583.86	61139.47
584.02	61022.45
584.18	61137.13
584.34	61293.95
584.50	61092.66
584.66	60945.21
584.82	60807.12
584.98	61300.97
585.14	61286.93
585.30	60999.04
585.46	61092.66
585.62	61055.21
585.78	61197.99
585.94	60999.04
586.10	61265.86
586.26	61249.48
586.42	61448.42
586.58	61303.31
586.74	61207.35
586.90	61141.81
587.06	61216.71
587.22	61172.24
587.38	61095.00
587.54	61354.80
587.70	61205.01
587.86	61160.54
588.02	61230.75
588.18	61511.62
588.34	61169.90
588.49	61219.05
