SpectraSuite Data File
++++++++++++++++++++++++++++++++++++
Date: Fri Oct 25 11:25:53 EDT 2013
User: price-jones
Dark Spectrum Present: No
Reference Spectrum Present: No
Number of Sampled Component Spectra: 1
Spectrometers: USB2+H05261
Integration Time (usec): 100000 (USB2+H05261)
Spectra Averaged: 1 (USB2+H05261)
Boxcar Smoothing: 0 (USB2+H05261)
Correct for Electrical Dark: No (USB2+H05261)
Strobe/Lamp Enabled: No (USB2+H05261)
Correct for Detector Non-linearity: No (USB2+H05261)
Correct for Stray Light: No (USB2+H05261)
Number of Pixels in Processed Spectrum: 2048
>>>>>Begin Processed Spectral Data<<<<<
365.73	212.99
365.92	212.99
366.12	212.99
366.32	135.75
366.52	147.45
366.72	121.71
366.91	119.37
367.11	74.90
367.31	133.41
367.51	140.43
367.70	163.84
367.90	117.03
368.10	170.86
368.30	138.09
368.49	198.95
368.69	196.60
368.89	152.13
369.09	140.43
369.28	145.11
369.48	128.73
369.68	194.26
369.87	163.84
370.07	191.92
370.27	264.48
370.47	306.61
370.66	557.05
370.86	650.67
371.06	578.11
371.25	678.76
371.45	704.50
371.65	678.76
371.84	648.33
372.04	697.48
372.24	741.95
372.44	786.42
372.63	730.25
372.83	812.17
373.03	732.59
373.22	734.93
373.42	802.80
373.62	744.29
373.81	760.67
374.01	830.89
374.21	971.32
374.40	784.08
374.60	788.76
374.79	821.53
374.99	868.34
375.19	887.06
375.38	868.34
375.58	807.48
375.78	898.77
375.97	880.04
376.17	933.87
376.37	866.00
376.56	861.32
376.76	866.00
376.95	880.04
377.15	954.94
377.35	828.55
377.54	954.94
377.74	950.26
377.93	917.49
378.13	884.72
378.33	908.13
378.52	919.83
378.72	947.92
378.91	936.21
379.11	983.02
379.31	1050.90
379.50	980.68
379.70	1027.50
379.89	992.39
380.09	1001.75
380.28	973.66
380.48	997.07
380.68	882.38
380.87	1004.09
381.07	1008.77
381.26	943.24
381.46	1055.58
381.65	1064.94
381.85	1027.50
382.04	1053.24
382.24	973.66
382.43	980.68
382.63	1013.45
382.83	1135.16
383.02	1109.41
383.22	1174.95
383.41	1121.12
383.61	1160.91
383.80	1149.20
384.00	1076.65
384.19	1107.07
384.39	1086.01
384.58	1144.52
384.78	1240.48
384.97	1146.86
385.17	1139.84
385.36	1179.63
385.56	1179.63
385.75	1123.46
385.95	1200.69
386.14	1221.76
386.34	1191.33
386.53	1205.38
386.72	1149.20
386.92	1198.35
387.11	1289.64
387.31	1210.06
387.50	1214.74
387.70	1224.10
387.89	1273.25
388.09	1287.29
388.28	1261.55
388.48	1249.85
388.67	1327.08
388.86	1245.16
389.06	1336.45
389.25	1364.53
389.45	1343.47
389.64	1373.89
389.84	1322.40
390.03	1425.39
390.22	1369.21
390.42	1331.76
390.61	1341.13
390.81	1434.75
391.00	1380.92
391.19	1533.05
391.39	1441.77
391.58	1413.68
391.78	1467.52
391.97	1483.90
392.16	1425.39
392.36	1511.99
392.55	1500.28
392.75	1582.20
392.94	1483.90
393.13	1568.16
393.33	1561.14
393.52	1523.69
393.71	1507.30
393.91	1600.93
394.10	1586.88
394.29	1605.61
394.49	1612.63
394.68	1659.44
394.88	1645.40
395.07	1647.74
395.26	1652.42
395.46	1659.44
395.65	1619.65
395.84	1792.85
396.04	1865.41
396.23	1778.81
396.42	1750.72
396.62	1699.23
396.81	1746.04
397.00	1813.92
397.19	1743.70
397.39	1757.74
397.58	1804.55
397.77	1912.22
397.97	1818.60
398.16	1757.74
398.35	1879.45
398.55	1870.09
398.74	2003.50
398.93	1930.94
399.12	1947.33
399.32	1872.43
399.51	1949.67
399.70	1989.46
399.90	1940.30
400.09	2010.52
400.28	2033.93
400.47	2115.84
400.67	2024.56
400.86	2062.01
401.05	2005.84
401.24	2054.99
401.44	2150.95
401.63	2251.60
401.82	2118.18
402.01	2050.31
402.21	2176.70
402.40	2167.34
402.59	2176.70
402.78	2289.04
402.97	2267.98
403.17	2246.91
403.36	2298.41
403.55	2225.85
403.74	2321.81
403.93	2356.92
404.13	2375.64
404.32	2450.54
404.51	2333.51
404.70	2342.88
404.89	2459.90
405.09	2525.44
405.28	2335.85
405.47	2422.45
405.66	2413.09
405.85	2553.52
406.05	2469.27
406.24	2677.57
406.43	2621.40
406.62	2630.76
406.81	2679.91
407.00	2523.10
407.20	2670.55
407.39	2576.93
407.58	2658.85
407.77	2839.07
407.96	2768.85
408.15	2722.04
408.34	2656.51
408.54	2892.90
408.73	2850.77
408.92	2745.45
409.11	2808.64
409.30	2920.99
409.49	2923.33
409.68	2956.10
409.87	3023.97
410.07	3030.99
410.26	2979.50
410.45	2998.23
410.64	2946.73
410.83	3096.53
411.02	3038.02
411.21	3173.77
411.40	3239.30
411.59	3295.47
411.78	3162.06
411.98	3066.10
412.17	3227.60
412.36	3258.03
412.55	3323.56
412.74	3377.39
412.93	3328.24
413.12	3302.50
413.31	3531.87
413.50	3403.14
413.69	3485.06
413.88	3548.25
414.07	3695.71
414.26	3508.46
414.45	3667.62
414.64	3634.85
414.83	3812.73
415.02	3662.94
415.22	3850.18
415.41	3770.60
415.60	3824.44
415.79	3943.80
415.98	3971.89
416.17	4004.66
416.36	3901.67
416.55	3997.64
416.74	3918.06
416.93	3943.80
417.12	4067.85
417.31	4299.56
417.50	4241.05
417.69	4224.67
417.88	4121.68
418.07	4217.65
418.26	4285.52
418.45	4367.44
418.64	4447.02
418.83	4322.97
419.02	4400.21
419.21	4608.51
419.39	4512.55
419.58	4498.51
419.77	4498.51
419.96	4767.67
420.15	4538.30
420.34	4585.11
420.53	4610.86
420.72	4601.49
420.91	4671.71
421.10	4720.86
421.29	4734.90
421.48	4657.67
421.67	4741.93
421.86	4821.50
422.05	4901.08
422.24	4924.49
422.43	4798.10
422.61	4723.20
422.80	4908.10
422.99	4924.49
423.18	4814.48
423.37	4877.68
423.56	4990.02
423.75	4889.38
423.94	4917.47
424.13	4622.56
424.32	4732.56
424.50	4938.53
424.69	5135.14
424.88	5069.60
425.07	4809.80
425.26	4842.57
425.45	4952.57
425.64	4968.96
425.83	4971.30
426.01	5018.11
426.20	5013.43
426.39	5032.15
426.58	4954.91
426.77	5015.77
426.96	5235.78
427.15	5153.86
427.33	5132.79
427.52	5167.90
427.71	5266.21
427.90	5327.06
428.09	5385.57
428.28	5345.78
428.46	5252.16
428.65	5327.06
428.84	5493.24
429.03	5680.48
429.22	5364.51
429.40	5465.15
429.59	5507.28
429.78	5341.10
429.97	5259.18
430.16	5605.58
430.34	5668.78
430.53	5561.11
430.72	5467.49
430.91	5593.88
431.10	5500.26
431.28	5708.57
431.47	5666.44
431.66	5884.11
431.85	5764.74
432.03	6043.26
432.22	5891.13
432.41	5970.71
432.60	5994.11
432.79	5987.09
432.97	5926.24
433.16	6094.76
433.35	5916.87
433.54	6160.29
433.72	5996.45
433.91	6111.14
434.10	6239.87
434.28	6146.25
434.47	6300.72
434.66	6279.66
434.85	6420.09
435.03	6363.92
435.22	6347.53
435.41	6513.71
435.59	6335.83
435.78	6502.01
435.97	6478.60
436.16	6282.00
436.34	6352.21
436.53	6619.04
436.72	6602.65
436.90	6338.17
437.09	6532.44
437.28	6445.84
437.46	6389.66
437.65	6654.14
437.84	6876.49
438.02	6761.81
438.21	6726.70
438.40	6717.34
438.58	6953.73
438.77	6925.65
438.96	7028.63
439.14	7049.69
439.33	7101.19
439.52	7129.27
439.70	7279.07
439.89	7246.30
440.08	7218.21
440.26	7400.77
440.45	7070.76
440.63	7351.62
440.82	7501.42
441.01	7503.76
441.19	7468.65
441.38	7585.68
441.57	7686.32
441.75	7616.10
441.94	8119.32
442.12	7854.84
442.31	8023.36
442.50	7861.86
442.68	7908.67
442.87	7892.29
443.05	8131.02
443.24	8166.13
443.43	8006.97
443.61	8063.15
443.80	8524.23
443.98	8039.74
444.17	7983.57
444.35	8086.55
444.54	8308.90
444.73	8339.33
444.91	8329.97
445.10	8472.74
445.28	8369.76
445.47	8159.11
445.65	8205.92
445.84	8336.99
446.02	8585.08
446.21	8613.17
446.39	8145.06
446.58	8496.14
446.77	8505.51
446.95	8180.17
447.14	8451.67
447.32	8428.27
447.51	8456.36
447.69	8379.12
447.88	8606.15
448.06	8505.51
448.25	8500.83
448.43	8631.90
448.62	8505.51
448.80	8643.60
448.99	8706.79
449.17	8739.56
449.36	8599.13
449.54	8688.07
449.73	8903.40
449.91	9013.40
450.10	8688.07
450.28	9029.79
450.46	8842.54
450.65	8847.22
450.83	8837.86
451.02	9107.02
451.20	9132.77
451.39	9088.30
451.57	9195.96
451.76	9025.11
451.94	9149.15
452.13	9481.51
452.31	9334.06
452.49	9202.99
452.68	9226.39
452.86	9476.83
453.05	9336.40
453.23	9556.41
453.42	9626.62
453.60	9338.74
453.78	9575.13
453.97	9345.76
454.15	9589.17
454.34	9533.00
454.52	9504.92
454.70	9741.31
454.89	9607.90
455.07	9582.15
455.26	9825.57
455.44	9958.98
455.62	9774.08
455.81	10026.86
455.99	9935.57
456.17	10005.79
456.36	9916.85
456.54	10242.18
456.73	10361.55
456.91	10281.97
457.09	10469.22
457.28	10668.16
457.46	10181.33
457.64	10602.63
457.83	10516.03
458.01	10466.88
458.19	10796.89
458.38	10544.11
458.56	10700.93
458.74	10726.68
458.93	10668.16
459.11	10567.52
459.29	10586.24
459.48	10803.91
459.66	10857.75
459.84	10991.16
460.03	10995.84
460.21	10918.60
460.39	11002.86
460.57	11117.54
460.76	11103.50
460.94	11047.33
461.12	11173.72
461.31	11023.92
461.49	11082.44
461.67	11370.32
461.85	11393.73
462.04	11353.94
462.22	11637.14
462.40	11777.58
462.59	11550.54
462.77	11236.91
462.95	11566.93
463.13	11665.23
463.32	11679.27
463.50	11882.90
463.68	11669.91
463.86	11878.22
464.05	11513.10
464.23	11580.97
464.41	11709.70
464.59	11679.27
464.78	12098.23
464.96	11950.78
465.14	11587.99
465.32	11892.26
465.50	12241.00
465.69	12102.91
465.87	12219.94
466.05	12091.21
466.23	12161.42
466.41	12259.73
466.60	12641.23
466.78	12283.13
466.96	12121.63
467.14	12208.23
467.32	12400.16
467.51	12617.83
467.69	12262.07
467.87	12306.54
468.05	12545.27
468.23	12442.29
468.41	12444.63
468.60	12596.76
468.78	12760.60
468.96	12613.15
469.14	12826.14
469.32	13221.69
469.50	12709.11
469.69	13078.91
469.87	13102.32
470.05	13231.05
470.23	13062.53
470.41	13085.94
470.59	13296.58
470.77	13378.50
470.95	13392.55
471.14	13305.95
471.32	13001.68
471.50	13385.52
471.68	13448.72
471.86	13530.64
472.04	13867.67
472.22	13970.66
472.40	13582.13
472.58	13781.07
472.77	13727.24
472.95	14099.39
473.13	14834.32
473.31	14040.87
473.49	14005.77
473.67	14052.58
473.85	14066.62
474.03	14469.19
474.21	14424.72
474.39	14740.69
474.57	14689.20
474.75	14890.49
474.93	15051.99
475.12	14841.34
475.30	15262.63
475.48	14904.53
475.66	15089.43
475.84	14815.59
476.02	15391.36
476.20	15475.62
476.38	15768.19
476.56	16112.25
476.74	16133.31
476.92	15838.41
477.10	15562.22
477.28	16100.55
477.46	16116.93
477.64	16290.13
477.82	16641.21
478.00	16723.13
478.18	16629.51
478.36	16945.48
478.54	16842.50
478.72	16903.35
478.90	17406.56
479.08	17165.49
479.26	17444.01
479.44	17422.95
479.62	17841.90
479.80	17942.55
479.98	18204.69
480.16	18747.69
480.34	18200.01
480.52	18670.45
480.70	18310.01
480.88	18340.44
481.06	18651.73
481.24	19005.15
481.41	18841.31
481.59	19281.33
481.77	19400.70
481.95	19711.99
482.13	19817.32
482.31	19662.84
482.49	20355.64
482.67	20215.21
482.85	20187.12
483.03	20648.21
483.21	20819.07
483.39	20992.26
483.57	20821.41
483.74	21111.63
483.92	21326.96
484.10	21289.51
484.28	21525.91
484.46	22106.36
484.64	22735.96
484.82	22040.82
485.00	22183.60
485.18	22850.65
485.35	23054.28
485.53	22761.71
485.71	23061.30
485.89	23208.75
486.07	23164.28
486.25	23126.83
486.43	23885.17
486.61	23871.12
486.78	23927.30
486.96	24133.26
487.14	24592.01
487.32	24779.25
487.50	24929.05
487.68	25116.29
487.85	24940.75
488.03	25579.71
488.21	25916.75
488.39	25872.28
488.57	25986.97
488.75	26146.12
488.92	26419.97
489.10	26703.17
489.28	26195.28
489.46	26656.36
489.64	27243.84
489.81	27840.67
489.99	27693.22
490.17	27718.96
490.35	28329.84
490.53	27892.16
490.70	28268.99
490.88	28112.17
491.06	28676.24
491.24	28709.01
491.41	28786.25
491.59	29256.70
491.77	29142.01
491.95	29450.96
492.13	29816.08
492.30	30288.87
492.48	29577.35
492.66	30169.51
492.84	30345.05
493.01	30668.04
493.19	30499.52
493.37	30925.50
493.54	31157.21
493.72	31173.60
493.90	31440.42
494.08	31555.10
494.25	31927.25
494.43	31960.02
494.61	31936.61
494.79	32402.38
494.96	32755.80
495.14	32629.41
495.32	32907.93
495.49	32872.82
495.67	33111.56
495.85	33113.90
496.02	33673.29
496.20	33867.55
496.38	34253.74
496.55	34305.23
496.73	34572.05
496.91	34450.35
497.09	34391.83
497.26	34998.03
497.44	35082.29
497.62	35234.42
497.79	35454.44
497.97	35278.89
498.14	35831.26
498.32	36016.16
498.50	36341.50
498.67	36952.38
498.85	36329.80
499.03	36442.14
499.20	36821.31
499.38	36931.31
499.56	37006.21
499.73	36903.23
499.91	37184.09
500.08	37902.64
500.26	37184.09
500.44	37579.64
500.61	37940.08
500.79	37872.21
500.97	38279.46
501.14	38511.17
501.32	38382.45
501.49	38309.89
501.67	38689.06
501.84	38995.67
502.02	39161.84
502.20	38810.76
502.37	39236.74
502.55	39332.70
502.72	39452.07
502.90	39304.62
503.07	39342.06
503.25	39709.53
503.43	39716.55
503.60	40161.25
503.78	40428.07
503.95	39856.98
504.13	40479.57
504.30	40968.74
504.48	40631.70
504.65	40715.96
504.83	41158.32
505.01	41659.20
505.18	41251.94
505.36	41193.43
505.53	41214.49
505.71	41790.27
505.88	41734.09
506.06	41596.00
506.23	42204.54
506.41	41776.22
506.58	41926.02
506.76	41979.85
506.93	42281.78
507.11	42326.25
507.28	42450.30
507.46	42429.23
507.63	42820.10
507.81	43192.25
507.98	42726.48
508.16	43234.38
508.33	43438.00
508.50	43400.55
508.68	43730.57
508.85	43636.95
509.03	43641.63
509.20	43824.19
509.38	44350.81
509.55	44219.74
509.73	44570.82
509.90	44385.92
510.08	44385.92
510.25	44697.21
510.42	44706.57
510.60	45041.27
510.77	44748.70
510.95	45446.18
511.12	45251.92
511.30	44842.32
511.47	44952.33
511.64	45603.00
511.82	45942.38
511.99	45434.48
512.17	46045.36
512.34	45937.69
512.51	45998.55
512.69	46417.50
512.86	46082.81
513.04	46216.22
513.21	46646.88
513.38	46789.65
513.56	46768.58
513.73	46747.52
513.90	46717.09
514.08	46752.20
514.25	47140.73
514.43	47388.83
514.60	47423.93
514.77	47643.94
514.95	47674.37
515.12	47402.87
515.29	47646.29
515.47	47922.47
515.64	47957.58
515.81	47512.88
515.99	48282.91
516.16	48299.30
516.33	48151.84
516.51	48619.95
516.68	48198.65
516.85	48406.96
517.03	48444.41
517.20	48643.35
517.37	48931.24
517.54	48837.62
517.72	48966.35
517.89	49247.21
518.06	49008.48
518.24	49066.99
518.41	48947.62
518.58	49518.71
518.75	49130.19
518.93	49474.24
519.10	49729.36
519.27	49474.24
519.45	49389.98
519.62	50225.56
519.79	50073.42
519.96	49794.90
520.14	50017.25
520.31	50169.38
520.48	50806.01
520.65	50143.64
520.83	50564.93
521.00	50550.89
521.17	50391.73
521.34	50504.08
521.52	50305.13
521.69	50721.75
521.86	51119.64
522.03	51019.00
522.20	51154.75
522.38	51065.81
522.55	51461.36
522.72	51489.45
522.89	51194.54
523.07	51674.35
523.24	51463.70
523.41	51653.28
523.58	51463.70
523.75	51810.10
523.92	51660.30
524.10	51990.32
524.27	52088.62
524.44	51744.56
524.61	51959.89
524.78	52339.06
524.96	52107.35
525.13	52168.20
525.30	52294.59
525.47	52296.93
525.64	52212.67
525.81	52350.76
525.98	52580.13
526.16	52428.00
526.33	52528.64
526.50	53102.07
526.67	52882.06
526.84	52711.20
527.01	52844.62
527.18	52701.84
527.36	53069.31
527.53	53027.18
527.70	53092.71
527.87	53240.17
528.04	53198.04
528.21	53146.54
528.38	53415.71
528.55	53719.98
528.72	53385.28
528.89	53071.65
529.07	53422.73
529.24	53535.07
529.41	53607.63
529.58	53565.50
529.75	53883.81
529.92	53631.04
530.09	53724.66
530.26	53834.66
530.43	53932.96
530.60	53598.27
530.77	53638.06
530.94	53947.01
531.11	53979.78
531.28	53963.39
531.46	54302.77
531.63	54213.83
531.80	54391.71
531.97	54504.06
532.14	54419.80
532.31	54358.94
532.48	54602.36
532.65	54623.42
532.82	54417.46
532.99	54515.76
533.16	54588.31
533.33	54791.94
533.50	55028.34
533.67	54871.52
533.84	54735.77
534.01	54817.69
534.18	54939.39
534.35	55035.36
534.52	55033.02
534.69	55121.96
534.86	55072.81
535.03	54621.08
535.20	55384.10
535.37	55519.85
535.54	55323.24
535.71	55231.96
535.88	55222.60
536.05	55540.91
536.22	55608.79
536.38	55491.76
536.55	55351.33
536.72	55501.12
536.89	55526.87
537.06	55615.81
537.23	55700.07
537.40	55358.35
537.57	55894.33
537.74	55587.72
537.91	55891.99
538.08	55936.46
538.25	55679.00
538.42	56097.96
538.59	56088.60
538.75	55955.19
538.92	55903.70
539.09	56158.81
539.26	55824.12
539.43	56177.54
539.60	56493.51
539.77	56161.15
539.94	56360.10
540.11	56285.20
540.28	56367.12
540.44	56495.85
540.61	56378.82
540.78	56334.35
540.95	56446.70
541.12	56170.52
541.29	56378.82
541.46	56360.10
541.62	56498.19
541.79	56495.85
541.96	56493.51
542.13	56568.41
542.30	56690.12
542.47	56722.88
542.63	56671.39
542.80	56858.63
542.97	57017.79
543.14	57343.12
543.31	57104.39
543.48	57223.76
543.64	57408.66
543.81	57242.48
543.98	57242.48
544.15	57312.70
544.32	57467.17
544.48	57418.02
544.65	57279.93
544.82	57315.04
544.99	57453.13
545.16	57719.95
545.32	57467.17
545.49	57673.14
545.66	57595.90
545.83	57396.96
546.00	57986.77
546.16	57340.78
546.33	57478.88
546.50	57439.09
546.67	57715.27
546.83	57673.14
547.00	57741.02
547.17	57935.28
547.34	57930.60
547.50	57888.47
547.67	58068.69
547.84	57946.98
548.00	57867.40
548.17	58026.56
548.34	57900.17
548.51	58103.80
548.67	58073.37
548.84	58220.83
549.01	57996.13
549.18	58216.14
549.34	58213.80
549.51	58164.65
549.68	58307.43
549.84	58445.52
550.01	58459.56
550.18	58122.52
550.34	58384.66
550.51	58340.19
550.68	58337.85
550.84	58384.66
551.01	58642.12
551.18	58372.96
551.34	58595.31
551.51	58508.71
551.68	58457.22
551.84	58672.55
552.01	58382.32
552.18	58585.95
552.34	58525.10
552.51	58464.24
552.68	58602.33
552.84	58632.76
553.01	58883.20
553.18	58539.14
553.34	58815.32
553.51	58710.00
553.67	58770.85
553.84	58941.71
554.01	58958.09
554.17	59018.95
554.34	59056.40
554.51	58948.73
554.67	59220.23
554.84	58878.52
555.00	58869.15
555.17	58850.43
555.33	59180.45
555.50	58742.77
555.67	59121.93
555.83	58873.84
556.00	59182.79
556.16	59260.02
556.33	59112.57
556.50	59388.75
556.66	59379.39
556.83	58948.73
556.99	59414.50
557.16	59348.96
557.32	59370.03
557.49	59664.94
557.65	59206.19
557.82	59185.13
557.98	59367.69
558.15	59341.94
558.32	59578.34
558.48	59367.69
558.65	59454.29
558.81	59681.32
558.98	59613.44
559.14	59379.39
559.31	59608.76
559.47	59590.04
559.64	59629.83
559.80	59540.89
559.97	59606.42
560.13	59475.35
560.30	59683.66
560.46	59896.65
560.63	59730.47
560.79	59737.49
560.96	59760.90
561.12	59688.34
561.29	59868.56
561.45	59833.46
561.61	59683.66
561.78	59681.32
561.94	59700.04
562.11	59821.75
562.27	59798.35
562.44	59901.33
562.60	60032.40
562.77	60023.04
562.93	59704.73
563.10	59941.12
563.26	59737.49
563.42	60067.51
563.59	60032.40
563.75	59994.95
563.92	60104.96
564.08	59870.90
564.24	60079.21
564.41	60341.35
564.57	60186.88
564.74	60151.77
564.90	60280.50
565.07	60062.83
565.23	60013.68
565.39	60137.72
565.56	60470.08
565.72	59959.84
565.88	60168.15
566.05	60004.31
566.21	60186.88
566.38	60339.01
566.54	60369.44
566.70	60392.84
566.87	60149.43
567.03	60210.28
567.19	60196.24
567.36	60102.62
567.52	60308.58
567.68	60369.44
567.85	60491.15
568.01	60470.08
568.17	60233.69
568.34	60374.12
568.50	60519.23
568.66	60320.29
568.83	60240.71
568.99	60271.14
569.15	60427.95
569.32	60530.93
569.48	60390.50
569.64	60559.02
569.81	60329.65
569.97	60385.82
570.13	60666.69
570.30	60339.01
570.46	60392.84
570.62	60430.29
570.78	60413.91
570.95	60243.05
571.11	60470.08
571.27	60556.68
571.43	60652.64
571.60	60528.59
571.76	60486.46
571.92	60544.98
572.09	60537.96
572.25	60357.74
572.41	60467.74
572.57	60521.57
572.74	60781.37
572.90	60671.37
573.06	60734.56
573.22	60680.73
573.38	60884.36
573.55	60603.49
573.71	60844.57
573.87	60514.55
574.03	60629.24
574.20	60699.45
574.36	60591.79
574.52	60446.68
574.68	60617.53
574.84	60779.03
575.01	60743.92
575.17	60704.13
575.33	60413.91
575.49	60687.75
575.65	60685.41
575.82	60788.39
575.98	60828.18
576.14	60851.59
576.30	60692.43
576.46	60802.44
576.62	60477.10
576.79	60776.69
576.95	60486.46
577.11	60699.45
577.27	60907.76
577.43	60811.80
577.59	60746.26
577.75	60884.36
577.92	60491.15
578.08	60776.69
578.24	60954.57
578.40	60872.65
578.56	60849.25
578.72	60601.15
578.88	61073.94
579.04	60989.68
579.21	60823.50
579.37	61132.45
579.53	60804.78
579.69	60575.40
579.85	60713.50
580.01	60851.59
580.17	60849.25
580.33	60853.93
580.49	60914.78
580.65	60884.36
580.82	60732.22
580.98	60603.49
581.14	60743.92
581.30	61155.86
581.46	60912.44
581.62	60910.10
581.78	60839.89
581.94	61059.90
582.10	60872.65
582.26	60694.77
582.42	60800.10
582.58	60844.57
582.74	60903.08
582.90	60837.54
583.06	60659.66
583.22	60683.07
583.38	60830.52
583.54	60935.85
583.70	60800.10
583.86	60774.35
584.02	60860.95
584.18	60879.67
584.34	60879.67
584.50	60874.99
584.66	60928.83
584.82	60985.00
584.98	61160.54
585.14	61200.33
585.30	60917.12
585.46	61247.14
585.62	60926.49
585.78	60989.68
585.94	60519.23
586.10	61087.98
586.26	60947.55
586.42	60968.61
586.58	61146.50
586.74	61146.50
586.90	60992.02
587.06	61010.74
587.22	61200.33
587.38	61043.51
587.54	61343.10
587.70	61249.48
587.86	60816.48
588.02	60956.91
588.18	61139.47
588.34	61186.28
588.49	60935.85
