SpectraSuite Data File
++++++++++++++++++++++++++++++++++++
Date: Fri Oct 25 10:43:44 EDT 2013
User: price-jones
Dark Spectrum Present: No
Reference Spectrum Present: No
Number of Sampled Component Spectra: 1
Spectrometers: USB2+H05261
Integration Time (usec): 100000 (USB2+H05261)
Spectra Averaged: 1 (USB2+H05261)
Boxcar Smoothing: 0 (USB2+H05261)
Correct for Electrical Dark: No (USB2+H05261)
Strobe/Lamp Enabled: No (USB2+H05261)
Correct for Detector Non-linearity: No (USB2+H05261)
Correct for Stray Light: No (USB2+H05261)
Number of Pixels in Processed Spectrum: 2048
>>>>>Begin Processed Spectral Data<<<<<
365.73	149.79
365.92	149.79
366.12	149.79
366.32	42.13
366.52	0.00
366.72	56.17
366.91	28.09
367.11	0.00
367.31	0.00
367.51	4.68
367.70	51.49
367.90	53.83
368.10	0.00
368.30	35.11
368.49	37.45
368.69	0.00
368.89	32.77
369.09	58.51
369.28	77.24
369.48	30.43
369.68	79.58
369.87	63.19
370.07	93.62
370.27	140.43
370.47	187.24
370.66	358.10
370.86	402.57
371.06	449.38
371.25	435.34
371.45	425.98
371.65	475.13
371.84	463.43
372.04	463.43
372.24	486.83
372.44	505.56
372.63	524.28
372.83	524.28
373.03	496.19
373.22	414.27
373.42	512.58
373.62	575.77
373.81	622.58
374.01	585.13
374.21	566.41
374.40	543.00
374.60	620.24
374.79	578.11
374.99	613.22
375.19	594.50
375.38	582.79
375.58	667.05
375.78	589.82
375.97	622.58
376.17	676.41
376.37	641.31
376.56	573.43
376.76	578.11
376.95	657.69
377.15	622.58
377.35	641.31
377.54	631.94
377.74	589.82
377.93	643.65
378.13	615.56
378.33	674.07
378.52	645.99
378.72	678.76
378.91	660.03
379.11	641.31
379.31	636.63
379.50	645.99
379.70	627.26
379.89	734.93
380.09	713.86
380.28	645.99
380.48	653.01
380.68	683.44
380.87	613.22
381.07	753.65
381.26	748.97
381.46	784.08
381.65	692.80
381.85	706.84
382.04	713.86
382.24	737.27
382.43	716.20
382.63	653.01
382.83	737.27
383.02	713.86
383.22	730.25
383.41	741.95
383.61	727.91
383.80	809.83
384.00	837.91
384.19	732.59
384.39	791.10
384.58	800.46
384.78	814.51
384.97	711.52
385.17	758.33
385.36	849.61
385.56	854.30
385.75	809.83
385.95	842.59
386.14	844.93
386.34	894.08
386.53	826.21
386.72	837.91
386.92	903.45
387.11	851.96
387.31	866.00
387.50	833.23
387.70	903.45
387.89	791.10
388.09	844.93
388.28	858.98
388.48	898.77
388.67	966.64
388.86	882.38
389.06	922.17
389.25	896.43
389.45	924.51
389.64	985.37
389.84	976.00
390.03	1039.20
390.22	1015.79
390.42	1025.15
390.61	943.24
390.81	1071.97
391.00	1055.58
391.19	1081.33
391.39	985.37
391.58	1018.13
391.78	961.96
391.97	1025.15
392.16	994.73
392.36	1020.47
392.55	1071.97
392.75	994.73
392.94	1013.45
393.13	931.53
393.33	943.24
393.52	1090.69
393.71	1191.33
393.91	1177.29
394.10	1060.26
394.29	1088.35
394.49	1118.78
394.68	1224.10
394.88	1280.27
395.07	1242.82
395.26	1280.27
395.46	1277.93
395.65	1245.16
395.84	1135.16
396.04	1235.80
396.23	1165.59
396.42	1184.31
396.62	1200.69
396.81	1261.55
397.00	1254.53
397.19	1355.17
397.39	1266.23
397.58	1252.19
397.77	1439.43
397.97	1385.60
398.16	1409.00
398.35	1420.71
398.55	1425.39
398.74	1432.41
398.93	1479.22
399.12	1453.47
399.32	1535.39
399.51	1514.33
399.70	1502.62
399.90	1469.86
400.09	1530.71
400.28	1570.50
400.47	1530.71
400.67	1535.39
400.86	1537.73
401.05	1596.25
401.24	1614.97
401.44	1603.27
401.63	1626.67
401.82	1727.32
402.01	1687.53
402.21	1675.82
402.40	1717.95
402.59	1795.19
402.78	1776.47
402.97	1720.29
403.17	1743.70
403.36	1813.92
403.55	1724.97
403.74	1842.00
403.93	1785.83
404.13	1874.77
404.32	1802.21
404.51	1846.68
404.70	1914.56
404.89	1884.13
405.09	1942.64
405.28	1860.73
405.47	1926.26
405.66	1954.35
405.85	1987.11
406.05	1991.80
406.24	1989.46
406.43	1959.03
406.62	2090.10
406.81	2052.65
407.00	2080.74
407.20	2066.69
407.39	2111.16
407.58	2148.61
407.77	2148.61
407.96	2221.17
408.15	2223.51
408.34	2298.41
408.54	2167.34
408.73	2279.68
408.92	2228.19
409.11	2218.83
409.30	2298.41
409.49	2214.15
409.68	2246.91
409.87	2300.75
410.07	2314.79
410.26	2267.98
410.45	2326.49
410.64	2373.30
410.83	2424.80
411.02	2464.58
411.21	2553.52
411.40	2569.91
411.59	2518.42
411.78	2576.93
411.98	2569.91
412.17	2576.93
412.36	2619.06
412.55	2726.72
412.74	2766.51
412.93	2778.22
413.12	2712.68
413.31	2827.37
413.50	2792.26
413.69	2708.00
413.88	2829.71
414.07	2855.45
414.26	3091.85
414.45	2869.50
414.64	2846.09
414.83	2986.52
415.02	3091.85
415.22	3023.97
415.41	3007.59
415.60	3016.95
415.79	3218.24
415.98	3243.98
416.17	3199.51
416.36	3115.25
416.55	3272.07
416.74	3218.24
416.93	3286.11
417.12	3258.03
417.31	3232.28
417.50	3255.69
417.69	3368.03
417.88	3342.28
418.07	3370.37
418.26	3403.14
418.45	3363.35
418.64	3463.99
418.83	3398.46
419.02	3485.06
419.21	3529.53
419.39	3550.59
419.58	3468.67
419.77	3506.12
419.96	3524.85
420.15	3644.21
420.34	3529.53
420.53	3602.08
420.72	3765.92
420.91	3819.75
421.10	3812.73
421.29	3861.88
421.48	3737.84
421.67	3791.67
421.86	3740.18
422.05	3665.28
422.24	3789.33
422.43	3632.51
422.61	3892.31
422.80	3829.12
422.99	3744.86
423.18	3901.67
423.37	4044.45
423.56	3911.04
423.75	3915.72
423.94	3744.86
424.13	3644.21
424.32	3646.55
424.50	3946.14
424.69	3946.14
424.88	3840.82
425.07	3735.50
425.26	3866.56
425.45	3997.64
425.64	3880.61
425.83	3932.10
426.01	3906.35
426.20	3985.93
426.39	3878.27
426.58	3798.69
426.77	3817.41
426.96	3819.75
427.15	3990.61
427.33	4049.13
427.52	3929.76
427.71	4009.34
427.90	4124.02
428.09	4227.01
428.28	4044.45
428.46	4037.42
428.65	4250.41
428.84	4149.77
429.03	4236.37
429.22	4049.13
429.40	4044.45
429.59	4152.11
429.78	3974.23
429.97	3822.09
430.16	4011.68
430.34	4100.62
430.53	4154.45
430.72	4266.80
430.91	4133.39
431.10	4224.67
431.28	4447.02
431.47	4528.94
431.66	4652.98
431.85	4596.81
432.03	4615.54
432.22	4484.47
432.41	4451.70
432.60	4557.02
432.79	4526.60
432.97	4725.54
433.16	4650.64
433.35	4449.36
433.54	4629.58
433.72	4685.75
433.91	4615.54
434.10	4688.09
434.28	4798.10
434.47	4664.69
434.66	4779.37
434.85	4891.72
435.03	4856.61
435.22	4856.61
435.41	4933.85
435.59	5116.41
435.78	5008.75
435.97	4997.04
436.16	4880.02
436.34	4915.12
436.53	5050.88
436.72	5095.35
436.90	5036.83
437.09	5233.44
437.28	5053.22
437.46	5008.75
437.65	5043.85
437.84	5097.69
438.02	5123.43
438.21	5060.24
438.40	5130.45
438.58	5172.58
438.77	5341.10
438.96	5338.76
439.14	5331.74
439.33	5572.82
439.52	5654.73
439.70	5495.58
439.89	5586.86
440.08	5511.96
440.26	5568.13
440.45	5636.01
440.63	5729.63
440.82	5879.43
441.01	5760.06
441.19	5870.06
441.38	5984.75
441.57	6061.99
441.75	6115.82
441.94	6225.82
442.12	6120.50
442.31	6289.02
442.50	6150.93
442.68	6193.06
442.87	6139.23
443.05	6384.98
443.24	6457.54
443.43	6223.48
443.61	6286.68
443.80	6621.38
443.98	6129.86
444.17	6331.15
444.35	6267.95
444.54	6509.03
444.73	6377.96
444.91	6382.64
445.10	6464.56
445.28	6396.68
445.47	6319.45
445.65	6478.60
445.84	6424.77
446.02	6473.92
446.21	6401.37
446.39	6525.41
446.58	6469.24
446.77	6707.98
446.95	6434.13
447.14	6658.82
447.32	6487.96
447.51	6476.26
447.69	6644.78
447.88	6665.85
448.06	6546.48
448.25	6494.99
448.43	6567.54
448.62	6595.63
448.80	6485.62
448.99	6588.61
449.17	6902.24
449.36	6661.16
449.54	6860.11
449.73	6963.09
449.91	6913.94
450.10	6984.16
450.28	7133.95
450.46	7105.87
450.65	7131.61
450.83	7103.53
451.02	7176.08
451.20	6942.03
451.39	7054.37
451.57	6949.05
451.76	7014.59
451.94	7061.40
452.13	7194.81
452.31	7112.89
452.49	7045.01
452.68	6935.01
452.86	7063.74
453.05	7150.34
453.23	7115.23
453.42	7096.50
453.60	7115.23
453.78	7421.84
453.97	7204.17
454.15	7438.22
454.34	7236.94
454.52	7459.29
454.70	7492.05
454.89	7485.03
455.07	7377.37
455.26	7515.46
455.44	7487.37
455.62	7435.88
455.81	7517.80
455.99	7555.25
456.17	7660.57
456.36	7597.38
456.54	7861.86
456.73	7861.86
456.91	8114.64
457.09	7981.23
457.28	8058.46
457.46	7882.92
457.64	8203.58
457.83	8145.06
458.01	7913.35
458.19	8177.83
458.38	8149.75
458.56	8149.75
458.74	8114.64
458.93	8320.60
459.11	8112.30
459.29	8313.58
459.48	8114.64
459.66	8173.15
459.84	8297.20
460.03	8238.69
460.21	8329.97
460.39	8318.26
460.57	8493.80
460.76	8526.57
460.94	8571.04
461.12	8297.20
461.31	8379.12
461.49	8475.08
461.67	8421.25
461.85	8777.01
462.04	8657.64
462.22	9043.83
462.40	8781.69
462.59	8713.81
462.77	8985.32
462.95	8681.05
463.13	8690.41
463.32	8657.64
463.50	8997.02
463.68	8980.64
463.86	8872.97
464.05	8725.52
464.23	8966.59
464.41	8800.41
464.59	8788.71
464.78	8959.57
464.96	9032.13
465.14	8954.89
465.32	8940.85
465.50	9048.51
465.69	9238.09
465.87	9111.71
466.05	9060.21
466.23	9053.19
466.41	9032.13
466.60	9373.85
466.78	8760.63
466.96	9107.02
467.14	9305.97
467.32	9373.85
467.51	9404.27
467.69	8938.51
467.87	9397.25
468.05	9359.80
468.23	9235.75
468.41	9488.53
468.60	9399.59
468.78	9359.80
468.96	9423.00
469.14	9624.28
469.32	9675.77
469.50	9341.08
469.69	9666.41
469.87	9680.46
470.05	9830.25
470.23	9701.52
470.41	9685.14
470.59	9771.74
470.77	9673.43
470.95	9996.43
471.14	9802.16
471.32	9741.31
471.50	10277.29
471.68	10207.08
471.86	10080.69
472.04	10251.55
472.22	10399.00
472.40	10115.80
472.58	10230.48
472.77	10244.52
472.95	10504.32
473.13	10686.89
473.31	10181.33
473.49	10281.97
473.67	10399.00
473.85	10628.37
474.03	10778.17
474.21	10679.86
474.39	10853.06
474.57	10981.79
474.75	11073.07
474.93	10869.45
475.12	11082.44
475.30	10956.05
475.48	10850.72
475.66	11068.39
475.84	11000.52
476.02	11201.80
476.20	11169.04
476.38	11353.94
476.56	11693.32
476.74	11580.97
476.92	11396.07
477.10	11578.63
477.28	11941.41
477.46	12177.81
477.64	12212.92
477.82	12011.63
478.00	12500.80
478.18	12231.64
478.36	12704.43
478.54	12472.71
478.72	12468.03
478.90	12690.38
479.08	12739.54
479.26	12985.29
479.44	12952.52
479.62	13209.98
479.80	13107.00
479.98	13191.26
480.16	13329.35
480.34	13228.71
480.52	13509.57
480.70	13570.43
480.88	13324.67
481.06	13563.40
481.24	13509.57
481.41	14075.98
481.59	14143.86
481.77	14408.34
481.95	14054.92
482.13	14200.03
482.31	14253.86
482.49	14626.01
482.67	14684.52
482.85	14796.87
483.03	15159.65
483.21	15147.95
483.39	15016.88
483.57	15037.94
483.74	15328.17
483.92	15389.02
484.10	15412.43
484.28	15606.69
484.46	15880.53
484.64	16039.69
484.82	15829.04
485.00	15953.09
485.18	16156.72
485.35	16332.26
485.53	15932.03
485.71	15798.62
485.89	16439.92
486.07	16208.21
486.25	16428.22
486.43	16594.40
486.61	16638.87
486.78	17062.51
486.96	16985.27
487.14	17771.69
487.32	17879.35
487.50	17657.00
487.68	17795.09
487.85	18291.29
488.03	18361.50
488.21	18515.98
488.39	18347.46
488.57	18277.24
488.75	18838.97
488.92	18787.48
489.10	19213.46
489.28	19248.57
489.46	19316.44
489.64	19267.29
489.81	20142.65
489.99	19749.44
490.17	20121.59
490.35	20109.88
490.53	20308.83
490.70	20229.25
490.88	20147.33
491.06	21013.33
491.24	20512.46
491.41	20292.44
491.59	20479.69
491.77	20372.02
491.95	20840.13
492.13	20734.81
492.30	21397.18
492.48	21434.63
492.66	21722.51
492.84	21308.24
493.01	21862.94
493.19	21710.81
493.37	21755.28
493.54	22033.80
493.72	22504.25
493.90	22375.52
494.08	22572.13
494.25	23138.54
494.43	22939.59
494.61	23133.86
494.79	23187.69
494.96	23201.73
495.14	23393.65
495.32	23651.11
495.49	23660.48
495.67	23782.18
495.85	23756.44
496.02	24056.03
496.20	24114.54
496.38	23913.25
496.55	24341.57
496.73	24793.29
496.91	24716.06
497.09	24936.07
497.26	24929.05
497.44	24547.54
497.62	24835.42
497.79	25116.29
497.97	25013.31
498.14	24989.90
498.32	25408.86
498.50	25209.91
498.67	25743.55
498.85	25781.00
499.03	25818.45
499.20	25895.69
499.38	25865.26
499.56	26071.23
499.73	26232.72
499.91	26480.82
500.08	25954.20
500.26	26019.74
500.44	26291.24
500.61	26387.20
500.79	26319.32
500.97	26768.71
501.14	26843.60
501.32	26820.20
501.49	26628.27
501.67	27077.66
501.84	27248.52
502.02	27402.99
502.20	27065.96
502.37	27456.82
502.55	27274.26
502.72	27424.06
502.90	27721.30
503.07	27536.40
503.25	27805.56
503.43	27711.94
503.60	27892.16
503.78	27878.12
503.95	28102.81
504.13	28423.47
504.30	28514.75
504.48	28327.50
504.65	28472.62
504.83	28790.93
505.01	28790.93
505.18	28914.98
505.36	29067.11
505.53	28903.28
505.71	29523.52
505.88	29268.40
506.06	28884.55
506.23	29500.11
506.41	29029.66
506.58	29645.23
506.76	29376.06
506.93	29846.51
507.11	29539.90
507.28	29626.50
507.46	29769.27
507.63	29364.36
507.81	29874.60
507.98	29390.11
508.16	29905.02
508.33	30541.65
508.50	30185.89
508.68	30448.03
508.85	30452.71
509.03	30646.97
509.20	30761.66
509.38	30728.89
509.55	30986.35
509.73	30820.17
509.90	31185.30
510.08	31201.68
510.25	31316.37
510.42	31316.37
510.60	31246.15
510.77	31379.56
510.95	31934.27
511.12	31379.56
511.30	31789.16
511.47	31861.71
511.64	31999.80
511.82	31793.84
511.99	31835.97
512.17	31864.05
512.34	31903.84
512.51	32393.01
512.69	32535.79
512.86	32374.29
513.04	32610.68
513.21	32224.50
513.38	32102.79
513.56	32671.54
513.73	32500.68
513.90	32816.65
514.08	32706.65
514.25	33146.67
514.43	32950.06
514.60	32929.00
514.77	33144.33
514.95	33528.17
515.12	32971.13
515.29	33446.26
515.47	33511.79
515.64	33565.62
515.81	33481.36
515.99	33661.58
516.16	33663.93
516.33	33282.42
516.51	33303.48
516.68	33043.68
516.85	33022.62
517.03	33237.95
517.20	33631.16
517.37	33731.80
517.54	33996.28
517.72	34007.98
517.89	33778.61
518.06	33832.44
518.24	33659.24
518.41	33977.56
518.58	34487.79
518.75	33933.09
518.93	34906.75
519.10	34352.04
519.27	34550.99
519.45	34721.85
519.62	34937.18
519.79	35227.40
519.96	35199.32
520.14	35372.52
520.31	35082.29
520.48	35400.60
520.65	35393.58
520.83	35744.66
521.00	35590.19
521.17	35328.05
521.34	35601.89
521.52	35655.72
521.69	35915.52
521.86	36140.21
522.03	36084.04
522.20	35859.35
522.38	35892.12
522.55	35976.37
522.72	36140.21
522.89	35917.86
523.07	36187.02
523.24	36182.34
523.41	36268.94
523.58	36449.16
523.75	37425.17
523.92	37008.55
524.10	36861.10
524.27	37153.66
524.44	37031.96
524.61	37373.67
524.78	37207.50
524.96	37127.92
525.13	36811.95
525.30	37546.87
525.47	37912.00
525.64	37345.59
525.81	37132.60
525.98	37029.62
526.16	37153.66
526.33	36982.80
526.50	37064.72
526.67	37165.37
526.84	37467.30
527.01	36828.33
527.18	37493.04
527.36	37844.12
527.53	37975.19
527.70	37998.60
527.87	37832.42
528.04	37855.82
528.21	37991.58
528.38	38075.84
528.55	38218.61
528.72	38944.17
528.89	38471.39
529.07	38792.04
529.24	38349.68
529.41	38520.54
529.58	38345.00
529.75	38455.00
529.92	38590.75
530.09	38763.95
530.26	38600.12
530.43	38852.89
530.60	38347.34
530.77	38951.20
530.94	39215.68
531.11	38873.96
531.28	38756.93
531.46	39138.44
531.63	39335.04
531.80	38923.11
531.97	39086.95
532.14	38998.01
532.31	38705.44
532.48	39063.54
532.65	39248.44
532.82	39440.37
532.99	39346.75
533.16	39613.57
533.33	39812.51
533.50	39957.63
533.67	39922.52
533.84	39620.59
534.01	39580.80
534.18	39431.01
534.35	39955.29
534.52	39496.54
534.69	40378.92
534.86	40395.31
535.03	40088.70
535.20	40730.00
535.37	40439.78
535.54	40671.49
535.71	40343.81
535.88	40285.30
536.05	40505.31
536.22	40034.86
536.38	40704.26
536.55	40498.29
536.72	40332.11
536.89	40100.40
537.06	40568.51
537.23	40753.41
537.40	40573.19
537.57	40748.73
537.74	40893.84
537.91	41163.00
538.08	40669.15
538.25	40535.74
538.42	40926.61
538.59	41392.37
538.75	40837.67
538.92	40912.56
539.09	40861.07
539.26	40872.78
539.43	40807.24
539.60	40945.33
539.77	41074.06
539.94	40985.12
540.11	40479.57
540.28	41820.69
540.44	41017.89
540.61	41167.68
540.78	40912.56
540.95	41315.14
541.12	41057.68
541.29	41659.20
541.46	41823.03
541.62	41434.50
541.79	41762.18
541.96	41055.34
542.13	41275.35
542.30	41319.82
542.47	41684.94
542.63	41216.83
542.80	41834.74
542.97	42284.12
543.14	42660.94
543.31	42614.13
543.48	42501.79
543.64	42766.27
543.81	42078.15
543.98	42677.33
544.15	42529.87
544.32	42160.07
544.48	43084.58
544.65	42754.57
544.82	42349.65
544.99	42171.77
545.16	42756.91
545.32	42469.02
545.49	42997.98
545.66	43047.13
545.83	43129.05
546.00	43295.23
546.16	42260.71
546.33	42359.02
546.50	42293.48
546.67	43051.81
546.83	42459.66
547.00	42909.04
547.17	42925.42
547.34	42759.25
547.50	42916.06
547.67	42904.36
547.84	42990.96
548.00	43026.07
548.17	43295.23
548.34	42951.17
548.51	43487.15
548.67	43587.80
548.84	43318.64
549.01	43470.77
549.18	43447.36
549.34	43428.64
549.51	43501.20
549.68	44004.41
549.84	43255.44
550.01	43643.97
550.18	43421.62
550.34	43618.22
550.51	43775.04
550.68	43899.09
550.84	43159.48
551.01	44018.46
551.18	43896.75
551.34	43903.77
551.51	44186.97
551.68	43538.65
551.84	43728.23
552.01	43793.76
552.18	43421.62
552.34	43875.68
552.51	43784.40
552.68	44093.35
552.84	43901.43
553.01	44360.17
553.18	43779.72
553.34	44004.41
553.51	44137.82
553.67	44222.08
553.84	44636.36
554.01	44299.32
554.17	44472.52
554.34	44329.75
554.51	44404.64
554.67	44568.48
554.84	44598.91
555.00	44121.44
555.17	44116.76
555.33	44086.33
555.50	44975.73
555.67	44465.50
555.83	44524.01
556.00	44575.50
556.16	44952.33
556.33	44318.04
556.50	44666.78
556.66	44954.67
556.83	44477.20
556.99	44999.14
557.16	44701.89
557.32	44807.22
557.49	44849.35
557.65	44439.75
557.82	44732.32
557.98	44648.06
558.15	44875.09
558.32	45003.82
558.48	44652.74
558.65	44566.14
558.81	44409.32
558.98	44594.23
559.14	44858.71
559.31	44584.86
559.47	44781.47
559.64	45031.91
559.80	44680.83
559.97	44732.32
560.13	44568.48
560.30	44715.93
560.46	44961.69
560.63	45184.04
560.79	45308.09
560.96	44999.14
561.12	44788.49
561.29	45024.89
561.45	45120.85
561.61	44968.71
561.78	45111.49
561.94	44605.93
562.11	45146.59
562.27	44987.44
562.44	45102.12
562.60	45064.67
562.77	45120.85
562.93	45291.71
563.10	45422.78
563.26	44788.49
563.42	45263.62
563.59	45483.63
563.75	45155.96
563.92	45401.71
564.08	45172.34
564.24	45565.55
564.41	45411.07
564.57	45099.78
564.74	45317.45
564.90	45476.61
565.07	45303.41
565.23	45219.15
565.39	44954.67
565.56	45244.90
565.72	45125.53
565.88	45184.04
566.05	44992.12
566.21	45216.81
566.38	45425.12
566.54	45638.11
566.70	45401.71
566.87	45766.84
567.03	45855.78
567.19	45900.25
567.36	45401.71
567.52	45055.31
567.68	45425.12
567.85	45373.63
568.01	45462.57
568.17	45481.29
568.34	45610.02
568.50	45418.10
568.66	45481.29
568.83	45764.49
568.99	45228.51
569.15	45413.41
569.32	45544.48
569.48	44854.03
569.64	45708.32
569.81	45642.79
569.97	45170.00
570.13	45471.93
570.30	45291.71
570.46	45303.41
570.62	45247.24
570.78	45280.00
570.95	45202.77
571.11	45509.38
571.27	45017.86
571.43	45198.09
571.60	45448.52
571.76	45577.25
571.92	45626.40
572.09	45970.46
572.25	45525.76
572.41	45769.18
572.57	45897.91
572.74	45989.19
572.90	45680.24
573.06	45794.92
573.22	45834.71
573.38	46146.00
573.55	45537.46
573.71	45715.34
573.87	45914.29
574.03	45797.26
574.20	45500.01
574.36	45530.44
574.52	45652.15
574.68	45780.88
574.84	45855.78
575.01	45626.40
575.17	45830.03
575.33	45647.47
575.49	45593.64
575.65	45846.41
575.82	45954.08
575.98	45640.45
576.14	45965.78
576.30	45958.76
576.46	45556.19
576.62	45804.28
576.79	45521.08
576.95	45610.02
577.11	45492.99
577.27	46113.23
577.43	45373.63
577.59	45390.01
577.75	45478.95
577.92	45879.18
578.08	45170.00
578.24	45567.89
578.40	45715.34
578.56	45743.43
578.72	46096.85
578.88	45766.84
579.04	45909.61
579.21	45708.32
579.37	45705.98
579.53	45825.35
579.69	45495.33
579.85	45659.17
580.01	45914.29
580.17	45572.57
580.33	45713.00
580.49	45972.80
580.65	45799.60
580.82	46164.73
580.98	45738.75
581.14	45301.07
581.30	46195.15
581.46	45647.47
581.62	45876.84
581.78	45366.60
581.94	45865.14
582.10	45970.46
582.26	46068.76
582.42	45558.53
582.58	45923.65
582.74	45986.85
582.90	45954.08
583.06	46045.36
583.22	46185.79
583.38	46064.08
583.54	46110.89
583.70	46087.49
583.86	46291.12
584.02	45507.04
584.18	46192.81
584.34	45897.91
584.50	46295.80
584.66	45675.55
584.82	45867.48
584.98	45965.78
585.14	45914.29
585.30	45635.77
585.46	46099.19
585.62	45457.88
585.78	45511.72
585.94	45539.80
586.10	45654.49
586.26	45670.87
586.42	45914.29
586.58	45918.97
586.74	45799.60
586.90	46143.66
587.06	45668.53
587.22	46368.35
587.38	46021.95
587.54	46005.57
587.70	46115.58
587.86	46043.02
588.02	46005.57
588.18	46092.17
588.34	45682.58
588.49	44910.20
588.65	45336.18
588.81	45546.82
588.97	45378.31
589.13	45425.12
589.29	45565.55
589.45	45361.92
589.61	45935.35
589.77	45862.80
589.93	45750.45
590.08	45984.51
