SpectraSuite Data File
++++++++++++++++++++++++++++++++++++
Date: Fri Oct 25 11:24:05 EDT 2013
User: price-jones
Dark Spectrum Present: No
Reference Spectrum Present: No
Number of Sampled Component Spectra: 1
Spectrometers: USB2+H05261
Integration Time (usec): 100000 (USB2+H05261)
Spectra Averaged: 1 (USB2+H05261)
Boxcar Smoothing: 0 (USB2+H05261)
Correct for Electrical Dark: No (USB2+H05261)
Strobe/Lamp Enabled: No (USB2+H05261)
Correct for Detector Non-linearity: No (USB2+H05261)
Correct for Stray Light: No (USB2+H05261)
Number of Pixels in Processed Spectrum: 2048
>>>>>Begin Processed Spectral Data<<<<<
365.73	276.18
365.92	276.18
366.12	276.18
366.32	182.56
366.52	93.62
366.72	147.45
366.91	163.84
367.11	102.98
367.31	187.24
367.51	105.32
367.70	135.75
367.90	131.07
368.10	100.64
368.30	196.60
368.49	147.45
368.69	191.92
368.89	177.88
369.09	142.77
369.28	173.20
369.48	173.20
369.68	220.01
369.87	152.13
370.07	201.29
370.27	269.16
370.47	341.72
370.66	528.96
370.86	603.86
371.06	709.18
371.25	650.67
371.45	627.26
371.65	690.46
371.84	697.48
372.04	734.93
372.24	774.72
372.44	739.61
372.63	772.38
372.83	727.91
373.03	706.84
373.22	718.54
373.42	784.08
373.62	784.08
373.81	788.76
374.01	814.51
374.21	849.61
374.40	851.96
374.60	844.93
374.79	730.25
374.99	814.51
375.19	821.53
375.38	922.17
375.58	800.46
375.78	919.83
375.97	903.45
376.17	947.92
376.37	786.42
376.56	858.98
376.76	828.55
376.95	936.21
377.15	877.70
377.35	912.81
377.54	823.87
377.74	926.85
377.93	812.17
378.13	903.45
378.33	950.26
378.52	819.19
378.72	905.79
378.91	924.51
379.11	870.68
379.31	910.47
379.50	952.60
379.70	1018.13
379.89	957.28
380.09	964.30
380.28	943.24
380.48	950.26
380.68	936.21
380.87	1032.18
381.07	999.41
381.26	1032.18
381.46	997.07
381.65	938.55
381.85	964.30
382.04	1036.86
382.24	1050.90
382.43	983.02
382.63	1088.35
382.83	1034.52
383.02	1111.75
383.22	1111.75
383.41	1135.16
383.61	1132.82
383.80	1095.37
384.00	1128.14
384.19	1186.65
384.39	1160.91
384.58	1086.01
384.78	1151.54
384.97	1219.42
385.17	1186.65
385.36	1130.48
385.56	1170.27
385.75	1193.67
385.95	1104.73
386.14	1200.69
386.34	1132.82
386.53	1156.22
386.72	1188.99
386.92	1287.29
387.11	1196.01
387.31	1217.08
387.50	1226.44
387.70	1291.98
387.89	1345.81
388.09	1263.89
388.28	1282.61
388.48	1313.04
388.67	1315.38
388.86	1352.83
389.06	1291.98
389.25	1345.81
389.45	1341.13
389.64	1437.09
389.84	1373.89
390.03	1406.66
390.22	1458.15
390.42	1444.11
390.61	1394.96
390.81	1451.13
391.00	1439.43
391.19	1481.56
391.39	1455.81
391.58	1371.55
391.78	1549.43
391.97	1371.55
392.16	1430.07
392.36	1460.49
392.55	1502.62
392.75	1486.24
392.94	1563.48
393.13	1509.65
393.33	1629.01
393.52	1507.30
393.71	1664.12
393.91	1643.06
394.10	1565.82
394.29	1610.29
394.49	1701.57
394.68	1664.12
394.88	1687.53
395.07	1701.57
395.26	1645.40
395.46	1638.38
395.65	1739.02
395.84	1757.74
396.04	1827.96
396.23	1827.96
396.42	1703.91
396.62	1823.28
396.81	1820.94
397.00	1818.60
397.19	1750.72
397.39	1870.09
397.58	1823.28
397.77	1804.55
397.97	1900.52
398.16	1694.55
398.35	1907.54
398.55	1832.64
398.74	1891.15
398.93	1914.56
399.12	1963.71
399.32	1980.09
399.51	1970.73
399.70	1926.26
399.90	1886.47
400.09	2001.16
400.28	2017.54
400.47	2015.20
400.67	2094.78
400.86	2083.08
401.05	2136.91
401.24	2214.15
401.44	2087.76
401.63	2094.78
401.82	2113.50
402.01	2064.35
402.21	2179.04
402.40	2190.74
402.59	2272.66
402.78	2235.21
402.97	2242.23
403.17	2328.83
403.36	2277.34
403.55	2401.39
403.74	2368.62
403.93	2263.30
404.13	2286.70
404.32	2298.41
404.51	2377.98
404.70	2331.17
404.89	2452.88
405.09	2417.77
405.28	2490.33
405.47	2473.95
405.66	2413.09
405.85	2534.80
406.05	2560.55
406.24	2537.14
406.43	2523.10
406.62	2544.16
406.81	2675.23
407.00	2745.45
407.20	2551.18
407.39	2558.21
407.58	2665.87
407.77	2686.94
407.96	2843.75
408.15	2808.64
408.34	2644.81
408.54	2818.00
408.73	2878.86
408.92	2789.92
409.11	2794.60
409.30	2909.29
409.49	2949.08
409.68	2939.71
409.87	2937.37
410.07	3030.99
410.26	3091.85
410.45	3049.72
410.64	3023.97
410.83	3012.27
411.02	3141.00
411.21	3173.77
411.40	3155.04
411.59	3225.26
411.78	3192.49
411.98	3117.59
412.17	3194.83
412.36	3382.07
412.55	3328.24
412.74	3459.31
412.93	3494.42
413.12	3398.46
413.31	3541.23
413.50	3566.98
413.69	3475.70
413.88	3569.32
414.07	3623.15
414.26	3695.71
414.45	3775.28
414.64	3686.34
414.83	3742.52
415.02	3915.72
415.22	3864.22
415.41	3929.76
415.60	4007.00
415.79	3840.82
415.98	4088.92
416.17	3894.65
416.36	3943.80
416.55	3995.29
416.74	4063.17
416.93	3997.64
417.12	4109.98
417.31	4301.90
417.50	4119.34
417.69	4381.48
417.88	4365.10
418.07	4187.22
418.26	4404.89
418.45	4311.27
418.64	4390.84
418.83	4498.51
419.02	4414.25
419.21	4552.34
419.39	4552.34
419.58	4456.38
419.77	4510.21
419.96	4674.05
420.15	4718.52
420.34	4641.28
420.53	4596.81
420.72	4748.95
420.91	4739.58
421.10	4746.61
421.29	4744.27
421.48	4847.25
421.67	4819.16
421.86	4690.43
422.05	4903.42
422.24	4854.27
422.43	5011.09
422.61	4896.40
422.80	4940.87
422.99	4849.59
423.18	4861.29
423.37	4990.02
423.56	4997.04
423.75	4917.47
423.94	4793.42
424.13	4685.75
424.32	4851.93
424.50	4975.98
424.69	5069.60
424.88	5160.88
425.07	5067.26
425.26	5158.54
425.45	5109.39
425.64	5083.64
425.83	4992.36
426.01	5048.54
426.20	5114.07
426.39	4957.25
426.58	5179.61
426.77	5069.60
426.96	5238.12
427.15	5167.90
427.33	5069.60
427.52	5151.52
427.71	5359.83
427.90	5284.93
428.09	5434.72
428.28	5359.83
428.46	5542.39
428.65	5252.16
428.84	5596.22
429.03	5568.13
429.22	5350.46
429.40	5528.35
429.59	5640.69
429.78	5165.56
429.97	5298.97
430.16	5708.57
430.34	5441.75
430.53	5600.90
430.72	5682.82
430.91	5526.00
431.10	5591.54
431.28	5804.53
431.47	5757.72
431.66	5982.41
431.85	5944.96
432.03	6111.14
432.22	6019.86
432.41	5888.79
432.60	5769.42
432.79	6010.50
432.97	5949.64
433.16	6179.01
433.35	6019.86
433.54	6225.82
433.72	6193.06
433.91	6200.08
434.10	6197.74
434.28	6078.37
434.47	6200.08
434.66	6359.24
434.85	6347.53
435.03	6328.81
435.22	6424.77
435.41	6480.94
435.59	6389.66
435.78	6478.60
435.97	6485.62
436.16	6480.94
436.34	6380.30
436.53	6539.46
436.72	6665.85
436.90	6291.36
437.09	6693.93
437.28	6459.88
437.46	6516.05
437.65	6724.36
437.84	6750.10
438.02	6806.28
438.21	6789.89
438.40	6801.60
438.58	6946.71
438.77	7110.55
438.96	6913.94
439.14	7129.27
439.33	7239.28
439.52	7321.20
439.70	7400.77
439.89	7293.11
440.08	7552.91
440.26	7454.61
440.45	7375.03
440.63	7573.97
440.82	7417.16
441.01	7578.65
441.19	7634.83
441.38	7779.94
441.57	7939.10
441.75	7873.56
441.94	7943.78
442.12	7939.10
442.31	8198.90
442.50	8168.47
442.68	8032.72
442.87	8042.08
443.05	7981.23
443.24	8250.39
443.43	8028.04
443.61	8325.29
443.80	8730.20
443.98	8170.81
444.17	7840.79
444.35	8294.86
444.54	8273.79
444.73	8444.65
444.91	8470.40
445.10	8470.40
445.28	8493.80
445.47	8273.79
445.65	8428.27
445.84	8418.91
446.02	8486.78
446.21	8463.38
446.39	8514.87
446.58	8547.64
446.77	8636.58
446.95	8329.97
447.14	8535.93
447.32	8575.72
447.51	8510.19
447.69	8414.23
447.88	8535.93
448.06	8730.20
448.25	8589.77
448.43	8571.04
448.62	8732.54
448.80	8519.55
448.99	8793.39
449.17	8704.45
449.36	8676.37
449.54	8830.84
449.73	9039.15
449.91	9142.13
450.10	9067.24
450.28	9104.68
450.46	9170.22
450.65	9018.08
450.83	9217.03
451.02	9114.05
451.20	9053.19
451.39	9160.86
451.57	9214.69
451.76	9015.74
451.94	9224.05
452.13	9540.02
452.31	9561.09
452.49	9327.03
452.68	9418.32
452.86	9366.82
453.05	9556.41
453.23	9575.13
453.42	9432.36
453.60	9619.60
453.78	9874.72
453.97	9446.40
454.15	9654.71
454.34	9364.48
454.52	9853.66
454.70	9687.48
454.89	9956.64
455.07	9916.85
455.26	9823.23
455.44	9987.07
455.62	10045.58
455.81	9996.43
455.99	10256.23
456.17	9893.44
456.36	10097.07
456.54	10134.52
456.73	10232.82
456.91	10574.54
457.09	10651.78
457.28	10682.20
457.46	10338.15
457.64	10895.19
457.83	10586.24
458.01	10380.28
458.19	10747.74
458.38	10740.72
458.56	10806.25
458.74	10850.72
458.93	10857.75
459.11	10799.23
459.29	10822.64
459.48	10944.34
459.66	10843.70
459.84	11040.31
460.03	11080.10
460.21	11070.73
460.39	10846.04
460.57	10958.39
460.76	11269.68
460.94	11187.76
461.12	11433.52
461.31	11260.32
461.49	11103.50
461.67	11468.62
461.85	11541.18
462.04	11213.51
462.22	11431.18
462.40	11433.52
462.59	11573.95
462.77	11590.33
462.95	11754.17
463.13	11702.68
463.32	11585.65
463.50	11700.34
463.68	11721.40
463.86	11728.42
464.05	11552.88
464.23	11634.80
464.41	11660.55
464.59	11819.71
464.78	12355.69
464.96	11992.90
465.14	11845.45
465.32	12100.57
465.50	12187.17
465.69	12266.75
465.87	12252.70
466.05	12163.76
466.23	12142.70
466.41	12084.19
466.60	12514.84
466.78	12287.81
466.96	12315.90
467.14	12374.41
467.32	12264.41
467.51	12720.81
467.69	12367.39
467.87	12737.20
468.05	12650.60
468.23	12425.90
468.41	12620.17
468.60	12458.67
468.78	12924.44
468.96	12767.62
469.14	12638.89
469.32	13167.85
469.50	12800.39
469.69	12999.34
469.87	13369.14
470.05	13181.90
470.23	12924.44
470.41	13371.48
470.59	13312.97
470.77	13312.97
470.95	13385.52
471.14	13628.94
471.32	13624.26
471.50	13586.81
471.68	13867.67
471.86	13790.44
472.04	13788.10
472.22	14202.37
472.40	13851.29
472.58	13935.55
472.77	14228.12
472.95	14452.81
473.13	14904.53
473.31	14132.15
473.49	14375.57
473.67	14235.14
473.85	14642.39
474.03	14668.14
474.21	14864.74
474.39	14885.81
474.57	14831.97
474.75	15082.41
474.93	14871.76
475.12	14850.70
475.30	15033.26
475.48	15066.03
475.66	15580.95
475.84	15307.10
476.02	15669.89
476.20	15602.01
476.38	15712.02
476.56	16130.97
476.74	16109.91
476.92	16016.29
477.10	16035.01
477.28	16245.66
477.46	16219.91
477.64	16414.18
477.82	16573.33
478.00	17092.93
478.18	16879.94
478.36	17322.30
478.54	17334.01
478.72	17240.39
478.90	17724.88
479.08	17710.83
479.26	17591.47
479.44	18047.87
479.62	18082.98
479.80	17961.27
479.98	18251.50
480.16	18464.49
480.34	18417.68
480.52	18691.52
480.70	18654.07
480.88	18579.17
481.06	18956.00
481.24	19204.10
481.41	19400.70
481.59	19583.26
481.77	20032.65
481.95	19655.82
482.13	20233.93
482.31	19953.07
482.49	20149.67
482.67	20065.41
482.85	20566.29
483.03	20638.84
483.21	20947.79
483.39	21252.06
483.57	21020.35
483.74	21289.51
483.92	21919.12
484.10	21682.72
484.28	22010.40
484.46	21738.90
484.64	22405.95
484.82	21933.16
485.00	22558.08
485.18	22995.76
485.35	23278.97
485.53	22955.97
485.71	23049.60
485.89	23520.04
486.07	23356.21
486.25	23573.88
486.43	23723.67
486.61	24051.34
486.78	24292.42
486.96	24521.79
487.14	24709.04
487.32	25062.46
487.50	24851.81
487.68	25282.47
487.85	25488.43
488.03	25392.47
488.21	26029.10
488.39	25933.14
488.57	26394.22
488.75	26164.85
488.92	26649.34
489.10	27019.14
489.28	26979.36
489.46	27035.53
489.64	27000.42
489.81	27700.24
489.99	27810.25
490.17	27873.44
490.35	28252.61
490.53	28886.89
490.70	28891.57
490.88	28301.76
491.06	29305.85
491.24	28912.64
491.41	29032.00
491.59	29441.60
491.77	29766.93
491.95	29965.88
492.13	30239.72
492.30	30071.20
492.48	30183.55
492.66	30522.93
492.84	30396.54
493.01	30803.79
493.19	30764.00
493.37	31187.64
493.54	31239.13
493.72	31892.14
493.90	31438.08
494.08	31922.57
494.25	32395.35
494.43	32222.16
494.61	32856.44
494.79	32931.34
494.96	32872.82
495.14	32931.34
495.32	33039.00
495.49	33567.96
495.67	33408.81
495.85	33769.25
496.02	33802.02
496.20	34656.31
496.38	34115.65
496.55	34457.37
496.73	35086.97
496.91	35000.37
497.09	35000.37
497.26	35175.91
497.44	35665.08
497.62	35634.66
497.79	35819.56
497.97	35557.42
498.14	36488.95
498.32	36364.90
498.50	36842.37
498.67	36858.76
498.85	36453.84
499.03	36865.78
499.20	37067.06
499.38	37373.67
499.56	37406.44
499.73	37471.98
499.91	37687.31
500.08	37762.20
500.26	37631.13
500.44	38007.96
500.61	37530.49
500.79	37935.40
500.97	38312.23
501.14	38939.49
501.32	38726.50
501.49	39105.67
501.67	39005.03
501.84	39386.54
502.02	39480.16
502.20	39384.19
502.37	39583.14
502.55	39522.29
502.72	39704.85
502.90	39660.38
503.07	40002.10
503.25	40442.12
503.43	39871.03
503.60	40453.82
503.78	40416.37
503.95	40643.40
504.13	40978.10
504.30	41249.60
504.48	40432.75
504.65	41048.32
504.83	41191.09
505.01	41605.36
505.18	41331.52
505.36	42124.96
505.53	41631.11
505.71	41890.91
505.88	42120.28
506.06	41408.76
506.23	42632.86
506.41	42169.43
506.58	42686.69
506.76	42183.48
506.93	42621.16
507.11	42583.71
507.28	42967.55
507.46	43105.65
507.63	43243.74
507.81	43763.34
507.98	43093.94
508.16	43512.90
508.33	43562.05
508.50	43730.57
508.68	44020.80
508.85	44418.69
509.03	43962.28
509.20	44076.97
509.38	45088.08
509.55	44793.17
509.73	44500.61
509.90	44655.08
510.08	44423.37
510.25	45113.83
510.42	45151.27
510.60	45483.63
510.77	45832.37
510.95	46017.27
511.12	45254.26
511.30	45497.67
511.47	45820.67
511.64	45834.71
511.82	46342.61
511.99	46237.28
512.17	46272.39
512.34	46078.13
512.51	46782.63
512.69	46742.84
512.86	46890.29
513.04	46866.89
513.21	46773.27
513.38	46871.57
513.56	47028.38
513.73	46939.44
513.90	47377.12
514.08	47419.25
514.25	47723.52
514.43	47363.08
514.60	47430.96
514.77	47648.63
514.95	48060.56
515.12	47629.90
515.29	47679.05
515.47	47971.62
515.64	48336.74
515.81	48177.59
515.99	48231.42
516.16	48741.66
516.33	48889.11
516.51	49148.91
516.68	48472.49
516.85	48690.16
517.03	49003.80
517.20	49404.03
517.37	49481.27
517.54	49071.67
517.72	49359.56
517.89	49736.38
518.06	49432.11
518.24	49570.21
518.41	49368.92
518.58	49507.01
518.75	49551.48
518.93	50145.98
519.10	49839.37
519.27	49860.43
519.45	50443.23
519.62	50600.04
519.79	50403.44
519.96	50206.83
520.14	50333.22
520.31	50103.85
520.48	50791.97
520.65	50632.81
520.83	50717.07
521.00	50658.56
521.17	50965.17
521.34	51042.40
521.52	51236.67
521.69	51152.41
521.86	51203.90
522.03	51583.07
522.20	51334.97
522.38	51657.96
522.55	51760.95
522.72	51494.13
522.89	51442.63
523.07	51847.55
523.24	51782.01
523.41	52065.22
523.58	51627.54
523.75	52158.84
523.92	52046.49
524.10	51931.81
524.27	52598.86
524.44	52423.32
524.61	52334.38
524.78	52254.80
524.96	52245.44
525.13	52348.42
525.30	52956.96
525.47	52701.84
525.64	52797.80
525.81	52718.23
525.98	52690.14
526.16	52933.56
526.33	53041.22
526.50	53228.46
526.67	52863.34
526.84	53146.54
527.01	52978.03
527.18	53176.97
527.36	53317.40
527.53	53031.86
527.70	53525.71
527.87	53656.78
528.04	53303.36
528.21	53413.37
528.38	53361.87
528.55	53710.61
528.72	53523.37
528.89	53577.20
529.07	53661.46
529.24	53792.53
529.41	54000.84
529.58	53708.27
529.75	53935.30
529.92	53771.47
530.09	53956.37
530.26	54218.51
530.43	54152.97
530.60	53998.50
530.77	54143.61
530.94	54630.44
531.11	54323.83
531.28	54422.14
531.46	54541.50
531.63	54333.20
531.80	54403.41
531.97	54836.41
532.14	54602.36
532.31	54850.45
532.48	54869.18
532.65	54981.52
532.82	54822.37
532.99	55306.86
533.16	54443.20
533.33	55103.23
533.50	55196.85
533.67	55100.89
533.84	54745.13
534.01	55264.73
534.18	55243.66
534.35	55501.12
534.52	55437.93
534.69	55608.79
534.86	55501.12
535.03	55451.97
535.20	55458.99
535.37	55571.34
535.54	55482.40
535.71	55566.66
535.88	55765.60
536.05	55650.92
536.22	55758.58
536.38	55913.06
536.55	56023.06
536.72	56053.49
536.89	55765.60
537.06	55847.52
537.23	56006.68
537.40	55690.71
537.57	56037.11
537.74	55915.40
537.91	56121.37
538.08	56224.35
538.25	55767.94
538.42	56231.37
538.59	56399.89
538.75	55959.87
538.92	56456.06
539.09	56360.10
539.26	56334.35
539.43	56353.08
539.60	56170.52
539.77	56332.01
539.94	56580.11
540.11	56423.29
540.28	56647.99
540.44	56783.74
540.61	56537.98
540.78	56706.50
540.95	56671.39
541.12	56655.01
541.29	56701.82
541.46	56690.12
541.62	56633.94
541.79	56774.37
541.96	56629.26
542.13	56882.04
542.30	56938.21
542.47	56982.68
542.63	56982.68
542.80	57024.81
542.97	57200.35
543.14	57446.11
543.31	57219.08
543.48	57392.28
543.64	57687.18
543.81	57556.11
543.98	57579.52
544.15	57385.25
544.32	57584.20
544.48	57846.34
544.65	57368.87
544.82	57532.71
544.99	57464.83
545.16	57560.79
545.32	57469.51
545.49	57923.58
545.66	58071.03
545.83	57712.93
546.00	57977.41
546.16	57743.36
546.33	57429.72
546.50	57759.74
546.67	57942.30
546.83	57631.01
547.00	58073.37
547.17	57860.38
547.34	57986.77
547.50	58056.99
547.67	58333.17
547.84	58141.25
548.00	58244.23
548.17	58492.33
548.34	58265.30
548.51	58375.30
548.67	58286.36
548.84	58277.00
549.01	58370.62
549.18	58342.53
549.34	58319.13
549.51	58534.46
549.68	58681.91
549.84	58452.54
550.01	58674.89
550.18	58532.12
550.34	58492.33
550.51	58639.78
550.68	58513.39
550.84	58372.96
551.01	58721.70
551.18	58698.30
551.34	58702.98
551.51	58597.65
551.68	58801.28
551.84	58590.63
552.01	58672.55
552.18	58857.45
552.34	58592.97
552.51	58670.21
552.68	58859.79
552.84	58763.83
553.01	59105.55
553.18	58918.31
553.34	59117.25
553.51	58988.52
553.67	59009.59
553.84	59112.57
554.01	59222.58
554.17	59126.61
554.34	59194.49
554.51	59185.13
554.67	59203.85
554.84	59463.65
555.00	58899.58
555.17	59320.88
555.33	59248.32
555.50	59040.01
555.67	59161.72
555.83	59323.22
556.00	59405.14
556.16	59690.68
556.33	59484.72
556.50	59519.82
556.66	59587.70
556.83	59199.17
556.99	59608.76
557.16	59625.15
557.32	59496.42
557.49	59894.31
557.65	59564.29
557.82	59639.19
557.98	59559.61
558.15	59669.62
558.32	59674.30
558.48	59365.35
558.65	59788.98
558.81	59744.51
558.98	59751.54
559.14	59915.37
559.31	59739.83
559.47	59547.91
559.64	59922.40
559.80	59856.86
559.97	59849.84
560.13	59627.49
560.30	59831.11
560.46	60032.40
560.63	59793.67
560.79	60069.85
560.96	59784.30
561.12	60013.68
561.29	60182.19
561.45	60048.78
561.61	59906.01
561.78	59999.63
561.94	59924.74
562.11	59840.48
562.27	60039.42
562.44	60119.00
562.60	60193.90
562.77	60252.41
562.93	59943.46
563.10	60229.01
563.26	60289.86
563.42	60243.05
563.59	60102.62
563.75	60257.09
563.92	60257.09
564.08	60233.69
564.24	60264.11
564.41	60406.89
564.57	60425.61
564.74	60299.22
564.90	60420.93
565.07	60119.00
565.23	60444.33
565.39	60303.90
565.56	60331.99
565.72	60385.82
565.88	60301.56
566.05	60346.03
566.21	60214.96
566.38	60371.78
566.54	60301.56
566.70	60523.91
566.87	60669.03
567.03	60364.76
567.19	60570.72
567.36	60423.27
567.52	60575.40
567.68	60788.39
567.85	60647.96
568.01	60439.65
568.17	60486.46
568.34	60456.04
568.50	60430.29
568.66	60530.93
568.83	60645.62
568.99	60374.12
569.15	60582.43
569.32	60662.00
569.48	60544.98
569.64	60605.83
569.81	60491.15
569.97	60456.04
570.13	60734.56
570.30	60392.84
570.46	60533.28
570.62	60727.54
570.78	60734.56
570.95	60692.43
571.11	60701.79
571.27	60839.89
571.43	60645.62
571.60	60736.90
571.76	60678.39
571.92	60612.85
572.09	60666.69
572.25	60605.83
572.41	60802.44
572.57	60755.63
572.74	60994.36
572.90	60903.08
573.06	60687.75
573.22	60715.84
573.38	60863.29
573.55	60664.35
573.71	60928.83
573.87	60772.01
574.03	60748.60
574.20	60907.76
574.36	60762.65
574.52	61050.53
574.68	60804.78
574.84	60734.56
575.01	60779.03
575.17	60975.64
575.33	60879.67
575.49	60882.02
575.65	60896.06
575.82	61069.26
575.98	61001.38
576.14	61055.21
576.30	60973.30
576.46	60931.17
576.62	60912.44
576.79	60977.98
576.95	60886.70
577.11	60823.50
577.27	60914.78
577.43	61216.71
577.59	60898.40
577.75	60968.61
577.92	60800.10
578.08	60830.52
578.24	61001.38
578.40	61055.21
578.56	61059.90
578.72	61010.74
578.88	61258.84
579.04	61310.33
579.21	60985.00
579.37	60989.68
579.53	61106.71
579.69	60907.76
579.85	61104.37
580.01	60928.83
580.17	60874.99
580.33	61078.62
580.49	61113.73
580.65	60912.44
580.82	61036.49
580.98	61038.83
581.14	61013.08
581.30	61111.39
581.46	61137.13
581.62	60956.91
581.78	60877.33
581.94	61193.31
582.10	60975.64
582.26	61160.54
582.42	61057.56
582.58	60896.06
582.74	61038.83
582.90	61116.07
583.06	61043.51
583.22	60832.86
583.38	61050.53
583.54	61116.07
583.70	60949.89
583.86	60956.91
584.02	61137.13
584.18	61172.24
584.34	61179.26
584.50	61130.11
584.66	61076.28
584.82	61102.03
584.98	61233.10
585.14	61176.92
585.30	61153.52
585.46	61130.11
585.62	61106.71
585.78	61247.14
585.94	60987.34
586.10	61179.26
586.26	61158.20
586.42	61244.80
586.58	61329.06
586.74	61289.27
586.90	61275.22
587.06	61268.20
587.22	61258.84
587.38	61310.33
587.54	61502.26
587.70	61387.57
587.86	61181.60
588.02	61289.27
588.18	61389.91
588.34	61134.79
588.49	61256.50
