SpectraSuite Data File
++++++++++++++++++++++++++++++++++++
Date: Fri Oct 25 11:25:35 EDT 2013
User: price-jones
Dark Spectrum Present: No
Reference Spectrum Present: No
Number of Sampled Component Spectra: 1
Spectrometers: USB2+H05261
Integration Time (usec): 100000 (USB2+H05261)
Spectra Averaged: 1 (USB2+H05261)
Boxcar Smoothing: 0 (USB2+H05261)
Correct for Electrical Dark: No (USB2+H05261)
Strobe/Lamp Enabled: No (USB2+H05261)
Correct for Detector Non-linearity: No (USB2+H05261)
Correct for Stray Light: No (USB2+H05261)
Number of Pixels in Processed Spectrum: 2048
>>>>>Begin Processed Spectral Data<<<<<
365.73	264.48
365.92	264.48
366.12	264.48
366.32	128.73
366.52	142.77
366.72	63.19
366.91	131.07
367.11	128.73
367.31	77.24
367.51	159.16
367.70	147.45
367.90	119.37
368.10	133.41
368.30	147.45
368.49	91.28
368.69	166.18
368.89	159.16
369.09	175.54
369.28	170.86
369.48	168.52
369.68	147.45
369.87	210.65
370.07	196.60
370.27	271.50
370.47	313.63
370.66	596.84
370.86	601.52
371.06	674.07
371.25	702.16
371.45	674.07
371.65	727.91
371.84	641.31
372.04	718.54
372.24	709.18
372.44	674.07
372.63	788.76
372.83	772.38
373.03	788.76
373.22	791.10
373.42	835.57
373.62	760.67
373.81	753.65
374.01	786.42
374.21	781.74
374.40	779.40
374.60	772.38
374.79	774.72
374.99	837.91
375.19	901.11
375.38	880.04
375.58	819.19
375.78	854.30
375.97	924.51
376.17	896.43
376.37	940.90
376.56	863.66
376.76	772.38
376.95	957.28
377.15	896.43
377.35	851.96
377.54	891.74
377.74	912.81
377.93	898.77
378.13	875.36
378.33	971.32
378.52	950.26
378.72	947.92
378.91	976.00
379.11	889.40
379.31	905.79
379.50	933.87
379.70	1067.28
379.89	1032.18
380.09	844.93
380.28	1015.79
380.48	983.02
380.68	1043.88
380.87	1020.47
381.07	980.68
381.26	1029.84
381.46	983.02
381.65	1062.60
381.85	1081.33
382.04	1020.47
382.24	1062.60
382.43	1062.60
382.63	1111.75
382.83	1043.88
383.02	1046.22
383.22	1153.88
383.41	1116.44
383.61	1144.52
383.80	1146.86
384.00	1104.73
384.19	1146.86
384.39	1093.03
384.58	1196.01
384.78	1226.44
384.97	1100.05
385.17	1071.97
385.36	1151.54
385.56	1221.76
385.75	1128.14
385.95	1118.78
386.14	1238.14
386.34	1177.29
386.53	1196.01
386.72	1203.04
386.92	1299.00
387.11	1266.23
387.31	1284.95
387.50	1261.55
387.70	1203.04
387.89	1256.87
388.09	1266.23
388.28	1242.82
388.48	1303.68
388.67	1313.04
388.86	1357.51
389.06	1313.04
389.25	1310.70
389.45	1247.51
389.64	1359.85
389.84	1387.94
390.03	1334.11
390.22	1331.76
390.42	1371.55
390.61	1366.87
390.81	1338.79
391.00	1390.28
391.19	1474.54
391.39	1460.49
391.58	1390.28
391.78	1479.22
391.97	1479.22
392.16	1397.30
392.36	1448.79
392.55	1547.09
392.75	1568.16
392.94	1495.60
393.13	1479.22
393.33	1500.28
393.52	1521.35
393.71	1575.18
393.91	1537.73
394.10	1486.24
394.29	1624.33
394.49	1596.25
394.68	1547.09
394.88	1607.95
395.07	1783.49
395.26	1638.38
395.46	1785.83
395.65	1577.52
395.84	1724.97
396.04	1783.49
396.23	1689.87
396.42	1788.17
396.62	1837.32
396.81	1823.28
397.00	1764.76
397.19	1774.13
397.39	1849.02
397.58	1858.39
397.77	1844.34
397.97	1923.92
398.16	1839.66
398.35	1884.13
398.55	1923.92
398.74	1891.15
398.93	1966.05
399.12	1891.15
399.32	1907.54
399.51	1914.56
399.70	1996.48
399.90	1909.88
400.09	2026.90
400.28	2005.84
400.47	1966.05
400.67	2157.97
400.86	2071.37
401.05	1994.14
401.24	2024.56
401.44	2104.14
401.63	2160.31
401.82	2188.40
402.01	2127.55
402.21	2129.89
402.40	2146.27
402.59	2272.66
402.78	2321.81
402.97	2225.85
403.17	2265.64
403.36	2221.17
403.55	2314.79
403.74	2373.30
403.93	2415.43
404.13	2359.26
404.32	2387.35
404.51	2415.43
404.70	2267.98
404.89	2328.83
405.09	2485.65
405.28	2551.18
405.47	2431.82
405.66	2567.57
405.85	2366.28
406.05	2499.69
406.24	2518.42
406.43	2499.69
406.62	2597.99
406.81	2644.81
407.00	2649.49
407.20	2593.31
407.39	2644.81
407.58	2764.17
407.77	2708.00
407.96	2668.21
408.15	2693.96
408.34	2626.08
408.54	2869.50
408.73	2663.53
408.92	2715.02
409.11	2792.26
409.30	2836.73
409.49	2850.77
409.68	2928.01
409.87	2818.00
410.07	2899.92
410.26	2883.54
410.45	2953.76
410.64	3007.59
410.83	3096.53
411.02	3091.85
411.21	3239.30
411.40	3262.71
411.59	3164.40
411.78	3243.98
411.98	3157.38
412.17	3253.34
412.36	3325.90
412.55	3344.63
412.74	3510.80
412.93	3412.50
413.12	3344.63
413.31	3520.17
413.50	3534.21
413.69	3492.08
413.88	3641.87
414.07	3623.15
414.26	3634.85
414.45	3562.30
414.64	3651.24
414.83	3756.56
415.02	3819.75
415.22	3794.01
415.41	3859.54
415.60	3894.65
415.79	3941.46
415.98	3918.06
416.17	3934.44
416.36	3960.19
416.55	3943.80
416.74	4021.04
416.93	4011.68
417.12	4163.81
417.31	4210.62
417.50	4173.18
417.69	4348.72
417.88	4234.03
418.07	4351.06
418.26	4259.78
418.45	4140.41
418.64	4299.56
418.83	4369.78
419.02	4365.10
419.21	4507.87
419.39	4496.17
419.58	4404.89
419.77	4423.61
419.96	4603.83
420.15	4608.51
420.34	4564.04
420.53	4601.49
420.72	4692.77
420.91	4695.11
421.10	4681.07
421.29	4819.16
421.48	4844.91
421.67	4758.31
421.86	4770.01
422.05	4755.97
422.24	4938.53
422.43	4793.42
422.61	4762.99
422.80	4840.23
422.99	4837.89
423.18	4975.98
423.37	5006.41
423.56	5050.88
423.75	4901.08
423.94	4926.83
424.13	4587.45
424.32	4779.37
424.50	4919.81
424.69	5041.51
424.88	5139.82
425.07	4833.21
425.26	4847.25
425.45	4887.04
425.64	4952.57
425.83	4919.81
426.01	4931.51
426.20	5015.77
426.39	5114.07
426.58	5095.35
426.77	5076.62
426.96	5111.73
427.15	5085.98
427.33	5210.03
427.52	5053.22
427.71	5228.76
427.90	5408.98
428.09	5320.04
428.28	5163.22
428.46	5287.27
428.65	5439.40
428.84	5500.26
429.03	5518.98
429.22	5301.31
429.40	5518.98
429.59	5518.98
429.78	5350.46
429.97	5214.71
430.16	5394.93
430.34	5528.35
430.53	5664.10
430.72	5547.07
430.91	5554.09
431.10	5575.16
431.28	5734.31
431.47	5748.36
431.66	5778.78
431.85	5746.02
432.03	5961.34
432.22	5928.58
432.41	5907.51
432.60	5809.21
432.79	5966.03
432.97	5940.28
433.16	5912.19
433.35	5980.07
433.54	6085.39
433.72	6118.16
433.91	6080.71
434.10	6242.21
434.28	6094.76
434.47	6218.80
434.66	6118.16
434.85	6291.36
435.03	6115.82
435.22	6160.29
435.41	6455.20
435.59	6333.49
435.78	6375.62
435.97	6399.02
436.16	6466.90
436.34	6347.53
436.53	6445.84
436.72	6743.08
436.90	6494.99
437.09	6523.07
437.28	6333.49
437.46	6600.31
437.65	6670.53
437.84	6722.02
438.02	6553.50
438.21	6813.30
438.40	6612.01
438.58	6935.01
438.77	7080.12
438.96	6979.48
439.14	7012.24
439.33	7152.68
439.52	7073.10
439.70	7087.14
439.89	7309.49
440.08	7234.60
440.26	7506.10
440.45	7267.36
440.63	7391.41
440.82	7566.95
441.01	7410.14
441.19	7527.16
441.38	7637.17
441.57	7634.83
441.75	7815.05
441.94	7936.76
442.12	8091.23
442.31	8037.40
442.50	8030.38
442.68	8039.74
442.87	8112.30
443.05	8166.13
443.24	8266.77
443.43	8184.85
443.61	8159.11
443.80	8454.02
443.98	8016.33
444.17	8107.62
444.35	8152.09
444.54	8397.84
444.73	8287.84
444.91	8248.05
445.10	8243.37
445.28	8182.51
445.47	8205.92
445.65	8372.10
445.84	8273.79
446.02	8692.75
446.21	8390.82
446.39	8409.54
446.58	8425.93
446.77	8355.71
446.95	8229.32
447.14	8336.99
447.32	8390.82
447.51	8437.63
447.69	8430.61
447.88	8454.02
448.06	8439.97
448.25	8369.76
448.43	8341.67
448.62	8418.91
448.80	8381.46
448.99	8744.24
449.17	8641.26
449.36	8545.30
449.54	8854.25
449.73	9025.11
449.91	8975.95
450.10	8725.52
450.28	9179.58
450.46	9004.04
450.65	8917.44
450.83	9020.42
451.02	9095.32
451.20	9193.62
451.39	9249.80
451.57	8990.00
451.76	8982.98
451.94	9289.59
452.13	9156.18
452.31	9078.94
452.49	9132.77
452.68	9172.56
452.86	9366.82
453.05	9282.56
453.23	9387.89
453.42	9179.58
453.60	9373.85
453.78	9359.80
453.97	9210.01
454.15	9390.23
454.34	9439.38
454.52	9694.50
454.70	9657.05
454.89	9797.48
455.07	9734.29
455.26	9750.67
455.44	9877.06
455.62	9940.26
455.81	10061.96
455.99	9998.77
456.17	10029.20
456.36	9942.60
456.54	10289.00
456.73	10312.40
456.91	10548.79
457.09	10389.64
457.28	10539.43
457.46	10263.25
457.64	10485.60
457.83	10476.24
458.01	10352.19
458.19	10541.77
458.38	10569.86
458.56	10752.42
458.74	10832.00
458.93	10581.56
459.11	10642.42
459.29	10757.10
459.48	10745.40
459.66	10850.72
459.84	10977.11
460.03	11108.18
460.21	11028.60
460.39	11028.60
460.57	10899.87
460.76	11396.07
460.94	11023.92
461.12	11243.93
461.31	11049.67
461.49	11176.06
461.67	11389.05
461.85	11375.00
462.04	11063.71
462.22	11674.59
462.40	11536.50
462.59	11559.91
462.77	11452.24
462.95	11620.76
463.13	11702.68
463.32	11618.42
463.50	11765.87
463.68	11712.04
463.86	11796.30
464.05	11536.50
464.23	11882.90
464.41	12016.31
464.59	11611.40
464.78	12177.81
464.96	12020.99
465.14	11707.36
465.32	12133.34
465.50	12098.23
465.69	12299.52
465.87	12093.55
466.05	12135.68
466.23	12053.76
466.41	12035.03
466.60	12566.34
466.78	12231.64
466.96	12114.61
467.14	12411.86
467.32	12468.03
467.51	12404.84
467.69	12241.00
467.87	12606.13
468.05	12545.27
468.23	12423.56
468.41	12573.36
468.60	12491.44
468.78	12699.75
468.96	12475.06
469.14	12666.98
469.32	12865.92
469.50	12627.19
469.69	13135.09
469.87	13118.70
470.05	13036.78
470.23	13111.68
470.41	13111.68
470.59	13109.34
470.77	13193.60
470.95	13418.29
471.14	13273.18
471.32	13245.09
471.50	13516.59
471.68	13769.37
471.86	13621.92
472.04	13432.33
472.22	14150.88
472.40	13558.72
472.58	13738.94
472.77	13951.93
472.95	14279.61
473.13	14518.34
473.31	13998.74
473.49	14017.47
473.67	14031.51
473.85	14768.78
474.03	14902.19
474.21	14340.46
474.39	14794.53
474.57	14581.54
474.75	14834.32
474.93	14822.61
475.12	14757.08
475.30	14984.11
475.48	14782.82
475.66	15117.52
475.84	15307.10
476.02	15178.37
476.20	15250.93
476.38	15866.49
476.56	15999.90
476.74	15761.17
476.92	15845.43
477.10	15552.86
477.28	16123.95
477.46	15932.03
477.64	16524.18
477.82	16610.78
478.00	16943.14
478.18	16755.90
478.36	16875.26
478.54	17181.87
478.72	17181.87
478.90	17193.58
479.08	17310.60
479.26	17530.61
479.44	17547.00
479.62	17902.76
479.80	17858.29
479.98	18333.42
480.16	18600.24
480.34	18092.34
480.52	18427.04
480.70	18595.56
480.88	18342.78
481.06	18808.54
481.24	18867.06
481.41	19021.53
481.59	19281.33
481.77	19276.65
481.95	19632.41
482.13	19744.76
482.31	19494.32
482.49	20144.99
482.67	20198.82
482.85	20657.57
483.03	20315.85
483.21	20734.81
483.39	20772.25
483.57	20538.20
483.74	21050.78
483.92	21193.55
484.10	20908.01
484.28	21535.27
484.46	21575.06
484.64	22307.65
484.82	21647.61
485.00	22457.44
485.18	22602.55
485.35	22773.41
485.53	22787.46
485.71	22815.54
485.89	23358.55
486.07	23218.11
486.25	23295.35
486.43	23484.94
486.61	23747.08
486.78	23768.14
486.96	23950.70
487.14	24360.30
487.32	24772.23
487.50	24762.87
487.68	25125.65
487.85	25078.84
488.03	25413.54
488.21	25701.42
488.39	25394.81
488.57	26162.51
488.75	26525.29
488.92	26277.19
489.10	26604.87
489.28	26632.96
489.46	27218.09
489.64	27344.48
489.81	27606.62
489.99	27494.27
490.17	27477.89
490.35	27960.04
490.53	28161.33
490.70	28350.91
490.88	28276.01
491.06	28549.85
491.24	28631.77
491.41	29167.76
491.59	29523.52
491.77	28945.41
491.95	29252.02
492.13	29853.53
492.30	29848.85
492.48	29855.87
492.66	30382.49
492.84	30223.34
493.01	30625.91
493.19	30637.61
493.37	30710.17
493.54	31171.25
493.72	31321.05
493.90	31419.35
494.08	31505.95
494.25	31651.06
494.43	31950.65
494.61	32505.36
494.79	32580.26
494.96	32280.67
495.14	32493.66
495.32	33340.93
495.49	32926.66
495.67	33397.10
495.85	33268.37
496.02	33418.17
496.20	34092.24
496.38	33993.94
496.55	33893.30
496.73	34653.97
496.91	34141.39
497.09	34768.66
497.26	34979.31
497.44	35037.82
497.62	35077.61
497.79	35857.01
497.97	35487.20
498.14	35379.54
498.32	35915.52
498.50	36421.08
498.67	36514.70
498.85	36313.41
499.03	36215.11
499.20	36364.90
499.38	36882.16
499.56	36886.84
499.73	37167.71
499.91	37223.88
500.08	37750.50
500.26	37319.84
500.44	37640.50
500.61	37956.47
500.79	37621.77
500.97	38216.27
501.14	38246.69
501.32	38487.77
501.49	38270.10
501.67	38415.21
501.84	39112.69
502.02	38803.74
502.20	38930.13
502.37	38906.73
502.55	39262.49
502.72	38995.67
502.90	39145.46
503.07	39491.86
503.25	39454.41
503.43	39304.62
503.60	39791.45
503.78	40587.23
503.95	39845.28
504.13	40535.74
504.30	40605.95
504.48	40371.90
504.65	40311.05
504.83	40863.41
505.01	41024.91
505.18	40982.78
505.36	41165.34
505.53	41263.64
505.71	41572.60
505.88	41811.33
506.06	41364.29
506.23	41694.30
506.41	41846.44
506.58	42359.02
506.76	42335.61
506.93	42253.69
507.11	42433.91
507.28	42288.80
507.46	42218.58
507.63	42443.27
507.81	43100.97
507.98	43026.07
508.16	42763.93
508.33	43416.94
508.50	43643.97
508.68	43669.72
508.85	43772.70
509.03	43686.10
509.20	44009.09
509.38	44208.04
509.55	44416.35
509.73	44404.64
509.90	44252.51
510.08	44266.55
510.25	44383.58
510.42	44580.18
510.60	44959.35
510.77	45071.70
510.95	45581.93
511.12	45158.30
511.30	44917.22
511.47	45308.09
511.64	45579.59
511.82	45834.71
511.99	45612.36
512.17	45640.45
512.34	45684.92
512.51	46082.81
512.69	46045.36
512.86	46403.46
513.04	47028.38
513.21	46178.77
513.38	46686.67
513.56	46904.34
513.73	46630.49
513.90	46820.08
514.08	46703.05
514.25	47086.90
514.43	47044.77
514.60	47056.47
514.77	47000.30
514.95	47407.55
515.12	47107.96
515.29	47159.45
515.47	47452.02
515.64	47849.91
515.81	47824.17
515.99	48421.00
516.16	47859.27
516.33	48093.33
516.51	48458.45
516.68	48287.59
516.85	48074.60
517.03	48552.07
517.20	48622.29
517.37	48828.26
517.54	48814.21
517.72	48814.21
517.89	48954.64
518.06	48891.45
518.24	48753.36
518.41	49015.50
518.58	49198.06
518.75	48870.39
518.93	49579.57
519.10	49186.36
519.27	49598.29
519.45	49787.88
519.62	49549.14
519.79	50176.40
519.96	49621.70
520.14	49900.22
520.31	49687.23
520.48	50244.28
520.65	50110.87
520.83	50677.28
521.00	50349.60
521.17	50438.54
521.34	50642.17
521.52	50520.46
521.69	50560.25
521.86	51044.74
522.03	50831.75
522.20	50981.55
522.38	51426.25
522.55	51009.64
522.72	51327.95
522.89	51325.61
523.07	51786.69
523.24	51234.33
523.41	51931.81
523.58	51356.03
523.75	51955.21
523.92	51573.70
524.10	51709.46
524.27	51697.75
524.44	51889.68
524.61	52034.79
524.78	51966.91
524.96	52552.05
525.13	52168.20
525.30	52296.93
525.47	52596.52
525.64	52210.33
525.81	52722.91
525.98	52772.06
526.16	52617.58
526.33	52624.60
526.50	52575.45
526.67	53006.11
526.84	52886.74
527.01	52643.33
527.18	53106.76
527.36	52959.30
527.53	53118.46
527.70	53364.21
527.87	53380.60
528.04	53092.71
528.21	53439.11
528.38	52882.06
528.55	53467.20
528.72	53078.67
528.89	53406.34
529.07	53221.44
529.24	53209.74
529.41	54021.90
529.58	53595.93
529.75	53663.80
529.92	53626.35
530.09	53492.94
530.26	53670.82
530.43	53631.04
530.60	53600.61
530.77	53574.86
530.94	53975.09
531.11	54087.44
531.28	54049.99
531.46	54122.55
531.63	54326.17
531.80	54328.52
531.97	54312.13
532.14	54337.88
532.31	54377.67
532.48	54356.60
532.65	54569.59
532.82	54415.11
532.99	54492.35
533.16	54335.54
533.33	54866.84
533.50	54789.60
533.67	54658.53
533.84	54810.67
534.01	54632.78
534.18	54775.56
534.35	55194.51
534.52	54990.89
534.69	54901.95
534.86	55180.47
535.03	54848.11
535.20	54923.01
535.37	55454.31
535.54	55227.28
535.71	55007.27
535.88	55407.50
536.05	55458.99
536.22	55496.44
536.38	55435.59
536.55	55341.97
536.72	55573.68
536.89	55388.78
537.06	55351.33
537.23	55435.59
537.40	55442.61
537.57	55648.58
537.74	55599.43
537.91	55917.74
538.08	55992.64
538.25	55838.16
538.42	55821.78
538.59	55903.70
538.75	55807.73
538.92	55994.98
539.09	56191.58
539.26	56030.08
539.43	55772.63
539.60	56060.51
539.77	56062.85
539.94	56390.53
540.11	56079.24
540.28	56193.92
540.44	56168.18
540.61	56545.00
540.78	56339.04
540.95	56519.26
541.12	56474.79
541.29	56289.88
541.46	56547.34
541.62	56514.58
541.79	56821.19
541.96	55910.72
542.13	56474.79
542.30	56552.02
542.47	56741.61
542.63	56727.56
542.80	56870.34
542.97	56750.97
543.14	57088.01
543.31	56954.60
543.48	57099.71
543.64	57415.68
543.81	57305.68
543.98	57296.31
544.15	57350.15
544.32	57361.85
544.48	57310.36
544.65	57216.74
544.82	57380.57
544.99	57326.74
545.16	57443.77
545.32	57244.82
545.49	57469.51
545.66	57422.70
545.83	57429.72
546.00	57593.56
546.16	57572.50
546.33	57602.92
546.50	57516.32
546.67	57654.42
546.83	57329.08
547.00	57574.84
547.17	57808.89
547.34	57902.51
547.50	57698.89
547.67	58134.23
547.84	57717.61
548.00	58033.58
548.17	58005.50
548.34	58131.89
548.51	57942.30
548.67	58038.26
548.84	58141.25
549.01	57935.28
549.18	58000.82
549.34	58316.79
549.51	58106.14
549.68	58281.68
549.84	58370.62
550.01	58291.04
550.18	58089.76
550.34	58328.49
550.51	58181.04
550.68	58305.09
550.84	58199.76
551.01	58445.52
551.18	58438.50
551.34	58410.41
551.51	58450.20
551.68	58298.06
551.84	58468.92
552.01	58520.41
552.18	58473.60
552.34	58574.25
552.51	58543.82
552.68	58485.31
552.84	58375.30
553.01	58810.64
553.18	58693.61
553.34	58810.64
553.51	58721.70
553.67	58796.60
553.84	58967.46
554.01	58780.21
554.17	58911.28
554.34	59002.56
554.51	58941.71
554.67	58967.46
554.84	58883.20
555.00	58871.49
555.17	58702.98
555.33	59063.42
555.50	58707.66
555.67	58965.12
555.83	58962.78
556.00	58817.66
556.16	59447.27
556.33	59178.10
556.50	58852.77
556.66	59203.85
556.83	58981.50
556.99	59367.69
557.16	59377.05
557.32	59416.84
557.49	59636.85
557.65	59423.86
557.82	59365.35
557.98	59133.63
558.15	59047.04
558.32	59386.41
558.48	59400.46
558.65	59449.61
558.81	59398.12
558.98	59505.78
559.14	59487.06
559.31	59842.82
559.47	59667.28
559.64	59522.16
559.80	59510.46
559.97	59636.85
560.13	59465.99
560.30	59515.14
560.46	59922.40
560.63	59604.08
560.79	59772.60
560.96	59702.38
561.12	59765.58
561.29	59840.48
561.45	59760.90
561.61	59723.45
561.78	59744.51
561.94	59714.09
562.11	59636.85
562.27	59833.46
562.44	59730.47
562.60	59927.08
562.77	60081.55
562.93	59742.17
563.10	59971.55
563.26	59648.55
563.42	60095.60
563.59	59908.35
563.75	59901.33
563.92	60055.81
564.08	59898.99
564.24	60226.66
564.41	59884.95
564.57	59938.78
564.74	59938.78
564.90	59840.48
565.07	60030.06
565.23	59994.95
565.39	59838.14
565.56	60051.12
565.72	60130.70
565.88	60123.68
566.05	59990.27
566.21	60198.58
566.38	60074.53
566.54	60189.22
566.70	60303.90
566.87	60221.98
567.03	60329.65
567.19	60383.48
567.36	60254.75
567.52	60186.88
567.68	60369.44
567.85	60331.99
568.01	60154.11
568.17	60210.28
568.34	60420.93
568.50	60093.25
568.66	60392.84
568.83	60236.03
568.99	60275.82
569.15	60390.50
569.32	60261.77
569.48	60313.26
569.64	60519.23
569.81	60432.63
569.97	60322.63
570.13	60357.74
570.30	60334.33
570.46	60472.42
570.62	60416.25
570.78	60385.82
570.95	60486.46
571.11	60540.30
571.27	60360.08
571.43	60505.19
571.60	60451.36
571.76	60577.75
571.92	60584.77
572.09	60360.08
572.25	60479.44
572.41	60472.42
572.57	60605.83
572.74	60596.47
572.90	60369.44
573.06	60472.42
573.22	60580.09
573.38	60537.96
573.55	60526.25
573.71	60727.54
573.87	60666.69
574.03	60727.54
574.20	60676.05
574.36	60612.85
574.52	60701.79
574.68	60818.82
574.84	60713.50
575.01	60561.36
575.17	60769.67
575.33	60544.98
575.49	60652.64
575.65	60692.43
575.82	60657.32
575.98	60622.22
576.14	60889.04
576.30	60626.90
576.46	60781.37
576.62	60786.05
576.79	60781.37
576.95	60523.91
577.11	60849.25
577.27	60743.92
577.43	60912.44
577.59	60739.24
577.75	60722.86
577.92	60704.13
578.08	60800.10
578.24	60879.67
578.40	60940.53
578.56	60734.56
578.72	60872.65
578.88	60837.54
579.04	61073.94
579.21	60809.46
579.37	60867.97
579.53	60774.35
579.69	60617.53
579.85	60584.77
580.01	60725.20
580.17	60608.17
580.33	60898.40
580.49	60931.17
580.65	60893.72
580.82	60905.42
580.98	60654.98
581.14	60839.89
581.30	60863.29
581.46	60912.44
581.62	60886.70
581.78	60704.13
581.94	60743.92
582.10	60853.93
582.26	60898.40
582.42	60750.94
582.58	60743.92
582.74	60748.60
582.90	60931.17
583.06	60842.23
583.22	60657.32
583.38	60889.04
583.54	60800.10
583.70	60963.93
583.86	60903.08
584.02	60640.94
584.18	61043.51
584.34	60891.38
584.50	60912.44
584.66	60811.80
584.82	60816.48
584.98	61064.58
585.14	60994.36
585.30	60844.57
585.46	61095.00
585.62	60779.03
585.78	61013.08
585.94	60816.48
586.10	60898.40
586.26	60804.78
586.42	60961.59
586.58	61069.26
586.74	60935.85
586.90	60886.70
587.06	60856.27
587.22	60954.57
587.38	60968.61
587.54	61137.13
587.70	61289.27
587.86	60828.18
588.02	61048.19
588.18	61015.43
588.34	60896.06
588.49	61048.19
