SpectraSuite Data File
++++++++++++++++++++++++++++++++++++
Date: Fri Oct 25 10:47:25 EDT 2013
User: price-jones
Dark Spectrum Present: No
Reference Spectrum Present: No
Number of Sampled Component Spectra: 1
Spectrometers: USB2+H05261
Integration Time (usec): 100000 (USB2+H05261)
Spectra Averaged: 1 (USB2+H05261)
Boxcar Smoothing: 0 (USB2+H05261)
Correct for Electrical Dark: No (USB2+H05261)
Strobe/Lamp Enabled: No (USB2+H05261)
Correct for Detector Non-linearity: No (USB2+H05261)
Correct for Stray Light: No (USB2+H05261)
Number of Pixels in Processed Spectrum: 2048
>>>>>Begin Processed Spectral Data<<<<<
365.73	198.95
365.92	198.95
366.12	198.95
366.32	46.81
366.52	56.17
366.72	65.54
366.91	53.83
367.11	56.17
367.31	60.85
367.51	16.38
367.70	7.02
367.90	30.43
368.10	70.22
368.30	35.11
368.49	39.79
368.69	84.26
368.89	21.06
369.09	67.88
369.28	67.88
369.48	46.81
369.68	42.13
369.87	98.30
370.07	91.28
370.27	119.37
370.47	220.01
370.66	327.68
370.86	390.87
371.06	388.53
371.25	477.47
371.45	514.92
371.65	545.34
371.84	554.71
372.04	447.04
372.24	503.22
372.44	465.77
372.63	470.45
372.83	566.41
373.03	491.51
373.22	540.66
373.42	512.58
373.62	519.60
373.81	514.92
374.01	580.45
374.21	521.94
374.40	559.39
374.60	559.39
374.79	594.50
374.99	594.50
375.19	573.43
375.38	514.92
375.58	580.45
375.78	557.05
375.97	653.01
376.17	592.16
376.37	585.13
376.56	627.26
376.76	582.79
376.95	564.07
377.15	645.99
377.35	573.43
377.54	596.84
377.74	615.56
377.93	638.97
378.13	617.90
378.33	599.18
378.52	554.71
378.72	631.94
378.91	638.97
379.11	615.56
379.31	599.18
379.50	596.84
379.70	557.05
379.89	709.18
380.09	582.79
380.28	676.41
380.48	725.57
380.68	627.26
380.87	606.20
381.07	660.03
381.26	699.82
381.46	667.05
381.65	709.18
381.85	601.52
382.04	697.48
382.24	713.86
382.43	664.71
382.63	650.67
382.83	669.39
383.02	690.46
383.22	713.86
383.41	662.37
383.61	678.76
383.80	805.14
384.00	732.59
384.19	823.87
384.39	662.37
384.58	678.76
384.78	823.87
384.97	713.86
385.17	699.82
385.36	791.10
385.56	791.10
385.75	807.48
385.95	767.70
386.14	772.38
386.34	800.46
386.53	842.59
386.72	777.06
386.92	837.91
387.11	784.08
387.31	814.51
387.50	779.40
387.70	741.95
387.89	873.02
388.09	875.36
388.28	842.59
388.48	840.25
388.67	866.00
388.86	805.14
389.06	868.34
389.25	880.04
389.45	880.04
389.64	910.47
389.84	875.36
390.03	873.02
390.22	889.40
390.42	933.87
390.61	954.94
390.81	891.74
391.00	929.19
391.19	966.64
391.39	1034.52
391.58	901.11
391.78	912.81
391.97	1011.11
392.16	947.92
392.36	922.17
392.55	983.02
392.75	987.71
392.94	985.37
393.13	929.19
393.33	1034.52
393.52	985.37
393.71	1057.92
393.91	1060.26
394.10	1043.88
394.29	987.71
394.49	1039.20
394.68	1125.80
394.88	1067.28
395.07	1104.73
395.26	1067.28
395.46	1060.26
395.65	1116.44
395.84	1156.22
396.04	1275.59
396.23	1179.63
396.42	1020.47
396.62	1083.67
396.81	1102.39
397.00	1095.37
397.19	1203.04
397.39	1252.19
397.58	1203.04
397.77	1210.06
397.97	1184.31
398.16	1266.23
398.35	1310.70
398.55	1277.93
398.74	1247.51
398.93	1320.06
399.12	1320.06
399.32	1416.02
399.51	1308.36
399.70	1409.00
399.90	1357.51
400.09	1399.64
400.28	1404.32
400.47	1437.09
400.67	1441.77
400.86	1427.73
401.05	1404.32
401.24	1467.52
401.44	1481.56
401.63	1420.71
401.82	1490.92
402.01	1495.60
402.21	1584.54
402.40	1521.35
402.59	1511.99
402.78	1556.46
402.97	1617.31
403.17	1472.20
403.36	1502.62
403.55	1554.12
403.74	1624.33
403.93	1654.76
404.13	1572.84
404.32	1661.78
404.51	1593.90
404.70	1701.57
404.89	1633.69
405.09	1685.19
405.28	1708.59
405.47	1802.21
405.66	1760.08
405.85	1792.85
406.05	1647.74
406.24	1748.38
406.43	1792.85
406.62	1732.00
406.81	1837.32
407.00	1724.97
407.20	1748.38
407.39	1797.53
407.58	1853.70
407.77	1881.79
407.96	1926.26
408.15	1973.07
408.34	2029.24
408.54	1930.94
408.73	1989.46
408.92	2047.97
409.11	2150.95
409.30	2052.65
409.49	2008.18
409.68	2040.95
409.87	2153.29
410.07	2136.91
410.26	2111.16
410.45	2113.50
410.64	2193.08
410.83	2202.44
411.02	2246.91
411.21	2223.51
411.40	2235.21
411.59	2267.98
411.78	2242.23
411.98	2251.60
412.17	2253.94
412.36	2300.75
412.55	2279.68
412.74	2349.90
412.93	2408.41
413.12	2434.16
413.31	2532.46
413.50	2394.37
413.69	2466.92
413.88	2546.50
414.07	2511.39
414.26	2495.01
414.45	2626.08
414.64	2647.15
414.83	2729.06
415.02	2729.06
415.22	2665.87
415.41	2766.51
415.60	2850.77
415.79	2796.94
415.98	2799.28
416.17	2841.41
416.36	2839.07
416.55	2876.52
416.74	2925.67
416.93	2911.63
417.12	2932.69
417.31	2860.13
417.50	2960.78
417.69	3047.38
417.88	3131.64
418.07	3042.70
418.26	3061.42
418.45	3082.49
418.64	3274.41
418.83	3068.44
419.02	3162.06
419.21	3190.15
419.39	3122.27
419.58	3229.94
419.77	3183.13
419.96	3211.22
420.15	3236.96
420.34	3133.98
420.53	3279.09
420.72	3353.99
420.91	3220.58
421.10	3412.50
421.29	3410.16
421.48	3225.26
421.67	3550.59
421.86	3274.41
422.05	3403.14
422.24	3459.31
422.43	3349.31
422.61	3499.10
422.80	3496.76
422.99	3597.40
423.18	3592.72
423.37	3574.00
423.56	3658.26
423.75	3386.76
423.94	3515.48
424.13	3176.11
424.32	3438.25
424.50	3634.85
424.69	3440.59
424.88	3604.42
425.07	3503.78
425.26	3382.07
425.45	3536.55
425.64	3424.20
425.83	3625.49
426.01	3688.68
426.20	3454.63
426.39	3676.98
426.58	3641.87
426.77	3674.64
426.96	3618.47
427.15	3517.83
427.33	3691.02
427.52	3719.11
427.71	3686.34
427.90	3639.53
428.09	3698.05
428.28	3770.60
428.46	3796.35
428.65	3688.68
428.84	3723.79
429.03	3822.09
429.22	3758.90
429.40	3754.22
429.59	3864.22
429.78	3655.92
429.97	3707.41
430.16	3721.45
430.34	3861.88
430.53	3873.59
430.72	3878.27
430.91	3826.78
431.10	3922.74
431.28	3974.23
431.47	4117.00
431.66	4147.43
431.85	4117.00
432.03	4145.09
432.22	4205.94
432.41	4184.88
432.60	4238.71
432.79	4145.09
432.97	4409.57
433.16	4070.19
433.35	4187.22
433.54	4306.59
433.72	4217.65
433.91	4346.37
434.10	4407.23
434.28	4421.27
434.47	4383.82
434.66	4461.06
434.85	4496.17
435.03	4533.62
435.22	4437.66
435.41	4594.47
435.59	4486.81
435.78	4636.60
435.97	4627.24
436.16	4493.83
436.34	4470.42
436.53	4514.89
436.72	4718.52
436.90	4507.87
437.09	4709.16
437.28	4622.56
437.46	4753.63
437.65	4688.09
437.84	4676.39
438.02	4727.88
438.21	4695.11
438.40	4699.80
438.58	4856.61
438.77	4847.25
438.96	4959.60
439.14	4873.00
439.33	4961.94
439.52	5249.82
439.70	5055.56
439.89	5224.08
440.08	5184.29
440.26	5238.12
440.45	5062.58
440.63	5322.38
440.82	5416.00
441.01	5301.31
441.19	5423.02
441.38	5397.28
441.57	5355.15
441.75	5289.61
441.94	5500.26
442.12	5551.75
442.31	5741.33
442.50	5657.07
442.68	5486.22
442.87	5504.94
443.05	5678.14
443.24	5776.44
443.43	5743.67
443.61	5767.08
443.80	5738.99
443.98	5612.60
444.17	5673.46
444.35	5701.54
444.54	5877.09
444.73	5797.51
444.91	5731.97
445.10	5841.98
445.28	5731.97
445.47	5729.63
445.65	5802.19
445.84	5916.87
446.02	5916.87
446.21	5865.38
446.39	5769.42
446.58	6012.84
446.77	5778.78
446.95	5846.66
447.14	5921.56
447.32	5973.05
447.51	6031.56
447.69	6003.47
447.88	5959.00
448.06	5951.98
448.25	5954.32
448.43	5858.36
448.62	6003.47
448.80	5956.66
448.99	6024.54
449.17	6146.25
449.36	6087.73
449.54	6375.62
449.73	6221.14
449.91	6150.93
450.10	6120.50
450.28	6410.73
450.46	6429.45
450.65	6307.74
450.83	6307.74
451.02	6373.28
451.20	6429.45
451.39	6382.64
451.57	6485.62
451.76	6413.07
451.94	6487.96
452.13	6438.81
452.31	6452.86
452.49	6370.94
452.68	6539.46
452.86	6455.20
453.05	6562.86
453.23	6684.57
453.42	6478.60
453.60	6548.82
453.78	6724.36
453.97	6483.28
454.15	6691.59
454.34	6691.59
454.52	6668.19
454.70	6715.00
454.89	6719.68
455.07	6745.42
455.26	6836.70
455.44	6906.92
455.62	6963.09
455.81	6785.21
455.99	6850.75
456.17	7124.59
456.36	6956.07
456.54	7229.91
456.73	7150.34
456.91	7428.86
457.09	7311.83
457.28	7435.88
457.46	7157.36
457.64	7431.20
457.83	7398.43
458.01	7159.70
458.19	7269.70
458.38	7379.71
458.56	7517.80
458.74	7407.80
458.93	7499.08
459.11	7468.65
459.29	7304.81
459.48	7447.58
459.66	7522.48
459.84	7330.56
460.03	7463.97
460.21	7733.13
460.39	7613.76
460.57	7691.00
460.76	7623.12
460.94	7730.79
461.12	7597.38
461.31	7733.13
461.49	7758.88
461.67	7604.40
461.85	7995.27
462.04	7667.60
462.22	8400.18
462.40	8060.80
462.59	7988.25
462.77	7754.19
462.95	7955.48
463.13	7976.55
463.32	8009.31
463.50	8252.73
463.68	8124.00
463.86	8063.15
464.05	8100.59
464.23	7981.23
464.41	8142.72
464.59	8018.68
464.78	8320.60
464.96	8147.40
465.14	8173.15
465.32	8283.16
465.50	8306.56
465.69	8444.65
465.87	8198.90
466.05	8306.56
466.23	8393.16
466.41	8226.98
466.60	8369.76
466.78	8344.01
466.96	8367.42
467.14	8360.39
467.32	8358.05
467.51	8589.77
467.69	8454.02
467.87	8526.57
468.05	8674.03
468.23	8470.40
468.41	8575.72
468.60	8475.08
468.78	8472.74
468.96	8734.88
469.14	8669.34
469.32	8755.94
469.50	8564.02
469.69	8697.43
469.87	8887.01
470.05	9078.94
470.23	8999.36
470.41	8919.78
470.59	8954.89
470.77	8908.08
470.95	8784.03
471.14	9139.79
471.32	8908.08
471.50	9425.34
471.68	9226.39
471.86	9233.41
472.04	9270.86
472.22	9467.47
472.40	9207.67
472.58	9488.53
472.77	9369.16
472.95	9462.79
473.13	9795.14
473.31	9729.61
473.49	9589.17
473.67	9563.43
473.85	9668.75
474.03	9881.74
474.21	9949.62
474.39	10083.03
474.57	9989.41
474.75	10076.01
474.93	10361.55
475.12	10127.50
475.30	10183.67
475.48	10076.01
475.66	10338.15
475.84	10150.90
476.02	10384.96
476.20	10298.36
476.38	10427.09
476.56	10686.89
476.74	10569.86
476.92	10516.03
477.10	10637.73
477.28	10820.30
477.46	10780.51
477.64	10993.50
477.82	11009.88
478.00	11328.19
478.18	11208.83
478.36	11300.11
478.54	11536.50
478.72	11431.18
478.90	11751.83
479.08	11971.84
479.26	11805.66
479.44	11866.52
479.62	12098.23
479.80	11922.69
479.98	12177.81
480.16	12219.94
480.34	12362.71
480.52	12283.13
480.70	12437.61
480.88	12432.93
481.06	12650.60
481.24	12582.72
481.41	12882.31
481.59	12987.63
481.77	12781.67
481.95	12652.94
482.13	13373.82
482.31	13219.35
482.49	13525.96
482.67	13415.95
482.85	13783.41
483.03	13928.53
483.21	13825.54
483.39	13914.48
483.57	13921.51
483.74	13877.04
483.92	14436.42
484.10	14202.37
484.28	14380.25
484.46	14630.69
484.64	14902.19
484.82	14457.49
485.00	14752.40
485.18	14965.39
485.35	15183.06
485.53	14881.13
485.71	14986.45
485.89	15492.01
486.07	15077.73
486.25	15499.03
486.43	15426.47
486.61	15606.69
486.78	15730.74
486.96	16121.61
487.14	16128.63
487.32	16299.49
487.50	16259.70
487.68	16456.31
487.85	16870.58
488.03	16865.90
488.21	17029.74
488.39	16882.28
488.57	17261.45
488.75	17170.17
488.92	17399.54
489.10	17762.33
489.28	17668.70
489.46	17926.16
489.64	17947.23
489.81	18434.06
489.99	18080.64
490.17	18216.39
490.35	18293.63
490.53	18691.52
490.70	18586.19
490.88	18953.66
491.06	19058.98
491.24	18991.11
491.41	18913.87
491.59	18855.36
491.77	18773.44
491.95	19363.25
492.13	19510.71
492.30	19494.32
492.48	19648.80
492.66	19871.15
492.84	19627.73
493.01	20350.96
493.19	20170.74
493.37	20503.09
493.54	20273.72
493.72	20458.62
493.90	20634.16
494.08	20919.71
494.25	20790.98
494.43	21111.63
494.61	21333.98
494.79	21446.33
494.96	21238.02
495.14	21446.33
495.32	21729.53
495.49	21642.93
495.67	21656.98
495.85	22183.60
496.02	22052.53
496.20	22326.37
496.38	22478.50
496.55	22312.33
496.73	22895.12
496.91	22693.83
497.09	22719.58
497.26	22750.01
497.44	22878.74
497.62	22955.97
497.79	23269.61
497.97	23190.03
498.14	23555.15
498.32	23480.25
498.50	23410.04
498.67	23756.44
498.85	23873.46
499.03	24006.87
499.20	24032.62
499.38	24474.98
499.56	24383.70
499.73	24308.80
499.91	24130.92
500.08	24566.26
500.26	24208.16
500.44	24386.04
500.61	24683.29
500.79	24566.26
500.97	24833.08
501.14	25172.46
501.32	25123.31
501.49	25039.05
501.67	25312.89
501.84	25333.96
502.02	25544.61
502.20	25315.23
502.37	25497.80
502.55	25858.24
502.72	25453.33
502.90	26040.80
503.07	26148.46
503.25	25853.56
503.43	25989.31
503.60	26256.13
503.78	26075.91
503.95	26146.12
504.13	26216.34
504.30	26663.38
504.48	26438.69
504.65	26944.25
504.83	26876.37
505.01	26548.70
505.18	26920.84
505.36	27082.34
505.53	27246.18
505.71	27253.20
505.88	27161.92
506.06	27580.87
506.23	27402.99
506.41	27267.24
506.58	27641.73
506.76	27105.74
506.93	27651.09
507.11	27536.40
507.28	27845.35
507.46	27552.79
507.63	28093.45
507.81	27896.85
507.98	27728.33
508.16	28056.00
508.33	28453.89
508.50	28449.21
508.68	27976.42
508.85	28868.17
509.03	28601.35
509.20	28835.40
509.38	28996.90
509.55	28872.85
509.73	28907.96
509.90	29422.87
510.08	28863.49
510.25	29116.26
510.42	29235.63
510.60	29638.20
510.77	29287.12
510.95	29699.06
511.12	29472.03
511.30	29762.25
511.47	29872.26
511.64	30110.99
511.82	30279.51
511.99	29816.08
512.17	29900.34
512.34	30029.07
512.51	30738.26
512.69	30572.08
512.86	30555.69
513.04	30780.39
513.21	30665.70
513.38	30567.40
513.56	30700.81
513.73	30602.50
513.90	30888.05
514.08	30869.33
514.25	30646.97
514.43	31000.40
514.60	30885.71
514.77	30944.22
514.95	31192.32
515.12	30871.67
515.29	31033.16
515.47	31527.02
515.64	31997.46
515.81	31686.17
515.99	31866.39
516.16	31704.90
516.33	31716.60
516.51	31857.03
516.68	31510.63
516.85	31477.86
517.03	31512.97
517.20	32278.33
517.37	32058.32
517.54	32350.88
517.72	32151.94
517.89	32058.32
518.06	31798.52
518.24	32074.70
518.41	32051.30
518.58	32023.21
518.75	32451.53
518.93	32671.54
519.10	32868.14
519.27	32917.29
519.45	32528.77
519.62	33099.86
519.79	32828.35
519.96	32966.45
520.14	33359.66
520.31	32643.45
520.48	33362.00
520.65	33734.14
520.83	33825.42
521.00	34164.80
521.17	33694.35
521.34	33975.22
521.52	33647.54
521.69	34073.52
521.86	33837.12
522.03	33663.93
522.20	33734.14
522.38	33905.00
522.55	34272.46
522.72	34288.85
522.89	34398.85
523.07	34235.02
523.24	34106.29
523.41	34504.18
523.58	34321.62
523.75	34714.83
523.92	34614.18
524.10	34803.77
524.27	34988.67
524.44	34941.86
524.61	35248.47
524.78	35239.11
524.96	34794.40
525.13	35377.20
525.30	35372.52
525.47	35129.10
525.64	34974.63
525.81	35611.25
525.98	35175.91
526.16	35002.71
526.33	35367.84
526.50	35264.85
526.67	35208.68
526.84	35204.00
527.01	35342.09
527.18	35878.07
527.36	35857.01
527.53	35938.93
527.70	36453.84
527.87	36437.46
528.04	35765.73
528.21	35772.75
528.38	36095.74
528.55	36261.92
528.72	36252.56
528.89	36339.16
529.07	36411.71
529.24	35985.74
529.41	36472.57
529.58	36385.97
529.75	36772.16
529.92	37003.87
530.09	36713.64
530.26	37013.23
530.43	37127.92
530.60	36577.89
530.77	36907.91
530.94	36947.70
531.11	36954.72
531.28	37083.45
531.46	37308.14
531.63	37029.62
531.80	36935.99
531.97	37076.43
532.14	36765.14
532.31	37034.30
532.48	37317.50
532.65	37579.64
532.82	37322.18
532.99	37811.35
533.16	37034.30
533.33	38078.18
533.50	38024.34
533.67	37727.10
533.84	37521.13
534.01	37579.64
534.18	37691.99
534.35	38064.13
534.52	38007.96
534.69	38237.33
534.86	38199.88
535.03	37799.65
535.20	38445.64
535.37	38415.21
535.54	38550.96
535.71	38204.56
535.88	38064.13
536.05	38323.93
536.22	38646.93
536.38	38363.72
536.55	38831.83
536.72	38110.94
536.89	38555.64
537.06	38436.28
537.23	38918.43
537.40	38581.39
537.57	38700.76
537.74	38653.95
537.91	38817.78
538.08	38916.09
538.25	38513.52
538.42	39173.55
538.59	39203.97
538.75	39136.10
538.92	39119.71
539.09	39583.14
539.26	39466.11
539.43	38806.08
539.60	39267.17
539.77	39435.69
539.94	39503.56
540.11	39463.77
540.28	39379.51
540.44	39414.62
540.61	39295.25
540.78	38962.90
540.95	39009.71
541.12	39349.09
541.29	39964.65
541.46	39578.46
541.62	39667.40
541.79	39924.86
541.96	39117.37
542.13	39583.14
542.30	39639.31
542.47	39913.16
542.63	39800.81
542.80	39835.92
542.97	40680.85
543.14	40680.85
543.31	40687.87
543.48	40320.41
543.64	40849.37
543.81	40753.41
543.98	40744.05
544.15	40371.90
544.32	40788.52
544.48	40849.37
544.65	40940.65
544.82	41137.26
544.99	40374.24
545.16	40348.50
545.32	40524.04
545.49	40760.43
545.66	41038.95
545.83	40704.26
546.00	41120.87
546.16	40713.62
546.33	40891.50
546.50	40645.74
546.67	40596.59
546.83	40631.70
547.00	41057.68
547.17	40825.96
547.34	41074.06
547.50	41415.78
547.67	41567.91
547.84	41102.15
548.00	41268.33
548.17	41750.48
548.34	41663.88
548.51	41996.23
548.67	42003.25
548.84	41954.10
549.01	41591.32
549.18	41694.30
549.34	41574.94
549.51	41684.94
549.68	41654.51
549.84	41902.61
550.01	42237.31
550.18	41895.59
550.34	42000.91
550.51	41668.56
550.68	41769.20
550.84	41378.33
551.01	42019.64
551.18	41584.30
551.34	42204.54
551.51	41851.12
551.68	42396.46
551.84	42239.65
552.01	41926.02
552.18	42038.36
552.34	41773.88
552.51	42621.16
552.68	42319.23
552.84	42246.67
553.01	42440.93
553.18	42316.89
553.34	42480.72
553.51	42522.85
553.67	42213.90
553.84	42810.74
554.01	42660.94
554.17	42597.75
554.34	42635.20
554.51	42721.80
554.67	43040.11
554.84	42593.07
555.00	42267.73
555.17	42342.63
555.33	42822.44
555.50	42579.03
555.67	42834.14
555.83	42948.83
556.00	42742.86
556.16	43587.80
556.33	42937.13
556.50	42911.38
556.66	43253.10
556.83	43007.34
556.99	43257.78
557.16	43175.86
557.32	43103.31
557.49	43473.11
557.65	42555.62
557.82	42871.59
557.98	43175.86
558.15	43014.37
558.32	42939.47
558.48	43459.07
558.65	43414.60
558.81	43328.00
558.98	43744.61
559.14	43203.95
559.31	43339.70
559.47	43583.12
559.64	43335.02
559.80	43854.62
559.97	43540.99
560.13	43473.11
560.30	43239.06
560.46	43604.18
560.63	43255.44
560.79	43737.59
560.96	43922.49
561.12	43370.13
561.29	43578.43
561.45	43423.96
561.61	43215.65
561.78	43283.53
561.94	43578.43
562.11	43594.82
562.27	43440.34
562.44	43246.08
562.60	43892.07
562.77	44013.77
562.93	43498.86
563.10	43882.70
563.26	43313.95
563.42	43835.89
563.59	43700.14
563.75	43613.54
563.92	43728.23
564.08	43915.47
564.24	44259.53
564.41	44079.31
564.57	43646.31
564.74	43744.61
564.90	44397.62
565.07	44116.76
565.23	43976.33
565.39	43728.23
565.56	43730.57
565.72	43849.94
565.88	44105.06
566.05	43676.74
566.21	43833.55
566.38	43573.75
566.54	43386.51
566.70	44374.22
566.87	44425.71
567.03	43826.53
567.19	44236.12
567.36	44318.04
567.52	44018.46
567.68	44320.38
567.85	43875.68
568.01	44285.28
568.17	43800.79
568.34	44472.52
568.50	44123.78
568.66	44020.80
568.83	44191.65
568.99	43814.83
569.15	43981.01
569.32	43667.37
569.48	43929.51
569.64	44528.69
569.81	44273.57
569.97	44006.75
570.13	44076.97
570.30	43833.55
570.46	43995.05
570.62	44282.94
570.78	44140.16
570.95	44203.36
571.11	44528.69
571.27	44254.85
571.43	44147.18
571.60	43920.15
571.76	44259.53
571.92	43978.67
572.09	44474.86
572.25	43826.53
572.41	43899.09
572.57	44357.83
572.74	44357.83
572.90	44252.51
573.06	44509.97
573.22	44479.54
573.38	44477.20
573.55	43995.05
573.71	44559.12
573.87	44395.28
574.03	44163.57
574.20	44289.96
574.36	44294.64
574.52	44369.54
574.68	44605.93
574.84	44109.74
575.01	43831.21
575.17	44491.24
575.33	44306.34
575.49	44273.57
575.65	44612.95
575.82	44751.04
575.98	44603.59
576.14	44734.66
576.30	44465.50
576.46	44713.59
576.62	44041.86
576.79	44404.64
576.95	44170.59
577.11	44238.47
577.27	44512.31
577.43	44395.28
577.59	44360.17
577.75	44657.42
577.92	44151.87
578.08	44313.36
578.24	44039.52
578.40	44437.41
578.56	44357.83
578.72	44250.17
578.88	44835.30
579.04	44648.06
579.21	44589.55
579.37	44268.89
579.53	44776.79
579.69	44641.04
579.85	44395.28
580.01	45045.95
580.17	44409.32
580.33	44868.07
580.49	45170.00
580.65	44612.95
580.82	44865.73
580.98	44484.22
581.14	44465.50
581.30	44804.88
581.46	44722.96
581.62	44498.26
581.78	44388.26
581.94	45083.40
582.10	44196.34
582.26	44711.25
582.42	44533.37
582.58	44343.79
582.74	44540.39
582.90	44793.17
583.06	44877.43
583.22	44863.39
583.38	44729.98
583.54	44418.69
583.70	44619.97
583.86	44186.97
584.02	44533.37
584.18	44285.28
584.34	45137.23
584.50	44568.48
584.66	44570.82
584.82	44449.11
584.98	44659.76
585.14	44224.42
585.30	44561.46
585.46	44786.15
585.62	44451.45
585.78	44765.09
585.94	44147.18
586.10	44547.42
586.26	44765.09
586.42	44980.42
586.58	44818.92
586.74	44772.11
586.90	44381.24
587.06	44411.67
587.22	44594.23
587.38	44392.94
587.54	44669.12
587.70	44921.90
587.86	44748.70
588.02	44608.27
588.18	44659.76
588.34	44732.32
588.49	44437.41
588.65	44414.01
588.81	44435.07
588.97	44669.12
589.13	44357.83
589.29	44849.35
589.45	44608.27
589.61	44905.52
589.77	44779.13
589.93	44786.15
590.08	44893.82
590.24	45345.54
