SpectraSuite Data File
++++++++++++++++++++++++++++++++++++
Date: Fri Oct 25 11:26:17 EDT 2013
User: price-jones
Dark Spectrum Present: No
Reference Spectrum Present: No
Number of Sampled Component Spectra: 1
Spectrometers: USB2+H05261
Integration Time (usec): 100000 (USB2+H05261)
Spectra Averaged: 1 (USB2+H05261)
Boxcar Smoothing: 0 (USB2+H05261)
Correct for Electrical Dark: No (USB2+H05261)
Strobe/Lamp Enabled: No (USB2+H05261)
Correct for Detector Non-linearity: No (USB2+H05261)
Correct for Stray Light: No (USB2+H05261)
Number of Pixels in Processed Spectrum: 2048
>>>>>Begin Processed Spectral Data<<<<<
365.73	301.93
365.92	301.93
366.12	301.93
366.32	220.01
366.52	166.18
366.72	161.50
366.91	119.37
367.11	105.32
367.31	236.39
367.51	145.11
367.70	170.86
367.90	154.48
368.10	154.48
368.30	159.16
368.49	205.97
368.69	152.13
368.89	175.54
369.09	147.45
369.28	145.11
369.48	147.45
369.68	229.37
369.87	187.24
370.07	198.95
370.27	236.39
370.47	351.08
370.66	568.75
370.86	573.43
371.06	674.07
371.25	641.31
371.45	636.63
371.65	690.46
371.84	716.20
372.04	793.44
372.24	720.88
372.44	730.25
372.63	741.95
372.83	770.04
373.03	723.23
373.22	716.20
373.42	767.70
373.62	835.57
373.81	746.63
374.01	819.19
374.21	823.87
374.40	833.23
374.60	847.27
374.79	840.25
374.99	816.85
375.19	791.10
375.38	798.12
375.58	791.10
375.78	875.36
375.97	870.68
376.17	978.34
376.37	884.72
376.56	919.83
376.76	844.93
376.95	819.19
377.15	870.68
377.35	903.45
377.54	950.26
377.74	912.81
377.93	856.64
378.13	903.45
378.33	994.73
378.52	952.60
378.72	959.62
378.91	961.96
379.11	947.92
379.31	908.13
379.50	992.39
379.70	976.00
379.89	945.58
380.09	947.92
380.28	959.62
380.48	1090.69
380.68	983.02
380.87	873.02
381.07	1076.65
381.26	999.41
381.46	938.55
381.65	968.98
381.85	983.02
382.04	1083.67
382.24	1055.58
382.43	1090.69
382.63	1100.05
382.83	1006.43
383.02	1013.45
383.22	1088.35
383.41	1151.54
383.61	1139.84
383.80	1191.33
384.00	1111.75
384.19	1235.80
384.39	1163.25
384.58	1057.92
384.78	1196.01
384.97	1181.97
385.17	1142.18
385.36	1174.95
385.56	1158.57
385.75	1167.93
385.95	1160.91
386.14	1235.80
386.34	1240.48
386.53	1132.82
386.72	1200.69
386.92	1242.82
387.11	1266.23
387.31	1165.59
387.50	1291.98
387.70	1217.08
387.89	1224.10
388.09	1320.06
388.28	1280.27
388.48	1327.08
388.67	1378.58
388.86	1324.74
389.06	1350.49
389.25	1392.62
389.45	1387.94
389.64	1369.21
389.84	1416.02
390.03	1383.26
390.22	1387.94
390.42	1352.83
390.61	1336.45
390.81	1394.96
391.00	1423.05
391.19	1394.96
391.39	1364.53
391.58	1462.83
391.78	1446.45
391.97	1455.81
392.16	1383.26
392.36	1533.05
392.55	1495.60
392.75	1497.94
392.94	1495.60
393.13	1507.30
393.33	1565.82
393.52	1619.65
393.71	1439.43
393.91	1469.86
394.10	1526.03
394.29	1535.39
394.49	1591.56
394.68	1589.22
394.88	1612.63
395.07	1720.29
395.26	1647.74
395.46	1633.69
395.65	1736.68
395.84	1675.82
396.04	1769.44
396.23	1652.42
396.42	1699.23
396.62	1664.12
396.81	1696.89
397.00	1823.28
397.19	1816.26
397.39	1853.70
397.58	1916.90
397.77	1867.75
397.97	1842.00
398.16	1785.83
398.35	1947.33
398.55	1930.94
398.74	1909.88
398.93	1952.01
399.12	1970.73
399.32	1952.01
399.51	1914.56
399.70	1989.46
399.90	1991.80
400.09	1952.01
400.28	2038.61
400.47	2043.29
400.67	2008.18
400.86	2080.74
401.05	2069.03
401.24	2125.21
401.44	2148.61
401.63	2172.02
401.82	2221.17
402.01	2143.93
402.21	2139.25
402.40	2108.82
402.59	2223.51
402.78	2293.72
402.97	2214.15
403.17	2359.26
403.36	2176.70
403.55	2239.89
403.74	2399.05
403.93	2260.96
404.13	2342.88
404.32	2373.30
404.51	2380.32
404.70	2455.22
404.89	2399.05
405.09	2473.95
405.28	2403.73
405.47	2548.84
405.66	2534.80
405.85	2450.54
406.05	2469.27
406.24	2597.99
406.43	2548.84
406.62	2623.74
406.81	2670.55
407.00	2520.76
407.20	2555.86
407.39	2628.42
407.58	2586.29
407.77	2785.24
407.96	2661.19
408.15	2733.75
408.34	2764.17
408.54	2843.75
408.73	2822.69
408.92	2775.88
409.11	2855.45
409.30	2906.95
409.49	2981.84
409.68	2825.03
409.87	3026.31
410.07	2899.92
410.26	2949.08
410.45	3087.17
410.64	3094.19
410.83	3005.25
411.02	3049.72
411.21	3152.70
411.40	3229.94
411.59	3133.98
411.78	3267.39
411.98	3241.64
412.17	3218.24
412.36	3295.47
412.55	3258.03
412.74	3328.24
412.93	3520.17
413.12	3281.43
413.31	3527.19
413.50	3456.97
413.69	3304.84
413.88	3655.92
414.07	3625.49
414.26	3695.71
414.45	3557.61
414.64	3576.34
414.83	3728.47
415.02	3686.34
415.22	3765.92
415.41	3887.63
415.60	3946.14
415.79	3918.06
415.98	3960.19
416.17	4028.06
416.36	3833.80
416.55	4021.04
416.74	3990.61
416.93	3960.19
417.12	4035.08
417.31	4189.56
417.50	4173.18
417.69	4304.25
417.88	4411.91
418.07	4339.35
418.26	4458.72
418.45	4271.48
418.64	4528.94
418.83	4477.44
419.02	4376.80
419.21	4442.34
419.39	4383.82
419.58	4498.51
419.77	4447.02
419.96	4542.98
420.15	4451.70
420.34	4702.14
420.53	4634.26
420.72	4751.29
420.91	4702.14
421.10	4524.26
421.29	4711.50
421.48	4748.95
421.67	4781.71
421.86	4807.46
422.05	4894.06
422.24	4706.82
422.43	4793.42
422.61	4964.28
422.80	4807.46
422.99	4947.89
423.18	4912.78
423.37	5048.54
423.56	4861.29
423.75	4898.74
423.94	4943.21
424.13	4631.92
424.32	4690.43
424.50	4842.57
424.69	5170.24
424.88	4812.14
425.07	5011.09
425.26	4819.16
425.45	4959.60
425.64	5160.88
425.83	4961.94
426.01	5160.88
426.20	5022.79
426.39	5036.83
426.58	4980.66
426.77	5060.24
426.96	4903.42
427.15	5107.05
427.33	5149.18
427.52	4997.04
427.71	5188.97
427.90	5448.77
428.09	5270.89
428.28	5338.76
428.46	5245.14
428.65	5303.65
428.84	5502.60
429.03	5542.39
429.22	5181.95
429.40	5404.30
429.59	5317.70
429.78	5390.25
429.97	5149.18
430.16	5495.58
430.34	5528.35
430.53	5708.57
430.72	5516.64
430.91	5563.45
431.10	5554.09
431.28	5729.63
431.47	5849.00
431.66	5724.95
431.85	5753.04
432.03	5933.26
432.22	6080.71
432.41	5827.93
432.60	5937.94
432.79	5872.40
432.97	5968.37
433.16	6024.54
433.35	5987.09
433.54	6139.23
433.72	6115.82
433.91	6190.72
434.10	6092.41
434.28	6017.52
434.47	6047.94
434.66	6300.72
434.85	6249.23
435.03	6335.83
435.22	6169.65
435.41	6525.41
435.59	6244.55
435.78	6218.80
435.97	6387.32
436.16	6450.52
436.34	6380.30
436.53	6410.73
436.72	6509.03
436.90	6345.19
437.09	6555.84
437.28	6401.37
437.46	6602.65
437.65	6691.59
437.84	6593.29
438.02	6661.16
438.21	6775.85
438.40	6555.84
438.58	7063.74
438.77	6846.07
438.96	6965.43
439.14	7052.03
439.33	7143.32
439.52	7138.63
439.70	7101.19
439.89	7349.28
440.08	7229.91
440.26	7232.26
440.45	7368.01
440.63	7515.46
440.82	7765.90
441.01	7438.22
441.19	7534.18
441.38	7784.62
441.57	7669.94
441.75	7728.45
441.94	8044.42
442.12	7983.57
442.31	7918.03
442.50	8011.65
442.68	7962.50
442.87	7948.46
443.05	7913.35
443.24	8241.03
443.43	8081.87
443.61	8154.43
443.80	8418.91
443.98	7974.21
444.17	7714.41
444.35	8234.00
444.54	8327.63
444.73	8306.56
444.91	8339.33
445.10	8358.05
445.28	8329.97
445.47	8318.26
445.65	8280.82
445.84	8229.32
446.02	8575.72
446.21	8456.36
446.39	8388.48
446.58	8596.79
446.77	8358.05
446.95	8208.26
447.14	8435.29
447.32	8554.66
447.51	8606.15
447.69	8346.35
447.88	8486.78
448.06	8582.74
448.25	8603.81
448.43	8432.95
448.62	8589.77
448.80	8559.34
448.99	8517.21
449.17	8697.43
449.36	8688.07
449.54	8868.29
449.73	8833.18
449.91	8954.89
450.10	9020.42
450.28	8849.57
450.46	8912.76
450.65	8973.61
450.83	9067.24
451.02	9015.74
451.20	9085.96
451.39	9142.13
451.57	9025.11
451.76	9128.09
451.94	9348.10
452.13	9179.58
452.31	9366.82
452.49	9315.33
452.68	9158.52
452.86	9256.82
453.05	9427.68
453.23	9444.06
453.42	9500.23
453.60	9226.39
453.78	9586.83
453.97	9521.30
454.15	9401.93
454.34	9612.58
454.52	9507.26
454.70	9600.88
454.89	9577.47
455.07	9680.46
455.26	9823.23
455.44	9682.80
455.62	9774.08
455.81	9949.62
455.99	9827.91
456.17	9811.53
456.36	9874.72
456.54	10031.54
456.73	10296.02
456.91	10415.38
457.09	10377.94
457.28	10384.96
457.46	10270.27
457.64	10417.72
457.83	10747.74
458.01	10317.08
458.19	10752.42
458.38	10401.34
458.56	10799.23
458.74	10686.89
458.93	10729.02
459.11	10729.02
459.29	10792.21
459.48	10771.15
459.66	10700.93
459.84	10942.00
460.03	10958.39
460.21	10906.90
460.39	10869.45
460.57	11028.60
460.76	10986.47
460.94	11213.51
461.12	11190.10
461.31	11068.39
461.49	11052.01
461.67	10913.92
461.85	11403.09
462.04	11314.15
462.22	11983.54
462.40	11522.46
462.59	11599.70
462.77	11557.57
462.95	11637.14
463.13	11485.01
463.32	11695.66
463.50	11719.06
463.68	11845.45
463.86	11822.05
464.05	11653.53
464.23	11740.13
464.41	11817.36
464.59	11714.38
464.78	12212.92
464.96	11798.64
465.14	11850.13
465.32	11824.39
465.50	11889.92
465.69	12149.72
465.87	12051.42
466.05	12049.08
466.23	12042.06
466.41	12290.15
466.60	12739.54
466.78	12121.63
466.96	12212.92
467.14	12248.02
467.32	12313.56
467.51	12444.63
467.69	12177.81
467.87	12290.15
468.05	12704.43
468.23	12325.26
468.41	12475.06
468.60	12526.55
468.78	12652.94
468.96	12409.52
469.14	12762.94
469.32	12975.93
469.50	12774.64
469.69	12856.56
469.87	12971.25
470.05	13231.05
470.23	13025.08
470.41	13280.20
470.59	13193.60
470.77	13561.06
470.95	12968.91
471.14	13394.89
471.32	13046.15
471.50	13568.09
471.68	13495.53
471.86	13455.74
472.04	13439.36
472.22	13734.26
472.40	13605.53
472.58	13664.05
472.77	13729.58
472.95	14251.52
473.13	14548.77
473.31	13961.30
473.49	14085.34
473.67	14029.17
473.85	14237.48
474.03	14579.20
474.21	14471.53
474.39	14457.49
474.57	14555.79
474.75	14614.30
474.93	15129.22
475.12	14670.48
475.30	14892.83
475.48	14902.19
475.66	15269.66
475.84	15257.95
476.02	15447.54
476.20	15293.06
476.38	15564.56
476.56	16032.67
476.74	15613.71
476.92	15838.41
477.10	15737.76
477.28	16177.78
477.46	16292.47
477.64	16290.13
477.82	16404.81
478.00	17008.67
478.18	16592.06
478.36	16863.56
478.54	17106.98
478.72	16980.59
478.90	17139.74
479.08	17329.33
479.26	17769.35
479.44	17542.32
479.62	17790.41
479.80	17706.15
479.98	17930.84
480.16	18455.12
480.34	18230.43
480.52	18677.48
480.70	18548.75
480.88	18150.85
481.06	18560.45
481.24	18738.33
481.41	19056.64
481.59	19295.38
481.77	19421.77
481.95	19438.15
482.13	19632.41
482.31	19344.53
482.49	20002.22
482.67	20058.39
482.85	20521.82
483.03	20510.11
483.21	20762.89
483.39	20746.51
483.57	20882.26
483.74	20779.28
483.92	21357.39
484.10	21165.46
484.28	21741.24
484.46	21869.97
484.64	22249.13
484.82	22066.57
485.00	21809.11
485.18	22728.94
485.35	22689.15
485.53	23042.57
485.71	22618.94
485.89	23428.76
486.07	23108.11
486.25	23459.19
486.43	23161.94
486.61	23740.05
486.78	23873.46
486.96	24168.37
487.14	24533.50
487.32	24505.41
487.50	24650.52
487.68	24589.67
487.85	25050.75
488.03	25319.92
488.21	25895.69
488.39	25575.03
488.57	25722.49
488.75	25996.33
488.92	26148.46
489.10	26462.10
489.28	26466.78
489.46	27040.21
489.64	26822.54
489.81	27583.21
489.99	27866.42
490.17	27704.92
490.35	27857.06
490.53	27885.14
490.70	28451.55
490.88	28313.46
491.06	28603.69
491.24	28510.07
491.41	28851.78
491.59	29053.07
491.77	29298.83
491.95	29434.58
492.13	29720.12
492.30	29851.19
492.48	29549.26
492.66	29916.73
492.84	30541.65
493.01	30569.74
493.19	30473.78
493.37	30616.55
493.54	31063.59
493.72	31049.55
493.90	30859.96
494.08	31536.38
494.25	31424.03
494.43	31569.15
494.61	31985.76
494.79	32046.62
494.96	32484.30
495.14	32388.33
495.32	32842.40
495.49	33060.07
495.67	32889.21
495.85	33303.48
496.02	33851.17
496.20	33680.31
496.38	33724.78
496.55	33860.53
496.73	34520.56
496.91	34338.00
497.09	34462.05
497.26	34932.50
497.44	34511.20
497.62	34995.69
497.79	36126.17
497.97	35072.93
498.14	35817.22
498.32	35852.33
498.50	36070.00
498.67	35922.54
498.85	36402.35
499.03	36601.30
499.20	36507.68
499.38	36547.47
499.56	37024.93
499.73	37034.30
499.91	37106.85
500.08	37441.55
500.26	37099.83
500.44	37638.15
500.61	37663.90
500.79	37670.92
500.97	38302.87
501.14	38136.69
501.32	38286.48
501.49	38560.33
501.67	38628.20
501.84	39068.22
502.02	39033.11
502.20	38532.24
502.37	39014.39
502.55	39007.37
502.72	39498.88
502.90	39559.73
503.07	39218.02
503.25	39866.34
503.43	39744.64
503.60	39625.27
503.78	39917.84
503.95	40086.36
504.13	39805.49
504.30	40568.51
504.48	40245.51
504.65	40753.41
504.83	40954.69
505.01	40823.62
505.18	40748.73
505.36	41532.81
505.53	40713.62
505.71	41523.44
505.88	41603.02
506.06	41287.05
506.23	41816.01
506.41	41708.35
506.58	41635.79
506.76	41893.25
506.93	42511.15
507.11	41963.46
507.28	42218.58
507.46	42916.06
507.63	42543.92
507.81	43054.15
507.98	42817.76
508.16	42541.58
508.33	43225.01
508.50	43339.70
508.68	43456.73
508.85	43803.13
509.03	43517.58
509.20	43903.77
509.38	44479.54
509.55	44048.88
509.73	44409.32
509.90	44556.78
510.08	44105.06
510.25	44240.81
510.42	44617.63
510.60	44875.09
510.77	45193.40
510.95	45268.30
511.12	44584.86
511.30	45095.10
511.47	45425.12
511.64	45261.28
511.82	45546.82
511.99	45612.36
512.17	45488.31
512.34	45815.99
512.51	45942.38
512.69	45904.93
512.86	45748.11
513.04	46223.24
513.21	46143.66
513.38	46761.56
513.56	46398.78
513.73	46934.76
513.90	47114.98
514.08	46574.32
514.25	47014.34
514.43	47217.97
514.60	47459.04
514.77	46876.25
514.95	47555.00
515.12	47086.90
515.29	47435.64
515.47	47739.91
515.64	47538.62
515.81	47992.68
515.99	47831.19
516.16	48041.84
516.33	48030.13
516.51	48666.76
516.68	48325.04
516.85	48381.21
517.03	48498.24
517.20	48755.70
517.37	48669.10
517.54	48886.77
517.72	48839.96
517.89	49174.66
518.06	48858.68
518.24	49457.86
518.41	48926.56
518.58	48907.83
518.75	49181.68
518.93	49446.16
519.10	49221.47
519.27	49397.01
519.45	49743.41
519.62	49675.53
519.79	49830.01
519.96	49628.72
520.14	49872.14
520.31	49984.48
520.48	50246.62
520.65	50274.71
520.83	50581.32
521.00	50466.63
521.17	50557.91
521.34	50190.45
521.52	50419.82
521.69	50597.70
521.86	50616.43
522.03	51002.61
522.20	50953.46
522.38	51430.93
522.55	51159.43
522.72	50958.14
522.89	51047.08
523.07	51573.70
523.24	51452.00
523.41	51810.10
523.58	51702.43
523.75	51601.79
523.92	51655.62
524.10	51798.40
524.27	51620.52
524.44	51924.78
524.61	51777.33
524.78	52369.49
524.96	52088.62
525.13	51957.55
525.30	52315.65
525.47	52229.05
525.64	52215.01
525.81	52266.50
525.98	52528.64
526.16	52245.44
526.33	52559.07
526.50	52921.85
526.67	52472.47
526.84	52692.48
527.01	52268.84
527.18	52481.83
527.36	52844.62
527.53	52753.33
527.70	53389.96
527.87	53148.88
528.04	53008.45
528.21	53191.01
528.38	53502.31
528.55	53284.64
528.72	53294.00
528.89	53605.29
529.07	53230.80
529.24	53600.61
529.41	53631.04
529.58	53661.46
529.75	53366.55
529.92	53581.88
530.09	53712.95
530.26	53748.06
530.43	53855.73
530.60	53673.16
530.77	53872.11
530.94	54106.16
531.11	54021.90
531.28	54248.94
531.46	54188.08
531.63	54199.79
531.80	54251.28
531.97	54096.80
532.14	54351.92
532.31	54368.30
532.48	54246.60
532.65	54557.89
532.82	54351.92
532.99	54370.64
533.16	54611.72
533.33	54705.34
533.50	54745.13
533.67	54698.32
533.84	54522.78
534.01	54719.38
534.18	54583.63
534.35	55229.62
534.52	54934.71
534.69	55033.02
534.86	54981.52
535.03	54805.98
535.20	55004.93
535.37	55054.08
535.54	55187.49
535.71	55407.50
535.88	55590.06
536.05	55519.85
536.22	55543.25
536.38	55763.26
536.55	55337.29
536.72	55625.17
536.89	55398.14
537.06	55573.68
537.23	55398.14
537.40	55728.16
537.57	55669.64
537.74	55693.05
537.91	55880.29
538.08	55845.18
538.25	55629.85
538.42	55784.33
538.59	55866.25
538.75	55781.99
538.92	56074.55
539.09	56177.54
539.26	55985.61
539.43	56067.53
539.60	56048.81
539.77	55955.19
539.94	56329.67
540.11	56245.41
540.28	56032.42
540.44	56308.61
540.61	56198.60
540.78	56032.42
540.95	56207.97
541.12	56142.43
541.29	56222.01
541.46	56582.45
541.62	56383.51
541.79	56573.09
541.96	56268.82
542.13	56687.78
542.30	56706.50
542.47	56793.10
542.63	56842.25
542.80	56610.54
542.97	57050.56
543.14	57226.10
543.31	56961.62
543.48	57113.75
543.64	57446.11
543.81	57132.48
543.98	57457.81
544.15	57127.80
544.32	57495.26
544.48	57331.42
544.65	57331.42
544.82	57301.00
544.99	57322.06
545.16	57411.00
545.32	57113.75
545.49	57621.65
545.66	57542.07
545.83	57598.24
546.00	57446.11
546.16	57513.98
546.33	57336.10
546.50	57483.56
546.67	57560.79
546.83	57371.21
547.00	57733.99
547.17	57729.31
547.34	57799.53
547.50	57914.22
547.67	57806.55
547.84	57865.06
548.00	57853.36
548.17	58162.31
548.34	57822.93
548.51	58164.65
548.67	58113.16
548.84	58033.58
549.01	58054.65
549.18	57783.15
549.34	58148.27
549.51	58183.38
549.68	58211.46
549.84	58284.02
550.01	58101.46
550.18	58195.08
550.34	58424.45
550.51	58183.38
550.68	58305.09
550.84	58075.71
551.01	58560.20
551.18	58286.36
551.34	58330.83
551.51	58213.80
551.68	58337.85
551.84	58410.41
552.01	58394.03
552.18	58581.27
552.34	58335.51
552.51	58658.51
552.68	58323.81
552.84	58557.86
553.01	58965.12
553.18	58663.19
553.34	58995.54
553.51	58733.40
553.67	58934.69
553.84	58915.96
554.01	58761.49
554.17	58885.54
554.34	59007.25
554.51	58543.82
554.67	59157.04
554.84	58965.12
555.00	58901.92
555.17	58733.40
555.33	59018.95
555.50	58820.00
555.67	58997.88
555.83	58756.81
556.00	58915.96
556.16	59285.77
556.33	59344.28
556.50	58925.33
556.66	59243.64
556.83	59112.57
556.99	59091.51
557.16	59217.89
557.32	59283.43
557.49	59435.56
557.65	58899.58
557.82	59372.37
557.98	59358.33
558.15	59388.75
558.32	59135.98
558.48	59248.32
558.65	59203.85
558.81	59484.72
558.98	59295.13
559.14	59384.07
559.31	59538.55
559.47	59526.84
559.64	59512.80
559.80	59512.80
559.97	59634.51
560.13	59587.70
560.30	59580.68
560.46	59344.28
560.63	59831.11
560.79	59629.83
560.96	59842.82
561.12	59604.08
561.29	59711.75
561.45	59590.04
561.61	59842.82
561.78	59606.42
561.94	59697.70
562.11	59646.21
562.27	59803.03
562.44	59910.69
562.60	59903.67
562.77	59875.58
562.93	59877.93
563.10	59891.97
563.26	59796.01
563.42	60013.68
563.59	59999.63
563.75	59896.65
563.92	60016.02
564.08	59929.42
564.24	59924.74
564.41	59955.16
564.57	60055.81
564.74	60016.02
564.90	59973.89
565.07	59877.93
565.23	59934.10
565.39	60013.68
565.56	60025.38
565.72	60065.17
565.88	60149.43
566.05	60048.78
566.21	60013.68
566.38	60144.75
566.54	60156.45
566.70	60217.30
566.87	60357.74
567.03	60009.00
567.19	60392.84
567.36	59962.18
567.52	60285.18
567.68	60362.42
567.85	60023.04
568.01	60280.50
568.17	60184.54
568.34	60268.79
568.50	60331.99
568.66	60250.07
568.83	60093.25
568.99	60282.84
569.15	60224.32
569.32	60154.11
569.48	60184.54
569.64	60486.46
569.81	60299.22
569.97	60444.33
570.13	60458.38
570.30	60238.37
570.46	60509.87
570.62	60430.29
570.78	60310.92
570.95	60294.54
571.11	60502.85
571.27	60399.86
571.43	60184.54
571.60	60605.83
571.76	60549.66
571.92	60573.06
572.09	60575.40
572.25	60411.57
572.41	60477.10
572.57	60577.75
572.74	60697.11
572.90	60533.28
573.06	60409.23
573.22	60500.51
573.38	60418.59
573.55	60336.67
573.71	60828.18
573.87	60458.38
574.03	60544.98
574.20	60535.62
574.36	60416.25
574.52	60582.43
574.68	60788.39
574.84	60692.43
575.01	60598.81
575.17	60552.00
575.33	60423.27
575.49	60467.74
575.65	60734.56
575.82	60671.37
575.98	60893.72
576.14	60753.29
576.30	60809.46
576.46	60559.02
576.62	60736.90
576.79	60559.02
576.95	60748.60
577.11	60643.28
577.27	60685.41
577.43	60694.77
577.59	60736.90
577.75	60575.40
577.92	60647.96
578.08	60669.03
578.24	60631.58
578.40	60926.49
578.56	60896.06
578.72	60891.38
578.88	60774.35
579.04	60776.69
579.21	60549.66
579.37	60903.08
579.53	61038.83
579.69	60516.89
579.85	60521.57
580.01	60748.60
580.17	60654.98
580.33	60748.60
580.49	61010.74
580.65	60947.55
580.82	60699.45
580.98	60842.23
581.14	60781.37
581.30	60729.88
581.46	60746.26
581.62	60690.09
581.78	60844.57
581.94	60865.63
582.10	60879.67
582.26	60694.77
582.42	60718.18
582.58	60966.27
582.74	60638.60
582.90	60704.13
583.06	60907.76
583.22	60816.48
583.38	60844.57
583.54	60811.80
583.70	60779.03
583.86	60886.70
584.02	60900.74
584.18	60987.34
584.34	60732.22
584.50	60786.05
584.66	60879.67
584.82	60725.20
584.98	60980.32
585.14	61062.24
585.30	60807.12
585.46	61057.56
585.62	60697.11
585.78	61162.88
585.94	60687.75
586.10	60797.76
586.26	60882.02
586.42	60924.14
586.58	60973.30
586.74	60975.64
586.90	60786.05
587.06	60739.24
587.22	61085.64
587.38	61027.13
587.54	61230.75
587.70	61183.94
587.86	60977.98
588.02	60912.44
588.18	61052.87
588.34	60977.98
588.49	61041.17
