SpectraSuite Data File
++++++++++++++++++++++++++++++++++++
Date: Fri Oct 25 10:44:19 EDT 2013
User: price-jones
Dark Spectrum Present: No
Reference Spectrum Present: No
Number of Sampled Component Spectra: 1
Spectrometers: USB2+H05261
Integration Time (usec): 100000 (USB2+H05261)
Spectra Averaged: 1 (USB2+H05261)
Boxcar Smoothing: 0 (USB2+H05261)
Correct for Electrical Dark: No (USB2+H05261)
Strobe/Lamp Enabled: No (USB2+H05261)
Correct for Detector Non-linearity: No (USB2+H05261)
Correct for Stray Light: No (USB2+H05261)
Number of Pixels in Processed Spectrum: 2048
>>>>>Begin Processed Spectral Data<<<<<
365.73	72.56
365.92	72.56
366.12	72.56
366.32	32.77
366.52	53.83
366.72	11.70
366.91	16.38
367.11	35.11
367.31	16.38
367.51	11.70
367.70	65.54
367.90	51.49
368.10	11.70
368.30	4.68
368.49	67.88
368.69	95.96
368.89	0.00
369.09	126.39
369.28	56.17
369.48	88.94
369.68	39.79
369.87	126.39
370.07	58.51
370.27	121.71
370.47	215.33
370.66	393.21
370.86	472.79
371.06	475.13
371.25	472.79
371.45	421.30
371.65	500.87
371.84	484.49
372.04	416.62
372.24	475.13
372.44	477.47
372.63	486.83
372.83	526.62
373.03	486.83
373.22	486.83
373.42	505.56
373.62	493.85
373.81	528.96
374.01	538.32
374.21	594.50
374.40	589.82
374.60	538.32
374.79	557.05
374.99	559.39
375.19	526.62
375.38	517.26
375.58	592.16
375.78	578.11
375.97	594.50
376.17	643.65
376.37	554.71
376.56	578.11
376.76	627.26
376.95	571.09
377.15	634.29
377.35	709.18
377.54	617.90
377.74	638.97
377.93	674.07
378.13	678.76
378.33	716.20
378.52	601.52
378.72	669.39
378.91	648.33
379.11	620.24
379.31	645.99
379.50	660.03
379.70	627.26
379.89	681.10
380.09	683.44
380.28	704.50
380.48	667.05
380.68	751.31
380.87	676.41
381.07	809.83
381.26	732.59
381.46	798.12
381.65	704.50
381.85	681.10
382.04	711.52
382.24	737.27
382.43	671.73
382.63	704.50
382.83	713.86
383.02	737.27
383.22	809.83
383.41	690.46
383.61	716.20
383.80	856.64
384.00	763.01
384.19	800.46
384.39	751.31
384.58	786.42
384.78	772.38
384.97	882.38
385.17	800.46
385.36	833.23
385.56	786.42
385.75	819.19
385.95	922.17
386.14	945.58
386.34	835.57
386.53	870.68
386.72	910.47
386.92	908.13
387.11	877.70
387.31	891.74
387.50	861.32
387.70	898.77
387.89	922.17
388.09	910.47
388.28	849.61
388.48	903.45
388.67	919.83
388.86	908.13
389.06	957.28
389.25	983.02
389.45	1008.77
389.64	983.02
389.84	1020.47
390.03	1036.86
390.22	992.39
390.42	1064.94
390.61	1067.28
390.81	1050.90
391.00	1083.67
391.19	1107.07
391.39	1032.18
391.58	1046.22
391.78	1022.81
391.97	1111.75
392.16	1107.07
392.36	1071.97
392.55	1029.84
392.75	978.34
392.94	1050.90
393.13	1020.47
393.33	950.26
393.52	1097.71
393.71	1064.94
393.91	1156.22
394.10	1212.40
394.29	1219.42
394.49	1179.63
394.68	1217.08
394.88	1282.61
395.07	1277.93
395.26	1275.59
395.46	1280.27
395.65	1315.38
395.84	1256.87
396.04	1394.96
396.23	1287.29
396.42	1116.44
396.62	1280.27
396.81	1186.65
397.00	1224.10
397.19	1310.70
397.39	1453.47
397.58	1397.30
397.77	1434.75
397.97	1317.72
398.16	1465.18
398.35	1586.88
398.55	1549.43
398.74	1591.56
398.93	1565.82
399.12	1537.73
399.32	1654.76
399.51	1636.03
399.70	1614.97
399.90	1572.84
400.09	1596.25
400.28	1682.85
400.47	1713.27
400.67	1657.10
400.86	1617.31
401.05	1591.56
401.24	1785.83
401.44	1764.76
401.63	1638.38
401.82	1790.51
402.01	1729.66
402.21	1830.30
402.40	1832.64
402.59	1743.70
402.78	1792.85
402.97	1820.94
403.17	1886.47
403.36	1933.28
403.55	1914.56
403.74	1959.03
403.93	1865.41
404.13	1900.52
404.32	1963.71
404.51	1994.14
404.70	1959.03
404.89	1947.33
405.09	2054.99
405.28	2010.52
405.47	1984.77
405.66	2059.67
405.85	2036.27
406.05	2115.84
406.24	2125.21
406.43	2008.18
406.62	2174.36
406.81	2132.23
407.00	2111.16
407.20	2052.65
407.39	2066.69
407.58	2155.63
407.77	2282.02
407.96	2284.36
408.15	2347.56
408.34	2279.68
408.54	2312.45
408.73	2431.82
408.92	2354.58
409.11	2462.24
409.30	2275.00
409.49	2420.11
409.68	2289.04
409.87	2270.32
410.07	2410.75
410.26	2462.24
410.45	2441.18
410.64	2534.80
410.83	2523.10
411.02	2513.74
411.21	2719.70
411.40	2677.57
411.59	2764.17
411.78	2708.00
411.98	2616.72
412.17	2719.70
412.36	2780.56
412.55	2726.72
412.74	2862.48
412.93	2839.07
413.12	2850.77
413.31	2979.50
413.50	2874.18
413.69	2913.97
413.88	3030.99
414.07	3059.08
414.26	3005.25
414.45	3014.61
414.64	3054.40
414.83	3152.70
415.02	3028.65
415.22	3234.62
415.41	3307.18
415.60	3150.36
415.79	3370.37
415.98	3309.52
416.17	3353.99
416.36	3255.69
416.55	3251.00
416.74	3297.81
416.93	3361.01
417.12	3332.92
417.31	3442.93
417.50	3403.14
417.69	3478.04
417.88	3475.70
418.07	3527.19
418.26	3496.76
418.45	3454.63
418.64	3784.65
418.83	3599.74
419.02	3662.94
419.21	3684.00
419.39	3555.27
419.58	3616.13
419.77	3716.77
419.96	3824.44
420.15	3864.22
420.34	3803.37
420.53	3826.78
420.72	3974.23
420.91	3927.42
421.10	3969.55
421.29	3957.85
421.48	3749.54
421.67	3990.61
421.86	3866.56
422.05	3859.54
422.24	3779.97
422.43	3805.71
422.61	3929.76
422.80	3960.19
422.99	3990.61
423.18	4032.74
423.37	4023.38
423.56	3927.42
423.75	3964.87
423.94	3983.59
424.13	3801.03
424.32	3843.16
424.50	4077.21
424.69	4126.36
424.88	4170.83
425.07	4007.00
425.26	3934.44
425.45	4079.55
425.64	3974.23
425.83	4105.30
426.01	4229.35
426.20	4161.47
426.39	4063.17
426.58	4002.32
426.77	4084.23
426.96	3999.98
427.15	4114.66
427.33	4091.26
427.52	4131.05
427.71	4182.54
427.90	4231.69
428.09	4414.25
428.28	4238.71
428.46	4194.24
428.65	4205.94
428.84	4430.63
429.03	4332.33
429.22	4215.30
429.40	4168.49
429.59	4142.75
429.78	4004.66
429.97	4046.79
430.16	4198.92
430.34	4257.43
430.53	4131.05
430.72	4203.60
430.91	4425.95
431.10	4372.12
431.28	4578.09
431.47	4664.69
431.66	4823.84
431.85	4636.60
432.03	4697.46
432.22	4671.71
432.41	4704.48
432.60	4807.46
432.79	4781.71
432.97	4819.16
433.16	4865.97
433.35	4702.14
433.54	4765.33
433.72	4725.54
433.91	4884.70
434.10	5001.72
434.28	4793.42
434.47	4990.02
434.66	4947.89
434.85	5085.98
435.03	5074.28
435.22	5109.39
435.41	5184.29
435.59	5231.10
435.78	5247.48
435.97	5268.55
436.16	5235.78
436.34	5165.56
436.53	5139.82
436.72	5275.57
436.90	5198.33
437.09	5217.05
437.28	5224.08
437.46	5331.74
437.65	5430.04
437.84	5397.28
438.02	5252.16
438.21	5170.24
438.40	5245.14
438.58	5418.34
438.77	5526.00
438.96	5427.70
439.14	5806.87
439.33	5762.40
439.52	5738.99
439.70	5818.57
439.89	5790.49
440.08	5837.30
440.26	5806.87
440.45	5898.15
440.63	6019.86
440.82	6136.88
441.01	6003.47
441.19	6176.67
441.38	6345.19
441.57	6310.08
441.75	6286.68
441.94	6380.30
442.12	6483.28
442.31	6502.01
442.50	6485.62
442.68	6452.86
442.87	6513.71
443.05	6637.76
443.24	6633.08
443.43	6775.85
443.61	6597.97
443.80	6796.92
443.98	6546.48
444.17	6345.19
444.35	6682.23
444.54	6773.51
444.73	6689.25
444.91	6750.10
445.10	6567.54
445.28	6771.17
445.47	6595.63
445.65	6686.91
445.84	6637.76
446.02	6827.34
446.21	6864.79
446.39	6707.98
446.58	6836.70
446.77	7016.93
446.95	6771.17
447.14	6918.62
447.32	6899.90
447.51	6911.60
447.69	6860.11
447.88	6792.23
448.06	6817.98
448.25	6925.65
448.43	6817.98
448.62	6895.22
448.80	6963.09
448.99	6890.54
449.17	6850.75
449.36	7040.33
449.54	7030.97
449.73	7307.15
449.91	7239.28
450.10	7283.75
450.28	7403.11
450.46	7377.37
450.65	7295.45
450.83	7328.22
451.02	7344.60
451.20	7363.33
451.39	7328.22
451.57	7218.21
451.76	7265.02
451.94	7501.42
452.13	7499.08
452.31	7199.49
452.49	7297.79
452.68	7379.71
452.86	7382.05
453.05	7335.24
453.23	7461.63
453.42	7419.50
453.60	7590.36
453.78	7616.10
453.97	7466.31
454.15	7391.41
454.34	7515.46
454.52	7824.41
454.70	7676.96
454.89	7660.57
455.07	7798.66
455.26	7838.45
455.44	7985.91
455.62	7812.71
455.81	8091.23
455.99	7988.25
456.17	8088.89
456.36	8065.49
456.54	8210.60
456.73	8046.76
456.91	8269.11
457.09	8369.76
457.28	8292.52
457.46	8149.75
457.64	8482.10
457.83	8280.82
458.01	8243.37
458.19	8329.97
458.38	8334.65
458.56	8348.69
458.74	8430.61
458.93	8327.63
459.11	8519.55
459.29	8451.67
459.48	8552.32
459.66	8372.10
459.84	8402.52
460.03	8791.05
460.21	8669.34
460.39	8657.64
460.57	8751.26
460.76	8863.61
460.94	8952.55
461.12	8952.55
461.31	8879.99
461.49	8767.65
461.67	8561.68
461.85	9057.87
462.04	8985.32
462.22	9238.09
462.40	9221.71
462.59	9170.22
462.77	9090.64
462.95	9284.91
463.13	9380.87
463.32	9165.54
463.50	9507.26
463.68	9259.16
463.86	9184.26
464.05	9125.75
464.23	9174.90
464.41	9092.98
464.59	9233.41
464.78	9317.67
464.96	9252.14
465.14	9547.05
465.32	9392.57
465.50	9413.63
465.69	9327.03
465.87	9437.04
466.05	9376.19
466.23	9266.18
466.41	9514.28
466.60	9652.37
466.78	9390.23
466.96	9593.86
467.14	9504.92
467.32	9373.85
467.51	9575.13
467.69	9488.53
467.87	9645.35
468.05	9834.93
468.23	9635.99
468.41	9678.12
468.60	9635.99
468.78	9837.27
468.96	9523.64
469.14	9916.85
469.32	10008.13
469.50	9755.35
469.69	9895.78
469.87	10134.52
470.05	9954.30
470.23	10101.75
470.41	9951.96
470.59	10068.98
470.77	10204.74
470.95	10176.65
471.14	10342.83
471.32	10370.91
471.50	10462.19
471.68	10415.38
471.86	10719.65
472.04	10696.25
472.22	10810.93
472.40	10569.86
472.58	10527.73
472.77	10499.64
472.95	10611.99
473.13	11183.08
473.31	10768.80
473.49	10956.05
473.67	10820.30
473.85	10876.47
474.03	11030.94
474.21	11091.80
474.39	11339.90
474.57	11382.03
474.75	11382.03
474.93	11171.38
475.12	11424.15
475.30	11580.97
475.48	11477.99
475.66	11517.78
475.84	11302.45
476.02	11850.13
476.20	11646.51
476.38	11840.77
476.56	12107.59
476.74	12208.23
476.92	12074.82
477.10	12194.19
477.28	12393.14
477.46	12561.66
477.64	12711.45
477.82	12444.63
478.00	12903.37
478.18	12657.62
478.36	12772.30
478.54	12945.50
478.72	13043.81
478.90	13046.15
479.08	13317.65
479.26	13598.51
479.44	13408.93
479.62	13521.27
479.80	13455.74
479.98	13813.84
480.16	13994.06
480.34	13914.48
480.52	14108.75
480.70	14141.52
480.88	13998.74
481.06	14284.29
481.24	14361.53
481.41	14609.62
481.59	14546.43
481.77	14705.59
481.95	14579.20
482.13	14864.74
482.31	14853.04
482.49	15290.72
482.67	15119.86
482.85	15105.82
483.03	15412.43
483.21	15492.01
483.39	15782.23
483.57	15807.98
483.74	15948.41
483.92	16084.16
484.10	15925.00
484.28	16318.22
484.46	16575.67
484.64	16589.72
484.82	16568.65
485.00	16372.05
485.18	16908.03
485.35	16875.26
485.53	16568.65
485.71	16269.06
485.89	16643.55
486.07	16688.02
486.25	16847.18
486.43	17352.73
486.61	17446.35
486.78	17699.13
486.96	17708.49
487.14	18244.48
487.32	18092.34
487.50	18462.15
487.68	18614.28
487.85	18810.89
488.03	18986.43
488.21	18853.02
488.39	18916.21
488.57	18951.32
488.75	19403.04
488.92	19286.01
489.10	19992.86
489.28	19742.42
489.46	19934.34
489.64	19910.94
489.81	20372.02
489.99	20507.77
490.17	20751.19
490.35	20676.29
490.53	20858.85
490.70	21135.04
490.88	21109.29
491.06	21291.85
491.24	21013.33
491.41	21013.33
491.59	21312.92
491.77	21238.02
491.95	21378.45
492.13	21586.76
492.30	22057.21
492.48	22197.64
492.66	22211.68
492.84	22040.82
493.01	22717.24
493.19	22335.73
493.37	22530.00
493.54	22782.77
493.72	22977.04
493.90	22869.37
494.08	23346.84
494.25	23637.07
494.43	23681.54
494.61	23751.76
494.79	24093.47
494.96	23992.83
495.14	23805.59
495.32	24545.20
495.49	24247.95
495.67	24379.02
495.85	24636.48
496.02	24613.07
496.20	25137.35
496.38	24641.16
496.55	25415.88
496.73	25436.94
496.91	25235.66
497.09	25572.69
497.26	25949.52
497.44	25385.45
497.62	25886.32
497.79	26160.17
497.97	25666.31
498.14	25792.70
498.32	26080.59
498.50	26099.31
498.67	26618.91
498.85	26169.53
499.03	26859.99
499.20	26560.40
499.38	26607.21
499.56	27023.83
499.73	26778.07
499.91	27117.45
500.08	27314.05
500.26	26649.34
500.44	27234.47
500.61	27089.36
500.79	26941.91
500.97	27768.12
501.14	27658.11
501.32	27662.79
501.49	27356.18
501.67	28107.49
501.84	28046.64
502.02	28067.70
502.20	28573.26
502.37	28559.22
502.55	28311.12
502.72	28753.48
502.90	28734.76
503.07	28545.17
503.25	28811.99
503.43	28540.49
503.60	28952.43
503.78	28739.44
503.95	28306.44
504.13	28931.36
504.30	29111.58
504.48	29289.46
504.65	29610.12
504.83	29579.69
505.01	29748.21
505.18	29713.10
505.36	30429.30
505.53	30022.05
505.71	29984.60
505.88	30548.67
506.06	29701.40
506.23	30314.62
506.41	30094.61
506.58	30476.12
506.76	30628.25
506.93	30686.76
507.11	30539.31
507.28	30431.65
507.46	30670.38
507.63	30726.55
507.81	30632.93
507.98	30548.67
508.16	31049.55
508.33	30974.65
508.50	31637.02
508.68	31522.34
508.85	31683.83
509.03	31693.19
509.20	31782.13
509.38	31590.21
509.55	32290.03
509.73	31749.37
509.90	31751.71
510.08	32025.55
510.25	32032.57
510.42	32140.24
510.60	32292.37
510.77	32514.72
510.95	32350.88
511.12	32257.26
511.30	32517.06
511.47	33069.43
511.64	33001.55
511.82	33216.88
511.99	32718.35
512.17	33134.96
512.34	32648.13
512.51	33153.69
512.69	33298.80
512.86	33312.84
513.04	33294.12
513.21	33486.04
513.38	33652.22
513.56	33469.66
513.73	33099.86
513.90	33551.58
514.08	33762.23
514.25	33626.48
514.43	33930.75
514.60	33876.91
514.77	33830.10
514.95	33982.24
515.12	34178.84
515.29	34230.33
515.47	34464.39
515.64	34300.55
515.81	34536.94
515.99	34464.39
516.16	34611.84
516.33	34185.86
516.51	34256.08
516.68	34181.18
516.85	33586.69
517.03	33832.44
517.20	34101.61
517.37	35089.31
517.54	35033.14
517.72	34665.67
517.89	34689.08
518.06	34794.40
518.24	34600.14
518.41	35014.41
518.58	35124.42
518.75	35358.47
518.93	35328.05
519.10	35016.75
519.27	35428.69
519.45	35700.19
519.62	35725.94
519.79	35917.86
519.96	35952.97
520.14	36161.28
520.31	36065.31
520.48	36077.02
520.65	35964.67
520.83	36498.31
521.00	36861.10
521.17	36708.96
521.34	36687.90
521.52	37111.53
521.69	37134.94
521.86	37085.79
522.03	37163.03
522.20	36938.33
522.38	36804.92
522.55	37041.32
522.72	37205.16
522.89	37024.93
523.07	37235.58
523.24	37050.68
523.41	37626.45
523.58	37591.34
523.75	37736.46
523.92	38050.09
524.10	38146.05
524.27	37413.46
524.44	38134.35
524.61	37729.44
524.78	38298.19
524.96	38361.38
525.13	38007.96
525.30	38768.63
525.47	38862.26
525.64	38513.52
525.81	38326.27
525.98	38284.14
526.16	37649.86
526.33	37544.53
526.50	38087.54
526.67	38007.96
526.84	38033.71
527.01	38115.62
527.18	38148.39
527.36	38548.62
527.53	39192.27
527.70	39133.76
527.87	39079.92
528.04	38801.40
528.21	38925.45
528.38	39218.02
528.55	39269.51
528.72	39416.96
528.89	39452.07
529.07	39194.61
529.24	39517.60
529.41	39473.13
529.58	39512.92
529.75	39419.30
529.92	39929.54
530.09	39484.84
530.26	40322.75
530.43	39576.12
530.60	40133.17
530.77	39896.77
530.94	39966.99
531.11	40140.19
531.28	39922.52
531.46	40140.19
531.63	40147.21
531.80	40563.82
531.97	40311.05
532.14	40275.94
532.31	39768.04
532.48	39997.41
532.65	40591.91
532.82	39852.30
532.99	40411.69
533.16	40346.15
533.33	40596.59
533.50	40865.75
533.67	40811.92
533.84	40409.35
534.01	40851.71
534.18	40608.29
534.35	40563.82
534.52	40767.45
534.69	40594.25
534.86	41127.89
535.03	40952.35
535.20	41640.47
535.37	41710.69
535.54	41970.49
535.71	41698.98
535.88	41574.94
536.05	41387.69
536.22	41516.42
536.38	41146.62
536.55	41387.69
536.72	41244.92
536.89	41429.82
537.06	41401.74
537.23	41914.31
537.40	41617.07
537.57	42188.16
537.74	41605.36
537.91	42036.02
538.08	41858.14
538.25	41493.02
538.42	41979.85
538.59	41713.03
538.75	41553.87
538.92	41680.26
539.09	42347.31
539.26	42096.88
539.43	42356.67
539.60	42237.31
539.77	42040.70
539.94	41954.10
540.11	42033.68
540.28	42155.39
540.44	42501.79
540.61	42045.38
540.78	41923.68
540.95	42256.03
541.12	42106.24
541.29	42246.67
541.46	42445.62
541.62	42897.34
541.79	42653.92
541.96	42370.72
542.13	42209.22
542.30	42113.26
542.47	42387.10
542.63	42831.80
542.80	43140.75
542.97	42946.49
543.14	43271.82
543.31	43063.52
543.48	42831.80
543.64	43966.96
543.81	43852.28
543.98	43386.51
544.15	43615.88
544.32	43480.13
544.48	43753.97
544.65	43632.27
544.82	43517.58
544.99	43629.93
545.16	43847.60
545.32	43342.04
545.49	44086.33
545.66	44196.34
545.83	44371.88
546.00	43620.56
546.16	43758.66
546.33	43948.24
546.50	43288.21
546.67	44191.65
546.83	43756.32
547.00	43845.26
547.17	43969.30
547.34	44044.20
547.50	44245.49
547.67	44201.02
547.84	44598.91
548.00	44287.62
548.17	44552.10
548.34	44526.35
548.51	44652.74
548.67	44304.00
548.84	44474.86
549.01	44266.55
549.18	44257.19
549.34	44346.13
549.51	44648.06
549.68	44603.59
549.84	44591.89
550.01	45113.83
550.18	44694.87
550.34	44648.06
550.51	44807.22
550.68	44591.89
550.84	44463.16
551.01	44907.86
551.18	44729.98
551.34	44568.48
551.51	45102.12
551.68	45024.89
551.84	45111.49
552.01	45153.62
552.18	44832.96
552.34	44591.89
552.51	45085.74
552.68	44587.21
552.84	44996.80
553.01	45610.02
553.18	45219.15
553.34	45001.48
553.51	44666.78
553.67	45062.33
553.84	45380.65
554.01	45261.28
554.17	45621.72
554.34	45076.38
554.51	45563.21
554.67	45762.15
554.84	45340.86
555.00	45074.04
555.17	45652.15
555.33	45577.25
555.50	45333.84
555.67	45542.14
555.83	45347.88
556.00	45563.21
556.16	45598.32
556.33	45069.36
556.50	45333.84
556.66	45567.89
556.83	45492.99
556.99	46038.34
557.16	45865.14
557.32	45556.19
557.49	45556.19
557.65	45523.42
557.82	45441.50
557.98	45551.51
558.15	45668.53
558.32	46031.32
558.48	45776.20
558.65	45448.52
558.81	45476.61
558.98	45848.75
559.14	45521.08
559.31	45762.15
559.47	45851.09
559.64	46059.40
559.80	46045.36
559.97	46007.91
560.13	45720.02
560.30	45584.27
560.46	45603.00
560.63	45970.46
560.79	46281.75
560.96	46740.50
561.12	45879.18
561.29	46202.18
561.45	45986.85
561.61	46045.36
561.78	45823.01
561.94	45935.35
562.11	45600.66
562.27	46113.23
562.44	46117.92
562.60	46368.35
562.77	46263.03
562.93	45876.84
563.10	46438.57
563.26	45537.46
563.42	46337.93
563.59	46099.19
563.75	46017.27
563.92	46506.44
564.08	46190.47
564.24	46590.70
564.41	46431.55
564.57	46033.66
564.74	46082.81
564.90	46223.24
565.07	46169.41
565.23	46110.89
565.39	46368.35
565.56	46461.97
565.72	46003.23
565.88	46251.33
566.05	45872.16
566.21	46197.49
566.38	45998.55
566.54	46272.39
566.70	46602.41
566.87	46799.01
567.03	46195.15
567.19	46885.61
567.36	46780.29
567.52	46586.02
567.68	46773.27
567.85	46817.74
568.01	46328.56
568.17	46471.34
568.34	46518.15
568.50	46412.82
568.66	46679.64
568.83	46497.08
568.99	46330.90
569.15	46321.54
569.32	46108.55
569.48	46291.12
569.64	46869.23
569.81	46557.94
569.97	46574.32
570.13	46410.48
570.30	46178.77
570.46	46431.55
570.62	46239.62
570.78	46674.96
570.95	46012.59
571.11	46782.63
571.27	46248.99
571.43	46454.95
571.60	46068.76
571.76	46185.79
571.92	46419.84
572.09	46469.00
572.25	46581.34
572.41	46635.17
572.57	46740.50
572.74	46794.33
572.90	46588.36
573.06	46518.15
573.22	46630.49
573.38	46909.02
573.55	46363.67
573.71	46658.58
573.87	46574.32
574.03	46223.24
574.20	46412.82
574.36	46593.04
574.52	46513.47
574.68	46497.08
574.84	46426.87
575.01	46747.52
575.17	46202.18
575.33	46256.01
575.49	46405.80
575.65	46890.29
575.82	47206.26
575.98	46363.67
576.14	46909.02
576.30	46595.38
576.46	46401.12
576.62	46457.29
576.79	46616.45
576.95	46464.32
577.11	46347.29
577.27	46384.74
577.43	46408.14
577.59	46494.74
577.75	46405.80
577.92	46026.63
578.08	45968.12
578.24	46281.75
578.40	46401.12
578.56	46511.13
578.72	46623.47
578.88	47026.04
579.04	46897.31
579.21	46520.49
579.37	46677.30
579.53	46869.23
579.69	46763.90
579.85	46574.32
580.01	46504.10
580.17	46799.01
580.33	46834.12
580.49	46609.43
580.65	47260.10
580.82	46506.44
580.98	46916.04
581.14	46595.38
581.30	46836.46
581.46	47002.64
581.62	46593.04
581.78	46923.06
581.94	46939.44
582.10	46590.70
582.26	46639.86
582.42	47026.04
582.58	46983.91
582.74	47056.47
582.90	46677.30
583.06	46897.31
583.22	47112.64
583.38	46974.55
583.54	47110.30
583.70	46784.97
583.86	47086.90
584.02	46417.50
584.18	46953.49
584.34	46609.43
584.50	46815.40
584.66	46656.24
584.82	46625.81
584.98	46990.94
585.14	46700.71
585.30	46672.62
585.46	46586.02
585.62	46499.42
585.78	46827.10
585.94	46309.84
586.10	46469.00
586.26	46518.15
586.42	47040.09
586.58	46920.72
586.74	46850.50
586.90	46780.29
587.06	46621.13
587.22	46602.41
587.38	46590.70
587.54	46951.15
587.70	47260.10
587.86	46873.91
588.02	46663.26
588.18	46806.03
588.34	46387.08
588.49	46171.75
588.65	46050.04
588.81	46277.07
588.97	46279.41
589.13	46024.29
589.29	46838.80
589.45	46532.19
589.61	46838.80
589.77	47044.77
589.93	46607.09
