SpectraSuite Data File
++++++++++++++++++++++++++++++++++++
Date: Fri Oct 25 11:26:18 EDT 2013
User: price-jones
Dark Spectrum Present: No
Reference Spectrum Present: No
Number of Sampled Component Spectra: 1
Spectrometers: USB2+H05261
Integration Time (usec): 100000 (USB2+H05261)
Spectra Averaged: 1 (USB2+H05261)
Boxcar Smoothing: 0 (USB2+H05261)
Correct for Electrical Dark: No (USB2+H05261)
Strobe/Lamp Enabled: No (USB2+H05261)
Correct for Detector Non-linearity: No (USB2+H05261)
Correct for Stray Light: No (USB2+H05261)
Number of Pixels in Processed Spectrum: 2048
>>>>>Begin Processed Spectral Data<<<<<
365.73	189.58
365.92	189.58
366.12	189.58
366.32	177.88
366.52	175.54
366.72	248.10
366.91	121.71
367.11	196.60
367.31	156.82
367.51	184.90
367.70	100.64
367.90	100.64
368.10	138.09
368.30	163.84
368.49	196.60
368.69	84.26
368.89	220.01
369.09	131.07
369.28	100.64
369.48	191.92
369.68	133.41
369.87	241.08
370.07	196.60
370.27	189.58
370.47	348.74
370.66	587.47
370.86	638.97
371.06	676.41
371.25	734.93
371.45	634.29
371.65	718.54
371.84	664.71
372.04	685.78
372.24	653.01
372.44	711.52
372.63	716.20
372.83	662.37
373.03	753.65
373.22	781.74
373.42	732.59
373.62	755.99
373.81	779.40
374.01	826.21
374.21	828.55
374.40	891.74
374.60	802.80
374.79	788.76
374.99	903.45
375.19	849.61
375.38	880.04
375.58	830.89
375.78	816.85
375.97	844.93
376.17	884.72
376.37	901.11
376.56	819.19
376.76	889.40
376.95	882.38
377.15	980.68
377.35	868.34
377.54	884.72
377.74	800.46
377.93	816.85
378.13	854.30
378.33	1029.84
378.52	929.19
378.72	947.92
378.91	919.83
379.11	940.90
379.31	931.53
379.50	987.71
379.70	1048.56
379.89	968.98
380.09	973.66
380.28	945.58
380.48	1008.77
380.68	968.98
380.87	997.07
381.07	1050.90
381.26	1081.33
381.46	1036.86
381.65	978.34
381.85	1114.10
382.04	1013.45
382.24	1095.37
382.43	1177.29
382.63	1043.88
382.83	1057.92
383.02	1097.71
383.22	1142.18
383.41	1071.97
383.61	1240.48
383.80	1165.59
384.00	1081.33
384.19	1064.94
384.39	1177.29
384.58	1170.27
384.78	1130.48
384.97	1069.62
385.17	1055.58
385.36	1046.22
385.56	1116.44
385.75	1196.01
385.95	1221.76
386.14	1219.42
386.34	1207.72
386.53	1172.61
386.72	1233.46
386.92	1284.95
387.11	1324.74
387.31	1282.61
387.50	1296.66
387.70	1242.82
387.89	1238.14
388.09	1343.47
388.28	1261.55
388.48	1348.15
388.67	1275.59
388.86	1179.63
389.06	1324.74
389.25	1387.94
389.45	1277.93
389.64	1296.66
389.84	1483.90
390.03	1462.83
390.22	1387.94
390.42	1341.13
390.61	1357.51
390.81	1413.68
391.00	1434.75
391.19	1458.15
391.39	1460.49
391.58	1547.09
391.78	1495.60
391.97	1434.75
392.16	1507.30
392.36	1565.82
392.55	1479.22
392.75	1575.18
392.94	1467.52
393.13	1598.59
393.33	1486.24
393.52	1596.25
393.71	1605.61
393.91	1575.18
394.10	1561.14
394.29	1556.46
394.49	1600.93
394.68	1568.16
394.88	1619.65
395.07	1715.61
395.26	1652.42
395.46	1647.74
395.65	1591.56
395.84	1739.02
396.04	1757.74
396.23	1748.38
396.42	1818.60
396.62	1703.91
396.81	1750.72
397.00	1785.83
397.19	1816.26
397.39	1739.02
397.58	1769.44
397.77	1785.83
397.97	1842.00
398.16	1872.43
398.35	1877.11
398.55	1968.39
398.74	1944.99
398.93	2040.95
399.12	1905.20
399.32	1937.96
399.51	1926.26
399.70	2022.22
399.90	2010.52
400.09	1984.77
400.28	2017.54
400.47	2047.97
400.67	2125.21
400.86	2146.27
401.05	2047.97
401.24	2043.29
401.44	2080.74
401.63	2169.68
401.82	2239.89
402.01	2118.18
402.21	2218.83
402.40	2134.57
402.59	2214.15
402.78	2197.76
402.97	2298.41
403.17	2312.45
403.36	2167.34
403.55	2270.32
403.74	2246.91
403.93	2401.39
404.13	2314.79
404.32	2331.17
404.51	2251.60
404.70	2258.62
404.89	2263.30
405.09	2443.52
405.28	2513.74
405.47	2441.18
405.66	2429.48
405.85	2504.37
406.05	2462.24
406.24	2576.93
406.43	2504.37
406.62	2572.25
406.81	2633.10
407.00	2532.46
407.20	2583.95
407.39	2614.38
407.58	2813.32
407.77	2729.06
407.96	2710.34
408.15	2675.23
408.34	2785.24
408.54	2745.45
408.73	2801.62
408.92	2820.35
409.11	2850.77
409.30	2839.07
409.49	2825.03
409.68	2722.04
409.87	3002.91
410.07	3035.67
410.26	3014.61
410.45	3084.83
410.64	3019.29
410.83	3026.31
411.02	3171.43
411.21	3007.59
411.40	3042.70
411.59	3122.27
411.78	3112.91
411.98	3133.98
412.17	3225.26
412.36	3243.98
412.55	3335.26
412.74	3353.99
412.93	3335.26
413.12	3396.12
413.31	3478.04
413.50	3428.88
413.69	3515.48
413.88	3592.72
414.07	3438.25
414.26	3639.53
414.45	3653.58
414.64	3662.94
414.83	3763.58
415.02	3665.28
415.22	3899.33
415.41	3861.88
415.60	3864.22
415.79	3899.33
415.98	3981.25
416.17	3992.95
416.36	3896.99
416.55	3997.64
416.74	4156.79
416.93	4035.08
417.12	4067.85
417.31	4093.60
417.50	4229.35
417.69	4287.86
417.88	4191.90
418.07	4149.77
418.26	4238.71
418.45	4318.29
418.64	4519.57
418.83	4266.80
419.02	4369.78
419.21	4440.00
419.39	4540.64
419.58	4435.32
419.77	4615.54
419.96	4559.36
420.15	4580.43
420.34	4484.47
420.53	4578.09
420.72	4578.09
420.91	4641.28
421.10	4608.51
421.29	4741.93
421.48	4552.34
421.67	4575.75
421.86	4800.44
422.05	4898.74
422.24	4856.61
422.43	4802.78
422.61	4882.36
422.80	4898.74
422.99	4805.12
423.18	4851.93
423.37	4915.12
423.56	4903.42
423.75	4994.70
423.94	4891.72
424.13	4568.73
424.32	4695.11
424.50	4999.38
424.69	4877.68
424.88	5020.45
425.07	4905.76
425.26	4779.37
425.45	5004.07
425.64	4922.15
425.83	4910.44
426.01	4940.87
426.20	4990.02
426.39	5013.43
426.58	4905.76
426.77	5076.62
426.96	5029.81
427.15	4964.28
427.33	5212.37
427.52	5280.25
427.71	5263.86
427.90	5259.18
428.09	5184.29
428.28	5359.83
428.46	5357.49
428.65	5355.15
428.84	5432.38
429.03	5488.56
429.22	5394.93
429.40	5537.71
429.59	5526.00
429.78	5345.78
429.97	5217.05
430.16	5474.51
430.34	5474.51
430.53	5746.02
430.72	5561.11
430.91	5561.11
431.10	5668.78
431.28	5692.18
431.47	5738.99
431.66	5715.59
431.85	5827.93
432.03	5804.53
432.22	5951.98
432.41	5806.87
432.60	5968.37
432.79	5923.90
432.97	6033.90
433.16	5982.41
433.35	5970.71
433.54	5973.05
433.72	6066.67
433.91	5937.94
434.10	6286.68
434.28	6071.35
434.47	6242.21
434.66	6277.32
434.85	6317.11
435.03	6258.59
435.22	6211.78
435.41	6492.65
435.59	6347.53
435.78	6534.78
435.97	6588.61
436.16	6469.24
436.34	6310.08
436.53	6483.28
436.72	6600.31
436.90	6303.06
437.09	6523.07
437.28	6420.09
437.46	6527.75
437.65	6600.31
437.84	6693.93
438.02	6733.72
438.21	6794.58
438.40	6700.95
438.58	6892.88
438.77	7068.42
438.96	6960.75
439.14	6986.50
439.33	7169.06
439.52	7119.91
439.70	7243.96
439.89	7281.41
440.08	7360.98
440.26	7204.17
440.45	7433.54
440.63	7435.88
440.82	7566.95
441.01	7400.77
441.19	7669.94
441.38	7672.28
441.57	7637.17
441.75	7763.56
441.94	7969.52
442.12	7899.31
442.31	7850.16
442.50	8006.97
442.68	7927.39
442.87	7971.86
443.05	8149.75
443.24	8191.88
443.43	8114.64
443.61	8182.51
443.80	8477.42
443.98	7791.64
444.17	7925.05
444.35	8325.29
444.54	8418.91
444.73	8341.67
444.91	8133.36
445.10	8203.58
445.28	8182.51
445.47	8243.37
445.65	8325.29
445.84	8269.11
446.02	8327.63
446.21	8439.97
446.39	8397.84
446.58	8465.72
446.77	8294.86
446.95	8018.68
447.14	8484.44
447.32	8552.32
447.51	8280.82
447.69	8425.93
447.88	8486.78
448.06	8542.96
448.25	8493.80
448.43	8479.76
448.62	8475.08
448.80	8428.27
448.99	8636.58
449.17	8615.51
449.36	8798.07
449.54	9039.15
449.73	8856.59
449.91	8833.18
450.10	8894.04
450.28	9074.26
450.46	9167.88
450.65	9160.86
450.83	9083.62
451.02	9107.02
451.20	9085.96
451.39	9193.62
451.57	8975.95
451.76	8947.87
451.94	9240.44
452.13	9390.23
452.31	9329.38
452.49	9158.52
452.68	9413.63
452.86	9249.80
453.05	9369.16
453.23	9572.79
453.42	9273.20
453.60	9327.03
453.78	9603.22
453.97	9516.62
454.15	9568.11
454.34	9284.91
454.52	9624.28
454.70	9769.40
454.89	9755.35
455.07	9757.69
455.26	9727.27
455.44	9956.64
455.62	9797.48
455.81	9682.80
455.99	9832.59
456.17	10054.94
456.36	9984.73
456.54	10097.07
456.73	10106.43
456.91	10424.75
457.09	10207.08
457.28	10527.73
457.46	10108.77
457.64	10431.77
457.83	10513.69
458.01	10485.60
458.19	10501.98
458.38	10415.38
458.56	10806.25
458.74	10518.37
458.93	10593.26
459.11	10530.07
459.29	10602.63
459.48	10651.78
459.66	10775.83
459.84	10743.06
460.03	11201.80
460.21	10916.26
460.39	10930.30
460.57	10972.43
460.76	10911.58
460.94	11119.89
461.12	11152.65
461.31	11152.65
461.49	11124.57
461.67	11117.54
461.85	11314.15
462.04	11220.53
462.22	11686.29
462.40	11550.54
462.59	11405.43
462.77	11360.96
462.95	11559.91
463.13	11714.38
463.32	11445.22
463.50	11524.80
463.68	11817.36
463.86	11674.59
464.05	11625.44
464.23	11634.80
464.41	11808.00
464.59	11485.01
464.78	12056.10
464.96	11918.01
465.14	11716.72
465.32	11969.50
465.50	12219.94
465.69	12189.51
465.87	11939.07
466.05	12191.85
466.23	11880.56
466.41	12166.10
466.60	12250.36
466.78	11967.16
466.96	12161.42
467.14	12182.49
467.32	12189.51
467.51	12498.46
467.69	12170.79
467.87	12238.66
468.05	12706.77
468.23	12432.93
468.41	12547.61
468.60	12388.46
468.78	12812.09
468.96	12547.61
469.14	12697.41
469.32	12823.80
469.50	12720.81
469.69	12702.09
469.87	12943.16
470.05	12910.40
470.23	13205.30
470.41	13092.96
470.59	13252.11
470.77	12592.08
470.95	13252.11
471.14	13568.09
471.32	13121.04
471.50	13572.77
471.68	13528.30
471.86	13509.57
472.04	13479.15
472.22	13785.76
472.40	13504.89
472.58	13624.26
472.77	13795.12
472.95	14310.04
473.13	14415.36
473.31	14155.56
473.49	13998.74
473.67	14052.58
473.85	14132.15
474.03	14494.94
474.21	14335.78
474.39	14637.71
474.57	14752.40
474.75	14759.42
474.93	14829.63
475.12	15108.16
475.30	14862.40
475.48	15213.48
475.66	15154.97
475.84	15229.87
476.02	15239.23
476.20	15316.47
476.38	15599.67
476.56	15784.57
476.74	15791.59
476.92	15934.37
477.10	15730.74
477.28	15854.79
477.46	15981.18
477.64	16290.13
477.82	16444.60
478.00	16608.44
478.18	16615.46
478.36	16716.11
478.54	16931.44
478.72	16971.22
478.90	16957.18
479.08	17359.75
479.26	17364.43
479.44	17727.22
479.62	17799.77
479.80	17851.27
479.98	17928.50
480.16	18747.69
480.34	18202.35
480.52	18445.76
480.70	18658.75
480.88	18132.13
481.06	18663.43
481.24	18845.99
481.41	19063.66
481.59	19178.35
481.77	19527.09
481.95	19393.68
482.13	19475.60
482.31	19817.32
482.49	20269.04
482.67	19924.98
482.85	20208.19
483.03	20500.75
483.21	20601.40
483.39	20975.88
483.57	20741.83
483.74	21116.31
483.92	21256.75
484.10	21097.59
484.28	21647.61
484.46	21844.22
484.64	22260.84
484.82	21544.63
485.00	22370.84
485.18	22541.70
485.35	22937.25
485.53	22642.34
485.71	23124.49
485.89	23248.54
486.07	23295.35
486.25	23248.54
486.43	23583.24
486.61	23620.69
486.78	24119.22
486.96	23985.81
487.14	24210.50
487.32	24348.59
487.50	24645.84
487.68	24903.30
487.85	24650.52
488.03	25298.85
488.21	25544.61
488.39	26148.46
488.57	25881.64
488.75	26017.40
488.92	26256.13
489.10	26782.75
489.28	26647.00
489.46	26831.90
489.64	27101.06
489.81	27529.38
489.99	27735.35
490.17	27517.68
490.35	27978.76
490.53	27838.33
490.70	28194.09
490.88	28081.75
491.06	28739.44
491.24	28470.28
491.41	29022.64
491.59	28950.09
491.77	29102.22
491.95	29582.03
492.13	29448.62
492.30	29745.87
492.48	29546.92
492.66	29970.56
492.84	30363.77
493.01	30476.12
493.19	30422.28
493.37	30808.47
493.54	31417.01
493.72	31321.05
493.90	31328.07
494.08	31412.33
494.25	31962.36
494.43	31721.28
494.61	32044.27
494.79	32009.17
494.96	32470.25
495.14	32411.74
495.32	32751.12
495.49	32613.02
495.67	32882.19
495.85	33219.22
496.02	33504.77
496.20	33677.97
496.38	34099.26
496.55	33972.88
496.73	34440.98
496.91	34256.08
497.09	34665.67
497.26	34660.99
497.44	35033.14
497.62	35131.44
497.79	35814.88
497.97	35416.99
498.14	35772.75
498.32	35873.39
498.50	36037.23
498.67	36072.34
498.85	36254.90
499.03	36088.72
499.20	36512.36
499.38	36655.13
499.56	36978.12
499.73	36893.86
499.91	37158.34
500.08	37567.94
500.26	37361.97
500.44	37308.14
500.61	38005.62
500.79	37462.61
500.97	37832.42
501.14	38309.89
501.32	38422.23
501.49	38169.46
501.67	38237.33
501.84	38806.08
502.02	38396.49
502.20	38508.83
502.37	38838.85
502.55	38932.47
502.72	39103.33
502.90	39119.71
503.07	39248.44
503.25	39489.52
503.43	39459.09
503.60	39906.13
503.78	39952.94
503.95	39945.92
504.13	40168.27
504.30	40432.75
504.48	40395.31
504.65	40421.05
504.83	40605.95
505.01	40741.71
505.18	41029.59
505.36	41275.35
505.53	41310.46
505.71	41371.31
505.88	41706.01
506.06	41418.12
506.23	41935.38
506.41	41816.01
506.58	41865.16
506.76	41813.67
506.93	41731.75
507.11	42026.66
507.28	42515.83
507.46	42904.36
507.63	42525.19
507.81	42728.82
507.98	42368.38
508.16	42890.32
508.33	43299.91
508.50	42827.12
508.68	43316.29
508.85	43405.23
509.03	43576.09
509.20	43559.71
509.38	44034.84
509.55	44137.82
509.73	44500.61
509.90	44584.86
510.08	44271.23
510.25	44254.85
510.42	44652.74
510.60	44802.53
510.77	44835.30
510.95	45127.87
511.12	44896.16
511.30	44835.30
511.47	45418.10
511.64	45584.27
511.82	45666.19
511.99	45378.31
512.17	45947.06
512.34	45734.07
512.51	45900.25
512.69	45801.94
512.86	46169.41
513.04	46438.57
513.21	46115.58
513.38	46351.97
513.56	46820.08
513.73	46263.03
513.90	47000.30
514.08	46773.27
514.25	47206.26
514.43	47349.04
514.60	46902.00
514.77	47208.61
514.95	47515.22
515.12	47496.49
515.29	47026.04
515.47	47863.96
515.64	47948.21
515.81	47339.68
515.99	47882.68
516.16	48334.40
516.33	48013.75
516.51	48453.77
516.68	48381.21
516.85	48210.35
517.03	48961.67
517.20	48402.28
517.37	48655.06
517.54	48505.26
517.72	48811.87
517.89	49088.06
518.06	48800.17
518.24	49228.49
518.41	49301.04
518.58	49015.50
518.75	49279.98
518.93	49359.56
519.10	49116.14
519.27	49804.26
519.45	49574.89
519.62	49518.71
519.79	49792.56
519.96	49846.39
520.14	50157.68
520.31	50089.80
520.48	50361.31
520.65	50169.38
520.83	50763.88
521.00	50501.74
521.17	50220.87
521.34	50513.44
521.52	50569.61
521.69	50370.67
521.86	51009.64
522.03	50911.33
522.20	51143.05
522.38	50892.61
522.55	51129.00
522.72	51220.28
522.89	50892.61
523.07	51543.28
523.24	51437.95
523.41	51473.06
523.58	51077.51
523.75	51725.84
523.92	51456.68
524.10	51566.68
524.27	51938.83
524.44	51859.25
524.61	52030.11
524.78	51913.08
524.96	52048.83
525.13	51992.66
525.30	52301.61
525.47	52264.16
525.64	52198.63
525.81	52575.45
525.98	52360.12
526.16	52437.36
526.33	52336.72
526.50	52954.62
526.67	52713.55
526.84	52832.91
527.01	52491.19
527.18	52645.67
527.36	52825.89
527.53	52715.89
527.70	53399.32
527.87	52980.37
528.04	53006.11
528.21	53125.48
528.38	53151.23
528.55	53368.90
528.72	52933.56
528.89	53432.09
529.07	53148.88
529.24	52903.13
529.41	53399.32
529.58	53448.47
529.75	53331.45
529.92	53495.28
530.09	53745.72
530.26	53734.02
530.43	53799.55
530.60	53698.91
530.77	53705.93
530.94	53755.08
531.11	54045.31
531.28	53879.13
531.46	54045.31
531.63	54003.18
531.80	53972.75
531.97	54227.87
532.14	54391.71
532.31	54380.01
532.48	54445.54
532.65	54707.68
532.82	54674.91
532.99	54674.91
533.16	54391.71
533.33	54553.21
533.50	54777.90
533.67	54405.75
533.84	54583.63
534.01	54557.89
534.18	54780.24
534.35	54932.37
534.52	54794.28
534.69	55082.17
534.86	54993.23
535.03	54728.75
535.20	54981.52
535.37	55136.00
535.54	55061.10
535.71	55107.91
535.88	55203.88
536.05	55224.94
536.22	55253.03
536.38	55444.95
536.55	55262.39
536.72	55306.86
536.89	55330.26
537.06	55243.66
537.23	55515.17
537.40	55487.08
537.57	55657.94
537.74	55606.45
537.91	55870.93
538.08	55669.64
538.25	55566.66
538.42	55583.04
538.59	56072.21
538.75	55686.03
538.92	55882.63
539.09	56058.17
539.26	56123.71
539.43	55943.48
539.60	55894.33
539.77	56095.62
539.94	56238.39
540.11	56264.14
540.28	56278.18
540.44	56090.94
540.61	56264.14
540.78	56175.20
540.95	56378.82
541.12	56243.07
541.29	56259.46
541.46	56537.98
541.62	56493.51
541.79	56669.05
541.96	56540.32
542.13	56367.12
542.30	56804.80
542.47	56479.47
542.63	56683.09
542.80	56802.46
542.97	56949.92
543.14	56952.26
543.31	56790.76
543.48	57066.94
543.64	57104.39
543.81	57078.64
543.98	57083.33
544.15	57139.50
544.32	57336.10
544.48	57450.79
544.65	57340.78
544.82	57429.72
544.99	57242.48
545.16	57455.47
545.32	57286.95
545.49	57258.87
545.66	57649.74
545.83	57623.99
546.00	57460.15
546.16	57439.09
546.33	57509.30
546.50	57443.77
546.67	57301.00
546.83	57052.90
547.00	57773.78
547.17	57506.96
547.34	57773.78
547.50	57769.10
547.67	58007.84
547.84	57862.72
548.00	57858.04
548.17	57993.79
548.34	57745.70
548.51	58054.65
548.67	58241.89
548.84	57986.77
549.01	57846.34
549.18	57886.13
549.34	58178.70
549.51	58017.20
549.68	58120.18
549.84	58134.23
550.01	58113.16
550.18	58145.93
550.34	58330.83
550.51	58094.44
550.68	58213.80
550.84	58010.18
551.01	58445.52
551.18	58323.81
551.34	58267.64
551.51	58347.21
551.68	58571.91
551.84	58419.77
552.01	58269.98
552.18	58569.57
552.34	58433.81
552.51	58571.91
552.68	58403.39
552.84	58492.33
553.01	58590.63
553.18	58667.87
553.34	58871.49
553.51	58623.40
553.67	58710.00
553.84	58892.56
554.01	58646.80
554.17	58693.61
554.34	59025.97
554.51	58941.71
554.67	58820.00
554.84	59063.42
555.00	58866.81
555.17	58787.24
555.33	58815.32
555.50	58955.75
555.67	58829.37
555.83	59004.91
556.00	59028.31
556.16	59306.83
556.33	59119.59
556.50	59002.56
556.66	59164.06
556.83	58848.09
556.99	59143.00
557.16	59250.66
557.32	59245.98
557.49	59447.27
557.65	59288.11
557.82	59152.36
557.98	59159.38
558.15	59465.99
558.32	59405.14
558.48	59180.45
558.65	59409.82
558.81	59405.14
558.98	59377.05
559.14	59355.99
559.31	59339.60
559.47	59536.21
559.64	59487.06
559.80	59641.53
559.97	59674.30
560.13	59477.69
560.30	59414.50
560.46	59604.08
560.63	59641.53
560.79	59601.74
560.96	59840.48
561.12	59512.80
561.29	59718.77
561.45	59531.53
561.61	59468.33
561.78	59611.10
561.94	59559.61
562.11	59700.04
562.27	59824.09
562.44	59716.43
562.60	60137.72
562.77	59920.05
562.93	59716.43
563.10	59955.16
563.26	59969.21
563.42	60067.51
563.59	59938.78
563.75	59695.36
563.92	59838.14
564.08	59957.50
564.24	59945.80
564.41	60023.04
564.57	60067.51
564.74	60016.02
564.90	59994.95
565.07	59959.84
565.23	60111.98
565.39	60149.43
565.56	60189.22
565.72	59973.89
565.88	60156.45
566.05	59915.37
566.21	59952.82
566.38	60182.19
566.54	60135.38
566.70	60140.07
566.87	60207.94
567.03	60090.91
567.19	60196.24
567.36	60233.69
567.52	60140.07
567.68	60434.97
567.85	60212.62
568.01	60477.10
568.17	60030.06
568.34	60172.83
568.50	60331.99
568.66	60200.92
568.83	60212.62
568.99	59966.87
569.15	60226.66
569.32	60294.54
569.48	60491.15
569.64	60516.89
569.81	60285.18
569.97	60147.09
570.13	60271.14
570.30	60170.49
570.46	60420.93
570.62	60385.82
570.78	60331.99
570.95	60280.50
571.11	60367.10
571.27	60189.22
571.43	60654.98
571.60	60505.19
571.76	60385.82
571.92	60322.63
572.09	60650.30
572.25	60423.27
572.41	60418.59
572.57	60296.88
572.74	60488.80
572.90	60411.57
573.06	60413.91
573.22	60446.68
573.38	60706.47
573.55	60406.89
573.71	60685.41
573.87	60526.25
574.03	60437.31
574.20	60537.96
574.36	60552.00
574.52	60615.19
574.68	60589.45
574.84	60715.84
575.01	60582.43
575.17	60453.70
575.33	60484.12
575.49	60589.45
575.65	60542.64
575.82	60624.56
575.98	60580.09
576.14	60985.00
576.30	60640.94
576.46	60554.34
576.62	60594.13
576.79	60657.32
576.95	60392.84
577.11	60713.50
577.27	60671.37
577.43	60697.11
577.59	60519.23
577.75	60687.75
577.92	60629.24
578.08	60669.03
578.24	60879.67
578.40	60750.94
578.56	61020.11
578.72	60699.45
578.88	61036.49
579.04	60879.67
579.21	60666.69
579.37	60903.08
579.53	60727.54
579.69	60533.28
579.85	60748.60
580.01	60741.58
580.17	60725.20
580.33	60708.82
580.49	60774.35
580.65	60823.50
580.82	60781.37
580.98	60687.75
581.14	60652.64
581.30	60870.31
581.46	60521.57
581.62	60907.76
581.78	60671.37
581.94	60877.33
582.10	60640.94
582.26	60762.65
582.42	60715.84
582.58	60872.65
582.74	60645.62
582.90	61010.74
583.06	60711.16
583.22	60528.59
583.38	60750.94
583.54	60856.27
583.70	60678.39
583.86	60945.21
584.02	60687.75
584.18	60776.69
584.34	60872.65
584.50	60757.97
584.66	60678.39
584.82	60779.03
584.98	60952.23
585.14	60966.27
585.30	60589.45
585.46	61059.90
585.62	60992.02
585.78	61078.62
585.94	60825.84
586.10	60884.36
586.26	60940.53
586.42	60914.78
586.58	60973.30
586.74	60947.55
586.90	60711.16
587.06	60725.20
587.22	60945.21
587.38	60776.69
587.54	61027.13
587.70	61228.41
587.86	61048.19
588.02	60687.75
588.18	61069.26
588.34	60844.57
588.49	61087.98
