SpectraSuite Data File
++++++++++++++++++++++++++++++++++++
Date: Fri Oct 25 10:43:45 EDT 2013
User: price-jones
Dark Spectrum Present: No
Reference Spectrum Present: No
Number of Sampled Component Spectra: 1
Spectrometers: USB2+H05261
Integration Time (usec): 100000 (USB2+H05261)
Spectra Averaged: 1 (USB2+H05261)
Boxcar Smoothing: 0 (USB2+H05261)
Correct for Electrical Dark: No (USB2+H05261)
Strobe/Lamp Enabled: No (USB2+H05261)
Correct for Detector Non-linearity: No (USB2+H05261)
Correct for Stray Light: No (USB2+H05261)
Number of Pixels in Processed Spectrum: 2048
>>>>>Begin Processed Spectral Data<<<<<
365.73	145.11
365.92	145.11
366.12	145.11
366.32	30.43
366.52	46.81
366.72	4.68
366.91	0.00
367.11	0.00
367.31	14.04
367.51	60.85
367.70	60.85
367.90	95.96
368.10	0.00
368.30	7.02
368.49	25.75
368.69	107.66
368.89	65.54
369.09	0.00
369.28	32.77
369.48	46.81
369.68	84.26
369.87	102.98
370.07	70.22
370.27	145.11
370.47	257.46
370.66	353.42
370.86	472.79
371.06	470.45
371.25	425.98
371.45	456.40
371.65	507.90
371.84	437.68
372.04	484.49
372.24	472.79
372.44	482.15
372.63	543.00
372.83	514.92
373.03	496.19
373.22	528.96
373.42	531.30
373.62	507.90
373.81	484.49
374.01	580.45
374.21	528.96
374.40	543.00
374.60	533.64
374.79	493.85
374.99	503.22
375.19	510.24
375.38	610.88
375.58	594.50
375.78	690.46
375.97	580.45
376.17	603.86
376.37	568.75
376.56	596.84
376.76	608.54
376.95	550.03
377.15	664.71
377.35	638.97
377.54	620.24
377.74	575.77
377.93	650.67
378.13	620.24
378.33	723.23
378.52	629.60
378.72	585.13
378.91	603.86
379.11	564.07
379.31	688.12
379.50	585.13
379.70	596.84
379.89	650.67
380.09	660.03
380.28	634.29
380.48	657.69
380.68	629.60
380.87	695.14
381.07	641.31
381.26	786.42
381.46	709.18
381.65	669.39
381.85	748.97
382.04	681.10
382.24	657.69
382.43	699.82
382.63	678.76
382.83	713.86
383.02	741.95
383.22	748.97
383.41	697.48
383.61	718.54
383.80	753.65
384.00	763.01
384.19	751.31
384.39	819.19
384.58	805.14
384.78	718.54
384.97	805.14
385.17	748.97
385.36	770.04
385.56	772.38
385.75	779.40
385.95	875.36
386.14	868.34
386.34	814.51
386.53	896.43
386.72	840.25
386.92	875.36
387.11	854.30
387.31	851.96
387.50	837.91
387.70	891.74
387.89	842.59
388.09	957.28
388.28	821.53
388.48	828.55
388.67	936.21
388.86	961.96
389.06	884.72
389.25	959.62
389.45	964.30
389.64	992.39
389.84	1015.79
390.03	985.37
390.22	959.62
390.42	1015.79
390.61	933.87
390.81	903.45
391.00	1064.94
391.19	1071.97
391.39	1022.81
391.58	1022.81
391.78	971.32
391.97	987.71
392.16	1048.56
392.36	1034.52
392.55	1039.20
392.75	1034.52
392.94	924.51
393.13	940.90
393.33	968.98
393.52	1004.09
393.71	1125.80
393.91	1146.86
394.10	985.37
394.29	1055.58
394.49	1165.59
394.68	1214.74
394.88	1254.53
395.07	1231.12
395.26	1219.42
395.46	1263.89
395.65	1196.01
395.84	1289.64
396.04	1266.23
396.23	1151.54
396.42	1128.14
396.62	1217.08
396.81	1188.99
397.00	1151.54
397.19	1275.59
397.39	1327.08
397.58	1343.47
397.77	1362.19
397.97	1420.71
398.16	1334.11
398.35	1432.41
398.55	1423.05
398.74	1467.52
398.93	1535.39
399.12	1540.07
399.32	1399.64
399.51	1413.68
399.70	1547.09
399.90	1528.37
400.09	1612.63
400.28	1540.07
400.47	1584.54
400.67	1565.82
400.86	1586.88
401.05	1629.01
401.24	1643.06
401.44	1666.46
401.63	1675.82
401.82	1724.97
402.01	1643.06
402.21	1729.66
402.40	1614.97
402.59	1638.38
402.78	1680.50
402.97	1708.59
403.17	1902.86
403.36	1809.23
403.55	1853.70
403.74	1968.39
403.93	1879.45
404.13	1844.34
404.32	1870.09
404.51	1874.77
404.70	1849.02
404.89	1959.03
405.09	1973.07
405.28	2015.20
405.47	1984.77
405.66	1928.60
405.85	1954.35
406.05	1902.86
406.24	2071.37
406.43	2012.86
406.62	2045.63
406.81	2059.67
407.00	1956.69
407.20	2047.97
407.39	2132.23
407.58	2099.46
407.77	2108.82
407.96	2188.40
408.15	2202.44
408.34	2141.59
408.54	2307.77
408.73	2389.69
408.92	2319.47
409.11	2307.77
409.30	2284.36
409.49	2331.17
409.68	2300.75
409.87	2235.21
410.07	2319.47
410.26	2286.70
410.45	2331.17
410.64	2363.94
410.83	2394.37
411.02	2511.39
411.21	2487.99
411.40	2415.43
411.59	2555.86
411.78	2576.93
411.98	2516.08
412.17	2663.53
412.36	2633.10
412.55	2743.11
412.74	2614.38
412.93	2764.17
413.12	2750.13
413.31	2878.86
413.50	2640.12
413.69	2796.94
413.88	2841.41
414.07	2993.55
414.26	2937.37
414.45	2871.84
414.64	2939.71
414.83	3002.91
415.02	2871.84
415.22	3138.66
415.41	3131.64
415.60	3206.53
415.79	3248.66
415.98	3222.92
416.17	3225.26
416.36	3138.66
416.55	3129.30
416.74	3180.79
416.93	3162.06
417.12	3286.11
417.31	3309.52
417.50	3372.71
417.69	3368.03
417.88	3480.38
418.07	3311.86
418.26	3510.80
418.45	3363.35
418.64	3574.00
418.83	3653.58
419.02	3588.04
419.21	3501.44
419.39	3494.42
419.58	3454.63
419.77	3459.31
419.96	3611.45
420.15	3737.84
420.34	3639.53
420.53	3751.88
420.72	3693.37
420.91	3772.94
421.10	3749.54
421.29	3733.15
421.48	3653.58
421.67	3744.86
421.86	3749.54
422.05	3777.62
422.24	3686.34
422.43	3889.97
422.61	3915.72
422.80	3845.50
422.99	3871.25
423.18	3960.19
423.37	3960.19
423.56	3875.93
423.75	3836.14
423.94	3859.54
424.13	3723.79
424.32	3616.13
424.50	3798.69
424.69	3845.50
424.88	4074.87
425.07	3892.31
425.26	3824.44
425.45	3847.84
425.64	3927.42
425.83	4011.68
426.01	4072.53
426.20	3840.82
426.39	4077.21
426.58	3896.99
426.77	3918.06
426.96	3896.99
427.15	3772.94
427.33	3936.78
427.52	3934.44
427.71	4315.95
427.90	3981.25
428.09	4170.83
428.28	4067.85
428.46	4109.98
428.65	4051.47
428.84	4203.60
429.03	4374.46
429.22	4063.17
429.40	4180.20
429.59	4077.21
429.78	4046.79
429.97	3889.97
430.16	3992.95
430.34	3981.25
430.53	4163.81
430.72	4140.41
430.91	4109.98
431.10	4264.46
431.28	4454.04
431.47	4624.90
431.66	4631.92
431.85	4657.67
432.03	4470.42
432.22	4641.28
432.41	4594.47
432.60	4573.41
432.79	4704.48
432.97	4692.77
433.16	4795.76
433.35	4685.75
433.54	4631.92
433.72	4641.28
433.91	4545.32
434.10	4657.67
434.28	4620.22
434.47	4727.88
434.66	4868.31
434.85	4917.47
435.03	4805.12
435.22	5022.79
435.41	5036.83
435.59	4980.66
435.78	5022.79
435.97	5036.83
436.16	4994.70
436.34	5104.71
436.53	5041.51
436.72	5235.78
436.90	4994.70
437.09	5064.92
437.28	5076.62
437.46	5214.71
437.65	5093.01
437.84	5144.50
438.02	5074.28
438.21	5064.92
438.40	5149.18
438.58	5282.59
438.77	5352.81
438.96	5373.87
439.14	5493.24
439.33	5682.82
439.52	5593.88
439.70	5488.56
439.89	5767.08
440.08	5537.71
440.26	5568.13
440.45	5671.12
440.63	5909.85
440.82	6097.10
441.01	5959.00
441.19	5879.43
441.38	6038.58
441.57	6024.54
441.75	6115.82
441.94	6216.46
442.12	6202.42
442.31	6457.54
442.50	6200.08
442.68	6171.99
442.87	6289.02
443.05	6279.66
443.24	6300.72
443.43	6361.58
443.61	6324.13
443.80	6499.67
443.98	6331.15
444.17	6104.12
444.35	6499.67
444.54	6483.28
444.73	6361.58
444.91	6410.73
445.10	6415.41
445.28	6347.53
445.47	6427.11
445.65	6333.49
445.84	6413.07
446.02	6633.08
446.21	6518.39
446.39	6450.52
446.58	6628.40
446.77	6616.69
446.95	6429.45
447.14	6640.10
447.32	6785.21
447.51	6534.78
447.69	6558.18
447.88	6619.04
448.06	6665.85
448.25	6509.03
448.43	6644.78
448.62	6707.98
448.80	6661.16
448.99	6719.68
449.17	6715.00
449.36	6740.74
449.54	6750.10
449.73	6946.71
449.91	7023.95
450.10	7150.34
450.28	6967.77
450.46	7192.47
450.65	7080.12
450.83	7187.79
451.02	7286.09
451.20	7119.91
451.39	7126.93
451.57	7234.60
451.76	7087.14
451.94	7204.17
452.13	7082.46
452.31	7201.83
452.49	7087.14
452.68	7148.00
452.86	7112.89
453.05	7269.70
453.23	7297.79
453.42	7185.44
453.60	7265.02
453.78	7293.11
453.97	7405.46
454.15	7260.34
454.34	7316.51
454.52	7400.77
454.70	7548.23
454.89	7522.48
455.07	7534.18
455.26	7555.25
455.44	7616.10
455.62	7695.68
455.81	7653.55
455.99	7627.81
456.17	7686.32
456.36	7681.64
456.54	7852.50
456.73	7728.45
456.91	8037.40
457.09	7899.31
457.28	8128.68
457.46	7892.29
457.64	8098.25
457.83	8046.76
458.01	7992.93
458.19	8119.32
458.38	8084.21
458.56	8039.74
458.74	8177.83
458.93	7929.74
459.11	8231.66
459.29	8194.22
459.48	8002.29
459.66	8369.76
459.84	8273.79
460.03	8594.45
460.21	8437.63
460.39	8271.45
460.57	8379.12
460.76	8442.31
460.94	8662.32
461.12	8468.06
461.31	8592.11
461.49	8561.68
461.67	8477.42
461.85	8879.99
462.04	8617.85
462.22	9364.48
462.40	8704.45
462.59	8823.82
462.77	8571.04
462.95	8894.04
463.13	8720.84
463.32	8758.28
463.50	8870.63
463.68	8704.45
463.86	8912.76
464.05	8997.02
464.23	8837.86
464.41	9090.64
464.59	8753.60
464.78	9282.56
464.96	9006.38
465.14	9013.40
465.32	9050.85
465.50	9095.32
465.69	9263.84
465.87	9172.56
466.05	9151.49
466.23	9076.60
466.41	9032.13
466.60	9170.22
466.78	9062.55
466.96	8936.17
467.14	9172.56
467.32	9139.79
467.51	9357.46
467.69	9177.24
467.87	9357.46
468.05	9509.60
468.23	9064.89
468.41	9404.27
468.60	9376.19
468.78	9460.45
468.96	9551.73
469.14	9603.22
469.32	9701.52
469.50	9479.17
469.69	9659.39
469.87	9525.98
470.05	9813.87
470.23	9781.10
470.41	9579.81
470.59	9963.66
470.77	9699.18
470.95	9827.91
471.14	9975.36
471.32	9795.14
471.50	10382.62
471.68	10099.41
471.86	10214.10
472.04	10186.01
472.22	10445.81
472.40	10129.84
472.58	10349.85
472.77	10207.08
472.95	10602.63
473.13	10677.52
473.31	10480.92
473.49	10443.47
473.67	10464.54
473.85	10619.01
474.03	10942.00
474.21	11087.12
474.39	11047.33
474.57	10967.75
474.75	11236.91
474.93	10902.22
475.12	11096.48
475.30	11164.36
475.48	11087.12
475.66	11136.27
475.84	11201.80
476.02	11208.83
476.20	11094.14
476.38	11496.71
476.56	11651.19
476.74	11791.62
476.92	11492.03
477.10	11646.51
477.28	11997.59
477.46	11974.18
477.64	12053.76
477.82	12306.54
478.00	12512.50
478.18	12564.00
478.36	12320.58
478.54	12613.15
478.72	12774.64
478.90	12723.15
479.08	12898.69
479.26	12966.57
479.44	13064.87
479.62	13032.10
479.80	13327.01
479.98	13432.33
480.16	13544.68
480.34	13647.66
480.52	13741.29
480.70	13631.28
480.88	13476.80
481.06	13785.76
481.24	13951.93
481.41	14029.17
481.59	14408.34
481.77	14345.14
481.95	14164.92
482.13	14389.61
482.31	14523.02
482.49	14647.07
482.67	15021.56
482.85	14862.40
483.03	15190.08
483.21	15040.28
483.39	15131.56
483.57	15166.67
483.74	15571.58
483.92	15206.46
484.10	15372.64
484.28	15789.25
484.46	15992.88
484.64	16262.04
484.82	15829.04
485.00	15913.30
485.18	16460.99
485.35	16496.10
485.53	16035.01
485.71	15845.43
485.89	16350.98
486.07	16423.54
486.25	16741.85
486.43	16886.97
486.61	16849.52
486.78	17062.51
486.96	17479.12
487.14	17537.63
487.32	17570.40
487.50	17799.77
487.68	17818.50
487.85	18310.01
488.03	18490.23
488.21	18551.09
488.39	18132.13
488.57	18590.88
488.75	18530.02
488.92	18817.91
489.10	19365.59
489.28	19330.48
489.46	19634.75
489.64	19601.99
489.81	19758.80
489.99	19950.73
490.17	19920.30
490.35	20180.10
490.53	20121.59
490.70	20133.29
490.88	20016.26
491.06	20343.94
491.24	20606.08
491.41	20486.71
491.59	20638.84
491.77	20510.11
491.95	20540.54
492.13	21132.70
492.30	21336.32
492.48	21436.97
492.66	21486.12
492.84	21633.57
493.01	22188.28
493.19	21685.06
493.37	21895.71
493.54	22366.16
493.72	22195.30
493.90	22469.14
494.08	22565.10
494.25	23168.96
494.43	22897.46
494.61	23040.23
494.79	23168.96
494.96	23185.35
495.14	23330.46
495.32	23456.85
495.49	23527.06
495.67	23711.97
495.85	23866.44
496.02	23992.83
496.20	24121.56
496.38	24353.27
496.55	24123.90
496.73	25032.03
496.91	24568.60
497.09	24587.33
497.26	24830.74
497.44	24645.84
497.62	25132.67
497.79	25350.34
497.97	24842.45
498.14	25198.21
498.32	25462.69
498.50	25626.53
498.67	25539.93
498.85	25923.77
499.03	25993.99
499.20	25818.45
499.38	25907.39
499.56	26103.99
499.73	26382.52
499.91	26462.10
500.08	26419.97
500.26	25895.69
500.44	26328.69
500.61	26331.03
500.79	26494.86
500.97	26532.31
501.14	26806.16
501.32	26897.44
501.49	27065.96
501.67	26876.37
501.84	27206.39
502.02	27084.68
502.20	27218.09
502.37	27262.56
502.55	27763.43
502.72	27623.00
502.90	27852.38
503.07	27777.48
503.25	28051.32
503.43	27704.92
503.60	28063.02
503.78	27985.79
503.95	27756.41
504.13	28182.39
504.30	28435.17
504.48	28184.73
504.65	28437.51
504.83	28746.46
505.01	28994.56
505.18	28713.69
505.36	29380.74
505.53	28898.59
505.71	29233.29
505.88	29640.54
506.06	29113.92
506.23	28973.49
506.41	29486.07
506.58	29673.31
506.76	29277.76
506.93	29476.71
507.11	29855.87
507.28	29689.70
507.46	29844.17
507.63	29851.19
507.81	29827.79
507.98	29825.45
508.16	30155.46
508.33	30380.15
508.50	30141.42
508.68	30457.39
508.85	30455.05
509.03	30768.68
509.20	30974.65
509.38	30558.03
509.55	30969.97
509.73	30920.82
509.90	31250.83
510.08	31084.65
510.25	31061.25
510.42	31307.01
510.60	31206.36
510.77	31344.45
510.95	31835.97
511.12	31496.59
511.30	31744.69
511.47	32135.56
511.64	32018.53
511.82	32606.00
511.99	32032.57
512.17	31936.61
512.34	31857.03
512.51	31978.74
512.69	32470.25
512.86	32545.15
513.04	32526.42
513.21	32687.92
513.38	32863.46
513.56	32212.79
513.73	32561.53
513.90	32861.12
514.08	32538.13
514.25	33078.79
514.43	32882.19
514.60	32943.04
514.77	33158.37
514.95	33593.71
515.12	33125.60
515.29	33170.07
515.47	33387.74
515.64	33687.33
515.81	33116.24
515.99	33479.02
516.16	33439.23
516.33	33336.25
516.51	33539.88
516.68	33088.15
516.85	33111.56
517.03	33338.59
517.20	33694.35
517.37	34316.93
517.54	34005.64
517.72	33958.83
517.89	33661.58
518.06	33905.00
518.24	33834.78
518.41	34157.78
518.58	34239.70
518.75	34143.74
518.93	34429.28
519.10	34506.52
519.27	34873.98
519.45	34691.42
519.62	34932.50
519.79	35007.39
519.96	35185.27
520.14	35143.14
520.31	35056.54
520.48	35044.84
520.65	35138.46
520.83	35538.69
521.00	35742.32
521.17	35311.66
521.34	35632.32
521.52	36027.87
521.69	35714.23
521.86	35779.77
522.03	35964.67
522.20	36109.78
522.38	36133.19
522.55	35873.39
522.72	36100.42
522.89	35838.28
523.07	36297.03
523.24	36275.96
523.41	36531.08
523.58	36055.95
523.75	37214.52
523.92	36786.20
524.10	36823.65
524.27	37418.14
524.44	36943.02
524.61	36964.08
524.78	36961.74
524.96	37184.09
525.13	37263.67
525.30	37404.10
525.47	37617.09
525.64	37146.64
525.81	36933.65
525.98	37584.32
526.16	36849.39
526.33	36896.20
526.50	37354.95
526.67	37160.69
526.84	37003.87
527.01	37399.42
527.18	37443.89
527.36	37958.81
527.53	37968.17
527.70	38281.80
527.87	38293.50
528.04	38124.99
528.21	38361.38
528.38	37928.38
528.55	38499.47
528.72	38553.30
528.89	38749.91
529.07	38443.30
529.24	38415.21
529.41	38728.84
529.58	38206.90
529.75	38445.64
529.92	38492.45
530.09	38602.46
530.26	38895.02
530.43	39288.23
530.60	39133.76
530.77	38859.91
530.94	39328.02
531.11	38770.97
531.28	39526.97
531.46	39503.56
531.63	39541.01
531.80	39056.52
531.97	39110.35
532.14	39171.21
532.31	38801.40
532.48	39461.43
532.65	38913.75
532.82	39138.44
532.99	39178.23
533.16	39295.25
533.33	39889.75
533.50	39793.79
533.67	39765.70
533.84	39885.07
534.01	40170.61
534.18	39910.82
534.35	40177.64
534.52	40161.25
534.69	39878.05
534.86	40292.32
535.03	40222.11
535.20	40589.57
535.37	40456.16
535.54	40821.28
535.71	40615.32
535.88	40484.25
536.05	40577.87
536.22	40505.31
536.38	40517.01
536.55	40708.94
536.72	40470.20
536.89	40231.47
537.06	40493.61
537.23	40795.54
537.40	40751.07
537.57	40734.68
537.74	40910.22
537.91	40912.56
538.08	41053.00
538.25	40809.58
538.42	41177.04
538.59	40926.61
538.75	40968.74
538.92	41085.76
539.09	41104.49
539.26	41076.40
539.43	41361.95
539.60	41371.31
539.77	41202.79
539.94	41317.48
540.11	41155.98
540.28	41427.48
540.44	41516.42
540.61	40807.24
540.78	41085.76
540.95	41478.97
541.12	41710.69
541.29	41270.67
541.46	41703.67
541.62	41565.57
541.79	41972.83
541.96	41418.12
542.13	41755.16
542.30	41361.95
542.47	41787.92
542.63	41752.82
542.80	41773.88
542.97	42377.74
543.14	42504.13
543.31	42174.11
543.48	42354.33
543.64	42752.23
543.81	42663.28
543.98	42462.00
544.15	42644.56
544.32	42454.98
544.48	43009.68
544.65	42876.27
544.82	42684.35
544.99	42724.14
545.16	42466.68
545.32	42574.34
545.49	42808.40
545.66	43138.41
545.83	43058.84
546.00	43145.44
546.16	42777.97
546.33	42752.23
546.50	42270.08
546.67	43210.97
546.83	42527.53
547.00	43229.69
547.17	43091.60
547.34	42848.19
547.50	43000.32
547.67	43304.59
547.84	43358.42
548.00	43412.26
548.17	43786.74
548.34	43402.89
548.51	43964.62
548.67	43349.06
548.84	43466.09
549.01	43339.70
549.18	43180.54
549.34	43798.44
549.51	43306.93
549.68	43821.85
549.84	43428.64
550.01	44210.38
550.18	43409.92
550.34	43929.51
550.51	43723.55
550.68	43737.59
550.84	43248.42
551.01	44044.20
551.18	43917.81
551.34	43613.54
551.51	44250.17
551.68	44348.47
551.84	44076.97
552.01	44002.07
552.18	44671.46
552.34	43564.39
552.51	44222.08
552.68	44016.11
552.84	43934.20
553.01	44729.98
553.18	44194.00
553.34	44383.58
553.51	43667.37
553.67	44126.12
553.84	44259.53
554.01	44350.81
554.17	44847.00
554.34	44727.64
554.51	44612.95
554.67	44280.60
554.84	44538.05
555.00	44608.27
555.17	44465.50
555.33	44701.89
555.50	44456.14
555.67	44856.37
555.83	44554.44
556.00	44573.16
556.16	44818.92
556.33	44205.70
556.50	45001.48
556.66	44699.55
556.83	44325.07
556.99	44861.05
557.16	44790.83
557.32	44987.44
557.49	44732.32
557.65	44683.17
557.82	45050.63
557.98	45001.48
558.15	44926.58
558.32	45118.51
558.48	44451.45
558.65	44657.42
558.81	44446.77
558.98	44921.90
559.14	44561.46
559.31	44786.15
559.47	44472.52
559.64	44957.01
559.80	45048.29
559.97	45008.50
560.13	44879.77
560.30	44961.69
560.46	45092.76
560.63	45537.46
560.79	45130.21
560.96	45085.74
561.12	45125.53
561.29	44926.58
561.45	45240.21
561.61	45305.75
561.78	44746.36
561.94	45071.70
562.11	44964.03
562.27	44821.26
562.44	45118.51
562.60	45092.76
562.77	45155.96
562.93	45270.64
563.10	45560.87
563.26	45038.93
563.42	45045.95
563.59	45254.26
563.75	45661.51
563.92	45532.78
564.08	45982.16
564.24	45371.28
564.41	45153.62
564.57	45581.93
564.74	45495.33
564.90	45745.77
565.07	45574.91
565.23	45539.80
565.39	45289.37
565.56	45420.44
565.72	45118.51
565.88	45551.51
566.05	45212.13
566.21	45448.52
566.38	45153.62
566.54	45471.93
566.70	45471.93
566.87	45734.07
567.03	45734.07
567.19	46017.27
567.36	45677.90
567.52	45940.04
567.68	45378.31
567.85	45457.88
568.01	45666.19
568.17	45645.13
568.34	45708.32
568.50	45717.68
568.66	45315.11
568.83	45790.24
568.99	44961.69
569.15	45734.07
569.32	45052.97
569.48	45855.78
569.64	46038.34
569.81	45549.17
569.97	45235.53
570.13	45687.26
570.30	45118.51
570.46	45797.26
570.62	45364.26
570.78	45043.61
570.95	45928.33
571.11	45308.09
571.27	45813.65
571.43	45446.18
571.60	45925.99
571.76	45404.05
571.92	45930.67
572.09	46115.58
572.25	45785.56
572.41	45881.52
572.57	45312.77
572.74	46241.96
572.90	45514.06
573.06	45869.82
573.22	45860.46
573.38	45528.10
573.55	45392.35
573.71	46358.99
573.87	45572.57
574.03	45680.24
574.20	45904.93
574.36	45614.70
574.52	45401.71
574.68	45930.67
574.84	46071.10
575.01	45874.50
575.17	45890.88
575.33	45188.72
575.49	45947.06
575.65	45586.61
575.82	46328.56
575.98	45792.58
576.14	46131.96
576.30	46124.94
576.46	46068.76
576.62	45830.03
576.79	45897.91
576.95	45612.36
577.11	46040.68
577.27	46019.61
577.43	46241.96
577.59	45528.10
577.75	45420.44
577.92	45345.54
578.08	45326.81
578.24	45446.18
578.40	45722.37
578.56	45755.13
578.72	46174.09
578.88	45614.70
579.04	46059.40
579.21	45628.74
579.37	45935.35
579.53	45399.37
579.69	45649.81
579.85	45734.07
580.01	45940.04
580.17	45893.22
580.33	45757.47
580.49	46012.59
580.65	45914.29
580.82	45886.20
580.98	45631.08
581.14	45933.01
581.30	45996.21
581.46	45872.16
581.62	46337.93
581.78	45872.16
581.94	46071.10
582.10	45773.86
582.26	46169.41
582.42	46099.19
582.58	45741.09
582.74	45937.69
582.90	45977.48
583.06	46005.57
583.22	46375.37
583.38	46164.73
583.54	46504.10
583.70	46054.72
583.86	46005.57
584.02	45748.11
584.18	46129.62
584.34	46192.81
584.50	46110.89
584.66	46057.06
584.82	45944.72
584.98	46272.39
585.14	45872.16
585.30	45820.67
585.46	46213.88
585.62	45893.22
585.78	45940.04
585.94	45453.20
586.10	46057.06
586.26	45883.86
586.42	46288.77
586.58	46232.60
586.74	45804.28
586.90	46115.58
587.06	46068.76
587.22	45972.80
587.38	45860.46
587.54	45867.48
587.70	46471.34
587.86	45703.64
588.02	46197.49
588.18	45914.29
588.34	45808.96
588.49	45312.77
588.65	45574.91
588.81	45584.27
588.97	45694.28
589.13	45404.05
589.29	45448.52
589.45	45834.71
589.61	45771.52
589.77	46110.89
589.93	46288.77
590.08	45785.56
