SpectraSuite Data File
++++++++++++++++++++++++++++++++++++
Date: Fri Oct 25 10:43:37 EDT 2013
User: price-jones
Dark Spectrum Present: No
Reference Spectrum Present: No
Number of Sampled Component Spectra: 1
Spectrometers: USB2+H05261
Integration Time (usec): 100000 (USB2+H05261)
Spectra Averaged: 1 (USB2+H05261)
Boxcar Smoothing: 0 (USB2+H05261)
Correct for Electrical Dark: No (USB2+H05261)
Strobe/Lamp Enabled: No (USB2+H05261)
Correct for Detector Non-linearity: No (USB2+H05261)
Correct for Stray Light: No (USB2+H05261)
Number of Pixels in Processed Spectrum: 2048
>>>>>Begin Processed Spectral Data<<<<<
365.73	28.09
365.92	28.09
366.12	28.09
366.32	44.47
366.52	51.49
366.72	86.60
366.91	53.83
367.11	74.90
367.31	39.79
367.51	18.72
367.70	0.00
367.90	32.77
368.10	0.00
368.30	74.90
368.49	53.83
368.69	98.30
368.89	58.51
369.09	39.79
369.28	42.13
369.48	56.17
369.68	42.13
369.87	131.07
370.07	86.60
370.27	100.64
370.47	222.35
370.66	346.40
370.86	393.21
371.06	423.64
371.25	463.43
371.45	456.40
371.65	535.98
371.84	430.66
372.04	433.00
372.24	505.56
372.44	442.36
372.63	451.72
372.83	517.26
373.03	524.28
373.22	454.06
373.42	575.77
373.62	475.13
373.81	547.69
374.01	610.88
374.21	620.24
374.40	580.45
374.60	594.50
374.79	571.09
374.99	557.05
375.19	594.50
375.38	688.12
375.58	514.92
375.78	573.43
375.97	627.26
376.17	685.78
376.37	608.54
376.56	631.94
376.76	685.78
376.95	582.79
377.15	620.24
377.35	645.99
377.54	592.16
377.74	699.82
377.93	603.86
378.13	662.37
378.33	643.65
378.52	697.48
378.72	671.73
378.91	660.03
379.11	636.63
379.31	575.77
379.50	645.99
379.70	695.14
379.89	730.25
380.09	711.52
380.28	730.25
380.48	695.14
380.68	664.71
380.87	662.37
381.07	739.61
381.26	702.16
381.46	706.84
381.65	709.18
381.85	690.46
382.04	620.24
382.24	760.67
382.43	653.01
382.63	697.48
382.83	650.67
383.02	702.16
383.22	739.61
383.41	805.14
383.61	760.67
383.80	784.08
384.00	716.20
384.19	844.93
384.39	844.93
384.58	823.87
384.78	826.21
384.97	866.00
385.17	760.67
385.36	763.01
385.56	844.93
385.75	772.38
385.95	807.48
386.14	924.51
386.34	856.64
386.53	833.23
386.72	903.45
386.92	933.87
387.11	931.53
387.31	866.00
387.50	826.21
387.70	830.89
387.89	922.17
388.09	917.49
388.28	929.19
388.48	870.68
388.67	978.34
388.86	943.24
389.06	943.24
389.25	1025.15
389.45	1069.62
389.64	950.26
389.84	1015.79
390.03	994.73
390.22	1064.94
390.42	999.41
390.61	933.87
390.81	1069.62
391.00	1022.81
391.19	1018.13
391.39	1078.99
391.58	1088.35
391.78	1163.25
391.97	966.64
392.16	1078.99
392.36	1015.79
392.55	978.34
392.75	1013.45
392.94	1018.13
393.13	896.43
393.33	940.90
393.52	1095.37
393.71	1174.95
393.91	1165.59
394.10	1116.44
394.29	1139.84
394.49	1107.07
394.68	1203.04
394.88	1219.42
395.07	1207.72
395.26	1196.01
395.46	1275.59
395.65	1186.65
395.84	1210.06
396.04	1242.82
396.23	1186.65
396.42	1137.50
396.62	1151.54
396.81	1252.19
397.00	1184.31
397.19	1301.34
397.39	1308.36
397.58	1423.05
397.77	1359.85
397.97	1409.00
398.16	1427.73
398.35	1502.62
398.55	1439.43
398.74	1542.41
398.93	1591.56
399.12	1490.92
399.32	1523.69
399.51	1533.05
399.70	1612.63
399.90	1640.72
400.09	1593.90
400.28	1703.91
400.47	1619.65
400.67	1722.63
400.86	1715.61
401.05	1596.25
401.24	1619.65
401.44	1778.81
401.63	1701.57
401.82	1736.68
402.01	1767.10
402.21	1727.32
402.40	1748.38
402.59	1797.53
402.78	1816.26
402.97	1886.47
403.17	1844.34
403.36	1839.66
403.55	1916.90
403.74	1930.94
403.93	1867.75
404.13	1863.07
404.32	1973.07
404.51	1900.52
404.70	2062.01
404.89	1905.20
405.09	2036.27
405.28	2010.52
405.47	1991.80
405.66	2031.58
405.85	2001.16
406.05	1987.11
406.24	1994.14
406.43	2122.87
406.62	2108.82
406.81	2242.23
407.00	1998.82
407.20	2062.01
407.39	2122.87
407.58	2097.12
407.77	2104.14
407.96	2223.51
408.15	2345.22
408.34	2284.36
408.54	2258.62
408.73	2377.98
408.92	2258.62
409.11	2420.11
409.30	2267.98
409.49	2354.58
409.68	2394.37
409.87	2267.98
410.07	2363.94
410.26	2340.54
410.45	2502.03
410.64	2434.16
410.83	2616.72
411.02	2590.97
411.21	2651.83
411.40	2626.08
411.59	2560.55
411.78	2649.49
411.98	2597.99
412.17	2649.49
412.36	2708.00
412.55	2834.39
412.74	2775.88
412.93	2782.90
413.12	2766.51
413.31	2944.39
413.50	2693.96
413.69	2808.64
413.88	2841.41
414.07	2853.11
414.26	3040.36
414.45	3005.25
414.64	3070.78
414.83	3126.96
415.02	3063.76
415.22	3108.23
415.41	3178.45
415.60	3169.09
415.79	3220.58
415.98	3346.97
416.17	3227.60
416.36	3293.13
416.55	3265.05
416.74	3398.46
416.93	3344.63
417.12	3288.45
417.31	3433.57
417.50	3339.94
417.69	3510.80
417.88	3576.34
418.07	3513.14
418.26	3478.04
418.45	3485.06
418.64	3611.45
418.83	3515.48
419.02	3548.25
419.21	3653.58
419.39	3611.45
419.58	3602.08
419.77	3529.53
419.96	3599.74
420.15	3716.77
420.34	3744.86
420.53	3840.82
420.72	3882.95
420.91	3838.48
421.10	3723.79
421.29	3901.67
421.48	3915.72
421.67	3955.51
421.86	3922.74
422.05	3889.97
422.24	3887.63
422.43	3911.04
422.61	3962.53
422.80	4109.98
422.99	4109.98
423.18	3960.19
423.37	4077.21
423.56	3861.88
423.75	3978.91
423.94	3786.99
424.13	3817.41
424.32	3845.50
424.50	3978.91
424.69	4058.49
424.88	4084.23
425.07	3847.84
425.26	3943.80
425.45	3962.53
425.64	3995.29
425.83	4053.81
426.01	4102.96
426.20	4049.13
426.39	4109.98
426.58	4044.45
426.77	3997.64
426.96	4014.02
427.15	4126.36
427.33	4142.75
427.52	4023.38
427.71	4294.88
427.90	4227.01
428.09	4414.25
428.28	4308.93
428.46	4224.67
428.65	4196.58
428.84	4423.61
429.03	4318.29
429.22	4271.48
429.40	4238.71
429.59	4339.35
429.78	4009.34
429.97	4021.04
430.16	4014.02
430.34	4159.13
430.53	4208.28
430.72	4227.01
430.91	4386.16
431.10	4390.84
431.28	4559.36
431.47	4667.03
431.66	4746.61
431.85	4491.49
432.03	4650.64
432.22	4786.40
432.41	4629.58
432.60	4751.29
432.79	4671.71
432.97	4847.25
433.16	4910.44
433.35	4732.56
433.54	4753.63
433.72	4631.92
433.91	4777.03
434.10	4662.35
434.28	4779.37
434.47	4863.63
434.66	4985.34
434.85	4957.25
435.03	5018.11
435.22	5022.79
435.41	5317.70
435.59	5109.39
435.78	5111.73
435.97	5158.54
436.16	5043.85
436.34	5315.36
436.53	5296.63
436.72	5301.31
436.90	5074.28
437.09	5249.82
437.28	5153.86
437.46	5280.25
437.65	5231.10
437.84	5390.25
438.02	5387.91
438.21	5193.65
438.40	5200.67
438.58	5385.57
438.77	5542.39
438.96	5568.13
439.14	5493.24
439.33	5661.76
439.52	5767.08
439.70	5687.50
439.89	5626.65
440.08	5699.20
440.26	5893.47
440.45	5783.46
440.63	6054.97
440.82	6174.33
441.01	5914.53
441.19	6043.26
441.38	6256.25
441.57	6209.44
441.75	6258.59
441.94	6436.47
442.12	6396.68
442.31	6345.19
442.50	6286.68
442.68	6516.05
442.87	6270.30
443.05	6394.34
443.24	6494.99
443.43	6471.58
443.61	6462.22
443.80	6705.63
443.98	6401.37
444.17	6438.81
444.35	6623.72
444.54	6548.82
444.73	6511.37
444.91	6801.60
445.10	6567.54
445.28	6319.45
445.47	6441.15
445.65	6499.67
445.84	6691.59
446.02	6745.42
446.21	6658.82
446.39	6832.02
446.58	6729.04
446.77	6712.66
446.95	6808.62
447.14	6719.68
447.32	6970.12
447.51	6707.98
447.69	6768.83
447.88	6715.00
448.06	6785.21
448.25	6906.92
448.43	6682.23
448.62	6883.52
448.80	6820.32
448.99	7012.24
449.17	6930.33
449.36	6958.41
449.54	7068.42
449.73	7169.06
449.91	7169.06
450.10	7335.24
450.28	7297.79
450.46	7171.40
450.65	7328.22
450.83	7428.86
451.02	7227.57
451.20	7379.71
451.39	7318.86
451.57	7398.43
451.76	7112.89
451.94	7318.86
452.13	7346.94
452.31	7318.86
452.49	7180.76
452.68	7227.57
452.86	7473.33
453.05	7398.43
453.23	7421.84
453.42	7403.11
453.60	7281.41
453.78	7576.31
453.97	7391.41
454.15	7529.50
454.34	7290.77
454.52	7597.38
454.70	7632.49
454.89	7637.17
455.07	7653.55
455.26	7691.00
455.44	7660.57
455.62	7775.26
455.81	7868.88
455.99	7878.24
456.17	8095.91
456.36	7925.05
456.54	7997.61
456.73	8091.23
456.91	8355.71
457.09	8283.16
457.28	8416.57
457.46	8114.64
457.64	8105.28
457.83	8102.93
458.01	8065.49
458.19	8245.71
458.38	8339.33
458.56	8465.72
458.74	8430.61
458.93	8367.42
459.11	8088.89
459.29	8322.94
459.48	8245.71
459.66	8292.52
459.84	8496.14
460.03	8919.78
460.21	8575.72
460.39	8475.08
460.57	8786.37
460.76	8617.85
460.94	8690.41
461.12	8762.97
461.31	8688.07
461.49	8936.17
461.67	8933.82
461.85	8950.21
462.04	8725.52
462.22	9245.12
462.40	8898.72
462.59	9071.92
462.77	9287.25
462.95	9013.40
463.13	9001.70
463.32	8910.42
463.50	9069.58
463.68	9217.03
463.86	9114.05
464.05	9004.04
464.23	9057.87
464.41	9291.93
464.59	8931.48
464.78	9221.71
464.96	9310.65
465.14	8903.40
465.32	9118.73
465.50	9509.60
465.69	9315.33
465.87	9247.46
466.05	9495.55
466.23	9238.09
466.41	9289.59
466.60	9348.10
466.78	9238.09
466.96	9537.68
467.14	9469.81
467.32	9605.56
467.51	9401.93
467.69	9240.44
467.87	9530.66
468.05	9650.03
468.23	9640.67
468.41	9652.37
468.60	9699.18
468.78	9657.05
468.96	9544.70
469.14	9954.30
469.32	9874.72
469.50	9612.58
469.69	9624.28
469.87	10057.28
470.05	9909.83
470.23	9909.83
470.41	10008.13
470.59	10120.48
470.77	9870.04
470.95	10043.24
471.14	10246.87
471.32	10195.37
471.50	10420.06
471.68	10431.77
471.86	10668.16
472.04	10710.29
472.22	10483.26
472.40	10443.47
472.58	10225.80
472.77	10595.61
472.95	10642.42
473.13	11028.60
473.31	10640.08
473.49	10443.47
473.67	10778.17
473.85	10726.68
474.03	11197.12
474.21	11201.80
474.39	11199.46
474.57	11297.77
474.75	11236.91
474.93	11325.85
475.12	11091.80
475.30	11424.15
475.48	11384.37
475.66	11391.39
475.84	11571.61
476.02	11831.41
476.20	11529.48
476.38	11712.04
476.56	11948.43
476.74	11997.59
476.92	12140.36
477.10	12046.74
477.28	12250.36
477.46	12217.60
477.64	12294.83
477.82	12432.93
478.00	12702.09
478.18	12774.64
478.36	12638.89
478.54	12851.88
478.72	12798.05
478.90	12891.67
479.08	13418.29
479.26	13432.33
479.44	13076.57
479.62	13418.29
479.80	13802.14
479.98	13521.27
480.16	13895.76
480.34	13781.07
480.52	13898.10
480.70	13867.67
480.88	13703.84
481.06	14092.37
481.24	13984.70
481.41	14150.88
481.59	14487.92
481.77	14185.99
481.95	14553.45
482.13	14839.00
482.31	14813.25
482.49	14815.59
482.67	14888.15
482.85	15117.52
483.03	15517.75
483.21	15545.84
483.39	15513.07
483.57	15616.05
483.74	15384.34
483.92	15929.69
484.10	15674.57
484.28	16018.63
484.46	16224.59
484.64	16589.72
484.82	16229.27
485.00	16365.03
485.18	16830.79
485.35	16772.28
485.53	16437.58
485.71	16180.12
485.89	16615.46
486.07	16460.99
486.25	16629.51
486.43	16975.91
486.61	17249.75
486.78	17392.52
486.96	17582.10
487.14	17820.84
487.32	17764.67
487.50	18221.07
487.68	18195.32
487.85	18286.61
488.03	18523.00
488.21	18703.22
488.39	18834.29
488.57	18848.33
488.75	19168.99
488.92	19370.27
489.10	19541.13
489.28	19641.78
489.46	20067.75
489.64	19941.36
489.81	20353.30
489.99	20102.86
490.17	20446.92
490.35	20542.88
490.53	20533.52
490.70	20842.47
490.88	20577.99
491.06	20950.14
491.24	21018.01
491.41	20893.96
491.59	21135.04
491.77	20711.40
491.95	21373.77
492.13	21322.28
492.30	21706.13
492.48	21935.50
492.66	22174.24
492.84	22169.55
493.01	22302.96
493.19	22661.07
493.37	22391.91
493.54	22424.67
493.72	22885.76
493.90	22918.53
494.08	22890.44
494.25	23248.54
494.43	23491.96
494.61	23597.28
494.79	23960.06
494.96	23939.00
495.14	23531.75
495.32	23620.69
495.49	23637.07
495.67	23953.04
495.85	24233.91
496.02	24442.21
496.20	24580.31
496.38	24622.44
496.55	24666.91
496.73	25240.34
496.91	25069.48
497.09	25142.03
497.26	25170.12
497.44	24952.45
497.62	25577.37
497.79	25722.49
497.97	25144.38
498.14	25771.64
498.32	25979.95
498.50	26370.82
498.67	26672.74
498.85	26408.26
499.03	26216.34
499.20	26288.90
499.38	26459.76
499.56	26469.12
499.73	26560.40
499.91	26953.61
500.08	26780.41
500.26	26511.25
500.44	26843.60
500.61	26808.50
500.79	26705.51
500.97	27087.02
501.14	27274.26
501.32	27491.93
501.49	27360.86
501.67	27405.33
501.84	27976.42
502.02	27737.69
502.20	28060.68
502.37	27892.16
502.55	27955.36
502.72	28350.91
502.90	28247.93
503.07	28072.39
503.25	28524.11
503.43	28187.07
503.60	28936.04
503.78	28222.18
503.95	28435.17
504.13	28655.18
504.30	28830.72
504.48	28905.62
504.65	28865.83
504.83	29081.16
505.01	29336.27
505.18	29256.70
505.36	30199.93
505.53	29804.38
505.71	30000.99
505.88	30094.61
506.06	29392.45
506.23	30026.73
506.41	29832.47
506.58	30073.54
506.76	29958.86
506.93	30352.07
507.11	30473.78
507.28	30017.37
507.46	30099.29
507.63	30143.76
507.81	30590.80
507.98	30661.02
508.16	30682.08
508.33	30939.54
508.50	31019.12
508.68	30920.82
508.85	31573.83
509.03	31164.23
509.20	31311.69
509.38	31585.53
509.55	31662.77
509.73	31215.72
509.90	31758.73
510.08	31620.64
510.25	31470.84
510.42	32119.17
510.60	31938.95
510.77	32077.04
510.95	32631.75
511.12	31721.28
511.30	32243.22
511.47	32292.37
511.64	32732.39
511.82	32629.41
511.99	32301.73
512.17	32109.81
512.34	32545.15
512.51	32814.31
512.69	32603.66
512.86	33261.35
513.04	33280.08
513.21	32996.87
513.38	33102.20
513.56	33273.06
513.73	33053.05
513.90	33343.27
514.08	33338.59
514.25	33244.97
514.43	33376.04
514.60	33172.41
514.77	33663.93
514.95	33748.18
515.12	33289.44
515.29	33549.24
515.47	34108.63
515.64	34010.32
515.81	34333.32
515.99	33797.34
516.16	34298.21
516.33	34050.11
516.51	34057.14
516.68	33607.75
516.85	33692.01
517.03	33783.29
517.20	34227.99
517.37	34499.50
517.54	34653.97
517.72	34653.97
517.89	34300.55
518.06	34036.07
518.24	34314.59
518.41	34632.91
518.58	34483.11
518.75	34972.28
518.93	34918.45
519.10	34773.34
519.27	35477.84
519.45	35243.79
519.62	35618.27
519.79	35470.82
519.96	35702.53
520.14	35667.42
520.31	35269.53
520.48	35627.63
520.65	35632.32
520.83	36240.86
521.00	36058.29
521.17	35978.72
521.34	36503.00
521.52	36519.38
521.69	36795.56
521.86	36671.51
522.03	36409.37
522.20	36503.00
522.38	36655.13
522.55	36926.63
522.72	36624.70
522.89	36650.45
523.07	36814.29
523.24	37188.77
523.41	37137.28
523.58	37017.91
523.75	37525.81
523.92	37076.43
524.10	37347.93
524.27	37104.51
524.44	37282.39
524.61	37638.15
524.78	37247.29
524.96	37354.95
525.13	37979.87
525.30	38101.58
525.47	38387.13
525.64	37645.18
525.81	37771.57
525.98	37745.82
526.16	37530.49
526.33	37504.74
526.50	37563.26
526.67	37443.89
526.84	37738.80
527.01	37624.11
527.18	37991.58
527.36	38293.50
527.53	38375.42
527.70	38565.01
527.87	38990.98
528.04	38733.53
528.21	38815.44
528.38	38862.26
528.55	38906.73
528.72	38965.24
528.89	39470.79
529.07	38967.58
529.24	39236.74
529.41	39126.74
529.58	38913.75
529.75	39309.30
529.92	39697.83
530.09	39524.63
530.26	39395.90
530.43	39215.68
530.60	39550.37
530.77	39459.09
530.94	39833.58
531.11	39496.54
531.28	39868.69
531.46	39910.82
531.63	39882.73
531.80	39910.82
531.97	39398.24
532.14	39583.14
532.31	39557.39
532.48	39346.75
532.65	40170.61
532.82	39695.49
532.99	40325.09
533.16	39868.69
533.33	39896.77
533.50	40402.33
533.67	40069.97
533.84	40327.43
534.01	40598.93
534.18	40409.35
534.35	40720.64
534.52	40517.01
534.69	40622.34
534.86	40797.88
535.03	40706.60
535.20	40971.08
535.37	41045.97
535.54	41263.64
535.71	40931.29
535.88	41045.97
536.05	41132.57
536.22	41125.55
536.38	41198.11
536.55	40938.31
536.72	40898.52
536.89	40636.38
537.06	41418.12
537.23	41586.64
537.40	40987.46
537.57	41706.01
537.74	41111.51
537.91	41633.45
538.08	41640.47
538.25	41235.56
538.42	41432.16
538.59	41483.66
538.75	41249.60
538.92	41546.85
539.09	41708.35
539.26	41706.01
539.43	41691.96
539.60	41713.03
539.77	41624.09
539.94	41504.72
540.11	41336.20
540.28	41710.69
540.44	41942.40
540.61	41839.42
540.78	41329.18
540.95	41722.39
541.12	41853.46
541.29	41799.63
541.46	42021.98
541.62	41937.72
541.79	42225.60
541.96	42087.51
542.13	41867.50
542.30	42478.38
542.47	42768.61
542.63	42452.64
542.80	42108.58
542.97	42838.83
543.14	43070.54
543.31	42843.51
543.48	42534.56
543.64	43220.33
543.81	43402.89
543.98	43206.29
544.15	43154.80
544.32	43037.77
544.48	43370.13
544.65	43526.94
544.82	43124.37
544.99	42892.66
545.16	43435.66
545.32	42960.53
545.49	43854.62
545.66	43196.93
545.83	43358.42
546.00	43257.78
546.16	43386.51
546.33	43363.11
546.50	42829.46
546.67	43086.92
546.83	43236.72
547.00	43363.11
547.17	43517.58
547.34	43526.94
547.50	43442.68
547.67	44039.52
547.84	43405.23
548.00	43915.47
548.17	44233.78
548.34	44048.88
548.51	44685.51
548.67	44154.21
548.84	44013.77
549.01	44147.18
549.18	44020.80
549.34	44114.42
549.51	43910.79
549.68	44222.08
549.84	44112.08
550.01	43917.81
550.18	44062.93
550.34	44278.25
550.51	44191.65
550.68	43873.34
550.84	43861.64
551.01	44002.07
551.18	44275.91
551.34	44423.37
551.51	44385.92
551.68	44559.12
551.84	44486.56
552.01	44126.12
552.18	44601.25
552.34	44662.10
552.51	44334.43
552.68	44727.64
552.84	44563.80
553.01	44748.70
553.18	44800.19
553.34	44484.22
553.51	44556.78
553.67	45001.48
553.84	45120.85
554.01	45006.16
554.17	44882.11
554.34	45130.21
554.51	44690.19
554.67	45296.39
554.84	45001.48
555.00	45085.74
555.17	44821.26
555.33	45116.17
555.50	45130.21
555.67	45310.43
555.83	44879.77
556.00	44931.26
556.16	45048.29
556.33	45064.67
556.50	44788.49
556.66	44959.35
556.83	44865.73
556.99	45137.23
557.16	45305.75
557.32	45258.94
557.49	45713.00
557.65	44872.75
557.82	45490.65
557.98	45067.02
558.15	45371.28
558.32	45841.73
558.48	44985.10
558.65	45247.24
558.81	45081.06
558.98	45305.75
559.14	45549.17
559.31	45118.51
559.47	45109.14
559.64	45382.99
559.80	45052.97
559.97	45544.48
560.13	45270.64
560.30	45401.71
560.46	45701.30
560.63	45595.98
560.79	45663.85
560.96	45703.64
561.12	45354.90
561.29	45649.81
561.45	45914.29
561.61	45956.42
561.78	45579.59
561.94	45757.47
562.11	45436.82
562.27	45680.24
562.44	45759.81
562.60	46031.32
562.77	46138.98
562.93	45633.42
563.10	45961.10
563.26	45680.24
563.42	46038.34
563.59	45734.07
563.75	45556.19
563.92	46155.36
564.08	45787.90
564.24	46101.53
564.41	45907.27
564.57	45736.41
564.74	45605.34
564.90	45675.55
565.07	45928.33
565.23	45991.53
565.39	45921.31
565.56	45584.27
565.72	45605.34
565.88	45820.67
566.05	45378.31
566.21	46354.31
566.38	45811.31
566.54	45677.90
566.70	46108.55
566.87	46307.50
567.03	46082.81
567.19	46700.71
567.36	46178.77
567.52	46227.92
567.68	46244.30
567.85	45680.24
568.01	45954.08
568.17	46246.65
568.34	45907.27
568.50	46017.27
568.66	45801.94
568.83	45804.28
568.99	45762.15
569.15	46045.36
569.32	45982.16
569.48	45799.60
569.64	46291.12
569.81	46054.72
569.97	45841.73
570.13	45933.01
570.30	46241.96
570.46	45610.02
570.62	45783.22
570.78	45378.31
570.95	45614.70
571.11	46272.39
571.27	46085.15
571.43	45755.13
571.60	46464.32
571.76	45956.42
571.92	45853.44
572.09	46265.37
572.25	45986.85
572.41	46319.20
572.57	46632.83
572.74	46274.73
572.90	46326.22
573.06	46291.12
573.22	46763.90
573.38	46120.26
573.55	45970.46
573.71	46092.17
573.87	46286.43
574.03	45610.02
574.20	45923.65
574.36	46169.41
574.52	46586.02
574.68	46124.94
574.84	46419.84
575.01	46096.85
575.17	46028.98
575.33	45904.93
575.49	45862.80
575.65	46230.26
575.82	46323.88
575.98	45968.12
576.14	46710.07
576.30	46059.40
576.46	46340.27
576.62	46398.78
576.79	46197.49
576.95	45727.05
577.11	45951.74
577.27	46307.50
577.43	46398.78
577.59	46071.10
577.75	46178.77
577.92	45694.28
578.08	45581.93
578.24	45883.86
578.40	46541.55
578.56	46459.63
578.72	46656.24
578.88	46094.51
579.04	46403.46
579.21	46120.26
579.37	45982.16
579.53	46031.32
579.69	45851.09
579.85	46300.48
580.01	46272.39
580.17	46122.60
580.33	46171.75
580.49	46323.88
580.65	46195.15
580.82	46323.88
580.98	45951.74
581.14	46106.21
581.30	46656.24
581.46	46923.06
581.62	46454.95
581.78	46183.45
581.94	46705.39
582.10	46237.28
582.26	46391.76
582.42	46031.32
582.58	46113.23
582.74	46501.76
582.90	46328.56
583.06	46445.59
583.22	46157.70
583.38	46719.43
583.54	46564.96
583.70	46185.79
583.86	46394.10
584.02	46672.62
584.18	45933.01
584.34	46515.81
584.50	46375.37
584.66	46302.82
584.82	46401.12
584.98	46499.42
585.14	46213.88
585.30	46728.80
585.46	46148.34
585.62	46061.74
585.78	46178.77
585.94	46370.69
586.10	46337.93
586.26	45911.95
586.42	46773.27
586.58	46600.07
586.74	46351.97
586.90	46581.34
587.06	46162.39
587.22	46747.52
587.38	46424.53
587.54	46443.25
587.70	47100.94
587.86	46550.91
588.02	46412.82
588.18	46377.72
588.34	46295.80
588.49	45794.92
588.65	45925.99
588.81	46019.61
588.97	46122.60
589.13	45982.16
589.29	45930.67
589.45	46354.31
589.61	46054.72
589.77	46499.42
589.93	46518.15
