SpectraSuite Data File
++++++++++++++++++++++++++++++++++++
Date: Fri Oct 25 11:22:59 EDT 2013
User: price-jones
Dark Spectrum Present: No
Reference Spectrum Present: No
Number of Sampled Component Spectra: 1
Spectrometers: USB2+H05261
Integration Time (usec): 100000 (USB2+H05261)
Spectra Averaged: 1 (USB2+H05261)
Boxcar Smoothing: 0 (USB2+H05261)
Correct for Electrical Dark: No (USB2+H05261)
Strobe/Lamp Enabled: No (USB2+H05261)
Correct for Detector Non-linearity: No (USB2+H05261)
Correct for Stray Light: No (USB2+H05261)
Number of Pixels in Processed Spectrum: 2048
>>>>>Begin Processed Spectral Data<<<<<
365.73	304.27
365.92	304.27
366.12	304.27
366.32	191.92
366.52	77.24
366.72	166.18
366.91	58.51
367.11	147.45
367.31	86.60
367.51	166.18
367.70	156.82
367.90	93.62
368.10	147.45
368.30	177.88
368.49	126.39
368.69	163.84
368.89	102.98
369.09	112.35
369.28	121.71
369.48	175.54
369.68	189.58
369.87	114.69
370.07	217.67
370.27	222.35
370.47	346.40
370.66	624.92
370.86	613.22
371.06	610.88
371.25	699.82
371.45	603.86
371.65	662.37
371.84	685.78
372.04	720.88
372.24	798.12
372.44	669.39
372.63	772.38
372.83	748.97
373.03	807.48
373.22	744.29
373.42	702.16
373.62	774.72
373.81	809.83
374.01	837.91
374.21	866.00
374.40	805.14
374.60	819.19
374.79	795.78
374.99	793.44
375.19	816.85
375.38	830.89
375.58	805.14
375.78	847.27
375.97	929.19
376.17	950.26
376.37	805.14
376.56	873.02
376.76	905.79
376.95	816.85
377.15	868.34
377.35	844.93
377.54	943.24
377.74	898.77
377.93	882.38
378.13	943.24
378.33	922.17
378.52	917.49
378.72	887.06
378.91	889.40
379.11	926.85
379.31	880.04
379.50	887.06
379.70	978.34
379.89	938.55
380.09	961.96
380.28	994.73
380.48	952.60
380.68	959.62
380.87	1025.15
381.07	987.71
381.26	1036.86
381.46	1034.52
381.65	1067.28
381.85	1032.18
382.04	1022.81
382.24	1001.75
382.43	1156.22
382.63	1025.15
382.83	1160.91
383.02	1156.22
383.22	1086.01
383.41	1043.88
383.61	1053.24
383.80	1132.82
384.00	1086.01
384.19	1104.73
384.39	1165.59
384.58	1050.90
384.78	1142.18
384.97	1203.04
385.17	1142.18
385.36	1174.95
385.56	1203.04
385.75	1167.93
385.95	1186.65
386.14	1214.74
386.34	1210.06
386.53	1282.61
386.72	1135.16
386.92	1121.12
387.11	1242.82
387.31	1338.79
387.50	1242.82
387.70	1245.16
387.89	1313.04
388.09	1299.00
388.28	1247.51
388.48	1301.34
388.67	1394.96
388.86	1327.08
389.06	1287.29
389.25	1289.64
389.45	1446.45
389.64	1380.92
389.84	1378.58
390.03	1378.58
390.22	1425.39
390.42	1336.45
390.61	1336.45
390.81	1380.92
391.00	1418.36
391.19	1453.47
391.39	1313.04
391.58	1551.78
391.78	1430.07
391.97	1383.26
392.16	1460.49
392.36	1577.52
392.55	1528.37
392.75	1497.94
392.94	1511.99
393.13	1526.03
393.33	1610.29
393.52	1685.19
393.71	1652.42
393.91	1509.65
394.10	1540.07
394.29	1668.80
394.49	1612.63
394.68	1696.89
394.88	1633.69
395.07	1689.87
395.26	1600.93
395.46	1692.21
395.65	1703.91
395.84	1750.72
396.04	1682.85
396.23	1746.04
396.42	1842.00
396.62	1769.44
396.81	1722.63
397.00	1727.32
397.19	1792.85
397.39	1797.53
397.58	1926.26
397.77	1872.43
397.97	1884.13
398.16	1790.51
398.35	1839.66
398.55	1830.30
398.74	1837.32
398.93	1856.04
399.12	2003.50
399.32	1895.83
399.51	1944.99
399.70	1942.64
399.90	1961.37
400.09	2069.03
400.28	2200.10
400.47	1968.39
400.67	2073.71
400.86	2073.71
401.05	2054.99
401.24	2136.91
401.44	2174.36
401.63	2141.59
401.82	2040.95
402.01	2190.74
402.21	2113.50
402.40	2146.27
402.59	2265.64
402.78	2244.57
402.97	2221.17
403.17	2249.25
403.36	2279.68
403.55	2338.20
403.74	2300.75
403.93	2356.92
404.13	2356.92
404.32	2331.17
404.51	2340.54
404.70	2455.22
404.89	2349.90
405.09	2504.37
405.28	2506.71
405.47	2466.92
405.66	2457.56
405.85	2466.92
406.05	2532.46
406.24	2553.52
406.43	2544.16
406.62	2597.99
406.81	2729.06
407.00	2588.63
407.20	2586.29
407.39	2712.68
407.58	2794.60
407.77	2700.98
407.96	2810.98
408.15	2736.09
408.34	2745.45
408.54	2815.66
408.73	2902.26
408.92	2836.73
409.11	2867.16
409.30	2871.84
409.49	2963.12
409.68	2984.18
409.87	2810.98
410.07	2977.16
410.26	3009.93
410.45	2995.89
410.64	3091.85
410.83	3117.59
411.02	3206.53
411.21	3398.46
411.40	3229.94
411.59	3155.04
411.78	3262.71
411.98	3229.94
412.17	3251.00
412.36	3363.35
412.55	3311.86
412.74	3438.25
412.93	3440.59
413.12	3384.41
413.31	3611.45
413.50	3536.55
413.69	3487.40
413.88	3709.75
414.07	3637.19
414.26	3616.13
414.45	3599.74
414.64	3747.20
414.83	3784.65
415.02	3873.59
415.22	3763.58
415.41	3967.21
415.60	3817.41
415.79	4014.02
415.98	4063.17
416.17	3894.65
416.36	4009.34
416.55	3939.12
416.74	4114.66
416.93	4117.00
417.12	4086.58
417.31	4266.80
417.50	4121.68
417.69	4320.63
417.88	4269.14
418.07	4238.71
418.26	4236.37
418.45	4351.06
418.64	4423.61
418.83	4475.10
419.02	4425.95
419.21	4690.43
419.39	4463.40
419.58	4498.51
419.77	4561.70
419.96	4606.17
420.15	4727.88
420.34	4587.45
420.53	4601.49
420.72	4723.20
420.91	4631.92
421.10	4732.56
421.29	4910.44
421.48	4716.18
421.67	4828.53
421.86	4802.78
422.05	4664.69
422.24	4774.69
422.43	4798.10
422.61	4870.65
422.80	4924.49
422.99	4863.63
423.18	5060.24
423.37	5144.50
423.56	4978.32
423.75	4863.63
423.94	4805.12
424.13	4676.39
424.32	4711.50
424.50	4968.96
424.69	5118.75
424.88	5111.73
425.07	5013.43
425.26	5074.28
425.45	5041.51
425.64	5088.32
425.83	5179.61
426.01	5118.75
426.20	5151.52
426.39	5032.15
426.58	4966.62
426.77	5001.72
426.96	5139.82
427.15	5165.56
427.33	5198.33
427.52	5184.29
427.71	5383.23
427.90	5242.80
428.09	5327.06
428.28	5404.30
428.46	5521.32
428.65	5338.76
428.84	5446.43
429.03	5556.43
429.22	5537.71
429.40	5593.88
429.59	5518.98
429.78	5420.68
429.97	5376.21
430.16	5486.22
430.34	5516.64
430.53	5577.50
430.72	5731.97
430.91	5713.25
431.10	5671.12
431.28	5781.12
431.47	5708.57
431.66	5860.70
431.85	5783.46
432.03	5975.39
432.22	6141.57
432.41	5947.30
432.60	6022.20
432.79	5930.92
432.97	6080.71
433.16	6118.16
433.35	5949.64
433.54	6160.29
433.72	6270.30
433.91	6052.63
434.10	6246.89
434.28	6225.82
434.47	6256.25
434.66	6244.55
434.85	6300.72
435.03	6394.34
435.22	6270.30
435.41	6511.37
435.59	6370.94
435.78	6525.41
435.97	6597.97
436.16	6466.90
436.34	6558.18
436.53	6511.37
436.72	6710.32
436.90	6401.37
437.09	6576.91
437.28	6476.26
437.46	6707.98
437.65	6768.83
437.84	6806.28
438.02	6862.45
438.21	6885.86
438.40	6717.34
438.58	6956.07
438.77	7094.16
438.96	6986.50
439.14	7143.32
439.33	7157.36
439.52	7335.24
439.70	7332.90
439.89	7309.49
440.08	7356.30
440.26	7283.75
440.45	7382.05
440.63	7538.87
440.82	7442.90
441.01	7335.24
441.19	7733.13
441.38	7885.26
441.57	7749.51
441.75	7875.90
441.94	7941.44
442.12	7962.50
442.31	7964.84
442.50	8095.91
442.68	8163.79
442.87	8065.49
443.05	8072.51
443.24	8313.58
443.43	8168.47
443.61	8156.77
443.80	8526.57
443.98	7995.27
444.17	7777.60
444.35	8173.15
444.54	8557.00
444.73	8336.99
444.91	8388.48
445.10	8418.91
445.28	8496.14
445.47	8231.66
445.65	8379.12
445.84	8674.03
446.02	8557.00
446.21	8437.63
446.39	8404.86
446.58	8451.67
446.77	8507.85
446.95	8224.64
447.14	8489.12
447.32	8711.47
447.51	8725.52
447.69	8620.19
447.88	8512.53
448.06	8507.85
448.25	8634.24
448.43	8659.98
448.62	8631.90
448.80	8767.65
448.99	8748.92
449.17	8779.35
449.36	8727.86
449.54	9004.04
449.73	9060.21
449.91	9163.20
450.10	9036.81
450.28	9095.32
450.46	8990.00
450.65	9081.28
450.83	9296.61
451.02	9188.94
451.20	9359.80
451.39	9207.67
451.57	9013.40
451.76	9053.19
451.94	9107.02
452.13	9404.27
452.31	9474.49
452.49	9158.52
452.68	9504.92
452.86	9425.34
453.05	9415.98
453.23	9570.45
453.42	9376.19
453.60	9451.08
453.78	9619.60
453.97	9488.53
454.15	9568.11
454.34	9495.55
454.52	9790.46
454.70	9753.01
454.89	10024.51
455.07	9954.30
455.26	9816.21
455.44	10019.83
455.62	9909.83
455.81	9865.36
455.99	10115.80
456.17	10132.18
456.36	10010.47
456.54	10244.52
456.73	10384.96
456.91	10373.25
457.09	10228.14
457.28	10712.63
457.46	10317.08
457.64	10572.20
457.83	10658.80
458.01	10675.18
458.19	10677.52
458.38	10595.61
458.56	10778.17
458.74	10637.73
458.93	10815.62
459.11	10846.04
459.29	10703.27
459.48	10628.37
459.66	10654.12
459.84	10981.79
460.03	10916.26
460.21	11253.30
460.39	11049.67
460.57	11030.94
460.76	11311.81
460.94	11136.27
461.12	11332.87
461.31	11257.98
461.49	11262.66
461.67	11260.32
461.85	11555.22
462.04	11339.90
462.22	11623.10
462.40	11606.72
462.59	11616.08
462.77	11646.51
462.95	11700.34
463.13	11681.61
463.32	11730.76
463.50	11667.57
463.68	11793.96
463.86	11768.21
464.05	11658.21
464.23	11789.28
464.41	12231.64
464.59	11819.71
464.78	12252.70
464.96	12166.10
465.14	12056.10
465.32	12145.04
465.50	12334.62
465.69	12121.63
465.87	12416.54
466.05	12219.94
466.23	12154.40
466.41	12486.76
466.60	12512.50
466.78	12493.78
466.96	12250.36
467.14	12430.59
467.32	12514.84
467.51	12285.47
467.69	12255.04
467.87	12709.11
468.05	12793.37
468.23	12774.64
468.41	12634.21
468.60	12762.94
468.78	12870.61
468.96	12769.96
469.14	12886.99
469.32	13099.98
469.50	12940.82
469.69	13153.81
469.87	13123.38
470.05	13336.37
470.23	13315.31
470.41	13289.56
470.59	13371.48
470.77	13472.12
470.95	13476.80
471.14	13788.10
471.32	13383.18
471.50	13699.16
471.68	13647.66
471.86	13769.37
472.04	13781.07
472.22	14171.94
472.40	13790.44
472.58	14085.34
472.77	14218.75
472.95	14148.54
473.13	14738.35
473.31	14415.36
473.49	14450.47
473.67	14258.54
473.85	14562.81
474.03	14569.83
474.21	14792.19
474.39	14932.62
474.57	14544.09
474.75	14899.85
474.93	15288.38
475.12	15131.56
475.30	15321.15
475.48	15309.44
475.66	15410.09
475.84	15171.35
476.02	15651.16
476.20	15531.80
476.38	15550.52
476.56	16346.30
476.74	15922.66
476.92	16187.14
477.10	15864.15
477.28	16460.99
477.46	16093.52
477.64	16765.26
477.82	16807.39
478.00	17226.34
478.18	17165.49
478.36	17350.39
478.54	17284.86
478.72	17537.63
478.90	17458.06
479.08	17465.08
479.26	17591.47
479.44	18150.85
479.62	18207.03
479.80	17935.53
479.98	18281.92
480.16	18750.03
480.34	18338.10
480.52	18808.54
480.70	18593.22
480.88	18445.76
481.06	19009.83
481.24	18902.17
481.41	19372.61
481.59	19475.60
481.77	19683.91
481.95	19761.14
482.13	19967.11
482.31	20072.43
482.49	20369.68
482.67	20320.53
482.85	20428.20
483.03	20795.66
483.21	20884.60
483.39	21343.35
483.57	20638.84
483.74	21439.31
483.92	21624.21
484.10	21661.66
484.28	21848.90
484.46	22321.69
484.64	22492.55
484.82	22127.42
485.00	22637.66
485.18	22906.82
485.35	23171.30
485.53	23068.32
485.71	23157.26
485.89	23967.09
486.07	23531.75
486.25	23566.85
486.43	23735.37
486.61	24067.73
486.78	24325.19
486.96	24641.16
487.14	24575.62
487.32	24734.78
487.50	25041.39
487.68	24945.43
487.85	25628.87
488.03	25675.68
488.21	25727.17
488.39	26085.27
488.57	26438.69
488.75	26312.30
488.92	26611.89
489.10	27089.36
489.28	27056.59
489.46	27143.19
489.64	27374.91
489.81	27978.76
489.99	28177.71
490.17	27995.15
490.35	28360.27
490.53	28594.32
490.70	28760.50
490.88	28730.08
491.06	28943.06
491.24	29399.47
491.41	29333.93
491.59	29713.10
491.77	29472.03
491.95	29692.04
492.13	29748.21
492.30	30099.29
492.48	30455.05
492.66	30110.99
492.84	30803.79
493.01	31089.34
493.19	30782.73
493.37	31409.99
493.54	31351.48
493.72	31634.68
493.90	31512.97
494.08	32170.66
494.25	32009.17
494.43	32371.95
494.61	32402.38
494.79	32690.26
494.96	32884.53
495.14	33219.22
495.32	33333.91
495.49	33624.14
495.67	33619.46
495.85	33846.49
496.02	33979.90
496.20	34586.10
496.38	34328.64
496.55	34012.66
496.73	34712.49
496.91	34504.18
497.09	34876.32
497.26	35571.46
497.44	35208.68
497.62	35627.63
497.79	35761.05
497.97	35431.03
498.14	36275.96
498.32	36503.00
498.50	36744.07
498.67	36573.21
498.85	36685.56
499.03	36479.59
499.20	36818.97
499.38	37244.94
499.56	37848.80
499.73	37448.57
499.91	37701.35
500.08	37659.22
500.26	37633.47
500.44	38157.75
500.61	38595.43
500.79	37909.66
500.97	38431.60
501.14	38838.85
501.32	38836.51
501.49	39065.88
501.67	38848.21
501.84	39421.64
502.02	39271.85
502.20	39257.81
502.37	39789.11
502.55	39618.25
502.72	39735.27
502.90	40212.74
503.07	39847.62
503.25	40102.74
503.43	40098.06
503.60	40079.33
503.78	40341.47
503.95	40608.29
504.13	40718.30
504.30	40748.73
504.48	40910.22
504.65	41165.34
504.83	41701.32
505.01	41731.75
505.18	41680.26
505.36	42040.70
505.53	41509.40
505.71	42094.53
505.88	41989.21
506.06	41790.27
506.23	42457.32
506.41	41869.84
506.58	42244.33
506.76	42452.64
506.93	42330.93
507.11	42831.80
507.28	42997.98
507.46	42927.77
507.63	43147.78
507.81	43557.37
507.98	43318.64
508.16	43536.30
508.33	43768.02
508.50	44058.24
508.68	43730.57
508.85	44566.14
509.03	44081.65
509.20	44416.35
509.38	44650.40
509.55	44807.22
509.73	45153.62
509.90	44975.73
510.08	44811.90
510.25	44800.19
510.42	45198.09
510.60	45195.74
510.77	45675.55
510.95	46096.85
511.12	45139.57
511.30	45888.54
511.47	45799.60
511.64	45947.06
511.82	45755.13
511.99	45930.67
512.17	46497.08
512.34	46286.43
512.51	46691.35
512.69	46782.63
512.86	46803.69
513.04	46930.08
513.21	46703.05
513.38	47058.81
513.56	47058.81
513.73	46958.17
513.90	47510.53
514.08	47349.04
514.25	47428.62
514.43	47779.70
514.60	48140.14
514.77	47852.25
514.95	48374.19
515.12	48006.73
515.29	47945.87
515.47	48067.58
515.64	48428.02
515.81	47906.08
515.99	48746.34
516.16	48828.26
516.33	48423.34
516.51	48910.17
516.68	48940.60
516.85	49057.63
517.03	49415.73
517.20	49298.70
517.37	48952.30
517.54	49059.97
517.72	49141.89
517.89	49298.70
518.06	49490.63
518.24	49448.50
518.41	49141.89
518.58	49492.97
518.75	49579.57
518.93	49968.10
519.10	49350.20
519.27	49792.56
519.45	50054.70
519.62	50127.25
519.79	50389.39
519.96	49958.73
520.14	50602.38
520.31	50377.69
520.48	50780.26
520.65	50670.26
520.83	51168.79
521.00	50745.15
521.17	51126.66
521.34	50913.67
521.52	51121.98
521.69	51400.50
521.86	51145.39
522.03	51468.38
522.20	51627.54
522.38	51669.67
522.55	51372.42
522.72	51512.85
522.89	51812.44
523.07	51831.16
523.24	52027.77
523.41	51885.00
523.58	51629.88
523.75	52191.61
523.92	51941.17
524.10	52013.73
524.27	52610.56
524.44	52046.49
524.61	52425.66
524.78	52514.60
524.96	52563.75
525.13	52561.41
525.30	52741.63
525.47	52921.85
525.64	52683.12
525.81	52811.85
525.98	52811.85
526.16	52903.13
526.33	53010.79
526.50	53081.01
526.67	52952.28
526.84	53041.22
527.01	53134.84
527.18	53081.01
527.36	53275.27
527.53	53312.72
527.70	53745.72
527.87	53542.10
528.04	53284.64
528.21	53734.02
528.38	53719.98
528.55	53846.36
528.72	53869.77
528.89	53811.26
529.07	53752.74
529.24	53591.25
529.41	53949.35
529.58	53883.81
529.75	53928.28
529.92	53947.01
530.09	54099.14
530.26	54216.17
530.43	54557.89
530.60	54150.63
530.77	54045.31
530.94	54405.75
531.11	54389.37
531.28	54415.11
531.46	54459.58
531.63	54478.31
531.80	54440.86
531.97	54468.95
532.14	54864.50
532.31	54904.29
532.48	54644.49
532.65	54876.20
532.82	54541.50
532.99	54864.50
533.16	54787.26
533.33	55175.79
533.50	55166.43
533.67	55054.08
533.84	55070.46
534.01	55260.05
534.18	55161.75
534.35	55487.08
534.52	55011.95
534.69	55601.77
534.86	55391.12
535.03	55285.79
535.20	55238.98
535.37	55536.23
535.54	55632.19
535.71	55430.91
535.88	55641.56
536.05	55648.58
536.22	55891.99
536.38	55978.59
536.55	55891.99
536.72	55856.88
536.89	55620.49
537.06	56020.72
537.23	56151.79
537.40	55770.28
537.57	55749.22
537.74	56165.84
537.91	56184.56
538.08	56296.91
538.25	55774.97
538.42	56133.07
538.59	56367.12
538.75	56126.05
538.92	56245.41
539.09	56378.82
539.26	56243.07
539.43	56282.86
539.60	56486.49
539.77	56493.51
539.94	56545.00
540.11	56743.95
540.28	56692.46
540.44	56519.26
540.61	56872.68
540.78	56657.35
540.95	56676.07
541.12	56800.12
541.29	56727.56
541.46	56788.42
541.62	56872.68
541.79	57034.17
541.96	56734.59
542.13	57069.28
542.30	56832.89
542.47	57050.56
542.63	56954.60
542.80	57066.94
542.97	57205.03
543.14	57347.81
543.31	57228.44
543.48	57097.37
543.64	57733.99
543.81	57361.85
543.98	57687.18
544.15	57640.37
544.32	57719.95
544.48	57556.11
544.65	57478.88
544.82	57635.69
544.99	57579.52
545.16	57563.14
545.32	57682.50
545.49	58021.88
545.66	57855.70
545.83	57867.40
546.00	58101.46
546.16	57893.15
546.33	57825.28
546.50	57691.86
546.67	57996.13
546.83	57551.43
547.00	58202.10
547.17	57848.68
547.34	57932.94
547.50	58248.91
547.67	58138.91
547.84	58073.37
548.00	58286.36
548.17	58429.13
548.34	58288.70
548.51	58478.28
548.67	58356.58
548.84	58464.24
549.01	58356.58
549.18	58064.01
549.34	58433.81
549.51	58480.63
549.68	58539.14
549.84	58522.76
550.01	58812.98
550.18	58396.37
550.34	58653.82
550.51	58710.00
550.68	58578.93
550.84	58658.51
551.01	58812.98
551.18	58583.61
551.34	58773.19
551.51	58850.43
551.68	58707.66
551.84	58951.07
552.01	58581.27
552.18	58904.26
552.34	58735.74
552.51	59011.93
552.68	58630.42
552.84	58969.80
553.01	59416.84
553.18	58948.73
553.34	59037.67
553.51	58859.79
553.67	59098.53
553.84	59173.42
554.01	59171.08
554.17	59143.00
554.34	59468.33
554.51	59182.79
554.67	59285.77
554.84	59213.21
555.00	59370.03
555.17	59140.66
555.33	59175.76
555.50	59135.98
555.67	59051.72
555.83	59323.22
556.00	59262.36
556.16	59758.56
556.33	59437.90
556.50	59557.27
556.66	59440.24
556.83	59264.70
556.99	59688.34
557.16	59648.55
557.32	59519.82
557.49	59732.81
557.65	59440.24
557.82	59475.35
557.98	59526.84
558.15	59676.64
558.32	59800.69
558.48	59444.93
558.65	59735.15
558.81	59625.15
558.98	59774.94
559.14	59756.22
559.31	59884.95
559.47	59945.80
559.64	59927.08
559.80	59838.14
559.97	60058.15
560.13	59749.20
560.30	59927.08
560.46	59908.35
560.63	60027.72
560.79	60030.06
560.96	60165.81
561.12	60083.89
561.29	60072.19
561.45	60229.01
561.61	60093.25
561.78	60025.38
561.94	60009.00
562.11	60004.31
562.27	60170.49
562.44	60114.32
562.60	60142.41
562.77	60074.53
562.93	60016.02
563.10	60179.85
563.26	60114.32
563.42	60470.08
563.59	60196.24
563.75	60275.82
563.92	60275.82
564.08	60273.48
564.24	60423.27
564.41	60229.01
564.57	60317.95
564.74	60339.01
564.90	60315.61
565.07	60465.40
565.23	60287.52
565.39	60432.63
565.56	60449.02
565.72	60320.29
565.88	60406.89
566.05	60259.43
566.21	60456.04
566.38	60444.33
566.54	60411.57
566.70	60348.37
566.87	60540.30
567.03	60474.76
567.19	60860.95
567.36	60540.30
567.52	60439.65
567.68	60830.52
567.85	60484.12
568.01	60491.15
568.17	60350.71
568.34	60584.77
568.50	60577.75
568.66	60418.59
568.83	60603.49
568.99	60701.79
569.15	60467.74
569.32	60568.38
569.48	60626.90
569.64	60680.73
569.81	60706.47
569.97	60657.32
570.13	60727.54
570.30	60666.69
570.46	60495.83
570.62	60818.82
570.78	60715.84
570.95	60753.29
571.11	60917.12
571.27	60755.63
571.43	60701.79
571.60	60807.12
571.76	60671.37
571.92	60671.37
572.09	60713.50
572.25	60935.85
572.41	60804.78
572.57	60659.66
572.74	61006.06
572.90	60912.44
573.06	60830.52
573.22	60870.31
573.38	60814.14
573.55	60814.14
573.71	61069.26
573.87	60917.12
574.03	60900.74
574.20	60846.91
574.36	60973.30
574.52	60985.00
574.68	60884.36
574.84	61169.90
575.01	60879.67
575.17	61029.47
575.33	60865.63
575.49	60893.72
575.65	61083.30
575.82	61059.90
575.98	60816.48
576.14	61205.01
576.30	61027.13
576.46	61048.19
576.62	61151.18
576.79	60933.51
576.95	60832.86
577.11	61148.84
577.27	60992.02
577.43	60821.16
577.59	60879.67
577.75	60999.04
577.92	60954.57
578.08	61001.38
578.24	61197.99
578.40	61214.37
578.56	61223.73
578.72	61062.24
578.88	61144.16
579.04	61186.28
579.21	61127.77
579.37	61209.69
579.53	61146.50
579.69	60931.17
579.85	60999.04
580.01	61109.05
580.17	60989.68
580.33	61020.11
580.49	61174.58
580.65	61230.75
580.82	61219.05
580.98	60900.74
581.14	61111.39
581.30	61193.31
581.46	61132.45
581.62	61104.37
581.78	61092.66
581.94	61284.59
582.10	61099.68
582.26	61041.17
582.42	61078.62
582.58	61247.14
582.74	60963.93
582.90	61071.60
583.06	61116.07
583.22	60963.93
583.38	61228.41
583.54	61174.58
583.70	61310.33
583.86	61052.87
584.02	60980.32
584.18	61293.95
584.34	61209.69
584.50	60940.53
584.66	61106.71
584.82	61071.60
584.98	61406.30
585.14	61038.83
585.30	60903.08
585.46	61202.67
585.62	61261.18
585.78	61350.12
585.94	60919.46
586.10	61165.22
586.26	61118.41
586.42	61160.54
586.58	61347.78
586.74	61226.07
586.90	61286.93
587.06	61144.16
587.22	61394.59
587.38	61085.64
587.54	61436.72
587.70	61609.92
587.86	61261.18
588.02	61293.95
588.18	61406.30
588.34	61331.40
588.49	61134.79
