SpectraSuite Data File
++++++++++++++++++++++++++++++++++++
Date: Fri Oct 25 11:34:36 EDT 2013
User: price-jones
Dark Spectrum Present: No
Reference Spectrum Present: No
Number of Sampled Component Spectra: 1
Spectrometers: USB2+H05261
Integration Time (usec): 100000 (USB2+H05261)
Spectra Averaged: 1 (USB2+H05261)
Boxcar Smoothing: 0 (USB2+H05261)
Correct for Electrical Dark: No (USB2+H05261)
Strobe/Lamp Enabled: No (USB2+H05261)
Correct for Detector Non-linearity: No (USB2+H05261)
Correct for Stray Light: No (USB2+H05261)
Number of Pixels in Processed Spectrum: 2048
>>>>>Begin Processed Spectral Data<<<<<
365.73	276.18
365.92	276.18
366.12	276.18
366.32	194.26
366.52	236.39
366.72	196.60
366.91	208.31
367.11	224.69
367.31	154.48
367.51	154.48
367.70	119.37
367.90	189.58
368.10	201.29
368.30	194.26
368.49	114.69
368.69	201.29
368.89	198.95
369.09	187.24
369.28	187.24
369.48	257.46
369.68	201.29
369.87	238.73
370.07	259.80
370.27	250.44
370.47	379.17
370.66	414.27
370.86	498.53
371.06	486.83
371.25	596.84
371.45	449.38
371.65	559.39
371.84	547.69
372.04	514.92
372.24	505.56
372.44	557.05
372.63	540.66
372.83	531.30
373.03	498.53
373.22	608.54
373.42	613.22
373.62	592.16
373.81	575.77
374.01	624.92
374.21	667.05
374.40	709.18
374.60	676.41
374.79	601.52
374.99	669.39
375.19	655.35
375.38	697.48
375.58	662.37
375.78	737.27
375.97	627.26
376.17	695.14
376.37	594.50
376.56	638.97
376.76	709.18
376.95	720.88
377.15	676.41
377.35	748.97
377.54	751.31
377.74	725.57
377.93	575.77
378.13	716.20
378.33	741.95
378.52	695.14
378.72	767.70
378.91	748.97
379.11	732.59
379.31	660.03
379.50	620.24
379.70	702.16
379.89	685.78
380.09	706.84
380.28	739.61
380.48	772.38
380.68	711.52
380.87	660.03
381.07	760.67
381.26	697.48
381.46	711.52
381.65	758.33
381.85	674.07
382.04	739.61
382.24	725.57
382.43	744.29
382.63	741.95
382.83	718.54
383.02	725.57
383.22	713.86
383.41	812.17
383.61	774.72
383.80	770.04
384.00	805.14
384.19	819.19
384.39	739.61
384.58	795.78
384.78	791.10
384.97	809.83
385.17	798.12
385.36	798.12
385.56	779.40
385.75	805.14
385.95	875.36
386.14	798.12
386.34	772.38
386.53	856.64
386.72	802.80
386.92	887.06
387.11	854.30
387.31	887.06
387.50	816.85
387.70	950.26
387.89	833.23
388.09	957.28
388.28	882.38
388.48	896.43
388.67	894.08
388.86	847.27
389.06	931.53
389.25	905.79
389.45	884.72
389.64	847.27
389.84	940.90
390.03	873.02
390.22	887.06
390.42	964.30
390.61	936.21
390.81	931.53
391.00	1034.52
391.19	957.28
391.39	926.85
391.58	973.66
391.78	1025.15
391.97	1043.88
392.16	929.19
392.36	938.55
392.55	1025.15
392.75	973.66
392.94	1022.81
393.13	1102.39
393.33	1011.11
393.52	1083.67
393.71	973.66
393.91	1107.07
394.10	1097.71
394.29	1093.03
394.49	1074.31
394.68	1121.12
394.88	1153.88
395.07	1123.46
395.26	1177.29
395.46	1011.11
395.65	1104.73
395.84	1025.15
396.04	1196.01
396.23	1102.39
396.42	1174.95
396.62	1114.10
396.81	1139.84
397.00	1139.84
397.19	1144.52
397.39	1198.35
397.58	1184.31
397.77	1165.59
397.97	1184.31
398.16	1252.19
398.35	1263.89
398.55	1291.98
398.74	1207.72
398.93	1387.94
399.12	1212.40
399.32	1228.78
399.51	1308.36
399.70	1294.32
399.90	1338.79
400.09	1303.68
400.28	1357.51
400.47	1406.66
400.67	1362.19
400.86	1432.41
401.05	1380.92
401.24	1348.15
401.44	1540.07
401.63	1399.64
401.82	1451.13
402.01	1348.15
402.21	1397.30
402.40	1413.68
402.59	1476.88
402.78	1472.20
402.97	1495.60
403.17	1526.03
403.36	1511.99
403.55	1600.93
403.74	1614.97
403.93	1533.05
404.13	1572.84
404.32	1547.09
404.51	1486.24
404.70	1626.67
404.89	1605.61
405.09	1558.80
405.28	1607.95
405.47	1519.01
405.66	1689.87
405.85	1713.27
406.05	1694.55
406.24	1664.12
406.43	1722.63
406.62	1717.95
406.81	1703.91
407.00	1640.72
407.20	1804.55
407.39	1757.74
407.58	1783.49
407.77	1832.64
407.96	1771.79
408.15	1809.23
408.34	1764.76
408.54	1795.19
408.73	1830.30
408.92	1851.36
409.11	1902.86
409.30	1870.09
409.49	1949.67
409.68	1902.86
409.87	1970.73
410.07	1963.71
410.26	1919.24
410.45	1991.80
410.64	2043.29
410.83	1973.07
411.02	1952.01
411.21	2071.37
411.40	2167.34
411.59	2099.46
411.78	2092.44
411.98	2108.82
412.17	2197.76
412.36	2242.23
412.55	2230.53
412.74	2230.53
412.93	2373.30
413.12	2176.70
413.31	2230.53
413.50	2235.21
413.69	2333.51
413.88	2342.88
414.07	2377.98
414.26	2406.07
414.45	2436.50
414.64	2370.96
414.83	2427.14
415.02	2448.20
415.22	2544.16
415.41	2523.10
415.60	2490.33
415.79	2684.59
415.98	2544.16
416.17	2621.40
416.36	2682.25
416.55	2600.34
416.74	2642.46
416.93	2569.91
417.12	2588.63
417.31	2698.64
417.50	2825.03
417.69	2932.69
417.88	2766.51
418.07	2752.47
418.26	2913.97
418.45	2909.29
418.64	2935.03
418.83	2923.33
419.02	2920.99
419.21	2911.63
419.39	3014.61
419.58	3000.57
419.77	2932.69
419.96	2949.08
420.15	2939.71
420.34	3009.93
420.53	3063.76
420.72	2977.16
420.91	3007.59
421.10	3045.04
421.29	3108.23
421.48	3042.70
421.67	3115.25
421.86	3180.79
422.05	3199.51
422.24	3262.71
422.43	3082.49
422.61	3206.53
422.80	3218.24
422.99	3288.45
423.18	3171.43
423.37	3267.39
423.56	3169.09
423.75	3180.79
423.94	3176.11
424.13	3030.99
424.32	3105.89
424.50	3283.77
424.69	3349.31
424.88	3358.67
425.07	3363.35
425.26	3258.03
425.45	3346.97
425.64	3339.94
425.83	3295.47
426.01	3300.16
426.20	3337.60
426.39	3356.33
426.58	3321.22
426.77	3293.13
426.96	3375.05
427.15	3396.12
427.33	3337.60
427.52	3325.90
427.71	3349.31
427.90	3475.70
428.09	3506.12
428.28	3501.44
428.46	3463.99
428.65	3581.02
428.84	3679.32
429.03	3562.30
429.22	3527.19
429.40	3550.59
429.59	3428.88
429.78	3438.25
429.97	3473.36
430.16	3475.70
430.34	3684.00
430.53	3756.56
430.72	3576.34
430.91	3754.22
431.10	3597.40
431.28	3824.44
431.47	3845.50
431.66	3904.01
431.85	3810.39
432.03	3817.41
432.22	4011.68
432.41	3936.78
432.60	3904.01
432.79	3927.42
432.97	3847.84
433.16	3976.57
433.35	3873.59
433.54	3901.67
433.72	3943.80
433.91	4117.00
434.10	3960.19
434.28	4135.73
434.47	4056.15
434.66	4205.94
434.85	4187.22
435.03	4060.83
435.22	4114.66
435.41	4124.02
435.59	4177.86
435.78	4348.72
435.97	4173.18
436.16	4093.60
436.34	4320.63
436.53	4271.48
436.72	4367.44
436.90	4283.18
437.09	4362.76
437.28	4245.73
437.46	4257.43
437.65	4353.40
437.84	4468.08
438.02	4447.02
438.21	4400.21
438.40	4344.03
438.58	4554.68
438.77	4505.53
438.96	4423.61
439.14	4528.94
439.33	4737.24
439.52	4671.71
439.70	4711.50
439.89	4760.65
440.08	4837.89
440.26	4697.46
440.45	4760.65
440.63	4863.63
440.82	4894.06
441.01	4737.24
441.19	4800.44
441.38	5001.72
441.57	4999.38
441.75	5050.88
441.94	5179.61
442.12	5116.41
442.31	5233.44
442.50	5048.54
442.68	5074.28
442.87	5149.18
443.05	5158.54
443.24	5320.04
443.43	5266.21
443.61	5303.65
443.80	5551.75
443.98	5193.65
444.17	4997.04
444.35	5291.95
444.54	5308.34
444.73	5242.80
444.91	5305.99
445.10	5313.02
445.28	5397.28
445.47	5411.32
445.65	5287.27
445.84	5394.93
446.02	5408.98
446.21	5240.46
446.39	5380.89
446.58	5455.79
446.77	5383.23
446.95	5406.64
447.14	5563.45
447.32	5526.00
447.51	5533.03
447.69	5348.12
447.88	5416.00
448.06	5481.53
448.25	5565.79
448.43	5458.13
448.62	5472.17
448.80	5392.59
448.99	5533.03
449.17	5521.32
449.36	5406.64
449.54	5722.61
449.73	5387.91
449.91	5753.04
450.10	5799.85
450.28	5734.31
450.46	5713.25
450.65	5760.06
450.83	5729.63
451.02	5851.34
451.20	5923.90
451.39	5881.77
451.57	6017.52
451.76	5959.00
451.94	5891.13
452.13	5963.68
452.31	6113.48
452.49	5818.57
452.68	5947.30
452.86	5895.81
453.05	6146.25
453.23	6146.25
453.42	6076.03
453.60	5998.79
453.78	6197.74
453.97	6094.76
454.15	6024.54
454.34	6150.93
454.52	6251.57
454.70	6270.30
454.89	6143.91
455.07	6279.66
455.26	6228.17
455.44	6368.60
455.62	6394.34
455.81	6363.92
455.99	6342.85
456.17	6328.81
456.36	6450.52
456.54	6511.37
456.73	6586.27
456.91	6691.59
457.09	6567.54
457.28	6817.98
457.46	6516.05
457.64	6815.64
457.83	6604.99
458.01	6588.61
458.19	6899.90
458.38	6717.34
458.56	6930.33
458.74	6808.62
458.93	6846.07
459.11	6700.95
459.29	6820.32
459.48	6846.07
459.66	6768.83
459.84	6977.14
460.03	7059.06
460.21	7227.57
460.39	7129.27
460.57	7054.37
460.76	7021.61
460.94	7101.19
461.12	7225.23
461.31	7105.87
461.49	7253.32
461.67	7082.46
461.85	7353.96
462.04	7056.72
462.22	7707.38
462.40	7281.41
462.59	7243.96
462.77	7243.96
462.95	7449.93
463.13	7541.21
463.32	7478.01
463.50	7335.24
463.68	7508.44
463.86	7503.76
464.05	7592.70
464.23	7468.65
464.41	7679.30
464.59	7419.50
464.78	7648.87
464.96	7543.55
465.14	7588.02
465.32	7770.58
465.50	7613.76
465.69	7665.25
465.87	7772.92
466.05	7805.69
466.23	7791.64
466.41	7864.20
466.60	8077.19
466.78	7742.49
466.96	7810.37
467.14	7845.48
467.32	7859.52
467.51	7875.90
467.69	7707.38
467.87	7929.74
468.05	8203.58
468.23	7988.25
468.41	7901.65
468.60	7967.18
468.78	7894.63
468.96	8100.59
469.14	8006.97
469.32	8224.64
469.50	8121.66
469.69	8212.94
469.87	8264.43
470.05	8278.47
470.23	8182.51
470.41	8500.83
470.59	8374.44
470.77	8257.41
470.95	8334.65
471.14	8512.53
471.32	8365.07
471.50	8512.53
471.68	8641.26
471.86	8575.72
472.04	8589.77
472.22	8915.10
472.40	8767.65
472.58	8819.14
472.77	8863.61
472.95	8987.66
473.13	9226.39
473.31	8877.65
473.49	8861.27
473.67	9092.98
473.85	8971.27
474.03	9151.49
474.21	9132.77
474.39	9486.19
474.57	9308.31
474.75	9472.15
474.93	9586.83
475.12	9329.38
475.30	9600.88
475.48	9453.42
475.66	9387.89
475.84	9537.68
476.02	9778.76
476.20	9762.37
476.38	9848.97
476.56	10160.27
476.74	9947.28
476.92	9912.17
477.10	9928.55
477.28	9998.77
477.46	10178.99
477.64	10223.46
477.82	10333.47
478.00	10670.50
478.18	10445.81
478.36	10560.50
478.54	10815.62
478.72	10586.24
478.90	10626.03
479.08	11169.04
479.26	11211.17
479.44	11169.04
479.62	11108.18
479.80	11187.76
479.98	11421.81
480.16	11524.80
480.34	11466.28
480.52	11510.75
480.70	11730.76
480.88	11510.75
481.06	11997.59
481.24	12023.33
481.41	11854.81
481.59	12184.83
481.77	12266.75
481.95	12166.10
482.13	12512.50
482.31	12285.47
482.49	12477.40
482.67	12334.62
482.85	13013.38
483.03	12807.41
483.21	13149.13
483.39	12741.88
483.57	12896.35
483.74	13153.81
483.92	13156.15
484.10	13289.56
484.28	13617.24
484.46	13617.24
484.64	13811.50
484.82	13706.18
485.00	13961.30
485.18	14174.28
485.35	14380.25
485.53	14080.66
485.71	13982.36
485.89	14579.20
486.07	14263.22
486.25	14839.00
486.43	14810.91
486.61	15091.77
486.78	15009.86
486.96	15047.30
487.14	15377.32
487.32	15363.28
487.50	15281.36
487.68	15758.83
487.85	15843.09
488.03	15676.91
488.21	16231.62
488.39	16079.48
488.57	16142.67
488.75	16269.06
488.92	16184.80
489.10	16568.65
489.28	16734.83
489.46	16816.75
489.64	16692.70
489.81	17123.36
489.99	17252.09
490.17	17436.99
490.35	17397.20
490.53	17432.31
490.70	17666.36
490.88	17554.02
491.06	17872.33
491.24	17738.92
491.41	18302.99
491.59	18424.70
491.77	18185.96
491.95	18340.44
492.13	18286.61
492.30	18288.95
492.48	18740.67
492.66	18597.90
492.84	18874.08
493.01	19075.37
493.19	18864.72
493.37	19168.99
493.54	19063.66
493.72	19325.80
493.90	19381.98
494.08	19501.34
494.25	19758.80
494.43	19866.47
494.61	20395.43
494.79	20189.46
494.96	20006.90
495.14	20343.94
495.32	20702.04
495.49	20629.48
495.67	20542.88
495.85	20858.85
496.02	21041.42
496.20	20945.45
496.38	21310.58
496.55	21036.74
496.73	21455.69
496.91	21305.90
497.09	21378.45
497.26	21734.21
497.44	21439.31
497.62	21797.41
497.79	21891.03
497.97	21766.98
498.14	22302.96
498.32	22185.94
498.50	22530.00
498.67	22534.68
498.85	22621.28
499.03	22478.50
499.20	22782.77
499.38	22899.80
499.56	23414.72
499.73	22876.40
499.91	23300.03
500.08	23604.30
500.26	23248.54
500.44	23271.95
500.61	23592.60
500.79	23555.15
500.97	23665.16
501.14	23702.61
501.32	24095.82
501.49	23974.11
501.67	23985.81
501.84	24004.53
502.02	24105.18
502.20	24060.71
502.37	24269.01
502.55	24568.60
502.72	24238.59
502.90	24610.73
503.07	24456.26
503.25	24664.57
503.43	24627.12
503.60	24718.40
503.78	25013.31
503.95	25137.35
504.13	24870.53
504.30	25280.13
504.48	25137.35
504.65	25352.68
504.83	25188.85
505.01	25785.68
505.18	25867.60
505.36	25790.36
505.53	25923.77
505.71	25912.07
505.88	25965.90
506.06	25710.78
506.23	26134.42
506.41	26143.78
506.58	26132.08
506.76	26551.04
506.93	26391.88
507.11	26403.58
507.28	26249.11
507.46	26785.09
507.63	26710.19
507.81	27012.12
507.98	26469.12
508.16	27014.46
508.33	27145.53
508.50	27208.73
508.68	27253.20
508.85	27552.79
509.03	27178.30
509.20	27349.16
509.38	27550.45
509.55	27690.88
509.73	27763.43
509.90	27470.87
510.08	27751.73
510.25	27737.69
510.42	27461.51
510.60	28435.17
510.77	28233.88
510.95	28531.13
511.12	27871.10
511.30	28201.11
511.47	28290.06
511.64	28308.78
511.82	29153.71
511.99	28929.02
512.17	28699.65
512.34	28704.33
512.51	28858.81
512.69	29369.04
512.86	29050.73
513.04	29544.58
513.21	29525.86
513.38	29385.43
513.56	29322.23
513.73	29347.98
513.90	29275.42
514.08	29305.85
514.25	29710.76
514.43	29993.97
514.60	29738.85
514.77	29965.88
514.95	30216.32
515.12	29841.83
515.29	29998.65
515.47	29869.92
515.64	30284.19
515.81	30225.68
515.99	30771.02
516.16	30768.68
516.33	30532.29
516.51	30504.20
516.68	30511.22
516.85	30478.46
517.03	30759.32
517.20	31021.46
517.37	30611.87
517.54	30843.58
517.72	31281.26
517.89	30946.56
518.06	31358.50
518.24	31068.27
518.41	31197.00
518.58	31353.82
518.75	31164.23
518.93	31412.33
519.10	31704.90
519.27	31620.64
519.45	31494.25
519.62	31817.24
519.79	31814.90
519.96	31960.02
520.14	31814.90
520.31	31417.01
520.48	31859.37
520.65	32627.07
520.83	32435.14
521.00	32444.51
521.17	32446.85
521.34	32198.75
521.52	32587.28
521.69	32648.13
521.86	32669.20
522.03	32659.84
522.20	33039.00
522.38	33350.29
522.55	33394.76
522.72	32849.42
522.89	33642.86
523.07	33486.04
523.24	33319.87
523.41	33036.66
523.58	33392.42
523.75	33479.02
523.92	33654.56
524.10	33830.10
524.27	34003.30
524.44	33734.14
524.61	34101.61
524.78	33521.15
524.96	33881.60
525.13	34501.84
525.30	33947.13
525.47	34064.16
525.64	34345.02
525.81	33993.94
525.98	34363.75
526.16	34089.90
526.33	34745.25
526.50	34527.58
526.67	34326.30
526.84	34387.15
527.01	34831.85
527.18	34771.00
527.36	34693.76
527.53	34979.31
527.70	35456.78
527.87	35309.32
528.04	35110.38
528.21	35161.87
528.38	35124.42
528.55	34871.64
528.72	35037.82
528.89	35211.02
529.07	35201.66
529.24	34911.43
529.41	35861.69
529.58	35604.23
529.75	35508.27
529.92	35328.05
530.09	35501.25
530.26	35580.82
530.43	35725.94
530.60	35791.47
530.77	35763.39
530.94	36446.82
531.11	35239.11
531.28	36236.17
531.46	35821.90
531.63	36257.24
531.80	36254.90
531.97	36467.89
532.14	36453.84
532.31	36072.34
532.48	36589.59
532.65	36584.91
532.82	36177.66
532.99	36395.33
533.16	36662.15
533.33	36800.24
533.50	36992.17
533.67	36540.44
533.84	36650.45
534.01	36818.97
534.18	37074.09
534.35	37713.05
534.52	37092.81
534.69	37027.28
534.86	37191.11
535.03	37221.54
535.20	37123.24
535.37	37317.50
535.54	37291.76
535.71	37390.06
535.88	37270.69
536.05	37399.42
536.22	37603.05
536.38	37682.62
536.55	37219.20
536.72	37565.60
536.89	37589.00
537.06	37652.20
537.23	37998.60
537.40	37720.07
537.57	37720.07
537.74	37401.76
537.91	38316.91
538.08	38206.90
538.25	37841.78
538.42	38036.05
538.59	38354.36
538.75	38337.98
538.92	38550.96
539.09	38480.75
539.26	38335.63
539.43	38096.90
539.60	38422.23
539.77	38478.41
539.94	38328.61
540.11	38721.82
540.28	38433.94
540.44	38866.94
540.61	38522.88
540.78	38614.16
540.95	38527.56
541.12	38508.83
541.29	38696.08
541.46	38534.58
541.62	38600.12
541.79	39241.42
541.96	38405.85
542.13	38906.73
542.30	39257.81
542.47	39056.52
542.63	39431.01
542.80	39304.62
542.97	39896.77
543.14	39407.60
543.31	39393.56
543.48	39253.12
543.64	39966.99
543.81	39351.43
543.98	39660.38
544.15	39782.09
544.32	39882.73
544.48	40261.90
544.65	39667.40
544.82	40257.21
544.99	39746.98
545.16	40065.29
545.32	40018.48
545.49	40322.75
545.66	40418.71
545.83	40304.02
546.00	40643.40
546.16	40414.03
546.33	40093.38
546.50	40002.10
546.67	40425.73
546.83	40121.46
547.00	40198.70
547.17	40388.28
547.34	40596.59
547.50	40360.20
547.67	40816.60
547.84	40786.18
548.00	40589.57
548.17	40978.10
548.34	41106.83
548.51	41336.20
548.67	40612.98
548.84	40739.36
549.01	41106.83
549.18	40751.07
549.34	40891.50
549.51	41148.96
549.68	41146.62
549.84	41057.68
550.01	41280.03
550.18	40603.61
550.34	40917.25
550.51	41731.75
550.68	41940.06
550.84	41003.85
551.01	41504.72
551.18	41228.54
551.34	41420.46
551.51	41656.85
551.68	41469.61
551.84	41132.57
552.01	41493.02
552.18	41223.86
552.34	41280.03
552.51	41558.55
552.68	41446.21
552.84	41801.97
553.01	42010.28
553.18	41443.87
553.34	41998.57
553.51	41970.49
553.67	42117.94
553.84	42478.38
554.01	41886.23
554.17	41731.75
554.34	42234.97
554.51	42412.85
554.67	42309.86
554.84	42354.33
555.00	42181.13
555.17	42443.27
555.33	42131.98
555.50	42202.20
555.67	42335.61
555.83	42721.80
556.00	42171.77
556.16	42972.24
556.33	42536.90
556.50	42246.67
556.66	42396.46
556.83	42291.14
556.99	42777.97
557.16	42630.52
557.32	42628.18
557.49	42986.28
557.65	42660.94
557.82	42859.89
557.98	43070.54
558.15	42614.13
558.32	42820.10
558.48	42759.25
558.65	43084.58
558.81	43030.75
558.98	42777.97
559.14	42429.23
559.31	43428.64
559.47	42672.65
559.64	43005.00
559.80	42937.13
559.97	42918.40
560.13	42454.98
560.30	43129.05
560.46	43199.27
560.63	43370.13
560.79	43288.21
560.96	43482.47
561.12	43489.49
561.29	43168.84
561.45	43475.45
561.61	43145.44
561.78	43391.19
561.94	43203.95
562.11	43449.70
562.27	43653.33
562.44	43117.35
562.60	43552.69
562.77	43805.47
562.93	43243.74
563.10	43941.22
563.26	43543.33
563.42	44039.52
563.59	43564.39
563.75	43480.13
563.92	43491.83
564.08	43456.73
564.24	43529.28
564.41	43491.83
564.57	44053.56
564.74	43859.30
564.90	43328.00
565.07	43751.63
565.23	43805.47
565.39	43285.87
565.56	43559.71
565.72	44114.42
565.88	43571.41
566.05	44107.40
566.21	44149.53
566.38	44179.95
566.54	43728.23
566.70	43714.19
566.87	44252.51
567.03	43667.37
567.19	43758.66
567.36	44046.54
567.52	43543.33
567.68	44648.06
567.85	44224.42
568.01	44243.15
568.17	43887.39
568.34	44154.21
568.50	43803.13
568.66	44069.95
568.83	43887.39
568.99	44210.38
569.15	44444.43
569.32	43908.45
569.48	43777.38
569.64	44287.62
569.81	44163.57
569.97	44708.91
570.13	44140.16
570.30	44219.74
570.46	44229.10
570.62	44481.88
570.78	44147.18
570.95	44261.87
571.11	44643.38
571.27	44259.53
571.43	43786.74
571.60	44294.64
571.76	44308.68
571.92	44306.34
572.09	44273.57
572.25	44402.30
572.41	43992.71
572.57	44065.27
572.74	44727.64
572.90	44435.07
573.06	44430.39
573.22	44336.77
573.38	44748.70
573.55	44648.06
573.71	44816.58
573.87	44669.12
574.03	44479.54
574.20	44598.91
574.36	44327.41
574.52	44774.45
574.68	44650.40
574.84	44760.40
575.01	44657.42
575.17	44776.79
575.33	44746.36
575.49	44311.02
575.65	44566.14
575.82	44350.81
575.98	44694.87
576.14	44957.01
576.30	45413.41
576.46	44961.69
576.62	44711.25
576.79	44905.52
576.95	44128.46
577.11	44538.05
577.27	44472.52
577.43	44701.89
577.59	44987.44
577.75	44612.95
577.92	44414.01
578.08	44680.83
578.24	44652.74
578.40	44811.90
578.56	44825.94
578.72	44463.16
578.88	44619.97
579.04	45162.98
579.21	44526.35
579.37	44673.81
579.53	44896.16
579.69	44236.12
579.85	44776.79
580.01	45001.48
580.17	44760.40
580.33	45057.65
580.49	44795.51
580.65	44650.40
580.82	44350.81
580.98	44842.32
581.14	44383.58
581.30	44830.62
581.46	44807.22
581.62	44612.95
581.78	44144.84
581.94	45116.17
582.10	44954.67
582.26	45097.44
582.42	44921.90
582.58	45064.67
582.74	45029.57
582.90	44772.11
583.06	44975.73
583.22	44851.69
583.38	45020.20
583.54	45139.57
583.70	44758.06
583.86	45055.31
584.02	44715.93
584.18	44776.79
584.34	44861.05
584.50	45106.80
584.66	45092.76
584.82	44978.07
584.98	45413.41
585.14	45284.68
585.30	44830.62
585.46	44978.07
585.62	44882.11
585.78	45081.06
585.94	44634.02
586.10	44781.47
586.26	44828.28
586.42	44809.56
586.58	44708.91
586.74	45034.25
586.90	45174.68
587.06	44947.65
587.22	45261.28
587.38	45130.21
587.54	45062.33
587.70	45478.95
587.86	45020.20
588.02	44786.15
588.18	45034.25
588.34	45303.41
588.49	44744.02
588.65	45373.63
588.81	45055.31
588.97	45151.27
589.13	45331.50
589.29	45223.83
589.45	45315.11
589.61	45532.78
589.77	45240.21
589.93	44896.16
590.08	45221.49
590.24	45546.82
