SpectraSuite Data File
++++++++++++++++++++++++++++++++++++
Date: Fri Oct 25 11:34:21 EDT 2013
User: price-jones
Dark Spectrum Present: No
Reference Spectrum Present: No
Number of Sampled Component Spectra: 1
Spectrometers: USB2+H05261
Integration Time (usec): 100000 (USB2+H05261)
Spectra Averaged: 1 (USB2+H05261)
Boxcar Smoothing: 0 (USB2+H05261)
Correct for Electrical Dark: No (USB2+H05261)
Strobe/Lamp Enabled: No (USB2+H05261)
Correct for Detector Non-linearity: No (USB2+H05261)
Correct for Stray Light: No (USB2+H05261)
Number of Pixels in Processed Spectrum: 2048
>>>>>Begin Processed Spectral Data<<<<<
365.73	252.78
365.92	252.78
366.12	252.78
366.32	257.46
366.52	180.22
366.72	173.20
366.91	217.67
367.11	187.24
367.31	173.20
367.51	168.52
367.70	133.41
367.90	159.16
368.10	220.01
368.30	156.82
368.49	159.16
368.69	257.46
368.89	210.65
369.09	140.43
369.28	175.54
369.48	252.78
369.68	198.95
369.87	252.78
370.07	271.50
370.27	285.55
370.47	330.02
370.66	510.24
370.86	477.47
371.06	566.41
371.25	594.50
371.45	521.94
371.65	540.66
371.84	603.86
372.04	580.45
372.24	564.07
372.44	585.13
372.63	585.13
372.83	573.43
373.03	557.05
373.22	610.88
373.42	624.92
373.62	629.60
373.81	568.75
374.01	622.58
374.21	678.76
374.40	622.58
374.60	695.14
374.79	638.97
374.99	596.84
375.19	580.45
375.38	678.76
375.58	674.07
375.78	671.73
375.97	662.37
376.17	737.27
376.37	692.80
376.56	681.10
376.76	718.54
376.95	629.60
377.15	624.92
377.35	723.23
377.54	674.07
377.74	713.86
377.93	678.76
378.13	711.52
378.33	657.69
378.52	643.65
378.72	704.50
378.91	660.03
379.11	657.69
379.31	720.88
379.50	685.78
379.70	718.54
379.89	711.52
380.09	638.97
380.28	676.41
380.48	709.18
380.68	655.35
380.87	744.29
381.07	828.55
381.26	723.23
381.46	688.12
381.65	746.63
381.85	692.80
382.04	730.25
382.24	765.36
382.43	758.33
382.63	833.23
382.83	800.46
383.02	746.63
383.22	760.67
383.41	833.23
383.61	725.57
383.80	863.66
384.00	784.08
384.19	851.96
384.39	802.80
384.58	835.57
384.78	812.17
384.97	833.23
385.17	791.10
385.36	814.51
385.56	837.91
385.75	767.70
385.95	720.88
386.14	854.30
386.34	763.01
386.53	851.96
386.72	828.55
386.92	903.45
387.11	861.32
387.31	943.24
387.50	924.51
387.70	880.04
387.89	863.66
388.09	861.32
388.28	849.61
388.48	856.64
388.67	919.83
388.86	957.28
389.06	858.98
389.25	917.49
389.45	980.68
389.64	854.30
389.84	961.96
390.03	945.58
390.22	987.71
390.42	957.28
390.61	926.85
390.81	943.24
391.00	903.45
391.19	1004.09
391.39	1011.11
391.58	990.05
391.78	1062.60
391.97	1036.86
392.16	952.60
392.36	1041.54
392.55	1064.94
392.75	1050.90
392.94	1029.84
393.13	987.71
393.33	1036.86
393.52	1032.18
393.71	1001.75
393.91	1011.11
394.10	1053.24
394.29	1008.77
394.49	1132.82
394.68	1071.97
394.88	1118.78
395.07	1167.93
395.26	1123.46
395.46	1081.33
395.65	1170.27
395.84	1151.54
396.04	1242.82
396.23	1181.97
396.42	1057.92
396.62	1179.63
396.81	1149.20
397.00	1179.63
397.19	1212.40
397.39	1165.59
397.58	1188.99
397.77	1174.95
397.97	1273.25
398.16	1186.65
398.35	1275.59
398.55	1275.59
398.74	1226.44
398.93	1291.98
399.12	1268.57
399.32	1240.48
399.51	1268.57
399.70	1329.42
399.90	1291.98
400.09	1303.68
400.28	1315.38
400.47	1327.08
400.67	1451.13
400.86	1406.66
401.05	1224.10
401.24	1366.87
401.44	1418.36
401.63	1373.89
401.82	1472.20
402.01	1380.92
402.21	1425.39
402.40	1366.87
402.59	1444.11
402.78	1394.96
402.97	1441.77
403.17	1469.86
403.36	1479.22
403.55	1533.05
403.74	1582.20
403.93	1535.39
404.13	1593.90
404.32	1462.83
404.51	1661.78
404.70	1589.22
404.89	1624.33
405.09	1638.38
405.28	1638.38
405.47	1561.14
405.66	1556.46
405.85	1629.01
406.05	1605.61
406.24	1703.91
406.43	1675.82
406.62	1701.57
406.81	1874.77
407.00	1743.70
407.20	1706.25
407.39	1795.19
407.58	1699.23
407.77	1802.21
407.96	1816.26
408.15	1902.86
408.34	1809.23
408.54	1816.26
408.73	1816.26
408.92	1851.36
409.11	1879.45
409.30	1977.75
409.49	1919.24
409.68	1996.48
409.87	1891.15
410.07	1966.05
410.26	2122.87
410.45	1977.75
410.64	2022.22
410.83	2113.50
411.02	2099.46
411.21	2139.25
411.40	2097.12
411.59	2134.57
411.78	2024.56
411.98	2160.31
412.17	2125.21
412.36	2097.12
412.55	2190.74
412.74	2300.75
412.93	2265.64
413.12	2188.40
413.31	2321.81
413.50	2347.56
413.69	2298.41
413.88	2429.48
414.07	2452.88
414.26	2352.24
414.45	2502.03
414.64	2462.24
414.83	2434.16
415.02	2612.04
415.22	2581.61
415.41	2553.52
415.60	2553.52
415.79	2658.85
415.98	2684.59
416.17	2649.49
416.36	2672.89
416.55	2647.15
416.74	2675.23
416.93	2684.59
417.12	2787.58
417.31	2862.48
417.50	2890.56
417.69	2787.58
417.88	2799.28
418.07	2740.77
418.26	2878.86
418.45	2918.65
418.64	2984.18
418.83	2965.46
419.02	2979.50
419.21	2916.31
419.39	2967.80
419.58	2867.16
419.77	3054.40
419.96	3077.80
420.15	3070.78
420.34	2963.12
420.53	2960.78
420.72	3178.45
420.91	3145.68
421.10	3119.93
421.29	3138.66
421.48	3143.34
421.67	3152.70
421.86	3141.00
422.05	3157.38
422.24	3283.77
422.43	3295.47
422.61	3211.22
422.80	3332.92
422.99	3197.17
423.18	3377.39
423.37	3438.25
423.56	3361.01
423.75	3206.53
423.94	3262.71
424.13	3152.70
424.32	3000.57
424.50	3304.84
424.69	3332.92
424.88	3344.63
425.07	3258.03
425.26	3236.96
425.45	3332.92
425.64	3400.80
425.83	3272.07
426.01	3361.01
426.20	3442.93
426.39	3407.82
426.58	3412.50
426.77	3332.92
426.96	3386.76
427.15	3363.35
427.33	3552.93
427.52	3396.12
427.71	3452.29
427.90	3447.61
428.09	3616.13
428.28	3571.66
428.46	3527.19
428.65	3426.54
428.84	3620.81
429.03	3733.15
429.22	3496.76
429.40	3459.31
429.59	3585.70
429.78	3531.87
429.97	3520.17
430.16	3667.62
430.34	3896.99
430.53	3812.73
430.72	3763.58
430.91	3777.62
431.10	3763.58
431.28	3838.48
431.47	3885.29
431.66	3880.61
431.85	3822.09
432.03	3836.14
432.22	3971.89
432.41	3824.44
432.60	3829.12
432.79	3946.14
432.97	3997.64
433.16	4065.51
433.35	3901.67
433.54	3997.64
433.72	4285.52
433.91	4021.04
434.10	4051.47
434.28	4070.19
434.47	4014.02
434.66	4189.56
434.85	4203.60
435.03	4102.96
435.22	4278.50
435.41	4306.59
435.59	4238.71
435.78	4374.46
435.97	4304.25
436.16	4393.19
436.34	4189.56
436.53	4278.50
436.72	4395.53
436.90	4285.52
437.09	4198.92
437.28	4252.75
437.46	4241.05
437.65	4280.84
437.84	4395.53
438.02	4550.00
438.21	4477.44
438.40	4397.87
438.58	4521.92
438.77	4519.57
438.96	4582.77
439.14	4758.31
439.33	4793.42
439.52	4730.22
439.70	4819.16
439.89	4919.81
440.08	4863.63
440.26	4814.48
440.45	4835.55
440.63	4840.23
440.82	4877.68
441.01	4779.37
441.19	5020.45
441.38	5025.13
441.57	4983.00
441.75	5128.11
441.94	5212.37
442.12	5193.65
442.31	5266.21
442.50	5238.12
442.68	5172.58
442.87	5207.69
443.05	5336.42
443.24	5224.08
443.43	5406.64
443.61	5317.70
443.80	5516.64
443.98	5343.44
444.17	5287.27
444.35	5341.10
444.54	5535.37
444.73	5497.92
444.91	5369.19
445.10	5420.68
445.28	5399.62
445.47	5362.17
445.65	5348.12
445.84	5607.92
446.02	5500.26
446.21	5439.40
446.39	5540.05
446.58	5582.18
446.77	5633.67
446.95	5518.98
447.14	5455.79
447.32	5497.92
447.51	5675.80
447.69	5533.03
447.88	5619.63
448.06	5390.25
448.25	5652.39
448.43	5540.05
448.62	5582.18
448.80	5659.42
448.99	5710.91
449.17	5675.80
449.36	5561.11
449.54	5813.89
449.73	5767.08
449.91	5944.96
450.10	5991.77
450.28	5930.92
450.46	5935.60
450.65	5851.34
450.83	5935.60
451.02	5884.11
451.20	5940.28
451.39	6036.24
451.57	5865.38
451.76	5762.40
451.94	5926.24
452.13	6122.84
452.31	6101.78
452.49	6047.94
452.68	6127.52
452.86	6022.20
453.05	6153.27
453.23	6174.33
453.42	6246.89
453.60	6031.56
453.78	6176.67
453.97	6148.59
454.15	6211.78
454.34	6064.33
454.52	6258.59
454.70	6279.66
454.89	6291.36
455.07	6272.64
455.26	6382.64
455.44	6537.12
455.62	6424.77
455.81	6321.79
455.99	6530.09
456.17	6483.28
456.36	6630.74
456.54	6604.99
456.73	6361.58
456.91	6825.00
457.09	6899.90
457.28	6747.76
457.46	6750.10
457.64	6794.58
457.83	6846.07
458.01	6740.74
458.19	7061.40
458.38	6846.07
458.56	7087.14
458.74	6932.67
458.93	6918.62
459.11	7082.46
459.29	7021.61
459.48	6984.16
459.66	6988.84
459.84	6970.12
460.03	7077.78
460.21	7166.72
460.39	7009.90
460.57	7052.03
460.76	7110.55
460.94	7382.05
461.12	7274.38
461.31	7255.66
461.49	7194.81
461.67	7173.74
461.85	7215.87
462.04	7386.73
462.22	7779.94
462.40	7515.46
462.59	7550.57
462.77	7494.40
462.95	7440.56
463.13	7527.16
463.32	7564.61
463.50	7531.84
463.68	7527.16
463.86	7520.14
464.05	7470.99
464.23	7653.55
464.41	7686.32
464.59	7412.48
464.78	7726.11
464.96	7625.47
465.14	7665.25
465.32	7707.38
465.50	7742.49
465.69	7796.32
465.87	7889.95
466.05	7824.41
466.23	7946.12
466.41	7786.96
466.60	7957.82
466.78	7906.33
466.96	7815.05
467.14	7852.50
467.32	8042.08
467.51	8004.63
467.69	7871.22
467.87	8067.83
468.05	8051.44
468.23	7852.50
468.41	7953.14
468.60	8138.04
468.78	8325.29
468.96	8086.55
469.14	8234.00
469.32	8276.13
469.50	8112.30
469.69	8437.63
469.87	8215.28
470.05	8486.78
470.23	8292.52
470.41	8346.35
470.59	8519.55
470.77	8617.85
470.95	8526.57
471.14	8566.36
471.32	8222.30
471.50	8755.94
471.68	8751.26
471.86	8755.94
472.04	8945.53
472.22	8898.72
472.40	8699.77
472.58	8844.88
472.77	9011.06
472.95	9015.74
473.13	9359.80
473.31	9064.89
473.49	9025.11
473.67	9034.47
473.85	9053.19
474.03	9181.92
474.21	9458.10
474.39	9259.16
474.57	9453.42
474.75	9516.62
474.93	9521.30
475.12	9678.12
475.30	9778.76
475.48	9682.80
475.66	9750.67
475.84	9753.01
476.02	9851.31
476.20	9661.73
476.38	9902.81
476.56	10153.24
476.74	10200.05
476.92	9996.43
477.10	9987.07
477.28	10324.10
477.46	10352.19
477.64	10628.37
477.82	10553.48
478.00	10616.67
478.18	10651.78
478.36	10937.32
478.54	10942.00
478.72	10860.09
478.90	11030.94
479.08	11049.67
479.26	11103.50
479.44	11300.11
479.62	11265.00
479.80	11225.21
479.98	11573.95
480.16	11726.08
480.34	11611.40
480.52	11805.66
480.70	11747.15
480.88	11854.81
481.06	12020.99
481.24	11969.50
481.41	12072.48
481.59	12297.17
481.77	12444.63
481.95	12299.52
482.13	12652.94
482.31	12418.88
482.49	13039.12
482.67	12826.14
482.85	12924.44
483.03	13060.19
483.21	13174.88
483.39	13420.63
483.57	13191.26
483.74	13600.85
483.92	13493.19
484.10	13273.18
484.28	13652.34
484.46	13816.18
484.64	14153.22
484.82	13694.47
485.00	14185.99
485.18	13900.44
485.35	14366.21
485.53	14288.97
485.71	14441.11
485.89	15005.17
486.07	14665.80
486.25	14920.92
486.43	14864.74
486.61	15089.43
486.78	14890.49
486.96	15059.01
487.14	15484.98
487.32	15674.57
487.50	15868.83
487.68	15800.96
487.85	16027.99
488.03	16053.73
488.21	16236.30
488.39	16116.93
488.57	16458.65
488.75	16575.67
488.92	16849.52
489.10	17078.89
489.28	17081.23
489.46	16835.47
489.64	16950.16
489.81	17455.72
489.99	17504.87
490.17	17542.32
490.35	17769.35
490.53	17687.43
490.70	17792.75
490.88	17916.80
491.06	18127.45
491.24	18115.75
491.41	18403.63
491.59	18352.14
491.77	18401.29
491.95	18630.66
492.13	18586.19
492.30	18974.72
492.48	18902.17
492.66	18831.95
492.84	19220.48
493.01	19417.08
493.19	19192.39
493.37	19494.32
493.54	19447.51
493.72	19974.13
493.90	19709.65
494.08	19988.18
494.25	20343.94
494.43	20355.64
494.61	20376.70
494.79	20423.51
494.96	20484.37
495.14	20467.98
495.32	20650.55
495.49	20781.62
495.67	20828.43
495.85	21326.96
496.02	20833.11
496.20	21432.29
496.38	21193.55
496.55	21668.68
496.73	22171.89
496.91	21804.43
497.09	21865.28
497.26	22501.91
497.44	22104.02
497.62	22085.30
497.79	22382.54
497.97	22122.74
498.14	22586.17
498.32	22925.55
498.50	22869.37
498.67	23192.37
498.85	23103.43
499.03	23227.48
499.20	23384.29
499.38	23267.27
499.56	23255.56
499.73	23571.54
499.91	23625.37
500.08	23779.84
500.26	23590.26
500.44	23557.49
500.61	23616.01
500.79	23751.76
500.97	24301.78
501.14	24287.74
501.32	24500.73
501.49	24290.08
501.67	23948.36
501.84	24603.71
502.02	24662.22
502.20	24549.88
502.37	24608.39
502.55	24989.90
502.72	24903.30
502.90	25043.73
503.07	24741.80
503.25	25298.85
503.43	24959.47
503.60	25296.51
503.78	25221.61
503.95	25472.05
504.13	25408.86
504.30	25530.56
504.48	25687.38
504.65	25947.18
504.83	25998.67
505.01	25748.23
505.18	25888.67
505.36	26176.55
505.53	26218.68
505.71	26085.27
505.88	26031.44
506.06	26265.49
506.23	26349.75
506.41	26359.11
506.58	26782.75
506.76	26820.20
506.93	26696.15
507.11	27122.13
507.28	26878.71
507.46	26965.31
507.63	27234.47
507.81	27447.46
507.98	27398.31
508.16	27391.29
508.33	27990.47
508.50	27627.68
508.68	27655.77
508.85	27742.37
509.03	27861.74
509.20	27854.72
509.38	28144.94
509.55	28063.02
509.73	28252.61
509.90	28030.26
510.08	28147.28
510.25	28283.03
510.42	28481.98
510.60	28699.65
510.77	28510.07
510.95	29310.53
511.12	28739.44
511.30	29013.28
511.47	28924.34
511.64	28889.23
511.82	29156.05
511.99	28863.49
512.17	29422.87
512.34	29116.26
512.51	29450.96
512.69	29628.84
512.86	29467.34
513.04	29895.66
513.21	29614.80
513.38	30075.88
513.56	30057.16
513.73	29890.98
513.90	29598.41
514.08	29762.25
514.25	30284.19
514.43	30174.19
514.60	30569.74
514.77	30307.60
514.95	30291.21
515.12	30539.31
515.29	30518.25
515.47	30483.14
515.64	30672.72
515.81	30424.62
515.99	30974.65
516.16	31531.70
516.33	30967.63
516.51	31578.51
516.68	30822.51
516.85	31309.35
517.03	31466.16
517.20	31517.65
517.37	31353.82
517.54	31192.32
517.72	31702.56
517.89	31630.00
518.06	31812.56
518.24	31798.52
518.41	31194.66
518.58	31747.03
518.75	31613.62
518.93	32154.28
519.10	32177.68
519.27	32266.63
519.45	32140.24
519.62	32294.71
519.79	32180.03
519.96	32374.29
520.14	32608.34
520.31	32371.95
520.48	32793.25
520.65	32636.43
520.83	33209.86
521.00	33017.94
521.17	32910.27
521.34	33207.52
521.52	33378.38
521.69	33312.84
521.86	33209.86
522.03	33450.94
522.20	33933.09
522.38	33752.87
522.55	33736.48
522.72	33549.24
522.89	33488.38
523.07	34026.71
523.24	34174.16
523.41	33855.85
523.58	33668.61
523.75	34309.91
523.92	34068.84
524.10	34078.20
524.27	34068.84
524.44	34595.46
524.61	34059.48
524.78	34199.91
524.96	34600.14
525.13	34314.59
525.30	34829.51
525.47	35040.16
525.64	34436.30
525.81	35072.93
525.98	34967.60
526.16	34831.85
526.33	35014.41
526.50	35122.08
526.67	34845.90
526.84	35316.34
527.01	35009.73
527.18	34946.54
527.36	35491.88
527.53	35667.42
527.70	35716.58
527.87	35618.27
528.04	35599.55
528.21	35576.14
528.38	35496.56
528.55	36058.29
528.72	35634.66
528.89	35323.36
529.07	35732.96
529.24	35395.92
529.41	36374.27
529.58	35941.27
529.75	35840.62
529.92	36217.45
530.09	36332.14
530.26	36374.27
530.43	36037.23
530.60	36222.13
530.77	36294.69
530.94	36268.94
531.11	36301.71
531.28	36421.08
531.46	36575.55
531.63	36596.62
531.80	37069.40
531.97	36570.87
532.14	36727.69
532.31	36463.21
532.48	37212.18
532.65	36781.52
532.82	36882.16
532.99	37071.75
533.16	36842.37
533.33	37095.15
533.50	37610.07
533.67	37102.17
533.84	37111.53
534.01	37326.86
534.18	37387.72
534.35	37710.71
534.52	37923.70
534.69	37469.64
534.86	37820.72
535.03	37977.53
535.20	38328.61
535.37	37626.45
535.54	38080.52
535.71	37687.31
535.88	38237.33
536.05	37794.97
536.22	38211.59
536.38	37907.32
536.55	38139.03
536.72	37825.40
536.89	38040.73
537.06	38391.81
537.23	38436.28
537.40	38169.46
537.57	38211.59
537.74	38361.38
537.91	38277.12
538.08	38258.40
538.25	37825.40
538.42	38637.56
538.59	38906.73
538.75	38359.04
538.92	39112.69
539.09	39005.03
539.26	39349.09
539.43	38742.89
539.60	38747.57
539.77	38300.53
539.94	39253.12
540.11	38958.22
540.28	39044.82
540.44	39082.27
540.61	39285.89
540.78	38831.83
540.95	39222.70
541.12	38944.17
541.29	39604.20
541.46	39138.44
541.62	39370.15
541.79	39756.34
541.96	39466.11
542.13	39281.21
542.30	39683.78
542.47	39985.71
542.63	39718.89
542.80	39894.43
542.97	40282.96
543.14	40142.53
543.31	39826.56
543.48	39964.65
543.64	40119.12
543.81	40341.47
543.98	40814.26
544.15	40568.51
544.32	40287.64
544.48	40711.28
544.65	40432.75
544.82	40699.58
544.99	40165.93
545.16	40563.82
545.32	40151.89
545.49	41029.59
545.66	41375.99
545.83	40900.86
546.00	40961.72
546.16	40872.78
546.33	40971.08
546.50	40767.45
546.67	41116.19
546.83	40928.95
547.00	40657.45
547.17	40828.30
547.34	40973.42
547.50	41296.41
547.67	41631.11
547.84	41263.64
548.00	41284.71
548.17	41298.75
548.34	41184.07
548.51	41722.39
548.67	41572.60
548.84	41614.72
549.01	41624.09
549.18	41825.37
549.34	41881.55
549.51	42075.81
549.68	42174.11
549.84	41675.58
550.01	42000.91
550.18	41514.08
550.34	41790.27
550.51	41883.89
550.68	41841.76
550.84	41951.76
551.01	42227.95
551.18	41759.84
551.34	41911.97
551.51	42052.41
551.68	42274.76
551.84	42405.83
552.01	41876.86
552.18	42227.95
552.34	42260.71
552.51	42059.43
552.68	41989.21
552.84	42487.74
553.01	42742.86
553.18	42483.06
553.34	42756.91
553.51	42576.69
553.67	42480.72
553.84	42726.48
554.01	42639.88
554.17	42724.14
554.34	42831.80
554.51	42941.81
554.67	42986.28
554.84	43278.85
555.00	43075.22
555.17	42501.79
555.33	42799.04
555.50	42897.34
555.67	42707.76
555.83	42721.80
556.00	43023.73
556.16	43299.91
556.33	43416.94
556.50	43253.10
556.66	43042.45
556.83	42939.47
556.99	43501.20
557.16	43185.22
557.32	43508.22
557.49	43618.22
557.65	43159.48
557.82	43330.34
557.98	43398.21
558.15	43297.57
558.32	43945.90
558.48	43335.02
558.65	43625.25
558.81	43613.54
558.98	43400.55
559.14	43496.52
559.31	43533.96
559.47	43515.24
559.64	44076.97
559.80	43562.05
559.97	43536.30
560.13	43157.14
560.30	43438.00
560.46	43805.47
560.63	43679.08
560.79	44112.08
560.96	43845.26
561.12	44034.84
561.29	43758.66
561.45	44285.28
561.61	44182.29
561.78	44107.40
561.94	43482.47
562.11	43995.05
562.27	43721.21
562.44	43768.02
562.60	44301.66
562.77	44318.04
562.93	44020.80
563.10	44746.36
563.26	43625.25
563.42	44624.65
563.59	43971.64
563.75	43765.68
563.92	43629.93
564.08	44102.71
564.24	44304.00
564.41	44416.35
564.57	44306.34
564.74	44198.68
564.90	44018.46
565.07	44390.60
565.23	44655.08
565.39	44470.18
565.56	44725.30
565.72	44280.60
565.88	44275.91
566.05	44477.20
566.21	44463.16
566.38	44411.67
566.54	44552.10
566.70	44556.78
566.87	44631.68
567.03	44486.56
567.19	44692.53
567.36	44292.30
567.52	44694.87
567.68	44755.72
567.85	44629.34
568.01	44893.82
568.17	44507.63
568.34	44568.48
568.50	44875.09
568.66	44051.22
568.83	44645.72
568.99	44610.61
569.15	44994.46
569.32	45008.50
569.48	44727.64
569.64	45006.16
569.81	44877.43
569.97	44858.71
570.13	45272.98
570.30	44631.68
570.46	44825.94
570.62	45078.72
570.78	44804.88
570.95	44973.39
571.11	45209.79
571.27	44992.12
571.43	44928.92
571.60	45148.93
571.76	44629.34
571.92	44964.03
572.09	44687.85
572.25	45006.16
572.41	44790.83
572.57	44987.44
572.74	45457.88
572.90	44940.63
573.06	45240.21
573.22	45490.65
573.38	45118.51
573.55	45170.00
573.71	45591.30
573.87	45340.86
574.03	44978.07
574.20	44957.01
574.36	45270.64
574.52	45661.51
574.68	45537.46
574.84	44996.80
575.01	45607.68
575.17	45408.73
575.33	45390.01
575.49	45364.26
575.65	45076.38
575.82	45350.22
575.98	44949.99
576.14	45631.08
576.30	45378.31
576.46	45394.69
576.62	45219.15
576.79	45214.47
576.95	45097.44
577.11	45043.61
577.27	45502.35
577.43	45404.05
577.59	45507.04
577.75	44568.48
577.92	45013.18
578.08	44851.69
578.24	45368.94
578.40	45270.64
578.56	45785.56
578.72	45551.51
578.88	45481.29
579.04	45317.45
579.21	45062.33
579.37	45745.77
579.53	45483.63
579.69	45446.18
579.85	45448.52
580.01	45839.39
580.17	45148.93
580.33	45371.28
580.49	45748.11
580.65	45244.90
580.82	45336.18
580.98	45406.39
581.14	45010.84
581.30	45235.53
581.46	44961.69
581.62	45050.63
581.78	45460.23
581.94	45504.70
582.10	45546.82
582.26	45689.60
582.42	45244.90
582.58	45577.25
582.74	45591.30
582.90	45797.26
583.06	45783.22
583.22	45172.34
583.38	45722.37
583.54	45572.57
583.70	45595.98
583.86	45549.17
584.02	45165.32
584.18	45750.45
584.34	45752.79
584.50	45986.85
584.66	45701.30
584.82	45654.49
584.98	46054.72
585.14	45743.43
585.30	45373.63
585.46	45783.22
585.62	45586.61
585.78	45244.90
585.94	45518.74
586.10	45572.57
586.26	45425.12
586.42	45673.21
586.58	45507.04
586.74	45074.04
586.90	45495.33
587.06	45605.34
587.22	45886.20
587.38	45558.53
587.54	45642.79
587.70	45935.35
587.86	45911.95
588.02	45619.38
588.18	45668.53
588.34	45223.83
588.49	45858.12
588.65	45783.22
588.81	45862.80
588.97	45846.41
589.13	45820.67
589.29	46010.25
589.45	45965.78
589.61	46089.83
589.77	45720.02
589.93	45633.42
590.08	45872.16
