SpectraSuite Data File
++++++++++++++++++++++++++++++++++++
Date: Fri Oct 25 11:25:22 EDT 2013
User: price-jones
Dark Spectrum Present: No
Reference Spectrum Present: No
Number of Sampled Component Spectra: 1
Spectrometers: USB2+H05261
Integration Time (usec): 100000 (USB2+H05261)
Spectra Averaged: 1 (USB2+H05261)
Boxcar Smoothing: 0 (USB2+H05261)
Correct for Electrical Dark: No (USB2+H05261)
Strobe/Lamp Enabled: No (USB2+H05261)
Correct for Detector Non-linearity: No (USB2+H05261)
Correct for Stray Light: No (USB2+H05261)
Number of Pixels in Processed Spectrum: 2048
>>>>>Begin Processed Spectral Data<<<<<
365.73	222.35
365.92	222.35
366.12	222.35
366.32	168.52
366.52	121.71
366.72	175.54
366.91	117.03
367.11	152.13
367.31	117.03
367.51	128.73
367.70	126.39
367.90	140.43
368.10	117.03
368.30	138.09
368.49	170.86
368.69	210.65
368.89	161.50
369.09	149.79
369.28	159.16
369.48	210.65
369.68	152.13
369.87	177.88
370.07	224.69
370.27	198.95
370.47	287.89
370.66	631.94
370.86	678.76
371.06	697.48
371.25	662.37
371.45	716.20
371.65	711.52
371.84	699.82
372.04	690.46
372.24	704.50
372.44	648.33
372.63	767.70
372.83	814.51
373.03	781.74
373.22	758.33
373.42	744.29
373.62	821.53
373.81	800.46
374.01	870.68
374.21	812.17
374.40	842.59
374.60	840.25
374.79	777.06
374.99	884.72
375.19	873.02
375.38	851.96
375.58	793.44
375.78	873.02
375.97	823.87
376.17	891.74
376.37	873.02
376.56	877.70
376.76	908.13
376.95	837.91
377.15	847.27
377.35	882.38
377.54	966.64
377.74	835.57
377.93	870.68
378.13	908.13
378.33	936.21
378.52	870.68
378.72	940.90
378.91	945.58
379.11	978.34
379.31	908.13
379.50	945.58
379.70	924.51
379.89	889.40
380.09	905.79
380.28	997.07
380.48	959.62
380.68	985.37
380.87	931.53
381.07	1034.52
381.26	994.73
381.46	1055.58
381.65	1015.79
381.85	1029.84
382.04	1067.28
382.24	1111.75
382.43	1027.50
382.63	1097.71
382.83	1048.56
383.02	1137.50
383.22	1130.48
383.41	1093.03
383.61	1139.84
383.80	1146.86
384.00	1041.54
384.19	1088.35
384.39	1179.63
384.58	1217.08
384.78	1240.48
384.97	1167.93
385.17	1151.54
385.36	1163.25
385.56	1151.54
385.75	1142.18
385.95	1165.59
386.14	1249.85
386.34	1203.04
386.53	1170.27
386.72	1191.33
386.92	1308.36
387.11	1256.87
387.31	1315.38
387.50	1277.93
387.70	1226.44
387.89	1317.72
388.09	1252.19
388.28	1186.65
388.48	1226.44
388.67	1296.66
388.86	1294.32
389.06	1338.79
389.25	1348.15
389.45	1334.11
389.64	1404.32
389.84	1371.55
390.03	1397.30
390.22	1486.24
390.42	1420.71
390.61	1322.40
390.81	1357.51
391.00	1467.52
391.19	1425.39
391.39	1472.20
391.58	1472.20
391.78	1528.37
391.97	1462.83
392.16	1406.66
392.36	1469.86
392.55	1509.65
392.75	1497.94
392.94	1519.01
393.13	1467.52
393.33	1540.07
393.52	1610.29
393.71	1607.95
393.91	1540.07
394.10	1523.69
394.29	1675.82
394.49	1570.50
394.68	1593.90
394.88	1603.27
395.07	1633.69
395.26	1603.27
395.46	1643.06
395.65	1694.55
395.84	1724.97
396.04	1753.06
396.23	1774.13
396.42	1746.04
396.62	1680.50
396.81	1734.34
397.00	1806.89
397.19	1811.57
397.39	1753.06
397.58	1732.00
397.77	1753.06
397.97	1863.07
398.16	1788.17
398.35	1809.23
398.55	1888.81
398.74	1860.73
398.93	1874.77
399.12	1961.37
399.32	1930.94
399.51	1944.99
399.70	1952.01
399.90	1919.24
400.09	1966.05
400.28	2001.16
400.47	2069.03
400.67	2090.10
400.86	2059.67
401.05	2047.97
401.24	2113.50
401.44	2087.76
401.63	1984.77
401.82	2139.25
402.01	2120.53
402.21	2228.19
402.40	2136.91
402.59	2172.02
402.78	2162.66
402.97	2167.34
403.17	2289.04
403.36	2197.76
403.55	2172.02
403.74	2368.62
403.93	2326.49
404.13	2408.41
404.32	2363.94
404.51	2258.62
404.70	2541.82
404.89	2499.69
405.09	2450.54
405.28	2345.22
405.47	2417.77
405.66	2544.16
405.85	2495.01
406.05	2438.84
406.24	2527.78
406.43	2513.74
406.62	2569.91
406.81	2642.46
407.00	2544.16
407.20	2656.51
407.39	2705.66
407.58	2700.98
407.77	2738.43
407.96	2743.11
408.15	2696.30
408.34	2710.34
408.54	2693.96
408.73	2733.75
408.92	2796.94
409.11	2764.17
409.30	2829.71
409.49	2883.54
409.68	2974.82
409.87	2892.90
410.07	3014.61
410.26	2899.92
410.45	3054.40
410.64	2991.20
410.83	2960.78
411.02	3068.44
411.21	3213.56
411.40	3108.23
411.59	3173.77
411.78	3192.49
411.98	3206.53
412.17	3169.09
412.36	3246.32
412.55	3227.60
412.74	3283.77
412.93	3522.51
413.12	3403.14
413.31	3531.87
413.50	3566.98
413.69	3452.29
413.88	3651.24
414.07	3599.74
414.26	3632.51
414.45	3676.98
414.64	3700.39
414.83	3817.41
415.02	3592.72
415.22	3763.58
415.41	3756.56
415.60	3761.24
415.79	3857.20
415.98	3899.33
416.17	3749.54
416.36	4007.00
416.55	3847.84
416.74	4056.15
416.93	3997.64
417.12	4079.55
417.31	4128.70
417.50	4018.70
417.69	4147.43
417.88	4107.64
418.07	4170.83
418.26	4400.21
418.45	4184.88
418.64	4381.48
418.83	4365.10
419.02	4348.72
419.21	4430.63
419.39	4592.13
419.58	4554.68
419.77	4498.51
419.96	4650.64
420.15	4531.28
420.34	4603.83
420.53	4596.81
420.72	4491.49
420.91	4627.24
421.10	4650.64
421.29	4734.90
421.48	4589.79
421.67	4720.86
421.86	4664.69
422.05	4748.95
422.24	4725.54
422.43	4896.40
422.61	4875.34
422.80	4884.70
422.99	4809.80
423.18	4891.72
423.37	4898.74
423.56	4908.10
423.75	4940.87
423.94	4901.08
424.13	4545.32
424.32	4858.95
424.50	4917.47
424.69	5179.61
424.88	4978.32
425.07	4943.21
425.26	4840.23
425.45	4933.85
425.64	4985.34
425.83	4933.85
426.01	5111.73
426.20	4961.94
426.39	5020.45
426.58	4938.53
426.77	4999.38
426.96	5254.50
427.15	5104.71
427.33	5193.65
427.52	5235.78
427.71	5123.43
427.90	5296.63
428.09	5242.80
428.28	5139.82
428.46	5390.25
428.65	5305.99
428.84	5434.72
429.03	5537.71
429.22	5268.55
429.40	5413.66
429.59	5448.77
429.78	5366.85
429.97	5394.93
430.16	5547.07
430.34	5617.29
430.53	5561.11
430.72	5535.37
430.91	5556.43
431.10	5500.26
431.28	5710.91
431.47	5806.87
431.66	5788.14
431.85	5701.54
432.03	5895.81
432.22	5926.24
432.41	5746.02
432.60	5977.73
432.79	6092.41
432.97	6012.84
433.16	6010.50
433.35	5987.09
433.54	5970.71
433.72	6174.33
433.91	6040.92
434.10	6076.03
434.28	6038.58
434.47	6218.80
434.66	6141.57
434.85	6296.04
435.03	6396.68
435.22	6249.23
435.41	6471.58
435.59	6539.46
435.78	6363.92
435.97	6469.24
436.16	6478.60
436.34	6504.35
436.53	6579.25
436.72	6661.16
436.90	6523.07
437.09	6546.48
437.28	6544.14
437.46	6689.25
437.65	6569.88
437.84	6789.89
438.02	6705.63
438.21	6649.46
438.40	6668.19
438.58	6958.41
438.77	7047.35
438.96	6832.02
439.14	6918.62
439.33	7136.29
439.52	7119.91
439.70	7049.69
439.89	7204.17
440.08	7178.42
440.26	7281.41
440.45	7382.05
440.63	7368.01
440.82	7538.87
441.01	7412.48
441.19	7478.01
441.38	7590.36
441.57	7688.66
441.75	7707.38
441.94	7960.16
442.12	7801.01
442.31	7999.95
442.50	7962.50
442.68	8049.10
442.87	8035.06
443.05	7868.88
443.24	8212.94
443.43	7896.97
443.61	8184.85
443.80	8435.29
443.98	8107.62
444.17	7894.63
444.35	8229.32
444.54	8135.70
444.73	8320.60
444.91	8322.94
445.10	8236.35
445.28	8344.01
445.47	8131.02
445.65	8313.58
445.84	8285.50
446.02	8458.70
446.21	8456.36
446.39	8425.93
446.58	8397.84
446.77	8341.67
446.95	8271.45
447.14	8475.08
447.32	8425.93
447.51	8514.87
447.69	8353.37
447.88	8339.33
448.06	8540.61
448.25	8601.47
448.43	8444.65
448.62	8659.98
448.80	8383.80
448.99	8716.16
449.17	8762.97
449.36	8681.05
449.54	8592.11
449.73	8805.10
449.91	9107.02
450.10	8982.98
450.28	8959.57
450.46	9022.77
450.65	9100.00
450.83	8980.64
451.02	9156.18
451.20	9174.90
451.39	8936.17
451.57	9142.13
451.76	9083.62
451.94	8931.48
452.13	9107.02
452.31	9219.37
452.49	8940.85
452.68	9362.14
452.86	9497.89
453.05	9359.80
453.23	9310.65
453.42	9357.46
453.60	9343.42
453.78	9240.44
453.97	9434.70
454.15	9558.75
454.34	9488.53
454.52	9570.45
454.70	9809.19
454.89	9652.37
455.07	9715.56
455.26	9783.44
455.44	9895.78
455.62	9841.95
455.81	10012.81
455.99	10001.11
456.17	9968.34
456.36	10057.28
456.54	10085.37
456.73	10162.61
456.91	10279.63
457.09	10249.21
457.28	10544.11
457.46	10291.34
457.64	10328.78
457.83	10434.11
458.01	10202.40
458.19	10593.26
458.38	10494.96
458.56	10764.12
458.74	10494.96
458.93	10623.69
459.11	10635.39
459.29	10712.63
459.48	10558.16
459.66	10743.06
459.84	10843.70
460.03	10913.92
460.21	10984.13
460.39	10890.51
460.57	10944.34
460.76	10942.00
460.94	10993.50
461.12	10991.16
461.31	11026.26
461.49	10878.81
461.67	11157.33
461.85	11405.43
462.04	11269.68
462.22	11899.28
462.40	11426.50
462.59	11496.71
462.77	11330.53
462.95	11609.06
463.13	11555.22
463.32	11627.78
463.50	11709.70
463.68	11541.18
463.86	11573.95
464.05	11346.92
464.23	11908.65
464.41	11625.44
464.59	11686.29
464.78	12107.59
464.96	11990.56
465.14	11988.22
465.32	12093.55
465.50	11927.37
465.69	12025.67
465.87	12208.23
466.05	12088.87
466.23	11885.24
466.41	11992.90
466.60	12383.77
466.78	12065.46
466.96	12243.34
467.14	12306.54
467.32	12388.46
467.51	12461.01
467.69	11712.04
467.87	12219.94
468.05	12348.67
468.23	12482.08
468.41	12486.76
468.60	12477.40
468.78	12638.89
468.96	12496.12
469.14	12812.09
469.32	12791.03
469.50	12453.99
469.69	12922.10
469.87	12868.27
470.05	12964.23
470.23	13130.41
470.41	13266.16
470.59	13137.43
470.77	13095.30
470.95	13083.59
471.14	13462.76
471.32	13153.81
471.50	13488.51
471.68	13551.70
471.86	13596.17
472.04	13678.09
472.22	13935.55
472.40	13614.90
472.58	13673.41
472.77	13703.84
472.95	14045.55
473.13	14497.28
473.31	14195.35
473.49	14120.45
473.67	14029.17
473.85	14190.67
474.03	14513.66
474.21	14658.78
474.39	15019.22
474.57	14696.22
474.75	14839.00
474.93	14855.38
475.12	15047.30
475.30	14820.27
475.48	14860.06
475.66	15068.37
475.84	14981.77
476.02	15201.78
476.20	15332.85
476.38	15426.47
476.56	15817.34
476.74	15838.41
476.92	15833.72
477.10	15580.95
477.28	16128.63
477.46	16252.68
477.64	16166.08
477.82	16402.47
478.00	16849.52
478.18	16404.81
478.36	16940.80
478.54	16952.50
478.72	17106.98
478.90	17231.02
479.08	17383.16
479.26	17432.31
479.44	17617.21
479.62	17891.06
479.80	17743.60
479.98	18005.74
480.16	18429.38
480.34	18377.89
480.52	18328.74
480.70	18464.49
480.88	18082.98
481.06	18609.60
481.24	18827.27
481.41	18927.91
481.59	19176.01
481.77	19246.23
481.95	19508.37
482.13	19728.38
482.31	19440.49
482.49	19847.74
482.67	20255.00
482.85	20247.97
483.03	20411.81
483.21	20620.12
483.39	20926.73
483.57	20362.66
483.74	21214.62
483.92	21352.71
484.10	21018.01
484.28	21472.07
484.46	21788.05
484.64	22307.65
484.82	21682.72
485.00	22141.47
485.18	22530.00
485.35	22640.00
485.53	22583.83
485.71	23215.77
485.89	23393.65
486.07	22960.66
486.25	22953.63
486.43	23503.66
486.61	23665.16
486.78	23910.91
486.96	23946.02
487.14	24327.53
487.32	24252.63
487.50	24929.05
487.68	25099.90
487.85	25146.72
488.03	25333.96
488.21	25752.91
488.39	25818.45
488.57	25832.49
488.75	26316.98
488.92	26211.66
489.10	26476.14
489.28	26389.54
489.46	27288.31
489.64	26920.84
489.81	27211.07
489.99	27733.01
490.17	27522.36
490.35	27913.23
490.53	28140.26
490.70	28357.93
490.88	28257.29
491.06	28788.59
491.24	28175.37
491.41	28809.65
491.59	29362.02
491.77	29378.40
491.95	29322.23
492.13	29624.16
492.30	29923.75
492.48	29823.11
492.66	29802.04
492.84	30258.45
493.01	30199.93
493.19	30312.28
493.37	30700.81
493.54	30679.74
493.72	31115.08
493.90	30986.35
494.08	31587.87
494.25	31985.76
494.43	31660.43
494.61	32332.16
494.79	32016.19
494.96	32320.46
495.14	32395.35
495.32	32924.32
495.49	32613.02
495.67	32891.55
495.85	33149.01
496.02	33752.87
496.20	33244.97
496.38	33645.20
496.55	33827.76
496.73	34501.84
496.91	34089.90
497.09	34431.62
497.26	35126.76
497.44	34749.93
497.62	34738.23
497.79	35370.18
497.97	34895.05
498.14	35735.30
498.32	35564.44
498.50	35922.54
498.67	36016.16
498.85	36135.53
499.03	36825.99
499.20	36446.82
499.38	36608.32
499.56	36774.50
499.73	36863.44
499.91	37467.30
500.08	37539.85
500.26	37486.02
500.44	37553.90
500.61	37694.33
500.79	37504.74
500.97	37603.05
501.14	38431.60
501.32	38256.06
501.49	38588.41
501.67	38359.04
501.84	38689.06
502.02	38738.21
502.20	38639.90
502.37	38763.95
502.55	39112.69
502.72	38976.94
502.90	39515.26
503.07	39147.80
503.25	39646.33
503.43	39365.47
503.60	39952.94
503.78	39814.85
503.95	39885.07
504.13	39880.39
504.30	40060.61
504.48	40582.55
504.65	40559.14
504.83	40840.01
505.01	40802.56
505.18	41418.12
505.36	41216.83
505.53	41123.21
505.71	41097.47
505.88	41408.76
506.06	41132.57
506.23	41785.58
506.41	41855.80
506.58	41731.75
506.76	41956.44
506.93	42122.62
507.11	41963.46
507.28	42394.12
507.46	42485.40
507.63	42836.48
507.81	42871.59
507.98	42653.92
508.16	42918.40
508.33	43122.03
508.50	43086.92
508.68	43356.08
508.85	43529.28
509.03	43423.96
509.20	43845.26
509.38	43800.79
509.55	44589.55
509.73	44498.26
509.90	44161.23
510.08	44177.61
510.25	44566.14
510.42	44357.83
510.60	44725.30
510.77	45038.93
510.95	45221.49
511.12	44762.75
511.30	45195.74
511.47	45523.42
511.64	44683.17
511.82	45605.34
511.99	45563.21
512.17	45698.96
512.34	45886.20
512.51	46272.39
512.69	45958.76
512.86	45958.76
513.04	46174.09
513.21	46185.79
513.38	46464.32
513.56	46742.84
513.73	46288.77
513.90	46651.56
514.08	46553.26
514.25	47248.39
514.43	47222.65
514.60	47051.79
514.77	47271.80
514.95	47547.98
515.12	47363.08
515.29	47611.18
515.47	47590.11
515.64	47878.00
515.81	47248.39
515.99	47636.92
516.16	48519.31
516.33	47760.97
516.51	48638.67
516.68	48519.31
516.85	48208.01
517.03	48870.39
517.20	48481.86
517.37	48877.41
517.54	48287.59
517.72	48568.46
517.89	48832.94
518.06	48559.09
518.24	48982.73
518.41	48914.86
518.58	49481.27
518.75	49249.55
518.93	49333.81
519.10	48959.33
519.27	49488.29
519.45	49446.16
519.62	49577.23
519.79	49703.62
519.96	49415.73
520.14	49574.89
520.31	49935.33
520.48	50117.89
520.65	50234.92
520.83	50450.25
521.00	50398.76
521.17	50040.65
521.34	50394.07
521.52	50340.24
521.69	50571.96
521.86	50487.70
522.03	50693.66
522.20	51246.03
522.38	51547.96
522.55	51302.20
522.72	50834.10
522.89	51150.07
523.07	51442.63
523.24	51063.47
523.41	51349.01
523.58	51283.48
523.75	51519.87
523.92	51320.93
524.10	51760.95
524.27	51833.50
524.44	51676.69
524.61	51845.21
524.78	51821.80
524.96	51803.08
525.13	52388.21
525.30	52147.14
525.47	52149.48
525.64	52198.63
525.81	52325.02
525.98	52451.41
526.16	52039.47
526.33	52107.35
526.50	52706.52
526.67	52528.64
526.84	52928.87
527.01	52523.96
527.18	52851.64
527.36	52669.08
527.53	52975.69
527.70	53029.52
527.87	53064.63
528.04	53090.37
528.21	53125.48
528.38	53174.63
528.55	53434.43
528.72	53345.49
528.89	53453.15
529.07	53212.08
529.24	53041.22
529.41	53649.76
529.58	53544.44
529.75	53696.57
529.92	53717.64
530.09	53719.98
530.26	53619.33
530.43	53731.68
530.60	53677.85
530.77	53553.80
530.94	53750.40
531.11	53808.92
531.28	53834.66
531.46	54064.03
531.63	53794.87
531.80	53886.15
531.97	54108.50
532.14	54134.25
532.31	54232.55
532.48	54372.99
532.65	54473.63
532.82	54216.17
532.99	54415.11
533.16	54504.06
533.33	54644.49
533.50	54808.32
533.67	54616.40
533.84	54466.61
534.01	54625.76
534.18	54756.83
534.35	55023.65
534.52	54965.14
534.69	54981.52
534.86	55112.59
535.03	54974.50
535.20	54972.16
535.37	54862.16
535.54	55166.43
535.71	54958.12
535.88	55107.91
536.05	55168.77
536.22	55330.26
536.38	55545.59
536.55	55199.19
536.72	55529.21
536.89	55494.10
537.06	55384.10
537.23	55498.78
537.40	55559.64
537.57	55435.59
537.74	55372.39
537.91	55847.52
538.08	55592.40
538.25	55695.39
538.42	55840.50
538.59	55868.59
538.75	55786.67
538.92	55941.14
539.09	56048.81
539.26	55842.84
539.43	55796.03
539.60	56238.39
539.77	55980.93
539.94	56264.14
540.11	56179.88
540.28	56119.02
540.44	56292.22
540.61	56287.54
540.78	56315.63
540.95	56343.72
541.12	56465.42
541.29	56392.87
541.46	56406.91
541.62	56062.85
541.79	56416.27
541.96	56210.31
542.13	56383.51
542.30	56566.07
542.47	56493.51
542.63	56645.65
542.80	56753.31
542.97	56577.77
543.14	56800.12
543.31	57073.96
543.48	57013.11
543.64	57219.08
543.81	57158.22
543.98	57134.82
544.15	57102.05
544.32	57289.29
544.48	57616.97
544.65	57006.09
544.82	57523.35
544.99	57106.73
545.16	57443.77
545.32	57284.61
545.49	57401.64
545.66	57532.71
545.83	57408.66
546.00	57741.02
546.16	57244.82
546.33	57382.91
546.50	57263.55
546.67	57457.81
546.83	57481.22
547.00	57525.69
547.17	57628.67
547.34	57453.13
547.50	57726.97
547.67	57907.19
547.84	57911.88
548.00	58049.97
548.17	57946.98
548.34	57972.73
548.51	57951.66
548.67	58131.89
548.84	58148.27
549.01	57895.49
549.18	58061.67
549.34	58019.54
549.51	58218.49
549.68	57939.96
549.84	58117.84
550.01	58284.02
550.18	58038.26
550.34	58232.53
550.51	58195.08
550.68	58387.00
550.84	58038.26
551.01	58433.81
551.18	58286.36
551.34	58370.62
551.51	58291.04
551.68	58602.33
551.84	58269.98
552.01	58358.92
552.18	58389.34
552.34	58429.13
552.51	58487.65
552.68	58440.84
552.84	58368.28
553.01	58946.39
553.18	58553.18
553.34	58698.30
553.51	58677.23
553.67	58752.13
553.84	58695.95
554.01	58712.34
554.17	58796.60
554.34	58878.52
554.51	58831.71
554.67	58913.62
554.84	58866.81
555.00	58815.32
555.17	58721.70
555.33	58721.70
555.50	58674.89
555.67	58712.34
555.83	58536.80
556.00	59040.01
556.16	59458.97
556.33	59079.80
556.50	59040.01
556.66	59159.38
556.83	58981.50
556.99	59295.13
557.16	59458.97
557.32	59248.32
557.49	59473.01
557.65	59077.46
557.82	59512.80
557.98	59140.66
558.15	59075.12
558.32	59262.36
558.48	59173.42
558.65	59372.37
558.81	59093.85
558.98	59348.96
559.14	59271.73
559.31	59566.63
559.47	59501.10
559.64	59498.76
559.80	59512.80
559.97	59435.56
560.13	59330.24
560.30	59800.69
560.46	59580.68
560.63	59526.84
560.79	59639.19
560.96	59590.04
561.12	59468.33
561.29	59657.91
561.45	59791.33
561.61	59786.64
561.78	59657.91
561.94	59561.95
562.11	59634.51
562.27	59587.70
562.44	59831.11
562.60	59948.14
562.77	59927.08
562.93	59576.00
563.10	59784.30
563.26	59753.88
563.42	60023.04
563.59	59868.56
563.75	59826.43
563.92	59887.29
564.08	60001.97
564.24	59985.59
564.41	59992.61
564.57	59952.82
564.74	59908.35
564.90	59901.33
565.07	59803.03
565.23	60041.76
565.39	59943.46
565.56	59976.23
565.72	60025.38
565.88	59810.05
566.05	59786.64
566.21	60238.37
566.38	59922.40
566.54	60111.98
566.70	60245.39
566.87	60048.78
567.03	60097.94
567.19	60320.29
567.36	60221.98
567.52	60149.43
567.68	60411.57
567.85	60205.60
568.01	60095.60
568.17	60111.98
568.34	60271.14
568.50	60229.01
568.66	60207.94
568.83	60495.83
568.99	60186.88
569.15	60273.48
569.32	60301.56
569.48	60182.19
569.64	60193.90
569.81	60418.59
569.97	60231.35
570.13	60299.22
570.30	60336.67
570.46	60334.33
570.62	60367.10
570.78	60343.69
570.95	60561.36
571.11	60514.55
571.27	60203.26
571.43	60413.91
571.60	60477.10
571.76	60383.48
571.92	60598.81
572.09	60498.17
572.25	60392.84
572.41	60441.99
572.57	60397.52
572.74	60608.17
572.90	60266.45
573.06	60381.14
573.22	60498.17
573.38	60622.22
573.55	60465.40
573.71	60706.47
573.87	60446.68
574.03	60374.12
574.20	60636.26
574.36	60542.64
574.52	60418.59
574.68	60388.16
574.84	60619.88
575.01	60683.07
575.17	60540.30
575.33	60453.70
575.49	60210.28
575.65	60350.71
575.82	60680.73
575.98	60582.43
576.14	60905.42
576.30	60678.39
576.46	60573.06
576.62	60615.19
576.79	60863.29
576.95	60493.49
577.11	60678.39
577.27	60748.60
577.43	60755.63
577.59	60556.68
577.75	60664.35
577.92	60645.62
578.08	60652.64
578.24	60835.20
578.40	60776.69
578.56	60811.80
578.72	60610.51
578.88	60650.30
579.04	60982.66
579.21	60683.07
579.37	60718.18
579.53	60814.14
579.69	60673.71
579.85	60821.16
580.01	60673.71
580.17	60491.15
580.33	60781.37
580.49	60818.82
580.65	60762.65
580.82	60575.40
580.98	60676.05
581.14	60736.90
581.30	60830.52
581.46	60774.35
581.62	60711.16
581.78	60542.64
581.94	60823.50
582.10	60729.88
582.26	60715.84
582.42	60846.91
582.58	60685.41
582.74	60823.50
582.90	60818.82
583.06	60781.37
583.22	60643.28
583.38	60832.86
583.54	60779.03
583.70	60757.97
583.86	60945.21
584.02	60800.10
584.18	60708.82
584.34	60830.52
584.50	60753.29
584.66	60669.03
584.82	60559.02
584.98	60994.36
585.14	61022.45
585.30	60977.98
585.46	60844.57
585.62	60931.17
585.78	60903.08
585.94	60748.60
586.10	60722.86
586.26	60872.65
586.42	61106.71
586.58	60746.26
586.74	60980.32
586.90	60872.65
587.06	60956.91
587.22	61151.18
587.38	60970.96
587.54	60956.91
587.70	61272.88
587.86	61113.73
588.02	60896.06
588.18	60879.67
588.34	60795.42
588.49	60963.93
