SpectraSuite Data File
++++++++++++++++++++++++++++++++++++
Date: Fri Oct 25 11:23:28 EDT 2013
User: price-jones
Dark Spectrum Present: No
Reference Spectrum Present: No
Number of Sampled Component Spectra: 1
Spectrometers: USB2+H05261
Integration Time (usec): 100000 (USB2+H05261)
Spectra Averaged: 1 (USB2+H05261)
Boxcar Smoothing: 0 (USB2+H05261)
Correct for Electrical Dark: No (USB2+H05261)
Strobe/Lamp Enabled: No (USB2+H05261)
Correct for Detector Non-linearity: No (USB2+H05261)
Correct for Stray Light: No (USB2+H05261)
Number of Pixels in Processed Spectrum: 2048
>>>>>Begin Processed Spectral Data<<<<<
365.73	163.84
365.92	163.84
366.12	163.84
366.32	152.13
366.52	65.54
366.72	117.03
366.91	131.07
367.11	152.13
367.31	142.77
367.51	112.35
367.70	131.07
367.90	135.75
368.10	107.66
368.30	184.90
368.49	194.26
368.69	156.82
368.89	88.94
369.09	173.20
369.28	145.11
369.48	93.62
369.68	231.71
369.87	210.65
370.07	198.95
370.27	194.26
370.47	227.03
370.66	510.24
370.86	554.71
371.06	662.37
371.25	690.46
371.45	681.10
371.65	683.44
371.84	645.99
372.04	702.16
372.24	695.14
372.44	716.20
372.63	770.04
372.83	737.27
373.03	772.38
373.22	753.65
373.42	751.31
373.62	772.38
373.81	737.27
374.01	765.36
374.21	798.12
374.40	814.51
374.60	809.83
374.79	739.61
374.99	873.02
375.19	842.59
375.38	748.97
375.58	903.45
375.78	833.23
375.97	854.30
376.17	950.26
376.37	856.64
376.56	861.32
376.76	901.11
376.95	866.00
377.15	875.36
377.35	884.72
377.54	866.00
377.74	884.72
377.93	931.53
378.13	851.96
378.33	866.00
378.52	924.51
378.72	952.60
378.91	994.73
379.11	1001.75
379.31	994.73
379.50	947.92
379.70	1018.13
379.89	994.73
380.09	1022.81
380.28	1027.50
380.48	1067.28
380.68	1006.43
380.87	1004.09
381.07	922.17
381.26	1018.13
381.46	1050.90
381.65	1032.18
381.85	1027.50
382.04	992.39
382.24	1046.22
382.43	1111.75
382.63	1018.13
382.83	1048.56
383.02	1076.65
383.22	1100.05
383.41	1060.26
383.61	1036.86
383.80	1151.54
384.00	1004.09
384.19	1174.95
384.39	1188.99
384.58	1186.65
384.78	1245.16
384.97	1100.05
385.17	1095.37
385.36	1191.33
385.56	1146.86
385.75	1186.65
385.95	1212.40
386.14	1277.93
386.34	1226.44
386.53	1191.33
386.72	1198.35
386.92	1137.50
387.11	1259.21
387.31	1226.44
387.50	1214.74
387.70	1282.61
387.89	1188.99
388.09	1329.42
388.28	1301.34
388.48	1268.57
388.67	1329.42
388.86	1357.51
389.06	1383.26
389.25	1458.15
389.45	1409.00
389.64	1350.49
389.84	1334.11
390.03	1317.72
390.22	1394.96
390.42	1446.45
390.61	1315.38
390.81	1423.05
391.00	1427.73
391.19	1495.60
391.39	1425.39
391.58	1467.52
391.78	1409.00
391.97	1434.75
392.16	1462.83
392.36	1563.48
392.55	1476.88
392.75	1448.79
392.94	1476.88
393.13	1446.45
393.33	1479.22
393.52	1504.96
393.71	1598.59
393.91	1519.01
394.10	1516.67
394.29	1631.35
394.49	1519.01
394.68	1579.86
394.88	1607.95
395.07	1689.87
395.26	1755.40
395.46	1652.42
395.65	1736.68
395.84	1764.76
396.04	1713.27
396.23	1785.83
396.42	1760.08
396.62	1806.89
396.81	1713.27
397.00	1811.57
397.19	1811.57
397.39	1851.36
397.58	1769.44
397.77	1816.26
397.97	1905.20
398.16	1834.98
398.35	1870.09
398.55	1856.04
398.74	1933.28
398.93	1921.58
399.12	1994.14
399.32	1952.01
399.51	1879.45
399.70	1940.30
399.90	1914.56
400.09	2043.29
400.28	2015.20
400.47	2127.55
400.67	2045.63
400.86	2085.42
401.05	1994.14
401.24	2120.53
401.44	2071.37
401.63	2134.57
401.82	2157.97
402.01	2122.87
402.21	2052.65
402.40	2113.50
402.59	2211.81
402.78	2298.41
402.97	2305.43
403.17	2256.28
403.36	2321.81
403.55	2279.68
403.74	2352.24
403.93	2373.30
404.13	2354.58
404.32	2284.36
404.51	2387.35
404.70	2499.69
404.89	2347.56
405.09	2424.80
405.28	2389.69
405.47	2466.92
405.66	2373.30
405.85	2502.03
406.05	2431.82
406.24	2576.93
406.43	2511.39
406.62	2513.74
406.81	2715.02
407.00	2520.76
407.20	2567.57
407.39	2656.51
407.58	2712.68
407.77	2724.38
407.96	2745.45
408.15	2796.94
408.34	2782.90
408.54	2757.15
408.73	2731.41
408.92	2775.88
409.11	2792.26
409.30	2991.20
409.49	3012.27
409.68	2836.73
409.87	2813.32
410.07	2984.18
410.26	2939.71
410.45	3035.67
410.64	3016.95
410.83	3019.29
411.02	3063.76
411.21	3215.90
411.40	3159.72
411.59	3213.56
411.78	3159.72
411.98	3246.32
412.17	3361.01
412.36	3213.56
412.55	3372.71
412.74	3346.97
412.93	3346.97
413.12	3272.07
413.31	3606.77
413.50	3412.50
413.69	3485.06
413.88	3588.04
414.07	3691.02
414.26	3648.90
414.45	3637.19
414.64	3676.98
414.83	3737.84
415.02	3747.20
415.22	3969.55
415.41	3857.20
415.60	3791.67
415.79	3920.40
415.98	3974.23
416.17	3957.85
416.36	4009.34
416.55	4056.15
416.74	4156.79
416.93	4046.79
417.12	4117.00
417.31	4175.52
417.50	4194.24
417.69	4306.59
417.88	4280.84
418.07	4311.27
418.26	4243.39
418.45	4283.18
418.64	4470.42
418.83	4594.47
419.02	4465.74
419.21	4479.79
419.39	4535.96
419.58	4475.10
419.77	4393.19
419.96	4447.02
420.15	4512.55
420.34	4592.13
420.53	4601.49
420.72	4802.78
420.91	4648.30
421.10	4734.90
421.29	4884.70
421.48	4706.82
421.67	4819.16
421.86	4739.58
422.05	4863.63
422.24	4891.72
422.43	4882.36
422.61	4774.69
422.80	4964.28
422.99	4940.87
423.18	4943.21
423.37	4994.70
423.56	4975.98
423.75	5008.75
423.94	4854.27
424.13	4486.81
424.32	4758.31
424.50	4945.55
424.69	5284.93
424.88	5149.18
425.07	4959.60
425.26	4938.53
425.45	4929.17
425.64	5050.88
425.83	4898.74
426.01	5247.48
426.20	5139.82
426.39	5029.81
426.58	5029.81
426.77	5006.41
426.96	5210.03
427.15	5179.61
427.33	5266.21
427.52	5151.52
427.71	5277.91
427.90	5378.55
428.09	5341.10
428.28	5427.70
428.46	5408.98
428.65	5289.61
428.84	5535.37
429.03	5568.13
429.22	5385.57
429.40	5521.32
429.59	5416.00
429.78	5434.72
429.97	5324.72
430.16	5406.64
430.34	5631.33
430.53	5727.29
430.72	5682.82
430.91	5638.35
431.10	5743.67
431.28	5678.14
431.47	5893.47
431.66	5947.30
431.85	5778.78
432.03	5905.17
432.22	5921.56
432.41	5900.49
432.60	5975.39
432.79	6024.54
432.97	5966.03
433.16	5973.05
433.35	6015.18
433.54	6094.76
433.72	6204.76
433.91	6003.47
434.10	6132.20
434.28	6225.82
434.47	6211.78
434.66	6310.08
434.85	6305.40
435.03	6242.21
435.22	6366.26
435.41	6513.71
435.59	6497.33
435.78	6436.47
435.97	6518.39
436.16	6502.01
436.34	6586.27
436.53	6553.50
436.72	6651.80
436.90	6546.48
437.09	6693.93
437.28	6504.35
437.46	6644.78
437.65	6616.69
437.84	6841.39
438.02	6822.66
438.21	6855.43
438.40	6717.34
438.58	7033.31
438.77	7007.56
438.96	6923.30
439.14	6946.71
439.33	7213.53
439.52	7368.01
439.70	7510.78
439.89	7227.57
440.08	7265.02
440.26	7368.01
440.45	7316.51
440.63	7431.20
440.82	7683.98
441.01	7655.89
441.19	7691.00
441.38	7742.49
441.57	7779.94
441.75	7758.88
441.94	7805.69
442.12	8070.17
442.31	8180.17
442.50	7999.95
442.68	7969.52
442.87	8212.94
443.05	7918.03
443.24	8222.30
443.43	8077.19
443.61	8280.82
443.80	8496.14
443.98	8058.46
444.17	7801.01
444.35	8276.13
444.54	8411.89
444.73	8208.26
444.91	8306.56
445.10	8404.86
445.28	8339.33
445.47	8339.33
445.65	8269.11
445.84	8524.23
446.02	8524.23
446.21	8346.35
446.39	8372.10
446.58	8699.77
446.77	8578.06
446.95	8105.28
447.14	8458.70
447.32	8627.21
447.51	8437.63
447.69	8386.14
447.88	8664.66
448.06	8493.80
448.25	8669.34
448.43	8681.05
448.62	8535.93
448.80	8528.91
448.99	8844.88
449.17	8685.73
449.36	8697.43
449.54	8950.21
449.73	9097.66
449.91	9249.80
450.10	9109.36
450.28	9172.56
450.46	9104.68
450.65	9039.15
450.83	9100.00
451.02	8945.53
451.20	9247.46
451.39	9153.84
451.57	9121.07
451.76	9226.39
451.94	9308.31
452.13	9282.56
452.31	9423.00
452.49	9392.57
452.68	9455.76
452.86	9479.17
453.05	9469.81
453.23	9554.07
453.42	9327.03
453.60	9521.30
453.78	9502.58
453.97	9554.07
454.15	9671.09
454.34	9521.30
454.52	9816.21
454.70	9769.40
454.89	9767.06
455.07	9891.10
455.26	9940.26
455.44	9902.81
455.62	9771.74
455.81	9785.78
455.99	10057.28
456.17	10097.07
456.36	10073.67
456.54	10164.95
456.73	10455.17
456.91	10569.86
457.09	10274.95
457.28	10733.70
457.46	10399.00
457.64	10567.52
457.83	10621.35
458.01	10434.11
458.19	10764.12
458.38	10721.99
458.56	10600.29
458.74	10642.42
458.93	10698.59
459.11	10874.13
459.29	10574.54
459.48	10857.75
459.66	10754.76
459.84	11023.92
460.03	11131.59
460.21	10799.23
460.39	11103.50
460.57	11016.90
460.76	11070.73
460.94	11377.34
461.12	11339.90
461.31	11014.56
461.49	11222.87
461.67	11159.67
461.85	11470.97
462.04	11449.90
462.22	11899.28
462.40	11506.07
462.59	11543.52
462.77	11480.33
462.95	11630.12
463.13	11517.78
463.32	11826.73
463.50	11665.23
463.68	11829.07
463.86	12070.14
464.05	11777.58
464.23	11974.18
464.41	11999.93
464.59	11953.12
464.78	11950.78
464.96	11772.89
465.14	11810.34
465.32	11957.80
465.50	12044.40
465.69	12035.03
465.87	12374.41
466.05	12088.87
466.23	12407.18
466.41	12241.00
466.60	12493.78
466.78	12170.79
466.96	12198.87
467.14	12381.43
467.32	12397.82
467.51	12727.83
467.69	12224.62
467.87	12435.27
468.05	12669.32
468.23	12592.08
468.41	12526.55
468.60	12627.19
468.78	12613.15
468.96	12669.32
469.14	12835.50
469.32	12833.16
469.50	12776.98
469.69	13205.30
469.87	13322.33
470.05	13158.49
470.23	13123.38
470.41	13163.17
470.59	13392.55
470.77	13343.39
470.95	13252.11
471.14	13411.27
471.32	13420.63
471.50	13788.10
471.68	13495.53
471.86	13834.91
472.04	13722.56
472.22	13860.65
472.40	13785.76
472.58	13731.92
472.77	14054.92
472.95	14019.81
473.13	14647.07
473.31	14267.91
473.49	14141.52
473.67	14298.33
473.85	14324.08
474.03	14848.36
474.21	14485.58
474.39	14773.46
474.57	14799.21
474.75	14815.59
474.93	15030.92
475.12	14979.43
475.30	15438.17
475.48	14998.15
475.66	15358.60
475.84	15419.45
476.02	15489.67
476.20	15297.74
476.38	15761.17
476.56	16006.92
476.74	16079.48
476.92	16063.10
477.10	15737.76
477.28	16119.27
477.46	16332.26
477.64	16163.74
477.82	16229.27
478.00	17172.51
478.18	17137.40
478.36	17104.64
478.54	17139.74
478.72	17114.00
478.90	17605.51
479.08	17767.01
479.26	17640.62
479.44	17565.72
479.62	17893.40
479.80	18139.15
479.98	18087.66
480.16	18597.90
480.34	18691.52
480.52	18375.55
480.70	18691.52
480.88	18576.83
481.06	18562.79
481.24	18941.96
481.41	19007.49
481.59	19267.29
481.77	19372.61
481.95	19325.80
482.13	19924.98
482.31	19796.25
482.49	20189.46
482.67	20217.55
482.85	20496.07
483.03	20608.42
483.21	20645.87
483.39	21057.80
483.57	21046.10
483.74	21284.83
483.92	21317.60
484.10	20847.15
484.28	21319.94
484.46	22225.73
484.64	22331.05
484.82	22012.74
485.00	22656.39
485.18	22934.91
485.35	23159.60
485.53	23257.90
485.71	23199.39
485.89	23817.29
486.07	23637.07
486.25	23508.34
486.43	23648.77
486.61	23779.84
486.78	24095.82
486.96	24224.54
487.14	24865.85
487.32	24601.37
487.50	25013.31
487.68	25144.38
487.85	25184.16
488.03	25268.42
488.21	25722.49
488.39	25813.77
488.57	26235.06
488.75	26462.10
488.92	26595.51
489.10	27115.11
489.28	26733.60
489.46	27211.07
489.64	26986.38
489.81	27866.42
489.99	28081.75
490.17	27777.48
490.35	28285.37
490.53	28212.82
490.70	28500.70
490.88	28430.49
491.06	29184.14
491.24	28624.75
491.41	29233.29
491.59	29418.19
491.77	29397.13
491.95	29738.85
492.13	29703.74
492.30	29883.96
492.48	30005.67
492.66	30443.35
492.84	30794.43
493.01	30754.64
493.19	30803.79
493.37	30911.46
493.54	31421.69
493.72	31585.53
493.90	31714.26
494.08	31915.54
494.25	32004.49
494.43	31999.80
494.61	32676.22
494.79	32652.81
494.96	32898.57
495.14	32732.39
495.32	33310.50
495.49	33390.08
495.67	33095.18
495.85	33701.37
496.02	33909.68
496.20	33771.59
496.38	34120.33
496.55	33944.79
496.73	35239.11
496.91	34955.90
497.09	34899.73
497.26	34742.91
497.44	35040.16
497.62	35016.75
497.79	35791.47
497.97	35505.93
498.14	36102.76
498.32	36268.94
498.50	36275.96
498.67	36734.71
498.85	36664.49
499.03	36636.41
499.20	37174.73
499.38	36725.35
499.56	37453.25
499.73	37024.93
499.91	37897.95
500.08	37670.92
500.26	37699.01
500.44	37532.83
500.61	38078.18
500.79	37897.95
500.97	38398.83
501.14	39084.61
501.32	38649.27
501.49	38471.39
501.67	38813.10
501.84	39210.99
502.02	38941.83
502.20	39117.37
502.37	39597.18
502.55	39557.39
502.72	39536.33
502.90	39730.59
503.07	39496.54
503.25	39915.50
503.43	40177.64
503.60	40533.40
503.78	40519.35
503.95	40421.05
504.13	40512.33
504.30	40634.04
504.48	40797.88
504.65	41244.92
504.83	41048.32
505.01	41476.63
505.18	41411.10
505.36	41972.83
505.53	41411.10
505.71	41762.18
505.88	42337.95
506.06	41486.00
506.23	42188.16
506.41	42281.78
506.58	42192.84
506.76	42459.66
506.93	42944.15
507.11	42291.14
507.28	43086.92
507.46	42754.57
507.63	43110.33
507.81	43124.37
507.98	42972.24
508.16	43597.16
508.33	43468.43
508.50	43297.57
508.68	43793.76
508.85	44381.24
509.03	43782.06
509.20	44034.84
509.38	44421.03
509.55	44645.72
509.73	44655.08
509.90	44905.52
510.08	44835.30
510.25	44760.40
510.42	44725.30
510.60	45394.69
510.77	45364.26
510.95	45448.52
511.12	45397.03
511.30	45336.18
511.47	45464.91
511.64	45113.83
511.82	45975.14
511.99	45633.42
512.17	45914.29
512.34	46169.41
512.51	46443.25
512.69	46789.65
512.86	46354.31
513.04	46646.88
513.21	47129.03
513.38	46815.40
513.56	46822.42
513.73	47051.79
513.90	47629.90
514.08	47035.41
514.25	47562.03
514.43	47578.41
514.60	47466.06
514.77	47356.06
514.95	48023.11
515.12	47744.59
515.29	47496.49
515.47	47901.40
515.64	47870.98
515.81	48135.46
515.99	48404.62
516.16	48645.69
516.33	48491.22
516.51	48828.26
516.68	48633.99
516.85	48252.48
517.03	49287.00
517.20	48931.24
517.37	48842.30
517.54	48797.83
517.72	49167.63
517.89	49034.22
518.06	49324.45
518.24	49338.49
518.41	49478.92
518.58	49539.78
518.75	49399.35
518.93	49607.65
519.10	49689.57
519.27	49607.65
519.45	49734.04
519.62	49951.71
519.79	50251.30
519.96	50265.34
520.14	50066.40
520.31	50035.97
520.48	50646.85
520.65	50410.46
520.83	50939.42
521.00	50897.29
521.17	50684.30
521.34	50803.67
521.52	50885.59
521.69	50990.91
521.86	51311.56
522.03	51171.13
522.20	51398.16
522.38	51538.60
522.55	51292.84
522.72	51538.60
522.89	51772.65
523.07	51653.28
523.24	51957.55
523.41	51976.28
523.58	51433.27
523.75	52112.03
523.92	51934.15
524.10	51875.63
524.27	51959.89
524.44	52296.93
524.61	52219.69
524.78	52357.78
524.96	52222.03
525.13	52940.58
525.30	52296.93
525.47	52631.63
525.64	52406.94
525.81	52729.93
525.98	52570.77
526.16	52449.06
526.33	53001.43
526.50	53380.60
526.67	52678.44
526.84	52884.40
527.01	52830.57
527.18	52694.82
527.36	52973.34
527.53	53069.31
527.70	53684.87
527.87	53336.13
528.04	53492.94
528.21	53558.48
528.38	53240.17
528.55	53305.70
528.72	53446.13
528.89	53347.83
529.07	53404.00
529.24	53719.98
529.41	53804.24
529.58	53874.45
529.75	53930.62
529.92	53764.45
530.09	53598.27
530.26	54167.02
530.43	54049.99
530.60	53900.20
530.77	54019.56
530.94	54372.99
531.11	54321.49
531.28	54328.52
531.46	54415.11
531.63	54152.97
531.80	54380.01
531.97	54377.67
532.14	54597.68
532.31	54419.80
532.48	54667.89
532.65	54571.93
532.82	54670.23
532.99	54728.75
533.16	54593.00
533.33	54796.62
533.50	54906.63
533.67	55084.51
533.84	54728.75
534.01	54920.67
534.18	55009.61
534.35	55461.33
534.52	55145.36
534.69	55377.08
534.86	55215.58
535.03	54944.08
535.20	55229.62
535.37	55477.72
535.54	55458.99
535.71	55381.76
535.88	55587.72
536.05	55395.80
536.22	55402.82
536.38	55585.38
536.55	55688.37
536.72	55786.67
536.89	55613.47
537.06	55643.90
537.23	55840.50
537.40	55826.46
537.57	55884.97
537.74	55913.06
537.91	56346.06
538.08	55938.80
538.25	55936.46
538.42	55994.98
538.59	56212.65
538.75	56093.28
538.92	56100.30
539.09	56198.60
539.26	56147.11
539.43	56324.99
539.60	56229.03
539.77	56404.57
539.94	56617.56
540.11	56423.29
540.28	56470.11
540.44	56477.13
540.61	56430.32
540.78	56519.26
540.95	56521.60
541.12	56643.30
541.29	56598.83
541.46	56786.08
541.62	56580.11
541.79	56493.51
541.96	56566.07
542.13	56690.12
542.30	56959.28
542.47	56736.93
542.63	57144.18
542.80	57050.56
542.97	57301.00
543.14	57233.12
543.31	57125.46
543.48	57396.96
543.64	57542.07
543.81	57443.77
543.98	57453.13
544.15	57453.13
544.32	57518.67
544.48	57633.35
544.65	57354.83
544.82	57631.01
544.99	57345.47
545.16	57750.38
545.32	57598.24
545.49	57881.45
545.66	57961.03
545.83	57605.26
546.00	57902.51
546.16	57593.56
546.33	57682.50
546.50	57394.62
546.67	57701.23
546.83	57478.88
547.00	57956.35
547.17	57799.53
547.34	57975.07
547.50	58085.07
547.67	58188.06
547.84	58061.67
548.00	58244.23
548.17	58354.24
548.34	58216.14
548.51	58291.04
548.67	58234.87
548.84	58213.80
549.01	58223.17
549.18	58328.49
549.34	58536.80
549.51	58342.53
549.68	58480.63
549.84	58497.01
550.01	58326.15
550.18	58365.94
550.34	58635.10
550.51	58848.09
550.68	58576.59
550.84	58211.46
551.01	58761.49
551.18	58656.17
551.34	58562.54
551.51	58894.90
551.68	58665.53
551.84	58777.87
552.01	58548.50
552.18	58721.70
552.34	58457.22
552.51	58873.84
552.68	58665.53
552.84	58602.33
553.01	59030.65
553.18	58897.24
553.34	58993.20
553.51	58752.13
553.67	58953.41
553.84	58930.01
554.01	58951.07
554.17	59042.35
554.34	59032.99
554.51	59040.01
554.67	59208.53
554.84	58990.86
555.00	59112.57
555.17	58934.69
555.33	59042.35
555.50	58979.16
555.67	59103.21
555.83	59290.45
556.00	59372.37
556.16	59557.27
556.33	59416.84
556.50	59461.31
556.66	59477.69
556.83	59189.81
556.99	59372.37
557.16	59632.17
557.32	59391.09
557.49	59948.14
557.65	59421.52
557.82	59608.76
557.98	59271.73
558.15	59564.29
558.32	59529.19
558.48	59451.95
558.65	59524.50
558.81	59627.49
558.98	59590.04
559.14	59784.30
559.31	59681.32
559.47	59758.56
559.64	59615.79
559.80	59817.07
559.97	59983.25
560.13	59629.83
560.30	59831.11
560.46	59898.99
560.63	59852.18
560.79	59842.82
560.96	59962.18
561.12	59924.74
561.29	59983.25
561.45	59934.10
561.61	59868.56
561.78	60034.74
561.94	59964.52
562.11	59978.57
562.27	59941.12
562.44	60048.78
562.60	60210.28
562.77	60231.35
562.93	60037.08
563.10	60257.09
563.26	59922.40
563.42	60355.39
563.59	60079.21
563.75	59891.97
563.92	60048.78
564.08	59997.29
564.24	60186.88
564.41	60231.35
564.57	60158.79
564.74	60320.29
564.90	60175.17
565.07	60264.11
565.23	60217.30
565.39	60247.73
565.56	60086.23
565.72	60200.92
565.88	60484.12
566.05	60191.56
566.21	60212.62
566.38	60268.79
566.54	60369.44
566.70	60404.55
566.87	60411.57
567.03	60261.77
567.19	60573.06
567.36	60580.09
567.52	60282.84
567.68	60582.43
567.85	60444.33
568.01	60437.31
568.17	60500.51
568.34	60360.08
568.50	60168.15
568.66	60231.35
568.83	60388.16
568.99	60418.59
569.15	60514.55
569.32	60303.90
569.48	60444.33
569.64	60788.39
569.81	60636.26
569.97	60507.53
570.13	60505.19
570.30	60257.09
570.46	60697.11
570.62	60802.44
570.78	60582.43
570.95	60544.98
571.11	60975.64
571.27	60594.13
571.43	60568.38
571.60	60767.33
571.76	60608.17
571.92	60584.77
572.09	60636.26
572.25	60645.62
572.41	60502.85
572.57	60708.82
572.74	60832.86
572.90	60673.71
573.06	60664.35
573.22	60734.56
573.38	60671.37
573.55	60580.09
573.71	60795.42
573.87	60830.52
574.03	60659.66
574.20	60781.37
574.36	60559.02
574.52	60839.89
574.68	60680.73
574.84	60884.36
575.01	60896.06
575.17	60846.91
575.33	60809.46
575.49	60762.65
575.65	60786.05
575.82	60947.55
575.98	61041.17
576.14	60802.44
576.30	61029.47
576.46	60865.63
576.62	60767.33
576.79	60879.67
576.95	60650.30
577.11	60795.42
577.27	61055.21
577.43	60940.53
577.59	60985.00
577.75	60795.42
577.92	60645.62
578.08	60818.82
578.24	61106.71
578.40	61176.92
578.56	60980.32
578.72	60877.33
578.88	60989.68
579.04	61151.18
579.21	60942.87
579.37	61207.35
579.53	61186.28
579.69	60879.67
579.85	61057.56
580.01	60999.04
580.17	60701.79
580.33	61071.60
580.49	61130.11
580.65	60935.85
580.82	60952.23
580.98	60886.70
581.14	61109.05
581.30	61179.26
581.46	61003.72
581.62	61076.28
581.78	61010.74
581.94	60985.00
582.10	60994.36
582.26	60860.95
582.42	60846.91
582.58	60917.12
582.74	61118.41
582.90	61043.51
583.06	60919.46
583.22	60926.49
583.38	60928.83
583.54	60999.04
583.70	61219.05
583.86	61057.56
584.02	61083.30
584.18	61087.98
584.34	61034.15
584.50	61165.22
584.66	60676.05
584.82	60956.91
584.98	61254.16
585.14	61064.58
585.30	61041.17
585.46	61001.38
585.62	61212.03
585.78	61109.05
585.94	61062.24
586.10	61160.54
586.26	60912.44
586.42	61263.52
586.58	61123.09
586.74	61160.54
586.90	61043.51
587.06	61062.24
587.22	61279.91
587.38	61013.08
587.54	61090.32
587.70	61331.40
587.86	61165.22
588.02	61300.97
588.18	61197.99
588.34	61158.20
