SpectraSuite Data File
++++++++++++++++++++++++++++++++++++
Date: Fri Oct 25 11:25:57 EDT 2013
User: price-jones
Dark Spectrum Present: No
Reference Spectrum Present: No
Number of Sampled Component Spectra: 1
Spectrometers: USB2+H05261
Integration Time (usec): 100000 (USB2+H05261)
Spectra Averaged: 1 (USB2+H05261)
Boxcar Smoothing: 0 (USB2+H05261)
Correct for Electrical Dark: No (USB2+H05261)
Strobe/Lamp Enabled: No (USB2+H05261)
Correct for Detector Non-linearity: No (USB2+H05261)
Correct for Stray Light: No (USB2+H05261)
Number of Pixels in Processed Spectrum: 2048
>>>>>Begin Processed Spectral Data<<<<<
365.73	278.52
365.92	278.52
366.12	278.52
366.32	105.32
366.52	170.86
366.72	201.29
366.91	138.09
367.11	156.82
367.31	159.16
367.51	124.05
367.70	70.22
367.90	154.48
368.10	142.77
368.30	133.41
368.49	67.88
368.69	110.01
368.89	180.22
369.09	145.11
369.28	182.56
369.48	168.52
369.68	166.18
369.87	177.88
370.07	222.35
370.27	238.73
370.47	423.64
370.66	608.54
370.86	631.94
371.06	692.80
371.25	638.97
371.45	620.24
371.65	667.05
371.84	709.18
372.04	692.80
372.24	784.08
372.44	671.73
372.63	718.54
372.83	671.73
373.03	751.31
373.22	807.48
373.42	774.72
373.62	791.10
373.81	791.10
374.01	805.14
374.21	868.34
374.40	826.21
374.60	821.53
374.79	847.27
374.99	770.04
375.19	894.08
375.38	856.64
375.58	816.85
375.78	840.25
375.97	866.00
376.17	866.00
376.37	823.87
376.56	807.48
376.76	830.89
376.95	894.08
377.15	866.00
377.35	938.55
377.54	966.64
377.74	936.21
377.93	877.70
378.13	976.00
378.33	943.24
378.52	966.64
378.72	912.81
378.91	985.37
379.11	1036.86
379.31	1006.43
379.50	994.73
379.70	1015.79
379.89	992.39
380.09	933.87
380.28	971.32
380.48	980.68
380.68	947.92
380.87	926.85
381.07	978.34
381.26	1062.60
381.46	994.73
381.65	971.32
381.85	1046.22
382.04	976.00
382.24	1095.37
382.43	1060.26
382.63	1034.52
382.83	1055.58
383.02	1088.35
383.22	1104.73
383.41	1067.28
383.61	1097.71
383.80	1102.39
384.00	1018.13
384.19	1090.69
384.39	1102.39
384.58	1097.71
384.78	1121.12
384.97	1193.67
385.17	1165.59
385.36	1121.12
385.56	1181.97
385.75	1193.67
385.95	1153.88
386.14	1172.61
386.34	1158.57
386.53	1200.69
386.72	1191.33
386.92	1299.00
387.11	1301.34
387.31	1299.00
387.50	1273.25
387.70	1306.02
387.89	1287.29
388.09	1284.95
388.28	1261.55
388.48	1350.49
388.67	1287.29
388.86	1308.36
389.06	1315.38
389.25	1444.11
389.45	1306.02
389.64	1284.95
389.84	1315.38
390.03	1303.68
390.22	1390.28
390.42	1336.45
390.61	1376.24
390.81	1371.55
391.00	1404.32
391.19	1416.02
391.39	1404.32
391.58	1411.34
391.78	1542.41
391.97	1495.60
392.16	1465.18
392.36	1633.69
392.55	1544.75
392.75	1551.78
392.94	1444.11
393.13	1462.83
393.33	1565.82
393.52	1451.13
393.71	1551.78
393.91	1593.90
394.10	1563.48
394.29	1666.46
394.49	1554.12
394.68	1603.27
394.88	1603.27
395.07	1680.50
395.26	1671.14
395.46	1715.61
395.65	1703.91
395.84	1610.29
396.04	1837.32
396.23	1748.38
396.42	1713.27
396.62	1750.72
396.81	1788.17
397.00	1799.87
397.19	1771.79
397.39	1739.02
397.58	1823.28
397.77	1736.68
397.97	1860.73
398.16	1830.30
398.35	1842.00
398.55	1825.62
398.74	1811.57
398.93	1930.94
399.12	1870.09
399.32	1872.43
399.51	1933.28
399.70	1947.33
399.90	1923.92
400.09	2043.29
400.28	2024.56
400.47	1989.46
400.67	2073.71
400.86	1991.80
401.05	2033.93
401.24	2083.08
401.44	2106.48
401.63	2188.40
401.82	2167.34
402.01	2052.65
402.21	2230.53
402.40	2197.76
402.59	2181.38
402.78	2146.27
402.97	2101.80
403.17	2263.30
403.36	2312.45
403.55	2253.94
403.74	2293.72
403.93	2361.60
404.13	2251.60
404.32	2333.51
404.51	2260.96
404.70	2363.94
404.89	2321.81
405.09	2441.18
405.28	2413.09
405.47	2385.01
405.66	2427.14
405.85	2626.08
406.05	2335.85
406.24	2532.46
406.43	2455.22
406.62	2579.27
406.81	2731.41
407.00	2553.52
407.20	2583.95
407.39	2572.25
407.58	2654.17
407.77	2654.17
407.96	2778.22
408.15	2686.94
408.34	2766.51
408.54	2801.62
408.73	2738.43
408.92	2822.69
409.11	2920.99
409.30	2808.64
409.49	2761.83
409.68	2822.69
409.87	3028.65
410.07	3014.61
410.26	2995.89
410.45	2895.24
410.64	3026.31
410.83	2998.23
411.02	3096.53
411.21	3220.58
411.40	3136.32
411.59	3265.05
411.78	3131.64
411.98	3211.22
412.17	3232.28
412.36	3176.11
412.55	3300.16
412.74	3475.70
412.93	3426.54
413.12	3274.41
413.31	3435.91
413.50	3562.30
413.69	3527.19
413.88	3386.76
414.07	3566.98
414.26	3410.16
414.45	3679.32
414.64	3674.64
414.83	3609.11
415.02	3763.58
415.22	3810.39
415.41	3885.29
415.60	3840.82
415.79	3765.92
415.98	3889.97
416.17	3934.44
416.36	3840.82
416.55	3999.98
416.74	4067.85
416.93	4014.02
417.12	4009.34
417.31	3997.64
417.50	4234.03
417.69	4147.43
417.88	4210.62
418.07	4152.11
418.26	4187.22
418.45	4308.93
418.64	4320.63
418.83	4418.93
419.02	4404.89
419.21	4428.29
419.39	4519.57
419.58	4557.02
419.77	4547.66
419.96	4608.51
420.15	4608.51
420.34	4447.02
420.53	4545.32
420.72	4732.56
420.91	4669.37
421.10	4784.06
421.29	4863.63
421.48	4667.03
421.67	4741.93
421.86	4617.88
422.05	4858.95
422.24	4685.75
422.43	4741.93
422.61	4826.18
422.80	4751.29
422.99	4858.95
423.18	4880.02
423.37	4987.68
423.56	4961.94
423.75	5034.49
423.94	4690.43
424.13	4545.32
424.32	4823.84
424.50	4975.98
424.69	5090.67
424.88	5144.50
425.07	4929.17
425.26	4849.59
425.45	4931.51
425.64	4884.70
425.83	5039.17
426.01	4987.68
426.20	5008.75
426.39	4983.00
426.58	5062.58
426.77	5177.26
426.96	5142.16
427.15	4947.89
427.33	5193.65
427.52	5132.79
427.71	5315.36
427.90	5078.96
428.09	5315.36
428.28	5242.80
428.46	5366.85
428.65	5352.81
428.84	5453.45
429.03	5481.53
429.22	5488.56
429.40	5507.28
429.59	5411.32
429.78	5177.26
429.97	5270.89
430.16	5500.26
430.34	5556.43
430.53	5722.61
430.72	5631.33
430.91	5612.60
431.10	5589.20
431.28	5755.38
431.47	5549.41
431.66	5804.53
431.85	5898.15
432.03	5919.21
432.22	6059.65
432.41	5856.02
432.60	5874.74
432.79	5853.68
432.97	6005.81
433.16	6036.24
433.35	6071.35
433.54	6101.78
433.72	6125.18
433.91	6022.20
434.10	6258.59
434.28	6059.65
434.47	6108.80
434.66	6253.91
434.85	6162.63
435.03	6235.19
435.22	6232.85
435.41	6387.32
435.59	6300.72
435.78	6431.79
435.97	6319.45
436.16	6551.16
436.34	6340.51
436.53	6303.06
436.72	6637.76
436.90	6574.56
437.09	6487.96
437.28	6319.45
437.46	6558.18
437.65	6513.71
437.84	6665.85
438.02	6764.15
438.21	6656.48
438.40	6656.48
438.58	7033.31
438.77	6874.15
438.96	6923.30
439.14	7190.13
439.33	7112.89
439.52	7087.14
439.70	7110.55
439.89	7180.76
440.08	7435.88
440.26	7470.99
440.45	7293.11
440.63	7424.18
440.82	7634.83
441.01	7438.22
441.19	7536.52
441.38	7648.87
441.57	7768.24
441.75	7719.09
441.94	7763.56
442.12	7878.24
442.31	8004.63
442.50	8128.68
442.68	7899.31
442.87	7941.44
443.05	7857.18
443.24	8102.93
443.43	8196.56
443.61	8180.17
443.80	8381.46
443.98	8116.98
444.17	7899.31
444.35	8121.66
444.54	8402.52
444.73	8327.63
444.91	8234.00
445.10	8287.84
445.28	8297.20
445.47	8358.05
445.65	8255.07
445.84	8531.25
446.02	8465.72
446.21	8383.80
446.39	8348.69
446.58	8301.88
446.77	8311.24
446.95	8222.30
447.14	8397.84
447.32	8671.68
447.51	8507.85
447.69	8472.74
447.88	8489.12
448.06	8451.67
448.25	8528.91
448.43	8589.77
448.62	8472.74
448.80	8683.39
448.99	8667.00
449.17	8842.54
449.36	8444.65
449.54	8781.69
449.73	8924.46
449.91	8905.74
450.10	9090.64
450.28	8975.95
450.46	9062.55
450.65	8814.46
450.83	9022.77
451.02	8826.16
451.20	9172.56
451.39	9097.66
451.57	9156.18
451.76	8980.64
451.94	9004.04
452.13	9373.85
452.31	9191.28
452.49	9036.81
452.68	9254.48
452.86	9490.87
453.05	9483.85
453.23	9605.56
453.42	9254.48
453.60	9298.95
453.78	9394.91
453.97	9404.27
454.15	9432.36
454.34	9317.67
454.52	9682.80
454.70	9694.50
454.89	9734.29
455.07	9678.12
455.26	9825.57
455.44	9912.17
455.62	9933.23
455.81	9792.80
455.99	9851.31
456.17	9958.98
456.36	9914.51
456.54	10090.05
456.73	10066.64
456.91	10354.53
457.09	10455.17
457.28	10415.38
457.46	10270.27
457.64	10431.77
457.83	10551.14
458.01	10389.64
458.19	10806.25
458.38	10647.10
458.56	10654.12
458.74	10654.12
458.93	10567.52
459.11	10761.78
459.29	10572.20
459.48	10743.06
459.66	10827.32
459.84	10656.46
460.03	11101.16
460.21	10923.28
460.39	10848.38
460.57	10876.47
460.76	10892.85
460.94	11126.91
461.12	11044.99
461.31	11325.85
461.49	10991.16
461.67	11211.17
461.85	11405.43
462.04	11379.68
462.22	11789.28
462.40	11442.88
462.59	11438.20
462.77	11543.52
462.95	11559.91
463.13	11714.38
463.32	11309.47
463.50	11534.16
463.68	11681.61
463.86	11552.88
464.05	11672.25
464.23	11632.46
464.41	11782.26
464.59	11648.85
464.78	12039.72
464.96	11847.79
465.14	11812.68
465.32	11953.12
465.50	11810.34
465.69	11726.08
465.87	12163.76
466.05	12095.89
466.23	12175.47
466.41	11999.93
466.60	12409.52
466.78	11934.39
466.96	12091.21
467.14	12290.15
467.32	12170.79
467.51	12416.54
467.69	12175.47
467.87	12472.71
468.05	12549.95
468.23	12556.97
468.41	12219.94
468.60	12336.96
468.78	12636.55
468.96	12692.73
469.14	12959.55
469.32	12861.24
469.50	12716.13
469.69	12889.33
469.87	13025.08
470.05	13329.35
470.23	12919.76
470.41	13071.89
470.59	13256.79
470.77	13048.49
470.95	13345.73
471.14	13327.01
471.32	13137.43
471.50	13298.92
471.68	13528.30
471.86	13699.16
472.04	13589.15
472.22	13820.86
472.40	13797.46
472.58	13750.65
472.77	13830.23
472.95	14010.45
473.13	14398.98
473.31	13933.21
473.49	14097.05
473.67	13916.83
473.85	14087.68
474.03	14417.70
474.21	14499.62
474.39	14567.49
474.57	14523.02
474.75	14508.98
474.93	14775.80
475.12	14850.70
475.30	14939.64
475.48	15056.67
475.66	14949.00
475.84	14869.42
476.02	15044.96
476.20	15358.60
476.38	15688.61
476.56	15922.66
476.74	15861.81
476.92	15833.72
477.10	15744.78
477.28	15941.39
477.46	16042.03
477.64	16203.53
477.82	16444.60
478.00	16957.18
478.18	16482.05
478.36	17085.91
478.54	17181.87
478.72	16964.20
478.90	17109.32
479.08	17429.97
479.26	17390.18
479.44	17724.88
479.62	17855.95
479.80	17881.69
479.98	17621.89
480.16	18621.30
480.34	18244.48
480.52	18312.35
480.70	18422.36
480.88	18342.78
481.06	18298.31
481.24	18466.83
481.41	18782.80
481.59	19164.31
481.77	19379.64
481.95	19157.28
482.13	19585.60
482.31	19735.40
482.49	20182.44
482.67	20032.65
482.85	20255.00
483.03	20486.71
483.21	20889.28
483.39	21027.37
483.57	20767.57
483.74	21039.08
483.92	21329.30
484.10	21226.32
484.28	21467.39
484.46	21954.22
484.64	21818.47
484.82	21830.18
485.00	21900.39
485.18	22686.81
485.35	23073.00
485.53	22857.67
485.71	23037.89
485.89	23220.45
486.07	23349.18
486.25	22998.10
486.43	23550.47
486.61	23555.15
486.78	23892.19
486.96	24233.91
487.14	24531.15
487.32	24559.24
487.50	24886.92
487.68	24704.35
487.85	25132.67
488.03	25535.24
488.21	25633.55
488.39	25825.47
488.57	25731.85
488.75	26080.59
488.92	26115.70
489.10	26497.20
489.28	26742.96
489.46	27072.98
489.64	27232.13
489.81	27590.24
489.99	27381.93
490.17	27875.78
490.35	28243.24
490.53	27934.29
490.70	28453.89
490.88	27807.90
491.06	28332.18
491.24	28526.45
491.41	29226.27
491.59	29125.63
491.77	29055.41
491.95	29399.47
492.13	29624.16
492.30	29806.72
492.48	29874.60
492.66	30160.14
492.84	30209.29
493.01	30478.46
493.19	30274.83
493.37	30621.23
493.54	31154.87
493.72	31442.76
493.90	31220.41
494.08	31653.40
494.25	31782.13
494.43	31878.10
494.61	32093.43
494.79	32512.38
494.96	32280.67
495.14	32606.00
495.32	33041.34
495.49	33237.95
495.67	33275.40
495.85	33188.80
496.02	33654.56
496.20	33558.60
496.38	34108.63
496.55	33928.41
496.73	34391.83
496.91	34466.73
497.09	34820.15
497.26	34742.91
497.44	34904.41
497.62	35171.23
497.79	35634.66
497.97	35173.57
498.14	35227.40
498.32	36278.30
498.50	35779.77
498.67	36610.66
498.85	36201.07
499.03	36847.05
499.20	36631.72
499.38	36741.73
499.56	36776.84
499.73	36809.61
499.91	37289.42
500.08	37301.12
500.26	37329.20
500.44	37460.27
500.61	37687.31
500.79	37446.23
500.97	37706.03
501.14	38520.54
501.32	38213.93
501.49	38405.85
501.67	38691.40
501.84	38813.10
502.02	38883.32
502.20	38916.09
502.37	39049.50
502.55	39215.68
502.72	39342.06
502.90	39220.36
503.07	39133.76
503.25	39779.74
503.43	39496.54
503.60	39840.60
503.78	40098.06
503.95	40168.27
504.13	40179.98
504.30	40320.41
504.48	40165.93
504.65	40336.79
504.83	40706.60
505.01	40996.82
505.18	41013.21
505.36	41097.47
505.53	41090.44
505.71	41291.73
505.88	41448.55
506.06	41478.97
506.23	42007.94
506.41	41783.24
506.58	42073.47
506.76	42033.68
506.93	42167.09
507.11	42483.06
507.28	42183.48
507.46	42850.53
507.63	42976.92
507.81	43016.71
507.98	42726.48
508.16	42899.68
508.33	43370.13
508.50	42775.63
508.68	43372.47
508.85	43320.98
509.03	43821.85
509.20	43807.81
509.38	44210.38
509.55	44140.16
509.73	44435.07
509.90	44210.38
510.08	44079.31
510.25	44088.67
510.42	44512.31
510.60	45102.12
510.77	44935.95
510.95	44868.07
511.12	44985.10
511.30	45071.70
511.47	44879.77
511.64	45301.07
511.82	46263.03
511.99	45521.08
512.17	46003.23
512.34	45694.28
512.51	46061.74
512.69	46513.47
512.86	46382.40
513.04	46623.47
513.21	46583.68
513.38	46597.73
513.56	46616.45
513.73	46492.40
513.90	46848.16
514.08	46857.52
514.25	47159.45
514.43	47152.43
514.60	47660.33
514.77	47077.54
514.95	47470.75
515.12	47122.01
515.29	47662.67
515.47	48069.92
515.64	47892.04
515.81	47601.82
515.99	47922.47
516.16	48418.66
516.33	48046.52
516.51	48495.90
516.68	48622.29
516.85	48437.39
517.03	48617.61
517.20	48830.60
517.37	48720.59
517.54	48708.89
517.72	48996.77
517.89	48905.49
518.06	49209.76
518.24	49118.48
518.41	49074.01
518.58	49127.84
518.75	49125.50
518.93	49404.03
519.10	49287.00
519.27	49579.57
519.45	49270.62
519.62	49869.79
519.79	49848.73
519.96	50145.98
520.14	50202.15
520.31	49900.22
520.48	50003.20
520.65	50440.89
520.83	50597.70
521.00	50691.32
521.17	50333.22
521.34	50328.54
521.52	50609.40
521.69	50696.00
521.86	50782.60
522.03	51077.51
522.20	51274.12
522.38	51440.29
522.55	51248.37
522.72	51047.08
522.89	51030.70
523.07	51505.83
523.24	51660.30
523.41	51180.49
523.58	51320.93
523.75	51676.69
523.92	51447.32
524.10	51856.91
524.27	51812.44
524.44	51938.83
524.61	51737.54
524.78	52048.83
524.96	51779.67
525.13	52044.15
525.30	52275.87
525.47	52322.68
525.64	52334.38
525.81	52505.24
525.98	52535.66
526.16	52519.28
526.33	52406.94
526.50	53169.95
526.67	52678.44
526.84	52839.93
527.01	52886.74
527.18	52839.93
527.36	52697.16
527.53	52910.15
527.70	53085.69
527.87	53399.32
528.04	52893.77
528.21	53183.99
528.38	53022.50
528.55	53462.52
528.72	53188.67
528.89	53034.20
529.07	53198.04
529.24	53289.32
529.41	53481.24
529.58	53446.13
529.75	53748.06
529.92	53755.08
530.09	53581.88
530.26	53698.91
530.43	53865.09
530.60	53867.43
530.77	53790.19
530.94	53750.40
531.11	53682.53
531.28	53886.15
531.46	54192.76
531.63	54075.74
531.80	54120.21
531.97	54141.27
532.14	54218.51
532.31	54335.54
532.48	54508.74
532.65	54574.27
532.82	54497.03
532.99	54630.44
533.16	54363.62
533.33	54805.98
533.50	54475.97
533.67	54745.13
533.84	54775.56
534.01	54845.77
534.18	54780.24
534.35	55213.24
534.52	55098.55
534.69	54827.05
534.86	55068.12
535.03	54915.99
535.20	55075.15
535.37	55194.51
535.54	55229.62
535.71	55316.22
535.88	55466.02
536.05	55475.38
536.22	55636.87
536.38	55650.92
536.55	55650.92
536.72	55334.95
536.89	55449.63
537.06	55487.08
537.23	55760.92
537.40	55501.12
537.57	55629.85
537.74	55774.97
537.91	55814.76
538.08	55793.69
538.25	55561.98
538.42	55807.73
538.59	56133.07
538.75	55735.18
538.92	55798.37
539.09	56205.62
539.26	56055.83
539.43	55908.38
539.60	56268.82
539.77	56247.75
539.94	56034.77
540.11	56097.96
540.28	56381.16
540.44	56533.30
540.61	56079.24
540.78	56207.97
540.95	56243.07
541.12	56470.11
541.29	56205.62
541.46	56449.04
541.62	56591.81
541.79	56360.10
541.96	56165.84
542.13	56596.49
542.30	56601.18
542.47	56708.84
542.63	56521.60
542.80	56961.62
542.97	56893.74
543.14	57036.51
543.31	57017.79
543.48	57013.11
543.64	57373.55
543.81	57265.89
543.98	57167.58
544.15	57284.61
544.32	57385.25
544.48	57460.15
544.65	57378.23
544.82	57099.71
544.99	57165.24
545.16	57336.10
545.32	57240.14
545.49	57476.54
545.66	57364.19
545.83	57420.36
546.00	57820.59
546.16	57497.60
546.33	57663.78
546.50	57296.31
546.67	57591.22
546.83	57385.25
547.00	57764.42
547.17	57511.64
547.34	57513.98
547.50	57719.95
547.67	57907.19
547.84	57932.94
548.00	57956.35
548.17	58071.03
548.34	57846.34
548.51	58174.02
548.67	57998.48
548.84	57965.71
549.01	58092.10
549.18	57918.90
549.34	57970.39
549.51	58031.24
549.68	58394.03
549.84	58218.49
550.01	58106.14
550.18	58108.48
550.34	58468.92
550.51	58202.10
550.68	58251.25
550.84	58220.83
551.01	58262.96
551.18	58504.03
551.34	58464.24
551.51	58433.81
551.68	58482.97
551.84	58438.50
552.01	58277.00
552.18	58625.74
552.34	58316.79
552.51	58721.70
552.68	58511.05
552.84	58719.36
553.01	58969.80
553.18	58618.72
553.34	58791.92
553.51	58693.61
553.67	58646.80
553.84	58862.13
554.01	58892.56
554.17	59117.25
554.34	58955.75
554.51	58972.14
554.67	58691.27
554.84	58820.00
555.00	58768.51
555.17	59185.13
555.33	58955.75
555.50	58824.68
555.67	58798.94
555.83	58969.80
556.00	58927.67
556.16	59182.79
556.33	59143.00
556.50	58852.77
556.66	59391.09
556.83	58993.20
556.99	59400.46
557.16	59451.95
557.32	59388.75
557.49	59587.70
557.65	59086.82
557.82	59124.27
557.98	59255.34
558.15	59309.18
558.32	59203.85
558.48	59147.68
558.65	59330.24
558.81	59360.67
558.98	59454.29
559.14	59505.78
559.31	59657.91
559.47	59526.84
559.64	59676.64
559.80	59615.79
559.97	59515.14
560.13	59491.74
560.30	59515.14
560.46	59576.00
560.63	59599.40
560.79	59524.50
560.96	59606.42
561.12	59744.51
561.29	59847.50
561.45	59592.38
561.61	59770.26
561.78	59550.25
561.94	59803.03
562.11	59629.83
562.27	59784.30
562.44	59861.54
562.60	59908.35
562.77	59753.88
562.93	59863.88
563.10	60009.00
563.26	59983.25
563.42	59842.82
563.59	59978.57
563.75	59735.15
563.92	59854.52
564.08	59861.54
564.24	60109.64
564.41	60069.85
564.57	59973.89
564.74	59917.71
564.90	59955.16
565.07	60069.85
565.23	60081.55
565.39	59927.08
565.56	60088.57
565.72	60119.00
565.88	60207.94
566.05	59994.95
566.21	60128.36
566.38	60009.00
566.54	60179.85
566.70	60299.22
566.87	60123.68
567.03	60062.83
567.19	60416.25
567.36	60177.51
567.52	60123.68
567.68	60430.29
567.85	60172.83
568.01	60432.63
568.17	60123.68
568.34	60544.98
568.50	60133.04
568.66	60006.65
568.83	60360.08
568.99	60320.29
569.15	60224.32
569.32	60329.65
569.48	60313.26
569.64	60341.35
569.81	60306.24
569.97	60065.17
570.13	60301.56
570.30	60135.38
570.46	60353.05
570.62	60430.29
570.78	60589.45
570.95	60395.18
571.11	60725.20
571.27	60416.25
571.43	60418.59
571.60	60568.38
571.76	60486.46
571.92	60451.36
572.09	60512.21
572.25	60587.11
572.41	60493.49
572.57	60416.25
572.74	60626.90
572.90	60329.65
573.06	60577.75
573.22	60643.28
573.38	60470.08
573.55	60500.51
573.71	60760.31
573.87	60559.02
574.03	60425.61
574.20	60467.74
574.36	60371.78
574.52	60652.64
574.68	60587.11
574.84	60711.16
575.01	60732.22
575.17	60676.05
575.33	60577.75
575.49	60526.25
575.65	60540.30
575.82	60753.29
575.98	60568.38
576.14	60877.33
576.30	60687.75
576.46	60654.98
576.62	60587.11
576.79	60755.63
576.95	60404.55
577.11	60757.97
577.27	60795.42
577.43	60699.45
577.59	60750.94
577.75	60652.64
577.92	60774.35
578.08	60601.15
578.24	60802.44
578.40	60907.76
578.56	60736.90
578.72	60856.27
578.88	60933.51
579.04	60954.57
579.21	60762.65
579.37	60989.68
579.53	60729.88
579.69	60687.75
579.85	60519.23
580.01	60748.60
580.17	60685.41
580.33	60640.94
580.49	60891.38
580.65	60811.80
580.82	60898.40
580.98	60772.01
581.14	60647.96
581.30	60872.65
581.46	60896.06
581.62	60884.36
581.78	60860.95
581.94	60800.10
582.10	60685.41
582.26	60748.60
582.42	60851.59
582.58	60814.14
582.74	60764.99
582.90	60947.55
583.06	60727.54
583.22	60842.23
583.38	60720.52
583.54	60889.04
583.70	60853.93
583.86	60846.91
584.02	60877.33
584.18	61059.90
584.34	60975.64
584.50	60844.57
584.66	60987.34
584.82	60685.41
584.98	60954.57
585.14	60942.87
585.30	60795.42
585.46	61029.47
585.62	61106.71
585.78	61085.64
585.94	60666.69
586.10	60825.84
586.26	60977.98
586.42	61087.98
586.58	61031.81
586.74	60980.32
586.90	60755.63
587.06	60821.16
587.22	61043.51
587.38	60804.78
587.54	61319.70
587.70	61064.58
587.86	60938.19
588.02	60741.58
588.18	61113.73
588.34	60945.21
588.49	61087.98
