SpectraSuite Data File
++++++++++++++++++++++++++++++++++++
Date: Fri Oct 25 11:23:08 EDT 2013
User: price-jones
Dark Spectrum Present: No
Reference Spectrum Present: No
Number of Sampled Component Spectra: 1
Spectrometers: USB2+H05261
Integration Time (usec): 100000 (USB2+H05261)
Spectra Averaged: 1 (USB2+H05261)
Boxcar Smoothing: 0 (USB2+H05261)
Correct for Electrical Dark: No (USB2+H05261)
Strobe/Lamp Enabled: No (USB2+H05261)
Correct for Detector Non-linearity: No (USB2+H05261)
Correct for Stray Light: No (USB2+H05261)
Number of Pixels in Processed Spectrum: 2048
>>>>>Begin Processed Spectral Data<<<<<
365.73	147.45
365.92	147.45
366.12	147.45
366.32	210.65
366.52	93.62
366.72	163.84
366.91	145.11
367.11	86.60
367.31	102.98
367.51	124.05
367.70	105.32
367.90	84.26
368.10	168.52
368.30	147.45
368.49	149.79
368.69	145.11
368.89	117.03
369.09	114.69
369.28	170.86
369.48	121.71
369.68	161.50
369.87	210.65
370.07	255.12
370.27	259.80
370.47	339.38
370.66	638.97
370.86	643.65
371.06	641.31
371.25	702.16
371.45	650.67
371.65	725.57
371.84	688.12
372.04	655.35
372.24	667.05
372.44	713.86
372.63	725.57
372.83	692.80
373.03	662.37
373.22	798.12
373.42	727.91
373.62	781.74
373.81	709.18
374.01	802.80
374.21	849.61
374.40	828.55
374.60	868.34
374.79	835.57
374.99	835.57
375.19	793.44
375.38	915.15
375.58	866.00
375.78	819.19
375.97	917.49
376.17	971.32
376.37	786.42
376.56	840.25
376.76	866.00
376.95	830.89
377.15	931.53
377.35	938.55
377.54	851.96
377.74	884.72
377.93	826.21
378.13	940.90
378.33	968.98
378.52	887.06
378.72	947.92
378.91	980.68
379.11	868.34
379.31	985.37
379.50	929.19
379.70	959.62
379.89	943.24
380.09	971.32
380.28	1015.79
380.48	901.11
380.68	990.05
380.87	1001.75
381.07	980.68
381.26	1062.60
381.46	994.73
381.65	1032.18
381.85	1013.45
382.04	1116.44
382.24	1053.24
382.43	1069.62
382.63	1048.56
382.83	1062.60
383.02	1200.69
383.22	1074.31
383.41	1128.14
383.61	1057.92
383.80	1022.81
384.00	1093.03
384.19	1179.63
384.39	1114.10
384.58	1139.84
384.78	1107.07
384.97	1179.63
385.17	1247.51
385.36	1158.57
385.56	1226.44
385.75	1203.04
385.95	1111.75
386.14	1219.42
386.34	1221.76
386.53	1226.44
386.72	1186.65
386.92	1303.68
387.11	1254.53
387.31	1167.93
387.50	1317.72
387.70	1193.67
387.89	1338.79
388.09	1289.64
388.28	1329.42
388.48	1287.29
388.67	1341.13
388.86	1294.32
389.06	1320.06
389.25	1362.19
389.45	1350.49
389.64	1261.55
389.84	1444.11
390.03	1317.72
390.22	1345.81
390.42	1322.40
390.61	1336.45
390.81	1371.55
391.00	1465.18
391.19	1380.92
391.39	1467.52
391.58	1378.58
391.78	1479.22
391.97	1476.88
392.16	1446.45
392.36	1493.26
392.55	1519.01
392.75	1472.20
392.94	1565.82
393.13	1519.01
393.33	1568.16
393.52	1582.20
393.71	1540.07
393.91	1572.84
394.10	1481.56
394.29	1598.59
394.49	1703.91
394.68	1589.22
394.88	1666.46
395.07	1626.67
395.26	1746.04
395.46	1722.63
395.65	1746.04
395.84	1717.95
396.04	1872.43
396.23	1710.93
396.42	1816.26
396.62	1830.30
396.81	1806.89
397.00	1837.32
397.19	1734.34
397.39	1708.59
397.58	1856.04
397.77	1769.44
397.97	1881.79
398.16	1858.39
398.35	1842.00
398.55	1846.68
398.74	1891.15
398.93	2022.22
399.12	1891.15
399.32	1942.64
399.51	1933.28
399.70	2118.18
399.90	1982.43
400.09	2038.61
400.28	2064.35
400.47	2033.93
400.67	2125.21
400.86	2047.97
401.05	2078.40
401.24	2036.27
401.44	2108.82
401.63	2047.97
401.82	2181.38
402.01	2062.01
402.21	2214.15
402.40	2162.66
402.59	2153.29
402.78	2244.57
402.97	2186.06
403.17	2263.30
403.36	2296.07
403.55	2258.62
403.74	2368.62
403.93	2314.79
404.13	2373.30
404.32	2401.39
404.51	2389.69
404.70	2366.28
404.89	2415.43
405.09	2478.63
405.28	2422.45
405.47	2509.05
405.66	2609.70
405.85	2558.21
406.05	2588.63
406.24	2616.72
406.43	2623.74
406.62	2569.91
406.81	2637.78
407.00	2525.44
407.20	2539.48
407.39	2637.78
407.58	2782.90
407.77	2651.83
407.96	2806.30
408.15	2813.32
408.34	2771.19
408.54	2794.60
408.73	2801.62
408.92	2855.45
409.11	2841.41
409.30	2944.39
409.49	2963.12
409.68	2918.65
409.87	2960.78
410.07	3042.70
410.26	3077.80
410.45	3030.99
410.64	3047.38
410.83	3021.63
411.02	3129.30
411.21	3239.30
411.40	3052.06
411.59	3253.34
411.78	3260.37
411.98	3330.58
412.17	3269.73
412.36	3239.30
412.55	3435.91
412.74	3412.50
412.93	3566.98
413.12	3494.42
413.31	3520.17
413.50	3363.35
413.69	3487.40
413.88	3747.20
414.07	3723.79
414.26	3735.50
414.45	3747.20
414.64	3733.15
414.83	3737.84
415.02	3894.65
415.22	3833.80
415.41	3981.25
415.60	3817.41
415.79	4002.32
415.98	3899.33
416.17	3953.16
416.36	4049.13
416.55	4098.28
416.74	3997.64
416.93	4154.45
417.12	4039.76
417.31	4126.36
417.50	4287.86
417.69	4297.22
417.88	4219.99
418.07	4271.48
418.26	4304.25
418.45	4386.16
418.64	4503.19
418.83	4418.93
419.02	4517.23
419.21	4362.76
419.39	4645.96
419.58	4283.18
419.77	4418.93
419.96	4557.02
420.15	4554.68
420.34	4723.20
420.53	4734.90
420.72	4746.61
420.91	4755.97
421.10	4704.48
421.29	4809.80
421.48	4697.46
421.67	4875.34
421.86	4767.67
422.05	4936.19
422.24	4826.18
422.43	4849.59
422.61	4889.38
422.80	5081.30
422.99	4896.40
423.18	5057.90
423.37	5097.69
423.56	4919.81
423.75	5041.51
423.94	4945.55
424.13	4744.27
424.32	4868.31
424.50	5036.83
424.69	5123.43
424.88	5104.71
425.07	4943.21
425.26	4875.34
425.45	5043.85
425.64	4966.62
425.83	5167.90
426.01	5022.79
426.20	4961.94
426.39	4919.81
426.58	5193.65
426.77	5121.09
426.96	5320.04
427.15	5198.33
427.33	5069.60
427.52	5167.90
427.71	5245.14
427.90	5221.74
428.09	5369.19
428.28	5570.48
428.46	5535.37
428.65	5444.09
428.84	5628.99
429.03	5741.33
429.22	5341.10
429.40	5603.24
429.59	5584.52
429.78	5308.34
429.97	5355.15
430.16	5607.92
430.34	5549.41
430.53	5792.83
430.72	5811.55
430.91	5675.80
431.10	5818.57
431.28	5755.38
431.47	5710.91
431.66	6026.88
431.85	5774.10
432.03	5738.99
432.22	6078.37
432.41	5909.85
432.60	6031.56
432.79	5949.64
432.97	6040.92
433.16	6129.86
433.35	5984.75
433.54	6090.07
433.72	6207.10
433.91	6193.06
434.10	6188.38
434.28	6148.59
434.47	6265.61
434.66	6319.45
434.85	6324.13
435.03	6382.64
435.22	6438.81
435.41	6434.13
435.59	6361.58
435.78	6427.11
435.97	6513.71
436.16	6427.11
436.34	6413.07
436.53	6518.39
436.72	6745.42
436.90	6359.24
437.09	6773.51
437.28	6490.31
437.46	6696.27
437.65	6717.34
437.84	6803.94
438.02	6647.12
438.21	6775.85
438.40	6803.94
438.58	7082.46
438.77	7101.19
438.96	7082.46
439.14	7311.83
439.33	7276.73
439.52	7286.09
439.70	7328.22
439.89	7384.39
440.08	7382.05
440.26	7396.09
440.45	7356.30
440.63	7470.99
440.82	7585.68
441.01	7538.87
441.19	7693.34
441.38	7721.43
441.57	7789.30
441.75	7749.51
441.94	8175.49
442.12	8154.43
442.31	7934.42
442.50	8203.58
442.68	7943.78
442.87	8145.06
443.05	8262.09
443.24	8336.99
443.43	8299.54
443.61	8042.08
443.80	8425.93
443.98	8091.23
444.17	8070.17
444.35	8191.88
444.54	8575.72
444.73	8428.27
444.91	8456.36
445.10	8432.95
445.28	8369.76
445.47	8468.06
445.65	8266.77
445.84	8517.21
446.02	8631.90
446.21	8437.63
446.39	8397.84
446.58	8652.96
446.77	8589.77
446.95	8308.90
447.14	8259.75
447.32	8557.00
447.51	8762.97
447.69	8341.67
447.88	8634.24
448.06	8517.21
448.25	8528.91
448.43	8774.67
448.62	8610.83
448.80	8638.92
448.99	8711.47
449.17	8828.50
449.36	8730.20
449.54	8840.20
449.73	8933.82
449.91	8924.46
450.10	9013.40
450.28	9139.79
450.46	9174.90
450.65	9125.75
450.83	8987.66
451.02	9226.39
451.20	9291.93
451.39	9212.35
451.57	9437.04
451.76	9174.90
451.94	9432.36
452.13	9284.91
452.31	9563.43
452.49	9411.29
452.68	9462.79
452.86	9554.07
453.05	9488.53
453.23	9603.22
453.42	9352.78
453.60	9357.46
453.78	9774.08
453.97	9710.88
454.15	9563.43
454.34	9577.47
454.52	9837.27
454.70	9863.02
454.89	9898.13
455.07	9755.35
455.26	9954.30
455.44	9966.00
455.62	10066.64
455.81	9900.47
455.99	10190.69
456.17	10218.78
456.36	10132.18
456.54	10211.76
456.73	10469.22
456.91	10555.82
457.09	10635.39
457.28	10614.33
457.46	10548.79
457.64	10640.08
457.83	10743.06
458.01	10478.58
458.19	10944.34
458.38	10588.58
458.56	10759.44
458.74	10897.53
458.93	10604.97
459.11	10923.28
459.29	10822.64
459.48	10958.39
459.66	10965.41
459.84	11047.33
460.03	11185.42
460.21	11019.24
460.39	11066.05
460.57	11190.10
460.76	11346.92
460.94	11269.68
461.12	11382.03
461.31	11461.60
461.49	11276.70
461.67	11403.09
461.85	11604.38
462.04	11059.03
462.22	11705.02
462.40	11817.36
462.59	11590.33
462.77	11620.76
462.95	11749.49
463.13	11632.46
463.32	11929.71
463.50	11810.34
463.68	11927.37
463.86	12177.81
464.05	11681.61
464.23	11812.68
464.41	12123.98
464.59	11716.72
464.78	12233.98
464.96	12025.67
465.14	12138.02
465.32	12006.95
465.50	12320.58
465.69	12278.45
465.87	12273.77
466.05	12259.73
466.23	12425.90
466.41	12273.77
466.60	12423.56
466.78	12311.22
466.96	12278.45
467.14	12748.90
467.32	12781.67
467.51	12781.67
467.69	12418.88
467.87	12643.57
468.05	12706.77
468.23	12582.72
468.41	12592.08
468.60	12652.94
468.78	12851.88
468.96	12697.41
469.14	13046.15
469.32	13233.39
469.50	12837.84
469.69	13151.47
469.87	13315.31
470.05	13399.57
470.23	13102.32
470.41	13352.76
470.59	13357.44
470.77	13165.51
470.95	13518.93
471.14	13956.61
471.32	13090.62
471.50	13593.83
471.68	13703.84
471.86	13764.69
472.04	13989.38
472.22	14230.46
472.40	13666.39
472.58	13951.93
472.77	14104.07
472.95	14450.47
473.13	14565.15
473.31	14389.61
473.49	14462.17
473.67	14113.43
473.85	14111.09
474.03	14649.41
474.21	14665.80
474.39	15073.05
474.57	14672.82
474.75	15044.96
474.93	15290.72
475.12	15272.00
475.30	15262.63
475.48	15225.18
475.66	15496.69
475.84	15538.82
476.02	15527.11
476.20	15417.11
476.38	15974.16
476.56	16348.64
476.74	16184.80
476.92	16290.13
477.10	16313.53
477.28	16552.27
477.46	16353.32
477.64	16526.52
477.82	16912.71
478.00	16978.25
478.18	16905.69
478.36	17326.99
478.54	17352.73
478.72	17593.81
478.90	17659.34
479.08	17593.81
479.26	18050.21
479.44	17839.56
479.62	17996.38
479.80	18335.76
479.98	18265.54
480.16	18956.00
480.34	18576.83
480.52	18630.66
480.70	18813.23
480.88	18600.24
481.06	18867.06
481.24	19030.90
481.41	19241.54
481.59	19463.90
481.77	19887.53
481.95	19807.95
482.13	19840.72
482.31	19829.02
482.49	20166.06
482.67	20561.61
482.85	20765.23
483.03	20814.38
483.21	20746.51
483.39	21221.64
483.57	20940.77
483.74	21160.78
483.92	21427.60
484.10	21397.18
484.28	22054.87
484.46	22111.04
484.64	22593.19
484.82	22195.30
485.00	22848.31
485.18	23154.92
485.35	23054.28
485.53	22939.59
485.71	23363.23
485.89	23733.03
486.07	23419.40
486.25	23899.21
486.43	23606.64
486.61	24109.86
486.78	24414.13
486.96	24720.74
487.14	25071.82
487.32	25064.80
487.50	25242.68
487.68	25179.48
487.85	25418.22
488.03	25762.28
488.21	26326.35
488.39	26333.37
488.57	26324.01
488.75	26309.96
488.92	26824.88
489.10	26986.38
489.28	27019.14
489.46	27704.92
489.64	27269.58
489.81	27974.08
489.99	27938.97
490.17	27791.52
490.35	28336.87
490.53	28348.57
490.70	28577.94
490.88	28875.19
491.06	28973.49
491.24	28964.13
491.41	29324.57
491.59	29715.44
491.77	29357.34
491.95	30436.33
492.13	30005.67
492.30	30176.53
492.48	30340.36
492.66	30352.07
492.84	30834.22
493.01	31063.59
493.19	31199.34
493.37	31274.24
493.54	31763.41
493.72	31653.40
493.90	31534.04
494.08	32566.21
494.25	32306.41
494.43	32404.72
494.61	32514.72
494.79	33186.46
494.96	32652.81
495.14	33303.48
495.32	33806.70
495.49	33727.12
495.67	33649.88
495.85	33876.91
496.02	34291.19
496.20	34342.68
496.38	34314.59
496.55	34686.74
496.73	35601.89
496.91	35213.36
497.09	35297.62
497.26	35400.60
497.44	35360.81
497.62	35529.33
497.79	36327.45
497.97	35793.81
498.14	36519.38
498.32	36573.21
498.50	36582.57
498.67	37116.22
498.85	37172.39
499.03	37249.63
499.20	37069.40
499.38	37378.36
499.56	37806.67
499.73	37656.88
499.91	37869.87
500.08	38108.60
500.26	37787.95
500.44	37982.21
500.61	38567.35
500.79	38068.81
500.97	38747.57
501.14	39133.76
501.32	38742.89
501.49	38927.79
501.67	39381.85
501.84	39592.50
502.02	39304.62
502.20	39407.60
502.37	39768.04
502.55	39592.50
502.72	39770.38
502.90	39871.03
503.07	40399.99
503.25	39941.24
503.43	39971.67
503.60	40444.46
503.78	40851.71
503.95	41006.19
504.13	41160.66
504.30	41198.11
504.48	40769.79
504.65	41205.13
504.83	41397.06
505.01	41642.81
505.18	41701.32
505.36	41923.68
505.53	41717.71
505.71	42078.15
505.88	42162.41
506.06	41965.81
506.23	42440.93
506.41	42113.26
506.58	42806.06
506.76	42660.94
506.93	42555.62
507.11	42689.03
507.28	42733.50
507.46	42777.97
507.63	43236.72
507.81	43629.93
507.98	43283.53
508.16	43555.03
508.33	44273.57
508.50	43992.71
508.68	43906.11
508.85	44535.71
509.03	44222.08
509.20	44755.72
509.38	44538.05
509.55	44704.23
509.73	45006.16
509.90	45261.28
510.08	44896.16
510.25	45263.62
510.42	45214.47
510.60	45654.49
510.77	45198.09
510.95	46066.42
511.12	45703.64
511.30	45991.53
511.47	45621.72
511.64	45963.44
511.82	46274.73
511.99	45963.44
512.17	46134.30
512.34	46447.93
512.51	46803.69
512.69	46691.35
512.86	47033.07
513.04	46906.68
513.21	47049.45
513.38	47587.77
513.56	47138.39
513.73	47203.92
513.90	47473.09
514.08	46960.51
514.25	47739.91
514.43	47772.67
514.60	48137.80
514.77	47873.32
514.95	48210.35
515.12	48287.59
515.29	47969.28
515.47	48212.70
515.64	48736.98
515.81	48212.70
515.99	48268.87
516.16	49027.20
516.33	48577.82
516.51	48835.28
516.68	48844.64
516.85	49265.94
517.03	49055.29
517.20	49415.73
517.37	49352.54
517.54	49462.54
517.72	49324.45
517.89	49130.19
518.06	49598.29
518.24	49563.18
518.41	49441.48
518.58	49432.11
518.75	49804.26
518.93	50391.73
519.10	49979.80
519.27	49900.22
519.45	49886.18
519.62	50300.45
519.79	50286.41
519.96	50642.17
520.14	50597.70
520.31	50354.29
520.48	51154.75
520.65	50660.90
520.83	51173.47
521.00	50955.80
521.17	50728.77
521.34	51421.57
521.52	51019.00
521.69	51210.92
521.86	51543.28
522.03	51594.77
522.20	51611.15
522.38	51782.01
522.55	51515.19
522.72	51782.01
522.89	51924.78
523.07	51873.29
523.24	51657.96
523.41	52341.40
523.58	51817.12
523.75	52147.14
523.92	52154.16
524.10	51957.55
524.27	52458.43
524.44	52481.83
524.61	52420.98
524.78	52598.86
524.96	52369.49
525.13	52446.72
525.30	52748.65
525.47	52839.93
525.64	52802.49
525.81	52863.34
525.98	53106.76
526.16	53134.84
526.33	53066.97
526.50	53251.87
526.67	53200.38
526.84	53134.84
527.01	53062.29
527.18	53333.79
527.36	53226.12
527.53	53282.30
527.70	53663.80
527.87	53743.38
528.04	53394.64
528.21	53837.00
528.38	53551.46
528.55	53677.85
528.72	53631.04
528.89	53776.15
529.07	53614.65
529.24	53841.68
529.41	54059.35
529.58	54096.80
529.75	53806.58
529.92	54136.59
530.09	54291.07
530.26	54391.71
530.43	54515.76
530.60	54057.01
530.77	54129.57
530.94	54312.13
531.11	54365.96
531.28	54508.74
531.46	54389.37
531.63	54534.48
531.80	54536.82
531.97	54794.28
532.14	54983.86
532.31	54721.72
532.48	54850.45
532.65	55136.00
532.82	54845.77
532.99	54845.77
533.16	54930.03
533.33	55040.04
533.50	55271.75
533.67	55311.54
533.84	55288.13
534.01	55004.93
534.18	55372.39
534.35	55379.42
534.52	55496.44
534.69	55592.40
534.86	55484.74
535.03	55402.82
535.20	55714.11
535.37	55693.05
535.54	55552.62
535.71	55576.02
535.88	55767.94
536.05	55728.16
536.22	55781.99
536.38	55781.99
536.55	55966.89
536.72	56002.00
536.89	55615.81
537.06	56020.72
537.23	56081.58
537.40	56140.09
537.57	56027.74
537.74	56006.68
537.91	56088.60
538.08	56107.32
538.25	55990.30
538.42	56332.01
538.59	56580.11
538.75	56198.60
538.92	56294.56
539.09	56526.28
539.26	56214.99
539.43	56491.17
539.60	56734.59
539.77	56364.78
539.94	56722.88
540.11	56446.70
540.28	56486.49
540.44	56486.49
540.61	56750.97
540.78	56757.99
540.95	56816.50
541.12	56683.09
541.29	56706.50
541.46	56905.44
541.62	57001.41
541.79	56811.82
541.96	56694.80
542.13	56783.74
542.30	57088.01
542.47	57064.60
542.63	57104.39
542.80	57195.67
542.97	57155.88
543.14	57528.03
543.31	57242.48
543.48	57406.32
543.64	57717.61
543.81	57471.85
543.98	57605.26
544.15	57563.14
544.32	57792.51
544.48	57722.29
544.65	57778.46
544.82	57818.25
544.99	57616.97
545.16	57733.99
545.32	57769.10
545.49	58087.42
545.66	58106.14
545.83	57897.83
546.00	57932.94
546.16	58045.29
546.33	57869.75
546.50	57762.08
546.67	57963.37
546.83	57982.09
547.00	58211.46
547.17	58169.33
547.34	57939.96
547.50	57996.13
547.67	58176.36
547.84	58436.16
548.00	58513.39
548.17	58408.07
548.34	58424.45
548.51	58436.16
548.67	58611.70
548.84	58405.73
549.01	58347.21
549.18	58377.64
549.34	58492.33
549.51	58412.75
549.68	58534.46
549.84	58511.05
550.01	58745.11
550.18	58340.19
550.34	58679.57
550.51	58574.25
550.68	58602.33
550.84	58412.75
551.01	58986.18
551.18	58834.05
551.34	58763.83
551.51	58838.73
551.68	58955.75
551.84	58876.18
552.01	58763.83
552.18	59049.38
552.34	58588.29
552.51	58969.80
552.68	58724.04
552.84	59049.38
553.01	59299.81
553.18	59241.30
553.34	59128.95
553.51	58878.52
553.67	59000.22
553.84	59215.55
554.01	59171.08
554.17	59203.85
554.34	59290.45
554.51	59332.58
554.67	59377.05
554.84	59264.70
555.00	59299.81
555.17	59105.55
555.33	59419.18
555.50	59262.36
555.67	59255.34
555.83	59318.54
556.00	59517.48
556.16	59522.16
556.33	59461.31
556.50	59381.73
556.66	59540.89
556.83	59311.52
556.99	59622.81
557.16	59821.75
557.32	59943.46
557.49	59753.88
557.65	59440.24
557.82	59571.32
557.98	59561.95
558.15	59568.97
558.32	59817.07
558.48	59611.10
558.65	59842.82
558.81	59810.05
558.98	59781.96
559.14	59852.18
559.31	59817.07
559.47	59866.22
559.64	59765.58
559.80	59873.24
559.97	59906.01
560.13	59920.05
560.30	59976.23
560.46	60069.85
560.63	59994.95
560.79	60121.34
560.96	60006.65
561.12	60198.58
561.29	60097.94
561.45	60023.04
561.61	59962.18
561.78	60161.13
561.94	60282.84
562.11	60090.91
562.27	59999.63
562.44	60079.21
562.60	60397.52
562.77	60100.28
562.93	59980.91
563.10	60179.85
563.26	60144.75
563.42	60399.86
563.59	60072.19
563.75	60130.70
563.92	60205.60
564.08	60360.08
564.24	60444.33
564.41	60301.56
564.57	60303.90
564.74	60395.18
564.90	60484.12
565.07	60240.71
565.23	60416.25
565.39	60425.61
565.56	60418.59
565.72	60390.50
565.88	60465.40
566.05	60451.36
566.21	60388.16
566.38	60334.33
566.54	60460.72
566.70	60512.21
566.87	60685.41
567.03	60624.56
567.19	60577.75
567.36	60605.83
567.52	60507.53
567.68	60711.16
567.85	60659.66
568.01	60626.90
568.17	60605.83
568.34	60685.41
568.50	60589.45
568.66	60420.93
568.83	60713.50
568.99	60472.42
569.15	60416.25
569.32	60537.96
569.48	60451.36
569.64	60767.33
569.81	60610.51
569.97	60673.71
570.13	60739.24
570.30	60612.85
570.46	60889.04
570.62	60919.46
570.78	60919.46
570.95	60821.16
571.11	60809.46
571.27	60692.43
571.43	60793.07
571.60	61036.49
571.76	60722.86
571.92	60921.80
572.09	60786.05
572.25	60872.65
572.41	60856.27
572.57	60914.78
572.74	61062.24
572.90	60772.01
573.06	61001.38
573.22	60935.85
573.38	60863.29
573.55	61015.43
573.71	61041.17
573.87	60743.92
574.03	60561.36
574.20	60874.99
574.36	60903.08
574.52	61071.60
574.68	60844.57
574.84	61022.45
575.01	60928.83
575.17	61066.92
575.33	60940.53
575.49	60697.11
575.65	60917.12
575.82	61029.47
575.98	61205.01
576.14	61242.46
576.30	61027.13
576.46	60823.50
576.62	60935.85
576.79	61087.98
576.95	60844.57
577.11	61139.47
577.27	61073.94
577.43	61153.52
577.59	61001.38
577.75	60987.34
577.92	61015.43
578.08	61001.38
578.24	61034.15
578.40	61116.07
578.56	61197.99
578.72	61293.95
578.88	61347.78
579.04	61160.54
579.21	61116.07
579.37	61188.63
579.53	61291.61
579.69	60940.53
579.85	61172.24
580.01	60903.08
580.17	61052.87
580.33	61205.01
580.49	61216.71
580.65	61179.26
580.82	61027.13
580.98	61006.06
581.14	61031.81
581.30	61132.45
581.46	61020.11
581.62	60977.98
581.78	61251.82
581.94	61200.33
582.10	61336.08
582.26	61146.50
582.42	61265.86
582.58	61221.39
582.74	61055.21
582.90	61050.53
583.06	61216.71
583.22	61052.87
583.38	61221.39
583.54	61329.06
583.70	61279.91
583.86	61228.41
584.02	61289.27
584.18	61478.85
584.34	61188.63
584.50	61284.59
584.66	61141.81
584.82	61209.69
584.98	61310.33
585.14	61324.38
585.30	61195.65
585.46	61244.80
585.62	61097.34
585.78	61478.85
585.94	61055.21
586.10	61027.13
586.26	61385.23
586.42	61361.82
586.58	61146.50
586.74	61162.88
586.90	61293.95
587.06	61078.62
587.22	61432.04
587.38	61270.54
587.54	61347.78
587.70	61352.46
587.86	61265.86
588.02	61137.13
588.18	61392.25
588.34	61350.12
588.49	61485.87
