SpectraSuite Data File
++++++++++++++++++++++++++++++++++++
Date: Fri Oct 25 10:48:18 EDT 2013
User: price-jones
Dark Spectrum Present: No
Reference Spectrum Present: No
Number of Sampled Component Spectra: 1
Spectrometers: USB2+H05261
Integration Time (usec): 100000 (USB2+H05261)
Spectra Averaged: 1 (USB2+H05261)
Boxcar Smoothing: 0 (USB2+H05261)
Correct for Electrical Dark: No (USB2+H05261)
Strobe/Lamp Enabled: No (USB2+H05261)
Correct for Detector Non-linearity: No (USB2+H05261)
Correct for Stray Light: No (USB2+H05261)
Number of Pixels in Processed Spectrum: 2048
>>>>>Begin Processed Spectral Data<<<<<
365.73	135.75
365.92	135.75
366.12	135.75
366.32	39.79
366.52	18.72
366.72	79.58
366.91	44.47
367.11	39.79
367.31	42.13
367.51	39.79
367.70	35.11
367.90	65.54
368.10	14.04
368.30	35.11
368.49	9.36
368.69	67.88
368.89	60.85
369.09	74.90
369.28	112.35
369.48	131.07
369.68	147.45
369.87	60.85
370.07	128.73
370.27	189.58
370.47	140.43
370.66	416.62
370.86	463.43
371.06	463.43
371.25	512.58
371.45	461.09
371.65	521.94
371.84	505.56
372.04	493.85
372.24	468.11
372.44	505.56
372.63	498.53
372.83	552.37
373.03	528.96
373.22	589.82
373.42	585.13
373.62	545.34
373.81	592.16
374.01	610.88
374.21	550.03
374.40	559.39
374.60	608.54
374.79	540.66
374.99	547.69
375.19	608.54
375.38	564.07
375.58	566.41
375.78	606.20
375.97	674.07
376.17	660.03
376.37	596.84
376.56	662.37
376.76	699.82
376.95	627.26
377.15	606.20
377.35	697.48
377.54	748.97
377.74	802.80
377.93	674.07
378.13	725.57
378.33	671.73
378.52	685.78
378.72	690.46
378.91	711.52
379.11	713.86
379.31	763.01
379.50	643.65
379.70	629.60
379.89	695.14
380.09	746.63
380.28	655.35
380.48	695.14
380.68	692.80
380.87	706.84
381.07	798.12
381.26	763.01
381.46	671.73
381.65	655.35
381.85	720.88
382.04	758.33
382.24	842.59
382.43	697.48
382.63	648.33
382.83	748.97
383.02	716.20
383.22	840.25
383.41	767.70
383.61	784.08
383.80	861.32
384.00	809.83
384.19	779.40
384.39	844.93
384.58	788.76
384.78	882.38
384.97	866.00
385.17	795.78
385.36	854.30
385.56	828.55
385.75	849.61
385.95	968.98
386.14	847.27
386.34	880.04
386.53	837.91
386.72	837.91
386.92	950.26
387.11	940.90
387.31	983.02
387.50	880.04
387.70	912.81
387.89	891.74
388.09	973.66
388.28	861.32
388.48	936.21
388.67	950.26
388.86	1071.97
389.06	910.47
389.25	978.34
389.45	976.00
389.64	994.73
389.84	1060.26
390.03	1018.13
390.22	978.34
390.42	1050.90
390.61	1046.22
390.81	1132.82
391.00	1032.18
391.19	1088.35
391.39	1083.67
391.58	1043.88
391.78	1093.03
391.97	1015.79
392.16	1095.37
392.36	1149.20
392.55	1074.31
392.75	968.98
392.94	983.02
393.13	1114.10
393.33	1029.84
393.52	1104.73
393.71	1090.69
393.91	1224.10
394.10	1299.00
394.29	1212.40
394.49	1172.61
394.68	1160.91
394.88	1210.06
395.07	1261.55
395.26	1219.42
395.46	1299.00
395.65	1348.15
395.84	1268.57
396.04	1299.00
396.23	1235.80
396.42	1172.61
396.62	1273.25
396.81	1259.21
397.00	1277.93
397.19	1277.93
397.39	1296.66
397.58	1397.30
397.77	1404.32
397.97	1493.26
398.16	1495.60
398.35	1465.18
398.55	1523.69
398.74	1626.67
398.93	1584.54
399.12	1521.35
399.32	1540.07
399.51	1589.22
399.70	1593.90
399.90	1586.88
400.09	1617.31
400.28	1748.38
400.47	1720.29
400.67	1703.91
400.86	1666.46
401.05	1664.12
401.24	1771.79
401.44	1797.53
401.63	1844.34
401.82	1820.94
402.01	1645.40
402.21	1746.04
402.40	1834.98
402.59	1739.02
402.78	1729.66
402.97	1905.20
403.17	1804.55
403.36	1893.49
403.55	1942.64
403.74	1942.64
403.93	1935.62
404.13	1888.81
404.32	1891.15
404.51	1888.81
404.70	1994.14
404.89	1952.01
405.09	1959.03
405.28	1968.39
405.47	1996.48
405.66	2010.52
405.85	2092.44
406.05	2024.56
406.24	2057.33
406.43	2092.44
406.62	2150.95
406.81	2321.81
407.00	2267.98
407.20	2113.50
407.39	2228.19
407.58	2136.91
407.77	2300.75
407.96	2375.64
408.15	2195.42
408.34	2235.21
408.54	2368.62
408.73	2443.52
408.92	2375.64
409.11	2359.26
409.30	2429.48
409.49	2317.13
409.68	2333.51
409.87	2331.17
410.07	2417.77
410.26	2541.82
410.45	2534.80
410.64	2595.65
410.83	2590.97
411.02	2614.38
411.21	2668.21
411.40	2511.39
411.59	2605.02
411.78	2729.06
411.98	2738.43
412.17	2708.00
412.36	2698.64
412.55	2696.30
412.74	2750.13
412.93	2897.58
413.12	2787.58
413.31	3052.06
413.50	2920.99
413.69	2930.35
413.88	3016.95
414.07	2988.86
414.26	3040.36
414.45	2904.60
414.64	3019.29
414.83	3105.89
415.02	3295.47
415.22	3143.34
415.41	3204.19
415.60	3166.74
415.79	3194.83
415.98	3269.73
416.17	3363.35
416.36	3337.60
416.55	3302.50
416.74	3398.46
416.93	3337.60
417.12	3318.88
417.31	3410.16
417.50	3466.33
417.69	3529.53
417.88	3421.86
418.07	3517.83
418.26	3634.85
418.45	3623.15
418.64	3674.64
418.83	3627.83
419.02	3641.87
419.21	3700.39
419.39	3733.15
419.58	3604.42
419.77	3641.87
419.96	3737.84
420.15	3852.52
420.34	3637.19
420.53	3943.80
420.72	3899.33
420.91	3911.04
421.10	3779.97
421.29	3990.61
421.48	3911.04
421.67	3932.10
421.86	3946.14
422.05	4049.13
422.24	3913.38
422.43	3985.93
422.61	3920.40
422.80	4035.08
422.99	4119.34
423.18	3939.12
423.37	4175.52
423.56	4023.38
423.75	3983.59
423.94	4049.13
424.13	3875.93
424.32	3957.85
424.50	4037.42
424.69	4187.22
424.88	3941.46
425.07	4119.34
425.26	4074.87
425.45	4119.34
425.64	4009.34
425.83	4018.70
426.01	4049.13
426.20	4131.05
426.39	4222.33
426.58	3953.16
426.77	4063.17
426.96	4044.45
427.15	4002.32
427.33	4180.20
427.52	4322.97
427.71	4306.59
427.90	4306.59
428.09	4306.59
428.28	4231.69
428.46	4147.43
428.65	4306.59
428.84	4301.90
429.03	4245.73
429.22	4250.41
429.40	4301.90
429.59	4257.43
429.78	4023.38
429.97	4058.49
430.16	4086.58
430.34	4208.28
430.53	4264.46
430.72	4283.18
430.91	4257.43
431.10	4564.04
431.28	4695.11
431.47	4774.69
431.66	4767.67
431.85	4683.41
432.03	4760.65
432.22	4880.02
432.41	4681.07
432.60	4732.56
432.79	4678.73
432.97	4898.74
433.16	4802.78
433.35	4711.50
433.54	4880.02
433.72	4723.20
433.91	4844.91
434.10	4858.95
434.28	4964.28
434.47	4896.40
434.66	5167.90
434.85	4933.85
435.03	5146.84
435.22	5001.72
435.41	5341.10
435.59	5170.24
435.78	5170.24
435.97	5261.52
436.16	5359.83
436.34	5233.44
436.53	5263.86
436.72	5310.68
436.90	5238.12
437.09	5228.76
437.28	5263.86
437.46	5226.42
437.65	5153.86
437.84	5282.59
438.02	5411.32
438.21	5247.48
438.40	5376.21
438.58	5453.45
438.77	5516.64
438.96	5575.16
439.14	5643.03
439.33	5755.38
439.52	5804.53
439.70	5706.23
439.89	5809.21
440.08	5790.49
440.26	5930.92
440.45	5865.38
440.63	6106.46
440.82	6228.17
441.01	6029.22
441.19	6148.59
441.38	6469.24
441.57	6230.51
441.75	6317.11
441.94	6502.01
442.12	6553.50
442.31	6661.16
442.50	6719.68
442.68	6497.33
442.87	6492.65
443.05	6539.46
443.24	6476.26
443.43	6616.69
443.61	6775.85
443.80	6815.64
443.98	6712.66
444.17	6342.85
444.35	6724.36
444.54	6724.36
444.73	6647.12
444.91	6616.69
445.10	6640.10
445.28	6546.48
445.47	6534.78
445.65	6555.84
445.84	6902.24
446.02	6878.83
446.21	6604.99
446.39	6696.27
446.58	6963.09
446.77	6839.05
446.95	6766.49
447.14	6853.09
447.32	6693.93
447.51	6888.20
447.69	6890.54
447.88	6827.34
448.06	6836.70
448.25	6967.77
448.43	6995.86
448.62	6867.13
448.80	6750.10
448.99	6979.48
449.17	7087.14
449.36	7028.63
449.54	7082.46
449.73	7227.57
449.91	7222.89
450.10	7246.30
450.28	7419.50
450.46	7578.65
450.65	7265.02
450.83	7351.62
451.02	7267.36
451.20	7569.29
451.39	7559.93
451.57	7330.56
451.76	7339.92
451.94	7386.73
452.13	7435.88
452.31	7386.73
452.49	7325.88
452.68	7353.96
452.86	7391.41
453.05	7571.63
453.23	7550.57
453.42	7286.09
453.60	7499.08
453.78	7683.98
453.97	7527.16
454.15	7632.49
454.34	7592.70
454.52	7583.34
454.70	7742.49
454.89	7625.47
455.07	7812.71
455.26	7889.95
455.44	7913.35
455.62	7967.18
455.81	7772.92
455.99	8063.15
456.17	7934.42
456.36	7983.57
456.54	8077.19
456.73	8119.32
456.91	8552.32
457.09	8430.61
457.28	8456.36
457.46	8217.62
457.64	8287.84
457.83	8269.11
458.01	7974.21
458.19	8573.38
458.38	8430.61
458.56	8446.99
458.74	8280.82
458.93	8496.14
459.11	8439.97
459.29	8512.53
459.48	8655.30
459.66	8533.59
459.84	8624.87
460.03	8791.05
460.21	8688.07
460.39	8809.78
460.57	8849.57
460.76	8716.16
460.94	8746.58
461.12	8856.59
461.31	8821.48
461.49	8737.22
461.67	8830.84
461.85	9085.96
462.04	8919.78
462.22	9582.15
462.40	9092.98
462.59	9329.38
462.77	9118.73
462.95	9226.39
463.13	9238.09
463.32	9210.01
463.50	9111.71
463.68	9193.62
463.86	9301.29
464.05	9088.30
464.23	9013.40
464.41	9324.69
464.59	9240.44
464.78	9411.29
464.96	9415.98
465.14	9198.31
465.32	9504.92
465.50	9497.89
465.69	9460.45
465.87	9397.25
466.05	9387.89
466.23	9408.95
466.41	9376.19
466.60	9687.48
466.78	9451.08
466.96	9479.17
467.14	9509.60
467.32	9563.43
467.51	9900.47
467.69	9369.16
467.87	9813.87
468.05	9706.20
468.23	9671.09
468.41	9523.64
468.60	9788.12
468.78	9809.19
468.96	9795.14
469.14	9865.36
469.32	10054.94
469.50	9535.34
469.69	9921.53
469.87	10237.50
470.05	10169.63
470.23	10019.83
470.41	10118.14
470.59	10176.65
470.77	10335.81
470.95	10260.91
471.14	10555.82
471.32	10167.29
471.50	10719.65
471.68	10740.72
471.86	10429.43
472.04	10548.79
472.22	10796.89
472.40	10251.55
472.58	10546.45
472.77	10595.61
472.95	10810.93
473.13	11103.50
473.31	10871.79
473.49	10792.21
473.67	11049.67
473.85	11028.60
474.03	11293.08
474.21	11328.19
474.39	11379.68
474.57	11194.78
474.75	11618.42
474.93	11468.62
475.12	11454.58
475.30	11548.20
475.48	11665.23
475.66	11602.04
475.84	11489.69
476.02	11705.02
476.20	11634.80
476.38	12138.02
476.56	12145.04
476.74	12133.34
476.92	12056.10
477.10	12028.01
477.28	12407.18
477.46	12315.90
477.64	12475.06
477.82	12540.59
478.00	12856.56
478.18	12751.24
478.36	12732.51
478.54	13062.53
478.72	13121.04
478.90	13221.69
479.08	13355.10
479.26	13378.50
479.44	13465.10
479.62	13603.19
479.80	13490.85
479.98	13923.85
480.16	13799.80
480.34	13785.76
480.52	14015.13
480.70	14132.15
480.88	13806.82
481.06	13963.64
481.24	14228.12
481.41	14607.28
481.59	14712.61
481.77	14518.34
481.95	14766.44
482.13	14960.70
482.31	14862.40
482.49	15033.26
482.67	15222.84
482.85	15398.38
483.03	15728.40
483.21	15672.23
483.39	15978.84
483.57	15475.62
483.74	15950.75
483.92	16049.05
484.10	15857.13
484.28	16114.59
484.46	16538.23
484.64	16844.84
484.82	16470.35
485.00	16435.24
485.18	16828.45
485.35	16746.53
485.53	16575.67
485.71	16489.07
485.89	17006.33
486.07	17034.42
486.25	17291.88
486.43	17039.10
486.61	17490.82
486.78	17872.33
486.96	17930.84
487.14	18160.22
487.32	17877.01
487.50	18417.68
487.68	18621.30
487.85	19049.62
488.03	18977.06
488.21	19066.00
488.39	18703.22
488.57	19199.41
488.75	19197.07
488.92	19323.46
489.10	20100.52
489.28	19967.11
489.46	20147.33
489.64	20238.61
489.81	20683.31
489.99	20760.55
490.17	20861.19
490.35	20863.54
490.53	20727.78
490.70	20720.76
490.88	21071.84
491.06	21238.02
491.24	20851.83
491.41	21254.40
491.59	21247.38
491.77	21130.36
491.95	21727.19
492.13	21741.24
492.30	22162.53
492.48	22003.38
492.66	22501.91
492.84	22148.49
493.01	22434.03
493.19	22539.36
493.37	22806.18
493.54	23215.77
493.72	23058.96
493.90	23124.49
494.08	23452.17
494.25	23651.11
494.43	23936.66
494.61	24283.06
494.79	23885.17
494.96	23803.25
495.14	24217.52
495.32	24325.19
495.49	24294.76
495.67	24311.14
495.85	24472.64
496.02	24519.45
496.20	24659.88
496.38	25378.43
496.55	25366.73
496.73	25560.99
496.91	25242.68
497.09	25692.06
497.26	26003.35
497.44	25752.91
497.62	25736.53
497.79	26169.53
497.97	25298.85
498.14	26361.45
498.32	25956.54
498.50	26295.92
498.67	26649.34
498.85	26565.08
499.03	26998.08
499.20	27080.00
499.38	27094.04
499.56	27199.37
499.73	27063.61
499.91	26700.83
500.08	27054.25
500.26	27218.09
500.44	27372.57
500.61	27005.10
500.79	27424.06
500.97	27597.26
501.14	27796.20
501.32	28016.21
501.49	27599.60
501.67	28077.07
501.84	28229.20
502.02	28051.32
502.20	28051.32
502.37	28353.25
502.55	28273.67
502.72	28577.94
502.90	28861.15
503.07	28692.63
503.25	28870.51
503.43	28542.83
503.60	28954.77
503.78	28900.94
503.95	28931.36
504.13	28987.53
504.30	29029.66
504.48	29556.28
504.65	29567.99
504.83	29364.36
505.01	29825.45
505.18	29575.01
505.36	30125.04
505.53	30302.92
505.71	30759.32
505.88	30677.40
506.06	30361.43
506.23	30284.19
506.41	30237.38
506.58	30621.23
506.76	30759.32
506.93	30515.90
507.11	30824.86
507.28	30775.70
507.46	30473.78
507.63	30735.92
507.81	30927.84
507.98	30443.35
508.16	31112.74
508.33	31175.94
508.50	31658.09
508.68	31393.61
508.85	31962.36
509.03	32020.87
509.20	31845.33
509.38	31852.35
509.55	32390.67
509.73	32081.72
509.90	32027.89
510.08	32077.04
510.25	32102.79
510.42	32362.59
510.60	32301.73
510.77	32390.67
510.95	32587.28
511.12	32212.79
511.30	33064.75
511.47	33170.07
511.64	33102.20
511.82	33188.80
511.99	32851.76
512.17	33312.84
512.34	32762.82
512.51	33434.55
512.69	33790.31
512.86	33872.23
513.04	33684.99
513.21	33860.53
513.38	33275.40
513.56	33837.12
513.73	33413.49
513.90	33736.48
514.08	33708.40
514.25	34031.39
514.43	33862.87
514.60	34176.50
514.77	34043.09
514.95	34300.55
515.12	34333.32
515.29	34075.86
515.47	34450.35
515.64	34759.30
515.81	34452.69
515.99	34749.93
516.16	34422.26
516.33	34272.46
516.51	34452.69
516.68	34188.21
516.85	34092.24
517.03	34625.89
517.20	34642.27
517.37	35082.29
517.54	34719.51
517.72	34836.53
517.89	34852.92
518.06	34747.59
518.24	34728.87
518.41	34993.35
518.58	35168.89
518.75	35370.18
518.93	35576.14
519.10	35543.38
519.27	35676.79
519.45	35880.41
519.62	35976.37
519.79	35732.96
519.96	35969.35
520.14	36470.23
520.31	35981.06
520.48	36350.86
520.65	36463.21
520.83	36479.59
521.00	36481.93
521.17	36566.19
521.34	37326.86
521.52	36713.64
521.69	36973.44
521.86	37111.53
522.03	37310.48
522.20	37188.77
522.38	37305.80
522.55	37474.32
522.72	37111.53
522.89	37181.75
523.07	37591.34
523.24	37258.99
523.41	37214.52
523.58	37553.90
523.75	38106.26
523.92	38101.58
524.10	38703.10
524.27	38492.45
524.44	38216.27
524.61	38623.52
524.78	38359.04
524.96	38417.55
525.13	38230.31
525.30	38866.94
525.47	38375.42
525.64	38597.77
525.81	38370.74
525.98	38422.23
526.16	38412.87
526.33	38064.13
526.50	38384.79
526.67	38237.33
526.84	38450.32
527.01	38103.92
527.18	38494.79
527.36	38913.75
527.53	39103.33
527.70	40020.82
527.87	39143.12
528.04	39257.81
528.21	39370.15
528.38	39222.70
528.55	39629.95
528.72	39449.73
528.89	40172.96
529.07	40105.08
529.24	39721.23
529.41	39812.51
529.58	39519.95
529.75	39723.57
529.92	40137.85
530.09	39800.81
530.26	40027.84
530.43	39838.26
530.60	40399.99
530.77	40399.99
530.94	40041.88
531.11	39969.33
531.28	40306.37
531.46	40285.30
531.63	40493.61
531.80	40467.86
531.97	40556.80
532.14	40037.20
532.31	40449.14
532.48	40238.49
532.65	40247.85
532.82	40329.77
532.99	40950.01
533.16	40823.62
533.33	40999.16
533.50	41017.89
533.67	41368.97
533.84	40875.12
534.01	40931.29
534.18	40952.35
534.35	41123.21
534.52	41205.13
534.69	41392.37
534.86	41261.30
535.03	41326.84
535.20	41591.32
535.37	41750.48
535.54	42153.05
535.71	41617.07
535.88	41497.70
536.05	41380.67
536.22	41825.37
536.38	41839.42
536.55	41378.33
536.72	41691.96
536.89	41581.96
537.06	41584.30
537.23	41886.23
537.40	41397.06
537.57	41879.21
537.74	42010.28
537.91	42227.95
538.08	42216.24
538.25	42155.39
538.42	42363.70
538.59	42192.84
538.75	41869.84
538.92	41825.37
539.09	42237.31
539.26	42192.84
539.43	42312.20
539.60	42059.43
539.77	42085.17
539.94	42129.64
540.11	42354.33
540.28	42307.52
540.44	42918.40
540.61	42323.91
540.78	42344.97
540.95	42462.00
541.12	42564.98
541.29	42555.62
541.46	42576.69
541.62	42691.37
541.79	42925.42
541.96	42841.17
542.13	43196.93
542.30	43019.05
542.47	43255.44
542.63	42960.53
542.80	43016.71
542.97	43576.09
543.14	43489.49
543.31	43456.73
543.48	43871.00
543.64	43297.57
543.81	43903.77
543.98	43805.47
544.15	43536.30
544.32	43330.34
544.48	44058.24
544.65	43784.40
544.82	43739.93
544.99	43938.88
545.16	43899.09
545.32	43545.67
545.49	44421.03
545.66	44336.77
545.83	43990.37
546.00	44114.42
546.16	43917.81
546.33	43838.23
546.50	44069.95
546.67	43945.90
546.83	43723.55
547.00	43744.61
547.17	43786.74
547.34	44123.78
547.50	44098.03
547.67	44629.34
547.84	44428.05
548.00	44615.29
548.17	44547.42
548.34	44896.16
548.51	44767.43
548.67	44914.88
548.84	44680.83
549.01	44289.96
549.18	44601.25
549.34	44797.85
549.51	44580.18
549.68	44793.17
549.84	44811.90
550.01	44601.25
550.18	44732.32
550.34	44980.42
550.51	45109.14
550.68	44245.49
550.84	44898.50
551.01	45041.27
551.18	44854.03
551.34	45310.43
551.51	45228.51
551.68	44978.07
551.84	45375.97
552.01	44994.46
552.18	45013.18
552.34	44959.35
552.51	45120.85
552.68	45385.33
552.84	45333.84
553.01	45645.13
553.18	45214.47
553.34	45258.94
553.51	45298.73
553.67	45404.05
553.84	45907.27
554.01	45565.55
554.17	45537.46
554.34	46075.79
554.51	45364.26
554.67	45579.59
554.84	45324.47
555.00	45633.42
555.17	45893.22
555.33	45745.77
555.50	45397.03
555.67	46073.45
555.83	45982.16
556.00	45617.04
556.16	46017.27
556.33	45759.81
556.50	45879.18
556.66	45804.28
556.83	45436.82
556.99	45834.71
557.16	46227.92
557.32	46183.45
557.49	45949.40
557.65	45528.10
557.82	45652.15
557.98	45741.09
558.15	45680.24
558.32	46270.05
558.48	45764.49
558.65	46234.94
558.81	45801.94
558.98	45881.52
559.14	46106.21
559.31	46014.93
559.47	46302.82
559.64	46532.19
559.80	46068.76
559.97	46209.20
560.13	46115.58
560.30	46267.71
560.46	46213.88
560.63	45893.22
560.79	46670.28
560.96	46279.41
561.12	46146.00
561.29	46487.72
561.45	46457.29
561.61	46103.87
561.78	46625.81
561.94	46148.34
562.11	46218.56
562.27	46178.77
562.44	46476.02
562.60	46890.29
562.77	46649.22
562.93	46351.97
563.10	46670.28
563.26	45886.20
563.42	46408.14
563.59	46691.35
563.75	46588.36
563.92	46817.74
564.08	47325.63
564.24	46885.61
564.41	46831.78
564.57	46719.43
564.74	46366.01
564.90	46724.11
565.07	47229.67
565.23	46513.47
565.39	46649.22
565.56	46742.84
565.72	46321.54
565.88	46583.68
566.05	46459.63
566.21	46410.48
566.38	46295.80
566.54	46897.31
566.70	46974.55
566.87	46925.40
567.03	46939.44
567.19	47337.33
567.36	47040.09
567.52	46607.09
567.68	47084.56
567.85	46724.11
568.01	46878.59
568.17	46382.40
568.34	46679.64
568.50	46836.46
568.66	46396.44
568.83	46518.15
568.99	46768.58
569.15	46820.08
569.32	46426.87
569.48	46770.93
569.64	47000.30
569.81	47173.50
569.97	46674.96
570.13	46597.73
570.30	46394.10
570.46	46782.63
570.62	46539.21
570.78	46838.80
570.95	46576.66
571.11	46899.65
571.27	46586.02
571.43	47105.62
571.60	47164.14
571.76	47068.17
571.92	46768.58
572.09	46681.98
572.25	46738.16
572.41	47145.41
572.57	46646.88
572.74	47435.64
572.90	47007.32
573.06	47136.05
573.22	47026.04
573.38	46625.81
573.55	46932.42
573.71	47131.37
573.87	46717.09
574.03	47037.75
574.20	46962.85
574.36	46824.76
574.52	47007.32
574.68	46876.25
574.84	47210.95
575.01	47026.04
575.17	46841.14
575.33	46775.61
575.49	46471.34
575.65	46894.97
575.82	47124.35
575.98	47267.12
576.14	47482.45
576.30	47264.78
576.46	46866.89
576.62	47297.55
576.79	46817.74
576.95	46696.03
577.11	47009.66
577.27	46883.27
577.43	46845.82
577.59	47285.84
577.75	46623.47
577.92	46625.81
578.08	46576.66
578.24	46775.61
578.40	46621.13
578.56	47100.94
578.72	46869.23
578.88	47253.08
579.04	47384.15
579.21	46522.83
579.37	46902.00
579.53	47091.58
579.69	46600.07
579.85	47019.02
580.01	47122.01
580.17	47110.30
580.33	46880.93
580.49	47213.29
580.65	47227.33
580.82	47267.12
580.98	47063.49
581.14	46913.70
581.30	47112.64
581.46	46745.18
581.62	46883.27
581.78	47007.32
581.94	47072.85
582.10	47285.84
582.26	47342.02
582.42	46850.50
582.58	47068.17
582.74	47051.79
582.90	47063.49
583.06	47306.91
583.22	47224.99
583.38	47079.88
583.54	47379.46
583.70	47327.97
583.86	47180.52
584.02	46967.53
584.18	47676.71
584.34	47138.39
584.50	47269.46
584.66	46607.09
584.82	47061.15
584.98	47435.64
585.14	46831.78
585.30	46918.38
585.46	47253.08
585.62	46726.46
585.78	46909.02
585.94	46696.03
586.10	47096.26
586.26	46508.79
586.42	47384.15
586.58	47229.67
586.74	47447.34
586.90	46988.60
587.06	46979.23
587.22	47047.11
587.38	46817.74
587.54	47316.27
587.70	47035.41
587.86	47330.31
588.02	46885.61
588.18	47456.70
588.34	47019.02
588.49	46693.69
588.65	46258.35
588.81	46401.12
588.97	46574.32
589.13	46155.36
589.29	46588.36
589.45	46808.37
589.61	47098.60
589.77	47323.29
