SpectraSuite Data File
++++++++++++++++++++++++++++++++++++
Date: Fri Oct 25 11:25:27 EDT 2013
User: price-jones
Dark Spectrum Present: No
Reference Spectrum Present: No
Number of Sampled Component Spectra: 1
Spectrometers: USB2+H05261
Integration Time (usec): 100000 (USB2+H05261)
Spectra Averaged: 1 (USB2+H05261)
Boxcar Smoothing: 0 (USB2+H05261)
Correct for Electrical Dark: No (USB2+H05261)
Strobe/Lamp Enabled: No (USB2+H05261)
Correct for Detector Non-linearity: No (USB2+H05261)
Correct for Stray Light: No (USB2+H05261)
Number of Pixels in Processed Spectrum: 2048
>>>>>Begin Processed Spectral Data<<<<<
365.73	234.05
365.92	234.05
366.12	234.05
366.32	187.24
366.52	67.88
366.72	175.54
366.91	107.66
367.11	159.16
367.31	70.22
367.51	140.43
367.70	37.45
367.90	140.43
368.10	138.09
368.30	105.32
368.49	112.35
368.69	170.86
368.89	217.67
369.09	173.20
369.28	149.79
369.48	191.92
369.68	222.35
369.87	238.73
370.07	208.31
370.27	208.31
370.47	315.97
370.66	601.52
370.86	685.78
371.06	594.50
371.25	667.05
371.45	660.03
371.65	681.10
371.84	603.86
372.04	737.27
372.24	718.54
372.44	667.05
372.63	734.93
372.83	793.44
373.03	711.52
373.22	802.80
373.42	777.06
373.62	798.12
373.81	844.93
374.01	758.33
374.21	732.59
374.40	889.40
374.60	910.47
374.79	748.97
374.99	835.57
375.19	814.51
375.38	851.96
375.58	889.40
375.78	912.81
375.97	842.59
376.17	833.23
376.37	861.32
376.56	781.74
376.76	908.13
376.95	847.27
377.15	863.66
377.35	947.92
377.54	880.04
377.74	856.64
377.93	856.64
378.13	844.93
378.33	887.06
378.52	901.11
378.72	973.66
378.91	933.87
379.11	959.62
379.31	919.83
379.50	936.21
379.70	898.77
379.89	983.02
380.09	950.26
380.28	978.34
380.48	964.30
380.68	999.41
380.87	959.62
381.07	1095.37
381.26	952.60
381.46	929.19
381.65	964.30
381.85	1046.22
382.04	1001.75
382.24	1048.56
382.43	1102.39
382.63	1111.75
382.83	997.07
383.02	1139.84
383.22	1090.69
383.41	1083.67
383.61	1114.10
383.80	1179.63
384.00	1053.24
384.19	1132.82
384.39	1114.10
384.58	1135.16
384.78	1116.44
384.97	1078.99
385.17	1153.88
385.36	1181.97
385.56	1177.29
385.75	1158.57
385.95	1167.93
386.14	1170.27
386.34	1191.33
386.53	1266.23
386.72	1224.10
386.92	1200.69
387.11	1235.80
387.31	1207.72
387.50	1203.04
387.70	1203.04
387.89	1270.91
388.09	1233.46
388.28	1289.64
388.48	1266.23
388.67	1310.70
388.86	1238.14
389.06	1345.81
389.25	1327.08
389.45	1334.11
389.64	1308.36
389.84	1392.62
390.03	1280.27
390.22	1320.06
390.42	1348.15
390.61	1291.98
390.81	1341.13
391.00	1474.54
391.19	1476.88
391.39	1469.86
391.58	1495.60
391.78	1446.45
391.97	1453.47
392.16	1387.94
392.36	1554.12
392.55	1516.67
392.75	1572.84
392.94	1486.24
393.13	1563.48
393.33	1540.07
393.52	1570.50
393.71	1624.33
393.91	1612.63
394.10	1549.43
394.29	1596.25
394.49	1584.54
394.68	1715.61
394.88	1624.33
395.07	1692.21
395.26	1671.14
395.46	1666.46
395.65	1778.81
395.84	1708.59
396.04	1846.68
396.23	1783.49
396.42	1757.74
396.62	1806.89
396.81	1694.55
397.00	1884.13
397.19	1846.68
397.39	1802.21
397.58	1753.06
397.77	1851.36
397.97	1921.58
398.16	1788.17
398.35	1884.13
398.55	1872.43
398.74	1912.22
398.93	1937.96
399.12	1811.57
399.32	1771.79
399.51	1923.92
399.70	1987.11
399.90	1984.77
400.09	1966.05
400.28	2005.84
400.47	2071.37
400.67	1975.41
400.86	2141.59
401.05	2090.10
401.24	2129.89
401.44	2099.46
401.63	2202.44
401.82	2174.36
402.01	2033.93
402.21	2183.72
402.40	2125.21
402.59	2132.23
402.78	2071.37
402.97	2188.40
403.17	2186.06
403.36	2160.31
403.55	2373.30
403.74	2303.09
403.93	2249.25
404.13	2237.55
404.32	2363.94
404.51	2317.13
404.70	2326.49
404.89	2333.51
405.09	2462.24
405.28	2539.48
405.47	2513.74
405.66	2534.80
405.85	2590.97
406.05	2487.99
406.24	2569.91
406.43	2466.92
406.62	2647.15
406.81	2759.49
407.00	2509.05
407.20	2513.74
407.39	2583.95
407.58	2642.46
407.77	2754.81
407.96	2778.22
408.15	2759.49
408.34	2663.53
408.54	2715.02
408.73	2803.96
408.92	2729.06
409.11	2782.90
409.30	2829.71
409.49	2848.43
409.68	2888.22
409.87	2796.94
410.07	2967.80
410.26	3014.61
410.45	2974.82
410.64	3019.29
410.83	2984.18
411.02	3178.45
411.21	3148.02
411.40	3098.87
411.59	3253.34
411.78	3192.49
411.98	3229.94
412.17	3258.03
412.36	3234.62
412.55	3213.56
412.74	3410.16
412.93	3396.12
413.12	3368.03
413.31	3449.95
413.50	3513.14
413.69	3471.01
413.88	3527.19
414.07	3646.55
414.26	3782.31
414.45	3550.59
414.64	3571.66
414.83	3602.08
415.02	3655.92
415.22	3705.07
415.41	3889.97
415.60	3866.56
415.79	3845.50
415.98	3847.84
416.17	3964.87
416.36	4004.66
416.55	3878.27
416.74	3997.64
416.93	4035.08
417.12	4044.45
417.31	4142.75
417.50	4105.30
417.69	4234.03
417.88	4227.01
418.07	4161.47
418.26	4337.01
418.45	4430.63
418.64	4184.88
418.83	4252.75
419.02	4510.21
419.21	4463.40
419.39	4528.94
419.58	4423.61
419.77	4409.57
419.96	4454.04
420.15	4505.53
420.34	4601.49
420.53	4496.17
420.72	4542.98
420.91	4681.07
421.10	4690.43
421.29	4678.73
421.48	4610.86
421.67	4676.39
421.86	4676.39
422.05	4622.56
422.24	4720.86
422.43	4741.93
422.61	4891.72
422.80	4994.70
422.99	4854.27
423.18	4786.40
423.37	4772.35
423.56	4870.65
423.75	4898.74
423.94	4851.93
424.13	4638.94
424.32	4566.39
424.50	5090.67
424.69	5114.07
424.88	4971.30
425.07	4849.59
425.26	4945.55
425.45	4954.91
425.64	5018.11
425.83	4924.49
426.01	5100.03
426.20	5228.76
426.39	5046.20
426.58	5062.58
426.77	4812.14
426.96	4997.04
427.15	5104.71
427.33	5151.52
427.52	5039.17
427.71	5172.58
427.90	5153.86
428.09	5263.86
428.28	5350.46
428.46	5308.34
428.65	5399.62
428.84	5509.62
429.03	5359.83
429.22	5217.05
429.40	5432.38
429.59	5526.00
429.78	5240.46
429.97	5015.77
430.16	5582.18
430.34	5664.10
430.53	5589.20
430.72	5589.20
430.91	5544.73
431.10	5432.38
431.28	5715.59
431.47	5710.91
431.66	5708.57
431.85	5689.84
432.03	5813.89
432.22	6069.01
432.41	5849.00
432.60	5912.19
432.79	5863.04
432.97	5944.96
433.16	5919.21
433.35	6064.33
433.54	5933.26
433.72	6076.03
433.91	6108.80
434.10	6179.01
434.28	6036.24
434.47	6115.82
434.66	6282.00
434.85	6333.49
435.03	6181.35
435.22	6073.69
435.41	6487.96
435.59	6494.99
435.78	6410.73
435.97	6569.88
436.16	6366.26
436.34	6394.34
436.53	6471.58
436.72	6766.49
436.90	6277.32
437.09	6607.33
437.28	6389.66
437.46	6487.96
437.65	6478.60
437.84	6635.42
438.02	6710.32
438.21	6813.30
438.40	6726.70
438.58	6977.14
438.77	7021.61
438.96	6759.47
439.14	6942.03
439.33	7171.40
439.52	7023.95
439.70	7293.11
439.89	7192.47
440.08	7426.52
440.26	7197.15
440.45	7229.91
440.63	7339.92
440.82	7412.48
441.01	7433.54
441.19	7461.63
441.38	7599.72
441.57	7822.07
441.75	7676.96
441.94	7934.42
442.12	7859.52
442.31	7903.99
442.50	7918.03
442.68	7803.35
442.87	7957.82
443.05	8021.02
443.24	8056.12
443.43	8044.42
443.61	8128.68
443.80	8379.12
443.98	7920.37
444.17	7777.60
444.35	8121.66
444.54	8306.56
444.73	8060.80
444.91	8318.26
445.10	8386.14
445.28	8198.90
445.47	8241.03
445.65	8308.90
445.84	8451.67
446.02	8341.67
446.21	8379.12
446.39	8219.96
446.58	8432.95
446.77	8400.18
446.95	8290.18
447.14	8414.23
447.32	8669.34
447.51	8259.75
447.69	8315.92
447.88	8344.01
448.06	8243.37
448.25	8503.17
448.43	8542.96
448.62	8652.96
448.80	8512.53
448.99	8667.00
449.17	8779.35
449.36	8465.72
449.54	8709.13
449.73	8788.71
449.91	8877.65
450.10	8685.73
450.28	8858.93
450.46	8973.61
450.65	9067.24
450.83	9069.58
451.02	8922.12
451.20	9114.05
451.39	9231.07
451.57	8957.23
451.76	8938.51
451.94	8945.53
452.13	9151.49
452.31	9043.83
452.49	9151.49
452.68	9207.67
452.86	9308.31
453.05	9308.31
453.23	9509.60
453.42	9259.16
453.60	9247.46
453.78	9352.78
453.97	9310.65
454.15	9390.23
454.34	9149.15
454.52	9523.64
454.70	9776.42
454.89	9483.85
455.07	9591.52
455.26	9668.75
455.44	10057.28
455.62	9591.52
455.81	9741.31
455.99	9982.38
456.17	9891.10
456.36	9947.28
456.54	10076.01
456.73	10260.91
456.91	10312.40
457.09	10303.04
457.28	10661.14
457.46	10132.18
457.64	10310.06
457.83	10434.11
458.01	10356.87
458.19	10619.01
458.38	10630.71
458.56	10567.52
458.74	10558.16
458.93	10544.11
459.11	10586.24
459.29	10717.31
459.48	10654.12
459.66	10607.31
459.84	10930.30
460.03	10857.75
460.21	10890.51
460.39	10759.44
460.57	11164.36
460.76	11108.18
460.94	10832.00
461.12	11110.52
461.31	11030.94
461.49	11140.95
461.67	11035.63
461.85	11384.37
462.04	11063.71
462.22	11817.36
462.40	11482.67
462.59	11630.12
462.77	11321.17
462.95	11524.80
463.13	11470.97
463.32	11541.18
463.50	11534.16
463.68	11756.51
463.86	11653.53
464.05	11672.25
464.23	11817.36
464.41	11808.00
464.59	11541.18
464.78	12044.40
464.96	11887.58
465.14	11618.42
465.32	11777.58
465.50	11698.00
465.69	12166.10
465.87	12203.55
466.05	12236.32
466.23	12065.46
466.41	11988.22
466.60	12278.45
466.78	11978.86
466.96	12238.66
467.14	11920.35
467.32	12168.45
467.51	12456.33
467.69	12095.89
467.87	12325.26
468.05	12669.32
468.23	12269.09
468.41	12456.33
468.60	12397.82
468.78	12793.37
468.96	12414.20
469.14	12643.57
469.32	12823.80
469.50	12355.69
469.69	12821.45
469.87	13195.94
470.05	12980.61
470.23	13022.74
470.41	13081.25
470.59	13027.42
470.77	13025.08
470.95	13179.56
471.14	13399.57
471.32	12943.16
471.50	13486.17
471.68	13432.33
471.86	13547.02
472.04	13551.70
472.22	14017.47
472.40	13455.74
472.58	13556.38
472.77	13830.23
472.95	14146.20
473.13	14597.92
473.31	14249.18
473.49	14008.11
473.67	13891.08
473.85	14200.03
474.03	14572.18
474.21	14469.19
474.39	14759.42
474.57	14700.90
474.75	14558.13
474.93	14817.93
475.12	14815.59
475.30	15054.33
475.48	14850.70
475.66	15098.80
475.84	15044.96
476.02	15019.22
476.20	15360.94
476.38	15662.86
476.56	15749.46
476.74	15999.90
476.92	15506.05
477.10	15740.10
477.28	15939.05
477.46	16051.39
477.64	16283.11
477.82	16222.25
478.00	16856.54
478.18	16711.42
478.36	16606.10
478.54	16842.50
478.72	16744.19
478.90	16973.56
479.08	17385.50
479.26	17355.07
479.44	17551.68
479.62	17689.77
479.80	17834.88
479.98	18073.62
480.16	18225.75
480.34	18047.87
480.52	18483.21
480.70	18499.59
480.88	18459.81
481.06	18654.07
481.24	18630.66
481.41	18834.29
481.59	18979.40
481.77	19391.34
481.95	19283.67
482.13	19468.58
482.31	19604.33
482.49	19992.86
482.67	19962.43
482.85	19871.15
483.03	20053.71
483.21	20531.18
483.39	20739.49
483.57	20645.87
483.74	20854.17
483.92	21212.28
484.10	20959.50
484.28	21502.50
484.46	21776.34
484.64	22120.40
484.82	21804.43
485.00	21986.99
485.18	22232.75
485.35	22911.50
485.53	22845.97
485.71	22539.36
485.89	23323.44
486.07	23028.53
486.25	22986.40
486.43	23494.30
486.61	23548.13
486.78	23653.45
486.96	24170.71
487.14	24716.06
487.32	24357.96
487.50	24526.47
487.68	24446.90
487.85	25518.86
488.03	25263.74
488.21	25216.93
488.39	25069.48
488.57	25771.64
488.75	26141.44
488.92	26487.84
489.10	26225.70
489.28	26256.13
489.46	27016.80
489.64	26958.29
489.81	27379.59
489.99	27400.65
490.17	27356.18
490.35	27812.59
490.53	28276.01
490.70	28098.13
490.88	27821.95
491.06	28718.37
491.24	28819.02
491.41	28606.03
491.59	28900.94
491.77	29228.61
491.95	29369.04
492.13	29298.83
492.30	29481.39
492.48	29706.08
492.66	29827.79
492.84	30309.94
493.01	30356.75
493.19	30649.32
493.37	30543.99
493.54	31051.89
493.72	31044.87
493.90	30771.02
494.08	31395.95
494.25	31534.04
494.43	31463.82
494.61	31971.72
494.79	32224.50
494.96	32058.32
495.14	32732.39
495.32	32758.14
495.49	32900.91
495.67	32968.79
495.85	33174.75
496.02	33511.79
496.20	33787.97
496.38	33668.61
496.55	33867.55
496.73	34272.46
496.91	34548.65
497.09	34431.62
497.26	34639.93
497.44	34588.44
497.62	34691.42
497.79	35283.58
497.97	35299.96
498.14	35995.10
498.32	35997.44
498.50	36013.82
498.67	35906.16
498.85	36133.19
499.03	36292.35
499.20	36400.01
499.38	36896.20
499.56	36744.07
499.73	36484.27
499.91	36762.79
500.08	37345.59
500.26	36774.50
500.44	36921.95
500.61	37738.80
500.79	37453.25
500.97	37752.84
501.14	38387.13
501.32	38529.90
501.49	38150.73
501.67	38443.30
501.84	38447.98
502.02	38256.06
502.20	38679.69
502.37	38990.98
502.55	38782.68
502.72	39065.88
502.90	39175.89
503.07	39115.03
503.25	39421.64
503.43	39477.82
503.60	39538.67
503.78	39672.08
503.95	39866.34
504.13	40112.10
504.30	40568.51
504.48	40285.30
504.65	40919.59
504.83	40470.20
505.01	40959.38
505.18	40793.20
505.36	41256.62
505.53	41113.85
505.71	41357.27
505.88	41261.30
506.06	41027.25
506.23	41221.52
506.41	41284.71
506.58	41830.05
506.76	41748.14
506.93	42382.42
507.11	42139.00
507.28	42052.41
507.46	42099.22
507.63	42621.16
507.81	42239.65
507.98	42389.44
508.16	42885.64
508.33	42904.36
508.50	42649.24
508.68	42777.97
508.85	43615.88
509.03	43487.15
509.20	43948.24
509.38	44018.46
509.55	43517.58
509.73	44430.39
509.90	44175.27
510.08	44327.41
510.25	44638.70
510.42	44669.12
510.60	44561.46
510.77	44987.44
510.95	44573.16
511.12	44907.86
511.30	44788.49
511.47	45022.54
511.64	45336.18
511.82	45385.33
511.99	44910.20
512.17	45551.51
512.34	45762.15
512.51	45703.64
512.69	46169.41
512.86	45876.84
513.04	46096.85
513.21	46401.12
513.38	46328.56
513.56	46808.37
513.73	46375.37
513.90	46801.35
514.08	47012.00
514.25	47077.54
514.43	46878.59
514.60	47065.83
514.77	46679.64
514.95	47412.23
515.12	47220.31
515.29	47517.56
515.47	47398.19
515.64	47805.44
515.81	47012.00
515.99	47870.98
516.16	48318.02
516.33	47765.65
516.51	47896.72
516.68	47744.59
516.85	48186.95
517.03	48376.53
517.20	48264.19
517.37	48168.22
517.54	48395.26
517.72	48303.98
517.89	48411.64
518.06	48942.94
518.24	49045.93
518.41	49116.14
518.58	48811.87
518.75	49036.56
518.93	49303.38
519.10	49340.83
519.27	49654.47
519.45	49153.59
519.62	49507.01
519.79	49684.89
519.96	49230.83
520.14	50087.46
520.31	49691.91
520.48	49837.03
520.65	49799.58
520.83	50099.17
521.00	50347.26
521.17	50265.34
521.34	50396.42
521.52	50548.55
521.69	50511.10
521.86	50527.48
522.03	50707.71
522.20	50834.10
522.38	51281.14
522.55	50777.92
522.72	51166.45
522.89	50871.54
523.07	51262.41
523.24	51231.99
523.41	51316.25
523.58	51351.35
523.75	51812.44
523.92	51526.89
524.10	51859.25
524.27	51435.61
524.44	51540.94
524.61	51437.95
524.78	51929.47
524.96	51875.63
525.13	52102.67
525.30	52093.30
525.47	51978.62
525.64	52533.32
525.81	52348.42
525.98	52575.45
526.16	52238.42
526.33	52243.10
526.50	52765.04
526.67	52360.12
526.84	52502.90
527.01	52313.31
527.18	52685.46
527.36	52779.08
527.53	52931.22
527.70	53235.48
527.87	53181.65
528.04	52889.09
528.21	53434.43
528.38	53261.23
528.55	53214.42
528.72	52966.32
528.89	53422.73
529.07	53055.26
529.24	53172.29
529.41	53624.01
529.58	53249.53
529.75	53223.78
529.92	53396.98
530.09	53818.28
530.26	53682.53
530.43	53703.59
530.60	53319.74
530.77	53347.83
530.94	53806.58
531.11	53663.80
531.28	53614.65
531.46	54124.89
531.63	53972.75
531.80	54019.56
531.97	54370.64
532.14	54312.13
532.31	53991.48
532.48	54262.98
532.65	54157.66
532.82	53932.96
532.99	54319.15
533.16	54323.83
533.33	54710.02
533.50	54546.18
533.67	54412.77
533.84	54225.53
534.01	54529.80
534.18	54777.90
534.35	54894.92
534.52	54635.13
534.69	54829.39
534.86	55023.65
535.03	54787.26
535.20	54859.82
535.37	55030.68
535.54	55201.53
535.71	55124.30
535.88	55180.47
536.05	55196.85
536.22	55243.66
536.38	55400.48
536.55	55096.21
536.72	55100.89
536.89	55238.98
537.06	55386.44
537.23	55318.56
537.40	55391.12
537.57	55292.82
537.74	55543.25
537.91	55695.39
538.08	55737.52
538.25	55416.86
538.42	55756.24
538.59	55781.99
538.75	55501.12
538.92	55955.19
539.09	56072.21
539.26	55976.25
539.43	55814.76
539.60	55917.74
539.77	55894.33
539.94	56222.01
540.11	56027.74
540.28	56226.69
540.44	56095.62
540.61	56275.84
540.78	56156.47
540.95	56112.00
541.12	56200.94
541.29	56030.08
541.46	56381.16
541.62	56334.35
541.79	56369.46
541.96	56294.56
542.13	56257.12
542.30	56275.84
542.47	56453.72
542.63	56584.79
542.80	56575.43
542.97	57055.24
543.14	57214.40
543.31	56699.48
543.48	56987.36
543.64	57277.59
543.81	56952.26
543.98	57179.29
544.15	57055.24
544.32	57055.24
544.48	57432.07
544.65	56970.98
544.82	57102.05
544.99	57031.83
545.16	57375.89
545.32	57198.01
545.49	57443.77
545.66	57443.77
545.83	57443.77
546.00	57469.51
546.16	57413.34
546.33	57310.36
546.50	57481.22
546.67	57425.04
546.83	57301.00
547.00	57448.45
547.17	57511.64
547.34	57443.77
547.50	57815.91
547.67	57937.62
547.84	57602.92
548.00	57818.25
548.17	58007.84
548.34	57911.88
548.51	57813.57
548.67	57865.06
548.84	57907.19
549.01	57984.43
549.18	57804.21
549.34	58150.61
549.51	58082.73
549.68	58202.10
549.84	57909.53
550.01	58211.46
550.18	58298.06
550.34	58155.29
550.51	58459.56
550.68	58363.60
550.84	58157.63
551.01	58384.66
551.18	58185.72
551.34	58164.65
551.51	58372.96
551.68	58188.06
551.84	58438.50
552.01	58199.76
552.18	58157.63
552.34	58340.19
552.51	58489.99
552.68	58370.62
552.84	58480.63
553.01	58585.95
553.18	58564.88
553.34	58644.46
553.51	58354.24
553.67	58637.44
553.84	58805.96
554.01	58848.09
554.17	58838.73
554.34	58714.68
554.51	58735.74
554.67	58859.79
554.84	58740.42
555.00	58796.60
555.17	58930.01
555.33	58920.65
555.50	58717.02
555.67	58726.38
555.83	58775.53
556.00	59051.72
556.16	59133.63
556.33	58951.07
556.50	59077.46
556.66	59133.63
556.83	58859.79
556.99	58946.39
557.16	59208.53
557.32	59201.51
557.49	59234.28
557.65	59250.66
557.82	59199.17
557.98	59030.65
558.15	59068.10
558.32	59458.97
558.48	59381.73
558.65	59346.62
558.81	59208.53
558.98	59018.95
559.14	59208.53
559.31	59384.07
559.47	59430.88
559.64	59489.40
559.80	59416.84
559.97	59487.06
560.13	59309.18
560.30	59522.16
560.46	59330.24
560.63	59723.45
560.79	59442.59
560.96	59735.15
561.12	59678.98
561.29	59655.57
561.45	59395.77
561.61	59550.25
561.78	59620.47
561.94	59489.40
562.11	59608.76
562.27	59571.32
562.44	59849.84
562.60	59910.69
562.77	59700.04
562.93	59524.50
563.10	59728.13
563.26	59700.04
563.42	59941.12
563.59	59737.49
563.75	59817.07
563.92	59945.80
564.08	59758.56
564.24	60074.53
564.41	60011.34
564.57	60041.76
564.74	59934.10
564.90	60086.23
565.07	59779.62
565.23	59824.09
565.39	59863.88
565.56	59796.01
565.72	60055.81
565.88	59934.10
566.05	59882.61
566.21	59863.88
566.38	59896.65
566.54	60011.34
566.70	60004.31
566.87	60102.62
567.03	59868.56
567.19	60051.12
567.36	60154.11
567.52	60006.65
567.68	60404.55
567.85	60109.64
568.01	60011.34
568.17	60083.89
568.34	60210.28
568.50	59990.27
568.66	60191.56
568.83	60224.32
568.99	60025.38
569.15	60261.77
569.32	60109.64
569.48	60376.46
569.64	60376.46
569.81	60177.51
569.97	60357.74
570.13	60236.03
570.30	60285.18
570.46	60210.28
570.62	60310.92
570.78	60280.50
570.95	60278.16
571.11	60350.71
571.27	60142.41
571.43	60357.74
571.60	60453.70
571.76	60130.70
571.92	60409.23
572.09	60383.48
572.25	60163.47
572.41	60229.01
572.57	60432.63
572.74	60512.21
572.90	60392.84
573.06	60446.68
573.22	60411.57
573.38	60570.72
573.55	60488.80
573.71	60718.18
573.87	60413.91
574.03	60451.36
574.20	60474.76
574.36	60339.01
574.52	60479.44
574.68	60505.19
574.84	60601.15
575.01	60582.43
575.17	60486.46
575.33	60388.16
575.49	60360.08
575.65	60463.06
575.82	60512.21
575.98	60467.74
576.14	60804.78
576.30	60638.60
576.46	60488.80
576.62	60645.62
576.79	60559.02
576.95	60252.41
577.11	60601.15
577.27	60591.79
577.43	60645.62
577.59	60566.04
577.75	60647.96
577.92	60589.45
578.08	60533.28
578.24	60617.53
578.40	60989.68
578.56	60734.56
578.72	60589.45
578.88	60750.94
579.04	60720.52
579.21	60622.22
579.37	60828.18
579.53	60580.09
579.69	60512.21
579.85	60809.46
580.01	60669.03
580.17	60505.19
580.33	60664.35
580.49	60935.85
580.65	60755.63
580.82	60706.47
580.98	60603.49
581.14	60732.22
581.30	60554.34
581.46	60605.83
581.62	60739.24
581.78	60701.79
581.94	60713.50
582.10	60612.85
582.26	60786.05
582.42	60842.23
582.58	60851.59
582.74	60673.71
582.90	60683.07
583.06	60610.51
583.22	60570.72
583.38	60704.13
583.54	60615.19
583.70	60802.44
583.86	60706.47
584.02	60662.00
584.18	60886.70
584.34	60825.84
584.50	60886.70
584.66	60519.23
584.82	60638.60
584.98	60772.01
585.14	60673.71
585.30	60596.47
585.46	60884.36
585.62	60594.13
585.78	60863.29
585.94	60591.79
586.10	61076.28
586.26	60914.78
586.42	60891.38
586.58	61059.90
586.74	60884.36
586.90	60867.97
587.06	60544.98
587.22	60828.18
587.38	60940.53
587.54	60889.04
587.70	60877.33
587.86	60912.44
588.02	60764.99
588.18	60938.19
588.34	60825.84
588.49	60891.38
