SpectraSuite Data File
++++++++++++++++++++++++++++++++++++
Date: Fri Oct 25 10:47:32 EDT 2013
User: price-jones
Dark Spectrum Present: No
Reference Spectrum Present: No
Number of Sampled Component Spectra: 1
Spectrometers: USB2+H05261
Integration Time (usec): 100000 (USB2+H05261)
Spectra Averaged: 1 (USB2+H05261)
Boxcar Smoothing: 0 (USB2+H05261)
Correct for Electrical Dark: No (USB2+H05261)
Strobe/Lamp Enabled: No (USB2+H05261)
Correct for Detector Non-linearity: No (USB2+H05261)
Correct for Stray Light: No (USB2+H05261)
Number of Pixels in Processed Spectrum: 2048
>>>>>Begin Processed Spectral Data<<<<<
365.73	126.39
365.92	126.39
366.12	126.39
366.32	84.26
366.52	58.51
366.72	53.83
366.91	67.88
367.11	35.11
367.31	63.19
367.51	67.88
367.70	51.49
367.90	81.92
368.10	14.04
368.30	72.56
368.49	37.45
368.69	16.38
368.89	74.90
369.09	88.94
369.28	9.36
369.48	53.83
369.68	39.79
369.87	56.17
370.07	119.37
370.27	145.11
370.47	196.60
370.66	411.93
370.86	397.89
371.06	458.74
371.25	505.56
371.45	447.04
371.65	521.94
371.84	517.26
372.04	376.83
372.24	327.68
372.44	512.58
372.63	435.34
372.83	521.94
373.03	535.98
373.22	533.64
373.42	589.82
373.62	507.90
373.81	564.07
374.01	603.86
374.21	547.69
374.40	517.26
374.60	585.13
374.79	491.51
374.99	615.56
375.19	578.11
375.38	573.43
375.58	571.09
375.78	582.79
375.97	657.69
376.17	585.13
376.37	538.32
376.56	533.64
376.76	620.24
376.95	610.88
377.15	531.30
377.35	545.34
377.54	498.53
377.74	552.37
377.93	559.39
378.13	589.82
378.33	575.77
378.52	566.41
378.72	704.50
378.91	683.44
379.11	622.58
379.31	538.32
379.50	594.50
379.70	631.94
379.89	671.73
380.09	547.69
380.28	601.52
380.48	643.65
380.68	608.54
380.87	592.16
381.07	624.92
381.26	741.95
381.46	603.86
381.65	608.54
381.85	641.31
382.04	723.23
382.24	622.58
382.43	674.07
382.63	648.33
382.83	589.82
383.02	706.84
383.22	725.57
383.41	716.20
383.61	669.39
383.80	744.29
384.00	695.14
384.19	706.84
384.39	692.80
384.58	739.61
384.78	781.74
384.97	784.08
385.17	781.74
385.36	734.93
385.56	760.67
385.75	734.93
385.95	727.91
386.14	755.99
386.34	669.39
386.53	704.50
386.72	816.85
386.92	753.65
387.11	830.89
387.31	795.78
387.50	849.61
387.70	777.06
387.89	770.04
388.09	777.06
388.28	788.76
388.48	837.91
388.67	854.30
388.86	816.85
389.06	840.25
389.25	819.19
389.45	851.96
389.64	828.55
389.84	844.93
390.03	938.55
390.22	915.15
390.42	856.64
390.61	844.93
390.81	882.38
391.00	863.66
391.19	945.58
391.39	880.04
391.58	1029.84
391.78	926.85
391.97	966.64
392.16	980.68
392.36	952.60
392.55	994.73
392.75	933.87
392.94	947.92
393.13	1013.45
393.33	936.21
393.52	945.58
393.71	978.34
393.91	992.39
394.10	1076.65
394.29	1081.33
394.49	983.02
394.68	1029.84
394.88	1095.37
395.07	1203.04
395.26	1095.37
395.46	1029.84
395.65	1116.44
395.84	1139.84
396.04	1100.05
396.23	1081.33
396.42	1057.92
396.62	1081.33
396.81	1149.20
397.00	1151.54
397.19	1165.59
397.39	1146.86
397.58	1123.46
397.77	1174.95
397.97	1270.91
398.16	1242.82
398.35	1289.64
398.55	1275.59
398.74	1282.61
398.93	1331.76
399.12	1261.55
399.32	1212.40
399.51	1261.55
399.70	1287.29
399.90	1324.74
400.09	1313.04
400.28	1441.77
400.47	1320.06
400.67	1317.72
400.86	1364.53
401.05	1453.47
401.24	1397.30
401.44	1378.58
401.63	1521.35
401.82	1432.41
402.01	1432.41
402.21	1509.65
402.40	1465.18
402.59	1446.45
402.78	1537.73
402.97	1526.03
403.17	1563.48
403.36	1563.48
403.55	1495.60
403.74	1593.90
403.93	1647.74
404.13	1666.46
404.32	1577.52
404.51	1565.82
404.70	1582.20
404.89	1607.95
405.09	1713.27
405.28	1614.97
405.47	1666.46
405.66	1792.85
405.85	1708.59
406.05	1781.15
406.24	1844.34
406.43	1750.72
406.62	1699.23
406.81	1837.32
407.00	1755.40
407.20	1764.76
407.39	1872.43
407.58	1832.64
407.77	1895.83
407.96	1874.77
408.15	1935.62
408.34	1881.79
408.54	1912.22
408.73	1963.71
408.92	1987.11
409.11	2019.88
409.30	2003.50
409.49	1879.45
409.68	2047.97
409.87	1966.05
410.07	2045.63
410.26	2026.90
410.45	2047.97
410.64	2085.42
410.83	2047.97
411.02	2242.23
411.21	2146.27
411.40	2106.48
411.59	2162.66
411.78	2230.53
411.98	2214.15
412.17	2312.45
412.36	2307.77
412.55	2324.15
412.74	2396.71
412.93	2335.85
413.12	2204.78
413.31	2459.90
413.50	2495.01
413.69	2436.50
413.88	2593.31
414.07	2424.80
414.26	2516.08
414.45	2553.52
414.64	2647.15
414.83	2572.25
415.02	2647.15
415.22	2684.59
415.41	2693.96
415.60	2679.91
415.79	2745.45
415.98	2654.17
416.17	2874.18
416.36	2715.02
416.55	2729.06
416.74	2773.53
416.93	2771.19
417.12	2829.71
417.31	2874.18
417.50	2939.71
417.69	2995.89
417.88	2956.10
418.07	2902.26
418.26	2960.78
418.45	3028.65
418.64	3164.40
418.83	2979.50
419.02	3096.53
419.21	3089.51
419.39	3152.70
419.58	3150.36
419.77	3012.27
419.96	3157.38
420.15	3169.09
420.34	3159.72
420.53	3187.81
420.72	3187.81
420.91	3281.43
421.10	3389.10
421.29	3332.92
421.48	3246.32
421.67	3262.71
421.86	3410.16
422.05	3349.31
422.24	3316.54
422.43	3365.69
422.61	3342.28
422.80	3426.54
422.99	3442.93
423.18	3496.76
423.37	3489.74
423.56	3309.52
423.75	3414.84
423.94	3265.05
424.13	3194.83
424.32	3236.96
424.50	3307.18
424.69	3492.08
424.88	3419.52
425.07	3361.01
425.26	3389.10
425.45	3496.76
425.64	3410.16
425.83	3372.71
426.01	3529.53
426.20	3559.95
426.39	3466.33
426.58	3485.06
426.77	3412.50
426.96	3543.57
427.15	3363.35
427.33	3646.55
427.52	3545.91
427.71	3585.70
427.90	3651.24
428.09	3548.25
428.28	3665.28
428.46	3770.60
428.65	3712.09
428.84	3684.00
429.03	3810.39
429.22	3604.42
429.40	3562.30
429.59	3662.94
429.78	3529.53
429.97	3599.74
430.16	3698.05
430.34	3805.71
430.53	3632.51
430.72	3880.61
430.91	3599.74
431.10	3833.80
431.28	3878.27
431.47	4014.02
431.66	4004.66
431.85	3950.82
432.03	4077.21
432.22	4131.05
432.41	3988.27
432.60	4070.19
432.79	4100.62
432.97	4109.98
433.16	4042.11
433.35	3978.91
433.54	4060.83
433.72	4196.58
433.91	4159.13
434.10	4051.47
434.28	4121.68
434.47	4360.42
434.66	4414.25
434.85	4425.95
435.03	4360.42
435.22	4393.19
435.41	4381.48
435.59	4393.19
435.78	4365.10
435.97	4486.81
436.16	4432.97
436.34	4510.21
436.53	4533.62
436.72	4690.43
436.90	4683.41
437.09	4477.44
437.28	4496.17
437.46	4496.17
437.65	4547.66
437.84	4596.81
438.02	4573.41
438.21	4594.47
438.40	4451.70
438.58	4744.27
438.77	4681.07
438.96	4723.20
439.14	4931.51
439.33	4966.62
439.52	4954.91
439.70	4884.70
439.89	5067.26
440.08	5039.17
440.26	5032.15
440.45	5071.94
440.63	5090.67
440.82	5160.88
441.01	4994.70
441.19	5114.07
441.38	5392.59
441.57	5343.44
441.75	5310.68
441.94	5376.21
442.12	5528.35
442.31	5518.98
442.50	5378.55
442.68	5507.28
442.87	5533.03
443.05	5502.60
443.24	5877.09
443.43	5706.23
443.61	5689.84
443.80	5839.64
443.98	5338.76
444.17	5376.21
444.35	5610.26
444.54	5853.68
444.73	5757.72
444.91	5568.13
445.10	5633.67
445.28	5451.11
445.47	5657.07
445.65	5664.10
445.84	5692.18
446.02	5680.48
446.21	5832.62
446.39	5657.07
446.58	5923.90
446.77	5760.06
446.95	5753.04
447.14	5853.68
447.32	5760.06
447.51	5839.64
447.69	5708.57
447.88	5762.40
448.06	5874.74
448.25	5909.85
448.43	5907.51
448.62	5809.21
448.80	5694.52
448.99	5942.62
449.17	5853.68
449.36	5919.21
449.54	5973.05
449.73	6050.28
449.91	6319.45
450.10	6134.54
450.28	6193.06
450.46	6260.93
450.65	6134.54
450.83	6108.80
451.02	6071.35
451.20	6239.87
451.39	6445.84
451.57	6167.31
451.76	6097.10
451.94	6314.77
452.13	6420.09
452.31	6317.11
452.49	6263.27
452.68	6513.71
452.86	6312.42
453.05	6452.86
453.23	6396.68
453.42	6448.18
453.60	6298.38
453.78	6607.33
453.97	6354.55
454.15	6537.12
454.34	6431.79
454.52	6588.61
454.70	6628.40
454.89	6612.01
455.07	6509.03
455.26	6616.69
455.44	6633.08
455.62	6719.68
455.81	6707.98
455.99	6808.62
456.17	6775.85
456.36	6883.52
456.54	6970.12
456.73	7052.03
456.91	7014.59
457.09	6979.48
457.28	7124.59
457.46	6913.94
457.64	7246.30
457.83	7000.54
458.01	7119.91
458.19	7370.35
458.38	7000.54
458.56	7302.47
458.74	7180.76
458.93	7232.26
459.11	7314.17
459.29	7164.38
459.48	7253.32
459.66	7335.24
459.84	7424.18
460.03	7566.95
460.21	7192.47
460.39	7517.80
460.57	7314.17
460.76	7262.68
460.94	7602.06
461.12	7569.29
461.31	7733.13
461.49	7492.05
461.67	7744.83
461.85	7585.68
462.04	7714.41
462.22	8219.96
462.40	7749.51
462.59	7810.37
462.77	7903.99
462.95	7829.09
463.13	7751.85
463.32	7833.77
463.50	7911.01
463.68	7978.89
463.86	7941.44
464.05	7819.73
464.23	7934.42
464.41	8037.40
464.59	7791.64
464.78	8093.57
464.96	8053.78
465.14	7927.39
465.32	8255.07
465.50	8109.96
465.69	8173.15
465.87	8037.40
466.05	8287.84
466.23	8241.03
466.41	8124.00
466.60	8243.37
466.78	8297.20
466.96	8035.06
467.14	8212.94
467.32	8355.71
467.51	8428.27
467.69	8018.68
467.87	8126.34
468.05	8425.93
468.23	8301.88
468.41	8257.41
468.60	8362.73
468.78	8411.89
468.96	8442.31
469.14	8568.70
469.32	8610.83
469.50	8400.18
469.69	8739.56
469.87	8812.12
470.05	8629.56
470.23	8697.43
470.41	8699.77
470.59	8753.60
470.77	8774.67
470.95	8809.78
471.14	8840.20
471.32	8837.86
471.50	9167.88
471.68	8905.74
471.86	9022.77
472.04	8961.91
472.22	9373.85
472.40	9050.85
472.58	9291.93
472.77	9142.13
472.95	9277.88
473.13	9647.69
473.31	9158.52
473.49	9312.99
473.67	9404.27
473.85	9315.33
474.03	9736.63
474.21	9748.33
474.39	9820.89
474.57	9781.10
474.75	9743.65
474.93	9949.62
475.12	9806.84
475.30	9949.62
475.48	10113.45
475.66	9947.28
475.84	9921.53
476.02	9886.42
476.20	10078.35
476.38	10506.66
476.56	10544.11
476.74	10548.79
476.92	10293.68
477.10	10403.68
477.28	10747.74
477.46	10686.89
477.64	10684.55
477.82	10916.26
478.00	11007.54
478.18	10993.50
478.36	11005.20
478.54	11206.48
478.72	11037.97
478.90	11433.52
479.08	11756.51
479.26	11730.76
479.44	11405.43
479.62	11889.92
479.80	11847.79
479.98	11791.62
480.16	12189.51
480.34	12072.48
480.52	12283.13
480.70	11969.50
480.88	11981.20
481.06	12332.28
481.24	12102.91
481.41	12203.55
481.59	12615.49
481.77	12685.70
481.95	12669.32
482.13	12903.37
482.31	12957.21
482.49	13245.09
482.67	13102.32
482.85	13448.72
483.03	13694.47
483.21	13516.59
483.39	13743.63
483.57	13561.06
483.74	13923.85
483.92	13965.98
484.10	13790.44
484.28	14134.50
484.46	14396.64
484.64	14487.92
484.82	14560.47
485.00	14340.46
485.18	14705.59
485.35	14696.22
485.53	14792.19
485.71	14829.63
485.89	15002.83
486.07	14738.35
486.25	15171.35
486.43	15311.78
486.61	15632.44
486.78	15529.45
486.96	15501.37
487.14	15662.86
487.32	16088.84
487.50	16067.78
487.68	16297.15
487.85	16421.20
488.03	16842.50
488.21	16741.85
488.39	16535.88
488.57	17060.16
488.75	16861.22
488.92	17106.98
489.10	17111.66
489.28	17200.60
489.46	17596.15
489.64	17383.16
489.81	17570.40
489.99	17757.64
490.17	17809.14
490.35	18373.21
490.53	17977.65
490.70	18188.30
490.88	18267.88
491.06	18593.22
491.24	18649.39
491.41	18679.82
491.59	18799.18
491.77	18401.29
491.95	19192.39
492.13	19278.99
492.30	19559.86
492.48	19262.61
492.66	19370.27
492.84	19587.94
493.01	19875.83
493.19	19721.35
493.37	19924.98
493.54	20039.67
493.72	20152.01
493.90	20264.36
494.08	20547.56
494.25	20657.57
494.43	20702.04
494.61	20919.71
494.79	21046.10
494.96	21167.80
495.14	20877.58
495.32	21256.75
495.49	21385.47
495.67	21322.28
495.85	21722.51
496.02	21766.98
496.20	21572.72
496.38	21912.10
496.55	21912.10
496.73	22890.44
496.91	22183.60
497.09	22347.44
497.26	22410.63
497.44	22387.22
497.62	22728.94
497.79	23016.83
497.97	22738.30
498.14	22747.67
498.32	23126.83
498.50	22860.01
498.67	23091.73
498.85	23414.72
499.03	23702.61
499.20	23396.00
499.38	23590.26
499.56	23573.88
499.73	23939.00
499.91	23805.59
500.08	24154.33
500.26	23964.75
500.44	24074.75
500.61	24135.60
500.79	24002.19
500.97	24547.54
501.14	24538.18
501.32	24451.58
501.49	24650.52
501.67	24732.44
501.84	24847.13
502.02	24659.88
502.20	24732.44
502.37	24870.53
502.55	24987.56
502.72	25198.21
502.90	25291.83
503.07	25385.45
503.25	25458.01
503.43	25362.04
503.60	25425.24
503.78	25392.47
503.95	25961.22
504.13	25898.03
504.30	25741.21
504.48	26043.14
504.65	26391.88
504.83	26391.88
505.01	26204.64
505.18	26228.04
505.36	26504.23
505.53	26370.82
505.71	26693.81
505.88	26822.54
506.06	26843.60
506.23	26668.06
506.41	26412.95
506.58	26787.43
506.76	26930.20
506.93	26752.32
507.11	27307.03
507.28	27562.15
507.46	27372.57
507.63	27606.62
507.81	27789.18
507.98	27173.62
508.16	27658.11
508.33	27735.35
508.50	27976.42
508.68	28126.22
508.85	28273.67
509.03	28371.97
509.20	28084.09
509.38	28411.76
509.55	28297.08
509.73	28526.45
509.90	29177.12
510.08	28835.40
510.25	28524.11
510.42	28559.22
510.60	28807.31
510.77	28669.22
510.95	29230.95
511.12	28531.13
511.30	28830.72
511.47	29401.81
511.64	29769.27
511.82	29322.23
511.99	29385.43
512.17	29699.06
512.34	29394.79
512.51	29778.64
512.69	30125.04
512.86	30291.21
513.04	30038.44
513.21	30092.27
513.38	29926.09
513.56	30045.46
513.73	29933.11
513.90	30092.27
514.08	30265.47
514.25	30295.89
514.43	30576.76
514.60	30508.88
514.77	30352.07
514.95	30925.50
515.12	30703.15
515.29	30792.09
515.47	31180.62
515.64	31164.23
515.81	31026.14
515.99	30955.93
516.16	30979.33
516.33	31082.31
516.51	31005.08
516.68	30672.72
516.85	30909.11
517.03	31248.49
517.20	31491.91
517.37	31360.84
517.54	31901.50
517.72	31536.38
517.89	31695.53
518.06	31931.93
518.24	31660.43
518.41	31611.28
518.58	31749.37
518.75	31550.42
518.93	32165.98
519.10	32170.66
519.27	32467.91
519.45	32657.49
519.62	32215.13
519.79	32264.28
519.96	32627.07
520.14	33106.88
520.31	32692.60
520.48	32580.26
520.65	32821.33
520.83	32793.25
521.00	33123.26
521.17	32980.49
521.34	33006.23
521.52	33158.37
521.69	33385.40
521.86	33214.54
522.03	33457.96
522.20	33764.57
522.38	33589.03
522.55	33799.68
522.72	33645.20
522.89	33539.88
523.07	33811.38
523.24	33558.60
523.41	33816.06
523.58	34000.96
523.75	34356.72
523.92	34096.92
524.10	34326.30
524.27	34345.02
524.44	34401.19
524.61	34515.88
524.78	34368.43
524.96	34806.11
525.13	34934.84
525.30	34623.54
525.47	34742.91
525.64	34761.64
525.81	34953.56
525.98	34983.99
526.16	35110.38
526.33	34838.87
526.50	35402.94
526.67	34756.96
526.84	34778.02
527.01	34852.92
527.18	35129.10
527.36	34920.79
527.53	35302.30
527.70	35819.56
527.87	35545.72
528.04	35552.74
528.21	35269.53
528.38	35487.20
528.55	35861.69
528.72	35576.14
528.89	35889.77
529.07	35868.71
529.24	35484.86
529.41	35929.56
529.58	35793.81
529.75	35779.77
529.92	36065.31
530.09	35899.14
530.26	36456.18
530.43	36060.63
530.60	35763.39
530.77	36067.66
530.94	36282.98
531.11	36018.50
531.28	36430.44
531.46	36306.39
531.63	37034.30
531.80	36559.17
531.97	36905.57
532.14	36348.52
532.31	36416.40
532.48	36985.15
532.65	37001.53
532.82	36788.54
532.99	36978.12
533.16	36711.30
533.33	37263.67
533.50	37277.71
533.67	37036.64
533.84	37071.75
534.01	37371.33
534.18	37022.59
534.35	37411.12
534.52	37125.58
534.69	37165.37
534.86	37635.81
535.03	37560.92
535.20	37699.01
535.37	37984.55
535.54	37806.67
535.71	37759.86
535.88	38164.78
536.05	37324.52
536.22	37560.92
536.38	38014.98
536.55	37743.48
536.72	38061.79
536.89	37766.88
537.06	37741.14
537.23	38277.12
537.40	37963.49
537.57	38134.35
537.74	38553.30
537.91	38356.70
538.08	38560.33
538.25	38256.06
538.42	38712.46
538.59	38773.31
538.75	37837.10
538.92	38660.97
539.09	38508.83
539.26	38672.67
539.43	38363.72
539.60	38373.08
539.77	38866.94
539.94	38642.24
540.11	39077.58
540.28	38831.83
540.44	38684.37
540.61	38855.23
540.78	38836.51
540.95	39290.57
541.12	38719.48
541.29	38808.42
541.46	38960.56
541.62	39000.35
541.79	39634.63
541.96	38623.52
542.13	39044.82
542.30	39323.34
542.47	39365.47
542.63	39138.44
542.80	39250.78
542.97	40147.21
543.14	39672.08
543.31	39880.39
543.48	39695.49
543.64	40428.07
543.81	40074.65
543.98	39501.22
544.15	39990.39
544.32	39931.88
544.48	40610.64
544.65	39875.71
544.82	40060.61
544.99	39459.09
545.16	40119.12
545.32	40179.98
545.49	40547.44
545.66	40718.30
545.83	40325.09
546.00	40720.64
546.16	40540.42
546.33	40722.98
546.50	40203.38
546.67	40954.69
546.83	39887.41
547.00	40399.99
547.17	40535.74
547.34	40357.86
547.50	40973.42
547.67	41361.95
547.84	40409.35
548.00	40666.81
548.17	41134.92
548.34	40952.35
548.51	40690.21
548.67	40746.39
548.84	41186.41
549.01	41427.48
549.18	41125.55
549.34	41366.63
549.51	41544.51
549.68	41258.96
549.84	40966.40
550.01	41502.38
550.18	40928.95
550.34	41270.67
550.51	41256.62
550.68	41003.85
550.84	40999.16
551.01	41448.55
551.18	41289.39
551.34	41441.53
551.51	41565.57
551.68	41500.04
551.84	41294.07
552.01	41319.82
552.18	41567.91
552.34	41153.64
552.51	42066.45
552.68	41305.77
552.84	41778.56
553.01	42209.22
553.18	41762.18
553.34	41970.49
553.51	41776.22
553.67	42150.71
553.84	41940.06
554.01	42043.04
554.17	42300.50
554.34	42457.32
554.51	42263.05
554.67	42256.03
554.84	42162.41
555.00	42005.59
555.17	41762.18
555.33	41858.14
555.50	42351.99
555.67	42005.59
555.83	42094.53
556.00	42649.24
556.16	42511.15
556.33	42333.27
556.50	42483.06
556.66	42579.03
556.83	42370.72
556.99	42426.89
557.16	42272.42
557.32	42724.14
557.49	42326.25
557.65	42693.71
557.82	42387.10
557.98	42450.30
558.15	42660.94
558.32	42777.97
558.48	42679.67
558.65	43100.97
558.81	42770.95
558.98	42749.88
559.14	42616.47
559.31	42576.69
559.47	42829.46
559.64	43208.63
559.80	43255.44
559.97	43337.36
560.13	42808.40
560.30	42637.54
560.46	42698.39
560.63	42534.56
560.79	43040.11
560.96	42941.81
561.12	42873.93
561.29	43299.91
561.45	42813.08
561.61	42955.85
561.78	42782.65
561.94	43047.13
562.11	43246.08
562.27	43100.97
562.44	43016.71
562.60	43271.82
562.77	43267.14
562.93	43166.50
563.10	43697.80
563.26	43442.68
563.42	43335.02
563.59	43447.36
563.75	43578.43
563.92	43494.18
564.08	43515.24
564.24	43772.70
564.41	43629.93
564.57	43168.84
564.74	43145.44
564.90	43583.12
565.07	43730.57
565.23	43381.83
565.39	43646.31
565.56	43346.72
565.72	43304.59
565.88	43304.59
566.05	43508.22
566.21	43353.74
566.38	43407.58
566.54	43435.66
566.70	43555.03
566.87	44105.06
567.03	43594.82
567.19	43681.42
567.36	43590.14
567.52	43086.92
567.68	43863.98
567.85	43662.69
568.01	43555.03
568.17	43620.56
568.34	43730.57
568.50	43658.01
568.66	43763.34
568.83	43683.76
568.99	43587.80
569.15	43650.99
569.32	43700.14
569.48	43466.09
569.64	44062.93
569.81	44198.68
569.97	43585.46
570.13	43768.02
570.30	43227.35
570.46	43707.16
570.62	43761.00
570.78	43349.06
570.95	43632.27
571.11	43990.37
571.27	43784.40
571.43	43840.57
571.60	43793.76
571.76	43786.74
571.92	43423.96
572.09	43751.63
572.25	44128.46
572.41	43571.41
572.57	44023.14
572.74	44137.82
572.90	43831.21
573.06	44224.42
573.22	43648.65
573.38	43721.21
573.55	43599.50
573.71	44016.11
573.87	43828.87
574.03	43700.14
574.20	43973.98
574.36	44006.75
574.52	43964.62
574.68	44112.08
574.84	43798.44
575.01	43690.78
575.17	44128.46
575.33	43950.58
575.49	43966.96
575.65	44208.04
575.82	44299.32
575.98	43714.19
576.14	44273.57
576.30	43849.94
576.46	44105.06
576.62	43622.90
576.79	43966.96
576.95	43688.44
577.11	44390.60
577.27	44062.93
577.43	44161.23
577.59	43943.56
577.75	44395.28
577.92	43576.09
578.08	43601.84
578.24	43810.15
578.40	44175.27
578.56	44095.69
578.72	43908.45
578.88	44102.71
579.04	43910.79
579.21	43807.81
579.37	44009.09
579.53	43856.96
579.69	43929.51
579.85	44133.14
580.01	44149.53
580.17	44233.78
580.33	44149.53
580.49	44346.13
580.65	44093.35
580.82	44423.37
580.98	44191.65
581.14	44067.61
581.30	44449.11
581.46	43931.86
581.62	44367.20
581.78	44088.67
581.94	44596.57
582.10	44566.14
582.26	44311.02
582.42	43945.90
582.58	43962.28
582.74	44184.63
582.90	44184.63
583.06	44149.53
583.22	44308.68
583.38	44472.52
583.54	44332.09
583.70	44126.12
583.86	44198.68
584.02	43859.30
584.18	43833.55
584.34	44304.00
584.50	43950.58
584.66	44406.98
584.82	43517.58
584.98	44236.12
585.14	44275.91
585.30	44058.24
585.46	44051.22
585.62	43906.11
585.78	44282.94
585.94	44055.90
586.10	43852.28
586.26	44074.63
586.42	44350.81
586.58	43945.90
586.74	44516.99
586.90	43955.26
587.06	43917.81
587.22	44472.52
587.38	43978.67
587.54	44196.34
587.70	44568.48
587.86	44528.69
588.02	44128.46
588.18	44472.52
588.34	44149.53
588.49	43739.93
588.65	44135.48
588.81	44353.15
588.97	43833.55
589.13	44421.03
589.29	44432.73
589.45	44201.02
589.61	44016.11
589.77	44554.44
589.93	44414.01
590.08	44659.76
590.24	44271.23
590.40	44603.59
