SpectraSuite Data File
++++++++++++++++++++++++++++++++++++
Date: Fri Oct 25 11:22:42 EDT 2013
User: price-jones
Dark Spectrum Present: No
Reference Spectrum Present: No
Number of Sampled Component Spectra: 1
Spectrometers: USB2+H05261
Integration Time (usec): 100000 (USB2+H05261)
Spectra Averaged: 1 (USB2+H05261)
Boxcar Smoothing: 0 (USB2+H05261)
Correct for Electrical Dark: No (USB2+H05261)
Strobe/Lamp Enabled: No (USB2+H05261)
Correct for Detector Non-linearity: No (USB2+H05261)
Correct for Stray Light: No (USB2+H05261)
Number of Pixels in Processed Spectrum: 2048
>>>>>Begin Processed Spectral Data<<<<<
365.73	252.78
365.92	252.78
366.12	252.78
366.32	135.75
366.52	86.60
366.72	187.24
366.91	135.75
367.11	110.01
367.31	135.75
367.51	81.92
367.70	91.28
367.90	175.54
368.10	98.30
368.30	168.52
368.49	182.56
368.69	152.13
368.89	170.86
369.09	86.60
369.28	217.67
369.48	131.07
369.68	121.71
369.87	184.90
370.07	203.63
370.27	285.55
370.47	341.72
370.66	638.97
370.86	627.26
371.06	716.20
371.25	650.67
371.45	645.99
371.65	678.76
371.84	676.41
372.04	702.16
372.24	737.27
372.44	699.82
372.63	678.76
372.83	695.14
373.03	706.84
373.22	753.65
373.42	727.91
373.62	720.88
373.81	833.23
374.01	877.70
374.21	795.78
374.40	816.85
374.60	795.78
374.79	821.53
374.99	812.17
375.19	812.17
375.38	854.30
375.58	781.74
375.78	889.40
375.97	926.85
376.17	903.45
376.37	901.11
376.56	896.43
376.76	821.53
376.95	887.06
377.15	877.70
377.35	891.74
377.54	880.04
377.74	791.10
377.93	889.40
378.13	903.45
378.33	945.58
378.52	905.79
378.72	968.98
378.91	926.85
379.11	926.85
379.31	889.40
379.50	919.83
379.70	971.32
379.89	968.98
380.09	987.71
380.28	954.94
380.48	961.96
380.68	945.58
380.87	983.02
381.07	999.41
381.26	1025.15
381.46	950.26
381.65	1029.84
381.85	985.37
382.04	1074.31
382.24	1074.31
382.43	994.73
382.63	1015.79
382.83	1029.84
383.02	1100.05
383.22	1121.12
383.41	1102.39
383.61	1083.67
383.80	1174.95
384.00	1039.20
384.19	1081.33
384.39	1186.65
384.58	994.73
384.78	1095.37
384.97	1177.29
385.17	1043.88
385.36	1135.16
385.56	1165.59
385.75	1081.33
385.95	1128.14
386.14	1231.12
386.34	1165.59
386.53	1252.19
386.72	1191.33
386.92	1294.32
387.11	1252.19
387.31	1261.55
387.50	1242.82
387.70	1210.06
387.89	1224.10
388.09	1277.93
388.28	1273.25
388.48	1280.27
388.67	1387.94
388.86	1322.40
389.06	1334.11
389.25	1390.28
389.45	1460.49
389.64	1294.32
389.84	1390.28
390.03	1420.71
390.22	1348.15
390.42	1392.62
390.61	1320.06
390.81	1392.62
391.00	1418.36
391.19	1542.41
391.39	1479.22
391.58	1481.56
391.78	1401.98
391.97	1453.47
392.16	1486.24
392.36	1472.20
392.55	1483.90
392.75	1542.41
392.94	1535.39
393.13	1488.58
393.33	1446.45
393.52	1493.26
393.71	1554.12
393.91	1579.86
394.10	1561.14
394.29	1624.33
394.49	1643.06
394.68	1589.22
394.88	1666.46
395.07	1636.03
395.26	1629.01
395.46	1748.38
395.65	1732.00
395.84	1678.16
396.04	1795.19
396.23	1767.10
396.42	1715.61
396.62	1753.06
396.81	1762.42
397.00	1816.26
397.19	1891.15
397.39	1760.08
397.58	1788.17
397.77	1877.11
397.97	1926.26
398.16	1893.49
398.35	1907.54
398.55	1825.62
398.74	1825.62
398.93	1966.05
399.12	1916.90
399.32	1874.77
399.51	1879.45
399.70	1926.26
399.90	1902.86
400.09	2001.16
400.28	2045.63
400.47	2026.90
400.67	2054.99
400.86	2113.50
401.05	2054.99
401.24	2118.18
401.44	2054.99
401.63	2136.91
401.82	2190.74
402.01	2050.31
402.21	2244.57
402.40	2251.60
402.59	2200.10
402.78	2326.49
402.97	2122.87
403.17	2424.80
403.36	2342.88
403.55	2289.04
403.74	2420.11
403.93	2235.21
404.13	2396.71
404.32	2305.43
404.51	2319.47
404.70	2466.92
404.89	2406.07
405.09	2380.32
405.28	2438.84
405.47	2459.90
405.66	2511.39
405.85	2588.63
406.05	2523.10
406.24	2586.29
406.43	2553.52
406.62	2530.12
406.81	2705.66
407.00	2525.44
407.20	2537.14
407.39	2670.55
407.58	2731.41
407.77	2705.66
407.96	2668.21
408.15	2857.79
408.34	2782.90
408.54	2813.32
408.73	2857.79
408.92	2878.86
409.11	2888.22
409.30	3030.99
409.49	3007.59
409.68	2960.78
409.87	2958.44
410.07	3028.65
410.26	3054.40
410.45	2925.67
410.64	3075.46
410.83	3159.72
411.02	3185.47
411.21	3241.64
411.40	3112.91
411.59	3173.77
411.78	3255.69
411.98	3131.64
412.17	3307.18
412.36	3272.07
412.55	3330.58
412.74	3412.50
412.93	3344.63
413.12	3400.80
413.31	3538.89
413.50	3337.60
413.69	3445.27
413.88	3548.25
414.07	3581.02
414.26	3695.71
414.45	3552.93
414.64	3700.39
414.83	3798.69
415.02	3700.39
415.22	3892.31
415.41	3934.44
415.60	3922.74
415.79	3964.87
415.98	4014.02
416.17	3904.01
416.36	3943.80
416.55	4058.49
416.74	4009.34
416.93	4095.94
417.12	4161.47
417.31	4117.00
417.50	4105.30
417.69	4166.15
417.88	4304.25
418.07	4236.37
418.26	4475.10
418.45	4315.95
418.64	4521.92
418.83	4421.27
419.02	4367.44
419.21	4587.45
419.39	4463.40
419.58	4402.55
419.77	4545.32
419.96	4599.15
420.15	4716.18
420.34	4599.15
420.53	4627.24
420.72	4704.48
420.91	4727.88
421.10	4788.74
421.29	4891.72
421.48	4744.27
421.67	4723.20
421.86	4748.95
422.05	4840.23
422.24	4835.55
422.43	5123.43
422.61	4840.23
422.80	4880.02
422.99	4856.61
423.18	5039.17
423.37	4896.40
423.56	4964.28
423.75	4851.93
423.94	4898.74
424.13	4770.01
424.32	4800.44
424.50	4919.81
424.69	5102.37
424.88	5219.39
425.07	4980.66
425.26	4823.84
425.45	4952.57
425.64	4968.96
425.83	4917.47
426.01	5156.20
426.20	5015.77
426.39	5181.95
426.58	5123.43
426.77	5006.41
426.96	5071.94
427.15	5111.73
427.33	5142.16
427.52	5118.75
427.71	5380.89
427.90	5280.25
428.09	5362.17
428.28	5423.02
428.46	5453.45
428.65	5362.17
428.84	5633.67
429.03	5549.41
429.22	5327.06
429.40	5481.53
429.59	5612.60
429.78	5378.55
429.97	5313.02
430.16	5582.18
430.34	5666.44
430.53	5713.25
430.72	5678.14
430.91	5729.63
431.10	5584.52
431.28	5776.44
431.47	5851.34
431.66	5963.68
431.85	5760.06
432.03	5856.02
432.22	6003.47
432.41	5980.07
432.60	6087.73
432.79	5832.62
432.97	6003.47
433.16	6012.84
433.35	6080.71
433.54	6108.80
433.72	6141.57
433.91	6113.48
434.10	6319.45
434.28	6118.16
434.47	6382.64
434.66	6040.92
434.85	6256.25
435.03	6282.00
435.22	6232.85
435.41	6590.95
435.59	6490.31
435.78	6406.05
435.97	6431.79
436.16	6462.22
436.34	6373.28
436.53	6499.67
436.72	6647.12
436.90	6616.69
437.09	6651.80
437.28	6558.18
437.46	6670.53
437.65	6651.80
437.84	6663.51
438.02	6794.58
438.21	6820.32
438.40	6642.44
438.58	7148.00
438.77	7206.51
438.96	6932.67
439.14	7351.62
439.33	7267.36
439.52	7173.74
439.70	7339.92
439.89	7365.67
440.08	7316.51
440.26	7400.77
440.45	7466.31
440.63	7478.01
440.82	7573.97
441.01	7459.29
441.19	7714.41
441.38	7782.28
441.57	7662.91
441.75	7723.77
441.94	7899.31
442.12	7852.50
442.31	7981.23
442.50	8203.58
442.68	8046.76
442.87	7934.42
443.05	8081.87
443.24	8182.51
443.43	8231.66
443.61	8180.17
443.80	8472.74
443.98	8084.21
444.17	7765.90
444.35	8348.69
444.54	8390.82
444.73	8454.02
444.91	8360.39
445.10	8407.20
445.28	8379.12
445.47	8327.63
445.65	8369.76
445.84	8465.72
446.02	8519.55
446.21	8549.98
446.39	8479.76
446.58	8531.25
446.77	8510.19
446.95	8435.29
447.14	8454.02
447.32	8669.34
447.51	8514.87
447.69	8547.64
447.88	8585.08
448.06	8479.76
448.25	8732.54
448.43	8805.10
448.62	8592.11
448.80	8631.90
448.99	8655.30
449.17	8657.64
449.36	8716.16
449.54	8741.90
449.73	8929.14
449.91	8964.25
450.10	9071.92
450.28	9114.05
450.46	8922.12
450.65	9177.24
450.83	9263.84
451.02	9074.26
451.20	9383.21
451.39	9202.99
451.57	9362.14
451.76	9027.45
451.94	9015.74
452.13	9507.26
452.31	9167.88
452.49	9357.46
452.68	9397.25
452.86	9387.89
453.05	9320.01
453.23	9528.32
453.42	9390.23
453.60	9298.95
453.78	9540.02
453.97	9298.95
454.15	9448.74
454.34	9533.00
454.52	9628.96
454.70	9673.43
454.89	9743.65
455.07	9643.01
455.26	9788.12
455.44	9907.49
455.62	9816.21
455.81	10038.56
455.99	9944.94
456.17	9996.43
456.36	10120.48
456.54	10171.97
456.73	10370.91
456.91	10527.73
457.09	10335.81
457.28	10560.50
457.46	10270.27
457.64	10581.56
457.83	10494.96
458.01	10548.79
458.19	10801.57
458.38	10857.75
458.56	10661.14
458.74	10839.02
458.93	10820.30
459.11	10848.38
459.29	10593.26
459.48	10960.73
459.66	10810.93
459.84	10878.81
460.03	10927.96
460.21	11047.33
460.39	10904.56
460.57	10916.26
460.76	11080.10
460.94	11274.36
461.12	11302.45
461.31	11255.64
461.49	11227.55
461.67	11332.87
461.85	11412.45
462.04	11328.19
462.22	11852.47
462.40	11798.64
462.59	11456.92
462.77	11815.02
462.95	11686.29
463.13	11758.85
463.32	11779.92
463.50	11679.27
463.68	11798.64
463.86	11737.79
464.05	11854.81
464.23	11690.98
464.41	11920.35
464.59	11674.59
464.78	12198.87
464.96	11808.00
465.14	11985.88
465.32	12226.96
465.50	12016.31
465.69	12388.46
465.87	12191.85
466.05	12177.81
466.23	12304.20
466.41	12367.39
466.60	12421.22
466.78	12336.96
466.96	12205.89
467.14	12252.70
467.32	12376.75
467.51	12463.35
467.69	12285.47
467.87	12634.21
468.05	12699.75
468.23	12678.68
468.41	12369.73
468.60	12769.96
468.78	12709.11
468.96	12475.06
469.14	12800.39
469.32	13085.94
469.50	12414.20
469.69	12898.69
469.87	13202.96
470.05	13233.39
470.23	13043.81
470.41	13355.10
470.59	13334.03
470.77	13231.05
470.95	13158.49
471.14	13701.50
471.32	13184.24
471.50	13532.98
471.68	13525.96
471.86	13626.60
472.04	13790.44
472.22	13738.94
472.40	13745.97
472.58	14176.62
472.77	14033.85
472.95	14558.13
473.13	14738.35
473.31	14108.75
473.49	14237.48
473.67	14235.14
473.85	14340.46
474.03	14698.56
474.21	14920.92
474.39	14520.68
474.57	14707.93
474.75	14792.19
474.93	15094.11
475.12	15007.52
475.30	15068.37
475.48	15040.28
475.66	15300.08
475.84	15407.75
476.02	15384.34
476.20	15513.07
476.38	15695.63
476.56	16203.53
476.74	16013.95
476.92	15985.86
477.10	15845.43
477.28	16070.12
477.46	16229.27
477.64	16283.11
477.82	16222.25
478.00	16767.60
478.18	16952.50
478.36	17240.39
478.54	17359.75
478.72	17249.75
478.90	17420.61
479.08	17626.57
479.26	17673.39
479.44	18101.70
479.62	17991.70
479.80	18312.35
479.98	18185.96
480.16	18668.11
480.34	18328.74
480.52	18902.17
480.70	18789.82
480.88	18637.69
481.06	18892.80
481.24	18869.40
481.41	18775.78
481.59	19655.82
481.77	19623.05
481.95	19702.63
482.13	19932.00
482.31	19541.13
482.49	20430.54
482.67	20196.48
482.85	20435.22
483.03	20774.60
483.21	20737.15
483.39	20905.66
483.57	21043.76
483.74	20936.09
483.92	21523.57
484.10	21530.59
484.28	21858.26
484.46	22209.34
484.64	22427.01
484.82	21986.99
485.00	22600.21
485.18	23187.69
485.35	22977.04
485.53	22981.72
485.71	23023.85
485.89	23653.45
486.07	23494.30
486.25	23852.40
486.43	23559.83
486.61	23873.46
486.78	23850.06
486.96	24144.97
487.14	24912.66
487.32	24737.12
487.50	24959.47
487.68	25170.12
487.85	25273.10
488.03	25692.06
488.21	26216.34
488.39	26082.93
488.57	25827.81
488.75	26560.40
488.92	26895.10
489.10	26728.92
489.28	26974.67
489.46	27445.12
489.64	26876.37
489.81	27908.55
489.99	28095.79
490.17	27660.45
490.35	28416.44
490.53	28556.88
490.70	28388.36
490.88	28341.55
491.06	29043.71
491.24	29081.16
491.41	29050.73
491.59	29336.27
491.77	29460.32
491.95	29626.50
492.13	30068.86
492.30	30754.64
492.48	30061.84
492.66	30085.25
492.84	30483.14
493.01	31019.12
493.19	30553.35
493.37	31323.39
493.54	31098.70
493.72	31653.40
493.90	31456.80
494.08	31922.57
494.25	32360.25
494.43	32156.62
494.61	32458.55
494.79	32746.44
494.96	32837.72
495.14	33343.27
495.32	33268.37
495.49	33230.93
495.67	33500.09
495.85	33853.51
496.02	33823.08
496.20	34000.96
496.38	33979.90
496.55	34457.37
496.73	35070.59
496.91	34637.59
497.09	35285.92
497.26	35168.89
497.44	35246.13
497.62	35700.19
497.79	35976.37
497.97	35995.10
498.14	36224.47
498.32	36442.14
498.50	36264.26
498.67	36830.67
498.85	36376.61
499.03	36451.50
499.20	37069.40
499.38	37298.78
499.56	37392.40
499.73	37312.82
499.91	37244.94
500.08	37556.24
500.26	37483.68
500.44	37841.78
500.61	38417.55
500.79	37542.19
500.97	38452.66
501.14	38548.62
501.32	38728.84
501.49	38890.34
501.67	38850.55
501.84	39180.57
502.02	38859.91
502.20	39070.56
502.37	39435.69
502.55	39452.07
502.72	39814.85
502.90	39761.02
503.07	39728.25
503.25	40318.07
503.43	39915.50
503.60	40645.74
503.78	40446.80
503.95	40538.08
504.13	40746.39
504.30	40685.53
504.48	40692.55
504.65	41010.87
504.83	41031.93
505.01	41703.67
505.18	40987.46
505.36	41558.55
505.53	41776.22
505.71	41759.84
505.88	42356.67
506.06	41570.25
506.23	41888.57
506.41	42136.66
506.58	42241.99
506.76	42504.13
506.93	43042.45
507.11	42295.82
507.28	42628.18
507.46	43047.13
507.63	42990.96
507.81	43260.12
507.98	43058.84
508.16	43208.63
508.33	43489.49
508.50	43557.37
508.68	43770.36
508.85	43978.67
509.03	44074.63
509.20	44542.74
509.38	44114.42
509.55	44732.32
509.73	44720.62
509.90	44601.25
510.08	45031.91
510.25	45170.00
510.42	44842.32
510.60	45221.49
510.77	45102.12
510.95	45717.68
511.12	45071.70
511.30	45270.64
511.47	45858.12
511.64	46036.00
511.82	46391.76
511.99	45930.67
512.17	46267.71
512.34	46358.99
512.51	46548.57
512.69	46490.06
512.86	46684.33
513.04	46506.44
513.21	47070.51
513.38	46969.87
513.56	47178.18
513.73	47002.64
513.90	46801.35
514.08	46946.47
514.25	47585.43
514.43	47515.22
514.60	47665.01
514.77	47430.96
514.95	47938.85
515.12	48048.86
515.29	48060.56
515.47	48645.69
515.64	48648.03
515.81	48369.51
515.99	48456.11
516.16	48664.42
516.33	48456.11
516.51	48664.42
516.68	48879.75
516.85	48774.42
517.03	49174.66
517.20	49333.81
517.37	49074.01
517.54	49134.87
517.72	49385.30
517.89	49059.97
518.06	49193.38
518.24	49460.20
518.41	49223.81
518.58	49474.24
518.75	49254.23
518.93	49841.71
519.10	49652.12
519.27	49996.18
519.45	49904.90
519.62	50307.47
519.79	49937.67
519.96	50422.16
520.14	50618.77
520.31	49951.71
520.48	50639.83
520.65	50731.11
520.83	50960.48
521.00	51199.22
521.17	51065.81
521.34	51178.15
521.52	51072.83
521.69	51112.62
521.86	51199.22
522.03	51477.74
522.20	51508.17
522.38	51725.84
522.55	51758.61
522.72	51482.42
522.89	51655.62
523.07	52067.56
523.24	51744.56
523.41	51863.93
523.58	51856.91
523.75	52018.41
523.92	51964.57
524.10	52313.31
524.27	52292.25
524.44	52156.50
524.61	52465.45
524.78	52126.07
524.96	52374.17
525.13	52435.02
525.30	52753.33
525.47	52839.93
525.64	52828.23
525.81	52699.50
525.98	52877.38
526.16	52704.18
526.33	52811.85
526.50	53279.96
526.67	53015.47
526.84	53329.11
527.01	52772.06
527.18	53396.98
527.36	53340.81
527.53	53532.73
527.70	53837.00
527.87	53738.70
528.04	53146.54
528.21	53401.66
528.38	53361.87
528.55	53890.83
528.72	53352.51
528.89	53532.73
529.07	53467.20
529.24	53656.78
529.41	53773.81
529.58	53794.87
529.75	54085.10
529.92	53820.62
530.09	53970.41
530.26	54127.23
530.43	54188.08
530.60	53930.62
530.77	54169.36
530.94	54136.59
531.11	54377.67
531.28	54188.08
531.46	54644.49
531.63	54309.79
531.80	54571.93
531.97	54653.85
532.14	54759.17
532.31	54492.35
532.48	54700.66
532.65	55035.36
532.82	54787.26
532.99	54838.75
533.16	54719.38
533.33	55016.63
533.50	54901.95
533.67	55063.44
533.84	54925.35
534.01	54756.83
534.18	55007.27
534.35	55260.05
534.52	55353.67
534.69	55496.44
534.86	55473.04
535.03	55323.24
535.20	55477.72
535.37	55697.73
535.54	55496.44
535.71	55700.07
535.88	55576.02
536.05	55772.63
536.22	55973.91
536.38	55852.20
536.55	55854.54
536.72	55812.41
536.89	55695.39
537.06	55737.52
537.23	55674.32
537.40	55849.86
537.57	55789.01
537.74	56044.13
537.91	55873.27
538.08	55983.27
538.25	55674.32
538.42	56128.39
538.59	56236.05
538.75	56264.14
538.92	56310.95
539.09	56458.40
539.26	56273.50
539.43	56254.78
539.60	56427.98
539.77	56341.38
539.94	56662.03
540.11	56568.41
540.28	56339.04
540.44	56767.35
540.61	56439.68
540.78	56643.30
540.95	56584.79
541.12	56474.79
541.29	56727.56
541.46	56961.62
541.62	56900.76
541.79	56779.06
541.96	56743.95
542.13	56868.00
542.30	56907.79
542.47	57017.79
542.63	56762.67
542.80	57090.35
542.97	57324.40
543.14	57481.22
543.31	57153.54
543.48	57371.21
543.64	57443.77
543.81	57546.75
543.98	57464.83
544.15	57729.31
544.32	57488.24
544.48	57619.31
544.65	57797.19
544.82	57373.55
544.99	57471.85
545.16	57680.16
545.32	57652.08
545.49	57907.19
545.66	57748.04
545.83	57785.49
546.00	57930.60
546.16	57790.17
546.33	57820.59
546.50	57654.42
546.67	57930.60
546.83	57544.41
547.00	57858.04
547.17	57865.06
547.34	57946.98
547.50	58162.31
547.67	58209.12
547.84	58117.84
548.00	58082.73
548.17	58248.91
548.34	58115.50
548.51	58312.11
548.67	58501.69
548.84	58365.94
549.01	58258.27
549.18	58258.27
549.34	58527.44
549.51	58431.47
549.68	58403.39
549.84	58529.78
550.01	58522.76
550.18	58408.07
550.34	58543.82
550.51	58677.23
550.68	58607.01
550.84	58520.41
551.01	58794.26
551.18	58539.14
551.34	58569.57
551.51	58855.11
551.68	58695.95
551.84	58457.22
552.01	58592.97
552.18	59004.91
552.34	58639.78
552.51	58798.94
552.68	58922.99
552.84	58850.43
553.01	59058.74
553.18	59049.38
553.34	58997.88
553.51	58939.37
553.67	58979.16
553.84	59182.79
554.01	59068.10
554.17	59103.21
554.34	59145.34
554.51	59135.98
554.67	59231.94
554.84	59220.23
555.00	58995.54
555.17	59124.27
555.33	59316.20
555.50	58787.24
555.67	59037.67
555.83	59288.11
556.00	59285.77
556.16	59629.83
556.33	59482.37
556.50	59400.46
556.66	59414.50
556.83	59330.24
556.99	59379.39
557.16	59664.94
557.32	59571.32
557.49	59810.05
557.65	59648.55
557.82	59559.61
557.98	59573.66
558.15	59473.01
558.32	59730.47
558.48	59636.85
558.65	59627.49
558.81	59625.15
558.98	59784.30
559.14	59728.13
559.31	59613.44
559.47	59833.46
559.64	60048.78
559.80	59943.46
559.97	59880.27
560.13	59758.56
560.30	59866.22
560.46	59889.63
560.63	59908.35
560.79	59866.22
560.96	60083.89
561.12	59962.18
561.29	60039.42
561.45	59917.71
561.61	60023.04
561.78	59997.29
561.94	59814.73
562.11	60009.00
562.27	60051.12
562.44	60158.79
562.60	60144.75
562.77	60095.60
562.93	59910.69
563.10	60088.57
563.26	59973.89
563.42	60418.59
563.59	60081.55
563.75	60364.76
563.92	60250.07
564.08	60102.62
564.24	60280.50
564.41	60324.97
564.57	60367.10
564.74	60317.95
564.90	60238.37
565.07	60322.63
565.23	60243.05
565.39	60278.16
565.56	60275.82
565.72	60449.02
565.88	60477.10
566.05	60301.56
566.21	60397.52
566.38	60456.04
566.54	60535.62
566.70	60512.21
566.87	60547.32
567.03	60133.04
567.19	60598.81
567.36	60535.62
567.52	60350.71
567.68	60837.54
567.85	60402.21
568.01	60612.85
568.17	60514.55
568.34	60535.62
568.50	60416.25
568.66	60226.66
568.83	60657.32
568.99	60390.50
569.15	60512.21
569.32	60449.02
569.48	60566.04
569.64	60643.28
569.81	60694.77
569.97	60587.11
570.13	60664.35
570.30	60669.03
570.46	60708.82
570.62	60893.72
570.78	60863.29
570.95	60811.80
571.11	60844.57
571.27	60582.43
571.43	60645.62
571.60	60814.14
571.76	60935.85
571.92	60807.12
572.09	60853.93
572.25	60865.63
572.41	60783.71
572.57	60750.94
572.74	60828.18
572.90	60786.05
573.06	60671.37
573.22	60671.37
573.38	60860.95
573.55	60718.18
573.71	60877.33
573.87	60910.10
574.03	60678.39
574.20	60701.79
574.36	60514.55
574.52	60809.46
574.68	61073.94
574.84	61034.15
575.01	61041.17
575.17	60779.03
575.33	60779.03
575.49	60968.61
575.65	61006.06
575.82	61010.74
575.98	61010.74
576.14	61048.19
576.30	61109.05
576.46	60968.61
576.62	60657.32
576.79	60992.02
576.95	60727.54
577.11	60992.02
577.27	60945.21
577.43	61062.24
577.59	60830.52
577.75	60807.12
577.92	60835.20
578.08	61015.43
578.24	60938.19
578.40	61043.51
578.56	61240.12
578.72	60966.27
578.88	61242.46
579.04	61158.20
579.21	60781.37
579.37	61048.19
579.53	61249.48
579.69	60980.32
579.85	61055.21
580.01	60975.64
580.17	61036.49
580.33	61214.37
580.49	61307.99
580.65	61172.24
580.82	60912.44
580.98	61160.54
581.14	60867.97
581.30	61013.08
581.46	60970.96
581.62	61017.77
581.78	60863.29
581.94	61315.01
582.10	61057.56
582.26	61141.81
582.42	61031.81
582.58	60949.89
582.74	61092.66
582.90	60860.95
583.06	60959.25
583.22	60889.04
583.38	61050.53
583.54	61176.92
583.70	61036.49
583.86	61113.73
584.02	60952.23
584.18	61303.31
584.34	61221.39
584.50	61045.85
584.66	61024.79
584.82	60968.61
584.98	61249.48
585.14	61172.24
585.30	60842.23
585.46	61139.47
585.62	61146.50
585.78	61268.20
585.94	61102.03
586.10	61179.26
586.26	61104.37
586.42	61230.75
586.58	61261.18
586.74	61153.52
586.90	61209.69
587.06	61172.24
587.22	61396.93
587.38	61326.72
587.54	61403.95
587.70	61371.19
587.86	61350.12
588.02	61125.43
588.18	61286.93
588.34	61174.58
588.49	61347.78
