SpectraSuite Data File
++++++++++++++++++++++++++++++++++++
Date: Fri Oct 25 11:25:25 EDT 2013
User: price-jones
Dark Spectrum Present: No
Reference Spectrum Present: No
Number of Sampled Component Spectra: 1
Spectrometers: USB2+H05261
Integration Time (usec): 100000 (USB2+H05261)
Spectra Averaged: 1 (USB2+H05261)
Boxcar Smoothing: 0 (USB2+H05261)
Correct for Electrical Dark: No (USB2+H05261)
Strobe/Lamp Enabled: No (USB2+H05261)
Correct for Detector Non-linearity: No (USB2+H05261)
Correct for Stray Light: No (USB2+H05261)
Number of Pixels in Processed Spectrum: 2048
>>>>>Begin Processed Spectral Data<<<<<
365.73	234.05
365.92	234.05
366.12	234.05
366.32	145.11
366.52	180.22
366.72	220.01
366.91	135.75
367.11	56.17
367.31	107.66
367.51	102.98
367.70	133.41
367.90	145.11
368.10	107.66
368.30	93.62
368.49	147.45
368.69	124.05
368.89	177.88
369.09	177.88
369.28	135.75
369.48	194.26
369.68	210.65
369.87	177.88
370.07	210.65
370.27	215.33
370.47	393.21
370.66	582.79
370.86	641.31
371.06	575.77
371.25	784.08
371.45	655.35
371.65	716.20
371.84	748.97
372.04	674.07
372.24	706.84
372.44	697.48
372.63	692.80
372.83	814.51
373.03	697.48
373.22	744.29
373.42	791.10
373.62	784.08
373.81	727.91
374.01	828.55
374.21	901.11
374.40	830.89
374.60	868.34
374.79	840.25
374.99	837.91
375.19	816.85
375.38	758.33
375.58	802.80
375.78	844.93
375.97	870.68
376.17	873.02
376.37	957.28
376.56	931.53
376.76	961.96
376.95	882.38
377.15	917.49
377.35	866.00
377.54	945.58
377.74	929.19
377.93	870.68
378.13	933.87
378.33	924.51
378.52	926.85
378.72	929.19
378.91	919.83
379.11	924.51
379.31	938.55
379.50	987.71
379.70	1022.81
379.89	1001.75
380.09	877.70
380.28	917.49
380.48	945.58
380.68	994.73
380.87	1027.50
381.07	990.05
381.26	1081.33
381.46	966.64
381.65	1081.33
381.85	1046.22
382.04	1048.56
382.24	1001.75
382.43	1093.03
382.63	1100.05
382.83	1013.45
383.02	1088.35
383.22	1069.62
383.41	1025.15
383.61	1043.88
383.80	1177.29
384.00	1217.08
384.19	1111.75
384.39	1020.47
384.58	1160.91
384.78	1196.01
384.97	1247.51
385.17	1123.46
385.36	1125.80
385.56	1165.59
385.75	1139.84
385.95	1060.26
386.14	1198.35
386.34	1205.38
386.53	1125.80
386.72	1114.10
386.92	1261.55
387.11	1231.12
387.31	1196.01
387.50	1240.48
387.70	1156.22
387.89	1245.16
388.09	1207.72
388.28	1366.87
388.48	1242.82
388.67	1310.70
388.86	1228.78
389.06	1327.08
389.25	1423.05
389.45	1397.30
389.64	1418.36
389.84	1308.36
390.03	1366.87
390.22	1362.19
390.42	1336.45
390.61	1397.30
390.81	1399.64
391.00	1425.39
391.19	1418.36
391.39	1362.19
391.58	1472.20
391.78	1467.52
391.97	1455.81
392.16	1490.92
392.36	1434.75
392.55	1397.30
392.75	1509.65
392.94	1549.43
393.13	1570.50
393.33	1631.35
393.52	1544.75
393.71	1636.03
393.91	1549.43
394.10	1521.35
394.29	1537.73
394.49	1643.06
394.68	1650.08
394.88	1554.12
395.07	1596.25
395.26	1732.00
395.46	1729.66
395.65	1816.26
395.84	1720.29
396.04	1668.80
396.23	1713.27
396.42	1755.40
396.62	1650.08
396.81	1680.50
397.00	1792.85
397.19	1802.21
397.39	1687.53
397.58	1727.32
397.77	1701.57
397.97	1783.49
398.16	1877.11
398.35	1959.03
398.55	1795.19
398.74	1851.36
398.93	1902.86
399.12	1755.40
399.32	1813.92
399.51	1977.75
399.70	2118.18
399.90	1984.77
400.09	1935.62
400.28	1996.48
400.47	2003.50
400.67	2090.10
400.86	2031.58
401.05	1984.77
401.24	2038.61
401.44	2076.06
401.63	2127.55
401.82	2066.69
402.01	2010.52
402.21	2186.06
402.40	2195.42
402.59	2129.89
402.78	2125.21
402.97	2209.47
403.17	2193.08
403.36	2218.83
403.55	2230.53
403.74	2319.47
403.93	2298.41
404.13	2319.47
404.32	2235.21
404.51	2289.04
404.70	2394.37
404.89	2319.47
405.09	2455.22
405.28	2415.43
405.47	2579.27
405.66	2473.95
405.85	2413.09
406.05	2504.37
406.24	2574.59
406.43	2574.59
406.62	2579.27
406.81	2747.79
407.00	2544.16
407.20	2621.40
407.39	2607.36
407.58	2651.83
407.77	2668.21
407.96	2717.36
408.15	2651.83
408.34	2696.30
408.54	2864.82
408.73	2785.24
408.92	2686.94
409.11	2843.75
409.30	2869.50
409.49	2733.75
409.68	2874.18
409.87	2944.39
410.07	3089.51
410.26	2951.42
410.45	2974.82
410.64	2991.20
410.83	3000.57
411.02	2979.50
411.21	3105.89
411.40	3082.49
411.59	3110.57
411.78	3194.83
411.98	3171.43
412.17	3234.62
412.36	3258.03
412.55	3304.84
412.74	3318.88
412.93	3396.12
413.12	3169.09
413.31	3524.85
413.50	3520.17
413.69	3466.33
413.88	3569.32
414.07	3592.72
414.26	3627.83
414.45	3548.25
414.64	3604.42
414.83	3742.52
415.02	3859.54
415.22	3789.33
415.41	3620.81
415.60	3707.41
415.79	3861.88
415.98	3932.10
416.17	3852.52
416.36	3852.52
416.55	3932.10
416.74	4133.39
416.93	3896.99
417.12	4124.02
417.31	4205.94
417.50	4049.13
417.69	4241.05
417.88	4081.89
418.07	4114.66
418.26	4219.99
418.45	4369.78
418.64	4491.49
418.83	4449.36
419.02	4379.14
419.21	4491.49
419.39	4510.21
419.58	4390.84
419.77	4411.91
419.96	4580.43
420.15	4540.64
420.34	4578.09
420.53	4613.20
420.72	4645.96
420.91	4638.94
421.10	4690.43
421.29	4669.37
421.48	4521.92
421.67	4723.20
421.86	4676.39
422.05	4800.44
422.24	4716.18
422.43	4723.20
422.61	4758.31
422.80	4840.23
422.99	4905.76
423.18	4952.57
423.37	4807.46
423.56	4917.47
423.75	5020.45
423.94	4807.46
424.13	4615.54
424.32	4828.53
424.50	5055.56
424.69	5043.85
424.88	4957.25
425.07	4933.85
425.26	4699.80
425.45	4767.67
425.64	4781.71
425.83	5027.47
426.01	4997.04
426.20	4980.66
426.39	5029.81
426.58	5125.77
426.77	5076.62
426.96	4985.34
427.15	5121.09
427.33	5100.03
427.52	5022.79
427.71	5350.46
427.90	5167.90
428.09	5280.25
428.28	5259.18
428.46	5212.37
428.65	5352.81
428.84	5444.09
429.03	5371.53
429.22	5320.04
429.40	5444.09
429.59	5397.28
429.78	5275.57
429.97	5245.14
430.16	5406.64
430.34	5542.39
430.53	5511.96
430.72	5722.61
430.91	5495.58
431.10	5596.22
431.28	5668.78
431.47	5692.18
431.66	5820.91
431.85	5687.50
432.03	5809.21
432.22	5783.46
432.41	5884.11
432.60	5799.85
432.79	5792.83
432.97	5738.99
433.16	6010.50
433.35	5837.30
433.54	5949.64
433.72	6047.94
433.91	6057.31
434.10	6005.81
434.28	5991.77
434.47	6162.63
434.66	6052.63
434.85	6193.06
435.03	6328.81
435.22	6115.82
435.41	6375.62
435.59	6469.24
435.78	6258.59
435.97	6539.46
436.16	6324.13
436.34	6270.30
436.53	6427.11
436.72	6452.86
436.90	6282.00
437.09	6616.69
437.28	6600.31
437.46	6558.18
437.65	6679.89
437.84	6768.83
438.02	6771.17
438.21	6698.61
438.40	6558.18
438.58	6942.03
438.77	6991.18
438.96	6754.79
439.14	6951.39
439.33	6960.75
439.52	7124.59
439.70	7218.21
439.89	7269.70
440.08	7148.00
440.26	7325.88
440.45	7325.88
440.63	7419.50
440.82	7431.20
441.01	7513.12
441.19	7501.42
441.38	7609.08
441.57	7487.37
441.75	7709.72
441.94	7716.75
442.12	7805.69
442.31	7777.60
442.50	8004.63
442.68	7896.97
442.87	8077.19
443.05	7997.61
443.24	8081.87
443.43	7908.67
443.61	7953.14
443.80	8514.87
443.98	7861.86
444.17	7815.05
444.35	8135.70
444.54	8416.57
444.73	8369.76
444.91	8234.00
445.10	8201.24
445.28	8072.51
445.47	8266.77
445.65	8142.72
445.84	8329.97
446.02	8402.52
446.21	8552.32
446.39	8365.07
446.58	8393.16
446.77	8418.91
446.95	8121.66
447.14	8301.88
447.32	8531.25
447.51	8257.41
447.69	8287.84
447.88	8486.78
448.06	8252.73
448.25	8311.24
448.43	8526.57
448.62	8521.89
448.80	8547.64
448.99	8744.24
449.17	8697.43
449.36	8475.08
449.54	8608.49
449.73	8800.41
449.91	8851.91
450.10	9048.51
450.28	9125.75
450.46	9004.04
450.65	8865.95
450.83	9050.85
451.02	8950.21
451.20	9069.58
451.39	8973.61
451.57	8992.34
451.76	9076.60
451.94	9060.21
452.13	9128.09
452.31	8985.32
452.49	9001.70
452.68	9219.37
452.86	9254.48
453.05	9289.59
453.23	9502.58
453.42	9397.25
453.60	9469.81
453.78	9411.29
453.97	9371.50
454.15	9270.86
454.34	9392.57
454.52	9500.23
454.70	9708.54
454.89	9689.82
455.07	9708.54
455.26	9785.78
455.44	9825.57
455.62	10005.79
455.81	9760.03
455.99	9921.53
456.17	9811.53
456.36	9907.49
456.54	10040.90
456.73	10097.07
456.91	10457.51
457.09	10296.02
457.28	10394.32
457.46	10104.09
457.64	10588.58
457.83	10480.92
458.01	10328.78
458.19	10476.24
458.38	10471.56
458.56	10714.97
458.74	10391.98
458.93	10452.83
459.11	10794.55
459.29	10574.54
459.48	10721.99
459.66	10752.42
459.84	10733.70
460.03	11056.69
460.21	11047.33
460.39	10906.90
460.57	10951.37
460.76	11044.99
460.94	11030.94
461.12	11162.01
461.31	11297.77
461.49	11094.14
461.67	11087.12
461.85	11253.30
462.04	11269.68
462.22	11756.51
462.40	11449.90
462.59	11363.30
462.77	11442.88
462.95	11480.33
463.13	11564.59
463.32	11260.32
463.50	11559.91
463.68	11599.70
463.86	11749.49
464.05	11618.42
464.23	11836.09
464.41	11896.94
464.59	11410.11
464.78	12126.32
464.96	11878.22
465.14	11672.25
465.32	11976.52
465.50	11843.11
465.69	12294.83
465.87	12020.99
466.05	11976.52
466.23	11999.93
466.41	12072.48
466.60	12542.93
466.78	12205.89
466.96	12341.64
467.14	12119.29
467.32	12079.50
467.51	12273.77
467.69	11995.25
467.87	12526.55
468.05	12631.87
468.23	12297.17
468.41	12318.24
468.60	12587.40
468.78	12781.67
468.96	12575.70
469.14	12601.44
469.32	12776.98
469.50	12503.14
469.69	12821.45
469.87	12908.05
470.05	12957.21
470.23	12973.59
470.41	13074.23
470.59	13067.21
470.77	13200.62
470.95	13254.45
471.14	13439.36
471.32	13212.32
471.50	13364.46
471.68	13568.09
471.86	13301.26
472.04	13610.22
472.22	14003.43
472.40	13633.62
472.58	13788.10
472.77	13991.72
472.95	14202.37
473.13	14361.53
473.31	14085.34
473.49	13994.06
473.67	14045.55
473.85	14256.20
474.03	14410.68
474.21	14593.24
474.39	14562.81
474.57	14565.15
474.75	15094.11
474.93	14686.86
475.12	14757.08
475.30	14960.70
475.48	14874.10
475.66	15206.46
475.84	15000.49
476.02	15454.56
476.20	15264.97
476.38	15382.00
476.56	15903.94
476.74	15763.51
476.92	15847.77
477.10	15712.02
477.28	16189.49
477.46	16159.06
477.64	16238.64
477.82	16255.02
478.00	16711.42
478.18	16800.37
478.36	16833.13
478.54	17090.59
478.72	17050.80
478.90	17296.56
479.08	17516.57
479.26	17572.74
479.44	17439.33
479.62	17731.90
479.80	17996.38
479.98	18092.34
480.16	18307.67
480.34	18380.23
480.52	18541.72
480.70	18471.51
480.88	18183.62
481.06	18326.39
481.24	18572.15
481.41	18904.51
481.59	18939.62
481.77	19091.75
481.95	19494.32
482.13	19777.53
482.31	19255.59
482.49	20301.81
482.67	20133.29
482.85	20395.43
483.03	20606.08
483.21	20900.98
483.39	20652.89
483.57	20547.56
483.74	20587.35
483.92	20975.88
484.10	20961.84
484.28	21544.63
484.46	21462.71
484.64	22593.19
484.82	21659.32
485.00	22129.77
485.18	22913.84
485.35	22567.45
485.53	22595.53
485.71	22864.69
485.89	23360.89
486.07	23218.11
486.25	23049.60
486.43	22731.28
486.61	23112.79
486.78	23798.57
486.96	24065.39
487.14	24498.39
487.32	24533.50
487.50	24716.06
487.68	24748.82
487.85	24802.66
488.03	25319.92
488.21	25675.68
488.39	25546.95
488.57	25579.71
488.75	25839.51
488.92	26293.58
489.10	26134.42
489.28	26387.20
489.46	26869.35
489.64	26939.57
489.81	27056.59
489.99	27580.87
490.17	27557.47
490.35	27894.50
490.53	27838.33
490.70	28070.04
490.88	27906.21
491.06	28678.58
491.24	28634.11
491.41	28875.19
491.59	28849.44
491.77	29221.59
491.95	29481.39
492.13	29785.66
492.30	29839.49
492.48	29977.58
492.66	30022.05
492.84	30059.50
493.01	30305.26
493.19	29972.90
493.37	30766.34
493.54	30661.02
493.72	31098.70
493.90	31089.34
494.08	31079.97
494.25	31522.34
494.43	31845.33
494.61	32474.93
494.79	32514.72
494.96	32203.43
495.14	32290.03
495.32	32964.10
495.49	33046.02
495.67	33031.98
495.85	33153.69
496.02	33638.18
496.20	33621.80
496.38	33687.33
496.55	33748.18
496.73	34457.37
496.91	34267.78
497.09	34169.48
497.26	34628.23
497.44	34679.72
497.62	34677.38
497.79	35356.13
497.97	35236.77
498.14	35503.59
498.32	35892.12
498.50	35707.21
498.67	36147.23
498.85	36013.82
499.03	35943.61
499.20	36470.23
499.38	36407.03
499.56	36577.89
499.73	36786.20
499.91	36891.52
500.08	37401.76
500.26	36961.74
500.44	37242.60
500.61	37640.50
500.79	37380.70
500.97	38017.32
501.14	37944.76
501.32	37979.87
501.49	38543.94
501.67	38281.80
501.84	38663.31
502.02	38443.30
502.20	39381.85
502.37	38958.22
502.55	39035.45
502.72	39323.34
502.90	39316.32
503.07	39103.33
503.25	39779.74
503.43	39812.51
503.60	39842.94
503.78	39817.19
503.95	39735.27
504.13	40072.31
504.30	40198.70
504.48	40320.41
504.65	40067.63
504.83	40535.74
505.01	40924.27
505.18	40781.49
505.36	41240.24
505.53	40692.55
505.71	41273.01
505.88	41256.62
506.06	41469.61
506.23	41577.28
506.41	41294.07
506.58	41722.39
506.76	42005.59
506.93	42134.32
507.11	41691.96
507.28	41801.97
507.46	42665.63
507.63	42693.71
507.81	42401.14
507.98	42337.95
508.16	42801.38
508.33	43098.62
508.50	42909.04
508.68	43161.82
508.85	43562.05
509.03	43459.07
509.20	43856.96
509.38	43817.17
509.55	44086.33
509.73	44294.64
509.90	44311.02
510.08	44184.63
510.25	44439.75
510.42	44175.27
510.60	44732.32
510.77	44456.14
510.95	45031.91
511.12	44762.75
511.30	44542.74
511.47	45308.09
511.64	45289.37
511.82	45186.38
511.99	45518.74
512.17	45839.39
512.34	45474.27
512.51	45787.90
512.69	45670.87
512.86	46033.66
513.04	45902.59
513.21	45916.63
513.38	46316.86
513.56	46590.70
513.73	46040.68
513.90	46827.10
514.08	46752.20
514.25	47065.83
514.43	46789.65
514.60	46714.75
514.77	47140.73
514.95	47325.63
515.12	47248.39
515.29	47253.08
515.47	47248.39
515.64	47690.76
515.81	47508.19
515.99	47887.36
516.16	48327.38
516.33	48090.99
516.51	48465.47
516.68	47992.68
516.85	48257.17
517.03	48449.09
517.20	48598.88
517.37	48308.66
517.54	48418.66
517.72	48882.09
517.89	48786.13
518.06	48954.64
518.24	49113.80
518.41	48727.61
518.58	48896.13
518.75	49116.14
518.93	49034.22
519.10	49305.73
519.27	49490.63
519.45	49340.83
519.62	49668.51
519.79	49556.16
519.96	49357.22
520.14	49986.82
520.31	49879.16
520.48	49895.54
520.65	49869.79
520.83	50253.64
521.00	50433.86
521.17	49792.56
521.34	50202.15
521.52	50745.15
521.69	50539.19
521.86	50831.75
522.03	50908.99
522.20	50796.65
522.38	51161.77
522.55	50969.85
522.72	51313.90
522.89	51107.94
523.07	51290.50
523.24	51196.88
523.41	51484.76
523.58	50798.99
523.75	51400.50
523.92	51400.50
524.10	51604.13
524.27	51618.17
524.44	51772.65
524.61	51807.76
524.78	51817.12
524.96	51870.95
525.13	51917.76
525.30	52168.20
525.47	52369.49
525.64	52048.83
525.81	52350.76
525.98	52346.08
526.16	52158.84
526.33	52350.76
526.50	52987.39
526.67	52704.18
526.84	52896.11
527.01	52505.24
527.18	52399.91
527.36	52727.59
527.53	52495.88
527.70	52973.34
527.87	52992.07
528.04	52849.30
528.21	53478.90
528.38	53071.65
528.55	53530.39
528.72	52940.58
528.89	53228.46
529.07	53097.39
529.24	53160.59
529.41	53425.07
529.58	53497.62
529.75	53200.38
529.92	53551.46
530.09	53727.00
530.26	53502.31
530.43	53890.83
530.60	53476.56
530.77	53591.25
530.94	53825.30
531.11	53935.30
531.28	54136.59
531.46	53790.19
531.63	53979.78
531.80	53682.53
531.97	54190.42
532.14	54108.50
532.31	54026.59
532.48	54335.54
532.65	54543.84
532.82	54295.75
532.99	54564.91
533.16	54328.52
533.33	54440.86
533.50	54784.92
533.67	54508.74
533.84	54490.01
534.01	54609.38
534.18	54459.58
534.35	54866.84
534.52	54644.49
534.69	54986.21
534.86	54780.24
535.03	54852.80
535.20	54911.31
535.37	55103.23
535.54	55121.96
535.71	54969.82
535.88	55185.15
536.05	55173.45
536.22	55491.76
536.38	55547.93
536.55	55145.36
536.72	55538.57
536.89	55192.17
537.06	55348.99
537.23	55458.99
537.40	55543.25
537.57	55554.96
537.74	55627.51
537.91	55735.18
538.08	55660.28
538.25	55533.89
538.42	55494.10
538.59	55994.98
538.75	55714.11
538.92	55760.92
539.09	55618.15
539.26	55863.91
539.43	55781.99
539.60	55973.91
539.77	56079.24
539.94	56210.31
540.11	56214.99
540.28	56191.58
540.44	56158.81
540.61	56257.12
540.78	56109.66
540.95	56278.18
541.12	56203.28
541.29	56210.31
541.46	56465.42
541.62	56388.19
541.79	56701.82
541.96	56179.88
542.13	56100.30
542.30	56439.68
542.47	56545.00
542.63	56662.03
542.80	56509.89
542.97	56884.38
543.14	56853.95
543.31	56893.74
543.48	56846.93
543.64	57001.41
543.81	56975.66
543.98	57160.56
544.15	57158.22
544.32	57214.40
544.48	57523.35
544.65	57076.30
544.82	57062.26
544.99	57095.03
545.16	57237.80
545.32	57249.50
545.49	57502.28
545.66	57249.50
545.83	57396.96
546.00	57460.15
546.16	57483.56
546.33	57310.36
546.50	57352.49
546.67	57516.32
546.83	56910.13
547.00	57516.32
547.17	57474.20
547.34	57509.30
547.50	57661.44
547.67	57982.09
547.84	57652.08
548.00	57888.47
548.17	58197.42
548.34	57956.35
548.51	57930.60
548.67	58010.18
548.84	57893.15
549.01	58019.54
549.18	57949.32
549.34	57738.68
549.51	58042.95
549.68	58073.37
549.84	58199.76
550.01	58185.72
550.18	57942.30
550.34	58115.50
550.51	58056.99
550.68	58129.54
550.84	58038.26
551.01	58344.87
551.18	58202.10
551.34	58209.12
551.51	58384.66
551.68	58436.16
551.84	58555.52
552.01	58351.90
552.18	58365.94
552.34	58382.32
552.51	58412.75
552.68	58361.26
552.84	58431.47
553.01	58894.90
553.18	58429.13
553.34	58515.73
553.51	58351.90
553.67	58686.59
553.84	58829.37
554.01	58695.95
554.17	58815.32
554.34	58941.71
554.51	58588.29
554.67	58958.09
554.84	58805.96
555.00	58719.36
555.17	58702.98
555.33	58972.14
555.50	58464.24
555.67	58930.01
555.83	58742.77
556.00	58775.53
556.16	59278.75
556.33	59231.94
556.50	58944.05
556.66	59159.38
556.83	59049.38
556.99	59131.29
557.16	59192.15
557.32	59398.12
557.49	59330.24
557.65	59063.42
557.82	59313.86
557.98	58976.82
558.15	58997.88
558.32	59117.25
558.48	59117.25
558.65	59285.77
558.81	59531.53
558.98	59295.13
559.14	59313.86
559.31	59484.72
559.47	59393.43
559.64	59234.28
559.80	59353.65
559.97	59700.04
560.13	59517.48
560.30	59566.63
560.46	59501.10
560.63	59440.24
560.79	59444.93
560.96	59671.96
561.12	59810.05
561.29	59458.97
561.45	59662.60
561.61	59629.83
561.78	59531.53
561.94	59386.41
562.11	59482.37
562.27	59742.17
562.44	59728.13
562.60	59714.09
562.77	59842.82
562.93	59451.95
563.10	59765.58
563.26	59524.50
563.42	60058.15
563.59	59805.37
563.75	59732.81
563.92	59906.01
564.08	59774.94
564.24	59891.97
564.41	59721.11
564.57	59906.01
564.74	59936.44
564.90	59959.84
565.07	60034.74
565.23	59819.41
565.39	59819.41
565.56	59985.59
565.72	59959.84
565.88	60074.53
566.05	59758.56
566.21	59971.55
566.38	60168.15
566.54	59994.95
566.70	60299.22
566.87	60093.25
567.03	59751.54
567.19	60203.26
567.36	60079.21
567.52	60018.36
567.68	60261.77
567.85	60140.07
568.01	60252.41
568.17	59994.95
568.34	60172.83
568.50	60226.66
568.66	60214.96
568.83	60343.69
568.99	60147.09
569.15	60175.17
569.32	60116.66
569.48	60046.44
569.64	60292.20
569.81	60210.28
569.97	60156.45
570.13	60203.26
570.30	60060.49
570.46	60266.45
570.62	60336.67
570.78	60306.24
570.95	60268.79
571.11	60425.61
571.27	60292.20
571.43	60299.22
571.60	60250.07
571.76	60341.35
571.92	60467.74
572.09	60441.99
572.25	60236.03
572.41	60179.85
572.57	60348.37
572.74	60549.66
572.90	60439.65
573.06	60292.20
573.22	60196.24
573.38	60491.15
573.55	60285.18
573.71	60598.81
573.87	60427.95
574.03	60456.04
574.20	60610.51
574.36	60495.83
574.52	60624.56
574.68	60636.26
574.84	60561.36
575.01	60537.96
575.17	60523.91
575.33	60179.85
575.49	60420.93
575.65	60573.06
575.82	60566.04
575.98	60467.74
576.14	60837.54
576.30	60624.56
576.46	60516.89
576.62	60764.99
576.79	60521.57
576.95	60257.09
577.11	60530.93
577.27	60650.30
577.43	60704.13
577.59	60650.30
577.75	60626.90
577.92	60470.08
578.08	60507.53
578.24	60547.32
578.40	60982.66
578.56	60790.73
578.72	60797.76
578.88	60767.33
579.04	61052.87
579.21	60699.45
579.37	60898.40
579.53	60781.37
579.69	60636.26
579.85	60514.55
580.01	60533.28
580.17	60692.43
580.33	60781.37
580.49	60673.71
580.65	60619.88
580.82	60692.43
580.98	60535.62
581.14	60659.66
581.30	60807.12
581.46	60767.33
581.62	60624.56
581.78	60697.11
581.94	60643.28
582.10	60711.16
582.26	60725.20
582.42	60865.63
582.58	60732.22
582.74	60540.30
582.90	60781.37
583.06	60582.43
583.22	60573.06
583.38	60694.77
583.54	60624.56
583.70	60800.10
583.86	60753.29
584.02	60633.92
584.18	60947.55
584.34	60800.10
584.50	60629.24
584.66	60715.84
584.82	60720.52
584.98	60814.14
585.14	60734.56
585.30	60605.83
585.46	60711.16
585.62	60865.63
585.78	61010.74
585.94	60640.94
586.10	60860.95
586.26	60690.09
586.42	60994.36
586.58	60992.02
586.74	60844.57
586.90	60687.75
587.06	60727.54
587.22	61020.11
587.38	60900.74
587.54	60874.99
587.70	61001.38
587.86	60851.59
588.02	60687.75
588.18	60900.74
588.34	60715.84
588.49	60970.96
