SpectraSuite Data File
++++++++++++++++++++++++++++++++++++
Date: Fri Oct 25 10:47:48 EDT 2013
User: price-jones
Dark Spectrum Present: No
Reference Spectrum Present: No
Number of Sampled Component Spectra: 1
Spectrometers: USB2+H05261
Integration Time (usec): 100000 (USB2+H05261)
Spectra Averaged: 1 (USB2+H05261)
Boxcar Smoothing: 0 (USB2+H05261)
Correct for Electrical Dark: No (USB2+H05261)
Strobe/Lamp Enabled: No (USB2+H05261)
Correct for Detector Non-linearity: No (USB2+H05261)
Correct for Stray Light: No (USB2+H05261)
Number of Pixels in Processed Spectrum: 2048
>>>>>Begin Processed Spectral Data<<<<<
365.73	117.03
365.92	117.03
366.12	117.03
366.32	53.83
366.52	18.72
366.72	39.79
366.91	11.70
367.11	30.43
367.31	88.94
367.51	28.09
367.70	63.19
367.90	124.05
368.10	56.17
368.30	4.68
368.49	37.45
368.69	84.26
368.89	42.13
369.09	110.01
369.28	51.49
369.48	95.96
369.68	102.98
369.87	138.09
370.07	110.01
370.27	191.92
370.47	229.37
370.66	294.91
370.86	367.46
371.06	510.24
371.25	451.72
371.45	428.32
371.65	498.53
371.84	440.02
372.04	458.74
372.24	468.11
372.44	468.11
372.63	479.81
372.83	430.66
373.03	557.05
373.22	475.13
373.42	484.49
373.62	491.51
373.81	528.96
374.01	571.09
374.21	528.96
374.40	585.13
374.60	573.43
374.79	592.16
374.99	491.51
375.19	533.64
375.38	580.45
375.58	561.73
375.78	540.66
375.97	638.97
376.17	582.79
376.37	620.24
376.56	622.58
376.76	620.24
376.95	585.13
377.15	622.58
377.35	624.92
377.54	613.22
377.74	606.20
377.93	631.94
378.13	622.58
378.33	662.37
378.52	653.01
378.72	702.16
378.91	704.50
379.11	615.56
379.31	610.88
379.50	634.29
379.70	613.22
379.89	730.25
380.09	634.29
380.28	634.29
380.48	615.56
380.68	655.35
380.87	732.59
381.07	662.37
381.26	716.20
381.46	704.50
381.65	692.80
381.85	685.78
382.04	667.05
382.24	645.99
382.43	664.71
382.63	638.97
382.83	727.91
383.02	739.61
383.22	662.37
383.41	685.78
383.61	737.27
383.80	784.08
384.00	791.10
384.19	851.96
384.39	704.50
384.58	741.95
384.78	760.67
384.97	779.40
385.17	725.57
385.36	744.29
385.56	648.33
385.75	826.21
385.95	805.14
386.14	781.74
386.34	748.97
386.53	746.63
386.72	758.33
386.92	805.14
387.11	910.47
387.31	828.55
387.50	779.40
387.70	784.08
387.89	849.61
388.09	826.21
388.28	856.64
388.48	891.74
388.67	791.10
388.86	887.06
389.06	924.51
389.25	861.32
389.45	847.27
389.64	917.49
389.84	964.30
390.03	875.36
390.22	917.49
390.42	912.81
390.61	863.66
390.81	940.90
391.00	915.15
391.19	964.30
391.39	940.90
391.58	922.17
391.78	1032.18
391.97	898.77
392.16	933.87
392.36	1018.13
392.55	1041.54
392.75	994.73
392.94	999.41
393.13	954.94
393.33	936.21
393.52	1039.20
393.71	1053.24
393.91	1078.99
394.10	994.73
394.29	1053.24
394.49	1081.33
394.68	1039.20
394.88	1081.33
395.07	1130.48
395.26	1114.10
395.46	1067.28
395.65	1163.25
395.84	1111.75
396.04	1179.63
396.23	1188.99
396.42	1083.67
396.62	1095.37
396.81	1263.89
397.00	1207.72
397.19	1252.19
397.39	1144.52
397.58	1348.15
397.77	1334.11
397.97	1235.80
398.16	1277.93
398.35	1256.87
398.55	1210.06
398.74	1259.21
398.93	1273.25
399.12	1270.91
399.32	1416.02
399.51	1406.66
399.70	1406.66
399.90	1331.76
400.09	1432.41
400.28	1427.73
400.47	1380.92
400.67	1451.13
400.86	1322.40
401.05	1504.96
401.24	1526.03
401.44	1481.56
401.63	1535.39
401.82	1495.60
402.01	1516.67
402.21	1577.52
402.40	1465.18
402.59	1448.79
402.78	1516.67
402.97	1474.54
403.17	1561.14
403.36	1556.46
403.55	1638.38
403.74	1696.89
403.93	1675.82
404.13	1582.20
404.32	1530.71
404.51	1650.08
404.70	1685.19
404.89	1732.00
405.09	1743.70
405.28	1820.94
405.47	1687.53
405.66	1685.19
405.85	1907.54
406.05	1884.13
406.24	1764.76
406.43	1830.30
406.62	1893.49
406.81	1849.02
407.00	1874.77
407.20	1863.07
407.39	1867.75
407.58	1888.81
407.77	1916.90
407.96	1865.41
408.15	1933.28
408.34	1891.15
408.54	2033.93
408.73	1991.80
408.92	1970.73
409.11	2050.31
409.30	2024.56
409.49	1935.62
409.68	2024.56
409.87	2085.42
410.07	2036.27
410.26	2146.27
410.45	2073.71
410.64	2057.33
410.83	2155.63
411.02	2237.55
411.21	2230.53
411.40	2267.98
411.59	2406.07
411.78	2331.17
411.98	2382.67
412.17	2230.53
412.36	2345.22
412.55	2296.07
412.74	2389.69
412.93	2319.47
413.12	2420.11
413.31	2539.48
413.50	2406.07
413.69	2539.48
413.88	2628.42
414.07	2555.86
414.26	2647.15
414.45	2586.29
414.64	2593.31
414.83	2724.38
415.02	2672.89
415.22	2862.48
415.41	2771.19
415.60	2860.13
415.79	2778.22
415.98	2895.24
416.17	2839.07
416.36	2785.24
416.55	2855.45
416.74	2818.00
416.93	2810.98
417.12	3021.63
417.31	2972.48
417.50	3002.91
417.69	3112.91
417.88	3098.87
418.07	2970.14
418.26	3019.29
418.45	3105.89
418.64	3302.50
418.83	3192.49
419.02	3251.00
419.21	3185.47
419.39	3173.77
419.58	3234.62
419.77	3171.43
419.96	3293.13
420.15	3110.57
420.34	3251.00
420.53	3274.41
420.72	3316.54
420.91	3426.54
421.10	3393.78
421.29	3459.31
421.48	3421.86
421.67	3386.76
421.86	3468.67
422.05	3386.76
422.24	3487.40
422.43	3510.80
422.61	3461.65
422.80	3599.74
422.99	3482.72
423.18	3473.36
423.37	3550.59
423.56	3536.55
423.75	3574.00
423.94	3361.01
424.13	3290.79
424.32	3370.37
424.50	3616.13
424.69	3599.74
424.88	3466.33
425.07	3548.25
425.26	3531.87
425.45	3592.72
425.64	3555.27
425.83	3606.77
426.01	3669.96
426.20	3768.26
426.39	3714.43
426.58	3431.23
426.77	3583.36
426.96	3684.00
427.15	3559.95
427.33	3606.77
427.52	3644.21
427.71	3749.54
427.90	3796.35
428.09	3726.13
428.28	3559.95
428.46	3808.05
428.65	3726.13
428.84	3941.46
429.03	3946.14
429.22	3796.35
429.40	3854.86
429.59	3789.33
429.78	3726.13
429.97	3658.26
430.16	3698.05
430.34	3838.48
430.53	3899.33
430.72	3992.95
430.91	3875.93
431.10	3894.65
431.28	4081.89
431.47	4177.86
431.66	4145.09
431.85	4074.87
432.03	4224.67
432.22	4362.76
432.41	4182.54
432.60	4292.54
432.79	4255.09
432.97	4315.95
433.16	4215.30
433.35	4112.32
433.54	4198.92
433.72	4313.61
433.91	4308.93
434.10	4376.80
434.28	4315.95
434.47	4322.97
434.66	4379.14
434.85	4484.47
435.03	4491.49
435.22	4381.48
435.41	4709.16
435.59	4557.02
435.78	4477.44
435.97	4493.83
436.16	4592.13
436.34	4547.66
436.53	4550.00
436.72	4678.73
436.90	4603.83
437.09	4524.26
437.28	4608.51
437.46	4587.45
437.65	4678.73
437.84	4636.60
438.02	4613.20
438.21	4730.22
438.40	4601.49
438.58	4847.25
438.77	5025.13
438.96	4884.70
439.14	4999.38
439.33	5081.30
439.52	5064.92
439.70	5069.60
439.89	5011.09
440.08	5238.12
440.26	5095.35
440.45	5090.67
440.63	5254.50
440.82	5277.91
441.01	5352.81
441.19	5327.06
441.38	5343.44
441.57	5411.32
441.75	5418.34
441.94	5621.97
442.12	5586.86
442.31	5507.28
442.50	5650.05
442.68	5668.78
442.87	5664.10
443.05	5703.89
443.24	5783.46
443.43	5710.91
443.61	5937.94
443.80	5769.42
443.98	5678.14
444.17	5472.17
444.35	5827.93
444.54	6033.90
444.73	5942.62
444.91	5867.72
445.10	5884.11
445.28	5944.96
445.47	5746.02
445.65	5874.74
445.84	5863.04
446.02	5825.59
446.21	5827.93
446.39	5886.45
446.58	5940.28
446.77	6108.80
446.95	5991.77
447.14	5902.83
447.32	6024.54
447.51	6022.20
447.69	5893.47
447.88	6017.52
448.06	6019.86
448.25	5928.58
448.43	6040.92
448.62	6054.97
448.80	6003.47
448.99	6127.52
449.17	6083.05
449.36	6078.37
449.54	6221.14
449.73	6260.93
449.91	6263.27
450.10	6321.79
450.28	6478.60
450.46	6387.32
450.65	6235.19
450.83	6286.68
451.02	6253.91
451.20	6689.25
451.39	6464.56
451.57	6438.81
451.76	6380.30
451.94	6459.88
452.13	6621.38
452.31	6487.96
452.49	6520.73
452.68	6532.44
452.86	6312.42
453.05	6525.41
453.23	6789.89
453.42	6619.04
453.60	6551.16
453.78	6700.95
453.97	6696.27
454.15	6696.27
454.34	6581.59
454.52	6806.28
454.70	6689.25
454.89	6825.00
455.07	6792.23
455.26	6712.66
455.44	6991.18
455.62	6944.37
455.81	6930.33
455.99	6991.18
456.17	6960.75
456.36	7112.89
456.54	7220.55
456.73	7159.70
456.91	7412.48
457.09	7314.17
457.28	7611.42
457.46	7295.45
457.64	7295.45
457.83	7250.98
458.01	7162.04
458.19	7555.25
458.38	7358.64
458.56	7372.69
458.74	7442.90
458.93	7503.76
459.11	7494.40
459.29	7342.26
459.48	7438.22
459.66	7417.16
459.84	7585.68
460.03	7627.81
460.21	7564.61
460.39	7882.92
460.57	7669.94
460.76	7669.94
460.94	7962.50
461.12	7967.18
461.31	8021.02
461.49	7728.45
461.67	7871.22
461.85	7850.16
462.04	7889.95
462.22	8437.63
462.40	8067.83
462.59	7957.82
462.77	7852.50
462.95	8147.40
463.13	8077.19
463.32	8109.96
463.50	8002.29
463.68	8386.14
463.86	8145.06
464.05	7833.77
464.23	8135.70
464.41	8203.58
464.59	8079.53
464.78	8212.94
464.96	8212.94
465.14	8294.86
465.32	8388.48
465.50	8243.37
465.69	8299.54
465.87	8348.69
466.05	8205.92
466.23	8217.62
466.41	8311.24
466.60	8554.66
466.78	8212.94
466.96	8329.97
467.14	8210.60
467.32	8655.30
467.51	8645.94
467.69	8360.39
467.87	8360.39
468.05	8461.04
468.23	8601.47
468.41	8594.45
468.60	8667.00
468.78	8830.84
468.96	8580.40
469.14	8819.14
469.32	8903.40
469.50	8458.70
469.69	8847.22
469.87	8669.34
470.05	8741.90
470.23	9149.15
470.41	9064.89
470.59	9027.45
470.77	8929.14
470.95	9090.64
471.14	9146.81
471.32	9069.58
471.50	9334.06
471.68	9310.65
471.86	9261.50
472.04	9446.40
472.22	9455.76
472.40	9205.33
472.58	9263.84
472.77	9537.68
472.95	9708.54
473.13	9919.19
473.31	9593.86
473.49	9570.45
473.67	9657.05
473.85	9769.40
474.03	9958.98
474.21	9942.60
474.39	9984.73
474.57	10286.65
474.75	10319.42
474.93	10188.35
475.12	10171.97
475.30	10534.75
475.48	10010.47
475.66	10284.31
475.84	10200.05
476.02	10345.17
476.20	10429.43
476.38	10473.90
476.56	10834.34
476.74	10909.24
476.92	10658.80
477.10	10789.87
477.28	10927.96
477.46	10888.17
477.64	11047.33
477.82	11103.50
478.00	11466.28
478.18	11534.16
478.36	11705.02
478.54	11578.63
478.72	11417.13
478.90	11609.06
479.08	11716.72
479.26	11845.45
479.44	11999.93
479.62	12086.53
479.80	12166.10
479.98	12236.32
480.16	12514.84
480.34	12411.86
480.52	12315.90
480.70	12348.67
480.88	12374.41
481.06	12648.26
481.24	12524.21
481.41	12882.31
481.59	13149.13
481.77	13214.66
481.95	13111.68
482.13	13146.79
482.31	13020.40
482.49	13441.70
482.67	13610.22
482.85	13673.41
483.03	13769.37
483.21	14057.26
483.39	13888.74
483.57	14146.20
483.74	14160.24
483.92	14251.52
484.10	14686.86
484.28	14537.07
484.46	14466.85
484.64	14850.70
484.82	14583.88
485.00	14773.46
485.18	15037.94
485.35	15269.66
485.53	15176.03
485.71	15033.26
485.89	15674.57
486.07	15300.08
486.25	15356.25
486.43	15667.55
486.61	15840.75
486.78	15847.77
486.96	15957.77
487.14	16194.17
487.32	16264.38
487.50	16552.27
487.68	16624.83
487.85	16788.66
488.03	16959.52
488.21	17312.94
488.39	17226.34
488.57	17209.96
488.75	17308.26
488.92	17462.74
489.10	17554.02
489.28	17731.90
489.46	18141.49
489.64	18003.40
489.81	18195.32
489.99	18569.81
490.17	18328.74
490.35	18679.82
490.53	18707.90
490.70	18743.01
490.88	18946.64
491.06	19033.24
491.24	19033.24
491.41	18876.42
491.59	19023.87
491.77	19435.81
491.95	19475.60
492.13	20023.28
492.30	19960.09
492.48	19995.20
492.66	19969.45
492.84	19932.00
493.01	20095.84
493.19	20294.79
493.37	20814.38
493.54	20498.41
493.72	21128.02
493.90	21132.70
494.08	21153.76
494.25	21383.13
494.43	21270.79
494.61	21387.82
494.79	21181.85
494.96	21366.75
495.14	21057.80
495.32	21916.78
495.49	21928.48
495.67	22150.83
495.85	21713.15
496.02	22387.22
496.20	22134.45
496.38	22286.58
496.55	22408.29
496.73	23246.20
496.91	22789.80
497.09	23019.17
497.26	23337.48
497.44	23068.32
497.62	23063.64
497.79	23456.85
497.97	22857.67
498.14	23562.17
498.32	23765.80
498.50	23480.25
498.67	23840.70
498.85	23838.36
499.03	24479.66
499.20	24112.20
499.38	24304.12
499.56	24430.51
499.73	24594.35
499.91	24608.39
500.08	24664.57
500.26	24170.71
500.44	24503.07
500.61	24947.77
500.79	24439.87
500.97	25060.12
501.14	25317.57
501.32	25371.41
501.49	25369.07
501.67	25404.17
501.84	25472.05
502.02	25678.02
502.20	26019.74
502.37	25649.93
502.55	25804.41
502.72	25757.60
502.90	25867.60
503.07	26078.25
503.25	25930.80
503.43	25865.26
503.60	26111.02
503.78	26342.73
503.95	26394.22
504.13	26366.13
504.30	26373.16
504.48	26600.19
504.65	26981.70
504.83	26937.23
505.01	27115.11
505.18	27049.57
505.36	27304.69
505.53	27131.49
505.71	27047.23
505.88	27335.12
506.06	27133.83
506.23	27309.37
506.41	27213.41
506.58	27229.79
506.76	27763.43
506.93	27962.38
507.11	28079.41
507.28	27700.24
507.46	27908.55
507.63	27908.55
507.81	28074.73
507.98	27805.56
508.16	28676.24
508.33	28552.20
508.50	28467.94
508.68	28423.47
508.85	28833.06
509.03	28355.59
509.20	29055.41
509.38	29120.95
509.55	29144.35
509.73	29383.09
509.90	29207.55
510.08	29160.73
510.25	28950.09
510.42	29326.91
510.60	29418.19
510.77	29453.30
510.95	29668.63
511.12	29575.01
511.30	30078.22
511.47	30405.90
511.64	30129.72
511.82	30286.53
511.99	29816.08
512.17	29947.15
512.34	30349.73
512.51	30244.40
512.69	30663.36
512.86	30146.10
513.04	30675.06
513.21	30675.06
513.38	31058.91
513.56	30831.88
513.73	30309.94
513.90	30813.15
514.08	30789.75
514.25	31054.23
514.43	31178.28
514.60	30899.75
514.77	30848.26
514.95	31470.84
515.12	31257.85
515.29	31349.14
515.47	31644.04
515.64	31662.77
515.81	31281.26
515.99	31735.32
516.16	31931.93
516.33	31674.47
516.51	31861.71
516.68	31529.36
516.85	31611.28
517.03	31608.93
517.20	31854.69
517.37	32067.68
517.54	32086.40
517.72	32046.62
517.89	32051.30
518.06	32278.33
518.24	32128.53
518.41	32079.38
518.58	32343.86
518.75	32498.34
518.93	32830.69
519.10	32783.88
519.27	33151.35
519.45	33209.86
519.62	32917.29
519.79	33099.86
519.96	33371.36
520.14	33542.22
520.31	33443.91
520.48	33792.65
520.65	33443.91
520.83	33277.74
521.00	33921.38
521.17	33708.40
521.34	33689.67
521.52	33759.89
521.69	34216.29
521.86	33776.27
522.03	34338.00
522.20	34263.10
522.38	34263.10
522.55	34618.86
522.72	34291.19
522.89	34022.03
523.07	34675.04
523.24	34061.82
523.41	34403.53
523.58	34703.12
523.75	34621.20
523.92	34658.65
524.10	34607.16
524.27	34838.87
524.44	35079.95
524.61	34960.58
524.78	35346.77
524.96	35154.85
525.13	35171.23
525.30	35461.46
525.47	35627.63
525.64	35122.08
525.81	35592.53
525.98	35562.10
526.16	35112.72
526.33	35564.44
526.50	35821.90
526.67	35608.91
526.84	35777.43
527.01	35550.40
527.18	35690.83
527.36	36011.48
527.53	36006.80
527.70	36336.82
527.87	36500.65
528.04	36006.80
528.21	36297.03
528.38	36002.12
528.55	36388.31
528.72	36524.06
528.89	36432.78
529.07	36236.17
529.24	36280.64
529.41	36594.28
529.58	36168.30
529.75	36755.77
529.92	36833.01
530.09	36840.03
530.26	36999.19
530.43	36818.97
530.60	36975.78
530.77	36994.51
530.94	37258.99
531.11	36746.41
531.28	37368.99
531.46	37376.01
531.63	37425.17
531.80	37226.22
531.97	37296.44
532.14	37303.46
532.31	37605.39
532.48	37645.18
532.65	37881.57
532.82	37593.68
532.99	37514.11
533.16	37333.89
533.33	37764.54
533.50	37755.18
533.67	37881.57
533.84	37422.83
534.01	37713.05
534.18	38190.52
534.35	38167.12
534.52	38047.75
534.69	37830.08
534.86	38124.99
535.03	38024.34
535.20	38534.58
535.37	38302.87
535.54	38843.53
535.71	38110.94
535.88	38728.84
536.05	38499.47
536.22	38452.66
536.38	38735.87
536.55	38246.69
536.72	38667.99
536.89	38492.45
537.06	38520.54
537.23	38689.06
537.40	38405.85
537.57	38766.29
537.74	38801.40
537.91	39433.35
538.08	39187.59
538.25	38672.67
538.42	38717.14
538.59	39370.15
538.75	38866.94
538.92	39236.74
539.09	39431.01
539.26	39360.79
539.43	39533.99
539.60	38976.94
539.77	39171.21
539.94	39653.36
540.11	39093.97
540.28	39503.56
540.44	39924.86
540.61	39335.04
540.78	39173.55
540.95	39433.35
541.12	39686.12
541.29	39491.86
541.46	39821.87
541.62	39674.42
541.79	39847.62
541.96	39754.00
542.13	39941.24
542.30	40048.91
542.47	39849.96
542.63	40168.27
542.80	39728.25
542.97	40720.64
543.14	40947.67
543.31	40486.59
543.48	40467.86
543.64	40556.80
543.81	40758.09
543.98	40931.29
544.15	40760.43
544.32	40947.67
544.48	41230.88
544.65	40730.00
544.82	40638.72
544.99	40584.89
545.16	40978.10
545.32	41375.99
545.49	41205.13
545.66	40994.48
545.83	41373.65
546.00	41336.20
546.16	41130.23
546.33	41127.89
546.50	40725.32
546.67	40975.76
546.83	40870.43
547.00	41324.50
547.17	41303.43
547.34	40954.69
547.50	41277.69
547.67	41486.00
547.84	41436.84
548.00	41411.10
548.17	41588.98
548.34	41813.67
548.51	41942.40
548.67	41551.53
548.84	42026.66
549.01	41460.25
549.18	41916.65
549.34	42148.37
549.51	41923.68
549.68	42146.03
549.84	42012.62
550.01	42080.49
550.18	41717.71
550.34	41530.47
550.51	41797.29
550.68	41916.65
550.84	41514.08
551.01	42288.80
551.18	41968.15
551.34	41804.31
551.51	42340.29
551.68	42204.54
551.84	42206.88
552.01	42153.05
552.18	42560.30
552.34	42026.66
552.51	42265.39
552.68	42576.69
552.84	42623.50
553.01	42642.22
553.18	42555.62
553.34	42562.64
553.51	42440.93
553.67	42478.38
553.84	43208.63
554.01	42518.17
554.17	42969.90
554.34	42859.89
554.51	42965.21
554.67	43079.90
554.84	42646.90
555.00	42658.60
555.17	42670.31
555.33	43093.94
555.50	42550.94
555.67	42960.53
555.83	42972.24
556.00	43021.39
556.16	43367.79
556.33	42976.92
556.50	43236.72
556.66	43342.04
556.83	42777.97
556.99	42939.47
557.16	42820.10
557.32	43182.88
557.49	43138.41
557.65	43040.11
557.82	43145.44
557.98	42918.40
558.15	43072.88
558.32	43775.04
558.48	43192.25
558.65	43290.55
558.81	43180.54
558.98	43384.17
559.14	43136.07
559.31	43309.27
559.47	43721.21
559.64	43704.82
559.80	43885.04
559.97	43185.22
560.13	43503.54
560.30	43468.43
560.46	43379.49
560.63	43529.28
560.79	43707.16
560.96	43910.79
561.12	44060.58
561.29	43442.68
561.45	43494.18
561.61	43508.22
561.78	43756.32
561.94	43510.56
562.11	43641.63
562.27	43931.86
562.44	43182.88
562.60	44140.16
562.77	43847.60
562.93	43847.60
563.10	44027.82
563.26	43625.25
563.42	43852.28
563.59	44257.19
563.75	43559.71
563.92	43641.63
564.08	43992.71
564.24	44088.67
564.41	43885.04
564.57	43753.97
564.74	44023.14
564.90	44184.63
565.07	44149.53
565.23	43845.26
565.39	43526.94
565.56	44322.72
565.72	44308.68
565.88	44128.46
566.05	43929.51
566.21	44032.50
566.38	44039.52
566.54	44268.89
566.70	44126.12
566.87	44161.23
567.03	43978.67
567.19	44491.24
567.36	44425.71
567.52	44226.76
567.68	44395.28
567.85	44044.20
568.01	44524.01
568.17	43845.26
568.34	44271.23
568.50	43938.88
568.66	44348.47
568.83	44601.25
568.99	43821.85
569.15	44121.44
569.32	44409.32
569.48	43990.37
569.64	44322.72
569.81	44355.49
569.97	44306.34
570.13	43917.81
570.30	44266.55
570.46	43952.92
570.62	44254.85
570.78	43938.88
570.95	44282.94
571.11	44399.96
571.27	44638.70
571.43	44203.36
571.60	43945.90
571.76	44406.98
571.92	44273.57
572.09	44402.30
572.25	44648.06
572.41	44378.90
572.57	45052.97
572.74	45184.04
572.90	44725.30
573.06	44657.42
573.22	44631.68
573.38	44701.89
573.55	44556.78
573.71	44601.25
573.87	44849.35
574.03	44172.93
574.20	44907.86
574.36	44311.02
574.52	44587.21
574.68	44491.24
574.84	44744.02
575.01	44212.72
575.17	44460.82
575.33	44486.56
575.49	44205.70
575.65	44982.76
575.82	44680.83
575.98	44612.95
576.14	44722.96
576.30	44477.20
576.46	44545.08
576.62	44430.39
576.79	44563.80
576.95	44184.63
577.11	44591.89
577.27	44524.01
577.43	44694.87
577.59	44891.48
577.75	44423.37
577.92	44072.29
578.08	44411.67
578.24	44336.77
578.40	44320.38
578.56	44804.88
578.72	44437.41
578.88	44814.24
579.04	44729.98
579.21	44369.54
579.37	44154.21
579.53	44753.38
579.69	44238.47
579.85	44622.31
580.01	44568.48
580.17	44814.24
580.33	45036.59
580.49	44814.24
580.65	45139.57
580.82	44818.92
580.98	44612.95
581.14	44388.26
581.30	44603.59
581.46	44357.83
581.62	44381.24
581.78	44629.34
581.94	45043.61
582.10	44224.42
582.26	44877.43
582.42	45024.89
582.58	44641.04
582.74	44568.48
582.90	45291.71
583.06	44865.73
583.22	45146.59
583.38	44828.28
583.54	45092.76
583.70	44280.60
583.86	44245.49
584.02	44790.83
584.18	44760.40
584.34	44879.77
584.50	44634.02
584.66	44669.12
584.82	44765.09
584.98	45022.54
585.14	45375.97
585.30	44973.39
585.46	44589.55
585.62	44568.48
585.78	44776.79
585.94	43847.60
586.10	44966.37
586.26	44727.64
586.42	44648.06
586.58	44858.71
586.74	44760.40
586.90	44594.23
587.06	44577.84
587.22	44816.58
587.38	44758.06
587.54	45315.11
587.70	45139.57
587.86	44741.68
588.02	44910.20
588.18	44973.39
588.34	45055.31
588.49	44624.65
588.65	44701.89
588.81	44521.67
588.97	44844.66
589.13	44825.94
589.29	44729.98
589.45	44926.58
589.61	44800.19
589.77	45038.93
589.93	44793.17
590.08	45038.93
590.24	45095.10
