SpectraSuite Data File
++++++++++++++++++++++++++++++++++++
Date: Fri Oct 25 11:25:07 EDT 2013
User: price-jones
Dark Spectrum Present: No
Reference Spectrum Present: No
Number of Sampled Component Spectra: 1
Spectrometers: USB2+H05261
Integration Time (usec): 100000 (USB2+H05261)
Spectra Averaged: 1 (USB2+H05261)
Boxcar Smoothing: 0 (USB2+H05261)
Correct for Electrical Dark: No (USB2+H05261)
Strobe/Lamp Enabled: No (USB2+H05261)
Correct for Detector Non-linearity: No (USB2+H05261)
Correct for Stray Light: No (USB2+H05261)
Number of Pixels in Processed Spectrum: 2048
>>>>>Begin Processed Spectral Data<<<<<
365.73	194.26
365.92	194.26
366.12	194.26
366.32	79.58
366.52	149.79
366.72	198.95
366.91	117.03
367.11	166.18
367.31	63.19
367.51	74.90
367.70	215.33
367.90	147.45
368.10	154.48
368.30	102.98
368.49	138.09
368.69	184.90
368.89	110.01
369.09	166.18
369.28	140.43
369.48	142.77
369.68	180.22
369.87	140.43
370.07	224.69
370.27	271.50
370.47	315.97
370.66	580.45
370.86	580.45
371.06	695.14
371.25	713.86
371.45	543.00
371.65	746.63
371.84	603.86
372.04	645.99
372.24	741.95
372.44	716.20
372.63	716.20
372.83	681.10
373.03	755.99
373.22	711.52
373.42	781.74
373.62	779.40
373.81	823.87
374.01	781.74
374.21	837.91
374.40	795.78
374.60	875.36
374.79	823.87
374.99	809.83
375.19	884.72
375.38	788.76
375.58	819.19
375.78	863.66
375.97	833.23
376.17	819.19
376.37	880.04
376.56	842.59
376.76	894.08
376.95	816.85
377.15	938.55
377.35	910.47
377.54	891.74
377.74	929.19
377.93	882.38
378.13	994.73
378.33	929.19
378.52	938.55
378.72	922.17
378.91	938.55
379.11	1020.47
379.31	880.04
379.50	985.37
379.70	950.26
379.89	1029.84
380.09	987.71
380.28	994.73
380.48	994.73
380.68	1022.81
380.87	980.68
381.07	1029.84
381.26	1006.43
381.46	945.58
381.65	1001.75
381.85	1020.47
382.04	990.05
382.24	1036.86
382.43	1025.15
382.63	1018.13
382.83	1064.94
383.02	1046.22
383.22	1172.61
383.41	1067.28
383.61	1090.69
383.80	1149.20
384.00	1128.14
384.19	1121.12
384.39	1090.69
384.58	1090.69
384.78	1214.74
384.97	1163.25
385.17	1139.84
385.36	1144.52
385.56	1172.61
385.75	1203.04
385.95	1174.95
386.14	1196.01
386.34	1205.38
386.53	1228.78
386.72	1217.08
386.92	1240.48
387.11	1306.02
387.31	1186.65
387.50	1177.29
387.70	1329.42
387.89	1277.93
388.09	1207.72
388.28	1401.98
388.48	1231.12
388.67	1331.76
388.86	1324.74
389.06	1320.06
389.25	1226.44
389.45	1362.19
389.64	1343.47
389.84	1409.00
390.03	1343.47
390.22	1378.58
390.42	1434.75
390.61	1413.68
390.81	1263.89
391.00	1432.41
391.19	1444.11
391.39	1394.96
391.58	1364.53
391.78	1345.81
391.97	1430.07
392.16	1418.36
392.36	1542.41
392.55	1600.93
392.75	1528.37
392.94	1486.24
393.13	1526.03
393.33	1537.73
393.52	1586.88
393.71	1577.52
393.91	1577.52
394.10	1537.73
394.29	1596.25
394.49	1516.67
394.68	1638.38
394.88	1650.08
395.07	1673.48
395.26	1722.63
395.46	1788.17
395.65	1790.51
395.84	1678.16
396.04	1708.59
396.23	1788.17
396.42	1645.40
396.62	1739.02
396.81	1760.08
397.00	1703.91
397.19	1762.42
397.39	1827.96
397.58	1776.47
397.77	1771.79
397.97	1856.04
398.16	1870.09
398.35	1907.54
398.55	1870.09
398.74	1881.79
398.93	1926.26
399.12	1877.11
399.32	1872.43
399.51	1954.35
399.70	1980.09
399.90	1963.71
400.09	1952.01
400.28	2038.61
400.47	2054.99
400.67	2097.12
400.86	1982.43
401.05	1933.28
401.24	2008.18
401.44	2136.91
401.63	2181.38
401.82	2167.34
402.01	2094.78
402.21	2143.93
402.40	2150.95
402.59	2097.12
402.78	2218.83
402.97	2209.47
403.17	2282.02
403.36	2239.89
403.55	2319.47
403.74	2389.69
403.93	2270.32
404.13	2389.69
404.32	2256.28
404.51	2305.43
404.70	2406.07
404.89	2387.35
405.09	2448.20
405.28	2443.52
405.47	2466.92
405.66	2539.48
405.85	2551.18
406.05	2574.59
406.24	2593.31
406.43	2539.48
406.62	2541.82
406.81	2693.96
407.00	2459.90
407.20	2593.31
407.39	2553.52
407.58	2677.57
407.77	2724.38
407.96	2703.32
408.15	2806.30
408.34	2794.60
408.54	2813.32
408.73	2787.58
408.92	2803.96
409.11	2888.22
409.30	2993.55
409.49	2855.45
409.68	2878.86
409.87	2897.58
410.07	2958.44
410.26	2956.10
410.45	3087.17
410.64	3098.87
410.83	3014.61
411.02	3117.59
411.21	3218.24
411.40	3014.61
411.59	3206.53
411.78	3169.09
411.98	3225.26
412.17	3215.90
412.36	3255.69
412.55	3286.11
412.74	3225.26
412.93	3447.61
413.12	3286.11
413.31	3595.06
413.50	3384.41
413.69	3365.69
413.88	3461.65
414.07	3662.94
414.26	3538.89
414.45	3705.07
414.64	3695.71
414.83	3681.66
415.02	3709.75
415.22	3791.67
415.41	3845.50
415.60	3896.99
415.79	3868.91
415.98	3983.59
416.17	3962.53
416.36	4039.76
416.55	4100.62
416.74	4007.00
416.93	3929.76
417.12	4224.67
417.31	4210.62
417.50	4138.07
417.69	4236.37
417.88	4208.28
418.07	4292.54
418.26	4351.06
418.45	4484.47
418.64	4482.13
418.83	4409.57
419.02	4421.27
419.21	4468.08
419.39	4397.87
419.58	4451.70
419.77	4575.75
419.96	4634.26
420.15	4402.55
420.34	4491.49
420.53	4627.24
420.72	4568.73
420.91	4622.56
421.10	4765.33
421.29	4762.99
421.48	4622.56
421.67	4730.22
421.86	4568.73
422.05	4809.80
422.24	4603.83
422.43	4940.87
422.61	4865.97
422.80	4919.81
422.99	5048.54
423.18	4924.49
423.37	4971.30
423.56	4898.74
423.75	4863.63
423.94	4793.42
424.13	4709.16
424.32	4706.82
424.50	4959.60
424.69	4957.25
424.88	5151.52
425.07	4903.42
425.26	4880.02
425.45	4887.04
425.64	4940.87
425.83	4975.98
426.01	5025.13
426.20	4924.49
426.39	5050.88
426.58	5062.58
426.77	5008.75
426.96	5008.75
427.15	5116.41
427.33	5191.31
427.52	5212.37
427.71	5224.08
427.90	5128.11
428.09	5188.97
428.28	5411.32
428.46	5380.89
428.65	5366.85
428.84	5458.13
429.03	5366.85
429.22	5336.42
429.40	5516.64
429.59	5535.37
429.78	5294.29
429.97	5404.30
430.16	5469.83
430.34	5593.88
430.53	5526.00
430.72	5692.18
430.91	5650.05
431.10	5467.49
431.28	5741.33
431.47	5738.99
431.66	5774.10
431.85	5746.02
432.03	5879.43
432.22	5891.13
432.41	6019.86
432.60	5851.34
432.79	5895.81
432.97	6071.35
433.16	6010.50
433.35	5991.77
433.54	5942.62
433.72	6092.41
433.91	6134.54
434.10	6183.70
434.28	5968.37
434.47	6179.01
434.66	6293.70
434.85	6307.74
435.03	6303.06
435.22	6263.27
435.41	6494.99
435.59	6291.36
435.78	6497.33
435.97	6370.94
436.16	6293.70
436.34	6513.71
436.53	6443.49
436.72	6651.80
436.90	6347.53
437.09	6483.28
437.28	6478.60
437.46	6462.22
437.65	6846.07
437.84	6707.98
438.02	6740.74
438.21	6853.09
438.40	6623.72
438.58	7059.06
438.77	7026.29
438.96	6717.34
439.14	6967.77
439.33	7073.10
439.52	7068.42
439.70	7321.20
439.89	7325.88
440.08	7276.73
440.26	7353.96
440.45	7265.02
440.63	7407.80
440.82	7583.34
441.01	7346.94
441.19	7442.90
441.38	7667.60
441.57	7756.54
441.75	7801.01
441.94	7906.33
442.12	7812.71
442.31	8032.72
442.50	8021.02
442.68	7983.57
442.87	7918.03
443.05	8009.31
443.24	8184.85
443.43	8138.04
443.61	8098.25
443.80	8580.40
443.98	7999.95
444.17	7819.73
444.35	8091.23
444.54	8393.16
444.73	8191.88
444.91	8318.26
445.10	8177.83
445.28	8423.59
445.47	8243.37
445.65	8304.22
445.84	8425.93
446.02	8524.23
446.21	8297.20
446.39	8589.77
446.58	8470.40
446.77	8432.95
446.95	8269.11
447.14	8524.23
447.32	8465.72
447.51	8624.87
447.69	8531.25
447.88	8526.57
448.06	8372.10
448.25	8559.34
448.43	8573.38
448.62	8517.21
448.80	8620.19
448.99	8571.04
449.17	8545.30
449.36	8706.79
449.54	8819.14
449.73	8966.59
449.91	9011.06
450.10	8872.97
450.28	8936.17
450.46	8994.68
450.65	8938.51
450.83	8908.08
451.02	9111.71
451.20	9191.28
451.39	8950.21
451.57	9280.22
451.76	9100.00
451.94	9153.84
452.13	9186.60
452.31	9195.96
452.49	9057.87
452.68	9329.38
452.86	9247.46
453.05	9390.23
453.23	9465.13
453.42	9291.93
453.60	9331.72
453.78	9488.53
453.97	9371.50
454.15	9488.53
454.34	9483.85
454.52	9643.01
454.70	9612.58
454.89	9565.77
455.07	9741.31
455.26	9715.56
455.44	9940.26
455.62	10080.69
455.81	9877.06
455.99	9802.16
456.17	9912.17
456.36	10249.21
456.54	10169.63
456.73	10181.33
456.91	10361.55
457.09	10366.23
457.28	10349.85
457.46	10394.32
457.64	10651.78
457.83	10441.13
458.01	10466.88
458.19	10750.08
458.38	10511.35
458.56	10778.17
458.74	10626.03
458.93	10729.02
459.11	10733.70
459.29	10885.83
459.48	10721.99
459.66	10874.13
459.84	10949.03
460.03	11014.56
460.21	10937.32
460.39	10794.55
460.57	11056.69
460.76	11105.84
460.94	10986.47
461.12	11307.13
461.31	11075.42
461.49	11070.73
461.67	10970.09
461.85	11473.31
462.04	11419.47
462.22	11908.65
462.40	11550.54
462.59	11424.15
462.77	11480.33
462.95	11541.18
463.13	11644.17
463.32	11510.75
463.50	11660.55
463.68	11573.95
463.86	11815.02
464.05	11726.08
464.23	11648.85
464.41	11728.42
464.59	11599.70
464.78	12154.40
464.96	11988.22
465.14	11723.74
465.32	11960.14
465.50	11974.18
465.69	12149.72
465.87	12198.87
466.05	12168.45
466.23	12105.25
466.41	12397.82
466.60	12465.69
466.78	12060.78
466.96	12329.94
467.14	12168.45
467.32	12416.54
467.51	12524.21
467.69	12091.21
467.87	12196.53
468.05	12606.13
468.23	12353.35
468.41	12360.37
468.60	12528.89
468.78	12748.90
468.96	12666.98
469.14	12826.14
469.32	12800.39
469.50	12608.47
469.69	12868.27
469.87	12994.65
470.05	13114.02
470.23	13041.46
470.41	13104.66
470.59	13231.05
470.77	12978.27
470.95	13193.60
471.14	13385.52
471.32	13097.64
471.50	13612.56
471.68	13483.83
471.86	13673.41
472.04	13617.24
472.22	14054.92
472.40	13778.73
472.58	13851.29
472.77	14104.07
472.95	13914.48
473.13	14345.14
473.31	14033.85
473.49	14232.80
473.67	14003.43
473.85	14272.59
474.03	14525.36
474.21	14696.22
474.39	14768.78
474.57	14771.12
474.75	14698.56
474.93	15005.17
475.12	14569.83
475.30	14934.96
475.48	14970.07
475.66	14972.41
475.84	15049.64
476.02	15524.77
476.20	15229.87
476.38	15719.04
476.56	16182.46
476.74	15679.25
476.92	15712.02
477.10	15599.67
477.28	16098.20
477.46	16065.44
477.64	16283.11
477.82	16837.81
478.00	16676.32
478.18	16645.89
478.36	16985.27
478.54	17193.58
478.72	17116.34
478.90	17046.12
479.08	17301.24
479.26	17387.84
479.44	17502.53
479.62	18054.89
479.80	17977.65
479.98	18111.07
480.16	18420.02
480.34	18174.26
480.52	18775.78
480.70	18450.44
480.88	18174.26
481.06	18623.64
481.24	18888.12
481.41	19096.43
481.59	19058.98
481.77	19283.67
481.95	19637.09
482.13	19709.65
482.31	19601.99
482.49	20182.44
482.67	20149.67
482.85	20329.89
483.03	20425.86
483.21	20795.66
483.39	21053.12
483.57	20985.24
483.74	21153.76
483.92	21486.12
484.10	20978.22
484.28	21844.22
484.46	21792.73
484.64	22085.30
484.82	21916.78
485.00	22466.80
485.18	22445.74
485.35	22916.19
485.53	22958.31
485.71	23211.09
485.89	23557.49
486.07	23101.09
486.25	23758.78
486.43	23489.62
486.61	23934.32
486.78	24025.60
486.96	24044.32
487.14	24428.17
487.32	24407.11
487.50	24915.00
487.68	24905.64
487.85	25209.91
488.03	25132.67
488.21	25607.80
488.39	25830.15
488.57	25757.60
488.75	26078.25
488.92	26319.32
489.10	26838.92
489.28	26443.37
489.46	26995.74
489.64	26953.61
489.81	27791.52
489.99	27590.24
490.17	27522.36
490.35	28147.28
490.53	27920.25
490.70	28046.64
490.88	28233.88
491.06	28697.31
491.24	28584.96
491.41	29247.33
491.59	28882.21
491.77	29158.39
491.95	29692.04
492.13	29390.11
492.30	30075.88
492.48	29968.22
492.66	29876.94
492.84	30422.28
493.01	31035.50
493.19	30363.77
493.37	30834.22
493.54	30909.11
493.72	31527.02
493.90	31222.75
494.08	31613.62
494.25	31997.46
494.43	31655.75
494.61	32039.59
494.79	32477.27
494.96	32144.92
495.14	32418.76
495.32	32966.45
495.49	33310.50
495.67	33223.90
495.85	33277.74
496.02	33752.87
496.20	33823.08
496.38	33837.12
496.55	33991.60
496.73	34539.29
496.91	34778.02
497.09	34415.24
497.26	34766.32
497.44	34433.96
497.62	35098.67
497.79	35662.74
497.97	35122.08
498.14	36114.47
498.32	35941.27
498.50	36095.74
498.67	36376.61
498.85	36165.96
499.03	36444.48
499.20	36748.75
499.38	36821.31
499.56	37013.23
499.73	36795.56
499.91	37237.92
500.08	37551.56
500.26	37495.38
500.44	37439.21
500.61	37855.82
500.79	37668.58
500.97	38007.96
501.14	38438.62
501.32	38232.65
501.49	38773.31
501.67	38532.24
501.84	38623.52
502.02	38787.36
502.20	38660.97
502.37	39009.71
502.55	39278.87
502.72	39295.25
502.90	39374.83
503.07	39480.16
503.25	39819.53
503.43	39342.06
503.60	39690.80
503.78	40055.93
503.95	40016.14
504.13	40467.86
504.30	40519.35
504.48	40481.91
504.65	40720.64
504.83	40924.27
505.01	40961.72
505.18	41364.29
505.36	41383.01
505.53	41270.67
505.71	41743.45
505.88	41612.38
506.06	40905.54
506.23	41500.04
506.41	41429.82
506.58	41916.65
506.76	41834.74
506.93	42300.50
507.11	42316.89
507.28	42380.08
507.46	42625.84
507.63	42710.10
507.81	43105.65
507.98	42724.14
508.16	42635.20
508.33	43208.63
508.50	42763.93
508.68	43461.41
508.85	43842.92
509.03	43700.14
509.20	43709.50
509.38	44500.61
509.55	43863.98
509.73	43941.22
509.90	44013.77
510.08	44334.43
510.25	44685.51
510.42	44350.81
510.60	44839.98
510.77	44734.66
510.95	45890.88
511.12	45057.65
511.30	45020.20
511.47	45315.11
511.64	45621.72
511.82	45539.80
511.99	45317.45
512.17	45722.37
512.34	45830.03
512.51	46202.18
512.69	46515.81
512.86	45797.26
513.04	46887.95
513.21	46344.95
513.38	46773.27
513.56	46487.72
513.73	46738.16
513.90	46698.37
514.08	46848.16
514.25	47608.84
514.43	47306.91
514.60	47449.68
514.77	47119.66
514.95	47749.27
515.12	47627.56
515.29	47292.86
515.47	47660.33
515.64	47992.68
515.81	47868.64
515.99	48193.97
516.16	48306.32
516.33	48109.71
516.51	48198.65
516.68	48072.26
516.85	48624.63
517.03	48725.27
517.20	48563.78
517.37	49006.14
517.54	48758.04
517.72	48865.70
517.89	49083.37
518.06	49134.87
518.24	49099.76
518.41	48935.92
518.58	49198.06
518.75	49389.98
518.93	49134.87
519.10	49003.80
519.27	49546.80
519.45	49303.38
519.62	49792.56
519.79	49865.11
519.96	49848.73
520.14	50408.12
520.31	49736.38
520.48	50351.94
520.65	50127.25
520.83	50419.82
521.00	50431.52
521.17	50293.43
521.34	50611.74
521.52	50787.28
521.69	50986.23
521.86	51173.47
522.03	50880.91
522.20	50986.23
522.38	51290.50
522.55	51056.45
522.72	51196.88
522.89	50873.88
523.07	51529.23
523.24	51278.80
523.41	51686.05
523.58	51243.69
523.75	51667.33
523.92	51732.86
524.10	51700.09
524.27	51929.47
524.44	51973.94
524.61	51625.20
524.78	51927.13
524.96	52065.22
525.13	52252.46
525.30	52313.31
525.47	52346.08
525.64	52273.52
525.81	52193.95
525.98	52264.16
526.16	52521.62
526.33	52811.85
526.50	53057.60
526.67	52449.06
526.84	52940.58
527.01	52580.13
527.18	52821.21
527.36	52640.99
527.53	52821.21
527.70	53258.89
527.87	53380.60
528.04	53038.88
528.21	53249.53
528.38	53329.11
528.55	53591.25
528.72	53415.71
528.89	53235.48
529.07	53155.91
529.24	53244.85
529.41	53698.91
529.58	53698.91
529.75	53492.94
529.92	53708.27
530.09	53766.79
530.26	53942.33
530.43	53773.81
530.60	53680.19
530.77	53551.46
530.94	53869.77
531.11	54049.99
531.28	54253.62
531.46	54117.87
531.63	54071.06
531.80	54370.64
531.97	54225.53
532.14	54351.92
532.31	54440.86
532.48	54515.76
532.65	54719.38
532.82	54108.50
532.99	54803.64
533.16	54553.21
533.33	54391.71
533.50	54695.98
533.67	54646.83
533.84	54588.31
534.01	54539.16
534.18	54845.77
534.35	55330.26
534.52	54997.91
534.69	54923.01
534.86	54894.92
535.03	55075.15
535.20	55267.07
535.37	55196.85
535.54	55458.99
535.71	55194.51
535.88	55316.22
536.05	55400.48
536.22	55608.79
536.38	55550.27
536.55	55290.48
536.72	55346.65
536.89	55332.60
537.06	55505.80
537.23	55709.43
537.40	55585.38
537.57	55583.04
537.74	55702.41
537.91	56100.30
538.08	55779.65
538.25	55842.84
538.42	55835.82
538.59	55889.65
538.75	55751.56
538.92	55917.74
539.09	56151.79
539.26	55943.48
539.43	56032.42
539.60	56055.83
539.77	56130.73
539.94	56336.69
540.11	56231.37
540.28	56280.52
540.44	56207.97
540.61	56353.08
540.78	56502.87
540.95	56175.20
541.12	56135.41
541.29	56268.82
541.46	56371.80
541.62	56467.76
541.79	56549.68
541.96	56123.71
542.13	56652.67
542.30	56545.00
542.47	56800.12
542.63	56882.04
542.80	56718.20
542.97	57031.83
543.14	57139.50
543.31	57134.82
543.48	57195.67
543.64	57418.02
543.81	57055.24
543.98	57214.40
544.15	57331.42
544.32	57022.47
544.48	57462.49
544.65	57359.51
544.82	57265.89
544.99	57542.07
545.16	57326.74
545.32	57240.14
545.49	57516.32
545.66	57598.24
545.83	57558.45
546.00	57663.78
546.16	57900.17
546.33	57654.42
546.50	57324.40
546.67	57567.82
546.83	57251.84
547.00	57619.31
547.17	57549.09
547.34	57759.74
547.50	57811.23
547.67	58017.20
547.84	57848.68
548.00	58080.39
548.17	58071.03
548.34	58049.97
548.51	58251.25
548.67	58101.46
548.84	58143.59
549.01	57895.49
549.18	58056.99
549.34	58089.76
549.51	58113.16
549.68	58251.25
549.84	58412.75
550.01	58440.84
550.18	58045.29
550.34	58174.02
550.51	58298.06
550.68	58300.40
550.84	58035.92
551.01	58464.24
551.18	58103.80
551.34	58424.45
551.51	58454.88
551.68	58494.67
551.84	58447.86
552.01	58375.30
552.18	58639.78
552.34	58190.40
552.51	58763.83
552.68	58454.88
552.84	58489.99
553.01	58789.58
553.18	58714.68
553.34	58728.72
553.51	58768.51
553.67	58796.60
553.84	58557.86
554.01	58922.99
554.17	59070.44
554.34	58969.80
554.51	58944.05
554.67	59077.46
554.84	59077.46
555.00	58590.63
555.17	59061.08
555.33	59103.21
555.50	58719.36
555.67	58904.26
555.83	58901.92
556.00	58953.41
556.16	59346.62
556.33	59051.72
556.50	59112.57
556.66	59077.46
556.83	58939.37
556.99	59229.60
557.16	59458.97
557.32	59407.48
557.49	59723.45
557.65	59220.23
557.82	59269.39
557.98	59245.98
558.15	59353.65
558.32	59599.40
558.48	59243.64
558.65	59348.96
558.81	59348.96
558.98	59414.50
559.14	59566.63
559.31	59632.17
559.47	59550.25
559.64	59739.83
559.80	59653.23
559.97	59508.12
560.13	59498.76
560.30	59580.68
560.46	59657.91
560.63	59550.25
560.79	59690.68
560.96	59702.38
561.12	59618.13
561.29	59695.36
561.45	59742.17
561.61	59756.22
561.78	59700.04
561.94	59765.58
562.11	59891.97
562.27	59873.24
562.44	59877.93
562.60	59997.29
562.77	59678.98
562.93	59765.58
563.10	60093.25
563.26	59711.75
563.42	60144.75
563.59	59840.48
563.75	59786.64
563.92	59817.07
564.08	59929.42
564.24	60282.84
564.41	60254.75
564.57	60011.34
564.74	59906.01
564.90	60114.32
565.07	60168.15
565.23	60030.06
565.39	59978.57
565.56	60226.66
565.72	60018.36
565.88	60144.75
566.05	60210.28
566.21	60025.38
566.38	60140.07
566.54	60219.64
566.70	60320.29
566.87	60374.12
567.03	59973.89
567.19	60353.05
567.36	60219.64
567.52	60079.21
567.68	60512.21
567.85	60259.43
568.01	60275.82
568.17	60200.92
568.34	60271.14
568.50	60175.17
568.66	60111.98
568.83	60327.31
568.99	60111.98
569.15	60165.81
569.32	60275.82
569.48	60346.03
569.64	60467.74
569.81	60423.27
569.97	60231.35
570.13	60336.67
570.30	60243.05
570.46	60346.03
570.62	60566.04
570.78	60505.19
570.95	60402.21
571.11	60626.90
571.27	60612.85
571.43	60336.67
571.60	60474.76
571.76	60528.59
571.92	60537.96
572.09	60472.42
572.25	60404.55
572.41	60589.45
572.57	60355.39
572.74	60687.75
572.90	60584.77
573.06	60507.53
573.22	60547.32
573.38	60626.90
573.55	60339.01
573.71	60858.61
573.87	60678.39
574.03	60453.70
574.20	60669.03
574.36	60498.17
574.52	60694.77
574.68	60669.03
574.84	60849.25
575.01	60807.12
575.17	60516.89
575.33	60418.59
575.49	60671.37
575.65	60722.86
575.82	60638.60
575.98	60769.67
576.14	60739.24
576.30	60959.25
576.46	60568.38
576.62	60757.97
576.79	60687.75
576.95	60772.01
577.11	60584.77
577.27	60755.63
577.43	60903.08
577.59	60692.43
577.75	60502.85
577.92	60505.19
578.08	60743.92
578.24	60797.76
578.40	61015.43
578.56	60750.94
578.72	60662.00
578.88	60966.27
579.04	60814.14
579.21	60900.74
579.37	60853.93
579.53	60811.80
579.69	60343.69
579.85	60725.20
580.01	61003.72
580.17	60807.12
580.33	60821.16
580.49	60903.08
580.65	60989.68
580.82	60701.79
580.98	60945.21
581.14	60591.79
581.30	61052.87
581.46	60797.76
581.62	60921.80
581.78	60612.85
581.94	60966.27
582.10	60839.89
582.26	60746.26
582.42	60767.33
582.58	60867.97
582.74	60762.65
582.90	60858.61
583.06	60970.96
583.22	60720.52
583.38	60889.04
583.54	61064.58
583.70	60748.60
583.86	60928.83
584.02	60739.24
584.18	61050.53
584.34	60823.50
584.50	60774.35
584.66	60757.97
584.82	60755.63
584.98	61087.98
585.14	60921.80
585.30	60694.77
585.46	60952.23
585.62	61048.19
585.78	60982.66
585.94	60867.97
586.10	60977.98
586.26	61017.77
586.42	60961.59
586.58	60992.02
586.74	61008.40
586.90	61017.77
587.06	60931.17
587.22	61235.44
587.38	60973.30
587.54	61134.79
587.70	61188.63
587.86	60816.48
588.02	61148.84
588.18	61050.53
588.34	60975.64
588.49	60980.32
