SpectraSuite Data File
++++++++++++++++++++++++++++++++++++
Date: Fri Oct 25 10:44:07 EDT 2013
User: price-jones
Dark Spectrum Present: No
Reference Spectrum Present: No
Number of Sampled Component Spectra: 1
Spectrometers: USB2+H05261
Integration Time (usec): 100000 (USB2+H05261)
Spectra Averaged: 1 (USB2+H05261)
Boxcar Smoothing: 0 (USB2+H05261)
Correct for Electrical Dark: No (USB2+H05261)
Strobe/Lamp Enabled: No (USB2+H05261)
Correct for Detector Non-linearity: No (USB2+H05261)
Correct for Stray Light: No (USB2+H05261)
Number of Pixels in Processed Spectrum: 2048
>>>>>Begin Processed Spectral Data<<<<<
365.73	126.39
365.92	126.39
366.12	126.39
366.32	11.70
366.52	4.68
366.72	88.94
366.91	30.43
367.11	0.00
367.31	39.79
367.51	23.41
367.70	4.68
367.90	0.00
368.10	0.00
368.30	16.38
368.49	30.43
368.69	37.45
368.89	60.85
369.09	53.83
369.28	18.72
369.48	93.62
369.68	32.77
369.87	102.98
370.07	98.30
370.27	149.79
370.47	194.26
370.66	435.34
370.86	393.21
371.06	461.09
371.25	484.49
371.45	395.55
371.65	423.64
371.84	376.83
372.04	461.09
372.24	482.15
372.44	465.77
372.63	496.19
372.83	472.79
373.03	496.19
373.22	465.77
373.42	620.24
373.62	552.37
373.81	582.79
374.01	528.96
374.21	594.50
374.40	582.79
374.60	557.05
374.79	484.49
374.99	573.43
375.19	528.96
375.38	594.50
375.58	580.45
375.78	571.09
375.97	580.45
376.17	713.86
376.37	594.50
376.56	660.03
376.76	624.92
376.95	620.24
377.15	685.78
377.35	685.78
377.54	650.67
377.74	643.65
377.93	727.91
378.13	627.26
378.33	660.03
378.52	613.22
378.72	622.58
378.91	645.99
379.11	587.47
379.31	622.58
379.50	655.35
379.70	655.35
379.89	725.57
380.09	671.73
380.28	753.65
380.48	814.51
380.68	697.48
380.87	657.69
381.07	716.20
381.26	730.25
381.46	709.18
381.65	739.61
381.85	678.76
382.04	674.07
382.24	716.20
382.43	702.16
382.63	676.41
382.83	720.88
383.02	732.59
383.22	653.01
383.41	617.90
383.61	767.70
383.80	812.17
384.00	741.95
384.19	683.44
384.39	786.42
384.58	809.83
384.78	798.12
384.97	770.04
385.17	791.10
385.36	840.25
385.56	805.14
385.75	774.72
385.95	826.21
386.14	875.36
386.34	837.91
386.53	791.10
386.72	882.38
386.92	854.30
387.11	861.32
387.31	919.83
387.50	889.40
387.70	821.53
387.89	823.87
388.09	875.36
388.28	889.40
388.48	856.64
388.67	901.11
388.86	945.58
389.06	873.02
389.25	947.92
389.45	992.39
389.64	1048.56
389.84	910.47
390.03	1020.47
390.22	1013.45
390.42	961.96
390.61	966.64
390.81	1018.13
391.00	1121.12
391.19	1100.05
391.39	1015.79
391.58	1053.24
391.78	1090.69
391.97	1015.79
392.16	1064.94
392.36	1118.78
392.55	1004.09
392.75	990.05
392.94	1027.50
393.13	1032.18
393.33	950.26
393.52	1011.11
393.71	1130.48
393.91	1076.65
394.10	1160.91
394.29	1221.76
394.49	1219.42
394.68	1188.99
394.88	1254.53
395.07	1252.19
395.26	1217.08
395.46	1245.16
395.65	1303.68
395.84	1165.59
396.04	1273.25
396.23	1135.16
396.42	1160.91
396.62	1179.63
396.81	1207.72
397.00	1167.93
397.19	1174.95
397.39	1313.04
397.58	1364.53
397.77	1380.92
397.97	1404.32
398.16	1362.19
398.35	1394.96
398.55	1413.68
398.74	1507.30
398.93	1448.79
399.12	1409.00
399.32	1469.86
399.51	1423.05
399.70	1519.01
399.90	1544.75
400.09	1605.61
400.28	1614.97
400.47	1547.09
400.67	1568.16
400.86	1682.85
401.05	1724.97
401.24	1689.87
401.44	1809.23
401.63	1671.14
401.82	1734.34
402.01	1743.70
402.21	1834.98
402.40	1682.85
402.59	1734.34
402.78	1699.23
402.97	1827.96
403.17	1671.14
403.36	1849.02
403.55	1799.87
403.74	1825.62
403.93	1816.26
404.13	1844.34
404.32	1872.43
404.51	1952.01
404.70	1933.28
404.89	1856.04
405.09	1937.96
405.28	1937.96
405.47	1987.11
405.66	1977.75
405.85	2040.95
406.05	2047.97
406.24	1898.17
406.43	1963.71
406.62	2005.84
406.81	2129.89
407.00	2139.25
407.20	1998.82
407.39	2036.27
407.58	2190.74
407.77	2150.95
407.96	2092.44
408.15	2150.95
408.34	2148.61
408.54	2263.30
408.73	2363.94
408.92	2307.77
409.11	2223.51
409.30	2167.34
409.49	2251.60
409.68	2246.91
409.87	2228.19
410.07	2305.43
410.26	2298.41
410.45	2394.37
410.64	2431.82
410.83	2476.29
411.02	2385.01
411.21	2740.77
411.40	2616.72
411.59	2499.69
411.78	2600.34
411.98	2499.69
412.17	2649.49
412.36	2544.16
412.55	2661.19
412.74	2759.49
412.93	2715.02
413.12	2698.64
413.31	2902.26
413.50	2860.13
413.69	2862.48
413.88	2981.84
414.07	2885.88
414.26	2871.84
414.45	2923.33
414.64	3005.25
414.83	3038.02
415.02	2956.10
415.22	3108.23
415.41	3225.26
415.60	3070.78
415.79	3199.51
415.98	3269.73
416.17	3297.81
416.36	3084.83
416.55	3180.79
416.74	3311.86
416.93	3267.39
417.12	3258.03
417.31	3407.82
417.50	3372.71
417.69	3581.02
417.88	3487.40
418.07	3281.43
418.26	3534.21
418.45	3534.21
418.64	3634.85
418.83	3370.37
419.02	3550.59
419.21	3592.72
419.39	3637.19
419.58	3571.66
419.77	3531.87
419.96	3665.28
420.15	3637.19
420.34	3590.38
420.53	3758.90
420.72	3754.22
420.91	3784.65
421.10	3808.05
421.29	3801.03
421.48	3751.88
421.67	3889.97
421.86	3822.09
422.05	3899.33
422.24	3662.94
422.43	3751.88
422.61	3887.63
422.80	3871.25
422.99	3889.97
423.18	3971.89
423.37	3871.25
423.56	3934.44
423.75	3920.40
423.94	3782.31
424.13	3562.30
424.32	3784.65
424.50	3875.93
424.69	4032.74
424.88	4007.00
425.07	3920.40
425.26	3873.59
425.45	4100.62
425.64	3939.12
425.83	3925.08
426.01	3997.64
426.20	3920.40
426.39	3974.23
426.58	4067.85
426.77	4028.06
426.96	3906.35
427.15	4091.26
427.33	4145.09
427.52	4182.54
427.71	4121.68
427.90	4081.89
428.09	4124.02
428.28	4252.75
428.46	4229.35
428.65	4102.96
428.84	4210.62
429.03	4311.27
429.22	4046.79
429.40	4219.99
429.59	4236.37
429.78	4079.55
429.97	3999.98
430.16	4049.13
430.34	4229.35
430.53	4112.32
430.72	4021.04
430.91	4222.33
431.10	4430.63
431.28	4557.02
431.47	4791.08
431.66	4662.35
431.85	4582.77
432.03	4741.93
432.22	4648.30
432.41	4585.11
432.60	4739.58
432.79	4683.41
432.97	4770.01
433.16	4835.55
433.35	4652.98
433.54	4695.11
433.72	4592.13
433.91	4690.43
434.10	4641.28
434.28	4599.15
434.47	4748.95
434.66	4786.40
434.85	4994.70
435.03	4975.98
435.22	4861.29
435.41	5069.60
435.59	5039.17
435.78	5198.33
435.97	5116.41
436.16	5088.32
436.34	5188.97
436.53	5231.10
436.72	5273.23
436.90	5074.28
437.09	5004.07
437.28	5069.60
437.46	5146.84
437.65	5249.82
437.84	5179.61
438.02	5170.24
438.21	5088.32
438.40	5165.56
438.58	5369.19
438.77	5350.46
438.96	5404.30
439.14	5504.94
439.33	5537.71
439.52	5488.56
439.70	5570.48
439.89	5722.61
440.08	5544.73
440.26	5689.84
440.45	5680.48
440.63	5701.54
440.82	5991.77
441.01	6054.97
441.19	6003.47
441.38	6064.33
441.57	6047.94
441.75	6122.84
441.94	6244.55
442.12	6263.27
442.31	6129.86
442.50	6422.43
442.68	6214.12
442.87	6253.91
443.05	6282.00
443.24	6520.73
443.43	6572.22
443.61	6469.24
443.80	6537.12
443.98	6417.75
444.17	6092.41
444.35	6530.09
444.54	6689.25
444.73	6670.53
444.91	6392.00
445.10	6394.34
445.28	6328.81
445.47	6258.59
445.65	6317.11
445.84	6502.01
446.02	6619.04
446.21	6539.46
446.39	6284.34
446.58	6628.40
446.77	6494.99
446.95	6389.66
447.14	6588.61
447.32	6738.40
447.51	6705.63
447.69	6614.35
447.88	6696.27
448.06	6633.08
448.25	6794.58
448.43	6738.40
448.62	6602.65
448.80	6850.75
448.99	6883.52
449.17	6803.94
449.36	6822.66
449.54	6892.88
449.73	7162.04
449.91	7005.22
450.10	7101.19
450.28	7037.99
450.46	7023.95
450.65	7171.40
450.83	7089.48
451.02	7126.93
451.20	7314.17
451.39	7208.85
451.57	7148.00
451.76	7187.79
451.94	7194.81
452.13	7192.47
452.31	7162.04
452.49	6939.69
452.68	7227.57
452.86	7126.93
453.05	7250.98
453.23	7206.51
453.42	7119.91
453.60	7475.67
453.78	7386.73
453.97	7279.07
454.15	7503.76
454.34	7342.26
454.52	7379.71
454.70	7449.93
454.89	7389.07
455.07	7740.15
455.26	7616.10
455.44	7789.30
455.62	7784.62
455.81	7749.51
455.99	7913.35
456.17	7695.68
456.36	7803.35
456.54	8002.29
456.73	7875.90
456.91	8135.70
457.09	8177.83
457.28	8224.64
457.46	8039.74
457.64	8116.98
457.83	8060.80
458.01	8004.63
458.19	8313.58
458.38	8013.99
458.56	8266.77
458.74	8339.33
458.93	8135.70
459.11	8131.02
459.29	8257.41
459.48	8414.23
459.66	8430.61
459.84	8299.54
460.03	8318.26
460.21	8650.62
460.39	8585.08
460.57	8559.34
460.76	8596.79
460.94	8671.68
461.12	8631.90
461.31	8655.30
461.49	8458.70
461.67	8571.04
461.85	8816.80
462.04	8603.81
462.22	9114.05
462.40	8964.25
462.59	9039.15
462.77	8819.14
462.95	8877.65
463.13	8800.41
463.32	8894.04
463.50	8863.61
463.68	8917.44
463.86	9109.36
464.05	8898.72
464.23	8908.08
464.41	8985.32
464.59	8915.10
464.78	9228.73
464.96	9114.05
465.14	9242.78
465.32	9029.79
465.50	9263.84
465.69	9320.01
465.87	9100.00
466.05	9277.88
466.23	9057.87
466.41	9305.97
466.60	9317.67
466.78	9160.86
466.96	9172.56
467.14	9240.44
467.32	9249.80
467.51	9427.68
467.69	9193.62
467.87	9584.49
468.05	9579.81
468.23	9280.22
468.41	9341.08
468.60	9383.21
468.78	9603.22
468.96	9628.96
469.14	9600.88
469.32	9633.64
469.50	9589.17
469.69	9806.84
469.87	9694.50
470.05	9877.06
470.23	9872.38
470.41	9504.92
470.59	9818.55
470.77	9722.59
470.95	9942.60
471.14	10106.43
471.32	9940.26
471.50	10422.41
471.68	10073.67
471.86	10415.38
472.04	10375.59
472.22	10455.17
472.40	10354.53
472.58	10380.28
472.77	10490.28
472.95	10415.38
473.13	10878.81
473.31	10546.45
473.49	10707.95
473.67	10712.63
473.85	10794.55
474.03	10953.71
474.21	10628.37
474.39	10967.75
474.57	10895.19
474.75	10958.39
474.93	11262.66
475.12	11176.06
475.30	11021.58
475.48	11194.78
475.66	11377.34
475.84	11548.20
476.02	11393.73
476.20	11501.39
476.38	11599.70
476.56	11786.94
476.74	11604.38
476.92	11637.14
477.10	11709.70
477.28	12126.32
477.46	11988.22
477.64	12112.27
477.82	12233.98
478.00	12823.80
478.18	12482.08
478.36	12519.53
478.54	12676.34
478.72	12477.40
478.90	13097.64
479.08	13046.15
479.26	13139.77
479.44	13111.68
479.62	13039.12
479.80	13331.69
479.98	13479.15
480.16	13635.96
480.34	13406.59
480.52	13645.32
480.70	13795.12
480.88	13717.88
481.06	13872.36
481.24	13935.55
481.41	14459.83
481.59	14497.28
481.77	14324.08
481.95	14457.49
482.13	14640.05
482.31	14892.83
482.49	14611.96
482.67	14946.66
482.85	14937.30
483.03	15096.46
483.21	15407.75
483.39	15510.73
483.57	15325.83
483.74	15602.01
483.92	15646.48
484.10	15393.70
484.28	15978.84
484.46	16098.20
484.64	16194.17
484.82	15962.45
485.00	16372.05
485.18	16372.05
485.35	16730.15
485.53	16283.11
485.71	16201.19
485.89	16453.97
486.07	16409.50
486.25	16615.46
486.43	16896.33
486.61	16893.99
486.78	17434.65
486.96	17174.85
487.14	17654.66
487.32	17703.81
487.50	18090.00
487.68	18038.51
487.85	17956.59
488.03	18403.63
488.21	18518.32
488.39	18731.31
488.57	18728.97
488.75	18965.36
488.92	19206.44
489.10	19726.04
489.28	19260.27
489.46	19618.37
489.64	19690.93
489.81	20046.69
489.99	20126.27
490.17	20046.69
490.35	20100.52
490.53	20182.44
490.70	20446.92
490.88	20397.77
491.06	20975.88
491.24	20936.09
491.41	20863.54
491.59	20568.63
491.77	20786.30
491.95	20868.22
492.13	21041.42
492.30	21399.52
492.48	21783.37
492.66	21954.22
492.84	21816.13
493.01	22059.55
493.19	21748.26
493.37	22260.84
493.54	22462.12
493.72	22785.12
493.90	22434.03
494.08	22691.49
494.25	23047.26
494.43	23262.58
494.61	23344.50
494.79	23550.47
494.96	23616.01
495.14	23161.94
495.32	23744.73
495.49	23868.78
495.67	23800.91
495.85	24109.86
496.02	24414.13
496.20	24016.24
496.38	24545.20
496.55	24236.25
496.73	25055.43
496.91	24744.14
497.09	25053.09
497.26	25333.96
497.44	25209.91
497.62	25186.50
497.79	25282.47
497.97	25207.57
498.14	25671.00
498.32	25783.34
498.50	25785.68
498.67	26040.80
498.85	25703.76
499.03	26387.20
499.20	26239.75
499.38	26256.13
499.56	26253.79
499.73	26501.89
499.91	26487.84
500.08	26719.56
500.26	26459.76
500.44	26644.66
500.61	26452.73
500.79	26504.23
500.97	26822.54
501.14	27718.96
501.32	27072.98
501.49	26890.41
501.67	26939.57
501.84	27323.41
502.02	27339.80
502.20	27470.87
502.37	27651.09
502.55	27957.70
502.72	27843.01
502.90	28236.22
503.07	28137.92
503.25	28393.04
503.43	27934.29
503.60	28353.25
503.78	28561.56
503.95	28027.92
504.13	28521.77
504.30	28952.43
504.48	28692.63
504.65	28914.98
504.83	29099.88
505.01	29638.20
505.18	29153.71
505.36	29518.84
505.53	29160.73
505.71	29689.70
505.88	29844.17
506.06	29624.16
506.23	29699.06
506.41	29535.22
506.58	29825.45
506.76	29635.86
506.93	30260.79
507.11	30024.39
507.28	30176.53
507.46	29895.66
507.63	30071.20
507.81	30223.34
507.98	29883.96
508.16	30508.88
508.33	30558.03
508.50	30761.66
508.68	30600.16
508.85	30937.20
509.03	31157.21
509.20	31126.78
509.38	31456.80
509.55	31344.45
509.73	31409.99
509.90	31260.20
510.08	31421.69
510.25	31197.00
510.42	31613.62
510.60	31796.18
510.77	31985.76
510.95	32077.04
511.12	32217.47
511.30	31559.78
511.47	32514.72
511.64	32395.35
511.82	32568.55
511.99	32329.82
512.17	32252.58
512.34	32395.35
512.51	32545.15
512.69	32549.83
512.86	32549.83
513.04	32919.63
513.21	32849.42
513.38	32526.42
513.56	32844.74
513.73	33296.46
513.90	33495.41
514.08	32737.07
514.25	33369.02
514.43	33216.88
514.60	33165.39
514.77	33338.59
514.95	33589.03
515.12	33610.09
515.29	33434.55
515.47	34073.52
515.64	33883.94
515.81	33961.17
515.99	34178.84
516.16	34164.80
516.33	33722.44
516.51	33532.86
516.68	33373.70
516.85	33291.78
517.03	33326.89
517.20	33858.19
517.37	34520.56
517.54	34506.52
517.72	34129.69
517.89	33888.62
518.06	33830.10
518.24	34340.34
518.41	34272.46
518.58	34686.74
518.75	34522.90
518.93	34909.09
519.10	34387.15
519.27	34932.50
519.45	35466.14
519.62	35321.02
519.79	35093.99
519.96	35398.26
520.14	35503.59
520.31	35545.72
520.48	35271.87
520.65	35161.87
520.83	35587.85
521.00	35995.10
521.17	35735.30
521.34	35873.39
521.52	36100.42
521.69	36343.84
521.86	36746.41
522.03	36229.15
522.20	36311.07
522.38	36376.61
522.55	36460.87
522.72	36299.37
522.89	36172.98
523.07	36825.99
523.24	37127.92
523.41	36718.32
523.58	36758.11
523.75	37848.80
523.92	37240.26
524.10	37315.16
524.27	36898.55
524.44	37495.38
524.61	37500.06
524.78	37724.75
524.96	37495.38
525.13	38000.94
525.30	38026.68
525.47	37675.60
525.64	37916.68
525.81	37446.23
525.98	37352.61
526.16	37736.46
526.33	37535.17
526.50	37841.78
526.67	37177.07
526.84	37474.32
527.01	37535.17
527.18	37720.07
527.36	38258.40
527.53	38424.57
527.70	38515.86
527.87	38618.84
528.04	38464.36
528.21	38590.75
528.38	38579.05
528.55	38717.14
528.72	38726.50
528.89	39215.68
529.07	39049.50
529.24	38799.06
529.41	39033.11
529.58	38759.27
529.75	38778.00
529.92	39363.13
530.09	39019.07
530.26	39283.55
530.43	39517.60
530.60	39213.34
530.77	39508.24
530.94	39625.27
531.11	39503.56
531.28	39477.82
531.46	39887.41
531.63	39482.50
531.80	39475.48
531.97	39746.98
532.14	39777.40
532.31	39498.88
532.48	39583.14
532.65	39700.17
532.82	39744.64
532.99	39489.52
533.16	39646.33
533.33	39927.20
533.50	40369.56
533.67	40219.77
533.84	39969.33
534.01	40397.65
534.18	40278.28
534.35	40315.73
534.52	40236.15
534.69	40446.80
534.86	40655.11
535.03	40538.08
535.20	41394.71
535.37	40814.26
535.54	40989.80
535.71	41022.57
535.88	40879.80
536.05	40596.59
536.22	40762.77
536.38	41010.87
536.55	40699.58
536.72	40774.47
536.89	40830.65
537.06	40893.84
537.23	40900.86
537.40	41078.74
537.57	41170.02
537.74	41659.20
537.91	41415.78
538.08	41041.29
538.25	40793.20
538.42	41116.19
538.59	41717.71
538.75	40835.33
538.92	41254.28
539.09	41539.83
539.26	41397.06
539.43	41656.85
539.60	41483.66
539.77	41523.44
539.94	41785.58
540.11	41338.54
540.28	42117.94
540.44	41731.75
540.61	41455.57
540.78	41460.25
540.95	41977.51
541.12	41752.82
541.29	41607.70
541.46	42005.59
541.62	42188.16
541.79	42040.70
541.96	41586.64
542.13	41844.10
542.30	41961.12
542.47	41947.08
542.63	41755.16
542.80	42351.99
542.97	42637.54
543.14	42721.80
543.31	42366.04
543.48	42834.14
543.64	43192.25
543.81	43328.00
543.98	42948.83
544.15	42880.95
544.32	43150.12
544.48	42834.14
544.65	43182.88
544.82	43182.88
544.99	43084.58
545.16	43105.65
545.32	43016.71
545.49	43597.16
545.66	43515.24
545.83	43384.17
546.00	43325.66
546.16	43154.80
546.33	43129.05
546.50	42962.87
546.67	43545.67
546.83	43093.94
547.00	43292.89
547.17	43395.87
547.34	43217.99
547.50	43072.88
547.67	43604.18
547.84	43274.16
548.00	43672.06
548.17	44088.67
548.34	43512.90
548.51	44212.72
548.67	43585.46
548.84	43571.41
549.01	43636.95
549.18	44147.18
549.34	43880.36
549.51	44217.40
549.68	44304.00
549.84	44067.61
550.01	44315.70
550.18	43845.26
550.34	43983.35
550.51	44315.70
550.68	44170.59
550.84	44116.76
551.01	44531.03
551.18	44044.20
551.34	44399.96
551.51	44800.19
551.68	44615.29
551.84	44224.42
552.01	44332.09
552.18	44062.93
552.34	44264.21
552.51	44399.96
552.68	44617.63
552.84	44509.97
553.01	44811.90
553.18	44662.10
553.34	44722.96
553.51	44343.79
553.67	44949.99
553.84	44952.33
554.01	44538.05
554.17	45155.96
554.34	45111.49
554.51	44832.96
554.67	45067.02
554.84	45067.02
555.00	45034.25
555.17	44542.74
555.33	44769.77
555.50	45123.19
555.67	44832.96
555.83	44933.60
556.00	44669.12
556.16	44961.69
556.33	44886.79
556.50	44968.71
556.66	45130.21
556.83	44802.53
556.99	45045.95
557.16	45504.70
557.32	45069.36
557.49	45092.76
557.65	45230.85
557.82	45076.38
557.98	45272.98
558.15	44973.39
558.32	45151.27
558.48	45148.93
558.65	45151.27
558.81	45031.91
558.98	45177.02
559.14	45457.88
559.31	45322.13
559.47	45364.26
559.64	45460.23
559.80	45521.08
559.97	45401.71
560.13	45249.58
560.30	45111.49
560.46	45640.45
560.63	45633.42
560.79	45404.05
560.96	45895.56
561.12	45577.25
561.29	45453.20
561.45	45638.11
561.61	45310.43
561.78	45663.85
561.94	45490.65
562.11	45626.40
562.27	45663.85
562.44	45624.06
562.60	45895.56
562.77	45705.98
562.93	45647.47
563.10	45855.78
563.26	45514.06
563.42	45928.33
563.59	45853.44
563.75	45315.11
563.92	45907.27
564.08	46141.32
564.24	45661.51
564.41	45989.19
564.57	45799.60
564.74	45631.08
564.90	45546.82
565.07	45731.73
565.23	45785.56
565.39	45605.34
565.56	46026.63
565.72	45319.79
565.88	45984.51
566.05	45972.80
566.21	45813.65
566.38	45972.80
566.54	45862.80
566.70	46096.85
566.87	46316.86
567.03	45701.30
567.19	46256.01
567.36	46169.41
567.52	45588.95
567.68	46272.39
567.85	45837.05
568.01	45996.21
568.17	45975.14
568.34	46300.48
568.50	46183.45
568.66	45916.63
568.83	45797.26
568.99	45684.92
569.15	45902.59
569.32	45530.44
569.48	45682.58
569.64	45996.21
569.81	46141.32
569.97	45925.99
570.13	45691.94
570.30	45502.35
570.46	45485.97
570.62	45532.78
570.78	45502.35
570.95	45944.72
571.11	46148.34
571.27	45888.54
571.43	45439.16
571.60	45633.42
571.76	45624.06
571.92	46050.04
572.09	46087.49
572.25	45921.31
572.41	46223.24
572.57	45968.12
572.74	46733.48
572.90	46202.18
573.06	46234.94
573.22	46157.70
573.38	46124.94
573.55	45801.94
573.71	46162.39
573.87	46181.11
574.03	46387.08
574.20	46319.20
574.36	45834.71
574.52	46230.26
574.68	45853.44
574.84	46333.24
575.01	46337.93
575.17	46099.19
575.33	46342.61
575.49	45837.05
575.65	46024.29
575.82	46511.13
575.98	45996.21
576.14	45844.07
576.30	46344.95
576.46	45764.49
576.62	45991.53
576.79	46384.74
576.95	46017.27
577.11	45883.86
577.27	45942.38
577.43	46033.66
577.59	45972.80
577.75	46312.18
577.92	45970.46
578.08	45867.48
578.24	46234.94
578.40	46127.28
578.56	46134.30
578.72	46197.49
578.88	46656.24
579.04	46363.67
579.21	45930.67
579.37	46211.54
579.53	46375.37
579.69	45923.65
579.85	45904.93
580.01	46223.24
580.17	45982.16
580.33	46314.52
580.49	46253.67
580.65	46469.00
580.82	46281.75
580.98	46382.40
581.14	45825.35
581.30	46766.24
581.46	46408.14
581.62	46422.19
581.78	46347.29
581.94	46424.53
582.10	46457.29
582.26	46810.71
582.42	45743.43
582.58	46782.63
582.74	46431.55
582.90	46904.34
583.06	46508.79
583.22	46298.14
583.38	46513.47
583.54	46529.85
583.70	46438.57
583.86	46714.75
584.02	46263.03
584.18	46288.77
584.34	45935.35
584.50	46438.57
584.66	46148.34
584.82	46176.43
584.98	46639.86
585.14	46162.39
585.30	46450.27
585.46	46431.55
585.62	45933.01
585.78	46078.13
585.94	46157.70
586.10	45820.67
586.26	46031.32
586.42	46436.23
586.58	46590.70
586.74	46239.62
586.90	46583.68
587.06	46101.53
587.22	46391.76
587.38	46192.81
587.54	46433.89
587.70	46466.66
587.86	46258.35
588.02	46377.72
588.18	45844.07
588.34	46033.66
588.49	45933.01
588.65	45757.47
588.81	45851.09
588.97	46059.40
589.13	45734.07
589.29	45825.35
589.45	45710.66
589.61	46696.03
589.77	46791.99
589.93	46457.29
