SpectraSuite Data File
++++++++++++++++++++++++++++++++++++
Date: Fri Oct 25 11:22:49 EDT 2013
User: price-jones
Dark Spectrum Present: No
Reference Spectrum Present: No
Number of Sampled Component Spectra: 1
Spectrometers: USB2+H05261
Integration Time (usec): 100000 (USB2+H05261)
Spectra Averaged: 1 (USB2+H05261)
Boxcar Smoothing: 0 (USB2+H05261)
Correct for Electrical Dark: No (USB2+H05261)
Strobe/Lamp Enabled: No (USB2+H05261)
Correct for Detector Non-linearity: No (USB2+H05261)
Correct for Stray Light: No (USB2+H05261)
Number of Pixels in Processed Spectrum: 2048
>>>>>Begin Processed Spectral Data<<<<<
365.73	208.31
365.92	208.31
366.12	208.31
366.32	102.98
366.52	112.35
366.72	201.29
366.91	110.01
367.11	149.79
367.31	86.60
367.51	131.07
367.70	110.01
367.90	107.66
368.10	35.11
368.30	77.24
368.49	98.30
368.69	149.79
368.89	166.18
369.09	102.98
369.28	131.07
369.48	154.48
369.68	145.11
369.87	175.54
370.07	194.26
370.27	201.29
370.47	313.63
370.66	613.22
370.86	622.58
371.06	587.47
371.25	692.80
371.45	643.65
371.65	695.14
371.84	697.48
372.04	704.50
372.24	692.80
372.44	655.35
372.63	695.14
372.83	676.41
373.03	774.72
373.22	739.61
373.42	716.20
373.62	770.04
373.81	816.85
374.01	833.23
374.21	779.40
374.40	748.97
374.60	802.80
374.79	802.80
374.99	821.53
375.19	866.00
375.38	844.93
375.58	833.23
375.78	837.91
375.97	840.25
376.17	842.59
376.37	847.27
376.56	912.81
376.76	877.70
376.95	795.78
377.15	856.64
377.35	971.32
377.54	919.83
377.74	866.00
377.93	968.98
378.13	898.77
378.33	933.87
378.52	912.81
378.72	950.26
378.91	968.98
379.11	903.45
379.31	910.47
379.50	929.19
379.70	983.02
379.89	919.83
380.09	1022.81
380.28	1006.43
380.48	1004.09
380.68	931.53
380.87	978.34
381.07	1064.94
381.26	917.49
381.46	1020.47
381.65	990.05
381.85	1001.75
382.04	1090.69
382.24	1132.82
382.43	1100.05
382.63	1081.33
382.83	973.66
383.02	1114.10
383.22	1174.95
383.41	1102.39
383.61	1156.22
383.80	1053.24
384.00	1184.31
384.19	1254.53
384.39	1109.41
384.58	1006.43
384.78	1116.44
384.97	1247.51
385.17	1158.57
385.36	1200.69
385.56	1224.10
385.75	1172.61
385.95	1210.06
386.14	1226.44
386.34	1266.23
386.53	1200.69
386.72	1172.61
386.92	1233.46
387.11	1261.55
387.31	1174.95
387.50	1277.93
387.70	1233.46
387.89	1282.61
388.09	1277.93
388.28	1331.76
388.48	1261.55
388.67	1373.89
388.86	1331.76
389.06	1282.61
389.25	1324.74
389.45	1352.83
389.64	1366.87
389.84	1430.07
390.03	1383.26
390.22	1378.58
390.42	1366.87
390.61	1357.51
390.81	1387.94
391.00	1416.02
391.19	1446.45
391.39	1458.15
391.58	1467.52
391.78	1462.83
391.97	1474.54
392.16	1432.41
392.36	1516.67
392.55	1420.71
392.75	1610.29
392.94	1495.60
393.13	1530.71
393.33	1556.46
393.52	1572.84
393.71	1570.50
393.91	1544.75
394.10	1629.01
394.29	1591.56
394.49	1610.29
394.68	1596.25
394.88	1600.93
395.07	1631.35
395.26	1788.17
395.46	1626.67
395.65	1647.74
395.84	1734.34
396.04	1713.27
396.23	1874.77
396.42	1783.49
396.62	1694.55
396.81	1844.34
397.00	1717.95
397.19	1851.36
397.39	1710.93
397.58	1795.19
397.77	1750.72
397.97	1816.26
398.16	1870.09
398.35	1863.07
398.55	1865.41
398.74	1954.35
398.93	2008.18
399.12	1947.33
399.32	1935.62
399.51	1944.99
399.70	1970.73
399.90	1987.11
400.09	2090.10
400.28	2069.03
400.47	2071.37
400.67	2129.89
400.86	2087.76
401.05	2078.40
401.24	1987.11
401.44	2057.33
401.63	2150.95
401.82	2204.78
402.01	2179.04
402.21	2260.96
402.40	2104.14
402.59	2111.16
402.78	2232.87
402.97	2195.42
403.17	2279.68
403.36	2279.68
403.55	2183.72
403.74	2237.55
403.93	2380.32
404.13	2399.05
404.32	2326.49
404.51	2356.92
404.70	2410.75
404.89	2338.20
405.09	2427.14
405.28	2455.22
405.47	2471.61
405.66	2541.82
405.85	2626.08
406.05	2469.27
406.24	2495.01
406.43	2518.42
406.62	2581.61
406.81	2738.43
407.00	2527.78
407.20	2569.91
407.39	2665.87
407.58	2628.42
407.77	2710.34
407.96	2775.88
408.15	2745.45
408.34	2829.71
408.54	2696.30
408.73	2729.06
408.92	2738.43
409.11	2832.05
409.30	2951.42
409.49	2871.84
409.68	2965.46
409.87	3028.65
410.07	2881.20
410.26	2944.39
410.45	3030.99
410.64	2923.33
410.83	3122.27
411.02	3052.06
411.21	3068.44
411.40	3152.70
411.59	3159.72
411.78	3286.11
411.98	3138.66
412.17	3302.50
412.36	3300.16
412.55	3283.77
412.74	3550.59
412.93	3447.61
413.12	3309.52
413.31	3550.59
413.50	3545.91
413.69	3552.93
413.88	3744.86
414.07	3676.98
414.26	3719.11
414.45	3662.94
414.64	3747.20
414.83	3768.26
415.02	3714.43
415.22	3733.15
415.41	3838.48
415.60	3801.03
415.79	3815.07
415.98	3969.55
416.17	3904.01
416.36	3953.16
416.55	4021.04
416.74	4053.81
416.93	4025.72
417.12	4140.41
417.31	4142.75
417.50	4126.36
417.69	4287.86
417.88	4250.41
418.07	4276.16
418.26	4524.26
418.45	4348.72
418.64	4589.79
418.83	4517.23
419.02	4505.53
419.21	4519.57
419.39	4521.92
419.58	4451.70
419.77	4465.74
419.96	4566.39
420.15	4631.92
420.34	4681.07
420.53	4631.92
420.72	4683.41
420.91	4807.46
421.10	4856.61
421.29	4753.63
421.48	4739.58
421.67	4777.03
421.86	4725.54
422.05	4877.68
422.24	4711.50
422.43	4751.29
422.61	4901.08
422.80	5071.94
422.99	5013.43
423.18	5025.13
423.37	4985.34
423.56	4980.66
423.75	4983.00
423.94	4945.55
424.13	4638.94
424.32	4835.55
424.50	4905.76
424.69	5088.32
424.88	5093.01
425.07	4891.72
425.26	4912.78
425.45	5207.69
425.64	4975.98
425.83	4905.76
426.01	5100.03
426.20	5149.18
426.39	5001.72
426.58	5039.17
426.77	5069.60
426.96	5132.79
427.15	5100.03
427.33	5191.31
427.52	5261.52
427.71	5331.74
427.90	5296.63
428.09	5369.19
428.28	5217.05
428.46	5341.10
428.65	5273.23
428.84	5509.62
429.03	5420.68
429.22	5289.61
429.40	5572.82
429.59	5570.48
429.78	5291.95
429.97	5528.35
430.16	5413.66
430.34	5664.10
430.53	5657.07
430.72	5715.59
430.91	5701.54
431.10	5816.23
431.28	5832.62
431.47	5741.33
431.66	5832.62
431.85	5811.55
432.03	5902.83
432.22	6010.50
432.41	5870.06
432.60	5980.07
432.79	5781.12
432.97	6040.92
433.16	6052.63
433.35	6057.31
433.54	6146.25
433.72	6204.76
433.91	6195.40
434.10	6118.16
434.28	6150.93
434.47	6183.70
434.66	6387.32
434.85	6326.47
435.03	6607.33
435.22	6333.49
435.41	6544.14
435.59	6464.56
435.78	6544.14
435.97	6457.54
436.16	6342.85
436.34	6317.11
436.53	6656.48
436.72	6565.20
436.90	6457.54
437.09	6586.27
437.28	6530.09
437.46	6642.44
437.65	6724.36
437.84	6918.62
438.02	6782.87
438.21	6806.28
438.40	6492.65
438.58	6911.60
438.77	6988.84
438.96	7021.61
439.14	7073.10
439.33	7028.63
439.52	7119.91
439.70	7199.49
439.89	7461.63
440.08	7368.01
440.26	7325.88
440.45	7449.93
440.63	7433.54
440.82	7581.00
441.01	7482.69
441.19	7527.16
441.38	7763.56
441.57	7705.04
441.75	7843.14
441.94	8133.36
442.12	8070.17
442.31	8168.47
442.50	8032.72
442.68	7840.79
442.87	8086.55
443.05	8063.15
443.24	8327.63
443.43	8250.39
443.61	8245.71
443.80	8416.57
443.98	7911.01
444.17	7810.37
444.35	8210.60
444.54	8163.79
444.73	8348.69
444.91	8435.29
445.10	8582.74
445.28	8552.32
445.47	8285.50
445.65	8297.20
445.84	8472.74
446.02	8482.10
446.21	8463.38
446.39	8486.78
446.58	8482.10
446.77	8369.76
446.95	8400.18
447.14	8533.59
447.32	8475.08
447.51	8535.93
447.69	8313.58
447.88	8517.21
448.06	8601.47
448.25	8681.05
448.43	8606.15
448.62	8547.64
448.80	8475.08
448.99	8746.58
449.17	8999.36
449.36	8645.94
449.54	8779.35
449.73	9107.02
449.91	8987.66
450.10	8905.74
450.28	9128.09
450.46	9074.26
450.65	9191.28
450.83	9048.51
451.02	8980.64
451.20	9322.35
451.39	9263.84
451.57	9186.60
451.76	9043.83
451.94	9205.33
452.13	9348.10
452.31	9451.08
452.49	9364.48
452.68	9467.47
452.86	9483.85
453.05	9551.73
453.23	9525.98
453.42	9371.50
453.60	9432.36
453.78	9528.32
453.97	9497.89
454.15	9650.03
454.34	9486.19
454.52	9647.69
454.70	9748.33
454.89	9650.03
455.07	9902.81
455.26	9771.74
455.44	10012.81
455.62	9989.41
455.81	10031.54
455.99	10050.26
456.17	10162.61
456.36	10066.64
456.54	10265.59
456.73	10335.81
456.91	10527.73
457.09	10616.67
457.28	10569.86
457.46	10420.06
457.64	10806.25
457.83	10363.89
458.01	10511.35
458.19	10670.50
458.38	10726.68
458.56	10829.66
458.74	10658.80
458.93	10551.14
459.11	10850.72
459.29	10635.39
459.48	10778.17
459.66	10757.10
459.84	11002.86
460.03	10892.85
460.21	11173.72
460.39	10995.84
460.57	10981.79
460.76	11201.80
460.94	11316.49
461.12	11101.16
461.31	11288.40
461.49	11382.03
461.67	11719.06
461.85	11487.35
462.04	11318.83
462.22	11812.68
462.40	11520.12
462.59	11548.20
462.77	11470.97
462.95	11573.95
463.13	11508.41
463.32	11978.86
463.50	11852.47
463.68	11805.66
463.86	11747.15
464.05	11768.21
464.23	11786.94
464.41	12016.31
464.59	11524.80
464.78	12336.96
464.96	12236.32
465.14	12035.03
465.32	12100.57
465.50	12343.99
465.69	12229.30
465.87	12407.18
466.05	12116.95
466.23	12325.26
466.41	12453.99
466.60	12636.55
466.78	12233.98
466.96	12152.06
467.14	12409.52
467.32	12416.54
467.51	12709.11
467.69	12269.09
467.87	12475.06
468.05	12608.47
468.23	12592.08
468.41	12465.69
468.60	12791.03
468.78	13053.17
468.96	12421.22
469.14	12917.42
469.32	13228.71
469.50	12737.20
469.69	12760.60
469.87	13179.56
470.05	13198.28
470.23	13078.91
470.41	13338.71
470.59	13275.52
470.77	13298.92
470.95	13240.41
471.14	13469.78
471.32	13202.96
471.50	13596.17
471.68	13839.59
471.86	13848.95
472.04	13961.30
472.22	14150.88
472.40	13799.80
472.58	13816.18
472.77	13987.04
472.95	14305.35
473.13	14766.44
473.31	14094.71
473.49	14352.16
473.67	14420.04
473.85	14253.86
474.03	14951.34
474.21	14434.08
474.39	14698.56
474.57	14654.09
474.75	15208.80
474.93	15276.68
475.12	15033.26
475.30	15232.21
475.48	15063.69
475.66	15370.30
475.84	15236.89
476.02	15239.23
476.20	15545.84
476.38	15646.48
476.56	15997.56
476.74	16189.49
476.92	15850.11
477.10	16224.59
477.28	16259.70
477.46	16184.80
477.64	16435.24
477.82	16507.80
478.00	17022.72
478.18	16833.13
478.36	16868.24
478.54	17153.79
478.72	17209.96
478.90	17617.21
479.08	18092.34
479.26	17720.20
479.44	17610.19
479.62	18050.21
479.80	18209.37
479.98	18347.46
480.16	18827.27
480.34	18181.28
480.52	19014.51
480.70	18707.90
480.88	18438.74
481.06	19028.56
481.24	18944.30
481.41	19101.11
481.59	19419.42
481.77	19463.90
481.95	19850.08
482.13	19597.31
482.31	19859.45
482.49	20428.20
482.67	20301.81
482.85	20772.25
483.03	20758.21
483.21	21195.89
483.39	21039.08
483.57	20947.79
483.74	21348.03
483.92	21453.35
484.10	21453.35
484.28	21628.89
484.46	22005.72
484.64	22506.59
484.82	22075.93
485.00	22647.02
485.18	22934.91
485.35	23494.30
485.53	23075.34
485.71	23037.89
485.89	23513.02
486.07	23672.18
486.25	23899.21
486.43	23798.57
486.61	23964.75
486.78	24397.74
486.96	24379.02
487.14	24566.26
487.32	24800.32
487.50	24727.76
487.68	25156.08
487.85	25249.70
488.03	25734.19
488.21	25975.27
488.39	26082.93
488.57	26132.08
488.75	26300.60
488.92	26913.82
489.10	26778.07
489.28	26962.97
489.46	27529.38
489.64	27213.41
489.81	27985.79
489.99	28030.26
490.17	27744.71
490.35	28432.83
490.53	28390.70
490.70	28390.70
490.88	28563.90
491.06	29076.48
491.24	29233.29
491.41	28996.90
491.59	29322.23
491.77	29202.86
491.95	30199.93
492.13	29893.32
492.30	30078.22
492.48	30534.63
492.66	30567.40
492.84	30775.70
493.01	31058.91
493.19	30820.17
493.37	31122.10
493.54	31110.40
493.72	32074.70
493.90	31761.07
494.08	31910.86
494.25	32041.93
494.43	32383.65
494.61	32498.34
494.79	32933.68
494.96	32627.07
495.14	33020.28
495.32	33450.94
495.49	33406.47
495.67	33652.22
495.85	34038.41
496.02	34349.70
496.20	34202.25
496.38	33965.85
496.55	34387.15
496.73	34731.21
496.91	34705.46
497.09	35150.17
497.26	35358.47
497.44	34686.74
497.62	35704.87
497.79	36601.30
497.97	35658.06
498.14	36161.28
498.32	36275.96
498.50	36596.62
498.67	36821.31
498.85	36582.57
499.03	36851.73
499.20	37315.16
499.38	37109.19
499.56	37291.76
499.73	37577.30
499.91	37504.74
500.08	37996.26
500.26	37893.27
500.44	37893.27
500.61	37673.26
500.79	38078.18
500.97	38192.86
501.14	38693.74
501.32	38679.69
501.49	38836.51
501.67	38873.96
501.84	39505.90
502.02	39077.58
502.20	39129.08
502.37	39239.08
502.55	39580.80
502.72	39854.64
502.90	39791.45
503.07	39665.06
503.25	40105.08
503.43	40194.02
503.60	40416.37
503.78	40531.06
503.95	40634.04
504.13	40935.97
504.30	40786.18
504.48	40540.42
504.65	40966.40
504.83	41291.73
505.01	41486.00
505.18	41338.54
505.36	41951.76
505.53	41354.93
505.71	42153.05
505.88	42356.67
506.06	41535.15
506.23	42469.02
506.41	42286.46
506.58	42333.27
506.76	42387.10
506.93	42674.99
507.11	42927.77
507.28	43019.05
507.46	43217.99
507.63	43002.66
507.81	43246.08
507.98	43009.68
508.16	43374.81
508.33	43615.88
508.50	43571.41
508.68	43690.78
508.85	44406.98
509.03	44252.51
509.20	44734.66
509.38	44411.67
509.55	44704.23
509.73	44746.36
509.90	44847.00
510.08	44828.28
510.25	45118.51
510.42	44753.38
510.60	45050.63
510.77	45354.90
510.95	45495.33
511.12	45130.21
511.30	45727.05
511.47	45577.25
511.64	45565.55
511.82	45972.80
511.99	46094.51
512.17	45722.37
512.34	46218.56
512.51	46557.94
512.69	46560.28
512.86	46270.05
513.04	46429.21
513.21	46894.97
513.38	47056.47
513.56	47012.00
513.73	46810.71
513.90	47522.24
514.08	46686.67
514.25	47728.20
514.43	47910.77
514.60	47657.99
514.77	47475.43
514.95	47742.25
515.12	47929.49
515.29	48079.28
515.47	48191.63
515.64	48467.81
515.81	48191.63
515.99	48804.85
516.16	48554.41
516.33	48727.61
516.51	49153.59
516.68	48900.81
516.85	48973.37
517.03	49015.50
517.20	49184.02
517.37	48851.66
517.54	49233.17
517.72	49399.35
517.89	49118.48
518.06	49219.13
518.24	49443.82
518.41	49521.05
518.58	49605.31
518.75	49048.27
518.93	49804.26
519.10	49663.83
519.27	49801.92
519.45	49722.34
519.62	50475.99
519.79	50183.43
519.96	49979.80
520.14	50464.29
520.31	50251.30
520.48	50473.65
520.65	50550.89
520.83	50944.10
521.00	50857.50
521.17	50958.14
521.34	50951.12
521.52	50869.20
521.69	50848.14
521.86	51330.29
522.03	51206.24
522.20	51437.95
522.38	51611.15
522.55	51489.45
522.72	51515.19
522.89	51613.49
523.07	52060.54
523.24	51592.43
523.41	51945.85
523.58	51625.20
523.75	52154.16
523.92	52217.35
524.10	52128.41
524.27	52327.36
524.44	52009.04
524.61	51980.96
524.78	52533.32
524.96	52231.40
525.13	52605.88
525.30	52605.88
525.47	52776.74
525.64	52612.90
525.81	52956.96
525.98	53076.33
526.16	52989.73
526.33	52987.39
526.50	53310.38
526.67	53057.60
526.84	53385.28
527.01	52921.85
527.18	53066.97
527.36	53120.80
527.53	53125.48
527.70	53544.44
527.87	53521.03
528.04	53343.15
528.21	53525.71
528.38	53279.96
528.55	53724.66
528.72	53378.26
528.89	53661.46
529.07	53514.01
529.24	53682.53
529.41	53921.26
529.58	53944.67
529.75	53719.98
529.92	53815.94
530.09	54040.63
530.26	54202.13
530.43	54127.23
530.60	54096.80
530.77	54216.17
530.94	54459.58
531.11	54293.41
531.28	54267.66
531.46	54581.29
531.63	54597.68
531.80	54588.31
531.97	54557.89
532.14	54864.50
532.31	54564.91
532.48	54770.88
532.65	54735.77
532.82	54569.59
532.99	55063.44
533.16	54979.18
533.33	55192.17
533.50	54901.95
533.67	55025.99
533.84	54939.39
534.01	54918.33
534.18	55086.85
534.35	55454.31
534.52	55255.37
534.69	55641.56
534.86	55274.09
535.03	55327.92
535.20	55473.04
535.37	55473.04
535.54	55416.86
535.71	55306.86
535.88	55704.75
536.05	55756.24
536.22	55789.01
536.38	55515.17
536.55	55398.14
536.72	55847.52
536.89	55636.87
537.06	55767.94
537.23	56039.45
537.40	55702.41
537.57	55859.23
537.74	55824.12
537.91	56294.56
538.08	55908.38
538.25	55899.01
538.42	56154.13
538.59	56467.76
538.75	56058.17
538.92	56343.72
539.09	56446.70
539.26	56184.56
539.43	56147.11
539.60	56521.60
539.77	56299.25
539.94	56666.71
540.11	56498.19
540.28	56783.74
540.44	56823.53
540.61	56561.39
540.78	56537.98
540.95	56830.55
541.12	56624.58
541.29	56755.65
541.46	56757.99
541.62	56535.64
541.79	56856.29
541.96	56587.13
542.13	56638.62
542.30	56968.64
542.47	56985.02
542.63	56921.83
542.80	56989.70
542.97	57333.76
543.14	57441.43
543.31	57422.70
543.48	57371.21
543.64	57771.44
543.81	57649.74
543.98	57453.13
544.15	57518.67
544.32	57605.26
544.48	57741.02
544.65	57563.14
544.82	57565.48
544.99	57319.72
545.16	57382.91
545.32	57619.31
545.49	57785.49
545.66	57867.40
545.83	58000.82
546.00	57827.62
546.16	57895.49
546.33	57666.12
546.50	57726.97
546.67	57757.40
546.83	57663.78
547.00	58061.67
547.17	57841.66
547.34	57925.92
547.50	58166.99
547.67	58045.29
547.84	58223.17
548.00	58122.52
548.17	58478.28
548.34	58216.14
548.51	58351.90
548.67	58396.37
548.84	58028.90
549.01	58106.14
549.18	58344.87
549.34	58433.81
549.51	58272.32
549.68	58583.61
549.84	58651.48
550.01	58471.26
550.18	58387.00
550.34	58705.32
550.51	58576.59
550.68	58632.76
550.84	58377.64
551.01	58838.73
551.18	58532.12
551.34	58967.46
551.51	58756.81
551.68	58820.00
551.84	58721.70
552.01	58555.52
552.18	58843.41
552.34	58686.59
552.51	59000.22
552.68	58698.30
552.84	58960.44
553.01	59042.35
553.18	59016.61
553.34	58848.09
553.51	59004.91
553.67	59089.16
553.84	59227.26
554.01	58904.26
554.17	59072.78
554.34	59245.98
554.51	58969.80
554.67	59384.07
554.84	59229.60
555.00	59100.87
555.17	58990.86
555.33	59014.27
555.50	59061.08
555.67	59157.04
555.83	59341.94
556.00	59196.83
556.16	59463.65
556.33	59613.44
556.50	59274.07
556.66	59484.72
556.83	59292.79
556.99	59491.74
557.16	59807.71
557.32	59440.24
557.49	59728.13
557.65	59491.74
557.82	59554.93
557.98	59494.08
558.15	59419.18
558.32	59531.53
558.48	59599.40
558.65	59676.64
558.81	59674.30
558.98	59660.26
559.14	59796.01
559.31	59788.98
559.47	59835.80
559.64	59678.98
559.80	59835.80
559.97	59817.07
560.13	59704.73
560.30	59676.64
560.46	59814.73
560.63	59882.61
560.79	59842.82
560.96	60137.72
561.12	60060.49
561.29	59903.67
561.45	59950.48
561.61	59917.71
561.78	60027.72
561.94	59856.86
562.11	59945.80
562.27	60168.15
562.44	59985.59
562.60	60097.94
562.77	60137.72
562.93	59962.18
563.10	60296.88
563.26	60039.42
563.42	60257.09
563.59	60231.35
563.75	60172.83
563.92	60158.79
564.08	59997.29
564.24	60355.39
564.41	60200.92
564.57	60271.14
564.74	60327.31
564.90	60301.56
565.07	60219.64
565.23	60486.46
565.39	60119.00
565.56	60339.01
565.72	60292.20
565.88	60402.21
566.05	60285.18
566.21	60355.39
566.38	60367.10
566.54	60465.40
566.70	60425.61
566.87	60619.88
567.03	60275.82
567.19	60589.45
567.36	60339.01
567.52	60514.55
567.68	60594.13
567.85	60458.38
568.01	60561.36
568.17	60591.79
568.34	60542.64
568.50	60566.04
568.66	60364.76
568.83	60533.28
568.99	60423.27
569.15	60645.62
569.32	60441.99
569.48	60327.31
569.64	60739.24
569.81	60542.64
569.97	60542.64
570.13	60640.94
570.30	60484.12
570.46	60645.62
570.62	60594.13
570.78	60610.51
570.95	60566.04
571.11	60963.93
571.27	60608.17
571.43	60732.22
571.60	60865.63
571.76	60573.06
571.92	60809.46
572.09	60669.03
572.25	60811.80
572.41	60715.84
572.57	60605.83
572.74	60882.02
572.90	60720.52
573.06	60804.78
573.22	60671.37
573.38	60603.49
573.55	60802.44
573.71	60790.73
573.87	60851.59
574.03	60626.90
574.20	60748.60
574.36	60769.67
574.52	60839.89
574.68	60729.88
574.84	60872.65
575.01	60952.23
575.17	60860.95
575.33	60764.99
575.49	60903.08
575.65	61022.45
575.82	61102.03
575.98	61066.92
576.14	61092.66
576.30	60924.14
576.46	60779.03
576.62	60933.51
576.79	60837.54
576.95	60807.12
577.11	60842.23
577.27	60959.25
577.43	60853.93
577.59	60767.33
577.75	60814.14
577.92	60727.54
578.08	60896.06
578.24	60900.74
578.40	60935.85
578.56	61080.96
578.72	60928.83
578.88	61167.56
579.04	61113.73
579.21	61207.35
579.37	61151.18
579.53	61111.39
579.69	60996.70
579.85	61006.06
580.01	61169.90
580.17	61090.32
580.33	61181.60
580.49	61062.24
580.65	61050.53
580.82	60858.61
580.98	60996.70
581.14	61144.16
581.30	61268.20
581.46	61036.49
581.62	60975.64
581.78	60999.04
581.94	61237.78
582.10	61031.81
582.26	61071.60
582.42	61069.26
582.58	60963.93
582.74	61069.26
582.90	60898.40
583.06	61219.05
583.22	61080.96
583.38	61205.01
583.54	61162.88
583.70	61134.79
583.86	61237.78
584.02	61069.26
584.18	61272.88
584.34	61296.29
584.50	60931.17
584.66	61118.41
584.82	60884.36
584.98	61221.39
585.14	61216.71
585.30	61092.66
585.46	61048.19
585.62	61329.06
585.78	61286.93
585.94	60954.57
586.10	61118.41
586.26	61106.71
586.42	61221.39
586.58	61275.22
586.74	61244.80
586.90	61263.52
587.06	61146.50
587.22	61087.98
587.38	61071.60
587.54	61413.32
587.70	61326.72
587.86	61230.75
588.02	61270.54
588.18	61270.54
588.34	61270.54
588.49	61181.60
