SpectraSuite Data File
++++++++++++++++++++++++++++++++++++
Date: Fri Oct 25 11:34:02 EDT 2013
User: price-jones
Dark Spectrum Present: No
Reference Spectrum Present: No
Number of Sampled Component Spectra: 1
Spectrometers: USB2+H05261
Integration Time (usec): 100000 (USB2+H05261)
Spectra Averaged: 1 (USB2+H05261)
Boxcar Smoothing: 0 (USB2+H05261)
Correct for Electrical Dark: No (USB2+H05261)
Strobe/Lamp Enabled: No (USB2+H05261)
Correct for Detector Non-linearity: No (USB2+H05261)
Correct for Stray Light: No (USB2+H05261)
Number of Pixels in Processed Spectrum: 2048
>>>>>Begin Processed Spectral Data<<<<<
365.73	266.82
365.92	266.82
366.12	266.82
366.32	224.69
366.52	205.97
366.72	177.88
366.91	128.73
367.11	290.23
367.31	159.16
367.51	203.63
367.70	161.50
367.90	194.26
368.10	140.43
368.30	205.97
368.49	173.20
368.69	198.95
368.89	138.09
369.09	189.58
369.28	194.26
369.48	215.33
369.68	215.33
369.87	243.42
370.07	196.60
370.27	280.86
370.47	320.65
370.66	435.34
370.86	608.54
371.06	545.34
371.25	489.17
371.45	664.71
371.65	566.41
371.84	547.69
372.04	528.96
372.24	521.94
372.44	627.26
372.63	634.29
372.83	617.90
373.03	557.05
373.22	653.01
373.42	648.33
373.62	554.71
373.81	648.33
374.01	608.54
374.21	713.86
374.40	636.63
374.60	727.91
374.79	578.11
374.99	662.37
375.19	683.44
375.38	601.52
375.58	596.84
375.78	653.01
375.97	706.84
376.17	760.67
376.37	711.52
376.56	624.92
376.76	709.18
376.95	650.67
377.15	706.84
377.35	688.12
377.54	664.71
377.74	716.20
377.93	770.04
378.13	690.46
378.33	674.07
378.52	779.40
378.72	690.46
378.91	674.07
379.11	699.82
379.31	653.01
379.50	720.88
379.70	723.23
379.89	753.65
380.09	741.95
380.28	741.95
380.48	767.70
380.68	774.72
380.87	779.40
381.07	674.07
381.26	788.76
381.46	758.33
381.65	739.61
381.85	727.91
382.04	734.93
382.24	814.51
382.43	711.52
382.63	777.06
382.83	819.19
383.02	709.18
383.22	737.27
383.41	725.57
383.61	798.12
383.80	849.61
384.00	786.42
384.19	774.72
384.39	826.21
384.58	866.00
384.78	931.53
384.97	866.00
385.17	788.76
385.36	894.08
385.56	903.45
385.75	875.36
385.95	765.36
386.14	891.74
386.34	830.89
386.53	798.12
386.72	807.48
386.92	866.00
387.11	833.23
387.31	882.38
387.50	891.74
387.70	816.85
387.89	912.81
388.09	835.57
388.28	884.72
388.48	868.34
388.67	936.21
388.86	812.17
389.06	894.08
389.25	870.68
389.45	931.53
389.64	1004.09
389.84	992.39
390.03	964.30
390.22	950.26
390.42	945.58
390.61	922.17
390.81	983.02
391.00	966.64
391.19	980.68
391.39	973.66
391.58	1034.52
391.78	910.47
391.97	1036.86
392.16	999.41
392.36	1046.22
392.55	1032.18
392.75	1025.15
392.94	1008.77
393.13	1027.50
393.33	1027.50
393.52	1041.54
393.71	1137.50
393.91	1048.56
394.10	1071.97
394.29	1036.86
394.49	1048.56
394.68	1069.62
394.88	1064.94
395.07	1142.18
395.26	1261.55
395.46	1193.67
395.65	1277.93
395.84	1214.74
396.04	1256.87
396.23	1210.06
396.42	1212.40
396.62	1198.35
396.81	1249.85
397.00	1263.89
397.19	1224.10
397.39	1291.98
397.58	1170.27
397.77	1172.61
397.97	1303.68
398.16	1242.82
398.35	1214.74
398.55	1235.80
398.74	1245.16
398.93	1294.32
399.12	1217.08
399.32	1306.02
399.51	1315.38
399.70	1327.08
399.90	1226.44
400.09	1322.40
400.28	1327.08
400.47	1364.53
400.67	1359.85
400.86	1390.28
401.05	1406.66
401.24	1434.75
401.44	1444.11
401.63	1469.86
401.82	1437.09
402.01	1390.28
402.21	1497.94
402.40	1434.75
402.59	1451.13
402.78	1437.09
402.97	1523.69
403.17	1540.07
403.36	1530.71
403.55	1509.65
403.74	1568.16
403.93	1465.18
404.13	1750.72
404.32	1631.35
404.51	1533.05
404.70	1666.46
404.89	1612.63
405.09	1657.10
405.28	1741.36
405.47	1666.46
405.66	1600.93
405.85	1661.78
406.05	1771.79
406.24	1743.70
406.43	1746.04
406.62	1844.34
406.81	1952.01
407.00	1781.15
407.20	1804.55
407.39	1762.42
407.58	1706.25
407.77	1844.34
407.96	1921.58
408.15	1830.30
408.34	1834.98
408.54	1867.75
408.73	1961.37
408.92	1921.58
409.11	1928.60
409.30	1881.79
409.49	2064.35
409.68	2054.99
409.87	2001.16
410.07	2071.37
410.26	2024.56
410.45	1959.03
410.64	2127.55
410.83	2076.06
411.02	2062.01
411.21	2165.00
411.40	2059.67
411.59	2181.38
411.78	2230.53
411.98	2228.19
412.17	2277.34
412.36	2296.07
412.55	2197.76
412.74	2342.88
412.93	2375.64
413.12	2312.45
413.31	2434.16
413.50	2298.41
413.69	2335.85
413.88	2464.58
414.07	2541.82
414.26	2455.22
414.45	2506.71
414.64	2448.20
414.83	2565.23
415.02	2567.57
415.22	2555.86
415.41	2539.48
415.60	2679.91
415.79	2644.81
415.98	2722.04
416.17	2724.38
416.36	2773.53
416.55	2738.43
416.74	2808.64
416.93	2703.32
417.12	2867.16
417.31	2803.96
417.50	2766.51
417.69	2876.52
417.88	2993.55
418.07	2967.80
418.26	2932.69
418.45	2932.69
418.64	3112.91
418.83	2977.16
419.02	3080.14
419.21	3038.02
419.39	3012.27
419.58	3054.40
419.77	3103.55
419.96	3208.87
420.15	3246.32
420.34	3225.26
420.53	3236.96
420.72	3171.43
420.91	3183.13
421.10	3103.55
421.29	3412.50
421.48	3227.60
421.67	3307.18
421.86	3194.83
422.05	3229.94
422.24	3302.50
422.43	3307.18
422.61	3351.65
422.80	3417.18
422.99	3311.86
423.18	3442.93
423.37	3466.33
423.56	3400.80
423.75	3396.12
423.94	3361.01
424.13	3194.83
424.32	3176.11
424.50	3391.44
424.69	3346.97
424.88	3482.72
425.07	3410.16
425.26	3173.77
425.45	3403.14
425.64	3405.48
425.83	3346.97
426.01	3372.71
426.20	3426.54
426.39	3494.42
426.58	3384.41
426.77	3475.70
426.96	3524.85
427.15	3466.33
427.33	3606.77
427.52	3522.51
427.71	3585.70
427.90	3630.17
428.09	3487.40
428.28	3529.53
428.46	3592.72
428.65	3480.38
428.84	3637.19
429.03	3681.66
429.22	3641.87
429.40	3742.52
429.59	3751.88
429.78	3564.64
429.97	3501.44
430.16	3845.50
430.34	3852.52
430.53	3868.91
430.72	3810.39
430.91	3719.11
431.10	3889.97
431.28	3859.54
431.47	3878.27
431.66	3934.44
431.85	3962.53
432.03	4037.42
432.22	4058.49
432.41	3927.42
432.60	3983.59
432.79	4072.53
432.97	4100.62
433.16	4023.38
433.35	4021.04
433.54	4011.68
433.72	4051.47
433.91	4140.41
434.10	4070.19
434.28	4198.92
434.47	4201.26
434.66	4273.82
434.85	4299.56
435.03	4365.10
435.22	4166.15
435.41	4332.33
435.59	4266.80
435.78	4353.40
435.97	4386.16
436.16	4353.40
436.34	4161.47
436.53	4313.61
436.72	4475.10
436.90	4318.29
437.09	4468.08
437.28	4393.19
437.46	4514.89
437.65	4592.13
437.84	4528.94
438.02	4617.88
438.21	4599.15
438.40	4538.30
438.58	4713.84
438.77	4809.80
438.96	4683.41
439.14	4777.03
439.33	4870.65
439.52	4910.44
439.70	4908.10
439.89	4924.49
440.08	5135.14
440.26	4994.70
440.45	4889.38
440.63	4957.25
440.82	5179.61
441.01	4997.04
441.19	5093.01
441.38	5142.16
441.57	5137.48
441.75	5064.92
441.94	5252.16
442.12	5270.89
442.31	5397.28
442.50	5434.72
442.68	5254.50
442.87	5469.83
443.05	5533.03
443.24	5427.70
443.43	5467.49
443.61	5483.88
443.80	5610.26
443.98	5434.72
444.17	5373.87
444.35	5526.00
444.54	5561.11
444.73	5563.45
444.91	5584.52
445.10	5561.11
445.28	5764.74
445.47	5584.52
445.65	5495.58
445.84	5720.27
446.02	5593.88
446.21	5647.71
446.39	5593.88
446.58	5755.38
446.77	5706.23
446.95	5544.73
447.14	5572.82
447.32	5603.24
447.51	5792.83
447.69	5699.20
447.88	5551.75
448.06	5706.23
448.25	5696.86
448.43	5713.25
448.62	5795.17
448.80	5746.02
448.99	5841.98
449.17	5912.19
449.36	5736.65
449.54	5949.64
449.73	5907.51
449.91	5989.43
450.10	5949.64
450.28	6155.61
450.46	6024.54
450.65	6015.18
450.83	5963.68
451.02	6031.56
451.20	6066.67
451.39	5996.45
451.57	6136.88
451.76	6108.80
451.94	6171.99
452.13	6249.23
452.31	6174.33
452.49	6120.50
452.68	6279.66
452.86	6307.74
453.05	6345.19
453.23	6445.84
453.42	6319.45
453.60	6272.64
453.78	6558.18
453.97	6204.76
454.15	6473.92
454.34	6331.15
454.52	6415.41
454.70	6445.84
454.89	6366.26
455.07	6567.54
455.26	6494.99
455.44	6607.33
455.62	6562.86
455.81	6602.65
455.99	6546.48
456.17	6672.87
456.36	6691.59
456.54	6878.83
456.73	6829.68
456.91	6927.99
457.09	6778.19
457.28	7023.95
457.46	6803.94
457.64	7005.22
457.83	7026.29
458.01	6944.37
458.19	6991.18
458.38	6937.35
458.56	7346.94
458.74	7080.12
458.93	7068.42
459.11	7047.35
459.29	7180.76
459.48	7084.80
459.66	7126.93
459.84	7307.15
460.03	7279.07
460.21	7358.64
460.39	7323.54
460.57	7304.81
460.76	7316.51
460.94	7323.54
461.12	7389.07
461.31	7655.89
461.49	7372.69
461.67	7454.61
461.85	7742.49
462.04	7386.73
462.22	7974.21
462.40	7691.00
462.59	7517.80
462.77	7576.31
462.95	7740.15
463.13	7810.37
463.32	7517.80
463.50	7915.69
463.68	7707.38
463.86	7992.93
464.05	7592.70
464.23	7749.51
464.41	7833.77
464.59	7850.16
464.78	7957.82
464.96	7934.42
465.14	7906.33
465.32	8116.98
465.50	7981.23
465.69	8032.72
465.87	8091.23
466.05	8098.25
466.23	7957.82
466.41	8088.89
466.60	8390.82
466.78	8042.08
466.96	8266.77
467.14	8072.51
467.32	8243.37
467.51	8322.94
467.69	8159.11
467.87	8131.02
468.05	8334.65
468.23	8276.13
468.41	8119.32
468.60	8219.96
468.78	8470.40
468.96	8388.48
469.14	8351.03
469.32	8484.44
469.50	8163.79
469.69	8650.62
469.87	8601.47
470.05	8659.98
470.23	8786.37
470.41	8732.54
470.59	8765.31
470.77	8809.78
470.95	8683.39
471.14	8938.51
471.32	8568.70
471.50	8641.26
471.68	8931.48
471.86	8959.57
472.04	9022.77
472.22	9125.75
472.40	8959.57
472.58	9085.96
472.77	9202.99
472.95	9123.41
473.13	9607.90
473.31	9167.88
473.49	9341.08
473.67	9186.60
473.85	9516.62
474.03	9696.84
474.21	9558.75
474.39	9841.95
474.57	9745.99
474.75	9830.25
474.93	9881.74
475.12	9661.73
475.30	9825.57
475.48	9898.13
475.66	10146.22
475.84	9928.55
476.02	9853.66
476.20	10022.17
476.38	10195.37
476.56	10487.94
476.74	10380.28
476.92	10485.60
477.10	10434.11
477.28	10541.77
477.46	10534.75
477.64	10572.20
477.82	10792.21
478.00	11047.33
478.18	10890.51
478.36	11108.18
478.54	11089.46
478.72	11124.57
478.90	11281.38
479.08	11293.08
479.26	11517.78
479.44	11548.20
479.62	11534.16
479.80	11625.44
479.98	11719.06
480.16	12079.50
480.34	11719.06
480.52	12311.22
480.70	12231.64
480.88	11962.48
481.06	12093.55
481.24	12182.49
481.41	12367.39
481.59	12400.16
481.77	12622.51
481.95	12709.11
482.13	12999.34
482.31	12772.30
482.49	13048.49
482.67	13296.58
482.85	13186.58
483.03	13273.18
483.21	13474.46
483.39	13701.50
483.57	13472.12
483.74	13703.84
483.92	13989.38
484.10	13818.52
484.28	13991.72
484.46	14143.86
484.64	14359.19
484.82	13994.06
485.00	14607.28
485.18	14970.07
485.35	14855.38
485.53	14939.64
485.71	15028.58
485.89	15442.85
486.07	15016.88
486.25	15283.70
486.43	15089.43
486.61	15499.03
486.78	15524.77
486.96	15662.86
487.14	15852.45
487.32	16191.83
487.50	16128.63
487.68	16189.49
487.85	16168.42
488.03	16386.09
488.21	16673.98
488.39	16741.85
488.57	16730.15
488.75	16989.95
488.92	17212.30
489.10	17345.71
489.28	17153.79
489.46	17654.66
489.64	17483.80
489.81	17937.87
489.99	17991.70
490.17	17972.97
490.35	18391.93
490.53	18134.47
490.70	18394.27
490.88	18326.39
491.06	18822.59
491.24	18792.16
491.41	18799.18
491.59	19063.66
491.77	19192.39
491.95	19002.81
492.13	19185.37
492.30	19325.80
492.48	19400.70
492.66	19709.65
492.84	19557.52
493.01	19882.85
493.19	19747.10
493.37	20266.70
493.54	20203.50
493.72	20315.85
493.90	20180.10
494.08	20425.86
494.25	20767.57
494.43	20662.25
494.61	20807.36
494.79	21069.50
494.96	20886.94
495.14	21146.74
495.32	21322.28
495.49	21191.21
495.67	21420.58
495.85	21755.28
496.02	21825.50
496.20	22349.78
496.38	21979.97
496.55	22104.02
496.73	22843.63
496.91	22113.38
497.09	22588.51
497.26	22593.19
497.44	22551.06
497.62	22728.94
497.79	23035.55
497.97	22881.08
498.14	23213.43
498.32	23321.10
498.50	23587.92
498.67	23527.06
498.85	23571.54
499.03	23520.04
499.20	23798.57
499.38	23665.16
499.56	23939.00
499.73	24032.62
499.91	24400.08
500.08	24201.14
500.26	24336.89
500.44	24233.91
500.61	24144.97
500.79	24493.71
500.97	24713.72
501.14	24891.60
501.32	24980.54
501.49	24922.02
501.67	25181.82
501.84	25219.27
502.02	25025.01
502.20	25289.49
502.37	25092.88
502.55	25324.60
502.72	25315.23
502.90	25654.61
503.07	25717.81
503.25	25450.99
503.43	25846.54
503.60	26043.14
503.78	26071.23
503.95	26127.40
504.13	26216.34
504.30	26492.52
504.48	26169.53
504.65	26256.13
504.83	26682.11
505.01	26726.58
505.18	26672.74
505.36	27040.21
505.53	26909.14
505.71	27241.50
505.88	27365.54
506.06	26916.16
506.23	27094.04
506.41	27276.60
506.58	27346.82
506.76	27239.15
506.93	27510.66
507.11	27686.20
507.28	27632.36
507.46	27791.52
507.63	27988.13
507.81	27866.42
507.98	27812.59
508.16	28423.47
508.33	28236.22
508.50	28077.07
508.68	28109.83
508.85	28716.03
509.03	28437.51
509.20	28423.47
509.38	28929.02
509.55	28701.99
509.73	29158.39
509.90	28854.12
510.08	29097.54
510.25	29085.84
510.42	29340.96
510.60	29244.99
510.77	29345.64
510.95	29443.94
511.12	29596.07
511.30	29717.78
511.47	29762.25
511.64	30181.21
511.82	29757.57
511.99	30017.37
512.17	29902.68
512.34	29802.04
512.51	30551.01
512.69	30492.50
512.86	30314.62
513.04	30707.83
513.21	30574.42
513.38	30780.39
513.56	30761.66
513.73	30565.06
513.90	30756.98
514.08	30691.44
514.25	30813.15
514.43	31189.98
514.60	31068.27
514.77	31459.14
514.95	31353.82
515.12	30988.69
515.29	31367.86
515.47	31901.50
515.64	31428.71
515.81	31367.86
515.99	31931.93
516.16	31885.12
516.33	31756.39
516.51	31807.88
516.68	31936.61
516.85	32055.98
517.03	32091.09
517.20	32184.71
517.37	32304.07
517.54	32165.98
517.72	32800.27
517.89	32311.10
518.06	32697.28
518.24	32535.79
518.41	32133.21
518.58	32606.00
518.75	32224.50
518.93	33083.47
519.10	32514.72
519.27	32971.13
519.45	32615.37
519.62	33158.37
519.79	33645.20
519.96	33083.47
520.14	33324.55
520.31	33387.74
520.48	33184.12
520.65	33411.15
520.83	33694.35
521.00	34478.43
521.17	33511.79
521.34	33369.02
521.52	34178.84
521.69	34050.11
521.86	34265.44
522.03	34501.84
522.20	34824.83
522.38	34548.65
522.55	34396.51
522.72	34558.01
522.89	34429.28
523.07	34859.94
523.24	34639.93
523.41	34962.92
523.58	34583.76
523.75	35005.05
523.92	34602.48
524.10	35110.38
524.27	35012.07
524.44	35101.01
524.61	35641.68
524.78	35283.58
524.96	35484.86
525.13	35653.38
525.30	35534.01
525.47	35686.15
525.64	35571.46
525.81	35700.19
525.98	35744.66
526.16	35702.53
526.33	35702.53
526.50	35922.54
526.67	35779.77
526.84	35903.82
527.01	35943.61
527.18	36149.57
527.36	36128.51
527.53	36198.73
527.70	36449.16
527.87	36650.45
528.04	36334.48
528.21	36835.35
528.38	36517.04
528.55	36472.57
528.72	36678.54
528.89	36458.52
529.07	36463.21
529.24	36407.03
529.41	36802.58
529.58	36603.64
529.75	37165.37
529.92	37139.62
530.09	37146.64
530.26	36931.31
530.43	37511.77
530.60	37046.00
530.77	37383.04
530.94	37177.07
531.11	37298.78
531.28	37104.51
531.46	37413.46
531.63	37511.77
531.80	37804.33
531.97	37684.97
532.14	38038.39
532.31	37638.15
532.48	38005.62
532.65	38553.30
532.82	37951.79
532.99	37965.83
533.16	38237.33
533.33	37900.29
533.50	38506.49
533.67	38068.81
533.84	37469.64
534.01	38007.96
534.18	38384.79
534.35	38974.60
534.52	38653.95
534.69	38937.15
534.86	38628.20
535.03	38595.43
535.20	38565.01
535.37	38806.08
535.54	38806.08
535.71	38609.48
535.88	39388.88
536.05	39318.66
536.22	39222.70
536.38	39313.98
536.55	38859.91
536.72	39220.36
536.89	39522.29
537.06	39154.82
537.23	39414.62
537.40	39182.91
537.57	38986.30
537.74	39328.02
537.91	39552.71
538.08	39164.18
538.25	39482.50
538.42	39480.16
538.59	40208.06
538.75	39791.45
538.92	39770.38
539.09	40013.80
539.26	39564.42
539.43	40011.46
539.60	39882.73
539.77	39955.29
539.94	40002.10
540.11	40170.61
540.28	40072.31
540.44	40332.11
540.61	39917.84
540.78	39838.26
540.95	40046.57
541.12	40041.88
541.29	39924.86
541.46	40624.68
541.62	40528.72
541.79	40786.18
541.96	40549.78
542.13	40591.91
542.30	40751.07
542.47	40556.80
542.63	40884.48
542.80	40849.37
542.97	41249.60
543.14	41249.60
543.31	41074.06
543.48	41088.10
543.64	41237.90
543.81	41434.50
543.98	41565.57
544.15	40980.44
544.32	41574.94
544.48	41673.24
544.65	41790.27
544.82	41525.78
544.99	41368.97
545.16	41790.27
545.32	41858.14
545.49	41738.77
545.66	42328.59
545.83	41654.51
546.00	42330.93
546.16	42330.93
546.33	41741.11
546.50	42087.51
546.67	41937.72
546.83	41619.41
547.00	41689.62
547.17	42218.58
547.34	42347.31
547.50	42408.17
547.67	42838.83
547.84	42583.71
548.00	42429.23
548.17	42387.10
548.34	42518.17
548.51	42843.51
548.67	42836.48
548.84	42384.76
549.01	42398.80
549.18	42698.39
549.34	43210.97
549.51	43407.58
549.68	43016.71
549.84	42586.05
550.01	42974.58
550.18	42845.85
550.34	43248.42
550.51	42871.59
550.68	43192.25
550.84	42815.42
551.01	42775.63
551.18	43297.57
551.34	42983.94
551.51	43929.51
551.68	43002.66
551.84	43391.19
552.01	43096.28
552.18	43496.52
552.34	43040.11
552.51	43873.34
552.68	43187.56
552.84	43393.53
553.01	43430.98
553.18	43571.41
553.34	43700.14
553.51	43480.13
553.67	43936.54
553.84	43964.62
554.01	43852.28
554.17	44051.22
554.34	43739.93
554.51	43372.47
554.67	44154.21
554.84	44093.35
555.00	43538.65
555.17	43838.23
555.33	43866.32
555.50	43849.94
555.67	43854.62
555.83	44376.56
556.00	44414.01
556.16	44610.61
556.33	44170.59
556.50	44282.94
556.66	44605.93
556.83	43922.49
556.99	44453.79
557.16	44610.61
557.32	44259.53
557.49	44708.91
557.65	43981.01
557.82	44388.26
557.98	44376.56
558.15	44781.47
558.32	44378.90
558.48	44404.64
558.65	44332.09
558.81	44945.31
558.98	44446.77
559.14	44406.98
559.31	44680.83
559.47	44694.87
559.64	44708.91
559.80	44432.73
559.97	44793.17
560.13	44765.09
560.30	44484.22
560.46	44919.56
560.63	45003.82
560.79	45102.12
560.96	45315.11
561.12	45326.81
561.29	44884.45
561.45	44779.13
561.61	45310.43
561.78	45015.52
561.94	44622.31
562.11	45057.65
562.27	44900.84
562.44	44959.35
562.60	45034.25
562.77	45123.19
562.93	44816.58
563.10	45474.27
563.26	45144.25
563.42	45689.60
563.59	45652.15
563.75	45106.80
563.92	44914.88
564.08	45352.56
564.24	45380.65
564.41	45270.64
564.57	45514.06
564.74	45390.01
564.90	45162.98
565.07	45368.94
565.23	45698.96
565.39	45448.52
565.56	45560.87
565.72	45553.85
565.88	45200.43
566.05	45333.84
566.21	45565.55
566.38	45605.34
566.54	45661.51
566.70	45698.96
566.87	45827.69
567.03	45390.01
567.19	45633.42
567.36	46031.32
567.52	45897.91
567.68	46143.66
567.85	45940.04
568.01	45626.40
568.17	45588.95
568.34	45937.69
568.50	45930.67
568.66	45762.15
568.83	45588.95
568.99	46141.32
569.15	45893.22
569.32	46012.59
569.48	45731.73
569.64	46087.49
569.81	46101.53
569.97	46082.81
570.13	46028.98
570.30	45773.86
570.46	46408.14
570.62	46099.19
570.78	46377.72
570.95	46153.02
571.11	46174.09
571.27	46108.55
571.43	46005.57
571.60	45780.88
571.76	45876.84
571.92	46099.19
572.09	45883.86
572.25	45923.65
572.41	45951.74
572.57	46476.02
572.74	46354.31
572.90	45705.98
573.06	46408.14
573.22	46398.78
573.38	46253.67
573.55	46632.83
573.71	46679.64
573.87	46211.54
574.03	46546.23
574.20	46581.34
574.36	46403.46
574.52	46447.93
574.68	46124.94
574.84	46106.21
575.01	46850.50
575.17	46696.03
575.33	46335.59
575.49	45963.44
575.65	46518.15
575.82	46323.88
575.98	46305.16
576.14	46611.77
576.30	46569.64
576.46	46443.25
576.62	46181.11
576.79	46188.13
576.95	46192.81
577.11	46169.41
577.27	46494.74
577.43	46457.29
577.59	46377.72
577.75	46092.17
577.92	45610.02
578.08	46761.56
578.24	46263.03
578.40	46588.36
578.56	46632.83
578.72	46447.93
578.88	46398.78
579.04	46267.71
579.21	46190.47
579.37	46927.74
579.53	46913.70
579.69	46382.40
579.85	46733.48
580.01	46162.39
580.17	46389.42
580.33	46876.25
580.49	46461.97
580.65	46272.39
580.82	46431.55
580.98	46784.97
581.14	46160.05
581.30	46501.76
581.46	46239.62
581.62	46092.17
581.78	46178.77
581.94	46614.11
582.10	46546.23
582.26	46972.21
582.42	46700.71
582.58	46749.86
582.74	46902.00
582.90	46560.28
583.06	46380.06
583.22	46693.69
583.38	46349.63
583.54	46387.08
583.70	46583.68
583.86	46604.75
584.02	46567.30
584.18	46892.63
584.34	46808.37
584.50	46717.09
584.66	46986.25
584.82	46628.15
584.98	47395.85
585.14	46923.06
585.30	46628.15
585.46	46845.82
585.62	46850.50
585.78	47037.75
585.94	46632.83
586.10	46686.67
586.26	46539.21
586.42	46897.31
586.58	46663.26
586.74	46323.88
586.90	46576.66
587.06	46600.07
587.22	46845.82
587.38	46649.22
587.54	46916.04
587.70	47227.33
587.86	46941.78
588.02	46745.18
588.18	46890.29
588.34	46625.81
588.49	46941.78
588.65	46937.10
588.81	46754.54
588.97	46934.76
589.13	47016.68
589.29	46784.97
589.45	47363.08
589.61	47100.94
589.77	47407.55
589.93	47016.68
590.08	47360.74
