SpectraSuite Data File
++++++++++++++++++++++++++++++++++++
Date: Fri Oct 25 10:48:28 EDT 2013
User: price-jones
Dark Spectrum Present: No
Reference Spectrum Present: No
Number of Sampled Component Spectra: 1
Spectrometers: USB2+H05261
Integration Time (usec): 100000 (USB2+H05261)
Spectra Averaged: 1 (USB2+H05261)
Boxcar Smoothing: 0 (USB2+H05261)
Correct for Electrical Dark: No (USB2+H05261)
Strobe/Lamp Enabled: No (USB2+H05261)
Correct for Detector Non-linearity: No (USB2+H05261)
Correct for Stray Light: No (USB2+H05261)
Number of Pixels in Processed Spectrum: 2048
>>>>>Begin Processed Spectral Data<<<<<
365.73	220.01
365.92	220.01
366.12	220.01
366.32	70.22
366.52	0.00
366.72	0.00
366.91	0.00
367.11	84.26
367.31	0.00
367.51	23.41
367.70	28.09
367.90	95.96
368.10	121.71
368.30	119.37
368.49	86.60
368.69	114.69
368.89	21.06
369.09	18.72
369.28	131.07
369.48	93.62
369.68	88.94
369.87	98.30
370.07	138.09
370.27	88.94
370.47	173.20
370.66	404.91
370.86	465.77
371.06	514.92
371.25	512.58
371.45	449.38
371.65	538.32
371.84	514.92
372.04	428.32
372.24	477.47
372.44	472.79
372.63	514.92
372.83	540.66
373.03	559.39
373.22	535.98
373.42	519.60
373.62	538.32
373.81	603.86
374.01	571.09
374.21	599.18
374.40	571.09
374.60	596.84
374.79	545.34
374.99	648.33
375.19	580.45
375.38	608.54
375.58	566.41
375.78	685.78
375.97	603.86
376.17	674.07
376.37	674.07
376.56	634.29
376.76	636.63
376.95	667.05
377.15	706.84
377.35	627.26
377.54	678.76
377.74	629.60
377.93	669.39
378.13	718.54
378.33	730.25
378.52	718.54
378.72	662.37
378.91	727.91
379.11	706.84
379.31	706.84
379.50	739.61
379.70	739.61
379.89	774.72
380.09	669.39
380.28	709.18
380.48	758.33
380.68	727.91
380.87	692.80
381.07	697.48
381.26	814.51
381.46	727.91
381.65	763.01
381.85	723.23
382.04	697.48
382.24	758.33
382.43	826.21
382.63	720.88
382.83	739.61
383.02	774.72
383.22	763.01
383.41	727.91
383.61	802.80
383.80	781.74
384.00	795.78
384.19	856.64
384.39	798.12
384.58	833.23
384.78	891.74
384.97	842.59
385.17	851.96
385.36	779.40
385.56	737.27
385.75	877.70
385.95	830.89
386.14	894.08
386.34	802.80
386.53	868.34
386.72	830.89
386.92	926.85
387.11	901.11
387.31	908.13
387.50	898.77
387.70	868.34
387.89	896.43
388.09	901.11
388.28	978.34
388.48	952.60
388.67	1011.11
388.86	983.02
389.06	973.66
389.25	905.79
389.45	908.13
389.64	959.62
389.84	1043.88
390.03	1032.18
390.22	1025.15
390.42	1055.58
390.61	1060.26
390.81	1013.45
391.00	1146.86
391.19	1088.35
391.39	1020.47
391.58	1095.37
391.78	1090.69
391.97	1174.95
392.16	994.73
392.36	1231.12
392.55	1097.71
392.75	1069.62
392.94	936.21
393.13	1093.03
393.33	1015.79
393.52	1046.22
393.71	1100.05
393.91	1102.39
394.10	1165.59
394.29	1163.25
394.49	1249.85
394.68	1240.48
394.88	1212.40
395.07	1210.06
395.26	1224.10
395.46	1287.29
395.65	1266.23
395.84	1214.74
396.04	1273.25
396.23	1249.85
396.42	1198.35
396.62	1233.46
396.81	1235.80
397.00	1289.64
397.19	1228.78
397.39	1336.45
397.58	1373.89
397.77	1504.96
397.97	1474.54
398.16	1460.49
398.35	1504.96
398.55	1413.68
398.74	1563.48
398.93	1535.39
399.12	1521.35
399.32	1497.94
399.51	1537.73
399.70	1530.71
399.90	1619.65
400.09	1598.59
400.28	1610.29
400.47	1652.42
400.67	1664.12
400.86	1659.44
401.05	1645.40
401.24	1771.79
401.44	1713.27
401.63	1717.95
401.82	1706.25
402.01	1774.13
402.21	1701.57
402.40	1834.98
402.59	1764.76
402.78	1818.60
402.97	1818.60
403.17	1834.98
403.36	1785.83
403.55	1834.98
403.74	2001.16
403.93	1858.39
404.13	1846.68
404.32	1933.28
404.51	1912.22
404.70	1886.47
404.89	1968.39
405.09	2015.20
405.28	1966.05
405.47	1884.13
405.66	2012.86
405.85	2026.90
406.05	1935.62
406.24	1989.46
406.43	1961.37
406.62	2033.93
406.81	2115.84
407.00	2054.99
407.20	2153.29
407.39	2045.63
407.58	2209.47
407.77	2146.27
407.96	2197.76
408.15	2279.68
408.34	2211.81
408.54	2300.75
408.73	2223.51
408.92	2345.22
409.11	2319.47
409.30	2270.32
409.49	2253.94
409.68	2239.89
409.87	2253.94
410.07	2324.15
410.26	2291.38
410.45	2431.82
410.64	2495.01
410.83	2576.93
411.02	2523.10
411.21	2600.34
411.40	2516.08
411.59	2609.70
411.78	2560.55
411.98	2649.49
412.17	2642.46
412.36	2705.66
412.55	2665.87
412.74	2698.64
412.93	2801.62
413.12	2717.36
413.31	2874.18
413.50	2820.35
413.69	2801.62
413.88	2904.60
414.07	2944.39
414.26	2911.63
414.45	3033.33
414.64	2892.90
414.83	2984.18
415.02	3171.43
415.22	3098.87
415.41	3110.57
415.60	3122.27
415.79	3190.15
415.98	3159.72
416.17	3234.62
416.36	3222.92
416.55	3253.34
416.74	3248.66
416.93	3325.90
417.12	3232.28
417.31	3243.98
417.50	3267.39
417.69	3482.72
417.88	3410.16
418.07	3410.16
418.26	3452.29
418.45	3452.29
418.64	3637.19
418.83	3651.24
419.02	3606.77
419.21	3583.36
419.39	3646.55
419.58	3475.70
419.77	3578.68
419.96	3578.68
420.15	3754.22
420.34	3684.00
420.53	3660.60
420.72	3779.97
420.91	3770.60
421.10	3756.56
421.29	3904.01
421.48	3758.90
421.67	3768.26
421.86	3892.31
422.05	3803.37
422.24	3796.35
422.43	3880.61
422.61	3803.37
422.80	3920.40
422.99	3899.33
423.18	3873.59
423.37	4002.32
423.56	3995.29
423.75	3885.29
423.94	3866.56
424.13	3684.00
424.32	3761.24
424.50	3911.04
424.69	3901.67
424.88	4063.17
425.07	4042.11
425.26	3775.28
425.45	3962.53
425.64	3955.51
425.83	3985.93
426.01	3964.87
426.20	4086.58
426.39	4084.23
426.58	3992.95
426.77	4079.55
426.96	4004.66
427.15	3976.57
427.33	4070.19
427.52	4100.62
427.71	4131.05
427.90	4154.45
428.09	4187.22
428.28	4250.41
428.46	4372.12
428.65	4175.52
428.84	4402.55
429.03	4285.52
429.22	4016.36
429.40	4196.58
429.59	4098.28
429.78	3988.27
429.97	4058.49
430.16	4149.77
430.34	4229.35
430.53	4290.20
430.72	4248.07
430.91	4215.30
431.10	4397.87
431.28	4402.55
431.47	4683.41
431.66	4727.88
431.85	4641.28
432.03	4608.51
432.22	4699.80
432.41	4638.94
432.60	4561.70
432.79	4758.31
432.97	4772.35
433.16	4685.75
433.35	4643.62
433.54	4690.43
433.72	4608.51
433.91	4643.62
434.10	4781.71
434.28	4795.76
434.47	4975.98
434.66	4812.14
434.85	4978.32
435.03	4922.15
435.22	5022.79
435.41	5102.37
435.59	5008.75
435.78	5078.96
435.97	5172.58
436.16	5076.62
436.34	5100.03
436.53	5111.73
436.72	5315.36
436.90	5078.96
437.09	5378.55
437.28	5060.24
437.46	5032.15
437.65	5181.95
437.84	5188.97
438.02	5195.99
438.21	5305.99
438.40	5275.57
438.58	5357.49
438.77	5518.98
438.96	5394.93
439.14	5596.22
439.33	5561.11
439.52	5577.50
439.70	5558.77
439.89	5769.42
440.08	5598.56
440.26	5926.24
440.45	5753.04
440.63	5809.21
440.82	6043.26
441.01	5947.30
441.19	5916.87
441.38	5959.00
441.57	6057.31
441.75	6106.46
441.94	6204.76
442.12	6216.46
442.31	6263.27
442.50	6420.09
442.68	6335.83
442.87	6326.47
443.05	6375.62
443.24	6431.79
443.43	6368.60
443.61	6331.15
443.80	6530.09
443.98	6296.04
444.17	6314.77
444.35	6457.54
444.54	6555.84
444.73	6450.52
444.91	6511.37
445.10	6551.16
445.28	6464.56
445.47	6246.89
445.65	6539.46
445.84	6452.86
446.02	6518.39
446.21	6436.47
446.39	6532.44
446.58	6619.04
446.77	6754.79
446.95	6609.67
447.14	6633.08
447.32	6794.58
447.51	6738.40
447.69	6724.36
447.88	6684.57
448.06	6862.45
448.25	6604.99
448.43	6853.09
448.62	6541.80
448.80	6663.51
448.99	6771.17
449.17	6881.18
449.36	6726.70
449.54	6974.80
449.73	7176.08
449.91	7180.76
450.10	7035.65
450.28	7281.41
450.46	6972.46
450.65	7258.00
450.83	7300.13
451.02	7316.51
451.20	7389.07
451.39	7185.44
451.57	7016.93
451.76	7255.66
451.94	7096.50
452.13	7250.98
452.31	7091.82
452.49	7082.46
452.68	7346.94
452.86	7094.16
453.05	7445.24
453.23	7248.64
453.42	7449.93
453.60	7227.57
453.78	7480.35
453.97	7410.14
454.15	7447.58
454.34	7332.90
454.52	7573.97
454.70	7602.06
454.89	7478.01
455.07	7494.40
455.26	7641.85
455.44	7808.03
455.62	7873.56
455.81	7784.62
455.99	7845.48
456.17	7861.86
456.36	7871.22
456.54	7810.37
456.73	8039.74
456.91	8175.49
457.09	8280.82
457.28	8100.59
457.46	8049.10
457.64	8030.38
457.83	8018.68
458.01	7889.95
458.19	8393.16
458.38	8142.72
458.56	8393.16
458.74	8439.97
458.93	8318.26
459.11	8329.97
459.29	8205.92
459.48	8381.46
459.66	8168.47
459.84	8458.70
460.03	8643.60
460.21	8421.25
460.39	8503.17
460.57	8514.87
460.76	8592.11
460.94	8683.39
461.12	8533.59
461.31	8524.23
461.49	8634.24
461.67	8620.19
461.85	8978.30
462.04	8718.50
462.22	9341.08
462.40	8732.54
462.59	8987.66
462.77	8863.61
462.95	8910.42
463.13	8870.63
463.32	8940.85
463.50	9125.75
463.68	8828.50
463.86	8924.46
464.05	8884.67
464.23	8854.25
464.41	9132.77
464.59	8896.38
464.78	9102.34
464.96	9050.85
465.14	9219.37
465.32	9081.28
465.50	9219.37
465.69	9420.66
465.87	9167.88
466.05	9226.39
466.23	8999.36
466.41	9305.97
466.60	9486.19
466.78	9212.35
466.96	9214.69
467.14	9123.41
467.32	9530.66
467.51	9467.47
467.69	9282.56
467.87	9240.44
468.05	9582.15
468.23	9687.48
468.41	9387.89
468.60	9432.36
468.78	9537.68
468.96	9640.67
469.14	9708.54
469.32	9827.91
469.50	9305.97
469.69	9654.71
469.87	9872.38
470.05	9928.55
470.23	9797.48
470.41	9720.24
470.59	9769.40
470.77	9806.84
470.95	9818.55
471.14	9989.41
471.32	10019.83
471.50	10333.47
471.68	10225.80
471.86	10354.53
472.04	10307.72
472.22	10567.52
472.40	10188.35
472.58	10291.34
472.77	10586.24
472.95	10626.03
473.13	10846.04
473.31	10607.31
473.49	10651.78
473.67	10450.49
473.85	10801.57
474.03	11049.67
474.21	10967.75
474.39	10995.84
474.57	10881.15
474.75	11026.26
474.93	11304.79
475.12	10974.77
475.30	11220.53
475.48	11307.13
475.66	11463.94
475.84	11557.57
476.02	11538.84
476.20	11316.49
476.38	11662.89
476.56	11744.81
476.74	11786.94
476.92	11971.84
477.10	11836.09
477.28	12358.03
477.46	12070.14
477.64	12201.21
477.82	12217.60
478.00	12624.85
478.18	12521.87
478.36	12664.64
478.54	12678.68
478.72	12713.79
478.90	12978.27
479.08	13219.35
479.26	13186.58
479.44	13095.30
479.62	13179.56
479.80	13018.06
479.98	13415.95
480.16	13582.13
480.34	13614.90
480.52	13771.71
480.70	13696.82
480.88	13919.17
481.06	14061.94
481.24	13860.65
481.41	14518.34
481.59	14391.95
481.77	14441.11
481.95	14700.90
482.13	14635.37
482.31	14553.45
482.49	15042.62
482.67	14820.27
482.85	15087.09
483.03	15587.97
483.21	15372.64
483.39	15316.47
483.57	15213.48
483.74	15517.75
483.92	15873.51
484.10	15524.77
484.28	15812.66
484.46	16203.53
484.64	16407.16
484.82	16262.04
485.00	16271.40
485.18	16477.37
485.35	16446.94
485.53	16348.64
485.71	16320.56
485.89	16812.07
486.07	16444.60
486.25	16739.51
486.43	16975.91
486.61	17123.36
486.78	17331.67
486.96	17490.82
487.14	17781.05
487.32	17811.48
487.50	18031.49
487.68	18347.46
487.85	18541.72
488.03	18420.02
488.21	18499.59
488.39	18567.47
488.57	18986.43
488.75	18855.36
488.92	19131.54
489.10	19248.57
489.28	19414.74
489.46	19704.97
489.64	19683.91
489.81	20137.97
489.99	20341.60
490.17	20063.07
490.35	20673.95
490.53	20283.08
490.70	20393.09
490.88	20638.84
491.06	20524.16
491.24	20898.64
491.41	20959.50
491.59	21010.99
491.77	20688.00
491.95	21312.92
492.13	21273.13
492.30	21600.80
492.48	22197.64
492.66	21881.67
492.84	22115.72
493.01	21991.67
493.19	22078.27
493.37	22490.21
493.54	22693.83
493.72	22546.38
493.90	22822.56
494.08	22965.34
494.25	22899.80
494.43	23578.56
494.61	23667.50
494.79	23482.59
494.96	23761.12
495.14	23491.96
495.32	23803.25
495.49	23800.91
495.67	24102.84
495.85	24086.45
496.02	24449.24
496.20	24414.13
496.38	24261.99
496.55	24451.58
496.73	25127.99
496.91	25163.10
497.09	25219.27
497.26	25064.80
497.44	25256.72
497.62	25315.23
497.79	25528.22
497.97	24989.90
498.14	25640.57
498.32	25816.11
498.50	25841.85
498.67	26005.69
498.85	25996.33
499.03	26604.87
499.20	26384.86
499.38	26349.75
499.56	26232.72
499.73	26508.91
499.91	26527.63
500.08	26892.76
500.26	26459.76
500.44	27239.15
500.61	26745.30
500.79	26869.35
500.97	27199.37
501.14	27297.67
501.32	27391.29
501.49	27386.61
501.67	27372.57
501.84	27489.59
502.02	27496.61
502.20	27791.52
502.37	28224.52
502.55	28128.56
502.72	28060.68
502.90	28437.51
503.07	28261.97
503.25	27957.70
503.43	28486.66
503.60	28465.60
503.78	28453.89
503.95	28343.89
504.13	28849.44
504.30	29055.41
504.48	28465.60
504.65	28769.86
504.83	29057.75
505.01	29621.82
505.18	29453.30
505.36	30026.73
505.53	29439.26
505.71	29921.41
505.88	29898.00
506.06	29839.49
506.23	29764.59
506.41	29385.43
506.58	29853.53
506.76	29788.00
506.93	30326.32
507.11	30323.98
507.28	30314.62
507.46	30487.82
507.63	30401.22
507.81	30094.61
507.98	30445.69
508.16	30824.86
508.33	30796.77
508.50	31133.81
508.68	31140.83
508.85	31257.85
509.03	31777.45
509.20	31281.26
509.38	31288.28
509.55	31412.33
509.73	31557.44
509.90	31440.42
510.08	31447.44
510.25	31798.52
510.42	31805.54
510.60	32093.43
510.77	31819.58
510.95	32407.06
511.12	32144.92
511.30	32009.17
511.47	32741.75
511.64	32975.81
511.82	32905.59
511.99	32320.46
512.17	32598.98
512.34	32617.71
512.51	32526.42
512.69	32685.58
512.86	33120.92
513.04	33315.19
513.21	33109.22
513.38	33408.81
513.56	32973.47
513.73	32994.53
513.90	33340.93
514.08	32795.59
514.25	33380.72
514.43	33357.32
514.60	33619.46
514.77	33481.36
514.95	33750.52
515.12	34108.63
515.29	34005.64
515.47	34160.12
515.64	34251.40
515.81	34127.35
515.99	33715.42
516.16	34328.64
516.33	34005.64
516.51	33855.85
516.68	33883.94
516.85	34022.03
517.03	34054.79
517.20	34024.37
517.37	34511.20
517.54	34319.28
517.72	34609.50
517.89	34450.35
518.06	34108.63
518.24	34244.38
518.41	34569.71
518.58	34948.88
518.75	35012.07
518.93	35218.04
519.10	34845.90
519.27	35168.89
519.45	35246.13
519.62	35145.48
519.79	35248.47
519.96	35784.45
520.14	36018.50
520.31	35739.98
520.48	35924.88
520.65	35861.69
520.83	36325.11
521.00	36243.20
521.17	36285.33
521.34	36360.22
521.52	36416.40
521.69	36428.10
521.86	36493.63
522.03	36659.81
522.20	36802.58
522.38	36842.37
522.55	36615.34
522.72	36718.32
522.89	36575.55
523.07	36926.63
523.24	36828.33
523.41	37202.82
523.58	37046.00
523.75	37310.48
523.92	37249.63
524.10	37504.74
524.27	37624.11
524.44	37593.68
524.61	37970.51
524.78	37787.95
524.96	37778.59
525.13	37708.37
525.30	37979.87
525.47	38644.59
525.64	37949.45
525.81	37818.38
525.98	37741.14
526.16	37872.21
526.33	37574.96
526.50	38000.94
526.67	37909.66
526.84	38052.43
527.01	38033.71
527.18	38490.11
527.36	38483.09
527.53	38911.41
527.70	38888.00
527.87	38932.47
528.04	38630.54
528.21	38567.35
528.38	38707.78
528.55	38799.06
528.72	38920.77
528.89	39122.05
529.07	39285.89
529.24	39012.05
529.41	39091.63
529.58	39461.43
529.75	39157.16
529.92	39007.37
530.09	39454.41
530.26	39651.02
530.43	39566.76
530.60	39023.75
530.77	39468.45
530.94	39688.46
531.11	39634.63
531.28	39676.76
531.46	40048.91
531.63	39768.04
531.80	39856.98
531.97	40030.18
532.14	39779.74
532.31	39824.22
532.48	39920.18
532.65	39934.22
532.82	40259.55
532.99	40116.78
533.16	40191.68
533.33	40027.84
533.50	41076.40
533.67	40341.47
533.84	40486.59
534.01	40481.91
534.18	40137.85
534.35	40800.22
534.52	40540.42
534.69	40587.23
534.86	40205.72
535.03	40552.12
535.20	41177.04
535.37	41305.77
535.54	41256.62
535.71	41067.04
535.88	40996.82
536.05	40896.18
536.22	40664.47
536.38	41322.16
536.55	41256.62
536.72	41027.25
536.89	40795.54
537.06	41010.87
537.23	41656.85
537.40	41223.86
537.57	41464.93
537.74	41621.75
537.91	41769.20
538.08	41710.69
538.25	41172.36
538.42	41486.00
538.59	41958.78
538.75	41462.59
538.92	41811.33
539.09	41888.57
539.26	41780.90
539.43	41996.23
539.60	42003.25
539.77	41890.91
539.94	42057.09
540.11	41933.04
540.28	41516.42
540.44	41949.42
540.61	42068.79
540.78	41930.70
540.95	42099.22
541.12	41991.55
541.29	41900.27
541.46	42202.20
541.62	42597.75
541.79	42281.78
541.96	42312.20
542.13	42000.91
542.30	42312.20
542.47	42590.73
542.63	42581.37
542.80	42714.78
542.97	42880.95
543.14	42974.58
543.31	42660.94
543.48	42946.49
543.64	43545.67
543.81	43372.47
543.98	43461.41
544.15	43283.53
544.32	43433.32
544.48	43524.60
544.65	43650.99
544.82	43641.63
544.99	42871.59
545.16	43346.72
545.32	43124.37
545.49	43730.57
545.66	43585.46
545.83	43679.08
546.00	43503.54
546.16	43559.71
546.33	43257.78
546.50	43269.48
546.67	43491.83
546.83	43552.69
547.00	43515.24
547.17	43885.04
547.34	43791.42
547.50	44098.03
547.67	43613.54
547.84	44041.86
548.00	43941.22
548.17	44133.14
548.34	44016.11
548.51	44004.41
548.67	44264.21
548.84	44556.78
549.01	44463.16
549.18	44266.55
549.34	44083.99
549.51	44559.12
549.68	44535.71
549.84	44509.97
550.01	45022.54
550.18	44318.04
550.34	44418.69
550.51	43983.35
550.68	44556.78
550.84	44308.68
551.01	44708.91
551.18	44706.57
551.34	44165.91
551.51	44634.02
551.68	44603.59
551.84	44748.70
552.01	44655.08
552.18	44940.63
552.34	44847.00
552.51	44416.35
552.68	44645.72
552.84	44800.19
553.01	45146.59
553.18	45116.17
553.34	44987.44
553.51	44680.83
553.67	44877.43
553.84	45113.83
554.01	45085.74
554.17	45146.59
554.34	45492.99
554.51	45024.89
554.67	45287.03
554.84	45352.56
555.00	45024.89
555.17	45177.02
555.33	45336.18
555.50	44879.77
555.67	45350.22
555.83	45563.21
556.00	45492.99
556.16	45539.80
556.33	45485.97
556.50	45612.36
556.66	45610.02
556.83	45347.88
556.99	45390.01
557.16	45727.05
557.32	45251.92
557.49	45535.12
557.65	45088.08
557.82	45518.74
557.98	45511.72
558.15	45649.81
558.32	45441.50
558.48	45052.97
558.65	45970.46
558.81	45280.00
558.98	45336.18
559.14	45820.67
559.31	45673.21
559.47	45778.54
559.64	46138.98
559.80	45792.58
559.97	46162.39
560.13	45577.25
560.30	45607.68
560.46	45881.52
560.63	45940.04
560.79	46387.08
560.96	46199.83
561.12	46064.08
561.29	46171.75
561.45	45705.98
561.61	46073.45
561.78	45436.82
561.94	45668.53
562.11	45813.65
562.27	45923.65
562.44	46026.63
562.60	46375.37
562.77	46302.82
562.93	45883.86
563.10	45975.14
563.26	45701.30
563.42	46422.19
563.59	46452.61
563.75	46454.95
563.92	46459.63
564.08	46295.80
564.24	46571.98
564.41	46588.36
564.57	46089.83
564.74	46274.73
564.90	46700.71
565.07	46272.39
565.23	46349.63
565.39	46071.10
565.56	46651.56
565.72	46272.39
565.88	46335.59
566.05	45867.48
566.21	46096.85
566.38	46153.02
566.54	46138.98
566.70	46213.88
566.87	46763.90
567.03	45958.76
567.19	46944.12
567.36	46588.36
567.52	46604.75
567.68	46508.79
567.85	46031.32
568.01	46066.42
568.17	46286.43
568.34	46429.21
568.50	46300.48
568.66	46342.61
568.83	46206.86
568.99	46405.80
569.15	46389.42
569.32	46326.22
569.48	46370.69
569.64	46555.60
569.81	46408.14
569.97	46110.89
570.13	46092.17
570.30	46108.55
570.46	46080.47
570.62	46190.47
570.78	45401.71
570.95	46099.19
571.11	46316.86
571.27	46309.84
571.43	46782.63
571.60	46677.30
571.76	46396.44
571.92	46300.48
572.09	46674.96
572.25	46270.05
572.41	46614.11
572.57	46412.82
572.74	47100.94
572.90	46515.81
573.06	46653.90
573.22	46902.00
573.38	46539.21
573.55	46321.54
573.71	46766.24
573.87	46827.10
574.03	46550.91
574.20	46518.15
574.36	46525.17
574.52	46349.63
574.68	46768.58
574.84	46555.60
575.01	46457.29
575.17	46342.61
575.33	46387.08
575.49	46588.36
575.65	46705.39
575.82	46714.75
575.98	46223.24
576.14	46595.38
576.30	46836.46
576.46	46906.68
576.62	46099.19
576.79	46431.55
576.95	46227.92
577.11	46773.27
577.27	46831.78
577.43	46700.71
577.59	46707.73
577.75	46714.75
577.92	46424.53
578.08	46401.12
578.24	46515.81
578.40	46782.63
578.56	46487.72
578.72	46689.01
578.88	46766.24
579.04	46932.42
579.21	46347.29
579.37	46834.12
579.53	46733.48
579.69	46773.27
579.85	46726.46
580.01	46775.61
580.17	47075.19
580.33	46724.11
580.49	47082.22
580.65	46981.57
580.82	46703.05
580.98	46923.06
581.14	46277.07
581.30	47100.94
581.46	46731.14
581.62	46986.25
581.78	46759.22
581.94	47241.37
582.10	46836.46
582.26	47049.45
582.42	46665.60
582.58	47107.96
582.74	47023.70
582.90	47206.26
583.06	46981.57
583.22	46958.17
583.38	46974.55
583.54	46909.02
583.70	46536.87
583.86	46513.47
584.02	46724.11
584.18	46822.42
584.34	46775.61
584.50	46784.97
584.66	46986.25
584.82	46478.36
584.98	46890.29
585.14	47079.88
585.30	47061.15
585.46	46700.71
585.62	46564.96
585.78	46913.70
585.94	46368.35
586.10	46649.22
586.26	46698.37
586.42	46909.02
586.58	46843.48
586.74	46897.31
586.90	46768.58
587.06	46749.86
587.22	46925.40
587.38	46328.56
587.54	46899.65
587.70	46960.51
587.86	46761.56
588.02	46733.48
588.18	47063.49
588.34	46424.53
588.49	46295.80
588.65	46309.84
588.81	46335.59
588.97	46501.76
589.13	46443.25
589.29	46506.44
589.45	46803.69
589.61	46635.17
589.77	46974.55
589.93	46927.74
