SpectraSuite Data File
++++++++++++++++++++++++++++++++++++
Date: Fri Oct 25 11:23:21 EDT 2013
User: price-jones
Dark Spectrum Present: No
Reference Spectrum Present: No
Number of Sampled Component Spectra: 1
Spectrometers: USB2+H05261
Integration Time (usec): 100000 (USB2+H05261)
Spectra Averaged: 1 (USB2+H05261)
Boxcar Smoothing: 0 (USB2+H05261)
Correct for Electrical Dark: No (USB2+H05261)
Strobe/Lamp Enabled: No (USB2+H05261)
Correct for Detector Non-linearity: No (USB2+H05261)
Correct for Stray Light: No (USB2+H05261)
Number of Pixels in Processed Spectrum: 2048
>>>>>Begin Processed Spectral Data<<<<<
365.73	250.44
365.92	250.44
366.12	250.44
366.32	102.98
366.52	126.39
366.72	91.28
366.91	131.07
367.11	152.13
367.31	79.58
367.51	117.03
367.70	77.24
367.90	128.73
368.10	154.48
368.30	170.86
368.49	149.79
368.69	196.60
368.89	124.05
369.09	131.07
369.28	182.56
369.48	140.43
369.68	196.60
369.87	138.09
370.07	166.18
370.27	252.78
370.47	322.99
370.66	571.09
370.86	594.50
371.06	582.79
371.25	678.76
371.45	645.99
371.65	655.35
371.84	734.93
372.04	678.76
372.24	697.48
372.44	702.16
372.63	732.59
372.83	744.29
373.03	777.06
373.22	711.52
373.42	791.10
373.62	781.74
373.81	744.29
374.01	779.40
374.21	758.33
374.40	868.34
374.60	830.89
374.79	816.85
374.99	758.33
375.19	880.04
375.38	840.25
375.58	784.08
375.78	919.83
375.97	851.96
376.17	830.89
376.37	800.46
376.56	807.48
376.76	917.49
376.95	877.70
377.15	767.70
377.35	870.68
377.54	922.17
377.74	849.61
377.93	947.92
378.13	922.17
378.33	929.19
378.52	891.74
378.72	858.98
378.91	908.13
379.11	931.53
379.31	971.32
379.50	926.85
379.70	936.21
379.89	999.41
380.09	926.85
380.28	971.32
380.48	926.85
380.68	987.71
380.87	912.81
381.07	1022.81
381.26	1069.62
381.46	929.19
381.65	1018.13
381.85	1011.11
382.04	1048.56
382.24	1060.26
382.43	1156.22
382.63	1013.45
382.83	1090.69
383.02	1151.54
383.22	1151.54
383.41	1111.75
383.61	1090.69
383.80	1174.95
384.00	1081.33
384.19	1034.52
384.39	1083.67
384.58	1142.18
384.78	1196.01
384.97	1139.84
385.17	1158.57
385.36	1111.75
385.56	1163.25
385.75	1170.27
385.95	1263.89
386.14	1156.22
386.34	1170.27
386.53	1235.80
386.72	1207.72
386.92	1277.93
387.11	1249.85
387.31	1214.74
387.50	1233.46
387.70	1235.80
387.89	1231.12
388.09	1373.89
388.28	1320.06
388.48	1401.98
388.67	1385.60
388.86	1233.46
389.06	1345.81
389.25	1406.66
389.45	1238.14
389.64	1345.81
389.84	1376.24
390.03	1343.47
390.22	1409.00
390.42	1401.98
390.61	1380.92
390.81	1380.92
391.00	1432.41
391.19	1451.13
391.39	1345.81
391.58	1434.75
391.78	1397.30
391.97	1542.41
392.16	1451.13
392.36	1540.07
392.55	1462.83
392.75	1481.56
392.94	1542.41
393.13	1650.08
393.33	1582.20
393.52	1488.58
393.71	1568.16
393.91	1619.65
394.10	1514.33
394.29	1624.33
394.49	1507.30
394.68	1666.46
394.88	1647.74
395.07	1710.93
395.26	1689.87
395.46	1710.93
395.65	1703.91
395.84	1682.85
396.04	1720.29
396.23	1678.16
396.42	1795.19
396.62	1802.21
396.81	1706.25
397.00	1886.47
397.19	1813.92
397.39	1820.94
397.58	1858.39
397.77	1886.47
397.97	1806.89
398.16	1900.52
398.35	1900.52
398.55	1923.92
398.74	1966.05
398.93	1874.77
399.12	1947.33
399.32	1888.81
399.51	1909.88
399.70	2069.03
399.90	1996.48
400.09	2101.80
400.28	2066.69
400.47	2052.65
400.67	2073.71
400.86	2150.95
401.05	2139.25
401.24	2078.40
401.44	2146.27
401.63	2209.47
401.82	2125.21
402.01	2069.03
402.21	2174.36
402.40	2249.25
402.59	2172.02
402.78	2303.09
402.97	2235.21
403.17	2279.68
403.36	2188.40
403.55	2370.96
403.74	2366.28
403.93	2331.17
404.13	2450.54
404.32	2366.28
404.51	2370.96
404.70	2380.32
404.89	2296.07
405.09	2642.46
405.28	2450.54
405.47	2527.78
405.66	2541.82
405.85	2581.61
406.05	2490.33
406.24	2492.67
406.43	2614.38
406.62	2623.74
406.81	2726.72
407.00	2537.14
407.20	2544.16
407.39	2796.94
407.58	2803.96
407.77	2686.94
407.96	2726.72
408.15	2899.92
408.34	2740.77
408.54	2832.05
408.73	2750.13
408.92	2867.16
409.11	2745.45
409.30	2899.92
409.49	2974.82
409.68	2920.99
409.87	2930.35
410.07	2953.76
410.26	3009.93
410.45	3035.67
410.64	3009.93
410.83	3047.38
411.02	3248.66
411.21	3290.79
411.40	3103.55
411.59	3337.60
411.78	3192.49
411.98	3323.56
412.17	3311.86
412.36	3337.60
412.55	3353.99
412.74	3377.39
412.93	3318.88
413.12	3328.24
413.31	3557.61
413.50	3487.40
413.69	3433.57
413.88	3648.90
414.07	3592.72
414.26	3482.72
414.45	3625.49
414.64	3770.60
414.83	3749.54
415.02	3782.31
415.22	3716.77
415.41	3817.41
415.60	3833.80
415.79	4102.96
415.98	4032.74
416.17	4009.34
416.36	3934.44
416.55	4065.51
416.74	4161.47
416.93	4032.74
417.12	4065.51
417.31	4320.63
417.50	4046.79
417.69	4238.71
417.88	4344.03
418.07	4355.74
418.26	4292.54
418.45	4311.27
418.64	4524.26
418.83	4369.78
419.02	4451.70
419.21	4594.47
419.39	4418.93
419.58	4454.04
419.77	4517.23
419.96	4571.07
420.15	4720.86
420.34	4690.43
420.53	4685.75
420.72	4564.04
420.91	4746.61
421.10	4844.91
421.29	4898.74
421.48	4758.31
421.67	4758.31
421.86	4777.03
422.05	4671.71
422.24	4842.57
422.43	4880.02
422.61	5011.09
422.80	4978.32
422.99	4849.59
423.18	5071.94
423.37	5001.72
423.56	4966.62
423.75	4938.53
423.94	4849.59
424.13	4657.67
424.32	4755.97
424.50	5078.96
424.69	4966.62
424.88	5032.15
425.07	4901.08
425.26	5142.16
425.45	5015.77
425.64	5022.79
425.83	5036.83
426.01	4980.66
426.20	5188.97
426.39	5142.16
426.58	5060.24
426.77	5022.79
426.96	5226.42
427.15	5146.84
427.33	5245.14
427.52	5256.84
427.71	5289.61
427.90	5355.15
428.09	5200.67
428.28	5238.12
428.46	5378.55
428.65	5341.10
428.84	5572.82
429.03	5624.31
429.22	5331.74
429.40	5378.55
429.59	5460.47
429.78	5284.93
429.97	5238.12
430.16	5493.24
430.34	5741.33
430.53	5678.14
430.72	5727.29
430.91	5610.26
431.10	5708.57
431.28	5673.46
431.47	5746.02
431.66	5884.11
431.85	5863.04
432.03	6003.47
432.22	5994.11
432.41	6101.78
432.60	5947.30
432.79	5937.94
432.97	6040.92
433.16	6167.31
433.35	5984.75
433.54	6174.33
433.72	6003.47
433.91	6125.18
434.10	6179.01
434.28	6040.92
434.47	6260.93
434.66	6387.32
434.85	6359.24
435.03	6375.62
435.22	6300.72
435.41	6492.65
435.59	6406.05
435.78	6480.94
435.97	6445.84
436.16	6448.18
436.34	6499.67
436.53	6574.56
436.72	6649.46
436.90	6520.73
437.09	6679.89
437.28	6551.16
437.46	6642.44
437.65	6759.47
437.84	6745.42
438.02	6766.49
438.21	6836.70
438.40	6752.45
438.58	7026.29
438.77	7215.87
438.96	7040.33
439.14	7077.78
439.33	7250.98
439.52	7316.51
439.70	7330.56
439.89	7187.79
440.08	7353.96
440.26	7506.10
440.45	7478.01
440.63	7630.15
440.82	7655.89
441.01	7445.24
441.19	7737.81
441.38	7768.24
441.57	7826.75
441.75	7988.25
441.94	8138.04
442.12	8126.34
442.31	8156.77
442.50	8112.30
442.68	7995.27
442.87	8013.99
443.05	8126.34
443.24	8283.16
443.43	8154.43
443.61	8285.50
443.80	8571.04
443.98	8262.09
444.17	7880.58
444.35	8231.66
444.54	8489.12
444.73	8351.03
444.91	8229.32
445.10	8393.16
445.28	8489.12
445.47	8318.26
445.65	8278.47
445.84	8498.49
446.02	8538.27
446.21	8519.55
446.39	8561.68
446.58	8507.85
446.77	8503.17
446.95	8334.65
447.14	8468.06
447.32	8739.56
447.51	8348.69
447.69	8610.83
447.88	8477.42
448.06	8589.77
448.25	8592.11
448.43	8711.47
448.62	8638.92
448.80	8704.45
448.99	8767.65
449.17	8730.20
449.36	8648.28
449.54	8875.31
449.73	9078.94
449.91	9020.42
450.10	8863.61
450.28	9254.48
450.46	9081.28
450.65	9174.90
450.83	9397.25
451.02	9020.42
451.20	9137.45
451.39	9128.09
451.57	9249.80
451.76	9242.78
451.94	9233.41
452.13	9439.38
452.31	9380.87
452.49	9188.94
452.68	9537.68
452.86	9315.33
453.05	9380.87
453.23	9504.92
453.42	9528.32
453.60	9343.42
453.78	9486.19
453.97	9472.15
454.15	9757.69
454.34	9530.66
454.52	9851.31
454.70	9720.24
454.89	9891.10
455.07	9764.72
455.26	9832.59
455.44	10050.26
455.62	9912.17
455.81	9933.23
455.99	9975.36
456.17	10061.96
456.36	10164.95
456.54	10286.65
456.73	10366.23
456.91	10427.09
457.09	10576.88
457.28	10686.89
457.46	10279.63
457.64	10647.10
457.83	10771.15
458.01	10375.59
458.19	10864.77
458.38	10633.05
458.56	10853.06
458.74	10827.32
458.93	10644.76
459.11	10824.98
459.29	10801.57
459.48	10902.22
459.66	10970.09
459.84	11023.92
460.03	10991.16
460.21	10944.34
460.39	11162.01
460.57	11241.59
460.76	11295.43
460.94	11283.72
461.12	11119.89
461.31	11176.06
461.49	11295.43
461.67	11229.89
461.85	11667.57
462.04	11639.48
462.22	11492.03
462.40	11501.39
462.59	11501.39
462.77	11632.46
462.95	11796.30
463.13	11763.53
463.32	11749.49
463.50	11847.79
463.68	11990.56
463.86	12109.93
464.05	11683.95
464.23	11758.85
464.41	12093.55
464.59	11908.65
464.78	12231.64
464.96	12006.95
465.14	12238.66
465.32	12084.19
465.50	12023.33
465.69	12376.75
465.87	12271.43
466.05	12140.36
466.23	12046.74
466.41	12236.32
466.60	12725.49
466.78	12395.48
466.96	12456.33
467.14	12365.05
467.32	12395.48
467.51	12505.48
467.69	12231.64
467.87	12755.92
468.05	12739.54
468.23	12601.44
468.41	12463.35
468.60	12830.82
468.78	12819.11
468.96	12568.68
469.14	12971.25
469.32	13338.71
469.50	12938.48
469.69	13228.71
469.87	13371.48
470.05	13158.49
470.23	13378.50
470.41	13282.54
470.59	13439.36
470.77	13343.39
470.95	13392.55
471.14	13848.95
471.32	13287.22
471.50	13624.26
471.68	13554.04
471.86	13675.75
472.04	13657.03
472.22	14146.20
472.40	13624.26
472.58	13970.66
472.77	13898.10
472.95	14129.81
473.13	14890.49
473.31	14207.05
473.49	14209.39
473.67	14223.44
473.85	14300.67
474.03	14684.52
474.21	14682.18
474.39	14834.32
474.57	14757.08
474.75	15218.16
474.93	15028.58
475.12	15030.92
475.30	15276.68
475.48	15108.16
475.66	15295.40
475.84	15014.54
476.02	15370.30
476.20	15466.26
476.38	15875.85
476.56	16086.50
476.74	16198.85
476.92	16224.59
477.10	16018.63
477.28	16222.25
477.46	16294.81
477.64	16538.23
477.82	16805.05
478.00	16966.54
478.18	16812.07
478.36	17275.49
478.54	17240.39
478.72	17153.79
478.90	17874.67
479.08	17528.27
479.26	17664.02
479.44	17914.46
479.62	18115.75
479.80	18190.64
479.98	18218.73
480.16	18874.08
480.34	18368.52
480.52	18803.86
480.70	19192.39
480.88	18583.85
481.06	19007.49
481.24	19115.16
481.41	19201.76
481.59	19623.05
481.77	19838.38
481.95	19569.22
482.13	20294.79
482.31	19733.06
482.49	20339.26
482.67	20453.94
482.85	20697.36
483.03	20315.85
483.21	20755.87
483.39	21207.59
483.57	20910.35
483.74	21123.33
483.92	21694.43
484.10	21310.58
484.28	21827.84
484.46	22097.00
484.64	22560.42
484.82	22108.70
485.00	22731.28
485.18	22895.12
485.35	23000.44
485.53	23157.26
485.71	23164.28
485.89	23950.70
486.07	23344.50
486.25	23606.64
486.43	23892.19
486.61	24013.90
486.78	24166.03
486.96	24350.93
487.14	24725.42
487.32	24620.10
487.50	24821.38
487.68	24769.89
487.85	25614.82
488.03	25553.97
488.21	25912.07
488.39	25961.22
488.57	25909.73
488.75	26656.36
488.92	26862.33
489.10	26752.32
489.28	27119.79
489.46	27339.80
489.64	27501.29
489.81	27967.06
489.99	27667.47
490.17	27929.61
490.35	28535.81
490.53	28795.61
490.70	28793.27
490.88	28692.63
491.06	29167.76
491.24	29301.17
491.41	29408.83
491.59	29507.13
491.77	29420.53
491.95	29694.38
492.13	30204.61
492.30	30506.54
492.48	29944.81
492.66	30485.48
492.84	30426.96
493.01	30962.95
493.19	30995.71
493.37	31318.71
493.54	31676.81
493.72	31697.88
493.90	31625.32
494.08	31917.89
494.25	32369.61
494.43	31873.42
494.61	32505.36
494.79	32662.18
494.96	32790.91
495.14	33219.22
495.32	33186.46
495.49	33394.76
495.67	33659.24
495.85	33951.81
496.02	34136.71
496.20	34066.50
496.38	34071.18
496.55	34314.59
496.73	35110.38
496.91	35051.86
497.09	35019.10
497.26	35079.95
497.44	35138.46
497.62	35625.29
497.79	35821.90
497.97	35768.07
498.14	36233.83
498.32	36388.31
498.50	36582.57
498.67	36917.27
498.85	36669.17
499.03	37081.11
499.20	36898.55
499.38	37254.31
499.56	37212.18
499.73	37546.87
499.91	37872.21
500.08	37776.25
500.26	37366.65
500.44	37661.56
500.61	38120.31
500.79	38424.57
500.97	38969.92
501.14	39262.49
501.32	38656.29
501.49	38773.31
501.67	39175.89
501.84	39285.89
502.02	39313.98
502.20	39449.73
502.37	39555.05
502.55	39725.91
502.72	40135.51
502.90	39885.07
503.07	39868.69
503.25	40233.81
503.43	40411.69
503.60	40509.99
503.78	40575.53
503.95	40477.22
504.13	40800.22
504.30	41090.44
504.48	40697.24
504.65	41130.23
504.83	41537.49
505.01	41441.53
505.18	41315.14
505.36	41968.15
505.53	41471.95
505.71	41970.49
505.88	41989.21
506.06	41785.58
506.23	41956.44
506.41	42307.52
506.58	42258.37
506.76	42602.43
506.93	43063.52
507.11	42625.84
507.28	42548.60
507.46	42607.11
507.63	43044.79
507.81	43620.56
507.98	43014.37
508.16	43545.67
508.33	43693.12
508.50	43398.21
508.68	43779.72
508.85	44037.18
509.03	44233.78
509.20	44481.88
509.38	44542.74
509.55	44697.21
509.73	44741.68
509.90	44910.20
510.08	44690.19
510.25	44790.83
510.42	44968.71
510.60	45134.89
510.77	45605.34
510.95	45619.38
511.12	45324.47
511.30	45322.13
511.47	45518.74
511.64	46003.23
511.82	46511.13
511.99	46129.62
512.17	46349.63
512.34	46410.48
512.51	46328.56
512.69	46607.09
512.86	46628.15
513.04	47047.11
513.21	47112.64
513.38	47243.71
513.56	47248.39
513.73	47082.22
513.90	47152.43
514.08	46960.51
514.25	47442.66
514.43	47688.42
514.60	47868.64
514.77	47819.49
514.95	48226.74
515.12	47842.89
515.29	47927.15
515.47	47997.37
515.64	48292.27
515.81	48252.48
515.99	48615.27
516.16	48928.90
516.33	48465.47
516.51	49066.99
516.68	48577.82
516.85	48858.68
517.03	48856.34
517.20	49329.13
517.37	49151.25
517.54	49172.31
517.72	49219.13
517.89	49127.84
518.06	49443.82
518.24	49272.96
518.41	49382.96
518.58	49963.42
518.75	49539.78
518.93	49778.51
519.10	49504.67
519.27	50181.09
519.45	50253.64
519.62	50155.34
519.79	50335.56
519.96	50277.05
520.14	50595.36
520.31	50443.23
520.48	50618.77
520.65	50637.49
520.83	50843.46
521.00	51187.52
521.17	51026.02
521.34	51065.81
521.52	51367.74
521.69	51356.03
521.86	51227.31
522.03	51306.88
522.20	51515.19
522.38	51669.67
522.55	51597.11
522.72	51552.64
522.89	51770.31
523.07	52076.92
523.24	51887.34
523.41	51746.90
523.58	51557.32
523.75	52210.33
523.92	52163.52
524.10	52217.35
524.27	52542.69
524.44	52374.17
524.61	52474.81
524.78	52556.73
524.96	52165.86
525.13	52708.86
525.30	52788.44
525.47	52509.92
525.64	52790.78
525.81	52830.57
525.98	52732.27
526.16	52837.59
526.33	52928.87
526.50	53455.50
526.67	53029.52
526.84	53073.99
527.01	53141.86
527.18	53261.23
527.36	53148.88
527.53	53434.43
527.70	53734.02
527.87	53616.99
528.04	53495.28
528.21	53879.13
528.38	53701.25
528.55	53666.14
528.72	53736.36
528.89	53586.57
529.07	53631.04
529.24	53773.81
529.41	54082.76
529.58	53895.52
529.75	53928.28
529.92	54124.89
530.09	54099.14
530.26	54003.18
530.43	54464.27
530.60	54087.44
530.77	54167.02
530.94	54330.86
531.11	54134.25
531.28	54562.57
531.46	54178.72
531.63	54508.74
531.80	54389.37
531.97	54660.87
532.14	54796.62
532.31	54691.30
532.48	54665.55
532.65	54817.69
532.82	54777.90
532.99	54904.29
533.16	55238.98
533.33	55180.47
533.50	55025.99
533.67	54960.46
533.84	54894.92
534.01	55037.70
534.18	54946.42
534.35	55798.37
534.52	55416.86
534.69	55473.04
534.86	55444.95
535.03	55285.79
535.20	55458.99
535.37	55622.83
535.54	55594.74
535.71	55379.42
535.88	55758.58
536.05	55805.39
536.22	55894.33
536.38	55798.37
536.55	55716.45
536.72	55973.91
536.89	55920.08
537.06	56023.06
537.23	55973.91
537.40	55838.16
537.57	55882.63
537.74	56144.77
537.91	56205.62
538.08	56018.38
538.25	55922.42
538.42	56250.09
538.59	56477.13
538.75	55952.85
538.92	56229.03
539.09	56530.96
539.26	56406.91
539.43	56437.34
539.60	56292.22
539.77	56392.87
539.94	56844.59
540.11	56772.03
540.28	56547.34
540.44	56643.30
540.61	56357.76
540.78	56470.11
540.95	56608.20
541.12	56594.15
541.29	56655.01
541.46	56860.97
541.62	56750.97
541.79	56779.06
541.96	56355.42
542.13	56919.49
542.30	56769.69
542.47	57038.86
542.63	57073.96
542.80	57181.63
542.97	57270.57
543.14	57284.61
543.31	57668.46
543.48	57511.64
543.64	57619.31
543.81	57516.32
543.98	57563.14
544.15	57492.92
544.32	57694.21
544.48	57804.21
544.65	57530.37
544.82	57392.28
544.99	57511.64
545.16	57874.43
545.32	57525.69
545.49	57993.79
545.66	58124.86
545.83	57895.49
546.00	57932.94
546.16	58014.86
546.33	58003.16
546.50	57654.42
546.67	58141.25
546.83	57755.06
547.00	57923.58
547.17	57991.45
547.34	57932.94
547.50	58113.16
547.67	58466.58
547.84	58199.76
548.00	58417.43
548.17	58426.79
548.34	58279.34
548.51	58560.20
548.67	58494.67
548.84	58574.25
549.01	58218.49
549.18	58384.66
549.34	58501.69
549.51	58398.71
549.68	58625.74
549.84	58501.69
550.01	58471.26
550.18	58398.71
550.34	58616.38
550.51	58581.27
550.68	58705.32
550.84	58452.54
551.01	58852.77
551.18	58749.79
551.34	58693.61
551.51	58726.38
551.68	58728.72
551.84	58754.47
552.01	58677.23
552.18	59007.25
552.34	58646.80
552.51	59112.57
552.68	58873.84
552.84	58878.52
553.01	59105.55
553.18	58953.41
553.34	59271.73
553.51	59011.93
553.67	58892.56
553.84	59110.23
554.01	58946.39
554.17	59227.26
554.34	59332.58
554.51	59337.26
554.67	59196.83
554.84	59044.69
555.00	59009.59
555.17	59236.62
555.33	59112.57
555.50	59250.66
555.67	59168.74
555.83	59164.06
556.00	59384.07
556.16	59702.38
556.33	59587.70
556.50	59480.03
556.66	59482.37
556.83	59386.41
556.99	59498.76
557.16	59697.70
557.32	59664.94
557.49	59817.07
557.65	59545.57
557.82	59540.89
557.98	59648.55
558.15	59730.47
558.32	59657.91
558.48	59620.47
558.65	59613.44
558.81	59583.02
558.98	59594.72
559.14	59711.75
559.31	59744.51
559.47	59629.83
559.64	59955.16
559.80	59744.51
559.97	59788.98
560.13	59739.83
560.30	59803.03
560.46	59999.63
560.63	60065.17
560.79	60041.76
560.96	60060.49
561.12	60065.17
561.29	60093.25
561.45	59999.63
561.61	60058.15
561.78	60058.15
561.94	59894.31
562.11	59882.61
562.27	60023.04
562.44	60121.34
562.60	60214.96
562.77	60221.98
562.93	59840.48
563.10	60217.30
563.26	60259.43
563.42	60348.37
563.59	60334.33
563.75	60212.62
563.92	60151.77
564.08	60067.51
564.24	60388.16
564.41	60615.19
564.57	60528.59
564.74	60285.18
564.90	60346.03
565.07	60313.26
565.23	60324.97
565.39	60381.14
565.56	60317.95
565.72	60268.79
565.88	60271.14
566.05	60273.48
566.21	60343.69
566.38	60423.27
566.54	60432.63
566.70	60685.41
566.87	60795.42
567.03	60252.41
567.19	60729.88
567.36	60432.63
567.52	60530.93
567.68	60741.58
567.85	60659.66
568.01	60521.57
568.17	60406.89
568.34	60690.09
568.50	60509.87
568.66	60376.46
568.83	60509.87
568.99	60516.89
569.15	60514.55
569.32	60633.92
569.48	60392.84
569.64	60566.04
569.81	60552.00
569.97	60645.62
570.13	60617.53
570.30	60537.96
570.46	60816.48
570.62	60839.89
570.78	60708.82
570.95	60542.64
571.11	60734.56
571.27	60556.68
571.43	60563.70
571.60	60947.55
571.76	60732.22
571.92	60732.22
572.09	60945.21
572.25	60786.05
572.41	60793.07
572.57	60837.54
572.74	61015.43
572.90	60835.20
573.06	60807.12
573.22	60872.65
573.38	60886.70
573.55	60889.04
573.71	61050.53
573.87	60795.42
574.03	60837.54
574.20	60788.39
574.36	60891.38
574.52	60884.36
574.68	60800.10
574.84	61130.11
575.01	60933.51
575.17	60910.10
575.33	60781.37
575.49	60814.14
575.65	60872.65
575.82	61031.81
575.98	60947.55
576.14	61078.62
576.30	60931.17
576.46	60711.16
576.62	60832.86
576.79	61062.24
576.95	60781.37
577.11	61015.43
577.27	60935.85
577.43	61029.47
577.59	60823.50
577.75	60874.99
577.92	60874.99
578.08	60844.57
578.24	60989.68
578.40	61102.03
578.56	61268.20
578.72	61055.21
578.88	61212.03
579.04	61219.05
579.21	61102.03
579.37	61235.44
579.53	61020.11
579.69	60865.63
579.85	61036.49
580.01	60900.74
580.17	60959.25
580.33	61193.31
580.49	60891.38
580.65	61024.79
580.82	61092.66
580.98	61036.49
581.14	60931.17
581.30	61078.62
581.46	61151.18
581.62	61132.45
581.78	61038.83
581.94	61205.01
582.10	61090.32
582.26	61111.39
582.42	61127.77
582.58	61460.13
582.74	61300.97
582.90	61134.79
583.06	61347.78
583.22	60982.66
583.38	61244.80
583.54	61235.44
583.70	61097.34
583.86	61361.82
584.02	61111.39
584.18	61268.20
584.34	61090.32
584.50	61343.10
584.66	61066.92
584.82	60846.91
584.98	61382.89
585.14	61219.05
585.30	61130.11
585.46	61249.48
585.62	61020.11
585.78	61322.04
585.94	60999.04
586.10	61165.22
586.26	61221.39
586.42	61439.06
586.58	61300.97
586.74	61200.33
586.90	61144.16
587.06	61069.26
587.22	61333.74
587.38	61190.97
587.54	61354.80
587.70	61436.72
587.86	61120.75
588.02	61256.50
588.18	61347.78
588.34	61130.11
588.49	61251.82
