SpectraSuite Data File
++++++++++++++++++++++++++++++++++++
Date: Fri Oct 25 10:47:08 EDT 2013
User: price-jones
Dark Spectrum Present: No
Reference Spectrum Present: No
Number of Sampled Component Spectra: 1
Spectrometers: USB2+H05261
Integration Time (usec): 100000 (USB2+H05261)
Spectra Averaged: 1 (USB2+H05261)
Boxcar Smoothing: 0 (USB2+H05261)
Correct for Electrical Dark: No (USB2+H05261)
Strobe/Lamp Enabled: No (USB2+H05261)
Correct for Detector Non-linearity: No (USB2+H05261)
Correct for Stray Light: No (USB2+H05261)
Number of Pixels in Processed Spectrum: 2048
>>>>>Begin Processed Spectral Data<<<<<
365.73	152.13
365.92	152.13
366.12	152.13
366.32	112.35
366.52	81.92
366.72	81.92
366.91	11.70
367.11	44.47
367.31	0.00
367.51	32.77
367.70	0.00
367.90	37.45
368.10	0.00
368.30	11.70
368.49	0.00
368.69	35.11
368.89	18.72
369.09	49.15
369.28	86.60
369.48	70.22
369.68	51.49
369.87	147.45
370.07	114.69
370.27	187.24
370.47	215.33
370.66	418.96
370.86	409.59
371.06	491.51
371.25	447.04
371.45	479.81
371.65	479.81
371.84	440.02
372.04	341.72
372.24	451.72
372.44	451.72
372.63	489.17
372.83	461.09
373.03	547.69
373.22	456.40
373.42	486.83
373.62	500.87
373.81	484.49
374.01	540.66
374.21	540.66
374.40	582.79
374.60	500.87
374.79	568.75
374.99	521.94
375.19	608.54
375.38	468.11
375.58	557.05
375.78	662.37
375.97	540.66
376.17	638.97
376.37	634.29
376.56	587.47
376.76	601.52
376.95	571.09
377.15	514.92
377.35	538.32
377.54	550.03
377.74	587.47
377.93	578.11
378.13	599.18
378.33	615.56
378.52	608.54
378.72	629.60
378.91	692.80
379.11	587.47
379.31	660.03
379.50	608.54
379.70	624.92
379.89	674.07
380.09	645.99
380.28	599.18
380.48	582.79
380.68	671.73
380.87	622.58
381.07	629.60
381.26	606.20
381.46	648.33
381.65	695.14
381.85	594.50
382.04	636.63
382.24	678.76
382.43	690.46
382.63	732.59
382.83	664.71
383.02	662.37
383.22	688.12
383.41	631.94
383.61	713.86
383.80	763.01
384.00	683.44
384.19	657.69
384.39	751.31
384.58	713.86
384.78	711.52
384.97	690.46
385.17	748.97
385.36	702.16
385.56	739.61
385.75	854.30
385.95	760.67
386.14	802.80
386.34	798.12
386.53	791.10
386.72	720.88
386.92	713.86
387.11	828.55
387.31	798.12
387.50	861.32
387.70	788.76
387.89	849.61
388.09	840.25
388.28	784.08
388.48	788.76
388.67	819.19
388.86	795.78
389.06	847.27
389.25	912.81
389.45	858.98
389.64	901.11
389.84	926.85
390.03	959.62
390.22	929.19
390.42	957.28
390.61	887.06
390.81	1001.75
391.00	917.49
391.19	1008.77
391.39	966.64
391.58	947.92
391.78	933.87
391.97	999.41
392.16	849.61
392.36	1041.54
392.55	980.68
392.75	945.58
392.94	929.19
393.13	992.39
393.33	957.28
393.52	968.98
393.71	1039.20
393.91	933.87
394.10	1043.88
394.29	1076.65
394.49	985.37
394.68	1109.41
394.88	1088.35
395.07	1144.52
395.26	1121.12
395.46	1109.41
395.65	1149.20
395.84	1097.71
396.04	1207.72
396.23	1153.88
396.42	1158.57
396.62	1144.52
396.81	1170.27
397.00	1083.67
397.19	1132.82
397.39	1198.35
397.58	1217.08
397.77	1163.25
397.97	1263.89
398.16	1259.21
398.35	1259.21
398.55	1254.53
398.74	1249.85
398.93	1357.51
399.12	1313.04
399.32	1273.25
399.51	1212.40
399.70	1390.28
399.90	1306.02
400.09	1383.26
400.28	1465.18
400.47	1313.04
400.67	1390.28
400.86	1446.45
401.05	1350.49
401.24	1502.62
401.44	1451.13
401.63	1352.83
401.82	1516.67
402.01	1444.11
402.21	1458.15
402.40	1390.28
402.59	1469.86
402.78	1577.52
402.97	1593.90
403.17	1495.60
403.36	1516.67
403.55	1521.35
403.74	1621.99
403.93	1565.82
404.13	1706.25
404.32	1591.56
404.51	1556.46
404.70	1755.40
404.89	1661.78
405.09	1783.49
405.28	1640.72
405.47	1790.51
405.66	1703.91
405.85	1724.97
406.05	1715.61
406.24	1722.63
406.43	1659.44
406.62	1865.41
406.81	1755.40
407.00	1827.96
407.20	1785.83
407.39	1788.17
407.58	1858.39
407.77	1872.43
407.96	1811.57
408.15	1919.24
408.34	1944.99
408.54	1937.96
408.73	1982.43
408.92	1973.07
409.11	1963.71
409.30	1944.99
409.49	1984.77
409.68	1937.96
409.87	2099.46
410.07	2003.50
410.26	2083.08
410.45	2141.59
410.64	2141.59
410.83	2132.23
411.02	2022.22
411.21	2251.60
411.40	2134.57
411.59	2235.21
411.78	2239.89
411.98	2258.62
412.17	2399.05
412.36	2359.26
412.55	2450.54
412.74	2368.62
412.93	2300.75
413.12	2415.43
413.31	2415.43
413.50	2417.77
413.69	2640.12
413.88	2705.66
414.07	2612.04
414.26	2516.08
414.45	2480.97
414.64	2600.34
414.83	2597.99
415.02	2621.40
415.22	2768.85
415.41	2724.38
415.60	2693.96
415.79	2857.79
415.98	2796.94
416.17	2832.05
416.36	2818.00
416.55	2810.98
416.74	2883.54
416.93	2803.96
417.12	2787.58
417.31	2857.79
417.50	2834.39
417.69	3000.57
417.88	3030.99
418.07	2836.73
418.26	3112.91
418.45	3012.27
418.64	3194.83
418.83	3049.72
419.02	3096.53
419.21	3171.43
419.39	3148.02
419.58	3178.45
419.77	3253.34
419.96	3138.66
420.15	3255.69
420.34	3131.64
420.53	3164.40
420.72	3400.80
420.91	3286.11
421.10	3393.78
421.29	3396.12
421.48	3307.18
421.67	3342.28
421.86	3353.99
422.05	3321.22
422.24	3473.36
422.43	3339.94
422.61	3328.24
422.80	3349.31
422.99	3456.97
423.18	3513.14
423.37	3489.74
423.56	3510.80
423.75	3574.00
423.94	3365.69
424.13	3255.69
424.32	3300.16
424.50	3468.67
424.69	3684.00
424.88	3679.32
425.07	3375.05
425.26	3492.08
425.45	3496.76
425.64	3527.19
425.83	3410.16
426.01	3672.30
426.20	3442.93
426.39	3620.81
426.58	3510.80
426.77	3368.03
426.96	3543.57
427.15	3674.64
427.33	3552.93
427.52	3578.68
427.71	3686.34
427.90	3611.45
428.09	3648.90
428.28	3613.79
428.46	3716.77
428.65	3625.49
428.84	3794.01
429.03	3796.35
429.22	3702.73
429.40	3726.13
429.59	3779.97
429.78	3644.21
429.97	3510.80
430.16	3740.18
430.34	3871.25
430.53	3857.20
430.72	3801.03
430.91	3772.94
431.10	4042.11
431.28	3997.64
431.47	4051.47
431.66	4140.41
431.85	3990.61
432.03	4070.19
432.22	4177.86
432.41	4105.30
432.60	4250.41
432.79	4138.07
432.97	4067.85
433.16	4191.90
433.35	4128.70
433.54	4236.37
433.72	4250.41
433.91	4128.70
434.10	4252.75
434.28	4318.29
434.47	4353.40
434.66	4266.80
434.85	4381.48
435.03	4395.53
435.22	4416.59
435.41	4386.16
435.59	4458.72
435.78	4461.06
435.97	4519.57
436.16	4409.57
436.34	4496.17
436.53	4627.24
436.72	4585.11
436.90	4458.72
437.09	4564.04
437.28	4559.36
437.46	4456.38
437.65	4650.64
437.84	4617.88
438.02	4662.35
438.21	4437.66
438.40	4655.33
438.58	4774.69
438.77	4676.39
438.96	4947.89
439.14	4992.36
439.33	4882.36
439.52	4973.64
439.70	4985.34
439.89	5020.45
440.08	5050.88
440.26	5160.88
440.45	5132.79
440.63	5205.35
440.82	5294.29
441.01	5357.49
441.19	5284.93
441.38	5434.72
441.57	5383.23
441.75	5364.51
441.94	5556.43
442.12	5535.37
442.31	5659.42
442.50	5610.26
442.68	5518.98
442.87	5666.44
443.05	5544.73
443.24	5753.04
443.43	5696.86
443.61	5713.25
443.80	5600.90
443.98	5462.81
444.17	5472.17
444.35	5757.72
444.54	5823.25
444.73	5865.38
444.91	5884.11
445.10	5853.68
445.28	5790.49
445.47	5533.03
445.65	5666.44
445.84	5706.23
446.02	5834.96
446.21	5666.44
446.39	5823.25
446.58	5853.68
446.77	5863.04
446.95	5614.95
447.14	5778.78
447.32	5856.02
447.51	5778.78
447.69	5755.38
447.88	5851.34
448.06	5748.36
448.25	5935.60
448.43	5879.43
448.62	5881.77
448.80	5909.85
448.99	5879.43
449.17	6061.99
449.36	5998.79
449.54	6141.57
449.73	6127.52
449.91	6204.76
450.10	6366.26
450.28	6263.27
450.46	6328.81
450.65	6296.04
450.83	6190.72
451.02	6139.23
451.20	6471.58
451.39	6375.62
451.57	6207.10
451.76	6375.62
451.94	6246.89
452.13	6377.96
452.31	6429.45
452.49	6375.62
452.68	6532.44
452.86	6324.13
453.05	6420.09
453.23	6541.80
453.42	6420.09
453.60	6375.62
453.78	6651.80
453.97	6427.11
454.15	6693.93
454.34	6483.28
454.52	6635.42
454.70	6593.29
454.89	6670.53
455.07	6792.23
455.26	6679.89
455.44	6806.28
455.62	6698.61
455.81	6773.51
455.99	6890.54
456.17	6792.23
456.36	6974.80
456.54	6970.12
456.73	7108.21
456.91	7194.81
457.09	7398.43
457.28	7124.59
457.46	6958.41
457.64	7105.87
457.83	7136.29
458.01	7211.19
458.19	7265.02
458.38	7101.19
458.56	7492.05
458.74	7384.39
458.93	7162.04
459.11	7283.75
459.29	7445.24
459.48	7382.05
459.66	7459.29
459.84	7569.29
460.03	7688.66
460.21	7466.31
460.39	7482.69
460.57	7552.91
460.76	7681.64
460.94	7688.66
461.12	7700.36
461.31	7637.17
461.49	7618.44
461.67	7611.42
461.85	7714.41
462.04	7669.94
462.22	8191.88
462.40	7889.95
462.59	7660.57
462.77	7782.28
462.95	7786.96
463.13	8042.08
463.32	7852.50
463.50	8016.33
463.68	8044.42
463.86	8163.79
464.05	7915.69
464.23	7995.27
464.41	8025.70
464.59	7920.37
464.78	8257.41
464.96	8079.53
465.14	7957.82
465.32	8388.48
465.50	8215.28
465.69	8121.66
465.87	8095.91
466.05	8121.66
466.23	8250.39
466.41	8140.38
466.60	8479.76
466.78	8458.70
466.96	8245.71
467.14	8236.35
467.32	8306.56
467.51	8283.16
467.69	8187.19
467.87	8264.43
468.05	8627.21
468.23	8428.27
468.41	8430.61
468.60	8547.64
468.78	8594.45
468.96	8538.27
469.14	8580.40
469.32	8772.33
469.50	8496.14
469.69	8802.75
469.87	8837.86
470.05	8879.99
470.23	8706.79
470.41	8791.05
470.59	8854.25
470.77	8762.97
470.95	8730.20
471.14	9137.45
471.32	8837.86
471.50	9231.07
471.68	9249.80
471.86	9177.24
472.04	9357.46
472.22	9399.59
472.40	9001.70
472.58	9373.85
472.77	9439.38
472.95	9437.04
473.13	9809.19
473.31	9511.94
473.49	9469.81
473.67	9369.16
473.85	9432.36
474.03	9652.37
474.21	9776.42
474.39	9858.34
474.57	9827.91
474.75	9984.73
474.93	9987.07
475.12	10012.81
475.30	10211.76
475.48	10218.78
475.66	10324.10
475.84	9944.94
476.02	10382.62
476.20	10427.09
476.38	10338.15
476.56	10714.97
476.74	10775.83
476.92	10663.48
477.10	10501.98
477.28	10899.87
477.46	10661.14
477.64	10745.40
477.82	11138.61
478.00	11384.37
478.18	11330.53
478.36	11145.63
478.54	11548.20
478.72	11384.37
478.90	11557.57
479.08	11845.45
479.26	11859.49
479.44	11789.28
479.62	11723.74
479.80	12114.61
479.98	11936.73
480.16	12269.09
480.34	12060.78
480.52	12215.26
480.70	12465.69
480.88	12229.30
481.06	12276.11
481.24	12297.17
481.41	12737.20
481.59	12842.52
481.77	12999.34
481.95	13039.12
482.13	13048.49
482.31	12917.42
482.49	13455.74
482.67	13605.53
482.85	13294.24
483.03	13504.89
483.21	13862.99
483.39	13895.76
483.57	13659.37
483.74	14214.07
483.92	14235.14
484.10	13951.93
484.28	14457.49
484.46	14614.30
484.64	14712.61
484.82	14511.32
485.00	14712.61
485.18	14897.51
485.35	15180.71
485.53	14878.79
485.71	14892.83
485.89	15410.09
486.07	15035.60
486.25	15096.46
486.43	15496.69
486.61	15318.81
486.78	15538.82
486.96	15702.65
487.14	16049.05
487.32	16042.03
487.50	16135.65
487.68	16531.20
487.85	16386.09
488.03	16936.12
488.21	16685.68
488.39	16908.03
488.57	16971.22
488.75	17158.47
488.92	17200.60
489.10	17692.11
489.28	17598.49
489.46	17558.70
489.64	17823.18
489.81	18352.14
489.99	18094.68
490.17	18071.28
490.35	18328.74
490.53	18567.47
490.70	18504.28
490.88	18314.69
491.06	18995.79
491.24	18590.88
491.41	18827.27
491.59	18979.40
491.77	18986.43
491.95	19199.41
492.13	19407.72
492.30	19564.54
492.48	19697.95
492.66	19761.14
492.84	19756.46
493.01	19974.13
493.19	19899.23
493.37	20315.85
493.54	20383.73
493.72	20430.54
493.90	20409.47
494.08	21085.89
494.25	20943.11
494.43	21057.80
494.61	20994.61
494.79	21413.56
494.96	21422.92
495.14	21392.50
495.32	21546.97
495.49	21542.29
495.67	21652.30
495.85	21671.02
496.02	22171.89
496.20	22059.55
496.38	22408.29
496.55	22387.22
496.73	22733.62
496.91	22216.36
497.09	22331.05
497.26	22506.59
497.44	22469.14
497.62	22960.66
497.79	23452.17
497.97	23220.45
498.14	23381.95
498.32	23281.31
498.50	23353.87
498.67	23604.30
498.85	23653.45
499.03	24175.39
499.20	23854.74
499.38	23901.55
499.56	24030.28
499.73	24147.31
499.91	24304.12
500.08	24364.98
500.26	24041.98
500.44	24217.52
500.61	24477.32
500.79	24397.74
500.97	24926.71
501.14	24772.23
501.32	24975.86
501.49	24477.32
501.67	24926.71
501.84	25362.04
502.02	24961.81
502.20	24926.71
502.37	25633.55
502.55	25593.76
502.72	25514.18
502.90	25312.89
503.07	25743.55
503.25	25876.96
503.43	25834.83
503.60	26096.97
503.78	26302.94
503.95	25940.16
504.13	25865.26
504.30	26534.65
504.48	26396.56
504.65	26015.05
504.83	26719.56
505.01	26717.22
505.18	26490.18
505.36	26930.20
505.53	26658.70
505.71	27068.30
505.88	27246.18
506.06	26780.41
506.23	27426.40
506.41	27157.24
506.58	27704.92
506.76	27190.00
506.93	27358.52
507.11	27197.02
507.28	28006.85
507.46	27571.51
507.63	27648.75
507.81	27557.47
507.98	27559.81
508.16	27711.94
508.33	28009.19
508.50	28477.30
508.68	28149.62
508.85	28608.37
509.03	28371.97
509.20	28535.81
509.38	28811.99
509.55	28631.77
509.73	29244.99
509.90	28903.28
510.08	28734.76
510.25	28957.11
510.42	29046.05
510.60	29305.85
510.77	29413.51
510.95	29460.32
511.12	29067.11
511.30	29619.48
511.47	29490.75
511.64	29425.22
511.82	29883.96
511.99	29699.06
512.17	29851.19
512.34	29670.97
512.51	30010.35
512.69	30206.95
512.86	30391.86
513.04	30232.70
513.21	30031.41
513.38	30422.28
513.56	30394.20
513.73	30256.11
513.90	30443.35
514.08	30562.72
514.25	30366.11
514.43	30771.02
514.60	30436.33
514.77	31061.25
514.95	31070.61
515.12	31197.00
515.29	31014.44
515.47	31171.25
515.64	31246.15
515.81	31325.73
515.99	31578.51
516.16	31435.74
516.33	31318.71
516.51	31835.97
516.68	31124.44
516.85	31143.17
517.03	31615.96
517.20	31709.58
517.37	31833.63
517.54	31740.00
517.72	31901.50
517.89	32161.30
518.06	32238.54
518.24	31840.65
518.41	31714.26
518.58	32142.58
518.75	32175.34
518.93	32374.29
519.10	32168.32
519.27	32788.56
519.45	32538.13
519.62	32580.26
519.79	33095.18
519.96	32823.67
520.14	33074.11
520.31	32943.04
520.48	33074.11
520.65	33132.62
520.83	33205.18
521.00	33439.23
521.17	33156.03
521.34	33219.22
521.52	33476.68
521.69	33303.48
521.86	33729.46
522.03	34057.14
522.20	33986.92
522.38	33940.11
522.55	33708.40
522.72	33956.49
522.89	33923.72
523.07	34164.80
523.24	34012.66
523.41	34000.96
523.58	33869.89
523.75	34738.23
523.92	34394.17
524.10	34298.21
524.27	34656.31
524.44	34766.32
524.61	34831.85
524.78	34717.17
524.96	34920.79
525.13	35316.34
525.30	35414.65
525.47	35227.40
525.64	34878.66
525.81	35152.51
525.98	34958.24
526.16	35292.94
526.33	35398.26
526.50	35803.17
526.67	35105.70
526.84	35098.67
527.01	35028.46
527.18	35447.41
527.36	35468.48
527.53	35901.48
527.70	35857.01
527.87	35852.33
528.04	35550.40
528.21	36060.63
528.38	35662.74
528.55	35952.97
528.72	36039.57
528.89	36238.51
529.07	36259.58
529.24	36084.04
529.41	36226.81
529.58	36231.49
529.75	35948.29
529.92	36308.73
530.09	36360.22
530.26	36730.03
530.43	36559.17
530.60	36376.61
530.77	36304.05
530.94	36767.48
531.11	36669.17
531.28	36891.52
531.46	36751.09
531.63	36943.02
531.80	36882.16
531.97	36950.04
532.14	37013.23
532.31	36542.78
532.48	37186.43
532.65	37326.86
532.82	37326.86
532.99	37357.29
533.16	36783.86
533.33	37181.75
533.50	38047.75
533.67	37455.59
533.84	37469.64
534.01	37682.62
534.18	37603.05
534.35	37949.45
534.52	37596.03
534.69	38080.52
534.86	37890.93
535.03	37673.26
535.20	38153.07
535.37	38396.49
535.54	38017.32
535.71	38316.91
535.88	38150.73
536.05	38188.18
536.22	38422.23
536.38	38356.70
536.55	38321.59
536.72	38106.26
536.89	37869.87
537.06	37900.29
537.23	38789.70
537.40	38511.17
537.57	38251.38
537.74	38560.33
537.91	39023.75
538.08	38646.93
538.25	38401.17
538.42	38766.29
538.59	39264.83
538.75	38660.97
538.92	38691.40
539.09	39152.48
539.26	39119.71
539.43	39278.87
539.60	39000.35
539.77	39117.37
539.94	39421.64
540.11	38883.32
540.28	39445.05
540.44	39360.79
540.61	39290.57
540.78	39110.35
540.95	39407.60
541.12	38897.36
541.29	39295.25
541.46	39651.02
541.62	39164.18
541.79	39903.79
541.96	39384.19
542.13	39377.17
542.30	39765.70
542.47	39660.38
542.63	39377.17
542.80	39526.97
542.97	40266.58
543.14	40301.68
543.31	40650.42
543.48	40196.36
543.64	40722.98
543.81	40203.38
543.98	40320.41
544.15	40650.42
544.32	40664.47
544.48	40615.32
544.65	40776.81
544.82	40517.01
544.99	40414.03
545.16	40652.76
545.32	40336.79
545.49	40676.17
545.66	40566.16
545.83	40739.36
546.00	40598.93
546.16	40641.06
546.33	40414.03
546.50	40648.08
546.67	40608.29
546.83	40517.01
547.00	40727.66
547.17	40861.07
547.34	40938.31
547.50	41195.77
547.67	41193.43
547.84	41198.11
548.00	41563.23
548.17	41148.96
548.34	41418.12
548.51	41364.29
548.67	41593.66
548.84	41666.22
549.01	41343.22
549.18	41139.60
549.34	41715.37
549.51	41818.35
549.68	41717.71
549.84	41528.13
550.01	41371.31
550.18	41207.47
550.34	41633.45
550.51	41764.52
550.68	41708.35
550.84	41230.88
551.01	41823.03
551.18	41909.63
551.34	41741.11
551.51	41738.77
551.68	42052.41
551.84	42073.47
552.01	41902.61
552.18	42045.38
552.34	41736.43
552.51	42237.31
552.68	41890.91
552.84	42164.75
553.01	42344.97
553.18	42529.87
553.34	42157.73
553.51	41628.77
553.67	42089.85
553.84	42286.46
554.01	42852.87
554.17	42225.60
554.34	42588.39
554.51	42618.81
554.67	42838.83
554.84	42553.28
555.00	42003.25
555.17	42155.39
555.33	42478.38
555.50	42602.43
555.67	42464.34
555.83	42553.28
556.00	42335.61
556.16	43220.33
556.33	42843.51
556.50	42293.48
556.66	42763.93
556.83	42513.49
556.99	42579.03
557.16	42616.47
557.32	42754.57
557.49	43157.14
557.65	42398.80
557.82	42862.23
557.98	42323.91
558.15	43283.53
558.32	43297.57
558.48	43124.37
558.65	42937.13
558.81	42829.46
558.98	43302.25
559.14	43168.84
559.31	43302.25
559.47	42937.13
559.64	43522.26
559.80	43730.57
559.97	43494.18
560.13	43079.90
560.30	43377.15
560.46	43264.80
560.63	43400.55
560.79	43082.24
560.96	43236.72
561.12	43288.21
561.29	43236.72
561.45	43452.05
561.61	43346.72
561.78	43627.59
561.94	43311.61
562.11	43538.65
562.27	42899.68
562.44	43349.06
562.60	43686.10
562.77	43585.46
562.93	43445.02
563.10	43789.08
563.26	43290.55
563.42	43643.97
563.59	43618.22
563.75	43536.30
563.92	44055.90
564.08	44147.18
564.24	44025.48
564.41	43950.58
564.57	43854.62
564.74	43587.80
564.90	43772.70
565.07	43737.59
565.23	43522.26
565.39	43889.73
565.56	43632.27
565.72	43559.71
565.88	43564.39
566.05	43484.81
566.21	43943.56
566.38	44006.75
566.54	43686.10
566.70	43983.35
566.87	44435.07
567.03	43807.81
567.19	44175.27
567.36	44154.21
567.52	43964.62
567.68	44135.48
567.85	43957.60
568.01	43826.53
568.17	43906.11
568.34	44158.89
568.50	44072.29
568.66	43721.21
568.83	43990.37
568.99	43676.74
569.15	43566.73
569.32	43945.90
569.48	44069.95
569.64	44182.29
569.81	44137.82
569.97	43625.25
570.13	44360.17
570.30	43768.02
570.46	43782.06
570.62	43746.95
570.78	43742.27
570.95	43555.03
571.11	44179.95
571.27	44016.11
571.43	43966.96
571.60	44102.71
571.76	44086.33
571.92	44156.55
572.09	44083.99
572.25	44332.09
572.41	44418.69
572.57	44186.97
572.74	44697.21
572.90	44318.04
573.06	44474.86
573.22	44329.75
573.38	44182.29
573.55	43934.20
573.71	44332.09
573.87	44261.87
574.03	44098.03
574.20	44123.78
574.36	44311.02
574.52	44215.06
574.68	44184.63
574.84	44582.52
575.01	44205.70
575.17	44240.81
575.33	44004.41
575.49	43901.43
575.65	44477.20
575.82	44715.93
575.98	44292.30
576.14	44353.15
576.30	44135.48
576.46	44074.63
576.62	44320.38
576.79	44362.51
576.95	43632.27
577.11	44184.63
577.27	44594.23
577.43	44477.20
577.59	44292.30
577.75	44149.53
577.92	44142.50
578.08	44488.90
578.24	44294.64
578.40	44549.76
578.56	44179.95
578.72	44254.85
578.88	44563.80
579.04	44004.41
579.21	44444.43
579.37	44439.75
579.53	44360.17
579.69	43969.30
579.85	44505.29
580.01	44332.09
580.17	44011.43
580.33	44474.86
580.49	44491.24
580.65	44470.18
580.82	44306.34
580.98	44479.54
581.14	44311.02
581.30	44673.81
581.46	44783.81
581.62	44488.90
581.78	44374.22
581.94	44416.35
582.10	44734.66
582.26	44184.63
582.42	44514.65
582.58	44348.47
582.74	43945.90
582.90	44507.63
583.06	44741.68
583.22	44589.55
583.38	44978.07
583.54	44673.81
583.70	44641.04
583.86	44624.65
584.02	44147.18
584.18	44339.11
584.34	44500.61
584.50	44418.69
584.66	44296.98
584.82	44208.04
584.98	44528.69
585.14	44603.59
585.30	44336.77
585.46	44421.03
585.62	44208.04
585.78	44287.62
585.94	43920.15
586.10	44528.69
586.26	44158.89
586.42	44669.12
586.58	44470.18
586.74	44474.86
586.90	44444.43
587.06	44425.71
587.22	44570.82
587.38	44023.14
587.54	44680.83
587.70	44673.81
587.86	44594.23
588.02	44666.78
588.18	44870.41
588.34	44765.09
588.49	44194.00
588.65	44238.47
588.81	44673.81
588.97	44451.45
589.13	44311.02
589.29	44931.26
589.45	44776.79
589.61	44814.24
589.77	44870.41
589.93	44629.34
590.08	44886.79
590.24	44554.44
590.40	44849.35
