SpectraSuite Data File
++++++++++++++++++++++++++++++++++++
Date: Fri Oct 25 10:44:08 EDT 2013
User: price-jones
Dark Spectrum Present: No
Reference Spectrum Present: No
Number of Sampled Component Spectra: 1
Spectrometers: USB2+H05261
Integration Time (usec): 100000 (USB2+H05261)
Spectra Averaged: 1 (USB2+H05261)
Boxcar Smoothing: 0 (USB2+H05261)
Correct for Electrical Dark: No (USB2+H05261)
Strobe/Lamp Enabled: No (USB2+H05261)
Correct for Detector Non-linearity: No (USB2+H05261)
Correct for Stray Light: No (USB2+H05261)
Number of Pixels in Processed Spectrum: 2048
>>>>>Begin Processed Spectral Data<<<<<
365.73	102.98
365.92	102.98
366.12	102.98
366.32	21.06
366.52	4.68
366.72	0.00
366.91	0.00
367.11	4.68
367.31	0.00
367.51	56.17
367.70	98.30
367.90	88.94
368.10	30.43
368.30	11.70
368.49	58.51
368.69	49.15
368.89	0.00
369.09	11.70
369.28	84.26
369.48	11.70
369.68	175.54
369.87	39.79
370.07	121.71
370.27	124.05
370.47	210.65
370.66	390.87
370.86	421.30
371.06	491.51
371.25	510.24
371.45	402.57
371.65	454.06
371.84	423.64
372.04	416.62
372.24	543.00
372.44	514.92
372.63	507.90
372.83	447.04
373.03	449.38
373.22	505.56
373.42	582.79
373.62	475.13
373.81	615.56
374.01	585.13
374.21	620.24
374.40	552.37
374.60	519.60
374.79	561.73
374.99	596.84
375.19	484.49
375.38	554.71
375.58	554.71
375.78	566.41
375.97	617.90
376.17	608.54
376.37	528.96
376.56	564.07
376.76	571.09
376.95	606.20
377.15	645.99
377.35	531.30
377.54	716.20
377.74	671.73
377.93	580.45
378.13	599.18
378.33	636.63
378.52	690.46
378.72	657.69
378.91	655.35
379.11	613.22
379.31	645.99
379.50	704.50
379.70	690.46
379.89	685.78
380.09	638.97
380.28	720.88
380.48	739.61
380.68	645.99
380.87	629.60
381.07	624.92
381.26	671.73
381.46	648.33
381.65	683.44
381.85	713.86
382.04	772.38
382.24	777.06
382.43	744.29
382.63	671.73
382.83	734.93
383.02	807.48
383.22	788.76
383.41	772.38
383.61	690.46
383.80	765.36
384.00	751.31
384.19	767.70
384.39	779.40
384.58	798.12
384.78	781.74
384.97	844.93
385.17	809.83
385.36	819.19
385.56	819.19
385.75	793.44
385.95	779.40
386.14	812.17
386.34	849.61
386.53	840.25
386.72	849.61
386.92	896.43
387.11	837.91
387.31	915.15
387.50	858.98
387.70	875.36
387.89	908.13
388.09	931.53
388.28	891.74
388.48	908.13
388.67	961.96
388.86	901.11
389.06	968.98
389.25	1041.54
389.45	880.04
389.64	971.32
389.84	950.26
390.03	992.39
390.22	973.66
390.42	987.71
390.61	1034.52
390.81	1043.88
391.00	1022.81
391.19	1142.18
391.39	1043.88
391.58	1034.52
391.78	992.39
391.97	1001.75
392.16	1032.18
392.36	1104.73
392.55	985.37
392.75	985.37
392.94	961.96
393.13	945.58
393.33	957.28
393.52	1004.09
393.71	1086.01
393.91	1109.41
394.10	1114.10
394.29	1121.12
394.49	1207.72
394.68	1200.69
394.88	1191.33
395.07	1181.97
395.26	1196.01
395.46	1181.97
395.65	1263.89
395.84	1242.82
396.04	1193.67
396.23	1249.85
396.42	1224.10
396.62	1235.80
396.81	1188.99
397.00	1277.93
397.19	1270.91
397.39	1301.34
397.58	1341.13
397.77	1315.38
397.97	1371.55
398.16	1427.73
398.35	1378.58
398.55	1404.32
398.74	1423.05
398.93	1434.75
399.12	1448.79
399.32	1509.65
399.51	1451.13
399.70	1556.46
399.90	1551.78
400.09	1631.35
400.28	1500.28
400.47	1596.25
400.67	1631.35
400.86	1582.20
401.05	1577.52
401.24	1647.74
401.44	1774.13
401.63	1596.25
401.82	1757.74
402.01	1701.57
402.21	1755.40
402.40	1689.87
402.59	1633.69
402.78	1825.62
402.97	1757.74
403.17	1809.23
403.36	1851.36
403.55	1748.38
403.74	1734.34
403.93	1872.43
404.13	1827.96
404.32	1846.68
404.51	1816.26
404.70	1872.43
404.89	1916.90
405.09	2005.84
405.28	1994.14
405.47	1884.13
405.66	2001.16
405.85	2029.24
406.05	2036.27
406.24	2052.65
406.43	1926.26
406.62	2118.18
406.81	2052.65
407.00	2033.93
407.20	2010.52
407.39	1996.48
407.58	2155.63
407.77	2136.91
407.96	2211.81
408.15	2139.25
408.34	2188.40
408.54	2167.34
408.73	2183.72
408.92	2258.62
409.11	2342.88
409.30	2333.51
409.49	2260.96
409.68	2270.32
409.87	2176.70
410.07	2305.43
410.26	2296.07
410.45	2466.92
410.64	2457.56
410.83	2541.82
411.02	2387.35
411.21	2647.15
411.40	2546.50
411.59	2597.99
411.78	2588.63
411.98	2600.34
412.17	2726.72
412.36	2530.12
412.55	2658.85
412.74	2719.70
412.93	2726.72
413.12	2754.81
413.31	2796.94
413.50	2803.96
413.69	2867.16
413.88	2808.64
414.07	2904.60
414.26	2909.29
414.45	2925.67
414.64	3005.25
414.83	2979.50
415.02	2960.78
415.22	3077.80
415.41	3052.06
415.60	3164.40
415.79	3108.23
415.98	3248.66
416.17	3180.79
416.36	3180.79
416.55	3192.49
416.74	3225.26
416.93	3183.13
417.12	3169.09
417.31	3365.69
417.50	3346.97
417.69	3447.61
417.88	3449.95
418.07	3351.65
418.26	3295.47
418.45	3456.97
418.64	3480.38
418.83	3431.23
419.02	3531.87
419.21	3606.77
419.39	3566.98
419.58	3421.86
419.77	3609.11
419.96	3569.32
420.15	3599.74
420.34	3625.49
420.53	3632.51
420.72	3648.90
420.91	3936.78
421.10	3681.66
421.29	3784.65
421.48	3742.52
421.67	3824.44
421.86	3684.00
422.05	3667.62
422.24	3698.05
422.43	3779.97
422.61	3822.09
422.80	3974.23
422.99	3843.16
423.18	3901.67
423.37	3843.16
423.56	3850.18
423.75	3751.88
423.94	3826.78
424.13	3510.80
424.32	3721.45
424.50	3918.06
424.69	4056.15
424.88	3953.16
425.07	3901.67
425.26	3779.97
425.45	3971.89
425.64	3899.33
425.83	3864.22
426.01	4042.11
426.20	4004.66
426.39	4093.60
426.58	3880.61
426.77	3761.24
426.96	3892.31
427.15	3964.87
427.33	3957.85
427.52	4093.60
427.71	4109.98
427.90	4086.58
428.09	4018.70
428.28	4039.76
428.46	4194.24
428.65	4044.45
428.84	4248.07
429.03	4257.43
429.22	4056.15
429.40	4194.24
429.59	4156.79
429.78	3967.21
429.97	4046.79
430.16	3990.61
430.34	4018.70
430.53	4060.83
430.72	4117.00
430.91	4362.76
431.10	4348.72
431.28	4311.27
431.47	4472.76
431.66	4688.09
431.85	4493.83
432.03	4500.85
432.22	4746.61
432.41	4676.39
432.60	4725.54
432.79	4547.66
432.97	4636.60
433.16	4631.92
433.35	4594.47
433.54	4655.33
433.72	4676.39
433.91	4596.81
434.10	4550.00
434.28	4652.98
434.47	4772.35
434.66	4849.59
434.85	5008.75
435.03	5097.69
435.22	4915.12
435.41	5195.99
435.59	4952.57
435.78	4896.40
435.97	5139.82
436.16	5001.72
436.34	5100.03
436.53	5060.24
436.72	5165.56
436.90	5036.83
437.09	5114.07
437.28	5041.51
437.46	4978.32
437.65	5029.81
437.84	5261.52
438.02	5139.82
438.21	5184.29
438.40	5163.22
438.58	5280.25
438.77	5352.81
438.96	5291.95
439.14	5526.00
439.33	5504.94
439.52	5696.86
439.70	5628.99
439.89	5598.56
440.08	5664.10
440.26	5746.02
440.45	5610.26
440.63	5820.91
440.82	5797.51
441.01	5944.96
441.19	6059.65
441.38	5930.92
441.57	6057.31
441.75	6204.76
441.94	6356.90
442.12	6146.25
442.31	6235.19
442.50	6396.68
442.68	6324.13
442.87	6303.06
443.05	6305.40
443.24	6555.84
443.43	6310.08
443.61	6483.28
443.80	6502.01
443.98	6228.17
444.17	6097.10
444.35	6459.88
444.54	6614.35
444.73	6560.52
444.91	6480.94
445.10	6504.35
445.28	6312.42
445.47	6335.83
445.65	6258.59
445.84	6359.24
446.02	6700.95
446.21	6583.93
446.39	6483.28
446.58	6553.50
446.77	6665.85
446.95	6607.33
447.14	6546.48
447.32	6752.45
447.51	6729.04
447.69	6773.51
447.88	6733.72
448.06	6829.68
448.25	6665.85
448.43	6691.59
448.62	6668.19
448.80	6406.05
448.99	6670.53
449.17	6995.86
449.36	6815.64
449.54	6867.13
449.73	7124.59
449.91	7208.85
450.10	7037.99
450.28	7143.32
450.46	7023.95
450.65	7272.04
450.83	7307.15
451.02	6986.50
451.20	7178.42
451.39	7155.02
451.57	7117.57
451.76	7066.08
451.94	7225.23
452.13	7185.44
452.31	7208.85
452.49	7042.67
452.68	7356.30
452.86	7187.79
453.05	7215.87
453.23	7283.75
453.42	7339.92
453.60	7169.06
453.78	7510.78
453.97	7204.17
454.15	7304.81
454.34	7478.01
454.52	7487.37
454.70	7501.42
454.89	7255.66
455.07	7651.21
455.26	7508.44
455.44	7660.57
455.62	7644.19
455.81	7595.04
455.99	7747.17
456.17	7775.26
456.36	7915.69
456.54	7868.88
456.73	7758.88
456.91	7868.88
457.09	7974.21
457.28	8386.14
457.46	7927.39
457.64	7929.74
457.83	7983.57
458.01	8084.21
458.19	8102.93
458.38	7861.86
458.56	7974.21
458.74	8126.34
458.93	8070.17
459.11	8365.07
459.29	8215.28
459.48	8273.79
459.66	8194.22
459.84	8367.42
460.03	8489.12
460.21	8257.41
460.39	8463.38
460.57	8528.91
460.76	8657.64
460.94	8540.61
461.12	8643.60
461.31	8704.45
461.49	8786.37
461.67	8397.84
461.85	8667.00
462.04	8634.24
462.22	9228.73
462.40	9004.04
462.59	8678.71
462.77	8798.07
462.95	8858.93
463.13	8788.71
463.32	8898.72
463.50	8856.59
463.68	8699.77
463.86	8931.48
464.05	8861.27
464.23	9043.83
464.41	9034.47
464.59	8924.46
464.78	9095.32
464.96	9114.05
465.14	8940.85
465.32	9137.45
465.50	9259.16
465.69	9355.12
465.87	9039.15
466.05	9053.19
466.23	9212.35
466.41	9217.03
466.60	9312.99
466.78	9057.87
466.96	8865.95
467.14	9380.87
467.32	9317.67
467.51	9256.82
467.69	9139.79
467.87	9156.18
468.05	9488.53
468.23	9509.60
468.41	9448.74
468.60	9635.99
468.78	9345.76
468.96	9474.49
469.14	9610.24
469.32	9802.16
469.50	9415.98
469.69	9689.82
469.87	9666.41
470.05	9652.37
470.23	10010.47
470.41	9865.36
470.59	9839.61
470.77	9856.00
470.95	9879.40
471.14	10162.61
471.32	9820.89
471.50	10162.61
471.68	10293.68
471.86	10139.20
472.04	10232.82
472.22	10483.26
472.40	10195.37
472.58	10321.76
472.77	10270.27
472.95	10532.41
473.13	10824.98
473.31	10518.37
473.49	10597.95
473.67	10387.30
473.85	10539.43
474.03	10878.81
474.21	10981.79
474.39	11035.63
474.57	10923.28
474.75	11059.03
474.93	11349.26
475.12	11108.18
475.30	10939.66
475.48	11255.64
475.66	11332.87
475.84	11105.84
476.02	11281.38
476.20	11426.50
476.38	11473.31
476.56	12100.57
476.74	11772.89
476.92	11829.07
477.10	11510.75
477.28	12077.16
477.46	11819.71
477.64	12177.81
477.82	12416.54
478.00	12339.30
478.18	12037.38
478.36	12493.78
478.54	12753.58
478.72	12603.78
478.90	12678.68
479.08	12723.15
479.26	13085.94
479.44	13069.55
479.62	13123.38
479.80	13053.17
479.98	13408.93
480.16	13617.24
480.34	13577.45
480.52	13610.22
480.70	13722.56
480.88	13596.17
481.06	14068.96
481.24	13998.74
481.41	14185.99
481.59	14307.69
481.77	14295.99
481.95	14548.77
482.13	14448.13
482.31	14621.33
482.49	14700.90
482.67	14754.74
482.85	14745.38
483.03	15002.83
483.21	15309.44
483.39	15122.20
483.57	15124.54
483.74	15438.17
483.92	15531.80
484.10	15487.32
484.28	15768.19
484.46	15910.96
484.64	16262.04
484.82	15861.81
485.00	16067.78
485.18	16266.72
485.35	16468.01
485.53	16032.67
485.71	16266.72
485.89	16524.18
486.07	16145.02
486.25	16468.01
486.43	16683.34
486.61	16755.90
486.78	17062.51
486.96	17397.20
487.14	17626.57
487.32	17539.97
487.50	17994.04
487.68	18113.41
487.85	18082.98
488.03	18513.64
488.21	18246.82
488.39	18476.19
488.57	18541.72
488.75	18771.10
488.92	18633.00
489.10	19206.44
489.28	19124.52
489.46	19676.88
489.64	19611.35
489.81	19756.46
489.99	19939.02
490.17	20182.44
490.35	20475.01
490.53	20044.35
490.70	20390.75
490.88	20446.92
491.06	20760.55
491.24	20680.97
491.41	20496.07
491.59	20739.49
491.77	20840.13
491.95	20837.79
492.13	21099.93
492.30	21249.72
492.48	21781.03
492.66	22094.66
492.84	21898.05
493.01	22132.11
493.19	21930.82
493.37	21905.07
493.54	22494.89
493.72	22698.52
493.90	22778.09
494.08	22761.71
494.25	23180.67
494.43	23028.53
494.61	23180.67
494.79	23218.11
494.96	23264.92
495.14	23178.33
495.32	23288.33
495.49	23454.51
495.67	23302.37
495.85	24037.30
496.02	24095.82
496.20	24105.18
496.38	24009.22
496.55	24341.57
496.73	24905.64
496.91	24931.39
497.09	24744.14
497.26	25039.05
497.44	24980.54
497.62	24753.51
497.79	25373.75
497.97	25252.04
498.14	25090.54
498.32	25661.63
498.50	25640.57
498.67	25701.42
498.85	26075.91
499.03	25862.92
499.20	26066.55
499.38	26171.87
499.56	26010.37
499.73	26401.24
499.91	26001.01
500.08	26410.60
500.26	26080.59
500.44	26349.75
500.61	26422.31
500.79	26417.63
500.97	26831.90
501.14	26867.01
501.32	27311.71
501.49	26824.88
501.67	27005.10
501.84	27491.93
502.02	27339.80
502.20	27491.93
502.37	27548.11
502.55	27520.02
502.72	27814.93
502.90	28091.11
503.07	27817.27
503.25	28196.43
503.43	27826.63
503.60	27957.70
503.78	27922.59
503.95	28456.23
504.13	28367.29
504.30	28575.60
504.48	28758.16
504.65	28687.95
504.83	28907.96
505.01	28940.72
505.18	28959.45
505.36	29502.45
505.53	29303.51
505.71	29507.13
505.88	29347.98
506.06	29364.36
506.23	29649.91
506.41	29586.71
506.58	29673.31
506.76	29933.11
506.93	30167.16
507.11	29954.18
507.28	29488.41
507.46	29825.45
507.63	30167.16
507.81	30211.64
507.98	30132.06
508.16	30082.91
508.33	30457.39
508.50	30370.79
508.68	30897.41
508.85	30712.51
509.03	30988.69
509.20	30888.05
509.38	31278.92
509.55	31119.76
509.73	31292.96
509.90	31075.29
510.08	31122.10
510.25	31267.22
510.42	31721.28
510.60	31594.89
510.77	31449.78
510.95	31992.78
511.12	32025.55
511.30	32140.24
511.47	32025.55
511.64	32378.97
511.82	32259.60
511.99	32002.14
512.17	32463.23
512.34	32039.59
512.51	32746.44
512.69	32423.44
512.86	32959.42
513.04	32800.27
513.21	32945.38
513.38	32573.24
513.56	32849.42
513.73	32608.34
513.90	33120.92
514.08	32854.10
514.25	33083.47
514.43	32973.47
514.60	33670.95
514.77	33310.50
514.95	33216.88
515.12	33427.53
515.29	33301.14
515.47	33603.07
515.64	33914.36
515.81	33418.17
515.99	33448.60
516.16	33638.18
516.33	33427.53
516.51	33495.41
516.68	33158.37
516.85	33453.28
517.03	33287.10
517.20	33853.51
517.37	34167.14
517.54	34342.68
517.72	34284.17
517.89	33806.70
518.06	33853.51
518.24	34178.84
518.41	33897.98
518.58	34314.59
518.75	34560.35
518.93	34761.64
519.10	34572.05
519.27	34937.18
519.45	34824.83
519.62	35402.94
519.79	35145.48
519.96	35239.11
520.14	35358.47
520.31	35196.98
520.48	35637.00
520.65	35199.32
520.83	35585.50
521.00	35679.13
521.17	36034.89
521.34	35906.16
521.52	36201.07
521.69	35854.67
521.86	35943.61
522.03	36025.53
522.20	36100.42
522.38	36287.67
522.55	36301.71
522.72	35735.30
522.89	36582.57
523.07	36840.03
523.24	36165.96
523.41	36601.30
523.58	36648.11
523.75	37368.99
523.92	37060.04
524.10	37064.72
524.27	37186.43
524.44	37326.86
524.61	37125.58
524.78	37298.78
524.96	37305.80
525.13	37839.44
525.30	37895.61
525.47	37645.18
525.64	37759.86
525.81	37729.44
525.98	37172.39
526.16	37383.04
526.33	37425.17
526.50	37691.99
526.67	36959.40
526.84	37324.52
527.01	37401.76
527.18	38101.58
527.36	37855.82
527.53	38323.93
527.70	38359.04
527.87	38778.00
528.04	38162.43
528.21	38202.22
528.38	38387.13
528.55	38586.07
528.72	38513.52
528.89	38880.98
529.07	38593.09
529.24	38511.17
529.41	38714.80
529.58	38904.38
529.75	38497.13
529.92	39100.99
530.09	39042.48
530.26	39250.78
530.43	39587.82
530.60	38639.90
530.77	39683.78
530.94	39335.04
531.11	38745.23
531.28	39756.34
531.46	39611.23
531.63	39428.66
531.80	39269.51
531.97	39526.97
532.14	39480.16
532.31	39147.80
532.48	39875.71
532.65	39573.78
532.82	39604.20
532.99	39800.81
533.16	39775.06
533.33	39957.63
533.50	40495.95
533.67	40055.93
533.84	39311.64
534.01	39983.37
534.18	40224.45
534.35	40123.80
534.52	39971.67
534.69	40350.84
534.86	40982.78
535.03	40273.60
535.20	40966.40
535.37	40673.83
535.54	41020.23
535.71	40442.12
535.88	40498.29
536.05	40414.03
536.22	40259.55
536.38	40231.47
536.55	40339.13
536.72	40203.38
536.89	40662.13
537.06	41041.29
537.23	40554.46
537.40	40793.20
537.57	40985.12
537.74	41273.01
537.91	40882.14
538.08	41226.20
538.25	40737.02
538.42	41371.31
538.59	41525.78
538.75	40985.12
538.92	41029.59
539.09	41167.68
539.26	40914.90
539.43	41715.37
539.60	41179.39
539.77	40914.90
539.94	41251.94
540.11	41471.95
540.28	41359.61
540.44	41570.25
540.61	41057.68
540.78	41078.74
540.95	41333.86
541.12	41645.15
541.29	41736.43
541.46	41876.86
541.62	41963.46
541.79	42211.56
541.96	41322.16
542.13	41977.51
542.30	41825.37
542.47	41780.90
542.63	42258.37
542.80	42120.28
542.97	42752.23
543.14	42866.91
543.31	42445.62
543.48	42384.76
543.64	43201.61
543.81	42887.98
543.98	42974.58
544.15	42710.10
544.32	42602.43
544.48	43159.48
544.65	42747.54
544.82	42820.10
544.99	42433.91
545.16	43122.03
545.32	42806.06
545.49	43129.05
545.66	43143.09
545.83	43217.99
546.00	43529.28
546.16	42951.17
546.33	42871.59
546.50	42618.81
546.67	42630.52
546.83	43068.20
547.00	43494.18
547.17	43126.71
547.34	43400.55
547.50	43232.04
547.67	43246.08
547.84	43604.18
548.00	43620.56
548.17	43489.49
548.34	43943.56
548.51	44245.49
548.67	43700.14
548.84	43934.20
549.01	43473.11
549.18	43650.99
549.34	43419.28
549.51	43655.67
549.68	44105.06
549.84	43889.73
550.01	44135.48
550.18	43854.62
550.34	43871.00
550.51	44177.61
550.68	43931.86
550.84	43388.85
551.01	44236.12
551.18	43838.23
551.34	44198.68
551.51	44601.25
551.68	44322.72
551.84	44360.17
552.01	44254.85
552.18	44346.13
552.34	44144.84
552.51	44011.43
552.68	44041.86
552.84	44542.74
553.01	44919.56
553.18	44367.20
553.34	44491.24
553.51	44222.08
553.67	44289.96
553.84	44706.57
554.01	44942.97
554.17	44821.26
554.34	44500.61
554.51	44722.96
554.67	44961.69
554.84	44357.83
555.00	44690.19
555.17	44790.83
555.33	45006.16
555.50	44507.63
555.67	44582.52
555.83	44765.09
556.00	44769.77
556.16	44882.11
556.33	44900.84
556.50	44641.04
556.66	44893.82
556.83	44711.25
556.99	45118.51
557.16	45270.64
557.32	45427.46
557.49	45207.45
557.65	44844.66
557.82	45130.21
557.98	45097.44
558.15	44870.41
558.32	45247.24
558.48	44905.52
558.65	45312.77
558.81	44809.56
558.98	45134.89
559.14	44945.31
559.31	45282.34
559.47	45345.54
559.64	45500.01
559.80	44949.99
559.97	44669.12
560.13	45102.12
560.30	44954.67
560.46	45167.66
560.63	45249.58
560.79	45647.47
560.96	45879.18
561.12	45155.96
561.29	45495.33
561.45	45141.91
561.61	45434.48
561.78	45624.06
561.94	44811.90
562.11	45375.97
562.27	45535.12
562.44	45270.64
562.60	45191.06
562.77	45420.44
562.93	45567.89
563.10	45830.03
563.26	45050.63
563.42	45425.12
563.59	45134.89
563.75	45631.08
563.92	45886.20
564.08	45633.42
564.24	45565.55
564.41	46003.23
564.57	45329.16
564.74	45492.99
564.90	45820.67
565.07	45722.37
565.23	45567.89
565.39	45570.23
565.56	45184.04
565.72	45832.37
565.88	45743.43
566.05	45933.01
566.21	45923.65
566.38	45715.34
566.54	45198.09
566.70	45797.26
566.87	46251.33
567.03	45659.17
567.19	46330.90
567.36	45612.36
567.52	45684.92
567.68	45823.01
567.85	45553.85
568.01	46183.45
568.17	46005.57
568.34	46096.85
568.50	45813.65
568.66	45628.74
568.83	45916.63
568.99	45457.88
569.15	45808.96
569.32	45804.28
569.48	45720.02
569.64	46150.68
569.81	45757.47
569.97	45500.01
570.13	45818.33
570.30	45757.47
570.46	45851.09
570.62	45614.70
570.78	45453.20
570.95	45645.13
571.11	45979.82
571.27	45720.02
571.43	46101.53
571.60	45933.01
571.76	46354.31
571.92	45792.58
572.09	45595.98
572.25	46312.18
572.41	45698.96
572.57	46153.02
572.74	46066.42
572.90	46068.76
573.06	46265.37
573.22	45581.93
573.38	46169.41
573.55	45764.49
573.71	45820.67
573.87	45977.48
574.03	46005.57
574.20	45940.04
574.36	45801.94
574.52	45762.15
574.68	46178.77
574.84	45708.32
575.01	45715.34
575.17	46237.28
575.33	45713.00
575.49	45888.54
575.65	46185.79
575.82	46094.51
575.98	45881.52
576.14	46270.05
576.30	46387.08
576.46	46050.04
576.62	45888.54
576.79	45986.85
576.95	45778.54
577.11	46146.00
577.27	46209.20
577.43	46204.52
577.59	46174.09
577.75	46007.91
577.92	45640.45
578.08	45773.86
578.24	45942.38
578.40	45811.31
578.56	45823.01
578.72	46110.89
578.88	45432.14
579.04	46087.49
579.21	45993.87
579.37	46251.33
579.53	45954.08
579.69	46066.42
579.85	45867.48
580.01	46347.29
580.17	46064.08
580.33	46328.56
580.49	46263.03
580.65	46602.41
580.82	46253.67
580.98	45996.21
581.14	45933.01
581.30	46335.59
581.46	45855.78
581.62	46358.99
581.78	46150.68
581.94	46452.61
582.10	46026.63
582.26	46237.28
582.42	45951.74
582.58	46344.95
582.74	46293.46
582.90	46136.64
583.06	46543.89
583.22	46333.24
583.38	46227.92
583.54	46293.46
583.70	46167.07
583.86	46295.80
584.02	46092.17
584.18	46017.27
584.34	46279.41
584.50	46057.06
584.66	46012.59
584.82	46040.68
584.98	46387.08
585.14	46131.96
585.30	46314.52
585.46	46298.14
585.62	45947.06
585.78	45975.14
585.94	46075.79
586.10	46401.12
586.26	46258.35
586.42	46574.32
586.58	46564.96
586.74	46358.99
586.90	46012.59
587.06	45977.48
587.22	46464.32
587.38	46082.81
587.54	46075.79
587.70	45872.16
587.86	46256.01
588.02	46380.06
588.18	46183.45
588.34	46138.98
588.49	45558.53
588.65	45752.79
588.81	45537.46
588.97	46021.95
589.13	45581.93
589.29	45977.48
589.45	45900.25
589.61	45935.35
589.77	46265.37
589.93	46307.50
590.08	46349.63
