SpectraSuite Data File
++++++++++++++++++++++++++++++++++++
Date: Fri Oct 25 11:23:36 EDT 2013
User: price-jones
Dark Spectrum Present: No
Reference Spectrum Present: No
Number of Sampled Component Spectra: 1
Spectrometers: USB2+H05261
Integration Time (usec): 100000 (USB2+H05261)
Spectra Averaged: 1 (USB2+H05261)
Boxcar Smoothing: 0 (USB2+H05261)
Correct for Electrical Dark: No (USB2+H05261)
Strobe/Lamp Enabled: No (USB2+H05261)
Correct for Detector Non-linearity: No (USB2+H05261)
Correct for Stray Light: No (USB2+H05261)
Number of Pixels in Processed Spectrum: 2048
>>>>>Begin Processed Spectral Data<<<<<
365.73	243.42
365.92	243.42
366.12	243.42
366.32	173.20
366.52	105.32
366.72	128.73
366.91	105.32
367.11	152.13
367.31	152.13
367.51	72.56
367.70	60.85
367.90	110.01
368.10	152.13
368.30	131.07
368.49	161.50
368.69	145.11
368.89	131.07
369.09	222.35
369.28	180.22
369.48	107.66
369.68	180.22
369.87	231.71
370.07	191.92
370.27	287.89
370.47	280.86
370.66	526.62
370.86	660.03
371.06	671.73
371.25	730.25
371.45	688.12
371.65	601.52
371.84	678.76
372.04	641.31
372.24	704.50
372.44	741.95
372.63	781.74
372.83	770.04
373.03	748.97
373.22	763.01
373.42	788.76
373.62	791.10
373.81	788.76
374.01	798.12
374.21	748.97
374.40	767.70
374.60	835.57
374.79	788.76
374.99	833.23
375.19	840.25
375.38	877.70
375.58	858.98
375.78	805.14
375.97	896.43
376.17	868.34
376.37	901.11
376.56	802.80
376.76	807.48
376.95	844.93
377.15	905.79
377.35	891.74
377.54	936.21
377.74	868.34
377.93	919.83
378.13	830.89
378.33	933.87
378.52	847.27
378.72	957.28
378.91	800.46
379.11	903.45
379.31	898.77
379.50	912.81
379.70	987.71
379.89	999.41
380.09	997.07
380.28	938.55
380.48	919.83
380.68	931.53
380.87	1048.56
381.07	1015.79
381.26	1011.11
381.46	1097.71
381.65	1013.45
381.85	1083.67
382.04	985.37
382.24	1006.43
382.43	1057.92
382.63	1055.58
382.83	1025.15
383.02	1057.92
383.22	1111.75
383.41	1029.84
383.61	1083.67
383.80	1158.57
384.00	1090.69
384.19	1135.16
384.39	1144.52
384.58	1125.80
384.78	1132.82
384.97	1083.67
385.17	1153.88
385.36	1207.72
385.56	1177.29
385.75	1163.25
385.95	1196.01
386.14	1188.99
386.34	1174.95
386.53	1224.10
386.72	1188.99
386.92	1348.15
387.11	1263.89
387.31	1282.61
387.50	1329.42
387.70	1266.23
387.89	1205.38
388.09	1235.80
388.28	1235.80
388.48	1282.61
388.67	1317.72
388.86	1301.34
389.06	1313.04
389.25	1385.60
389.45	1324.74
389.64	1350.49
389.84	1390.28
390.03	1345.81
390.22	1423.05
390.42	1401.98
390.61	1387.94
390.81	1315.38
391.00	1423.05
391.19	1434.75
391.39	1369.21
391.58	1397.30
391.78	1507.30
391.97	1453.47
392.16	1572.84
392.36	1561.14
392.55	1465.18
392.75	1444.11
392.94	1612.63
393.13	1582.20
393.33	1502.62
393.52	1533.05
393.71	1526.03
393.91	1619.65
394.10	1528.37
394.29	1516.67
394.49	1666.46
394.68	1556.46
394.88	1626.67
395.07	1607.95
395.26	1617.31
395.46	1631.35
395.65	1671.14
395.84	1682.85
396.04	1781.15
396.23	1739.02
396.42	1760.08
396.62	1813.92
396.81	1771.79
397.00	1764.76
397.19	1713.27
397.39	1776.47
397.58	1842.00
397.77	1947.33
397.97	1776.47
398.16	1839.66
398.35	1900.52
398.55	1916.90
398.74	1856.04
398.93	1891.15
399.12	1935.62
399.32	1919.24
399.51	1898.17
399.70	2015.20
399.90	1989.46
400.09	1923.92
400.28	2078.40
400.47	2064.35
400.67	1998.82
400.86	2078.40
401.05	2155.63
401.24	2092.44
401.44	2157.97
401.63	2143.93
401.82	2090.10
402.01	2036.27
402.21	2221.17
402.40	2157.97
402.59	2167.34
402.78	2214.15
402.97	2186.06
403.17	2296.07
403.36	2289.04
403.55	2221.17
403.74	2300.75
403.93	2408.41
404.13	2394.37
404.32	2314.79
404.51	2373.30
404.70	2401.39
404.89	2415.43
405.09	2506.71
405.28	2471.61
405.47	2487.99
405.66	2572.25
405.85	2434.16
406.05	2534.80
406.24	2527.78
406.43	2520.76
406.62	2586.29
406.81	2588.63
407.00	2623.74
407.20	2602.68
407.39	2595.65
407.58	2672.89
407.77	2700.98
407.96	2726.72
408.15	2715.02
408.34	2708.00
408.54	2803.96
408.73	2745.45
408.92	2752.47
409.11	2815.66
409.30	2988.86
409.49	2771.19
409.68	2888.22
409.87	2920.99
410.07	3028.65
410.26	3084.83
410.45	2995.89
410.64	3033.33
410.83	2913.97
411.02	3110.57
411.21	3094.19
411.40	3023.97
411.59	3171.43
411.78	3068.44
411.98	3162.06
412.17	3311.86
412.36	3213.56
412.55	3279.09
412.74	3452.29
412.93	3471.01
413.12	3349.31
413.31	3447.61
413.50	3499.10
413.69	3538.89
413.88	3599.74
414.07	3599.74
414.26	3747.20
414.45	3665.28
414.64	3602.08
414.83	3716.77
415.02	3805.71
415.22	3749.54
415.41	3878.27
415.60	3819.75
415.79	3911.04
415.98	3932.10
416.17	3901.67
416.36	3906.35
416.55	3990.61
416.74	4042.11
416.93	4117.00
417.12	4063.17
417.31	4159.13
417.50	4180.20
417.69	4461.06
417.88	4318.29
418.07	4269.14
418.26	4320.63
418.45	4255.09
418.64	4503.19
418.83	4395.53
419.02	4390.84
419.21	4390.84
419.39	4526.60
419.58	4449.36
419.77	4463.40
419.96	4585.11
420.15	4533.62
420.34	4512.55
420.53	4641.28
420.72	4592.13
420.91	4727.88
421.10	4748.95
421.29	4849.59
421.48	4741.93
421.67	4802.78
421.86	4788.74
422.05	4730.22
422.24	4791.08
422.43	4720.86
422.61	4837.89
422.80	4975.98
422.99	4882.36
423.18	4779.37
423.37	4952.57
423.56	5064.92
423.75	4985.34
423.94	4873.00
424.13	4580.43
424.32	4788.74
424.50	5032.15
424.69	5184.29
424.88	4894.06
425.07	4849.59
425.26	5015.77
425.45	4910.44
425.64	4945.55
425.83	4880.02
426.01	5057.90
426.20	5029.81
426.39	5130.45
426.58	4945.55
426.77	4980.66
426.96	5111.73
427.15	5158.54
427.33	5205.35
427.52	5184.29
427.71	5093.01
427.90	5284.93
428.09	5350.46
428.28	5357.49
428.46	5238.12
428.65	5210.03
428.84	5582.18
429.03	5448.77
429.22	5362.17
429.40	5472.17
429.59	5521.32
429.78	5245.14
429.97	5352.81
430.16	5535.37
430.34	5453.45
430.53	5760.06
430.72	5563.45
430.91	5643.03
431.10	5549.41
431.28	5640.69
431.47	5830.27
431.66	5891.13
431.85	5820.91
432.03	5884.11
432.22	5980.07
432.41	5996.45
432.60	5837.30
432.79	5895.81
432.97	6080.71
433.16	5893.47
433.35	6139.23
433.54	6171.99
433.72	6015.18
433.91	6038.58
434.10	6099.44
434.28	6085.39
434.47	6104.12
434.66	6333.49
434.85	6282.00
435.03	6392.00
435.22	6139.23
435.41	6443.49
435.59	6324.13
435.78	6597.97
435.97	6464.56
436.16	6445.84
436.34	6490.31
436.53	6462.22
436.72	6703.29
436.90	6548.82
437.09	6525.41
437.28	6434.13
437.46	6715.00
437.65	6719.68
437.84	6829.68
438.02	6757.13
438.21	6698.61
438.40	6736.06
438.58	6979.48
438.77	7122.25
438.96	6979.48
439.14	7162.04
439.33	7197.15
439.52	7173.74
439.70	7222.89
439.89	7131.61
440.08	7403.11
440.26	7449.93
440.45	7543.55
440.63	7634.83
440.82	7728.45
441.01	7590.36
441.19	7658.23
441.38	7700.36
441.57	7740.15
441.75	7772.92
441.94	8081.87
442.12	8046.76
442.31	8203.58
442.50	8112.30
442.68	8205.92
442.87	7939.10
443.05	8369.76
443.24	8222.30
443.43	8112.30
443.61	8009.31
443.80	8271.45
443.98	8023.36
444.17	7948.46
444.35	8346.35
444.54	8308.90
444.73	8334.65
444.91	8269.11
445.10	8344.01
445.28	8205.92
445.47	8435.29
445.65	8451.67
445.84	8484.44
446.02	8456.36
446.21	8271.45
446.39	8468.06
446.58	8461.04
446.77	8390.82
446.95	8308.90
447.14	8308.90
447.32	8634.24
447.51	8524.23
447.69	8367.42
447.88	8557.00
448.06	8414.23
448.25	8704.45
448.43	8676.37
448.62	8510.19
448.80	8498.49
448.99	8823.82
449.17	8758.28
449.36	8662.32
449.54	8926.80
449.73	8919.78
449.91	9144.47
450.10	8994.68
450.28	9004.04
450.46	8975.95
450.65	8882.33
450.83	9137.45
451.02	9130.43
451.20	9146.81
451.39	9132.77
451.57	9050.85
451.76	8933.82
451.94	9266.18
452.13	9399.59
452.31	9331.72
452.49	9158.52
452.68	9500.23
452.86	9486.19
453.05	9628.96
453.23	9495.55
453.42	9219.37
453.60	9612.58
453.78	9577.47
453.97	9305.97
454.15	9385.55
454.34	9542.36
454.52	9764.72
454.70	9659.39
454.89	9621.94
455.07	9781.10
455.26	9848.97
455.44	9853.66
455.62	9914.51
455.81	9811.53
455.99	10012.81
456.17	10216.44
456.36	10118.14
456.54	10050.26
456.73	10328.78
456.91	10534.75
457.09	10312.40
457.28	10471.56
457.46	10480.92
457.64	10553.48
457.83	10562.84
458.01	10497.30
458.19	10789.87
458.38	10368.57
458.56	10764.12
458.74	10752.42
458.93	10829.66
459.11	10696.25
459.29	10469.22
459.48	11124.57
459.66	10881.15
459.84	10949.03
460.03	11052.01
460.21	10761.78
460.39	10714.97
460.57	11080.10
460.76	11129.25
460.94	11323.51
461.12	11162.01
461.31	10991.16
461.49	11208.83
461.67	11281.38
461.85	11709.70
462.04	11136.27
462.22	11466.28
462.40	11323.51
462.59	11583.31
462.77	11623.10
462.95	11885.24
463.13	11475.65
463.32	11641.82
463.50	11768.21
463.68	11768.21
463.86	11754.17
464.05	11712.04
464.23	11800.98
464.41	11852.47
464.59	11606.72
464.78	12023.33
464.96	11960.14
465.14	11723.74
465.32	11829.07
465.50	12109.93
465.69	12086.53
465.87	12367.39
466.05	12084.19
466.23	12205.89
466.41	12175.47
466.60	12676.34
466.78	12016.31
466.96	12215.26
467.14	12313.56
467.32	12400.16
467.51	12671.66
467.69	12093.55
467.87	12524.21
468.05	12664.64
468.23	12278.45
468.41	12493.78
468.60	12585.06
468.78	12734.85
468.96	12580.38
469.14	12992.31
469.32	13116.36
469.50	12868.27
469.69	13041.46
469.87	13078.91
470.05	12947.84
470.23	13132.75
470.41	13053.17
470.59	13266.16
470.77	13301.26
470.95	13301.26
471.14	13551.70
471.32	13076.57
471.50	13671.07
471.68	13860.65
471.86	13671.07
472.04	13640.64
472.22	14061.94
472.40	13781.07
472.58	13750.65
472.77	14207.05
472.95	14396.64
473.13	14480.89
473.31	13928.53
473.49	14174.28
473.67	14183.65
473.85	14291.31
474.03	14597.92
474.21	14759.42
474.39	14773.46
474.57	14689.20
474.75	14780.48
474.93	15234.55
475.12	14902.19
475.30	15150.29
475.48	14967.73
475.66	15213.48
475.84	15241.57
476.02	15604.35
476.20	15344.55
476.38	15536.48
476.56	15854.79
476.74	15948.41
476.92	16056.08
477.10	16023.31
477.28	16198.85
477.46	16212.89
477.64	16299.49
477.82	16514.82
478.00	17125.70
478.18	16786.32
478.36	16999.31
478.54	17212.30
478.72	17247.41
478.90	17404.22
479.08	17706.15
479.26	17877.01
479.44	17970.63
479.62	17720.20
479.80	18288.95
479.98	18328.74
480.16	18396.61
480.34	18216.39
480.52	18623.64
480.70	18408.31
480.88	18380.23
481.06	18604.92
481.24	18670.45
481.41	19274.31
481.59	19321.12
481.77	19686.25
481.95	19662.84
482.13	19744.76
482.31	19683.91
482.49	20538.20
482.67	20444.58
482.85	20655.23
483.03	20641.18
483.21	20933.75
483.39	21226.32
483.57	20826.09
483.74	20931.41
483.92	21675.70
484.10	21514.20
484.28	21734.21
484.46	22057.21
484.64	22728.94
484.82	22040.82
485.00	22469.14
485.18	22874.06
485.35	23012.15
485.53	22635.32
485.71	23337.48
485.89	23438.12
486.07	23325.78
486.25	23529.41
486.43	23304.71
486.61	23824.31
486.78	23917.93
486.96	24020.92
487.14	24748.82
487.32	24596.69
487.50	25039.05
487.68	24936.07
487.85	25343.32
488.03	25694.40
488.21	25773.98
488.39	26040.80
488.57	26073.57
488.75	26258.47
488.92	26253.79
489.10	26965.31
489.28	27269.58
489.46	27150.21
489.64	27250.86
489.81	27412.35
489.99	27824.29
490.17	27997.49
490.35	28086.43
490.53	28566.24
490.70	28222.18
490.88	28617.73
491.06	28341.55
491.24	28877.53
491.41	29296.49
491.59	29153.71
491.77	29362.02
491.95	29708.42
492.13	30129.72
492.30	30206.95
492.48	30120.35
492.66	29926.09
492.84	30349.73
493.01	30906.77
493.19	30799.11
493.37	31087.00
493.54	31232.11
493.72	31407.65
493.90	31314.03
494.08	31431.05
494.25	32025.55
494.43	31971.72
494.61	32500.68
494.79	32645.79
494.96	32767.50
495.14	33060.07
495.32	32994.53
495.49	33324.55
495.67	33247.31
495.85	33783.29
496.02	33900.32
496.20	34281.83
496.38	33670.95
496.55	34604.82
496.73	34646.95
496.91	34558.01
497.09	35040.16
497.26	35187.61
497.44	35051.86
497.62	35526.99
497.79	35578.48
497.97	35452.09
498.14	36011.48
498.32	36781.52
498.50	36615.34
498.67	36512.36
498.85	36533.42
499.03	36659.81
499.20	36959.40
499.38	37284.73
499.56	37338.57
499.73	36985.15
499.91	37507.08
500.08	37729.44
500.26	37188.77
500.44	37364.31
500.61	37904.98
500.79	37890.93
500.97	38335.63
501.14	38370.74
501.32	38597.77
501.49	39005.03
501.67	38337.98
501.84	38990.98
502.02	38944.17
502.20	38836.51
502.37	39356.11
502.55	39405.26
502.72	39749.32
502.90	39318.66
503.07	39445.05
503.25	40154.23
503.43	40069.97
503.60	40341.47
503.78	40390.62
503.95	40620.00
504.13	40779.15
504.30	40521.69
504.48	40648.08
504.65	40978.10
504.83	41151.30
505.01	41343.22
505.18	41123.21
505.36	41663.88
505.53	40947.67
505.71	41471.95
505.88	41942.40
506.06	41446.21
506.23	42260.71
506.41	41820.69
506.58	42178.79
506.76	42539.24
506.93	42719.46
507.11	42213.90
507.28	42057.09
507.46	42909.04
507.63	43246.08
507.81	43592.48
507.98	43482.47
508.16	43304.59
508.33	43622.90
508.50	43381.83
508.68	43555.03
508.85	43992.71
509.03	44044.20
509.20	44278.25
509.38	44505.29
509.55	44552.10
509.73	44781.47
509.90	44603.59
510.08	44524.01
510.25	44554.44
510.42	45067.02
510.60	44837.64
510.77	45787.90
510.95	45958.76
511.12	45006.16
511.30	45228.51
511.47	45432.14
511.64	45694.28
511.82	46038.34
511.99	45963.44
512.17	46192.81
512.34	45970.46
512.51	46745.18
512.69	46450.27
512.86	45993.87
513.04	46457.29
513.21	46529.85
513.38	47068.17
513.56	46960.51
513.73	46768.58
513.90	47164.14
514.08	46794.33
514.25	47393.51
514.43	47599.47
514.60	47421.59
514.77	47683.73
514.95	47648.63
515.12	47494.15
515.29	47885.02
515.47	48006.73
515.64	48339.08
515.81	48165.88
515.99	48463.13
516.16	48947.62
516.33	48236.10
516.51	48889.11
516.68	48755.70
516.85	48266.53
517.03	48825.92
517.20	48898.47
517.37	49029.54
517.54	48807.19
517.72	49036.56
517.89	49186.36
518.06	49102.10
518.24	49560.84
518.41	49509.35
518.58	49471.90
518.75	49106.78
518.93	49593.61
519.10	49495.31
519.27	49602.97
519.45	49687.23
519.62	49663.83
519.79	50365.99
519.96	50014.91
520.14	50394.07
520.31	50057.04
520.48	50609.40
520.65	50415.14
520.83	50752.18
521.00	50688.98
521.17	50796.65
521.34	50557.91
521.52	50637.49
521.69	50770.90
521.86	50986.23
522.03	51114.96
522.20	51161.77
522.38	51295.18
522.55	51370.08
522.72	51571.36
522.89	51248.37
523.07	51779.67
523.24	51622.86
523.41	51622.86
523.58	51569.02
523.75	52168.20
523.92	52102.67
524.10	52156.50
524.27	52053.51
524.44	52004.36
524.61	52278.21
524.78	52219.69
524.96	52486.51
525.13	52437.36
525.30	52612.90
525.47	52727.59
525.64	52722.91
525.81	52690.14
525.98	52846.96
526.16	52893.77
526.33	52774.40
526.50	53099.73
526.67	52699.50
526.84	52825.89
527.01	53045.90
527.18	52839.93
527.36	53174.63
527.53	53022.50
527.70	53158.25
527.87	53614.65
528.04	53212.08
528.21	53591.25
528.38	53450.81
528.55	53511.67
528.72	53448.47
528.89	53549.12
529.07	53457.84
529.24	53282.30
529.41	53680.19
529.58	53743.38
529.75	53570.18
529.92	53614.65
530.09	53876.79
530.26	53872.11
530.43	54124.89
530.60	53886.15
530.77	54035.95
530.94	54143.61
531.11	53930.62
531.28	54333.20
531.46	54197.44
531.63	54368.30
531.80	54319.15
531.97	54646.83
532.14	54312.13
532.31	54693.64
532.48	54740.45
532.65	54679.60
532.82	54529.80
532.99	54628.10
533.16	55002.59
533.33	55011.95
533.50	54813.01
533.67	55140.68
533.84	54773.22
534.01	54915.99
534.18	54958.12
534.35	55435.59
534.52	55004.93
534.69	55150.04
534.86	55489.42
535.03	55290.48
535.20	55334.95
535.37	55344.31
535.54	55313.88
535.71	55185.15
535.88	55566.66
536.05	55529.21
536.22	55648.58
536.38	55583.04
536.55	55639.22
536.72	55587.72
536.89	55742.20
537.06	55653.26
537.23	55866.25
537.40	55440.27
537.57	55962.21
537.74	55753.90
537.91	56154.13
538.08	55812.41
538.25	55732.84
538.42	55866.25
538.59	56294.56
538.75	56069.87
538.92	56058.17
539.09	56350.74
539.26	56229.03
539.43	56385.85
539.60	56226.69
539.77	56537.98
539.94	56505.21
540.11	56530.96
540.28	56364.78
540.44	56406.91
540.61	56624.58
540.78	56435.00
540.95	56549.68
541.12	56371.80
541.29	56570.75
541.46	56786.08
541.62	56783.74
541.79	56725.22
541.96	56591.81
542.13	56439.68
542.30	56828.21
542.47	56872.68
542.63	56907.79
542.80	56999.07
542.97	56992.04
543.14	57308.02
543.31	57118.43
543.48	57422.70
543.64	57427.38
543.81	57471.85
543.98	57352.49
544.15	57268.23
544.32	57425.04
544.48	57591.22
544.65	57354.83
544.82	57684.84
544.99	57336.10
545.16	57434.41
545.32	57694.21
545.49	57853.36
545.66	57841.66
545.83	57640.37
546.00	57654.42
546.16	57860.38
546.33	57408.66
546.50	57612.29
546.67	58031.24
546.83	57492.92
547.00	57949.32
547.17	58042.95
547.34	57946.98
547.50	58110.82
547.67	58225.51
547.84	57977.41
548.00	58110.82
548.17	58440.84
548.34	58155.29
548.51	58209.12
548.67	58192.74
548.84	58075.71
549.01	58199.76
549.18	58237.21
549.34	58316.79
549.51	58480.63
549.68	58504.03
549.84	58454.88
550.01	58262.96
550.18	58398.71
550.34	58466.58
550.51	58578.93
550.68	58422.11
550.84	58408.07
551.01	58550.84
551.18	58436.16
551.34	58642.12
551.51	58688.93
551.68	58461.90
551.84	58742.77
552.01	58412.75
552.18	58906.60
552.34	58396.37
552.51	58642.12
552.68	58714.68
552.84	58745.11
553.01	59037.67
553.18	58756.81
553.34	59018.95
553.51	58904.26
553.67	58871.49
553.84	59056.40
554.01	58976.82
554.17	59175.76
554.34	59192.15
554.51	58981.50
554.67	59131.29
554.84	58820.00
555.00	59339.60
555.17	59051.72
555.33	59196.83
555.50	58995.54
555.67	59009.59
555.83	58993.20
556.00	59138.32
556.16	59419.18
556.33	59196.83
556.50	59278.75
556.66	59341.94
556.83	59220.23
556.99	59426.20
557.16	59370.03
557.32	59564.29
557.49	59683.66
557.65	59313.86
557.82	59332.58
557.98	59480.03
558.15	59292.79
558.32	59564.29
558.48	59498.76
558.65	59615.79
558.81	59611.10
558.98	59767.92
559.14	59700.04
559.31	59587.70
559.47	59639.19
559.64	59819.41
559.80	59669.62
559.97	60013.68
560.13	59669.62
560.30	59742.17
560.46	59669.62
560.63	59992.61
560.79	59655.57
560.96	59994.95
561.12	59969.21
561.29	59760.90
561.45	59854.52
561.61	59938.78
561.78	59700.04
561.94	59805.37
562.11	59987.93
562.27	59891.97
562.44	59929.42
562.60	60177.51
562.77	60011.34
562.93	59753.88
563.10	60001.97
563.26	59945.80
563.42	60128.36
563.59	60055.81
563.75	60229.01
563.92	60186.88
564.08	59936.44
564.24	60264.11
564.41	60170.49
564.57	60240.71
564.74	60264.11
564.90	60088.57
565.07	60252.41
565.23	60144.75
565.39	60074.53
565.56	60259.43
565.72	60207.94
565.88	60243.05
566.05	60233.69
566.21	60224.32
566.38	60259.43
566.54	60484.12
566.70	60313.26
566.87	60458.38
567.03	60271.14
567.19	60584.77
567.36	60074.53
567.52	60229.01
567.68	60673.71
567.85	60413.91
568.01	60432.63
568.17	60346.03
568.34	60434.97
568.50	60441.99
568.66	60147.09
568.83	60491.15
568.99	60465.40
569.15	60537.96
569.32	60423.27
569.48	60416.25
569.64	60636.26
569.81	60479.44
569.97	60605.83
570.13	60587.11
570.30	60156.45
570.46	60542.64
570.62	60526.25
570.78	60535.62
570.95	60559.02
571.11	60746.26
571.27	60587.11
571.43	60537.96
571.60	60722.86
571.76	60575.40
571.92	60549.66
572.09	60722.86
572.25	60671.37
572.41	60685.41
572.57	60638.60
572.74	60774.35
572.90	60659.66
573.06	60739.24
573.22	60603.49
573.38	60690.09
573.55	60746.26
573.71	60671.37
573.87	60704.13
574.03	60423.27
574.20	60793.07
574.36	60587.11
574.52	60994.36
574.68	60631.58
574.84	60767.33
575.01	60722.86
575.17	60797.76
575.33	60603.49
575.49	60704.13
575.65	60594.13
575.82	60959.25
575.98	60882.02
576.14	60828.18
576.30	60722.86
576.46	60945.21
576.62	60797.76
576.79	60750.94
576.95	60786.05
577.11	60612.85
577.27	60931.17
577.43	60970.96
577.59	60926.49
577.75	60708.82
577.92	60856.27
578.08	61022.45
578.24	60746.26
578.40	61008.40
578.56	60966.27
578.72	60830.52
578.88	60992.02
579.04	61055.21
579.21	60970.96
579.37	61195.65
579.53	61228.41
579.69	60769.67
579.85	60949.89
580.01	60926.49
580.17	60856.27
580.33	61062.24
580.49	60926.49
580.65	61003.72
580.82	60903.08
580.98	60837.54
581.14	60781.37
581.30	61102.03
581.46	60949.89
581.62	61080.96
581.78	60912.44
581.94	61146.50
582.10	60764.99
582.26	60942.87
582.42	60818.82
582.58	60968.61
582.74	60931.17
582.90	60856.27
583.06	61087.98
583.22	60994.36
583.38	61083.30
583.54	61031.81
583.70	61216.71
583.86	61083.30
584.02	60942.87
584.18	61200.33
584.34	61062.24
584.50	61130.11
584.66	61022.45
584.82	60692.43
584.98	61071.60
585.14	61216.71
585.30	60886.70
585.46	61010.74
585.62	61148.84
585.78	61071.60
585.94	60823.50
586.10	60938.19
586.26	61169.90
586.42	60959.25
586.58	61230.75
586.74	61223.73
586.90	61006.06
587.06	60926.49
587.22	61357.14
587.38	61212.03
587.54	61251.82
587.70	61268.20
587.86	61165.22
588.02	61125.43
588.18	61212.03
588.34	61127.77
588.49	61200.33
