SpectraSuite Data File
++++++++++++++++++++++++++++++++++++
Date: Fri Oct 25 10:47:54 EDT 2013
User: price-jones
Dark Spectrum Present: No
Reference Spectrum Present: No
Number of Sampled Component Spectra: 1
Spectrometers: USB2+H05261
Integration Time (usec): 100000 (USB2+H05261)
Spectra Averaged: 1 (USB2+H05261)
Boxcar Smoothing: 0 (USB2+H05261)
Correct for Electrical Dark: No (USB2+H05261)
Strobe/Lamp Enabled: No (USB2+H05261)
Correct for Detector Non-linearity: No (USB2+H05261)
Correct for Stray Light: No (USB2+H05261)
Number of Pixels in Processed Spectrum: 2048
>>>>>Begin Processed Spectral Data<<<<<
365.73	184.90
365.92	184.90
366.12	184.90
366.32	44.47
366.52	58.51
366.72	16.38
366.91	0.00
367.11	95.96
367.31	39.79
367.51	23.41
367.70	51.49
367.90	88.94
368.10	88.94
368.30	0.00
368.49	0.00
368.69	16.38
368.89	91.28
369.09	16.38
369.28	88.94
369.48	70.22
369.68	124.05
369.87	110.01
370.07	114.69
370.27	140.43
370.47	198.95
370.66	353.42
370.86	393.21
371.06	486.83
371.25	517.26
371.45	468.11
371.65	479.81
371.84	475.13
372.04	418.96
372.24	440.02
372.44	404.91
372.63	458.74
372.83	517.26
373.03	550.03
373.22	428.32
373.42	486.83
373.62	526.62
373.81	538.32
374.01	561.73
374.21	554.71
374.40	507.90
374.60	587.47
374.79	521.94
374.99	526.62
375.19	610.88
375.38	528.96
375.58	578.11
375.78	613.22
375.97	629.60
376.17	620.24
376.37	587.47
376.56	603.86
376.76	505.56
376.95	498.53
377.15	573.43
377.35	589.82
377.54	603.86
377.74	601.52
377.93	648.33
378.13	620.24
378.33	692.80
378.52	596.84
378.72	669.39
378.91	641.31
379.11	641.31
379.31	582.79
379.50	559.39
379.70	704.50
379.89	648.33
380.09	624.92
380.28	690.46
380.48	667.05
380.68	624.92
380.87	643.65
381.07	697.48
381.26	589.82
381.46	589.82
381.65	662.37
381.85	660.03
382.04	709.18
382.24	634.29
382.43	718.54
382.63	648.33
382.83	638.97
383.02	704.50
383.22	760.67
383.41	643.65
383.61	763.01
383.80	692.80
384.00	739.61
384.19	725.57
384.39	791.10
384.58	753.65
384.78	767.70
384.97	688.12
385.17	807.48
385.36	788.76
385.56	870.68
385.75	723.23
385.95	826.21
386.14	774.72
386.34	751.31
386.53	770.04
386.72	737.27
386.92	814.51
387.11	863.66
387.31	882.38
387.50	856.64
387.70	814.51
387.89	826.21
388.09	786.42
388.28	819.19
388.48	814.51
388.67	866.00
388.86	842.59
389.06	830.89
389.25	849.61
389.45	828.55
389.64	896.43
389.84	875.36
390.03	931.53
390.22	884.72
390.42	877.70
390.61	940.90
390.81	910.47
391.00	945.58
391.19	980.68
391.39	966.64
391.58	1067.28
391.78	964.30
391.97	959.62
392.16	931.53
392.36	994.73
392.55	936.21
392.75	964.30
392.94	938.55
393.13	992.39
393.33	938.55
393.52	1015.79
393.71	1043.88
393.91	1067.28
394.10	1041.54
394.29	1006.43
394.49	1025.15
394.68	1102.39
394.88	1153.88
395.07	1160.91
395.26	1107.07
395.46	1064.94
395.65	1137.50
395.84	1188.99
396.04	1207.72
396.23	1125.80
396.42	1163.25
396.62	1196.01
396.81	1233.46
397.00	1118.78
397.19	1153.88
397.39	1207.72
397.58	1261.55
397.77	1144.52
397.97	1200.69
398.16	1226.44
398.35	1277.93
398.55	1296.66
398.74	1324.74
398.93	1385.60
399.12	1327.08
399.32	1296.66
399.51	1380.92
399.70	1444.11
399.90	1394.96
400.09	1394.96
400.28	1355.17
400.47	1418.36
400.67	1462.83
400.86	1423.05
401.05	1427.73
401.24	1565.82
401.44	1444.11
401.63	1479.22
401.82	1556.46
402.01	1486.24
402.21	1507.30
402.40	1430.07
402.59	1544.75
402.78	1488.58
402.97	1638.38
403.17	1521.35
403.36	1472.20
403.55	1607.95
403.74	1575.18
403.93	1675.82
404.13	1563.48
404.32	1694.55
404.51	1626.67
404.70	1699.23
404.89	1629.01
405.09	1753.06
405.28	1664.12
405.47	1741.36
405.66	1689.87
405.85	1699.23
406.05	1708.59
406.24	1874.77
406.43	1795.19
406.62	1853.70
406.81	1937.96
407.00	1764.76
407.20	1750.72
407.39	1952.01
407.58	1895.83
407.77	1888.81
407.96	1856.04
408.15	1898.17
408.34	2005.84
408.54	2036.27
408.73	1902.86
408.92	2064.35
409.11	2064.35
409.30	2047.97
409.49	1991.80
409.68	2012.86
409.87	2029.24
410.07	1984.77
410.26	2134.57
410.45	2108.82
410.64	2195.42
410.83	2200.10
411.02	2120.53
411.21	2303.09
411.40	2225.85
411.59	2284.36
411.78	2291.38
411.98	2347.56
412.17	2291.38
412.36	2370.96
412.55	2361.60
412.74	2399.05
412.93	2307.77
413.12	2377.98
413.31	2466.92
413.50	2469.27
413.69	2473.95
413.88	2651.83
414.07	2626.08
414.26	2572.25
414.45	2654.17
414.64	2534.80
414.83	2665.87
415.02	2691.62
415.22	2780.56
415.41	2825.03
415.60	2754.81
415.79	2733.75
415.98	2785.24
416.17	2785.24
416.36	2848.43
416.55	2911.63
416.74	2890.56
416.93	2801.62
417.12	2991.20
417.31	2958.44
417.50	2970.14
417.69	3066.10
417.88	3096.53
418.07	2970.14
418.26	2967.80
418.45	3000.57
418.64	3084.83
418.83	3155.04
419.02	3225.26
419.21	3236.96
419.39	3260.37
419.58	3302.50
419.77	3276.75
419.96	3316.54
420.15	3403.14
420.34	3283.77
420.53	3300.16
420.72	3417.18
420.91	3339.94
421.10	3353.99
421.29	3417.18
421.48	3314.20
421.67	3456.97
421.86	3536.55
422.05	3421.86
422.24	3412.50
422.43	3501.44
422.61	3410.16
422.80	3421.86
422.99	3475.70
423.18	3414.84
423.37	3569.32
423.56	3485.06
423.75	3552.93
423.94	3382.07
424.13	3265.05
424.32	3356.33
424.50	3517.83
424.69	3513.14
424.88	3562.30
425.07	3431.23
425.26	3508.46
425.45	3480.38
425.64	3531.87
425.83	3616.13
426.01	3660.60
426.20	3669.96
426.39	3602.08
426.58	3662.94
426.77	3630.17
426.96	3653.58
427.15	3520.17
427.33	3777.62
427.52	3686.34
427.71	3672.30
427.90	3798.69
428.09	3726.13
428.28	3747.20
428.46	3833.80
428.65	3763.58
428.84	3873.59
429.03	3971.89
429.22	3648.90
429.40	3801.03
429.59	3770.60
429.78	3637.19
429.97	3660.60
430.16	3726.13
430.34	3911.04
430.53	3983.59
430.72	3822.09
430.91	3815.07
431.10	3861.88
431.28	4060.83
431.47	4044.45
431.66	4086.58
431.85	4060.83
432.03	4121.68
432.22	4152.11
432.41	4173.18
432.60	4112.32
432.79	4236.37
432.97	4280.84
433.16	4369.78
433.35	4147.43
433.54	4318.29
433.72	4215.30
433.91	4140.41
434.10	4227.01
434.28	4367.44
434.47	4437.66
434.66	4456.38
434.85	4390.84
435.03	4517.23
435.22	4397.87
435.41	4594.47
435.59	4550.00
435.78	4624.90
435.97	4667.03
436.16	4547.66
436.34	4428.29
436.53	4545.32
436.72	4676.39
436.90	4531.28
437.09	4660.01
437.28	4643.62
437.46	4858.95
437.65	4657.67
437.84	4667.03
438.02	4634.26
438.21	4676.39
438.40	4636.60
438.58	4718.52
438.77	4964.28
438.96	4791.08
439.14	4896.40
439.33	4959.60
439.52	5137.48
439.70	5032.15
439.89	5095.35
440.08	5081.30
440.26	5212.37
440.45	5200.67
440.63	5291.95
440.82	5376.21
441.01	5158.54
441.19	5462.81
441.38	5327.06
441.57	5437.06
441.75	5554.09
441.94	5596.22
442.12	5500.26
442.31	5750.70
442.50	5645.37
442.68	5542.39
442.87	5465.15
443.05	5715.59
443.24	5879.43
443.43	5746.02
443.61	5738.99
443.80	5884.11
443.98	5736.65
444.17	5734.31
444.35	5710.91
444.54	5888.79
444.73	5926.24
444.91	5832.62
445.10	5790.49
445.28	5764.74
445.47	5762.40
445.65	5895.81
445.84	5980.07
446.02	5944.96
446.21	5898.15
446.39	5858.36
446.58	6010.50
446.77	5820.91
446.95	5788.14
447.14	5944.96
447.32	6019.86
447.51	6050.28
447.69	5776.44
447.88	6038.58
448.06	5884.11
448.25	5921.56
448.43	6078.37
448.62	6132.20
448.80	6134.54
448.99	6031.56
449.17	6258.59
449.36	6174.33
449.54	6019.86
449.73	6207.10
449.91	6282.00
450.10	6274.98
450.28	6267.95
450.46	6368.60
450.65	6303.06
450.83	6380.30
451.02	6296.04
451.20	6558.18
451.39	6413.07
451.57	6370.94
451.76	6349.87
451.94	6511.37
452.13	6406.05
452.31	6478.60
452.49	6401.37
452.68	6450.52
452.86	6530.09
453.05	6574.56
453.23	6483.28
453.42	6586.27
453.60	6516.05
453.78	6628.40
453.97	6707.98
454.15	6682.23
454.34	6719.68
454.52	6787.55
454.70	6803.94
454.89	6946.71
455.07	6815.64
455.26	6864.79
455.44	6806.28
455.62	6988.84
455.81	6899.90
455.99	7112.89
456.17	7016.93
456.36	6841.39
456.54	7075.44
456.73	7185.44
456.91	7236.94
457.09	7283.75
457.28	7368.01
457.46	7133.95
457.64	7248.64
457.83	7171.40
458.01	7148.00
458.19	7375.03
458.38	7300.13
458.56	7468.65
458.74	7456.95
458.93	7360.98
459.11	7501.42
459.29	7438.22
459.48	7396.09
459.66	7566.95
459.84	7459.29
460.03	7653.55
460.21	7445.24
460.39	7375.03
460.57	7597.38
460.76	7709.72
460.94	7784.62
461.12	7744.83
461.31	7730.79
461.49	7852.50
461.67	7613.76
461.85	7911.01
462.04	7925.05
462.22	8257.41
462.40	8037.40
462.59	7978.89
462.77	7896.97
462.95	8058.46
463.13	8044.42
463.32	7939.10
463.50	8138.04
463.68	8311.24
463.86	7985.91
464.05	8063.15
464.23	8025.70
464.41	8299.54
464.59	8053.78
464.78	8280.82
464.96	8159.11
465.14	8098.25
465.32	8372.10
465.50	8257.41
465.69	8500.83
465.87	8367.42
466.05	8346.35
466.23	8336.99
466.41	8161.45
466.60	8620.19
466.78	8222.30
466.96	8271.45
467.14	8339.33
467.32	8648.28
467.51	8372.10
467.69	8264.43
467.87	8531.25
468.05	8620.19
468.23	8840.20
468.41	8606.15
468.60	8566.36
468.78	8702.11
468.96	8468.06
469.14	8739.56
469.32	8713.81
469.50	8510.19
469.69	8835.52
469.87	8964.25
470.05	8997.02
470.23	8894.04
470.41	8940.85
470.59	8919.78
470.77	8894.04
470.95	8802.75
471.14	9153.84
471.32	9025.11
471.50	9137.45
471.68	9329.38
471.86	9334.06
472.04	9268.52
472.22	9507.26
472.40	9390.23
472.58	9268.52
472.77	9509.60
472.95	9694.50
473.13	9846.63
473.31	9689.82
473.49	9612.58
473.67	9561.09
473.85	9776.42
474.03	9907.49
474.21	9809.19
474.39	10024.51
474.57	9909.83
474.75	10141.54
474.93	10050.26
475.12	10008.13
475.30	10078.35
475.48	10061.96
475.66	10043.24
475.84	10277.29
476.02	10483.26
476.20	10387.30
476.38	10485.60
476.56	10593.26
476.74	10712.63
476.92	10544.11
477.10	10609.65
477.28	10817.96
477.46	10857.75
477.64	11232.23
477.82	11419.47
478.00	11257.98
478.18	11150.31
478.36	11201.80
478.54	11480.33
478.72	11428.84
478.90	11733.11
479.08	11634.80
479.26	11817.36
479.44	12016.31
479.62	11999.93
479.80	12173.13
479.98	12105.25
480.16	12381.43
480.34	12189.51
480.52	12479.74
480.70	12552.29
480.88	12135.68
481.06	12517.18
481.24	12798.05
481.41	12755.92
481.59	12805.07
481.77	13083.59
481.95	13104.66
482.13	13296.58
482.31	13294.24
482.49	13572.77
482.67	13254.45
482.85	13638.30
483.03	13593.83
483.21	13802.14
483.39	14286.63
483.57	13879.38
483.74	13970.66
483.92	14178.97
484.10	14207.05
484.28	14513.66
484.46	14562.81
484.64	14813.25
484.82	14794.53
485.00	15000.49
485.18	15051.99
485.35	15194.76
485.53	14899.85
485.71	15152.63
485.89	15066.03
486.07	15367.96
486.25	15445.20
486.43	15454.56
486.61	15573.92
486.78	16049.05
486.96	15971.82
487.14	16336.94
487.32	16142.67
487.50	16423.54
487.68	16622.48
487.85	16762.92
488.03	17071.87
488.21	17057.82
488.39	16933.78
488.57	17146.76
488.75	17315.28
488.92	17401.88
489.10	17589.13
489.28	17607.85
489.46	17998.72
489.64	17841.90
489.81	18143.83
489.99	18558.11
490.17	18256.18
490.35	18635.35
490.53	18609.60
490.70	18527.68
490.88	18834.29
491.06	19101.11
491.24	18862.38
491.41	19075.37
491.59	19168.99
491.77	18967.70
491.95	19325.80
492.13	19847.74
492.30	19627.73
492.48	20051.37
492.66	19859.45
492.84	19983.49
493.01	20203.50
493.19	20009.24
493.37	20348.62
493.54	20549.90
493.72	20606.08
493.90	20472.67
494.08	20816.72
494.25	21102.27
494.43	21348.03
494.61	21551.65
494.79	21399.52
494.96	21343.35
495.14	21329.30
495.32	21518.89
495.49	21848.90
495.67	22036.14
495.85	22120.40
496.02	22307.65
496.20	22148.49
496.38	22443.40
496.55	22450.42
496.73	22885.76
496.91	22609.58
497.09	22623.62
497.26	23302.37
497.44	22801.50
497.62	23281.31
497.79	23276.63
497.97	22810.86
498.14	23370.25
498.32	23594.94
498.50	23639.41
498.67	23634.73
498.85	23889.85
499.03	24271.36
499.20	24151.99
499.38	24065.39
499.56	24285.40
499.73	24079.43
499.91	24191.78
500.08	24975.86
500.26	24404.77
500.44	24650.52
500.61	24587.33
500.79	24432.85
500.97	24648.18
501.14	25238.00
501.32	25165.44
501.49	25256.72
501.67	24886.92
501.84	25209.91
502.02	25252.04
502.20	25556.31
502.37	25486.09
502.55	25511.84
502.72	25930.80
502.90	26178.89
503.07	25769.30
503.25	25886.32
503.43	26064.21
503.60	26316.98
503.78	26284.22
503.95	26352.09
504.13	26389.54
504.30	26604.87
504.48	26513.59
504.65	26532.31
504.83	26841.26
505.01	26986.38
505.18	26609.55
505.36	27171.28
505.53	27152.55
505.71	27175.96
505.88	27105.74
506.06	27028.51
506.23	27208.73
506.41	27505.98
506.58	26962.97
506.76	27482.57
506.93	28048.98
507.11	27697.90
507.28	27995.15
507.46	27950.68
507.63	27580.87
507.81	27920.25
507.98	27971.74
508.16	28411.76
508.33	28486.66
508.50	28460.91
508.68	28744.12
508.85	28943.06
509.03	28622.41
509.20	29099.88
509.38	29237.97
509.55	29252.02
509.73	28711.35
509.90	29153.71
510.08	29413.51
510.25	28898.59
510.42	29322.23
510.60	29474.37
510.77	29692.04
510.95	29797.36
511.12	29579.69
511.30	29928.43
511.47	29872.26
511.64	29975.24
511.82	29912.05
511.99	29841.83
512.17	30008.01
512.34	30106.31
512.51	30433.99
512.69	30288.87
512.86	30504.20
513.04	30551.01
513.21	30752.30
513.38	30871.67
513.56	30443.35
513.73	30705.49
513.90	30665.70
514.08	30679.74
514.25	31077.63
514.43	30878.69
514.60	30766.34
514.77	31033.16
514.95	31119.76
515.12	31197.00
515.29	31552.76
515.47	31585.53
515.64	31807.88
515.81	31126.78
515.99	31583.19
516.16	31498.93
516.33	31730.64
516.51	31555.10
516.68	31297.64
516.85	31311.69
517.03	31899.16
517.20	32147.26
517.37	31985.76
517.54	32165.98
517.72	32430.46
517.89	32222.16
518.06	32453.87
518.24	32306.41
518.41	32084.06
518.58	32360.25
518.75	32444.51
518.93	32594.30
519.10	32727.71
519.27	32737.07
519.45	33078.79
519.62	33336.25
519.79	32854.10
519.96	32938.36
520.14	33141.99
520.31	33502.43
520.48	32966.45
520.65	33006.23
520.83	33280.08
521.00	33425.19
521.17	33263.69
521.34	33472.00
521.52	33947.13
521.69	33951.81
521.86	34000.96
522.03	33954.15
522.20	33654.56
522.38	34007.98
522.55	34153.10
522.72	33968.19
522.89	34031.39
523.07	34625.89
523.24	33797.34
523.41	34366.09
523.58	34408.22
523.75	34525.24
523.92	34740.57
524.10	34815.47
524.27	34569.71
524.44	34913.77
524.61	34895.05
524.78	35248.47
524.96	35133.78
525.13	35140.80
525.30	35360.81
525.47	35690.83
525.64	35278.89
525.81	35346.77
525.98	35218.04
526.16	35522.31
526.33	35335.07
526.50	35393.58
526.67	35391.24
526.84	35611.25
527.01	35524.65
527.18	35438.05
527.36	35597.21
527.53	35938.93
527.70	36531.08
527.87	36013.82
528.04	35793.81
528.21	35892.12
528.38	35508.27
528.55	36563.85
528.72	36126.17
528.89	36959.40
529.07	36430.44
529.24	36182.34
529.41	36350.86
529.58	36437.46
529.75	36128.51
529.92	36701.94
530.09	36875.14
530.26	36603.64
530.43	37003.87
530.60	36388.31
530.77	36926.63
530.94	37104.51
531.11	37001.53
531.28	36959.40
531.46	37003.87
531.63	37109.19
531.80	36730.03
531.97	37036.64
532.14	37301.12
532.31	36692.58
532.48	37249.63
532.65	37923.70
532.82	36830.67
532.99	37722.41
533.16	37518.79
533.33	37769.22
533.50	37717.73
533.67	37794.97
533.84	37666.24
534.01	37549.21
534.18	37745.82
534.35	38277.12
534.52	37701.35
534.69	38064.13
534.86	38129.67
535.03	38253.72
535.20	37923.70
535.37	38492.45
535.54	38756.93
535.71	38382.45
535.88	37991.58
536.05	38445.64
536.22	38101.58
536.38	38375.42
536.55	38419.89
536.72	38417.55
536.89	38616.50
537.06	38291.16
537.23	38827.15
537.40	38569.69
537.57	38990.98
537.74	39051.84
537.91	38953.54
538.08	39117.37
538.25	38944.17
538.42	38766.29
538.59	38909.07
538.75	38670.33
538.92	39421.64
539.09	38986.30
539.26	39292.91
539.43	39112.69
539.60	38895.02
539.77	38958.22
539.94	38967.58
540.11	39173.55
540.28	38995.67
540.44	39096.31
540.61	39672.08
540.78	39370.15
540.95	39454.41
541.12	39054.18
541.29	39707.19
541.46	39452.07
541.62	39791.45
541.79	39718.89
541.96	39269.51
542.13	39751.66
542.30	39922.52
542.47	39831.24
542.63	39606.55
542.80	39990.39
542.97	40423.39
543.14	40659.79
543.31	40154.23
543.48	40458.50
543.64	40924.27
543.81	40662.13
543.98	40549.78
544.15	40407.01
544.32	40678.51
544.48	40664.47
544.65	40596.59
544.82	40748.73
544.99	40631.70
545.16	40446.80
545.32	40397.65
545.49	40807.24
545.66	41270.67
545.83	40851.71
546.00	41237.90
546.16	41205.13
546.33	40624.68
546.50	40840.01
546.67	41383.01
546.83	41020.23
547.00	41163.00
547.17	40802.56
547.34	41223.86
547.50	41067.04
547.67	41474.29
547.84	41556.21
548.00	41811.33
548.17	41572.60
548.34	41254.28
548.51	41633.45
548.67	41720.05
548.84	41558.55
549.01	41645.15
549.18	41832.39
549.34	41708.35
549.51	41837.08
549.68	41984.53
549.84	42033.68
550.01	41801.97
550.18	41610.04
550.34	41684.94
550.51	42216.24
550.68	41532.81
550.84	41420.46
551.01	42089.85
551.18	42239.65
551.34	41979.85
551.51	41996.23
551.68	42134.32
551.84	42078.15
552.01	42387.10
552.18	42295.82
552.34	41965.81
552.51	42703.07
552.68	42429.23
552.84	42192.84
553.01	42895.00
553.18	42387.10
553.34	42394.12
553.51	42305.18
553.67	42656.26
553.84	42742.86
554.01	42707.76
554.17	42979.26
554.34	42946.49
554.51	42454.98
554.67	42658.60
554.84	42686.69
555.00	42426.89
555.17	42667.97
555.33	42328.59
555.50	43021.39
555.67	42480.72
555.83	42904.36
556.00	42714.78
556.16	42995.64
556.33	43185.22
556.50	42794.36
556.66	42759.25
556.83	42742.86
556.99	42787.33
557.16	43393.53
557.32	43344.38
557.49	43119.69
557.65	42988.62
557.82	42873.93
557.98	42911.38
558.15	43077.56
558.32	42934.79
558.48	43798.44
558.65	43306.93
558.81	43138.41
558.98	43299.91
559.14	43100.97
559.31	43063.52
559.47	43529.28
559.64	43037.77
559.80	43599.50
559.97	43454.39
560.13	43182.88
560.30	43349.06
560.46	43346.72
560.63	43592.48
560.79	43529.28
560.96	43711.84
561.12	43761.00
561.29	43578.43
561.45	43674.40
561.61	43449.70
561.78	43526.94
561.94	43171.18
562.11	43756.32
562.27	43622.90
562.44	43852.28
562.60	43901.43
562.77	43688.44
562.93	43751.63
563.10	43805.47
563.26	43639.29
563.42	43784.40
563.59	43330.34
563.75	43969.30
563.92	43775.04
564.08	44226.76
564.24	43957.60
564.41	44006.75
564.57	44009.09
564.74	43999.73
564.90	43784.40
565.07	44151.87
565.23	43655.67
565.39	43775.04
565.56	44037.18
565.72	43945.90
565.88	43753.97
566.05	43964.62
566.21	43650.99
566.38	43941.22
566.54	43770.36
566.70	44533.37
566.87	44357.83
567.03	44058.24
567.19	44392.94
567.36	44371.88
567.52	43842.92
567.68	43894.41
567.85	43927.17
568.01	44151.87
568.17	44271.23
568.34	44252.51
568.50	44280.60
568.66	44224.42
568.83	44109.74
568.99	44226.76
569.15	43803.13
569.32	43913.13
569.48	43730.57
569.64	44273.57
569.81	44357.83
569.97	44041.86
570.13	44030.16
570.30	44135.48
570.46	44315.70
570.62	43868.66
570.78	43709.50
570.95	44170.59
571.11	44285.28
571.27	44175.27
571.43	44554.44
571.60	44512.31
571.76	44130.80
571.92	44147.18
572.09	44186.97
572.25	44051.22
572.41	44128.46
572.57	44348.47
572.74	44594.23
572.90	44170.59
573.06	44559.12
573.22	44196.34
573.38	44289.96
573.55	43957.60
573.71	44790.83
573.87	44542.74
574.03	43859.30
574.20	44360.17
574.36	44168.25
574.52	44472.52
574.68	44725.30
574.84	44652.74
575.01	44708.91
575.17	44231.44
575.33	44446.77
575.49	44561.46
575.65	44748.70
575.82	44980.42
575.98	44280.60
576.14	44704.23
576.30	44435.07
576.46	44982.76
576.62	44657.42
576.79	44439.75
576.95	44540.39
577.11	44226.76
577.27	44531.03
577.43	44435.07
577.59	44741.68
577.75	44198.68
577.92	43835.89
578.08	43882.70
578.24	43929.51
578.40	44353.15
578.56	44189.31
578.72	44381.24
578.88	44690.19
579.04	44465.50
579.21	44570.82
579.37	44439.75
579.53	44751.04
579.69	43997.39
579.85	44453.79
580.01	44594.23
580.17	44559.12
580.33	45036.59
580.49	44545.08
580.65	44774.45
580.82	44638.70
580.98	44645.72
581.14	44416.35
581.30	44971.05
581.46	44584.86
581.62	44631.68
581.78	44825.94
581.94	44748.70
582.10	44343.79
582.26	44673.81
582.42	44924.24
582.58	45059.99
582.74	44493.58
582.90	44741.68
583.06	44994.46
583.22	44949.99
583.38	44844.66
583.54	44729.98
583.70	45062.33
583.86	44767.43
584.02	44119.10
584.18	44421.03
584.34	44783.81
584.50	44488.90
584.66	44615.29
584.82	44561.46
584.98	44790.83
585.14	44903.18
585.30	44545.08
585.46	44722.96
585.62	44587.21
585.78	44601.25
585.94	44102.71
586.10	44435.07
586.26	44744.02
586.42	44952.33
586.58	45029.57
586.74	44957.01
586.90	44921.90
587.06	44402.30
587.22	44657.42
587.38	44526.35
587.54	44825.94
587.70	44875.09
587.86	44886.79
588.02	44954.67
588.18	45106.80
588.34	44612.95
588.49	44734.66
588.65	44449.11
588.81	44451.45
588.97	44346.13
589.13	44421.03
589.29	44680.83
589.45	44868.07
589.61	44828.28
589.77	45170.00
589.93	45010.84
590.08	44673.81
590.24	44992.12
