SpectraSuite Data File
++++++++++++++++++++++++++++++++++++
Date: Fri Oct 25 10:48:23 EDT 2013
User: price-jones
Dark Spectrum Present: No
Reference Spectrum Present: No
Number of Sampled Component Spectra: 1
Spectrometers: USB2+H05261
Integration Time (usec): 100000 (USB2+H05261)
Spectra Averaged: 1 (USB2+H05261)
Boxcar Smoothing: 0 (USB2+H05261)
Correct for Electrical Dark: No (USB2+H05261)
Strobe/Lamp Enabled: No (USB2+H05261)
Correct for Detector Non-linearity: No (USB2+H05261)
Correct for Stray Light: No (USB2+H05261)
Number of Pixels in Processed Spectrum: 2048
>>>>>Begin Processed Spectral Data<<<<<
365.73	184.90
365.92	184.90
366.12	184.90
366.32	49.15
366.52	16.38
366.72	79.58
366.91	44.47
367.11	124.05
367.31	7.02
367.51	100.64
367.70	65.54
367.90	119.37
368.10	98.30
368.30	25.75
368.49	0.00
368.69	56.17
368.89	44.47
369.09	25.75
369.28	152.13
369.48	35.11
369.68	44.47
369.87	7.02
370.07	117.03
370.27	98.30
370.47	255.12
370.66	381.51
370.86	395.55
371.06	486.83
371.25	538.32
371.45	472.79
371.65	411.93
371.84	479.81
372.04	510.24
372.24	528.96
372.44	498.53
372.63	498.53
372.83	589.82
373.03	545.34
373.22	554.71
373.42	491.51
373.62	526.62
373.81	580.45
374.01	566.41
374.21	596.84
374.40	538.32
374.60	575.77
374.79	596.84
374.99	660.03
375.19	589.82
375.38	566.41
375.58	566.41
375.78	566.41
375.97	592.16
376.17	653.01
376.37	634.29
376.56	617.90
376.76	725.57
376.95	620.24
377.15	578.11
377.35	667.05
377.54	669.39
377.74	655.35
377.93	706.84
378.13	638.97
378.33	662.37
378.52	671.73
378.72	638.97
378.91	683.44
379.11	664.71
379.31	793.44
379.50	655.35
379.70	734.93
379.89	755.99
380.09	702.16
380.28	744.29
380.48	716.20
380.68	699.82
380.87	716.20
381.07	683.44
381.26	739.61
381.46	725.57
381.65	704.50
381.85	711.52
382.04	718.54
382.24	648.33
382.43	620.24
382.63	699.82
382.83	746.63
383.02	723.23
383.22	711.52
383.41	716.20
383.61	699.82
383.80	692.80
384.00	723.23
384.19	730.25
384.39	875.36
384.58	812.17
384.78	868.34
384.97	840.25
385.17	741.95
385.36	727.91
385.56	830.89
385.75	812.17
385.95	866.00
386.14	912.81
386.34	851.96
386.53	809.83
386.72	894.08
386.92	781.74
387.11	844.93
387.31	868.34
387.50	802.80
387.70	884.72
387.89	896.43
388.09	873.02
388.28	842.59
388.48	870.68
388.67	917.49
388.86	968.98
389.06	940.90
389.25	959.62
389.45	1083.67
389.64	1029.84
389.84	959.62
390.03	983.02
390.22	997.07
390.42	966.64
390.61	954.94
390.81	985.37
391.00	1025.15
391.19	1088.35
391.39	976.00
391.58	1111.75
391.78	1034.52
391.97	997.07
392.16	1046.22
392.36	1071.97
392.55	1029.84
392.75	1078.99
392.94	945.58
393.13	1055.58
393.33	1043.88
393.52	1022.81
393.71	1043.88
393.91	1043.88
394.10	1104.73
394.29	1093.03
394.49	1069.62
394.68	1266.23
394.88	1100.05
395.07	1345.81
395.26	1174.95
395.46	1301.34
395.65	1221.76
395.84	1203.04
396.04	1207.72
396.23	1142.18
396.42	1100.05
396.62	1181.97
396.81	1249.85
397.00	1181.97
397.19	1266.23
397.39	1259.21
397.58	1334.11
397.77	1383.26
397.97	1327.08
398.16	1343.47
398.35	1472.20
398.55	1427.73
398.74	1458.15
398.93	1458.15
399.12	1425.39
399.32	1441.77
399.51	1495.60
399.70	1401.98
399.90	1472.20
400.09	1519.01
400.28	1570.50
400.47	1511.99
400.67	1640.72
400.86	1596.25
401.05	1724.97
401.24	1694.55
401.44	1792.85
401.63	1549.43
401.82	1607.95
402.01	1671.14
402.21	1734.34
402.40	1750.72
402.59	1732.00
402.78	1678.16
402.97	1788.17
403.17	1722.63
403.36	1701.57
403.55	1771.79
403.74	1792.85
403.93	1774.13
404.13	1703.91
404.32	1837.32
404.51	1710.93
404.70	1874.77
404.89	1811.57
405.09	1991.80
405.28	1973.07
405.47	1914.56
405.66	1947.33
405.85	1886.47
406.05	1926.26
406.24	1989.46
406.43	2012.86
406.62	1977.75
406.81	2083.08
407.00	1968.39
407.20	1973.07
407.39	2057.33
407.58	2033.93
407.77	2190.74
407.96	2008.18
408.15	2251.60
408.34	2197.76
408.54	2200.10
408.73	2188.40
408.92	2197.76
409.11	2157.97
409.30	2221.17
409.49	2207.13
409.68	2209.47
409.87	2246.91
410.07	2352.24
410.26	2260.96
410.45	2352.24
410.64	2413.09
410.83	2354.58
411.02	2485.65
411.21	2553.52
411.40	2469.27
411.59	2572.25
411.78	2525.44
411.98	2448.20
412.17	2541.82
412.36	2579.27
412.55	2551.18
412.74	2619.06
412.93	2642.46
413.12	2581.61
413.31	2888.22
413.50	2553.52
413.69	2640.12
413.88	2806.30
414.07	2768.85
414.26	2874.18
414.45	2979.50
414.64	2970.14
414.83	2843.75
415.02	2995.89
415.22	2970.14
415.41	3026.31
415.60	3084.83
415.79	3180.79
415.98	3066.10
416.17	3148.02
416.36	3169.09
416.55	3164.40
416.74	3211.22
416.93	3293.13
417.12	3166.74
417.31	3201.85
417.50	3258.03
417.69	3466.33
417.88	3396.12
418.07	3304.84
418.26	3412.50
418.45	3442.93
418.64	3506.12
418.83	3527.19
419.02	3424.20
419.21	3517.83
419.39	3543.57
419.58	3426.54
419.77	3602.08
419.96	3571.66
420.15	3585.70
420.34	3574.00
420.53	3700.39
420.72	3817.41
420.91	3684.00
421.10	3693.37
421.29	3686.34
421.48	3749.54
421.67	3754.22
421.86	3819.75
422.05	3648.90
422.24	3662.94
422.43	3812.73
422.61	3796.35
422.80	3758.90
422.99	3831.46
423.18	3892.31
423.37	3852.52
423.56	3735.50
423.75	3786.99
423.94	3712.09
424.13	3672.30
424.32	3775.28
424.50	3901.67
424.69	3929.76
424.88	3885.29
425.07	3808.05
425.26	3733.15
425.45	3840.82
425.64	3852.52
425.83	3822.09
426.01	4100.62
426.20	3791.67
426.39	3925.08
426.58	3854.86
426.77	3819.75
426.96	3922.74
427.15	3948.48
427.33	3934.44
427.52	3974.23
427.71	3880.61
427.90	4091.26
428.09	4161.47
428.28	4093.60
428.46	4030.40
428.65	4016.36
428.84	4262.12
429.03	4114.66
429.22	4025.72
429.40	4018.70
429.59	4161.47
429.78	3967.21
429.97	3892.31
430.16	4028.06
430.34	4248.07
430.53	4074.87
430.72	4081.89
430.91	4102.96
431.10	4229.35
431.28	4447.02
431.47	4311.27
431.66	4571.07
431.85	4381.48
432.03	4559.36
432.22	4454.04
432.41	4547.66
432.60	4552.34
432.79	4685.75
432.97	4538.30
433.16	4531.28
433.35	4606.17
433.54	4503.19
433.72	4772.35
433.91	4475.10
434.10	4592.13
434.28	4660.01
434.47	4755.97
434.66	4868.31
434.85	4812.14
435.03	4835.55
435.22	4781.71
435.41	5067.26
435.59	4903.42
435.78	4919.81
435.97	4997.04
436.16	4919.81
436.34	4929.17
436.53	5036.83
436.72	5121.09
436.90	5036.83
437.09	5144.50
437.28	5093.01
437.46	4926.83
437.65	5067.26
437.84	5090.67
438.02	5032.15
438.21	5090.67
438.40	4915.12
438.58	5198.33
438.77	5451.11
438.96	5266.21
439.14	5364.51
439.33	5345.78
439.52	5521.32
439.70	5542.39
439.89	5380.89
440.08	5549.41
440.26	5593.88
440.45	5446.43
440.63	5652.39
440.82	5694.52
441.01	5727.29
441.19	5935.60
441.38	5827.93
441.57	5781.12
441.75	6122.84
441.94	6232.85
442.12	6174.33
442.31	6211.78
442.50	6087.73
442.68	6132.20
442.87	6204.76
443.05	6174.33
443.24	6274.98
443.43	6256.25
443.61	6195.40
443.80	6532.44
443.98	6169.65
444.17	6115.82
444.35	6401.37
444.54	6459.88
444.73	6410.73
444.91	6186.04
445.10	6087.73
445.28	6052.63
445.47	6193.06
445.65	6375.62
445.84	6427.11
446.02	6424.77
446.21	6359.24
446.39	6462.22
446.58	6619.04
446.77	6326.47
446.95	6328.81
447.14	6473.92
447.32	6487.96
447.51	6399.02
447.69	6396.68
447.88	6387.32
448.06	6621.38
448.25	6459.88
448.43	6586.27
448.62	6373.28
448.80	6511.37
448.99	6590.95
449.17	6686.91
449.36	6459.88
449.54	6780.53
449.73	6817.98
449.91	7061.40
450.10	6897.56
450.28	6916.28
450.46	7073.10
450.65	7012.24
450.83	7145.66
451.02	7000.54
451.20	7243.96
451.39	7030.97
451.57	7129.27
451.76	6862.45
451.94	6965.43
452.13	7073.10
452.31	7119.91
452.49	6920.96
452.68	7094.16
452.86	7213.53
453.05	7171.40
453.23	7124.59
453.42	7279.07
453.60	7117.57
453.78	7269.70
453.97	7377.37
454.15	7176.08
454.34	7248.64
454.52	7421.84
454.70	7368.01
454.89	7473.33
455.07	7550.57
455.26	7489.71
455.44	7569.29
455.62	7449.93
455.81	7449.93
455.99	7712.07
456.17	7716.75
456.36	7742.49
456.54	7756.54
456.73	7836.11
456.91	7906.33
457.09	7887.61
457.28	8037.40
457.46	7789.30
457.64	7812.71
457.83	7808.03
458.01	7824.41
458.19	8056.12
458.38	8091.23
458.56	7983.57
458.74	8126.34
458.93	7878.24
459.11	7971.86
459.29	8081.87
459.48	8187.19
459.66	8325.29
459.84	8219.96
460.03	8273.79
460.21	8175.49
460.39	8215.28
460.57	8262.09
460.76	8470.40
460.94	8454.02
461.12	8365.07
461.31	8554.66
461.49	8381.46
461.67	8528.91
461.85	8503.17
462.04	8524.23
462.22	9020.42
462.40	8854.25
462.59	8439.97
462.77	8720.84
462.95	8889.35
463.13	8650.62
463.32	8617.85
463.50	8730.20
463.68	8812.12
463.86	8755.94
464.05	8767.65
464.23	8559.34
464.41	8926.80
464.59	8599.13
464.78	8889.35
464.96	9074.26
465.14	8793.39
465.32	9158.52
465.50	9050.85
465.69	9029.79
465.87	9144.47
466.05	9191.28
466.23	8875.31
466.41	8908.08
466.60	9385.55
466.78	8957.23
466.96	9212.35
467.14	9165.54
467.32	9202.99
467.51	9397.25
467.69	9053.19
467.87	9156.18
468.05	9350.44
468.23	9249.80
468.41	9448.74
468.60	9317.67
468.78	9359.80
468.96	9198.31
469.14	9261.50
469.32	9514.28
469.50	9202.99
469.69	9643.01
469.87	9427.68
470.05	9692.16
470.23	9619.60
470.41	9619.60
470.59	9799.82
470.77	9458.10
470.95	9692.16
471.14	10024.51
471.32	9708.54
471.50	10118.14
471.68	9954.30
471.86	10141.54
472.04	10052.60
472.22	10410.70
472.40	10183.67
472.58	10235.16
472.77	10274.95
472.95	10267.93
473.13	10541.77
473.31	10125.16
473.49	10349.85
473.67	10483.26
473.85	10534.75
474.03	10677.52
474.21	10562.84
474.39	10750.08
474.57	10721.99
474.75	10815.62
474.93	10977.11
475.12	11000.52
475.30	10911.58
475.48	11052.01
475.66	10782.85
475.84	11068.39
476.02	11302.45
476.20	11220.53
476.38	11559.91
476.56	11637.14
476.74	11447.56
476.92	11576.29
477.10	11473.31
477.28	11735.45
477.46	11768.21
477.64	11749.49
477.82	12053.76
478.00	12255.04
478.18	12400.16
478.36	12236.32
478.54	12388.46
478.72	12549.95
478.90	12556.97
479.08	12788.69
479.26	12793.37
479.44	13050.83
479.62	12844.86
479.80	13095.30
479.98	13139.77
480.16	13413.61
480.34	13252.11
480.52	13493.19
480.70	13692.13
480.88	13577.45
481.06	13509.57
481.24	13556.38
481.41	13991.72
481.59	14085.34
481.77	14008.11
481.95	14061.94
482.13	14108.75
482.31	14377.91
482.49	14768.78
482.67	14485.58
482.85	14817.93
483.03	14857.72
483.21	14892.83
483.39	15255.61
483.57	14862.40
483.74	15433.49
483.92	15342.21
484.10	15370.30
484.28	15475.62
484.46	15892.24
484.64	15927.35
484.82	15639.46
485.00	15763.51
485.18	15885.22
485.35	16112.25
485.53	15889.90
485.71	15819.68
485.89	16460.99
486.07	16233.96
486.25	15995.22
486.43	16702.06
486.61	16692.70
486.78	17083.57
486.96	17172.51
487.14	17378.48
487.32	17448.69
487.50	17628.92
487.68	18101.70
487.85	17954.25
488.03	18338.10
488.21	18125.11
488.39	18246.82
488.57	18532.36
488.75	18452.78
488.92	18396.61
489.10	18527.68
489.28	19103.45
489.46	19386.66
489.64	19201.76
489.81	19807.95
489.99	19735.40
490.17	19648.80
490.35	20177.76
490.53	19969.45
490.70	20039.67
490.88	20255.00
491.06	20465.64
491.24	20442.24
491.41	20510.11
491.59	20802.68
491.77	20786.30
491.95	20760.55
492.13	20908.01
492.30	21369.09
492.48	21312.92
492.66	21259.09
492.84	21401.86
493.01	21425.26
493.19	21703.79
493.37	22031.46
493.54	22029.12
493.72	22153.17
493.90	22256.15
494.08	22609.58
494.25	22757.03
494.43	22345.09
494.61	23199.39
494.79	23000.44
494.96	22827.24
495.14	22785.12
495.32	23599.62
495.49	23192.37
495.67	23777.50
495.85	23789.20
496.02	23644.09
496.20	23882.83
496.38	24020.92
496.55	23777.50
496.73	24664.57
496.91	24425.83
497.09	24624.78
497.26	24783.93
497.44	24851.81
497.62	24790.95
497.79	25118.63
497.97	24943.09
498.14	24957.13
498.32	25273.10
498.50	25340.98
498.67	25764.62
498.85	25481.41
499.03	25617.16
499.20	25694.40
499.38	25956.54
499.56	26019.74
499.73	26225.70
499.91	26153.15
500.08	26567.42
500.26	26068.89
500.44	26288.90
500.61	25928.45
500.79	26380.18
500.97	26281.88
501.14	27030.85
501.32	26506.57
501.49	26639.98
501.67	26906.80
501.84	26820.20
502.02	26785.09
502.20	27213.41
502.37	27498.95
502.55	27463.85
502.72	27915.57
502.90	27812.59
503.07	27393.63
503.25	27562.15
503.43	27702.58
503.60	27812.59
503.78	28044.30
503.95	27807.90
504.13	28201.11
504.30	28046.64
504.48	28315.80
504.65	28451.55
504.83	28694.97
505.01	28865.83
505.18	28496.02
505.36	28971.15
505.53	29343.30
505.71	29268.40
505.88	29476.71
506.06	28975.83
506.23	29397.13
506.41	29165.42
506.58	29310.53
506.76	29626.50
506.93	29890.98
507.11	29663.95
507.28	29832.47
507.46	29734.17
507.63	29446.28
507.81	30108.65
507.98	29413.51
508.16	29890.98
508.33	30370.79
508.50	30300.58
508.68	30551.01
508.85	30932.52
509.03	30445.69
509.20	30803.79
509.38	31110.40
509.55	31143.17
509.73	30450.37
509.90	30726.55
510.08	31269.56
510.25	30965.29
510.42	31271.90
510.60	31201.68
510.77	31524.68
510.95	31630.00
511.12	31676.81
511.30	31615.96
511.47	31962.36
511.64	32041.93
511.82	32313.44
511.99	32280.67
512.17	32025.55
512.34	31871.07
512.51	32252.58
512.69	32519.40
512.86	32114.49
513.04	32645.79
513.21	32730.05
513.38	32414.08
513.56	32327.48
513.73	32292.37
513.90	32615.37
514.08	32739.41
514.25	33067.09
514.43	32767.50
514.60	33076.45
514.77	32793.25
514.95	32893.89
515.12	33078.79
515.29	33195.82
515.47	33441.57
515.64	33696.69
515.81	33226.24
515.99	33429.87
516.16	33291.78
516.33	33102.20
516.51	33448.60
516.68	32797.93
516.85	33149.01
517.03	33490.73
517.20	33731.80
517.37	33694.35
517.54	34363.75
517.72	34164.80
517.89	33411.15
518.06	33820.74
518.24	34319.28
518.41	34024.37
518.58	34220.97
518.75	34232.68
518.93	34719.51
519.10	34213.95
519.27	34728.87
519.45	34569.71
519.62	35079.95
519.79	35276.55
519.96	34998.03
520.14	35414.65
520.31	34852.92
520.48	35421.67
520.65	35257.83
520.83	35370.18
521.00	35473.16
521.17	35306.98
521.34	35613.59
521.52	36011.48
521.69	35976.37
521.86	35943.61
522.03	36425.76
522.20	35938.93
522.38	36046.59
522.55	36135.53
522.72	35833.60
522.89	36163.62
523.07	36388.31
523.24	36257.24
523.41	36376.61
523.58	35988.08
523.75	36706.62
523.92	37209.84
524.10	37198.13
524.27	36919.61
524.44	36865.78
524.61	36985.15
524.78	37200.47
524.96	36692.58
525.13	37053.02
525.30	37317.50
525.47	37603.05
525.64	37144.30
525.81	36982.80
525.98	37097.49
526.16	37055.36
526.33	36704.28
526.50	37450.91
526.67	37008.55
526.84	37170.05
527.01	36903.23
527.18	38038.39
527.36	37972.85
527.53	37535.17
527.70	38080.52
527.87	38000.94
528.04	37865.19
528.21	38277.12
528.38	38094.56
528.55	38782.68
528.72	38328.61
528.89	38628.20
529.07	38485.43
529.24	38089.88
529.41	38550.96
529.58	38464.36
529.75	38700.76
529.92	38934.81
530.09	38686.71
530.26	38780.34
530.43	38974.60
530.60	38731.18
530.77	38810.76
530.94	39215.68
531.11	39007.37
531.28	39454.41
531.46	39363.13
531.63	39601.86
531.80	39138.44
531.97	39218.02
532.14	39007.37
532.31	39192.27
532.48	39257.81
532.65	39222.70
532.82	39157.16
532.99	39646.33
533.16	39435.69
533.33	39625.27
533.50	39941.24
533.67	39718.89
533.84	39498.88
534.01	40165.93
534.18	39899.11
534.35	40320.41
534.52	39948.26
534.69	40210.40
534.86	40107.42
535.03	40002.10
535.20	40163.59
535.37	40158.91
535.54	40755.75
535.71	40378.92
535.88	40332.11
536.05	40233.81
536.22	40172.96
536.38	40706.60
536.55	40392.97
536.72	40563.82
536.89	40545.10
537.06	40259.55
537.23	40882.14
537.40	40804.90
537.57	40935.97
537.74	40987.46
537.91	41422.80
538.08	41036.61
538.25	40751.07
538.42	41333.86
538.59	40919.59
538.75	40502.97
538.92	41067.04
539.09	41584.30
539.26	40879.80
539.43	41228.54
539.60	41329.18
539.77	41092.79
539.94	41528.13
540.11	40884.48
540.28	41003.85
540.44	40935.97
540.61	41104.49
540.78	41006.19
540.95	41120.87
541.12	41525.78
541.29	41736.43
541.46	41043.63
541.62	41628.77
541.79	41694.30
541.96	41624.09
542.13	41790.27
542.30	41626.43
542.47	41860.48
542.63	41689.62
542.80	42368.38
542.97	42361.36
543.14	42321.57
543.31	42719.46
543.48	42546.26
543.64	43192.25
543.81	42326.25
543.98	42658.60
544.15	42141.35
544.32	42485.40
544.48	42745.20
544.65	42625.84
544.82	42595.41
544.99	42321.57
545.16	42806.06
545.32	42363.70
545.49	43105.65
545.66	43033.09
545.83	42749.88
546.00	43217.99
546.16	43180.54
546.33	43203.95
546.50	42440.93
546.67	43016.71
546.83	42679.67
547.00	43180.54
547.17	42845.85
547.34	42932.45
547.50	43264.80
547.67	43475.45
547.84	43246.08
548.00	43643.97
548.17	43529.28
548.34	43126.71
548.51	43894.41
548.67	43536.30
548.84	43281.19
549.01	43662.69
549.18	43466.09
549.34	43604.18
549.51	43353.74
549.68	44266.55
549.84	44023.14
550.01	43594.82
550.18	43646.31
550.34	43913.13
550.51	43978.67
550.68	44123.78
550.84	43459.07
551.01	43810.15
551.18	44067.61
551.34	43742.27
551.51	43845.26
551.68	44217.40
551.84	44231.44
552.01	43676.74
552.18	44020.80
552.34	44062.93
552.51	43849.94
552.68	43978.67
552.84	44418.69
553.01	44509.97
553.18	44734.66
553.34	44296.98
553.51	44437.41
553.67	44402.30
553.84	44870.41
554.01	44423.37
554.17	44727.64
554.34	44858.71
554.51	44641.04
554.67	44882.11
554.84	44451.45
555.00	44568.48
555.17	44472.52
555.33	44697.21
555.50	44825.94
555.67	44669.12
555.83	44428.05
556.00	44830.62
556.16	45123.19
556.33	44968.71
556.50	44769.77
556.66	44659.76
556.83	44725.30
556.99	45228.51
557.16	45116.17
557.32	44954.67
557.49	45315.11
557.65	44601.25
557.82	44596.57
557.98	44968.71
558.15	45422.78
558.32	44758.06
558.48	44797.85
558.65	45525.76
558.81	45329.16
558.98	45319.79
559.14	44966.37
559.31	45071.70
559.47	45310.43
559.64	45542.14
559.80	45617.04
559.97	45022.54
560.13	45162.98
560.30	44954.67
560.46	45380.65
560.63	45207.45
560.79	45736.41
560.96	45656.83
561.12	45427.46
561.29	45689.60
561.45	45933.01
561.61	45242.56
561.78	45343.20
561.94	45514.06
562.11	45617.04
562.27	45521.08
562.44	45296.39
562.60	45886.20
562.77	45345.54
562.93	45918.97
563.10	45434.48
563.26	45380.65
563.42	45830.03
563.59	45544.48
563.75	45703.64
563.92	45853.44
564.08	45844.07
564.24	46089.83
564.41	45911.95
564.57	45516.40
564.74	45947.06
564.90	45631.08
565.07	45160.64
565.23	45705.98
565.39	45696.62
565.56	45806.62
565.72	45338.52
565.88	46167.07
566.05	45593.64
566.21	45708.32
566.38	45298.73
566.54	45694.28
566.70	46157.70
566.87	46248.99
567.03	45996.21
567.19	46466.66
567.36	46089.83
567.52	45787.90
567.68	45834.71
567.85	45663.85
568.01	45631.08
568.17	45862.80
568.34	45862.80
568.50	46028.98
568.66	45874.50
568.83	46279.41
568.99	45612.36
569.15	45469.59
569.32	46064.08
569.48	45755.13
569.64	45921.31
569.81	45897.91
569.97	45979.82
570.13	45937.69
570.30	45839.39
570.46	45921.31
570.62	45841.73
570.78	45312.77
570.95	46082.81
571.11	45687.26
571.27	46047.70
571.43	45998.55
571.60	46103.87
571.76	45993.87
571.92	46157.70
572.09	45811.31
572.25	46103.87
572.41	46122.60
572.57	45947.06
572.74	46770.93
572.90	45846.41
573.06	46515.81
573.22	46520.49
573.38	46323.88
573.55	45780.88
573.71	46396.44
573.87	46115.58
574.03	46026.63
574.20	45811.31
574.36	46021.95
574.52	46295.80
574.68	45757.47
574.84	45731.73
575.01	46361.33
575.17	45755.13
575.33	45855.78
575.49	45694.28
575.65	46230.26
575.82	46263.03
575.98	46160.05
576.14	46293.46
576.30	46403.46
576.46	46061.74
576.62	46199.83
576.79	46298.14
576.95	45993.87
577.11	45907.27
577.27	46485.38
577.43	45841.73
577.59	46036.00
577.75	45970.46
577.92	46054.72
578.08	45858.12
578.24	46195.15
578.40	46007.91
578.56	45909.61
578.72	46064.08
578.88	46321.54
579.04	46188.13
579.21	46061.74
579.37	46265.37
579.53	46068.76
579.69	46155.36
579.85	46241.96
580.01	45986.85
580.17	46204.52
580.33	46906.68
580.49	46260.69
580.65	46478.36
580.82	46342.61
580.98	46171.75
581.14	45970.46
581.30	46822.42
581.46	46160.05
581.62	46445.59
581.78	46323.88
581.94	46836.46
582.10	46436.23
582.26	46766.24
582.42	46604.75
582.58	46082.81
582.74	46478.36
582.90	46138.98
583.06	46623.47
583.22	46307.50
583.38	46567.30
583.54	46188.13
583.70	46464.32
583.86	46602.41
584.02	46129.62
584.18	46375.37
584.34	46293.46
584.50	46576.66
584.66	46480.70
584.82	46024.29
584.98	46726.46
585.14	46588.36
585.30	46108.55
585.46	46169.41
585.62	46040.68
585.78	45921.31
585.94	46115.58
586.10	46050.04
586.26	46291.12
586.42	46499.42
586.58	46450.27
586.74	46223.24
586.90	46316.86
587.06	46094.51
587.22	46443.25
587.38	46616.45
587.54	46609.43
587.70	46721.77
587.86	46237.28
588.02	46335.59
588.18	46248.99
588.34	45984.51
588.49	46270.05
588.65	46021.95
588.81	45902.59
588.97	45930.67
589.13	46010.25
589.29	45717.68
589.45	46127.28
589.61	46312.18
589.77	46658.58
589.93	46057.06
