SpectraSuite Data File
++++++++++++++++++++++++++++++++++++
Date: Fri Oct 25 11:34:14 EDT 2013
User: price-jones
Dark Spectrum Present: No
Reference Spectrum Present: No
Number of Sampled Component Spectra: 1
Spectrometers: USB2+H05261
Integration Time (usec): 100000 (USB2+H05261)
Spectra Averaged: 1 (USB2+H05261)
Boxcar Smoothing: 0 (USB2+H05261)
Correct for Electrical Dark: No (USB2+H05261)
Strobe/Lamp Enabled: No (USB2+H05261)
Correct for Detector Non-linearity: No (USB2+H05261)
Correct for Stray Light: No (USB2+H05261)
Number of Pixels in Processed Spectrum: 2048
>>>>>Begin Processed Spectral Data<<<<<
365.73	297.25
365.92	297.25
366.12	297.25
366.32	238.73
366.52	126.39
366.72	196.60
366.91	119.37
367.11	180.22
367.31	224.69
367.51	131.07
367.70	177.88
367.90	114.69
368.10	191.92
368.30	187.24
368.49	203.63
368.69	145.11
368.89	182.56
369.09	224.69
369.28	205.97
369.48	220.01
369.68	243.42
369.87	290.23
370.07	220.01
370.27	315.97
370.47	278.52
370.66	365.12
370.86	379.17
371.06	552.37
371.25	601.52
371.45	510.24
371.65	580.45
371.84	608.54
372.04	575.77
372.24	575.77
372.44	552.37
372.63	566.41
372.83	580.45
373.03	594.50
373.22	543.00
373.42	589.82
373.62	575.77
373.81	547.69
374.01	662.37
374.21	578.11
374.40	592.16
374.60	638.97
374.79	699.82
374.99	599.18
375.19	641.31
375.38	599.18
375.58	650.67
375.78	737.27
375.97	674.07
376.17	655.35
376.37	648.33
376.56	662.37
376.76	638.97
376.95	702.16
377.15	730.25
377.35	697.48
377.54	702.16
377.74	727.91
377.93	706.84
378.13	704.50
378.33	629.60
378.52	660.03
378.72	730.25
378.91	718.54
379.11	678.76
379.31	709.18
379.50	631.94
379.70	755.99
379.89	690.46
380.09	704.50
380.28	723.23
380.48	711.52
380.68	786.42
380.87	802.80
381.07	833.23
381.26	802.80
381.46	753.65
381.65	699.82
381.85	716.20
382.04	744.29
382.24	854.30
382.43	685.78
382.63	758.33
382.83	814.51
383.02	816.85
383.22	849.61
383.41	744.29
383.61	847.27
383.80	821.53
384.00	795.78
384.19	793.44
384.39	781.74
384.58	849.61
384.78	791.10
384.97	812.17
385.17	821.53
385.36	791.10
385.56	758.33
385.75	837.91
385.95	746.63
386.14	880.04
386.34	837.91
386.53	851.96
386.72	828.55
386.92	866.00
387.11	901.11
387.31	903.45
387.50	924.51
387.70	873.02
387.89	868.34
388.09	896.43
388.28	931.53
388.48	875.36
388.67	926.85
388.86	840.25
389.06	938.55
389.25	863.66
389.45	938.55
389.64	952.60
389.84	994.73
390.03	1048.56
390.22	985.37
390.42	858.98
390.61	1015.79
390.81	968.98
391.00	931.53
391.19	1048.56
391.39	999.41
391.58	1029.84
391.78	924.51
391.97	950.26
392.16	1008.77
392.36	994.73
392.55	1055.58
392.75	1160.91
392.94	1050.90
393.13	999.41
393.33	1041.54
393.52	1078.99
393.71	1074.31
393.91	1097.71
394.10	992.39
394.29	1055.58
394.49	994.73
394.68	1050.90
394.88	1004.09
395.07	1172.61
395.26	1135.16
395.46	1118.78
395.65	1217.08
395.84	1203.04
396.04	1280.27
396.23	1118.78
396.42	1174.95
396.62	1184.31
396.81	1210.06
397.00	1153.88
397.19	1198.35
397.39	1214.74
397.58	1282.61
397.77	1221.76
397.97	1235.80
398.16	1240.48
398.35	1235.80
398.55	1247.51
398.74	1406.66
398.93	1364.53
399.12	1268.57
399.32	1390.28
399.51	1291.98
399.70	1329.42
399.90	1261.55
400.09	1348.15
400.28	1352.83
400.47	1317.72
400.67	1413.68
400.86	1343.47
401.05	1385.60
401.24	1383.26
401.44	1453.47
401.63	1511.99
401.82	1411.34
402.01	1448.79
402.21	1362.19
402.40	1409.00
402.59	1451.13
402.78	1549.43
402.97	1624.33
403.17	1516.67
403.36	1507.30
403.55	1514.33
403.74	1561.14
403.93	1551.78
404.13	1610.29
404.32	1610.29
404.51	1497.94
404.70	1565.82
404.89	1509.65
405.09	1743.70
405.28	1619.65
405.47	1661.78
405.66	1687.53
405.85	1734.34
406.05	1750.72
406.24	1703.91
406.43	1739.02
406.62	1842.00
406.81	1811.57
407.00	1727.32
407.20	1710.93
407.39	1757.74
407.58	1774.13
407.77	1872.43
407.96	1818.60
408.15	1799.87
408.34	1820.94
408.54	1851.36
408.73	1942.64
408.92	1839.66
409.11	1898.17
409.30	2001.16
409.49	1994.14
409.68	2010.52
409.87	1912.22
410.07	1975.41
410.26	2050.31
410.45	2001.16
410.64	1994.14
410.83	2090.10
411.02	2059.67
411.21	2179.04
411.40	2122.87
411.59	2172.02
411.78	2090.10
411.98	2176.70
412.17	2265.64
412.36	2244.57
412.55	2270.32
412.74	2307.77
412.93	2275.00
413.12	2209.47
413.31	2331.17
413.50	2338.20
413.69	2359.26
413.88	2516.08
414.07	2370.96
414.26	2417.77
414.45	2441.18
414.64	2420.11
414.83	2553.52
415.02	2637.78
415.22	2576.93
415.41	2560.55
415.60	2656.51
415.79	2705.66
415.98	2698.64
416.17	2693.96
416.36	2642.46
416.55	2661.19
416.74	2789.92
416.93	2705.66
417.12	2668.21
417.31	2710.34
417.50	2895.24
417.69	2888.22
417.88	2913.97
418.07	2930.35
418.26	2953.76
418.45	2862.48
418.64	2953.76
418.83	3061.42
419.02	2904.60
419.21	3014.61
419.39	2920.99
419.58	2949.08
419.77	3028.65
419.96	3117.59
420.15	3274.41
420.34	3073.12
420.53	3110.57
420.72	3126.96
420.91	3194.83
421.10	3290.79
421.29	3314.20
421.48	3136.32
421.67	3162.06
421.86	3169.09
422.05	3323.56
422.24	3260.37
422.43	3246.32
422.61	3328.24
422.80	3307.18
422.99	3403.14
423.18	3325.90
423.37	3417.18
423.56	3227.60
423.75	3260.37
423.94	3159.72
424.13	3169.09
424.32	3229.94
424.50	3328.24
424.69	3372.71
424.88	3527.19
425.07	3403.14
425.26	3227.60
425.45	3433.57
425.64	3295.47
425.83	3382.07
426.01	3424.20
426.20	3304.84
426.39	3412.50
426.58	3372.71
426.77	3363.35
426.96	3442.93
427.15	3339.94
427.33	3435.91
427.52	3426.54
427.71	3496.76
427.90	3517.83
428.09	3389.10
428.28	3574.00
428.46	3627.83
428.65	3719.11
428.84	3627.83
429.03	3705.07
429.22	3611.45
429.40	3630.17
429.59	3613.79
429.78	3684.00
429.97	3501.44
430.16	3763.58
430.34	3833.80
430.53	3843.16
430.72	3817.41
430.91	3723.79
431.10	3691.02
431.28	3852.52
431.47	3854.86
431.66	3864.22
431.85	3740.18
432.03	3997.64
432.22	3955.51
432.41	3985.93
432.60	3878.27
432.79	4086.58
432.97	4077.21
433.16	3960.19
433.35	4042.11
433.54	4060.83
433.72	4063.17
433.91	4070.19
434.10	4142.75
434.28	4056.15
434.47	4070.19
434.66	4030.40
434.85	4180.20
435.03	4278.50
435.22	4262.12
435.41	4344.03
435.59	4341.69
435.78	4156.79
435.97	4308.93
436.16	4444.68
436.34	4217.65
436.53	4320.63
436.72	4507.87
436.90	4259.78
437.09	4496.17
437.28	4402.55
437.46	4472.76
437.65	4519.57
437.84	4571.07
438.02	4442.34
438.21	4620.22
438.40	4599.15
438.58	4596.81
438.77	4737.24
438.96	4692.77
439.14	4802.78
439.33	4819.16
439.52	4786.40
439.70	4807.46
439.89	4985.34
440.08	4873.00
440.26	4877.68
440.45	4880.02
440.63	4891.72
440.82	5128.11
441.01	4861.29
441.19	5093.01
441.38	5048.54
441.57	5104.71
441.75	5181.95
441.94	5170.24
442.12	5334.08
442.31	5334.08
442.50	5219.39
442.68	5249.82
442.87	5327.06
443.05	5334.08
443.24	5308.34
443.43	5345.78
443.61	5355.15
443.80	5596.22
443.98	5336.42
444.17	5242.80
444.35	5533.03
444.54	5526.00
444.73	5537.71
444.91	5439.40
445.10	5437.06
445.28	5385.57
445.47	5526.00
445.65	5495.58
445.84	5530.69
446.02	5827.93
446.21	5628.99
446.39	5486.22
446.58	5579.84
446.77	5710.91
446.95	5488.56
447.14	5621.97
447.32	5666.44
447.51	5420.68
447.69	5713.25
447.88	5746.02
448.06	5692.18
448.25	5631.33
448.43	5579.84
448.62	5706.23
448.80	5558.77
448.99	5659.42
449.17	5778.78
449.36	5809.21
449.54	5968.37
449.73	5846.66
449.91	5982.41
450.10	5973.05
450.28	5870.06
450.46	5980.07
450.65	5970.71
450.83	6008.16
451.02	5879.43
451.20	6045.60
451.39	6069.01
451.57	6019.86
451.76	6017.52
451.94	6040.92
452.13	6235.19
452.31	6017.52
452.49	5994.11
452.68	6054.97
452.86	6118.16
453.05	6087.73
453.23	6181.35
453.42	6291.36
453.60	6036.24
453.78	6176.67
453.97	6164.97
454.15	6485.62
454.34	6333.49
454.52	6246.89
454.70	6420.09
454.89	6389.66
455.07	6399.02
455.26	6408.39
455.44	6581.59
455.62	6476.26
455.81	6476.26
455.99	6562.86
456.17	6490.31
456.36	6445.84
456.54	6600.31
456.73	6820.32
456.91	6951.39
457.09	6752.45
457.28	6836.70
457.46	6850.75
457.64	7040.33
457.83	6993.52
458.01	6855.43
458.19	7162.04
458.38	6876.49
458.56	6927.99
458.74	7061.40
458.93	6911.60
459.11	7035.65
459.29	7260.34
459.48	7162.04
459.66	7012.24
459.84	6885.86
460.03	7138.63
460.21	7119.91
460.39	7274.38
460.57	7084.80
460.76	7248.64
460.94	7337.58
461.12	7126.93
461.31	7501.42
461.49	7335.24
461.67	7363.33
461.85	7372.69
462.04	7344.60
462.22	7922.71
462.40	7634.83
462.59	7297.79
462.77	7456.95
462.95	7578.65
463.13	7599.72
463.32	7665.25
463.50	7662.91
463.68	7829.09
463.86	7786.96
464.05	7756.54
464.23	7672.28
464.41	7857.18
464.59	7583.34
464.78	7901.65
464.96	7859.52
465.14	7770.58
465.32	7913.35
465.50	7999.95
465.69	8058.46
465.87	7925.05
466.05	8112.30
466.23	7714.41
466.41	8006.97
466.60	8042.08
466.78	7779.94
466.96	7908.67
467.14	7967.18
467.32	8084.21
467.51	8329.97
467.69	7875.90
467.87	8042.08
468.05	8177.83
468.23	8210.60
468.41	8046.76
468.60	8042.08
468.78	8245.71
468.96	8229.32
469.14	8231.66
469.32	8358.05
469.50	8215.28
469.69	8407.20
469.87	8451.67
470.05	8650.62
470.23	8662.32
470.41	8482.10
470.59	8585.08
470.77	8746.58
470.95	8643.60
471.14	8751.26
471.32	8510.19
471.50	8868.29
471.68	8964.25
471.86	9041.49
472.04	8908.08
472.22	9165.54
472.40	8915.10
472.58	8865.95
472.77	8999.36
472.95	9020.42
473.13	9516.62
473.31	9071.92
473.49	9252.14
473.67	9135.11
473.85	9312.99
474.03	9589.17
474.21	9406.61
474.39	9621.94
474.57	9511.94
474.75	9827.91
474.93	9692.16
475.12	9659.39
475.30	9827.91
475.48	9935.57
475.66	9933.23
475.84	9710.88
476.02	9827.91
476.20	9755.35
476.38	10146.22
476.56	10326.44
476.74	10476.24
476.92	10214.10
477.10	10195.37
477.28	10370.91
477.46	10403.68
477.64	10530.07
477.82	10759.44
478.00	10923.28
478.18	10705.61
478.36	10747.74
478.54	11176.06
478.72	10963.07
478.90	11147.97
479.08	11257.98
479.26	11187.76
479.44	11323.51
479.62	11131.59
479.80	11641.82
479.98	11714.38
480.16	11990.56
480.34	11583.31
480.52	11789.28
480.70	12002.27
480.88	12002.27
481.06	12145.04
481.24	12156.74
481.41	12308.88
481.59	12381.43
481.77	12407.18
481.95	12498.46
482.13	12903.37
482.31	12711.45
482.49	12950.18
482.67	12791.03
482.85	13057.85
483.03	13156.15
483.21	13245.09
483.39	13350.42
483.57	13298.92
483.74	13373.82
483.92	13565.74
484.10	13378.50
484.28	13879.38
484.46	13954.27
484.64	14260.88
484.82	14097.05
485.00	14490.26
485.18	14518.34
485.35	14623.67
485.53	14434.08
485.71	14661.12
485.89	15110.50
486.07	14977.09
486.25	14911.55
486.43	14822.61
486.61	15410.09
486.78	15297.74
486.96	15634.78
487.14	15716.70
487.32	15667.55
487.50	15789.25
487.68	15955.43
487.85	15969.48
488.03	16446.94
488.21	16599.08
488.39	16187.14
488.57	16760.58
488.75	16769.94
488.92	16847.18
489.10	17186.55
489.28	17097.61
489.46	17287.20
489.64	17053.14
489.81	17640.62
489.99	17715.51
490.17	17577.42
490.35	17848.93
490.53	18008.08
490.70	17921.48
490.88	18321.71
491.06	18192.98
491.24	18583.85
491.41	18382.57
491.59	18611.94
491.77	18771.10
491.95	18864.72
492.13	18946.64
492.30	19325.80
492.48	19330.48
492.66	19119.84
492.84	19377.30
493.01	19910.94
493.19	19733.06
493.37	19716.67
493.54	19719.01
493.72	20063.07
493.90	19859.45
494.08	20144.99
494.25	20610.76
494.43	20451.60
494.61	20512.46
494.79	21083.55
494.96	20699.70
495.14	21081.21
495.32	21095.25
495.49	21214.62
495.67	21303.56
495.85	21500.16
496.02	21500.16
496.20	21556.33
496.38	21790.39
496.55	21647.61
496.73	22473.82
496.91	22352.12
497.09	22394.25
497.26	22239.77
497.44	22157.85
497.62	22595.53
497.79	22672.77
497.97	22614.26
498.14	22885.76
498.32	23054.28
498.50	23328.12
498.67	23435.78
498.85	23400.68
499.03	23606.64
499.20	23330.46
499.38	23330.46
499.56	23761.12
499.73	23931.98
499.91	24009.22
500.08	24163.69
500.26	24027.94
500.44	24283.06
500.61	24095.82
500.79	24254.97
500.97	24631.80
501.14	24727.76
501.32	24343.91
501.49	24463.28
501.67	24725.42
501.84	24741.80
502.02	24479.66
502.20	25106.93
502.37	24968.84
502.55	24849.47
502.72	25230.98
502.90	25404.17
503.07	25502.48
503.25	25413.54
503.43	25254.38
503.60	25591.42
503.78	25860.58
503.95	25773.98
504.13	25963.56
504.30	26167.19
504.48	26221.02
504.65	26190.59
504.83	25888.67
505.01	26251.45
505.18	26419.97
505.36	26448.05
505.53	26656.36
505.71	26656.36
505.88	26551.04
506.06	26536.99
506.23	26831.90
506.41	26476.14
506.58	27150.21
506.76	27201.71
506.93	26806.16
507.11	27028.51
507.28	27072.98
507.46	27056.59
507.63	27597.26
507.81	27662.79
507.98	27360.86
508.16	27634.71
508.33	27697.90
508.50	27859.40
508.68	27835.99
508.85	28346.23
509.03	28161.33
509.20	28114.52
509.38	28554.54
509.55	28271.33
509.73	28599.01
509.90	28584.96
510.08	28402.40
510.25	28470.28
510.42	28886.89
510.60	28999.24
510.77	29001.58
510.95	29120.95
511.12	28985.19
511.30	29134.99
511.47	29577.35
511.64	29125.63
511.82	29331.59
511.99	29516.50
512.17	29687.36
512.34	29326.91
512.51	29898.00
512.69	30045.46
512.86	29865.24
513.04	29790.34
513.21	30251.42
513.38	30462.07
513.56	29982.26
513.73	30309.94
513.90	30466.75
514.08	30663.36
514.25	30611.87
514.43	30752.30
514.60	30745.28
514.77	30885.71
514.95	30764.00
515.12	30796.77
515.29	30630.59
515.47	30951.24
515.64	31363.18
515.81	31133.81
515.99	31168.91
516.16	31601.91
516.33	31145.51
516.51	31477.86
516.68	31613.62
516.85	31864.05
517.03	31363.18
517.20	31927.25
517.37	31625.32
517.54	32086.40
517.72	31798.52
517.89	32414.08
518.06	32437.48
518.24	32180.03
518.41	32275.99
518.58	32039.59
518.75	32002.14
518.93	32254.92
519.10	32463.23
519.27	32570.90
519.45	32732.39
519.62	32926.66
519.79	32809.63
519.96	32690.26
520.14	32938.36
520.31	33027.30
520.48	33179.43
520.65	32968.79
520.83	33057.73
521.00	33371.36
521.17	33230.93
521.34	33188.80
521.52	33404.13
521.69	33748.18
521.86	33888.62
522.03	33956.49
522.20	33998.62
522.38	33921.38
522.55	34167.14
522.72	34333.32
522.89	34270.12
523.07	34431.62
523.24	34401.19
523.41	34258.42
523.58	34408.22
523.75	34361.40
523.92	34246.72
524.10	34689.08
524.27	35037.82
524.44	34630.57
524.61	34756.96
524.78	34609.50
524.96	35117.40
525.13	35267.19
525.30	34920.79
525.47	35239.11
525.64	35187.61
525.81	35515.29
525.98	34876.32
526.16	35625.29
526.33	35449.75
526.50	35358.47
526.67	35189.95
526.84	35576.14
527.01	35264.85
527.18	35861.69
527.36	35950.63
527.53	35854.67
527.70	36301.71
527.87	35786.79
528.04	35828.92
528.21	35910.84
528.38	36051.27
528.55	36273.62
528.72	35964.67
528.89	36334.48
529.07	36432.78
529.24	36297.03
529.41	36613.00
529.58	36030.21
529.75	36751.09
529.92	36699.60
530.09	36547.47
530.26	37017.91
530.43	36369.58
530.60	36507.68
530.77	36617.68
530.94	37361.97
531.11	36776.84
531.28	36828.33
531.46	36975.78
531.63	37062.38
531.80	37151.32
531.97	37226.22
532.14	37200.47
532.31	37116.22
532.48	37736.46
532.65	37287.07
532.82	37446.23
532.99	37237.92
533.16	37331.54
533.33	37940.08
533.50	37600.71
533.67	37773.91
533.84	37553.90
534.01	37689.65
534.18	37715.39
534.35	38047.75
534.52	37961.15
534.69	37691.99
534.86	37977.53
535.03	38059.45
535.20	38033.71
535.37	38199.88
535.54	38459.68
535.71	38337.98
535.88	38440.96
536.05	38754.59
536.22	38476.07
536.38	38693.74
536.55	38703.10
536.72	38859.91
536.89	38714.80
537.06	39140.78
537.23	39089.29
537.40	38394.15
537.57	38565.01
537.74	38714.80
537.91	38864.60
538.08	38845.87
538.25	38911.41
538.42	38499.47
538.59	39203.97
538.75	39243.76
538.92	39360.79
539.09	39445.05
539.26	39021.41
539.43	39283.55
539.60	39232.06
539.77	39379.51
539.94	39210.99
540.11	39302.28
540.28	39765.70
540.44	39875.71
540.61	39543.35
540.78	39679.10
540.95	40112.10
541.12	39559.73
541.29	40119.12
541.46	40259.55
541.62	39894.43
541.79	40271.26
541.96	39838.26
542.13	39945.92
542.30	39896.77
542.47	40421.05
542.63	40322.75
542.80	40446.80
542.97	40580.21
543.14	40634.04
543.31	40320.41
543.48	40821.28
543.64	40851.71
543.81	41083.42
543.98	41003.85
544.15	40587.23
544.32	40830.65
544.48	41298.75
544.65	40650.42
544.82	40968.74
544.99	40760.43
545.16	41277.69
545.32	41038.95
545.49	41301.09
545.66	41542.17
545.83	41488.34
546.00	41422.80
546.16	41125.55
546.33	41483.66
546.50	40786.18
546.67	41619.41
546.83	41296.41
547.00	41603.02
547.17	41284.71
547.34	41598.34
547.50	42106.24
547.67	41680.26
547.84	41722.39
548.00	41982.19
548.17	42164.75
548.34	42061.77
548.51	42380.08
548.67	42017.30
548.84	41954.10
549.01	41933.04
549.18	42038.36
549.34	42192.84
549.51	42351.99
549.68	42483.06
549.84	42000.91
550.01	42277.10
550.18	42141.35
550.34	42602.43
550.51	42728.82
550.68	42380.08
550.84	42380.08
551.01	42630.52
551.18	42508.81
551.34	42651.58
551.51	42663.28
551.68	42370.72
551.84	42440.93
552.01	42515.83
552.18	43040.11
552.34	43044.79
552.51	42733.50
552.68	42848.19
552.84	42487.74
553.01	43042.45
553.18	42539.24
553.34	42960.53
553.51	43086.92
553.67	43215.65
553.84	43725.89
554.01	43634.61
554.17	42890.32
554.34	43562.05
554.51	43276.51
554.67	42997.98
554.84	43122.03
555.00	43407.58
555.17	43072.88
555.33	43749.29
555.50	43576.09
555.67	43672.06
555.83	43339.70
556.00	43676.74
556.16	44320.38
556.33	43847.60
556.50	43622.90
556.66	43768.02
556.83	43672.06
556.99	43641.63
557.16	44177.61
557.32	44259.53
557.49	43536.30
557.65	44037.18
557.82	43929.51
557.98	44119.10
558.15	43868.66
558.32	44203.36
558.48	44091.01
558.65	44037.18
558.81	44245.49
558.98	44006.75
559.14	44184.63
559.31	44013.77
559.47	44210.38
559.64	43690.78
559.80	44091.01
559.97	44697.21
560.13	44165.91
560.30	44360.17
560.46	44715.93
560.63	44610.61
560.79	44481.88
560.96	44732.32
561.12	44421.03
561.29	44472.52
561.45	44727.64
561.61	44619.97
561.78	44446.77
561.94	44362.51
562.11	44610.61
562.27	44491.24
562.44	44329.75
562.60	44732.32
562.77	44561.46
562.93	44308.68
563.10	44545.08
563.26	44542.74
563.42	45132.55
563.59	44816.58
563.75	44811.90
563.92	44725.30
564.08	44940.63
564.24	44769.77
564.41	44643.38
564.57	45099.78
564.74	45137.23
564.90	44465.50
565.07	44720.62
565.23	44699.55
565.39	44758.06
565.56	44961.69
565.72	44886.79
565.88	44821.26
566.05	45071.70
566.21	44790.83
566.38	45123.19
566.54	45219.15
566.70	45230.85
566.87	44823.60
567.03	44835.30
567.19	45296.39
567.36	45242.56
567.52	44938.29
567.68	45542.14
567.85	45272.98
568.01	45509.38
568.17	45223.83
568.34	45434.48
568.50	45230.85
568.66	45148.93
568.83	44924.24
568.99	45226.17
569.15	45282.34
569.32	44942.97
569.48	45104.46
569.64	45490.65
569.81	45394.69
569.97	45544.48
570.13	45490.65
570.30	45305.75
570.46	45139.57
570.62	45347.88
570.78	45167.66
570.95	45593.64
571.11	45759.81
571.27	45453.20
571.43	45860.46
571.60	45284.68
571.76	45191.06
571.92	45460.23
572.09	45336.18
572.25	45373.63
572.41	45249.58
572.57	45401.71
572.74	45603.00
572.90	45593.64
573.06	45649.81
573.22	45603.00
573.38	45837.05
573.55	45738.75
573.71	46103.87
573.87	46115.58
574.03	45474.27
574.20	45677.90
574.36	45661.51
574.52	45888.54
574.68	46117.92
574.84	45935.35
575.01	46054.72
575.17	45715.34
575.33	45682.58
575.49	45965.78
575.65	45783.22
575.82	45804.28
575.98	45448.52
576.14	46146.00
576.30	46146.00
576.46	45823.01
576.62	45720.02
576.79	45565.55
576.95	45251.92
577.11	45308.09
577.27	45734.07
577.43	45783.22
577.59	45720.02
577.75	45860.46
577.92	45399.37
578.08	45614.70
578.24	45851.09
578.40	45698.96
578.56	45993.87
578.72	46248.99
578.88	45888.54
579.04	46307.50
579.21	45736.41
579.37	45825.35
579.53	45961.10
579.69	45715.34
579.85	45619.38
580.01	45710.66
580.17	45780.88
580.33	46153.02
580.49	45804.28
580.65	45921.31
580.82	45996.21
580.98	45918.97
581.14	45656.83
581.30	45745.77
581.46	45731.73
581.62	46157.70
581.78	45553.85
581.94	45837.05
582.10	46232.60
582.26	46143.66
582.42	46188.13
582.58	46204.52
582.74	46256.01
582.90	45949.40
583.06	46323.88
583.22	45727.05
583.38	46342.61
583.54	45921.31
583.70	46138.98
583.86	46003.23
584.02	46087.49
584.18	46567.30
584.34	46064.08
584.50	46422.19
584.66	46234.94
584.82	46028.98
584.98	46291.12
585.14	46225.58
585.30	46351.97
585.46	46274.73
585.62	46012.59
585.78	46351.97
585.94	45769.18
586.10	45900.25
586.26	46021.95
586.42	46586.02
586.58	46431.55
586.74	46040.68
586.90	46370.69
587.06	45928.33
587.22	46162.39
587.38	46096.85
587.54	46684.33
587.70	46696.03
587.86	46293.46
588.02	46337.93
588.18	46061.74
588.34	46106.21
588.49	46700.71
588.65	45881.52
588.81	46504.10
588.97	46588.36
589.13	46190.47
589.29	46373.03
589.45	46508.79
589.61	46639.86
589.77	46333.24
589.93	46623.47
590.08	46672.62
