SpectraSuite Data File
++++++++++++++++++++++++++++++++++++
Date: Fri Oct 25 11:22:45 EDT 2013
User: price-jones
Dark Spectrum Present: No
Reference Spectrum Present: No
Number of Sampled Component Spectra: 1
Spectrometers: USB2+H05261
Integration Time (usec): 100000 (USB2+H05261)
Spectra Averaged: 1 (USB2+H05261)
Boxcar Smoothing: 0 (USB2+H05261)
Correct for Electrical Dark: No (USB2+H05261)
Strobe/Lamp Enabled: No (USB2+H05261)
Correct for Detector Non-linearity: No (USB2+H05261)
Correct for Stray Light: No (USB2+H05261)
Number of Pixels in Processed Spectrum: 2048
>>>>>Begin Processed Spectral Data<<<<<
365.73	191.92
365.92	191.92
366.12	191.92
366.32	135.75
366.52	81.92
366.72	112.35
366.91	135.75
367.11	81.92
367.31	121.71
367.51	145.11
367.70	95.96
367.90	208.31
368.10	149.79
368.30	93.62
368.49	191.92
368.69	161.50
368.89	81.92
369.09	154.48
369.28	117.03
369.48	121.71
369.68	231.71
369.87	191.92
370.07	110.01
370.27	262.14
370.47	332.36
370.66	592.16
370.86	596.84
371.06	711.52
371.25	706.84
371.45	648.33
371.65	690.46
371.84	608.54
372.04	624.92
372.24	751.31
372.44	655.35
372.63	671.73
372.83	725.57
373.03	725.57
373.22	774.72
373.42	755.99
373.62	720.88
373.81	730.25
374.01	760.67
374.21	840.25
374.40	819.19
374.60	774.72
374.79	788.76
374.99	854.30
375.19	891.74
375.38	835.57
375.58	772.38
375.78	816.85
375.97	821.53
376.17	901.11
376.37	819.19
376.56	875.36
376.76	823.87
376.95	851.96
377.15	877.70
377.35	870.68
377.54	938.55
377.74	887.06
377.93	896.43
378.13	851.96
378.33	938.55
378.52	896.43
378.72	985.37
378.91	901.11
379.11	861.32
379.31	919.83
379.50	987.71
379.70	961.96
379.89	997.07
380.09	954.94
380.28	971.32
380.48	968.98
380.68	926.85
380.87	938.55
381.07	952.60
381.26	1001.75
381.46	1027.50
381.65	1011.11
381.85	1074.31
382.04	978.34
382.24	978.34
382.43	1151.54
382.63	1018.13
382.83	1125.80
383.02	1109.41
383.22	1153.88
383.41	1097.71
383.61	1172.61
383.80	1158.57
384.00	1074.31
384.19	1125.80
384.39	1170.27
384.58	1146.86
384.78	1086.01
384.97	1128.14
385.17	1090.69
385.36	1170.27
385.56	1198.35
385.75	1123.46
385.95	1191.33
386.14	1118.78
386.34	1153.88
386.53	1137.50
386.72	1303.68
386.92	1226.44
387.11	1203.04
387.31	1174.95
387.50	1156.22
387.70	1235.80
387.89	1203.04
388.09	1313.04
388.28	1294.32
388.48	1284.95
388.67	1252.19
388.86	1270.91
389.06	1289.64
389.25	1390.28
389.45	1331.76
389.64	1345.81
389.84	1413.68
390.03	1465.18
390.22	1277.93
390.42	1329.42
390.61	1392.62
390.81	1441.77
391.00	1437.09
391.19	1460.49
391.39	1486.24
391.58	1413.68
391.78	1387.94
391.97	1507.30
392.16	1453.47
392.36	1535.39
392.55	1481.56
392.75	1519.01
392.94	1504.96
393.13	1434.75
393.33	1366.87
393.52	1577.52
393.71	1589.22
393.91	1575.18
394.10	1544.75
394.29	1558.80
394.49	1572.84
394.68	1584.54
394.88	1579.86
395.07	1603.27
395.26	1668.80
395.46	1699.23
395.65	1729.66
395.84	1689.87
396.04	1830.30
396.23	1666.46
396.42	1732.00
396.62	1736.68
396.81	1788.17
397.00	1671.14
397.19	1750.72
397.39	1820.94
397.58	1774.13
397.77	1734.34
397.97	1809.23
398.16	1837.32
398.35	1827.96
398.55	1839.66
398.74	1774.13
398.93	1998.82
399.12	1921.58
399.32	1816.26
399.51	1846.68
399.70	2047.97
399.90	1975.41
400.09	2015.20
400.28	2097.12
400.47	2031.58
400.67	2071.37
400.86	2162.66
401.05	2120.53
401.24	2127.55
401.44	2155.63
401.63	2162.66
401.82	2146.27
402.01	2146.27
402.21	2136.91
402.40	2050.31
402.59	2165.00
402.78	2195.42
402.97	2265.64
403.17	2307.77
403.36	2312.45
403.55	2289.04
403.74	2349.90
403.93	2392.03
404.13	2445.86
404.32	2415.43
404.51	2303.09
404.70	2438.84
404.89	2349.90
405.09	2399.05
405.28	2579.27
405.47	2406.07
405.66	2478.63
405.85	2462.24
406.05	2530.12
406.24	2579.27
406.43	2530.12
406.62	2679.91
406.81	2663.53
407.00	2644.81
407.20	2614.38
407.39	2637.78
407.58	2782.90
407.77	2810.98
407.96	2712.68
408.15	2820.35
408.34	2780.56
408.54	2834.39
408.73	2839.07
408.92	2881.20
409.11	2925.67
409.30	2829.71
409.49	2937.37
409.68	2965.46
409.87	2848.43
410.07	3007.59
410.26	3103.55
410.45	2958.44
410.64	3136.32
410.83	2988.86
411.02	3213.56
411.21	3222.92
411.40	3094.19
411.59	3265.05
411.78	3225.26
411.98	3274.41
412.17	3330.58
412.36	3260.37
412.55	3466.33
412.74	3447.61
412.93	3318.88
413.12	3304.84
413.31	3538.89
413.50	3478.04
413.69	3552.93
413.88	3637.19
414.07	3588.04
414.26	3620.81
414.45	3613.79
414.64	3765.92
414.83	3812.73
415.02	3840.82
415.22	4039.76
415.41	4032.74
415.60	3899.33
415.79	3948.48
415.98	3960.19
416.17	4063.17
416.36	4016.36
416.55	4039.76
416.74	4023.38
416.93	3915.72
417.12	4079.55
417.31	4161.47
417.50	4276.16
417.69	4285.52
417.88	4301.90
418.07	4348.72
418.26	4292.54
418.45	4479.79
418.64	4517.23
418.83	4475.10
419.02	4451.70
419.21	4582.77
419.39	4629.58
419.58	4442.34
419.77	4482.13
419.96	4552.34
420.15	4678.73
420.34	4638.94
420.53	4795.76
420.72	4709.16
420.91	4758.31
421.10	4730.22
421.29	4812.14
421.48	4716.18
421.67	4894.06
421.86	4718.52
422.05	4779.37
422.24	4875.34
422.43	4809.80
422.61	5006.41
422.80	4936.19
422.99	4870.65
423.18	5085.98
423.37	4992.36
423.56	4947.89
423.75	4882.36
423.94	4772.35
424.13	4627.24
424.32	4781.71
424.50	5125.77
424.69	5123.43
424.88	5188.97
425.07	5081.30
425.26	4997.04
425.45	5032.15
425.64	5006.41
425.83	4990.02
426.01	5062.58
426.20	5055.56
426.39	4980.66
426.58	5076.62
426.77	5034.49
426.96	5163.22
427.15	5137.48
427.33	5188.97
427.52	5186.63
427.71	5329.40
427.90	5221.74
428.09	5224.08
428.28	5266.21
428.46	5359.83
428.65	5366.85
428.84	5523.66
429.03	5584.52
429.22	5373.87
429.40	5636.01
429.59	5504.94
429.78	5294.29
429.97	5256.84
430.16	5535.37
430.34	5675.80
430.53	5715.59
430.72	5830.27
430.91	5633.67
431.10	5488.56
431.28	5736.65
431.47	5664.10
431.66	5858.36
431.85	5743.67
432.03	5973.05
432.22	5827.93
432.41	5951.98
432.60	5921.56
432.79	5851.34
432.97	5902.83
433.16	5994.11
433.35	5944.96
433.54	5898.15
433.72	6155.61
433.91	6204.76
434.10	6038.58
434.28	6272.64
434.47	6155.61
434.66	6349.87
434.85	6160.29
435.03	6459.88
435.22	6324.13
435.41	6661.16
435.59	6328.81
435.78	6406.05
435.97	6413.07
436.16	6523.07
436.34	6513.71
436.53	6478.60
436.72	6698.61
436.90	6560.52
437.09	6679.89
437.28	6441.15
437.46	6614.35
437.65	6703.29
437.84	6895.22
438.02	6822.66
438.21	6810.96
438.40	6916.28
438.58	6895.22
438.77	7140.97
438.96	7014.59
439.14	7070.76
439.33	7180.76
439.52	7269.70
439.70	7339.92
439.89	7363.33
440.08	7538.87
440.26	7452.27
440.45	7482.69
440.63	7531.84
440.82	7747.17
441.01	7527.16
441.19	7613.76
441.38	7742.49
441.57	7740.15
441.75	7896.97
441.94	7943.78
442.12	7957.82
442.31	7946.12
442.50	8039.74
442.68	7964.84
442.87	8156.77
443.05	8217.62
443.24	8313.58
443.43	8250.39
443.61	8091.23
443.80	8461.04
443.98	8215.28
444.17	7667.60
444.35	8049.10
444.54	8472.74
444.73	8355.71
444.91	8400.18
445.10	8400.18
445.28	8266.77
445.47	8409.54
445.65	8346.35
445.84	8545.30
446.02	8751.26
446.21	8454.02
446.39	8390.82
446.58	8585.08
446.77	8599.13
446.95	8418.91
447.14	8299.54
447.32	8468.06
447.51	8425.93
447.69	8559.34
447.88	8500.83
448.06	8692.75
448.25	8439.97
448.43	8465.72
448.62	8807.44
448.80	8762.97
448.99	8503.17
449.17	8634.24
449.36	8505.51
449.54	8877.65
449.73	9001.70
449.91	9057.87
450.10	8798.07
450.28	9078.94
450.46	9130.43
450.65	8999.36
450.83	9043.83
451.02	9043.83
451.20	9284.91
451.39	9193.62
451.57	9116.39
451.76	9184.26
451.94	9266.18
452.13	9212.35
452.31	9465.13
452.49	9041.49
452.68	9268.52
452.86	9259.16
453.05	9612.58
453.23	9518.96
453.42	9282.56
453.60	9397.25
453.78	9668.75
453.97	9635.99
454.15	9565.77
454.34	9504.92
454.52	9984.73
454.70	9631.30
454.89	9827.91
455.07	9900.47
455.26	9818.55
455.44	9905.15
455.62	9809.19
455.81	9989.41
455.99	9954.30
456.17	10090.05
456.36	9987.07
456.54	10307.72
456.73	10195.37
456.91	10490.28
457.09	10539.43
457.28	10520.71
457.46	10504.32
457.64	10682.20
457.83	10480.92
458.01	10361.55
458.19	10871.79
458.38	10530.07
458.56	10782.85
458.74	10698.59
458.93	10857.75
459.11	10724.33
459.29	10750.08
459.48	11044.99
459.66	10902.22
459.84	10967.75
460.03	11239.25
460.21	10942.00
460.39	11007.54
460.57	11084.78
460.76	11133.93
460.94	11239.25
461.12	11279.04
461.31	11192.44
461.49	11276.70
461.67	11201.80
461.85	11585.65
462.04	11522.46
462.22	11901.62
462.40	11939.07
462.59	11384.37
462.77	11587.99
462.95	11627.78
463.13	11840.77
463.32	11810.34
463.50	11913.33
463.68	11690.98
463.86	11906.31
464.05	11578.63
464.23	11700.34
464.41	12072.48
464.59	11918.01
464.78	12411.86
464.96	12231.64
465.14	12006.95
465.32	11892.26
465.50	12184.83
465.69	12194.19
465.87	12067.80
466.05	12145.04
466.23	12009.29
466.41	12374.41
466.60	12545.27
466.78	12439.95
466.96	12098.23
467.14	12528.89
467.32	12482.08
467.51	12498.46
467.69	12063.12
467.87	12383.77
468.05	12643.57
468.23	12683.36
468.41	12624.85
468.60	12882.31
468.78	12765.28
468.96	12723.15
469.14	12863.58
469.32	12898.69
469.50	12552.29
469.69	13039.12
469.87	12975.93
470.05	13137.43
470.23	13221.69
470.41	13085.94
470.59	13380.84
470.77	13390.20
470.95	13359.78
471.14	13687.45
471.32	13327.01
471.50	13516.59
471.68	13542.34
471.86	13437.02
472.04	13823.20
472.22	14155.56
472.40	13792.78
472.58	14188.33
472.77	14249.18
472.95	14057.26
473.13	14757.08
473.31	14319.40
473.49	14387.27
473.67	14354.51
473.85	14317.06
474.03	14834.32
474.21	14839.00
474.39	14745.38
474.57	14682.18
474.75	14824.95
474.93	15009.86
475.12	14679.84
475.30	15241.57
475.48	15154.97
475.66	15370.30
475.84	15084.75
476.02	15524.77
476.20	15431.15
476.38	15592.65
476.56	16044.37
476.74	15847.77
476.92	16196.51
477.10	15829.04
477.28	16035.01
477.46	16308.85
477.64	16554.61
477.82	16470.35
478.00	17193.58
478.18	16835.47
478.36	17125.70
478.54	17366.78
478.72	17179.53
478.90	17668.70
479.08	17535.29
479.26	17652.32
479.44	17729.56
479.62	17996.38
479.80	18068.94
479.98	18635.35
480.16	18780.46
480.34	18338.10
480.52	18658.75
480.70	18876.42
480.88	18466.83
481.06	19073.03
481.24	19037.92
481.41	19066.00
481.59	19267.29
481.77	19613.69
481.95	19679.22
482.13	20023.28
482.31	19644.12
482.49	20285.42
482.67	20280.74
482.85	20259.68
483.03	21050.78
483.21	20870.56
483.39	20858.85
483.57	21088.23
483.74	21383.13
483.92	21553.99
484.10	21331.64
484.28	21666.34
484.46	22066.57
484.64	22471.48
484.82	22309.99
485.00	22778.09
485.18	22906.82
485.35	23271.95
485.53	22920.87
485.71	23201.73
485.89	23536.43
486.07	23466.21
486.25	23447.49
486.43	23452.17
486.61	23796.23
486.78	24212.84
486.96	24194.12
487.14	24879.89
487.32	24907.98
487.50	24851.81
487.68	24868.19
487.85	25380.77
488.03	25802.07
488.21	25839.51
488.39	26012.71
488.57	26277.19
488.75	26235.06
488.92	26494.86
489.10	26867.01
489.28	27222.77
489.46	27339.80
489.64	27414.69
489.81	28046.64
489.99	28156.64
490.17	27679.18
490.35	28208.14
490.53	28318.14
490.70	28608.37
490.88	28439.85
491.06	28999.24
491.24	29125.63
491.41	28919.66
491.59	29443.94
491.77	29432.24
491.95	29790.34
492.13	30256.11
492.30	30368.45
492.48	30134.40
492.66	29816.08
492.84	30478.46
493.01	30986.35
493.19	31023.80
493.37	31042.53
493.54	31056.57
493.72	31578.51
493.90	31585.53
494.08	31894.48
494.25	32023.21
494.43	32116.83
494.61	32636.43
494.79	32723.03
494.96	32650.47
495.14	32996.87
495.32	33467.32
495.49	33577.33
495.67	33673.29
495.85	33809.04
496.02	33769.25
496.20	33949.47
496.38	34239.70
496.55	34244.38
496.73	35175.91
496.91	34663.33
497.09	35145.48
497.26	35353.79
497.44	35349.11
497.62	35505.93
497.79	35997.44
497.97	35735.30
498.14	36163.62
498.32	36715.98
498.50	36643.43
498.67	36360.22
498.85	36704.28
499.03	36767.48
499.20	37031.96
499.38	37425.17
499.56	37525.81
499.73	37296.44
499.91	37551.56
500.08	38003.28
500.26	37741.14
500.44	37717.73
500.61	38164.78
500.79	37893.27
500.97	38127.33
501.14	38588.41
501.32	38864.60
501.49	38391.81
501.67	39185.25
501.84	39147.80
502.02	39063.54
502.20	39321.00
502.37	39662.72
502.55	38995.67
502.72	39856.98
502.90	39578.46
503.07	39377.17
503.25	40147.21
503.43	39835.92
503.60	40121.46
503.78	40334.45
503.95	40353.18
504.13	40236.15
504.30	40671.49
504.48	40608.29
504.65	41233.22
504.83	41116.19
505.01	41235.56
505.18	41242.58
505.36	41961.12
505.53	41785.58
505.71	41860.48
505.88	42040.70
506.06	41865.16
506.23	42160.07
506.41	42246.67
506.58	42469.02
506.76	42834.14
506.93	43065.86
507.11	42555.62
507.28	42946.49
507.46	43124.37
507.63	43194.59
507.81	43442.68
507.98	43173.52
508.16	43112.67
508.33	43714.19
508.50	43777.38
508.68	43793.76
508.85	44205.70
509.03	44149.53
509.20	44746.36
509.38	44758.06
509.55	44772.11
509.73	44594.23
509.90	44741.68
510.08	44531.03
510.25	44671.46
510.42	44942.97
510.60	45113.83
510.77	45340.86
510.95	45975.14
511.12	45382.99
511.30	45848.75
511.47	45542.14
511.64	45869.82
511.82	46256.01
511.99	45909.61
512.17	46274.73
512.34	46216.22
512.51	46703.05
512.69	46600.07
512.86	46621.13
513.04	46909.02
513.21	46677.30
513.38	46883.27
513.56	47161.79
513.73	46848.16
513.90	47372.44
514.08	47112.64
514.25	47917.79
514.43	47470.75
514.60	47512.88
514.77	47765.65
514.95	47772.67
515.12	47920.13
515.29	47604.16
515.47	47973.96
515.64	48355.47
515.81	47695.44
515.99	48243.12
516.16	48718.25
516.33	48664.42
516.51	48741.66
516.68	48776.76
516.85	48598.88
517.03	48692.50
517.20	48851.66
517.37	49352.54
517.54	48907.83
517.72	49111.46
517.89	49507.01
518.06	49375.94
518.24	49895.54
518.41	49668.51
518.58	49614.68
518.75	49539.78
518.93	49860.43
519.10	49975.12
519.27	50031.29
519.45	49886.18
519.62	49949.37
519.79	50223.22
519.96	49858.09
520.14	50384.71
520.31	50094.49
520.48	50618.77
520.65	50686.64
520.83	50700.68
521.00	51103.26
521.17	50754.52
521.34	50925.38
521.52	50986.23
521.69	51337.31
521.86	51210.92
522.03	51295.18
522.20	51334.97
522.38	51569.02
522.55	51711.80
522.72	51393.48
522.89	51664.99
523.07	51903.72
523.24	51805.42
523.41	51704.77
523.58	51381.78
523.75	52266.50
523.92	51922.44
524.10	52079.26
524.27	52465.45
524.44	52418.64
524.61	52383.53
524.78	52261.82
524.96	52346.08
525.13	52573.11
525.30	52374.17
525.47	52788.44
525.64	52334.38
525.81	52743.97
525.98	52858.66
526.16	52673.76
526.33	52779.08
526.50	53546.78
526.67	53151.23
526.84	52919.51
527.01	52849.30
527.18	52963.98
527.36	53256.55
527.53	53160.59
527.70	53420.39
527.87	53401.66
528.04	53474.22
528.21	53404.00
528.38	53373.58
528.55	53563.16
528.72	53701.25
528.89	53719.98
529.07	53502.31
529.24	53719.98
529.41	53954.03
529.58	53984.46
529.75	53780.83
529.92	54052.33
530.09	53968.07
530.26	54124.89
530.43	53958.71
530.60	53961.05
530.77	53935.30
530.94	54342.56
531.11	54106.16
531.28	54482.99
531.46	54244.26
531.63	54466.61
531.80	54560.23
531.97	54405.75
532.14	54635.13
532.31	54658.53
532.48	54768.54
532.65	54782.58
532.82	54447.88
532.99	54684.28
533.16	54588.31
533.33	54890.24
533.50	55229.62
533.67	55044.72
533.84	55117.28
534.01	55121.96
534.18	54915.99
534.35	55278.77
534.52	55224.94
534.69	55292.82
534.86	55557.30
535.03	55447.29
535.20	55360.69
535.37	55650.92
535.54	55679.00
535.71	55384.10
535.88	55447.29
536.05	55716.45
536.22	55646.24
536.38	56072.21
536.55	55688.37
536.72	55821.78
536.89	55646.24
537.06	55777.31
537.23	55899.01
537.40	55707.09
537.57	56030.08
537.74	55931.78
537.91	56287.54
538.08	56069.87
538.25	55941.14
538.42	56081.58
538.59	56238.39
538.75	56023.06
538.92	56245.41
539.09	56219.67
539.26	56177.54
539.43	56446.70
539.60	56313.29
539.77	56296.91
539.94	56713.52
540.11	56320.31
540.28	56603.52
540.44	56757.99
540.61	56537.98
540.78	56519.26
540.95	56406.91
541.12	56715.86
541.29	56610.54
541.46	56633.94
541.62	56718.20
541.79	56870.34
541.96	56718.20
542.13	56678.41
542.30	56655.01
542.47	57029.49
542.63	57064.60
542.80	57024.81
542.97	57153.54
543.14	57286.95
543.31	57429.72
543.48	57373.55
543.64	57322.06
543.81	57331.42
543.98	57591.22
544.15	57712.93
544.32	57783.15
544.48	57652.08
544.65	57577.18
544.82	57474.20
544.99	57478.88
545.16	57511.64
545.32	57427.38
545.49	57666.12
545.66	57832.30
545.83	57822.93
546.00	58059.33
546.16	57829.96
546.33	57645.05
546.50	57717.61
546.67	57972.73
546.83	57467.17
547.00	57825.28
547.17	58073.37
547.34	58129.54
547.50	58085.07
547.67	58335.51
547.84	58010.18
548.00	58382.32
548.17	58171.67
548.34	58342.53
548.51	58379.98
548.67	58450.20
548.84	58454.88
549.01	58082.73
549.18	58218.49
549.34	58375.30
549.51	58588.29
549.68	58630.42
549.84	58370.62
550.01	58468.92
550.18	58471.26
550.34	58445.52
550.51	58628.08
550.68	58735.74
550.84	58487.65
551.01	58766.17
551.18	58724.04
551.34	58712.34
551.51	58721.70
551.68	58780.21
551.84	58834.05
552.01	58571.91
552.18	58962.78
552.34	58745.11
552.51	58990.86
552.68	58649.14
552.84	58688.93
553.01	59189.81
553.18	58969.80
553.34	59133.63
553.51	58848.09
553.67	58937.03
553.84	59124.27
554.01	59042.35
554.17	59150.02
554.34	59203.85
554.51	59047.04
554.67	59157.04
554.84	59084.48
555.00	59114.91
555.17	58873.84
555.33	59494.08
555.50	58922.99
555.67	59157.04
555.83	59264.70
556.00	59344.28
556.16	59531.53
556.33	59419.18
556.50	59327.90
556.66	59519.82
556.83	59398.12
556.99	59646.21
557.16	59742.17
557.32	59618.13
557.49	59643.87
557.65	59702.38
557.82	59447.27
557.98	59334.92
558.15	59655.57
558.32	59416.84
558.48	59667.28
558.65	59686.00
558.81	59552.59
558.98	59543.23
559.14	59770.26
559.31	60004.31
559.47	59807.71
559.64	59856.86
559.80	59906.01
559.97	59751.54
560.13	59620.47
560.30	60018.36
560.46	59983.25
560.63	59875.58
560.79	59936.44
560.96	59929.42
561.12	60018.36
561.29	59882.61
561.45	59884.95
561.61	59987.93
561.78	60107.30
561.94	59952.82
562.11	60039.42
562.27	59985.59
562.44	60030.06
562.60	60346.03
562.77	60221.98
562.93	59784.30
563.10	60303.90
563.26	59976.23
563.42	60324.97
563.59	60191.56
563.75	60226.66
563.92	60165.81
564.08	60048.78
564.24	60444.33
564.41	60303.90
564.57	60233.69
564.74	60240.71
564.90	60231.35
565.07	60107.30
565.23	60250.07
565.39	60114.32
565.56	60254.75
565.72	60175.17
565.88	60533.28
566.05	60212.62
566.21	60301.56
566.38	60331.99
566.54	60336.67
566.70	60570.72
566.87	60687.75
567.03	60083.89
567.19	60432.63
567.36	60371.78
567.52	60430.29
567.68	60617.53
567.85	60516.89
568.01	60556.68
568.17	60299.22
568.34	60619.88
568.50	60612.85
568.66	60594.13
568.83	60622.22
568.99	60638.60
569.15	60413.91
569.32	60334.33
569.48	60643.28
569.64	60690.09
569.81	60570.72
569.97	60512.21
570.13	60603.49
570.30	60556.68
570.46	60594.13
570.62	60739.24
570.78	60638.60
570.95	60722.86
571.11	60804.78
571.27	60725.20
571.43	60748.60
571.60	60942.87
571.76	60596.47
571.92	60797.76
572.09	60837.54
572.25	60685.41
572.41	60832.86
572.57	60741.58
572.74	61045.85
572.90	60746.26
573.06	60783.71
573.22	60697.11
573.38	60673.71
573.55	60736.90
573.71	61022.45
573.87	60788.39
574.03	60676.05
574.20	60823.50
574.36	60755.63
574.52	60844.57
574.68	60849.25
574.84	60891.38
575.01	60884.36
575.17	60924.14
575.33	60786.05
575.49	60711.16
575.65	60996.70
575.82	60931.17
575.98	60870.31
576.14	61048.19
576.30	61038.83
576.46	60711.16
576.62	61024.79
576.79	60795.42
576.95	60727.54
577.11	60947.55
577.27	61059.90
577.43	61146.50
577.59	60860.95
577.75	60858.61
577.92	60701.79
578.08	60860.95
578.24	60963.93
578.40	61144.16
578.56	61186.28
578.72	60980.32
578.88	61118.41
579.04	61116.07
579.21	60996.70
579.37	61247.14
579.53	61303.31
579.69	60879.67
579.85	60886.70
580.01	61296.29
580.17	60924.14
580.33	61104.37
580.49	61223.73
580.65	61158.20
580.82	61076.28
580.98	60977.98
581.14	60886.70
581.30	61116.07
581.46	60891.38
581.62	60956.91
581.78	61015.43
581.94	61151.18
582.10	60921.80
582.26	61172.24
582.42	61029.47
582.58	61034.15
582.74	60940.53
582.90	60889.04
583.06	60994.36
583.22	60977.98
583.38	60933.51
583.54	61160.54
583.70	61174.58
583.86	61106.71
584.02	61013.08
584.18	61174.58
584.34	61097.34
584.50	61118.41
584.66	60814.14
584.82	61048.19
584.98	61319.70
585.14	61197.99
585.30	60989.68
585.46	61148.84
585.62	61310.33
585.78	61340.76
585.94	61113.73
586.10	61029.47
586.26	61078.62
586.42	61300.97
586.58	61078.62
586.74	61221.39
586.90	61085.64
587.06	61057.56
587.22	61333.74
587.38	61092.66
587.54	61361.82
587.70	61429.70
587.86	61209.69
588.02	61207.35
588.18	61485.87
588.34	61104.37
588.49	61186.28
