SpectraSuite Data File
++++++++++++++++++++++++++++++++++++
Date: Fri Oct 25 10:47:21 EDT 2013
User: price-jones
Dark Spectrum Present: No
Reference Spectrum Present: No
Number of Sampled Component Spectra: 1
Spectrometers: USB2+H05261
Integration Time (usec): 100000 (USB2+H05261)
Spectra Averaged: 1 (USB2+H05261)
Boxcar Smoothing: 0 (USB2+H05261)
Correct for Electrical Dark: No (USB2+H05261)
Strobe/Lamp Enabled: No (USB2+H05261)
Correct for Detector Non-linearity: No (USB2+H05261)
Correct for Stray Light: No (USB2+H05261)
Number of Pixels in Processed Spectrum: 2048
>>>>>Begin Processed Spectral Data<<<<<
365.73	175.54
365.92	175.54
366.12	175.54
366.32	46.81
366.52	0.00
366.72	93.62
366.91	25.75
367.11	2.34
367.31	44.47
367.51	65.54
367.70	58.51
367.90	0.00
368.10	14.04
368.30	30.43
368.49	56.17
368.69	0.00
368.89	58.51
369.09	42.13
369.28	72.56
369.48	95.96
369.68	42.13
369.87	154.48
370.07	98.30
370.27	196.60
370.47	131.07
370.66	330.02
370.86	386.19
371.06	451.72
371.25	547.69
371.45	351.08
371.65	379.17
371.84	346.40
372.04	470.45
372.24	430.66
372.44	496.19
372.63	444.70
372.83	472.79
373.03	521.94
373.22	514.92
373.42	491.51
373.62	498.53
373.81	550.03
374.01	545.34
374.21	711.52
374.40	524.28
374.60	601.52
374.79	561.73
374.99	505.56
375.19	538.32
375.38	550.03
375.58	561.73
375.78	519.60
375.97	528.96
376.17	535.98
376.37	599.18
376.56	526.62
376.76	552.37
376.95	617.90
377.15	571.09
377.35	629.60
377.54	601.52
377.74	578.11
377.93	596.84
378.13	648.33
378.33	603.86
378.52	594.50
378.72	636.63
378.91	566.41
379.11	662.37
379.31	615.56
379.50	653.01
379.70	641.31
379.89	653.01
380.09	568.75
380.28	669.39
380.48	622.58
380.68	669.39
380.87	624.92
381.07	615.56
381.26	702.16
381.46	638.97
381.65	697.48
381.85	671.73
382.04	669.39
382.24	713.86
382.43	667.05
382.63	648.33
382.83	671.73
383.02	706.84
383.22	854.30
383.41	699.82
383.61	727.91
383.80	734.93
384.00	709.18
384.19	758.33
384.39	767.70
384.58	671.73
384.78	732.59
384.97	746.63
385.17	798.12
385.36	657.69
385.56	711.52
385.75	741.95
385.95	777.06
386.14	788.76
386.34	734.93
386.53	746.63
386.72	716.20
386.92	809.83
387.11	814.51
387.31	837.91
387.50	795.78
387.70	774.72
387.89	873.02
388.09	816.85
388.28	826.21
388.48	912.81
388.67	812.17
388.86	917.49
389.06	936.21
389.25	1022.81
389.45	999.41
389.64	889.40
389.84	1008.77
390.03	940.90
390.22	926.85
390.42	964.30
390.61	908.13
390.81	917.49
391.00	889.40
391.19	950.26
391.39	968.98
391.58	978.34
391.78	947.92
391.97	950.26
392.16	1001.75
392.36	922.17
392.55	999.41
392.75	940.90
392.94	968.98
393.13	1039.20
393.33	959.62
393.52	898.77
393.71	1006.43
393.91	1071.97
394.10	1043.88
394.29	1004.09
394.49	1212.40
394.68	1020.47
394.88	1102.39
395.07	1100.05
395.26	1139.84
395.46	1067.28
395.65	1053.24
395.84	1200.69
396.04	1172.61
396.23	1069.62
396.42	1123.46
396.62	1158.57
396.81	1050.90
397.00	1090.69
397.19	1081.33
397.39	1102.39
397.58	1205.38
397.77	1228.78
397.97	1287.29
398.16	1261.55
398.35	1282.61
398.55	1296.66
398.74	1277.93
398.93	1306.02
399.12	1352.83
399.32	1317.72
399.51	1359.85
399.70	1359.85
399.90	1387.94
400.09	1327.08
400.28	1460.49
400.47	1352.83
400.67	1444.11
400.86	1434.75
401.05	1425.39
401.24	1476.88
401.44	1366.87
401.63	1516.67
401.82	1507.30
402.01	1540.07
402.21	1474.54
402.40	1568.16
402.59	1511.99
402.78	1526.03
402.97	1568.16
403.17	1572.84
403.36	1549.43
403.55	1502.62
403.74	1577.52
403.93	1589.22
404.13	1624.33
404.32	1572.84
404.51	1664.12
404.70	1734.34
404.89	1650.08
405.09	1790.51
405.28	1633.69
405.47	1631.35
405.66	1722.63
405.85	1727.32
406.05	1694.55
406.24	1664.12
406.43	1743.70
406.62	1778.81
406.81	1839.66
407.00	1867.75
407.20	1778.81
407.39	1879.45
407.58	1874.77
407.77	1935.62
407.96	2033.93
408.15	1905.20
408.34	1937.96
408.54	2022.22
408.73	2031.58
408.92	2057.33
409.11	2029.24
409.30	2101.80
409.49	1998.82
409.68	1987.11
409.87	1982.43
410.07	2076.06
410.26	2146.27
410.45	2043.29
410.64	2111.16
410.83	2230.53
411.02	2165.00
411.21	2235.21
411.40	2244.57
411.59	2188.40
411.78	2303.09
411.98	2270.32
412.17	2272.66
412.36	2331.17
412.55	2333.51
412.74	2319.47
412.93	2462.24
413.12	2406.07
413.31	2576.93
413.50	2422.45
413.69	2530.12
413.88	2525.44
414.07	2492.67
414.26	2619.06
414.45	2675.23
414.64	2553.52
414.83	2642.46
415.02	2633.10
415.22	2684.59
415.41	2642.46
415.60	2703.32
415.79	2658.85
415.98	2853.11
416.17	2895.24
416.36	2881.20
416.55	2853.11
416.74	2970.14
416.93	2815.66
417.12	3014.61
417.31	2984.18
417.50	2970.14
417.69	2913.97
417.88	2998.23
418.07	3052.06
418.26	3105.89
418.45	2998.23
418.64	3087.17
418.83	3171.43
419.02	3136.32
419.21	3262.71
419.39	3059.08
419.58	3183.13
419.77	3208.87
419.96	3375.05
420.15	3274.41
420.34	3260.37
420.53	3351.65
420.72	3452.29
420.91	3318.88
421.10	3286.11
421.29	3571.66
421.48	3321.22
421.67	3398.46
421.86	3527.19
422.05	3475.70
422.24	3323.56
422.43	3520.17
422.61	3328.24
422.80	3463.99
422.99	3473.36
423.18	3548.25
423.37	3545.91
423.56	3606.77
423.75	3428.88
423.94	3449.95
424.13	3227.60
424.32	3384.41
424.50	3445.27
424.69	3618.47
424.88	3571.66
425.07	3548.25
425.26	3379.73
425.45	3545.91
425.64	3466.33
425.83	3646.55
426.01	3606.77
426.20	3506.12
426.39	3492.08
426.58	3637.19
426.77	3370.37
426.96	3538.89
427.15	3541.23
427.33	3630.17
427.52	3744.86
427.71	3716.77
427.90	3632.51
428.09	3791.67
428.28	3730.81
428.46	3688.68
428.65	3681.66
428.84	3941.46
429.03	3896.99
429.22	3698.05
429.40	3831.46
429.59	3723.79
429.78	3627.83
429.97	3590.38
430.16	3775.28
430.34	3850.18
430.53	3889.97
430.72	3786.99
430.91	3868.91
431.10	3936.78
431.28	4060.83
431.47	4039.76
431.66	4152.11
431.85	4138.07
432.03	4205.94
432.22	4367.44
432.41	4074.87
432.60	4126.36
432.79	4234.03
432.97	4248.07
433.16	4227.01
433.35	4117.00
433.54	4245.73
433.72	4252.75
433.91	4252.75
434.10	4262.12
434.28	4138.07
434.47	4353.40
434.66	4456.38
434.85	4402.55
435.03	4248.07
435.22	4498.51
435.41	4657.67
435.59	4404.89
435.78	4437.66
435.97	4538.30
436.16	4407.23
436.34	4486.81
436.53	4582.77
436.72	4706.82
436.90	4514.89
437.09	4531.28
437.28	4477.44
437.46	4615.54
437.65	4699.80
437.84	4603.83
438.02	4826.18
438.21	4648.30
438.40	4645.96
438.58	4847.25
438.77	4779.37
438.96	4854.27
439.14	4973.64
439.33	5011.09
439.52	5078.96
439.70	5004.07
439.89	5186.63
440.08	5245.14
440.26	5338.76
440.45	5123.43
440.63	5280.25
440.82	5242.80
441.01	5383.23
441.19	5411.32
441.38	5462.81
441.57	5378.55
441.75	5547.07
441.94	5628.99
442.12	5481.53
442.31	5540.05
442.50	5465.15
442.68	5596.22
442.87	5437.06
443.05	5633.67
443.24	5727.29
443.43	5678.14
443.61	5666.44
443.80	5977.73
443.98	5619.63
444.17	5472.17
444.35	5621.97
444.54	5884.11
444.73	5837.30
444.91	5689.84
445.10	5846.66
445.28	5921.56
445.47	5701.54
445.65	5682.82
445.84	5879.43
446.02	5881.77
446.21	5736.65
446.39	5788.14
446.58	5898.15
446.77	6010.50
446.95	5820.91
447.14	5881.77
447.32	5914.53
447.51	5987.09
447.69	6036.24
447.88	5935.60
448.06	6038.58
448.25	5912.19
448.43	6045.60
448.62	6101.78
448.80	6045.60
448.99	6076.03
449.17	6160.29
449.36	6073.69
449.54	6246.89
449.73	6237.53
449.91	6333.49
450.10	6328.81
450.28	6298.38
450.46	6462.22
450.65	6406.05
450.83	6511.37
451.02	6333.49
451.20	6380.30
451.39	6370.94
451.57	6342.85
451.76	6494.99
451.94	6349.87
452.13	6576.91
452.31	6420.09
452.49	6300.72
452.68	6537.12
452.86	6380.30
453.05	6637.76
453.23	6677.55
453.42	6466.90
453.60	6480.94
453.78	6623.72
453.97	6525.41
454.15	6445.84
454.34	6572.22
454.52	6834.36
454.70	6684.57
454.89	6679.89
455.07	6883.52
455.26	6850.75
455.44	6916.28
455.62	6813.30
455.81	6768.83
455.99	7045.01
456.17	7054.37
456.36	6850.75
456.54	7131.61
456.73	7098.84
456.91	7321.20
457.09	7122.25
457.28	7171.40
457.46	7155.02
457.64	7360.98
457.83	7199.49
458.01	7194.81
458.19	7431.20
458.38	7194.81
458.56	7384.39
458.74	7194.81
458.93	7473.33
459.11	7363.33
459.29	7370.35
459.48	7419.50
459.66	7391.41
459.84	7566.95
460.03	7611.42
460.21	7590.36
460.39	7667.60
460.57	7672.28
460.76	7485.03
460.94	7749.51
461.12	7756.54
461.31	7740.15
461.49	7630.15
461.67	7695.68
461.85	7796.32
462.04	7880.58
462.22	8505.51
462.40	8126.34
462.59	8053.78
462.77	7887.61
462.95	8133.36
463.13	7918.03
463.32	8011.65
463.50	8112.30
463.68	8149.75
463.86	8114.64
464.05	7985.91
464.23	8028.04
464.41	8037.40
464.59	7974.21
464.78	8219.96
464.96	8198.90
465.14	8100.59
465.32	8318.26
465.50	8344.01
465.69	8634.24
465.87	8271.45
466.05	8322.94
466.23	8365.07
466.41	8236.35
466.60	8568.70
466.78	8322.94
466.96	8468.06
467.14	8449.33
467.32	8629.56
467.51	8589.77
467.69	8283.16
467.87	8428.27
468.05	8603.81
468.23	8573.38
468.41	8559.34
468.60	8449.33
468.78	8510.19
468.96	8547.64
469.14	8851.91
469.32	8992.34
469.50	8582.74
469.69	8664.66
469.87	8912.76
470.05	9053.19
470.23	8856.59
470.41	8954.89
470.59	8954.89
470.77	9116.39
470.95	8919.78
471.14	9125.75
471.32	8887.01
471.50	9324.69
471.68	9310.65
471.86	9320.01
472.04	9430.02
472.22	9640.67
472.40	9231.07
472.58	9397.25
472.77	9385.55
472.95	9385.55
473.13	9823.23
473.31	9600.88
473.49	9490.87
473.67	9549.39
473.85	9540.02
474.03	9776.42
474.21	10022.17
474.39	9968.34
474.57	9884.08
474.75	10094.73
474.93	10132.18
475.12	10008.13
475.30	10307.72
475.48	10115.80
475.66	10115.80
475.84	10099.41
476.02	10277.29
476.20	10256.23
476.38	10434.11
476.56	10965.41
476.74	10499.64
476.92	10614.33
477.10	10738.38
477.28	10963.07
477.46	10927.96
477.64	10965.41
477.82	11145.63
478.00	11573.95
478.18	11187.76
478.36	11550.54
478.54	11494.37
478.72	11496.71
478.90	11716.72
479.08	11698.00
479.26	11840.77
479.44	11838.43
479.62	11990.56
479.80	12011.63
479.98	12067.80
480.16	12273.77
480.34	12318.24
480.52	12362.71
480.70	12407.18
480.88	12313.56
481.06	12446.97
481.24	12411.86
481.41	12980.61
481.59	12901.03
481.77	13170.19
481.95	12931.46
482.13	13275.52
482.31	13240.41
482.49	13441.70
482.67	13624.26
482.85	13551.70
483.03	13675.75
483.21	14024.49
483.39	14195.35
483.57	13980.02
483.74	14253.86
483.92	14288.97
484.10	14171.94
484.28	14305.35
484.46	14647.07
484.64	14523.02
484.82	14654.09
485.00	14597.92
485.18	14941.98
485.35	15002.83
485.53	14960.70
485.71	15037.94
485.89	15538.82
486.07	15124.54
486.25	15428.81
486.43	15557.54
486.61	15501.37
486.78	15669.89
486.96	15826.70
487.14	16252.68
487.32	16423.54
487.50	16327.58
487.68	16472.69
487.85	16842.50
488.03	16917.39
488.21	17090.59
488.39	17062.51
488.57	17277.83
488.75	17205.28
488.92	17727.22
489.10	17596.15
489.28	17640.62
489.46	17874.67
489.64	17965.95
489.81	18001.06
489.99	18644.71
490.17	18209.37
490.35	18555.77
490.53	18607.26
490.70	18850.67
490.88	18508.96
491.06	19274.31
491.24	18979.40
491.41	18948.98
491.59	18747.69
491.77	19101.11
491.95	19424.11
492.13	19501.34
492.30	19695.61
492.48	19714.33
492.66	19632.41
492.84	19920.30
493.01	20236.27
493.19	20018.60
493.37	20287.76
493.54	20411.81
493.72	20613.10
493.90	20755.87
494.08	20730.12
494.25	21209.93
494.43	21455.69
494.61	21525.91
494.79	21341.00
494.96	21151.42
495.14	21865.28
495.32	21584.42
495.49	21507.18
495.67	21970.61
495.85	22150.83
496.02	22295.94
496.20	22169.55
496.38	22398.93
496.55	22476.16
496.73	22967.68
496.91	22445.74
497.09	22721.92
497.26	23087.04
497.44	23049.60
497.62	22979.38
497.79	23321.10
497.97	23494.30
498.14	23559.83
498.32	23641.75
498.50	23459.19
498.67	23658.14
498.85	23969.43
499.03	23941.34
499.20	24357.96
499.38	23824.31
499.56	24140.29
499.73	24458.60
499.91	24601.37
500.08	24662.22
500.26	24437.53
500.44	24470.30
500.61	24706.70
500.79	24645.84
500.97	25088.20
501.14	25415.88
501.32	25205.23
501.49	25195.87
501.67	25317.57
501.84	25326.94
502.02	25177.14
502.20	25385.45
502.37	25563.33
502.55	25596.10
502.72	25495.46
502.90	25888.67
503.07	25678.02
503.25	25727.17
503.43	25958.88
503.60	26141.44
503.78	26221.02
503.95	26586.15
504.13	26267.83
504.30	26567.42
504.48	26539.33
504.65	26443.37
504.83	27253.20
505.01	27019.14
505.18	26909.14
505.36	27285.97
505.53	27220.43
505.71	27168.94
505.88	27498.95
506.06	27246.18
506.23	27470.87
506.41	26785.09
506.58	27796.20
506.76	27873.44
506.93	27791.52
507.11	27779.82
507.28	27906.21
507.46	27770.46
507.63	27807.90
507.81	28058.34
507.98	27964.72
508.16	28191.75
508.33	28025.57
508.50	28526.45
508.68	28432.83
508.85	28790.93
509.03	28723.05
509.20	28624.75
509.38	28952.43
509.55	29174.78
509.73	29006.26
509.90	29111.58
510.08	28891.57
510.25	29273.08
510.42	29649.91
510.60	29270.74
510.77	29118.60
510.95	29532.88
511.12	29818.42
511.30	29785.66
511.47	30235.04
511.64	30146.10
511.82	30368.45
511.99	29757.57
512.17	29902.68
512.34	30160.14
512.51	30321.64
512.69	30302.92
512.86	30497.18
513.04	30412.92
513.21	30541.65
513.38	30693.79
513.56	30433.99
513.73	30323.98
513.90	30754.64
514.08	30965.29
514.25	30974.65
514.43	30883.37
514.60	30895.07
514.77	30976.99
514.95	31555.10
515.12	31152.53
515.29	31447.44
515.47	31508.29
515.64	31697.88
515.81	31435.74
515.99	31508.29
516.16	31611.28
516.33	31468.50
516.51	31807.88
516.68	31440.42
516.85	31625.32
517.03	31861.71
517.20	32034.91
517.37	31924.91
517.54	32439.82
517.72	31882.78
517.89	32084.06
518.06	32201.09
518.24	32329.82
518.41	32126.19
518.58	32304.07
518.75	32264.28
518.93	32627.07
519.10	32512.38
519.27	33067.09
519.45	33158.37
519.62	32882.19
519.79	33106.88
519.96	33462.64
520.14	33003.89
520.31	33235.61
520.48	33167.73
520.65	33647.54
520.83	33406.47
521.00	33401.79
521.17	33198.16
521.34	33982.24
521.52	33799.68
521.69	33706.05
521.86	33897.98
522.03	34010.32
522.20	33797.34
522.38	34356.72
522.55	34424.60
522.72	34110.97
522.89	34080.54
523.07	34588.44
523.24	34480.77
523.41	34452.69
523.58	34323.96
523.75	34656.31
523.92	35012.07
524.10	34888.03
524.27	34927.81
524.44	34721.85
524.61	34923.13
524.78	35510.61
524.96	34958.24
525.13	35108.04
525.30	35573.80
525.47	35641.68
525.64	35253.15
525.81	35325.71
525.98	35229.74
526.16	35325.71
526.33	35356.13
526.50	35651.04
526.67	35236.77
526.84	35204.00
527.01	35225.06
527.18	35957.65
527.36	35943.61
527.53	35845.30
527.70	36477.25
527.87	35714.23
528.04	35931.90
528.21	36369.58
528.38	36346.18
528.55	36297.03
528.72	36254.90
528.89	36793.22
529.07	36294.69
529.24	35714.23
529.41	36432.78
529.58	36268.94
529.75	36252.56
529.92	36598.96
530.09	36905.57
530.26	36762.79
530.43	36856.42
530.60	36524.06
530.77	36720.66
530.94	36741.73
531.11	36975.78
531.28	37001.53
531.46	37170.05
531.63	37022.59
531.80	37102.17
531.97	36783.86
532.14	37151.32
532.31	37132.60
532.48	37301.12
532.65	37902.64
532.82	37450.91
532.99	37783.27
533.16	37268.35
533.33	38087.54
533.50	37694.33
533.67	37954.13
533.84	37998.60
534.01	37942.42
534.18	37776.25
534.35	38794.38
534.52	37837.10
534.69	38117.96
534.86	38110.94
535.03	38139.03
535.20	38099.24
535.37	38326.27
535.54	38377.76
535.71	38621.18
535.88	38581.39
536.05	38164.78
536.22	38249.03
536.38	38478.41
536.55	38497.13
536.72	38382.45
536.89	38284.14
537.06	38382.45
537.23	38960.56
537.40	38389.47
537.57	38518.20
537.74	38808.42
537.91	39166.52
538.08	39047.16
538.25	38885.66
538.42	39161.84
538.59	39103.33
538.75	38679.69
538.92	39201.63
539.09	39220.36
539.26	39168.87
539.43	39166.52
539.60	39229.72
539.77	39339.72
539.94	39321.00
540.11	39309.30
540.28	39412.28
540.44	39679.10
540.61	38955.88
540.78	39122.05
540.95	39365.47
541.12	39000.35
541.29	39306.96
541.46	39384.19
541.62	39440.37
541.79	40011.46
541.96	39470.79
542.13	39761.02
542.30	39335.04
542.47	39826.56
542.63	39908.47
542.80	40140.19
542.97	40608.29
543.14	40416.37
543.31	40399.99
543.48	40477.22
543.64	40678.51
543.81	40561.48
543.98	40685.53
544.15	40713.62
544.32	40814.26
544.48	41139.60
544.65	40549.78
544.82	40830.65
544.99	40435.10
545.16	41053.00
545.32	40706.60
545.49	41237.90
545.66	41008.53
545.83	41106.83
546.00	41394.71
546.16	41448.55
546.33	41263.64
546.50	40772.13
546.67	41006.19
546.83	40905.54
547.00	41036.61
547.17	41177.04
547.34	41455.57
547.50	41673.24
547.67	41794.95
547.84	41013.21
548.00	41249.60
548.17	41720.05
548.34	41558.55
548.51	41640.47
548.67	41532.81
548.84	41797.29
549.01	41717.71
549.18	41635.79
549.34	41525.78
549.51	41633.45
549.68	42326.25
549.84	41752.82
550.01	42012.62
550.18	41783.24
550.34	41942.40
550.51	41626.43
550.68	42068.79
550.84	41607.70
551.01	41696.64
551.18	42141.35
551.34	42260.71
551.51	42124.96
551.68	42227.95
551.84	42075.81
552.01	41631.11
552.18	42267.73
552.34	41975.17
552.51	42548.60
552.68	42490.09
552.84	42628.18
553.01	42766.27
553.18	42363.70
553.34	42225.60
553.51	42293.48
553.67	42113.26
553.84	43068.20
554.01	42859.89
554.17	42689.03
554.34	43047.13
554.51	42836.48
554.67	42710.10
554.84	42696.05
555.00	42557.96
555.17	42550.94
555.33	42876.27
555.50	43129.05
555.67	42787.33
555.83	43122.03
556.00	42843.51
556.16	43065.86
556.33	43126.71
556.50	42850.53
556.66	43299.91
556.83	42864.57
556.99	43295.23
557.16	43379.49
557.32	43278.85
557.49	43337.36
557.65	43021.39
557.82	43124.37
557.98	43035.43
558.15	43082.24
558.32	43503.54
558.48	43309.27
558.65	43365.45
558.81	43009.68
558.98	43292.89
559.14	43325.66
559.31	43423.96
559.47	43325.66
559.64	43847.60
559.80	43580.78
559.97	43704.82
560.13	43302.25
560.30	43510.56
560.46	43632.27
560.63	43482.47
560.79	43964.62
560.96	43906.11
561.12	43313.95
561.29	43613.54
561.45	43515.24
561.61	43590.14
561.78	43257.78
561.94	43489.49
562.11	43863.98
562.27	43601.84
562.44	43955.26
562.60	43835.89
562.77	43833.55
562.93	43531.62
563.10	44058.24
563.26	43459.07
563.42	44271.23
563.59	43599.50
563.75	43737.59
563.92	44016.11
564.08	43917.81
564.24	44226.76
564.41	44194.00
564.57	43643.97
564.74	43683.76
564.90	43938.88
565.07	43814.83
565.23	43983.35
565.39	43992.71
565.56	44268.89
565.72	44369.54
565.88	44030.16
566.05	43838.23
566.21	44046.54
566.38	43711.84
566.54	44198.68
566.70	43896.75
566.87	44053.56
567.03	44336.77
567.19	44076.97
567.36	44547.42
567.52	44348.47
567.68	44048.88
567.85	44086.33
568.01	43739.93
568.17	44278.25
568.34	44301.66
568.50	43917.81
568.66	44121.44
568.83	44172.93
568.99	43959.94
569.15	43903.77
569.32	43807.81
569.48	43962.28
569.64	44584.86
569.81	44605.93
569.97	43849.94
570.13	44268.89
570.30	43882.70
570.46	43908.45
570.62	43824.19
570.78	44238.47
570.95	44388.26
571.11	44411.67
571.27	44416.35
571.43	43695.46
571.60	44383.58
571.76	44360.17
571.92	44472.52
572.09	44383.58
572.25	44140.16
572.41	44603.59
572.57	44013.77
572.74	45008.50
572.90	44570.82
573.06	44692.53
573.22	44458.48
573.38	44524.01
573.55	44023.14
573.71	44713.59
573.87	44224.42
574.03	44151.87
574.20	44507.63
574.36	44505.29
574.52	44570.82
574.68	44896.16
574.84	44512.31
575.01	44858.71
575.17	44985.10
575.33	44280.60
575.49	44311.02
575.65	44760.40
575.82	44795.51
575.98	44453.79
576.14	44837.64
576.30	44306.34
576.46	44549.76
576.62	43931.86
576.79	44341.45
576.95	44243.15
577.11	44563.80
577.27	44325.07
577.43	44999.14
577.59	44577.84
577.75	44559.12
577.92	44238.47
578.08	44374.22
578.24	44507.63
578.40	44591.89
578.56	44446.77
578.72	44369.54
578.88	44722.96
579.04	44755.72
579.21	44697.21
579.37	44147.18
579.53	44332.09
579.69	44212.72
579.85	44346.13
580.01	44634.02
580.17	44945.31
580.33	45027.23
580.49	44594.23
580.65	44814.24
580.82	45109.14
580.98	44444.43
581.14	44168.25
581.30	44781.47
581.46	44495.92
581.62	44509.97
581.78	44217.40
581.94	45062.33
582.10	44481.88
582.26	45413.41
582.42	44734.66
582.58	44397.62
582.74	44772.11
582.90	44917.22
583.06	44978.07
583.22	44870.41
583.38	44839.98
583.54	44783.81
583.70	44648.06
583.86	44112.08
584.02	44514.65
584.18	44369.54
584.34	44884.45
584.50	44872.75
584.66	44610.61
584.82	44573.16
584.98	45113.83
585.14	44521.67
585.30	44273.57
585.46	44519.33
585.62	44584.86
585.78	44563.80
585.94	44437.41
586.10	44538.05
586.26	44491.24
586.42	44460.82
586.58	44626.99
586.74	44746.36
586.90	44828.28
587.06	44170.59
587.22	44919.56
587.38	44718.28
587.54	44774.45
587.70	45078.72
587.86	44933.60
588.02	44949.99
588.18	45446.18
588.34	44769.77
588.49	44479.54
588.65	44465.50
588.81	44287.62
588.97	44472.52
589.13	44554.44
589.29	44559.12
589.45	44884.45
589.61	44753.38
589.77	45385.33
589.93	45137.23
590.08	44975.73
590.24	44905.52
