SpectraSuite Data File
++++++++++++++++++++++++++++++++++++
Date: Fri Oct 25 11:25:38 EDT 2013
User: price-jones
Dark Spectrum Present: No
Reference Spectrum Present: No
Number of Sampled Component Spectra: 1
Spectrometers: USB2+H05261
Integration Time (usec): 100000 (USB2+H05261)
Spectra Averaged: 1 (USB2+H05261)
Boxcar Smoothing: 0 (USB2+H05261)
Correct for Electrical Dark: No (USB2+H05261)
Strobe/Lamp Enabled: No (USB2+H05261)
Correct for Detector Non-linearity: No (USB2+H05261)
Correct for Stray Light: No (USB2+H05261)
Number of Pixels in Processed Spectrum: 2048
>>>>>Begin Processed Spectral Data<<<<<
365.73	229.37
365.92	229.37
366.12	229.37
366.32	147.45
366.52	168.52
366.72	177.88
366.91	126.39
367.11	173.20
367.31	114.69
367.51	91.28
367.70	147.45
367.90	145.11
368.10	128.73
368.30	147.45
368.49	180.22
368.69	110.01
368.89	112.35
369.09	154.48
369.28	126.39
369.48	180.22
369.68	170.86
369.87	220.01
370.07	198.95
370.27	236.39
370.47	360.44
370.66	617.90
370.86	720.88
371.06	657.69
371.25	674.07
371.45	697.48
371.65	786.42
371.84	653.01
372.04	779.40
372.24	695.14
372.44	734.93
372.63	734.93
372.83	758.33
373.03	821.53
373.22	676.41
373.42	702.16
373.62	697.48
373.81	777.06
374.01	781.74
374.21	814.51
374.40	748.97
374.60	863.66
374.79	734.93
374.99	842.59
375.19	861.32
375.38	840.25
375.58	807.48
375.78	779.40
375.97	812.17
376.17	924.51
376.37	863.66
376.56	861.32
376.76	823.87
376.95	858.98
377.15	961.96
377.35	812.17
377.54	938.55
377.74	936.21
377.93	833.23
378.13	964.30
378.33	940.90
378.52	954.94
378.72	1001.75
378.91	964.30
379.11	936.21
379.31	912.81
379.50	889.40
379.70	971.32
379.89	947.92
380.09	840.25
380.28	910.47
380.48	959.62
380.68	957.28
380.87	915.15
381.07	929.19
381.26	1053.24
381.46	1008.77
381.65	1104.73
381.85	1022.81
382.04	1069.62
382.24	947.92
382.43	1095.37
382.63	992.39
382.83	1069.62
383.02	1217.08
383.22	1217.08
383.41	1053.24
383.61	1137.50
383.80	1083.67
384.00	1076.65
384.19	1090.69
384.39	1219.42
384.58	1158.57
384.78	1107.07
384.97	1139.84
385.17	1146.86
385.36	1093.03
385.56	1160.91
385.75	1095.37
385.95	1170.27
386.14	1207.72
386.34	1184.31
386.53	1200.69
386.72	1217.08
386.92	1231.12
387.11	1277.93
387.31	1242.82
387.50	1226.44
387.70	1259.21
387.89	1266.23
388.09	1203.04
388.28	1235.80
388.48	1238.14
388.67	1263.89
388.86	1226.44
389.06	1263.89
389.25	1261.55
389.45	1373.89
389.64	1327.08
389.84	1418.36
390.03	1411.34
390.22	1334.11
390.42	1357.51
390.61	1444.11
390.81	1282.61
391.00	1401.98
391.19	1514.33
391.39	1364.53
391.58	1437.09
391.78	1423.05
391.97	1526.03
392.16	1542.41
392.36	1497.94
392.55	1519.01
392.75	1500.28
392.94	1519.01
393.13	1490.92
393.33	1523.69
393.52	1521.35
393.71	1540.07
393.91	1584.54
394.10	1556.46
394.29	1511.99
394.49	1561.14
394.68	1746.04
394.88	1561.14
395.07	1715.61
395.26	1633.69
395.46	1643.06
395.65	1664.12
395.84	1621.99
396.04	1668.80
396.23	1722.63
396.42	1701.57
396.62	1863.07
396.81	1720.29
397.00	1827.96
397.19	1912.22
397.39	1703.91
397.58	1860.73
397.77	1799.87
397.97	1823.28
398.16	1893.49
398.35	1804.55
398.55	1865.41
398.74	1926.26
398.93	1968.39
399.12	1921.58
399.32	1778.81
399.51	1914.56
399.70	2066.69
399.90	1991.80
400.09	2038.61
400.28	2059.67
400.47	2022.22
400.67	2040.95
400.86	1959.03
401.05	1996.48
401.24	2101.80
401.44	2118.18
401.63	2115.84
401.82	2139.25
402.01	2148.61
402.21	2150.95
402.40	2242.23
402.59	2174.36
402.78	2263.30
402.97	2289.04
403.17	2237.55
403.36	2204.78
403.55	2256.28
403.74	2335.85
403.93	2366.28
404.13	2401.39
404.32	2293.72
404.51	2410.75
404.70	2537.14
404.89	2347.56
405.09	2399.05
405.28	2485.65
405.47	2431.82
405.66	2495.01
405.85	2424.80
406.05	2401.39
406.24	2649.49
406.43	2656.51
406.62	2607.36
406.81	2654.17
407.00	2471.61
407.20	2609.70
407.39	2656.51
407.58	2682.25
407.77	2698.64
407.96	2619.06
408.15	2700.98
408.34	2672.89
408.54	2792.26
408.73	2644.81
408.92	2853.11
409.11	2808.64
409.30	2960.78
409.49	2878.86
409.68	2949.08
409.87	2874.18
410.07	2995.89
410.26	2930.35
410.45	3056.74
410.64	2972.48
410.83	3021.63
411.02	2965.46
411.21	3215.90
411.40	3005.25
411.59	3267.39
411.78	3166.74
411.98	3138.66
412.17	3157.38
412.36	3262.71
412.55	3356.33
412.74	3349.31
412.93	3286.11
413.12	3370.37
413.31	3536.55
413.50	3513.14
413.69	3515.48
413.88	3609.11
414.07	3503.78
414.26	3569.32
414.45	3702.73
414.64	3611.45
414.83	3768.26
415.02	3833.80
415.22	3803.37
415.41	3882.95
415.60	3789.33
415.79	3854.86
415.98	3913.38
416.17	3950.82
416.36	3901.67
416.55	3971.89
416.74	4018.70
416.93	3927.42
417.12	4081.89
417.31	4182.54
417.50	4109.98
417.69	4234.03
417.88	4208.28
418.07	4259.78
418.26	4374.46
418.45	4348.72
418.64	4409.57
418.83	4414.25
419.02	4381.48
419.21	4498.51
419.39	4706.82
419.58	4435.32
419.77	4379.14
419.96	4376.80
420.15	4557.02
420.34	4620.22
420.53	4573.41
420.72	4554.68
420.91	4601.49
421.10	4697.46
421.29	4798.10
421.48	4821.50
421.67	4781.71
421.86	4711.50
422.05	4746.61
422.24	4762.99
422.43	4791.08
422.61	4814.48
422.80	4959.60
422.99	4891.72
423.18	4943.21
423.37	4947.89
423.56	5008.75
423.75	4875.34
423.94	4809.80
424.13	4746.61
424.32	4844.91
424.50	5008.75
424.69	5144.50
424.88	5032.15
425.07	5015.77
425.26	4884.70
425.45	4887.04
425.64	4788.74
425.83	5043.85
426.01	5198.33
426.20	4973.64
426.39	4973.64
426.58	5001.72
426.77	5142.16
426.96	5046.20
427.15	5095.35
427.33	5212.37
427.52	5200.67
427.71	5259.18
427.90	5165.56
428.09	5270.89
428.28	5195.99
428.46	5362.17
428.65	5465.15
428.84	5380.89
429.03	5537.71
429.22	5191.31
429.40	5479.19
429.59	5451.11
429.78	5205.35
429.97	5399.62
430.16	5617.29
430.34	5582.18
430.53	5692.18
430.72	5830.27
430.91	5530.69
431.10	5575.16
431.28	5568.13
431.47	5736.65
431.66	5977.73
431.85	5717.93
432.03	5767.08
432.22	5984.75
432.41	5977.73
432.60	5956.66
432.79	6054.97
432.97	6001.13
433.16	5984.75
433.35	6069.01
433.54	5930.92
433.72	6045.60
433.91	6029.22
434.10	6045.60
434.28	6155.61
434.47	6104.12
434.66	6167.31
434.85	6237.53
435.03	6186.04
435.22	6312.42
435.41	6375.62
435.59	6420.09
435.78	6406.05
435.97	6504.35
436.16	6485.62
436.34	6317.11
436.53	6509.03
436.72	6448.18
436.90	6380.30
437.09	6612.01
437.28	6445.84
437.46	6654.14
437.65	6612.01
437.84	6724.36
438.02	6719.68
438.21	6663.51
438.40	6626.06
438.58	6981.82
438.77	7037.99
438.96	6906.92
439.14	7084.80
439.33	7143.32
439.52	7122.25
439.70	7197.15
439.89	7400.77
440.08	7185.44
440.26	7433.54
440.45	7349.28
440.63	7339.92
440.82	7489.71
441.01	7428.86
441.19	7487.37
441.38	7548.23
441.57	7768.24
441.75	7875.90
441.94	7941.44
442.12	8159.11
442.31	8168.47
442.50	7941.44
442.68	7967.18
442.87	7934.42
443.05	8070.17
443.24	8250.39
443.43	8058.46
443.61	8077.19
443.80	8407.20
443.98	8252.73
444.17	7705.04
444.35	8201.24
444.54	8388.48
444.73	8248.05
444.91	8287.84
445.10	8322.94
445.28	8390.82
445.47	8210.60
445.65	8219.96
445.84	8348.69
446.02	8196.56
446.21	8512.53
446.39	8194.22
446.58	8355.71
446.77	8650.62
446.95	8271.45
447.14	8320.60
447.32	8610.83
447.51	8461.04
447.69	8423.59
447.88	8404.86
448.06	8517.21
448.25	8374.44
448.43	8320.60
448.62	8477.42
448.80	8589.77
448.99	8643.60
449.17	8613.17
449.36	8688.07
449.54	8580.40
449.73	9048.51
449.91	8901.06
450.10	8760.63
450.28	9090.64
450.46	9064.89
450.65	9165.54
450.83	8964.25
451.02	8954.89
451.20	9268.52
451.39	9259.16
451.57	9212.35
451.76	9055.53
451.94	9151.49
452.13	9280.22
452.31	9275.54
452.49	9188.94
452.68	9156.18
452.86	9188.94
453.05	9401.93
453.23	9582.15
453.42	9593.86
453.60	9266.18
453.78	9645.35
453.97	9380.87
454.15	9280.22
454.34	9411.29
454.52	9610.24
454.70	9715.56
454.89	9703.86
455.07	9785.78
455.26	9736.63
455.44	9851.31
455.62	9907.49
455.81	9774.08
455.99	10127.50
456.17	9781.10
456.36	9865.36
456.54	9977.70
456.73	10118.14
456.91	10328.78
457.09	10146.22
457.28	10647.10
457.46	10204.74
457.64	10469.22
457.83	10324.10
458.01	10361.55
458.19	10597.95
458.38	10483.26
458.56	10656.46
458.74	10478.58
458.93	10738.38
459.11	10684.55
459.29	10684.55
459.48	10630.71
459.66	10623.69
459.84	10836.68
460.03	10960.73
460.21	10913.92
460.39	10979.45
460.57	10972.43
460.76	11129.25
460.94	11005.20
461.12	10846.04
461.31	11044.99
461.49	11030.94
461.67	11262.66
461.85	11187.76
462.04	11166.70
462.22	11751.83
462.40	11616.08
462.59	11300.11
462.77	11445.22
462.95	11595.01
463.13	11529.48
463.32	11730.76
463.50	11520.12
463.68	11672.25
463.86	11882.90
464.05	11522.46
464.23	11719.06
464.41	11903.96
464.59	11494.37
464.78	11946.09
464.96	12140.36
465.14	11831.41
465.32	12016.31
465.50	11971.84
465.69	12173.13
465.87	11983.54
466.05	11974.18
466.23	12006.95
466.41	12217.60
466.60	12372.07
466.78	12056.10
466.96	12067.80
467.14	12079.50
467.32	12421.22
467.51	12468.03
467.69	12063.12
467.87	12435.27
468.05	12524.21
468.23	12449.31
468.41	12320.58
468.60	12585.06
468.78	12762.94
468.96	12587.40
469.14	12521.87
469.32	12886.99
469.50	12723.15
469.69	13238.07
469.87	12957.21
470.05	13090.62
470.23	13090.62
470.41	12943.16
470.59	13170.19
470.77	13123.38
470.95	13062.53
471.14	13294.24
471.32	13277.86
471.50	13378.50
471.68	13542.34
471.86	13675.75
472.04	13509.57
472.22	13970.66
472.40	13535.32
472.58	13628.94
472.77	13916.83
472.95	14029.17
473.13	14324.08
473.31	13958.96
473.49	14356.85
473.67	13921.51
473.85	14260.88
474.03	14724.31
474.21	14380.25
474.39	14682.18
474.57	14686.86
474.75	14829.63
474.93	14806.23
475.12	14693.88
475.30	14731.33
475.48	14768.78
475.66	14979.43
475.84	15016.88
476.02	15358.60
476.20	15208.80
476.38	15632.44
476.56	15901.60
476.74	15908.62
476.92	16018.63
477.10	15597.33
477.28	16035.01
477.46	16084.16
477.64	15957.77
477.82	16563.97
478.00	16964.20
478.18	16713.77
478.36	16908.03
478.54	17156.13
478.72	16800.37
478.90	17434.65
479.08	17862.97
479.26	17731.90
479.44	17589.13
479.62	17811.48
479.80	17788.07
479.98	17874.67
480.16	18356.82
480.34	18104.04
480.52	18525.34
480.70	18438.74
480.88	18476.19
481.06	18848.33
481.24	18614.28
481.41	18974.72
481.59	19009.83
481.77	19274.31
481.95	19569.22
482.13	19545.81
482.31	19566.88
482.49	20245.63
482.67	20191.80
482.85	20500.75
483.03	20313.51
483.21	20854.17
483.39	20835.45
483.57	20669.27
483.74	21493.14
483.92	21366.75
484.10	21186.53
484.28	21586.76
484.46	22104.02
484.64	22452.76
484.82	21846.56
485.00	22052.53
485.18	22656.39
485.35	22963.00
485.53	22710.22
485.71	23143.22
485.89	23639.41
486.07	23087.04
486.25	23438.12
486.43	23290.67
486.61	23594.94
486.78	24011.56
486.96	24163.69
487.14	24671.59
487.32	24524.13
487.50	24765.21
487.68	24907.98
487.85	25331.62
488.03	25500.14
488.21	25699.08
488.39	25685.04
488.57	26040.80
488.75	26118.04
488.92	26441.03
489.10	26401.24
489.28	26761.69
489.46	26972.33
489.64	26899.78
489.81	27407.67
489.99	27564.49
490.17	27447.46
490.35	27985.79
490.53	27826.63
490.70	28376.66
490.88	27995.15
491.06	28556.88
491.24	28638.80
491.41	29139.67
491.59	29373.72
491.77	28926.68
491.95	29125.63
492.13	29715.44
492.30	29780.98
492.48	30045.46
492.66	30096.95
492.84	30101.63
493.01	30338.02
493.19	30551.01
493.37	30422.28
493.54	30740.60
493.72	31405.31
493.90	31349.14
494.08	31740.00
494.25	31644.04
494.43	31716.60
494.61	31803.20
494.79	32414.08
494.96	32367.27
495.14	32687.92
495.32	33174.75
495.49	33130.28
495.67	32952.40
495.85	33041.34
496.02	33357.32
496.20	34153.10
496.38	33722.44
496.55	34181.18
496.73	34433.96
496.91	34356.72
497.09	35131.44
497.26	34600.14
497.44	34761.64
497.62	34787.38
497.79	35772.75
497.97	35283.58
498.14	35749.34
498.32	35915.52
498.50	35885.09
498.67	36297.03
498.85	36737.05
499.03	36486.61
499.20	36601.30
499.38	36425.76
499.56	37036.64
499.73	37088.13
499.91	37053.02
500.08	37163.03
500.26	37266.01
500.44	37579.64
500.61	37474.32
500.79	37809.01
500.97	37921.36
501.14	38471.39
501.32	37792.63
501.49	38398.83
501.67	38396.49
501.84	38794.38
502.02	38738.21
502.20	38965.24
502.37	38813.10
502.55	39131.42
502.72	39042.48
502.90	38976.94
503.07	39456.75
503.25	39222.70
503.43	39419.30
503.60	40271.26
503.78	40201.04
503.95	40149.55
504.13	40519.35
504.30	40662.13
504.48	40247.85
504.65	40617.66
504.83	40999.16
505.01	41345.56
505.18	41401.74
505.36	41223.86
505.53	40821.28
505.71	41680.26
505.88	41766.86
506.06	41586.64
506.23	41918.99
506.41	41846.44
506.58	42232.63
506.76	42057.09
506.93	41989.21
507.11	42122.62
507.28	42361.36
507.46	42382.42
507.63	42724.14
507.81	43182.88
507.98	43110.33
508.16	42548.60
508.33	43175.86
508.50	42873.93
508.68	43292.89
508.85	43697.80
509.03	43346.72
509.20	43924.83
509.38	43807.81
509.55	44126.12
509.73	44470.18
509.90	44189.31
510.08	44516.99
510.25	44666.78
510.42	44430.39
510.60	44636.36
510.77	45003.82
510.95	45174.68
511.12	45099.78
511.30	44650.40
511.47	45305.75
511.64	45773.86
511.82	46028.98
511.99	44973.39
512.17	45474.27
512.34	45837.05
512.51	46031.32
512.69	46138.98
512.86	46279.41
513.04	46836.46
513.21	46199.83
513.38	46660.92
513.56	46782.63
513.73	46543.89
513.90	47072.85
514.08	46911.36
514.25	46925.40
514.43	47140.73
514.60	47372.44
514.77	47349.04
514.95	47468.40
515.12	46965.19
515.29	47229.67
515.47	47775.02
515.64	47817.14
515.81	47765.65
515.99	47868.64
516.16	48444.41
516.33	48098.01
516.51	48191.63
516.68	48507.60
516.85	48055.88
517.03	48664.42
517.20	48566.12
517.37	48428.02
517.54	49097.42
517.72	48659.74
517.89	48992.09
518.06	49088.06
518.24	48968.69
518.41	49169.97
518.58	48992.09
518.75	49191.04
518.93	49633.40
519.10	49165.29
519.27	49624.04
519.45	49523.40
519.62	49881.50
519.79	49771.49
519.96	50035.97
520.14	50061.72
520.31	49837.03
520.48	50099.17
520.65	50122.57
520.83	50373.01
521.00	50436.20
521.17	50174.06
521.34	50300.45
521.52	50745.15
521.69	50567.27
521.86	50775.58
522.03	50869.20
522.20	51253.05
522.38	51138.36
522.55	51241.35
522.72	51002.61
522.89	50930.06
523.07	51374.76
523.24	51592.43
523.41	51828.82
523.58	51231.99
523.75	51711.80
523.92	51503.49
524.10	52053.51
524.27	51950.53
524.44	51782.01
524.61	52072.24
524.78	52137.77
524.96	52079.26
525.13	52058.20
525.30	52137.77
525.47	52514.60
525.64	52313.31
525.81	52577.79
525.98	52645.67
526.16	52484.17
526.33	52390.55
526.50	52781.42
526.67	52758.02
526.84	52776.74
527.01	53010.79
527.18	52802.49
527.36	52631.63
527.53	52832.91
527.70	53263.57
527.87	53635.72
528.04	53258.89
528.21	53132.50
528.38	53095.05
528.55	53518.69
528.72	53176.97
528.89	53497.62
529.07	53289.32
529.24	53336.13
529.41	53668.48
529.58	53656.78
529.75	53708.27
529.92	53797.21
530.09	53717.64
530.26	53858.07
530.43	53652.10
530.60	53492.94
530.77	53963.39
530.94	54035.95
531.11	54017.22
531.28	54117.87
531.46	54007.86
531.63	53942.33
531.80	54181.06
531.97	54426.82
532.14	54157.66
532.31	54277.02
532.48	54167.02
532.65	54368.30
532.82	54255.96
532.99	54508.74
533.16	54447.88
533.33	54600.02
533.50	54871.52
533.67	54576.61
533.84	54337.88
534.01	54841.09
534.18	54871.52
534.35	54951.10
534.52	55025.99
534.69	54953.44
534.86	55121.96
535.03	54824.71
535.20	55018.97
535.37	55143.02
535.54	55131.32
535.71	55185.15
535.88	55185.15
536.05	55332.60
536.22	55285.79
536.38	55531.55
536.55	55323.24
536.72	55615.81
536.89	55468.36
537.06	55374.73
537.23	55751.56
537.40	55751.56
537.57	55810.07
537.74	55660.28
537.91	55938.80
538.08	55714.11
538.25	55599.43
538.42	55814.76
538.59	56226.69
538.75	55896.67
538.92	56002.00
539.09	55936.46
539.26	55873.27
539.43	56177.54
539.60	56053.49
539.77	56109.66
539.94	56446.70
540.11	56268.82
540.28	56346.06
540.44	56416.27
540.61	56306.27
540.78	56039.45
540.95	56378.82
541.12	56376.48
541.29	56254.78
541.46	56301.59
541.62	56519.26
541.79	56577.77
541.96	56264.14
542.13	56423.29
542.30	56406.91
542.47	56676.07
542.63	56706.50
542.80	56910.13
542.97	56942.89
543.14	57106.73
543.31	57249.50
543.48	57226.10
543.64	57308.02
543.81	57099.71
543.98	57195.67
544.15	57120.77
544.32	57352.49
544.48	57485.90
544.65	57064.60
544.82	57015.45
544.99	57310.36
545.16	57434.41
545.32	57439.09
545.49	57446.11
545.66	57513.98
545.83	57497.60
546.00	57474.20
546.16	57518.67
546.33	57392.28
546.50	57434.41
546.67	57607.61
546.83	57382.91
547.00	57621.65
547.17	57633.35
547.34	57638.03
547.50	57839.32
547.67	57993.79
547.84	57890.81
548.00	57925.92
548.17	58021.88
548.34	58045.29
548.51	58117.84
548.67	58117.84
548.84	57860.38
549.01	58117.84
549.18	57982.09
549.34	58071.03
549.51	58176.36
549.68	58227.85
549.84	58225.51
550.01	58468.92
550.18	58307.43
550.34	58347.21
550.51	58307.43
550.68	58195.08
550.84	58101.46
551.01	58307.43
551.18	58431.47
551.34	58356.58
551.51	58487.65
551.68	58293.38
551.84	58485.31
552.01	58475.94
552.18	58450.20
552.34	58562.54
552.51	58562.54
552.68	58459.56
552.84	58534.46
553.01	58901.92
553.18	58637.44
553.34	58777.87
553.51	58541.48
553.67	58787.24
553.84	58777.87
554.01	58855.11
554.17	58834.05
554.34	58780.21
554.51	58759.15
554.67	58969.80
554.84	59157.04
555.00	58803.62
555.17	59063.42
555.33	58784.90
555.50	58869.15
555.67	58913.62
555.83	58911.28
556.00	59044.69
556.16	59318.54
556.33	59334.92
556.50	59194.49
556.66	59192.15
556.83	59037.67
556.99	59164.06
557.16	59337.26
557.32	59327.90
557.49	59477.69
557.65	59430.88
557.82	59271.73
557.98	59337.26
558.15	59339.60
558.32	59238.96
558.48	59271.73
558.65	59430.88
558.81	59250.66
558.98	59440.24
559.14	59634.51
559.31	59498.76
559.47	59494.08
559.64	59615.79
559.80	59552.59
559.97	59770.26
560.13	59458.97
560.30	59435.56
560.46	59611.10
560.63	59716.43
560.79	59723.45
560.96	59931.76
561.12	59559.61
561.29	59613.44
561.45	59753.88
561.61	59681.32
561.78	59704.73
561.94	59601.74
562.11	59873.24
562.27	59824.09
562.44	59910.69
562.60	59924.74
562.77	59894.31
562.93	59671.96
563.10	59938.78
563.26	59620.47
563.42	60004.31
563.59	59938.78
563.75	59910.69
563.92	59913.03
564.08	59873.24
564.24	60238.37
564.41	59971.55
564.57	59976.23
564.74	60252.41
564.90	59983.25
565.07	59884.95
565.23	60027.72
565.39	60083.89
565.56	59938.78
565.72	59821.75
565.88	60020.70
566.05	60179.85
566.21	59852.18
566.38	60044.10
566.54	60048.78
566.70	60154.11
566.87	60287.52
567.03	59852.18
567.19	60156.45
567.36	60212.62
567.52	60191.56
567.68	60289.86
567.85	60219.64
568.01	60261.77
568.17	60109.64
568.34	60240.71
568.50	60217.30
568.66	60404.55
568.83	60161.13
568.99	60067.51
569.15	60434.97
569.32	60299.22
569.48	60044.10
569.64	60381.14
569.81	60200.92
569.97	60151.77
570.13	60554.34
570.30	60331.99
570.46	60329.65
570.62	60397.52
570.78	60294.54
570.95	60495.83
571.11	60519.23
571.27	60383.48
571.43	60493.49
571.60	60561.36
571.76	60336.67
571.92	60460.72
572.09	60575.40
572.25	60416.25
572.41	60514.55
572.57	60500.51
572.74	60416.25
572.90	60547.32
573.06	60439.65
573.22	60521.57
573.38	60584.77
573.55	60392.84
573.71	60622.22
573.87	60645.62
574.03	60427.95
574.20	60685.41
574.36	60535.62
574.52	60594.13
574.68	60596.47
574.84	60657.32
575.01	60610.51
575.17	60449.02
575.33	60498.17
575.49	60486.46
575.65	60535.62
575.82	60842.23
575.98	60769.67
576.14	60753.29
576.30	60456.04
576.46	60645.62
576.62	60570.72
576.79	60566.04
576.95	60722.86
577.11	60725.20
577.27	60757.97
577.43	60715.84
577.59	60631.58
577.75	60725.20
577.92	60626.90
578.08	60720.52
578.24	60729.88
578.40	60851.59
578.56	60743.92
578.72	60825.84
578.88	60823.50
579.04	60954.57
579.21	60732.22
579.37	60905.42
579.53	61076.28
579.69	60603.49
579.85	60722.86
580.01	60690.09
580.17	60662.00
580.33	60910.10
580.49	61066.92
580.65	61062.24
580.82	60900.74
580.98	60657.32
581.14	60718.18
581.30	60867.97
581.46	60846.91
581.62	60767.33
581.78	60715.84
581.94	60809.46
582.10	60713.50
582.26	60711.16
582.42	60617.53
582.58	60996.70
582.74	60858.61
582.90	60886.70
583.06	60860.95
583.22	60605.83
583.38	60783.71
583.54	60741.58
583.70	61059.90
583.86	60879.67
584.02	60870.31
584.18	61073.94
584.34	60687.75
584.50	60732.22
584.66	60865.63
584.82	60683.07
584.98	61080.96
585.14	60970.96
585.30	60825.84
585.46	61080.96
585.62	60865.63
585.78	61055.21
585.94	60743.92
586.10	60795.42
586.26	60849.25
586.42	61085.64
586.58	60903.08
586.74	60830.52
586.90	60917.12
587.06	60865.63
587.22	61050.53
587.38	61015.43
587.54	61087.98
587.70	61097.34
587.86	60893.72
588.02	60949.89
588.18	61148.84
588.34	60956.91
588.49	60802.44
