SpectraSuite Data File
++++++++++++++++++++++++++++++++++++
Date: Fri Oct 25 11:34:20 EDT 2013
User: price-jones
Dark Spectrum Present: No
Reference Spectrum Present: No
Number of Sampled Component Spectra: 1
Spectrometers: USB2+H05261
Integration Time (usec): 100000 (USB2+H05261)
Spectra Averaged: 1 (USB2+H05261)
Boxcar Smoothing: 0 (USB2+H05261)
Correct for Electrical Dark: No (USB2+H05261)
Strobe/Lamp Enabled: No (USB2+H05261)
Correct for Detector Non-linearity: No (USB2+H05261)
Correct for Stray Light: No (USB2+H05261)
Number of Pixels in Processed Spectrum: 2048
>>>>>Begin Processed Spectral Data<<<<<
365.73	287.89
365.92	287.89
366.12	287.89
366.32	180.22
366.52	189.58
366.72	170.86
366.91	170.86
367.11	257.46
367.31	107.66
367.51	217.67
367.70	259.80
367.90	161.50
368.10	161.50
368.30	187.24
368.49	182.56
368.69	217.67
368.89	175.54
369.09	205.97
369.28	203.63
369.48	238.73
369.68	161.50
369.87	227.03
370.07	278.52
370.27	285.55
370.47	365.12
370.66	440.02
370.86	538.32
371.06	519.60
371.25	554.71
371.45	629.60
371.65	566.41
371.84	503.22
372.04	561.73
372.24	547.69
372.44	571.09
372.63	587.47
372.83	608.54
373.03	615.56
373.22	575.77
373.42	554.71
373.62	601.52
373.81	624.92
374.01	688.12
374.21	606.20
374.40	669.39
374.60	683.44
374.79	653.01
374.99	540.66
375.19	620.24
375.38	690.46
375.58	601.52
375.78	688.12
375.97	671.73
376.17	711.52
376.37	622.58
376.56	655.35
376.76	653.01
376.95	629.60
377.15	671.73
377.35	753.65
377.54	695.14
377.74	627.26
377.93	662.37
378.13	683.44
378.33	690.46
378.52	716.20
378.72	765.36
378.91	725.57
379.11	720.88
379.31	657.69
379.50	678.76
379.70	706.84
379.89	688.12
380.09	704.50
380.28	706.84
380.48	779.40
380.68	697.48
380.87	636.63
381.07	795.78
381.26	772.38
381.46	751.31
381.65	781.74
381.85	741.95
382.04	702.16
382.24	798.12
382.43	653.01
382.63	777.06
382.83	645.99
383.02	844.93
383.22	777.06
383.41	755.99
383.61	809.83
383.80	828.55
384.00	760.67
384.19	880.04
384.39	791.10
384.58	770.04
384.78	856.64
384.97	823.87
385.17	835.57
385.36	760.67
385.56	784.08
385.75	863.66
385.95	753.65
386.14	837.91
386.34	816.85
386.53	873.02
386.72	805.14
386.92	901.11
387.11	922.17
387.31	854.30
387.50	866.00
387.70	851.96
387.89	910.47
388.09	882.38
388.28	940.90
388.48	898.77
388.67	873.02
388.86	908.13
389.06	912.81
389.25	910.47
389.45	945.58
389.64	959.62
389.84	999.41
390.03	950.26
390.22	1029.84
390.42	992.39
390.61	901.11
390.81	987.71
391.00	985.37
391.19	959.62
391.39	954.94
391.58	985.37
391.78	964.30
391.97	1050.90
392.16	978.34
392.36	1074.31
392.55	1069.62
392.75	1039.20
392.94	1086.01
393.13	1125.80
393.33	980.68
393.52	1062.60
393.71	1121.12
393.91	1029.84
394.10	1109.41
394.29	1083.67
394.49	1057.92
394.68	1100.05
394.88	1100.05
395.07	1036.86
395.26	1167.93
395.46	1076.65
395.65	1135.16
395.84	1132.82
396.04	1207.72
396.23	1177.29
396.42	1137.50
396.62	1245.16
396.81	1170.27
397.00	1097.71
397.19	1153.88
397.39	1144.52
397.58	1179.63
397.77	1254.53
397.97	1242.82
398.16	1177.29
398.35	1193.67
398.55	1210.06
398.74	1291.98
398.93	1228.78
399.12	1219.42
399.32	1313.04
399.51	1172.61
399.70	1423.05
399.90	1366.87
400.09	1378.58
400.28	1390.28
400.47	1336.45
400.67	1357.51
400.86	1366.87
401.05	1432.41
401.24	1343.47
401.44	1423.05
401.63	1441.77
401.82	1451.13
402.01	1401.98
402.21	1453.47
402.40	1409.00
402.59	1476.88
402.78	1488.58
402.97	1509.65
403.17	1575.18
403.36	1462.83
403.55	1371.55
403.74	1544.75
403.93	1640.72
404.13	1483.90
404.32	1537.73
404.51	1511.99
404.70	1610.29
404.89	1619.65
405.09	1664.12
405.28	1540.07
405.47	1612.63
405.66	1673.48
405.85	1605.61
406.05	1678.16
406.24	1659.44
406.43	1703.91
406.62	1727.32
406.81	1692.21
407.00	1788.17
407.20	1753.06
407.39	1757.74
407.58	1703.91
407.77	1792.85
407.96	1823.28
408.15	1834.98
408.34	1874.77
408.54	1858.39
408.73	1879.45
408.92	1832.64
409.11	2001.16
409.30	1900.52
409.49	1973.07
409.68	1916.90
409.87	2005.84
410.07	1989.46
410.26	1919.24
410.45	1940.30
410.64	2038.61
410.83	2092.44
411.02	2057.33
411.21	2162.66
411.40	2120.53
411.59	2157.97
411.78	2129.89
411.98	2165.00
412.17	2139.25
412.36	2279.68
412.55	2197.76
412.74	2279.68
412.93	2242.23
413.12	2197.76
413.31	2328.83
413.50	2293.72
413.69	2401.39
413.88	2551.18
414.07	2366.28
414.26	2392.03
414.45	2490.33
414.64	2485.65
414.83	2443.52
415.02	2583.95
415.22	2457.56
415.41	2616.72
415.60	2661.19
415.79	2427.14
415.98	2588.63
416.17	2640.12
416.36	2693.96
416.55	2581.61
416.74	2679.91
416.93	2719.70
417.12	2764.17
417.31	2850.77
417.50	2764.17
417.69	2920.99
417.88	2871.84
418.07	2810.98
418.26	2860.13
418.45	2981.84
418.64	3005.25
418.83	2981.84
419.02	2871.84
419.21	2953.76
419.39	2984.18
419.58	2998.23
419.77	2951.42
419.96	3082.49
420.15	3056.74
420.34	2977.16
420.53	3150.36
420.72	3131.64
420.91	3262.71
421.10	3227.60
421.29	3258.03
421.48	3255.69
421.67	3091.85
421.86	3117.59
422.05	3225.26
422.24	3208.87
422.43	3356.33
422.61	3227.60
422.80	3258.03
422.99	3255.69
423.18	3398.46
423.37	3426.54
423.56	3246.32
423.75	3393.78
423.94	3302.50
424.13	3131.64
424.32	3227.60
424.50	3375.05
424.69	3473.36
424.88	3405.48
425.07	3251.00
425.26	3449.95
425.45	3468.67
425.64	3442.93
425.83	3370.37
426.01	3475.70
426.20	3213.56
426.39	3361.01
426.58	3492.08
426.77	3412.50
426.96	3482.72
427.15	3531.87
427.33	3499.10
427.52	3407.82
427.71	3552.93
427.90	3562.30
428.09	3550.59
428.28	3428.88
428.46	3574.00
428.65	3662.94
428.84	3625.49
429.03	3777.62
429.22	3641.87
429.40	3676.98
429.59	3672.30
429.78	3623.15
429.97	3471.01
430.16	3691.02
430.34	3728.47
430.53	3765.92
430.72	3681.66
430.91	3730.81
431.10	3812.73
431.28	3831.46
431.47	3784.65
431.66	3796.35
431.85	3836.14
432.03	4025.72
432.22	4037.42
432.41	3992.95
432.60	4086.58
432.79	3971.89
432.97	4145.09
433.16	4011.68
433.35	4072.53
433.54	4098.28
433.72	4072.53
433.91	4170.83
434.10	4072.53
434.28	4117.00
434.47	4140.41
434.66	4191.90
434.85	4154.45
435.03	4273.82
435.22	4142.75
435.41	4311.27
435.59	4170.83
435.78	4266.80
435.97	4252.75
436.16	4252.75
436.34	4145.09
436.53	4383.82
436.72	4334.67
436.90	4381.48
437.09	4278.50
437.28	4292.54
437.46	4440.00
437.65	4552.34
437.84	4589.79
438.02	4358.08
438.21	4500.85
438.40	4477.44
438.58	4547.66
438.77	4746.61
438.96	4613.20
439.14	4662.35
439.33	4901.08
439.52	4739.58
439.70	4833.21
439.89	4833.21
440.08	4973.64
440.26	4711.50
440.45	4793.42
440.63	5001.72
440.82	5088.32
441.01	4999.38
441.19	5130.45
441.38	5111.73
441.57	5116.41
441.75	5188.97
441.94	5282.59
442.12	5137.48
442.31	5418.34
442.50	5245.14
442.68	5359.83
442.87	5228.76
443.05	5338.76
443.24	5242.80
443.43	5359.83
443.61	5453.45
443.80	5561.11
443.98	5259.18
444.17	5203.01
444.35	5350.46
444.54	5514.30
444.73	5394.93
444.91	5565.79
445.10	5472.17
445.28	5397.28
445.47	5458.13
445.65	5528.35
445.84	5554.09
446.02	5596.22
446.21	5462.81
446.39	5589.20
446.58	5558.77
446.77	5516.64
446.95	5563.45
447.14	5547.07
447.32	5593.88
447.51	5593.88
447.69	5554.09
447.88	5692.18
448.06	5483.88
448.25	5586.86
448.43	5570.48
448.62	5839.64
448.80	5465.15
448.99	5788.14
449.17	5736.65
449.36	5757.72
449.54	5853.68
449.73	5914.53
449.91	5788.14
450.10	5891.13
450.28	6118.16
450.46	5912.19
450.65	6026.88
450.83	5893.47
451.02	5790.49
451.20	5951.98
451.39	5959.00
451.57	5886.45
451.76	5968.37
451.94	6054.97
452.13	6164.97
452.31	5888.79
452.49	6031.56
452.68	6141.57
452.86	6218.80
453.05	6256.25
453.23	6321.79
453.42	6064.33
453.60	6218.80
453.78	6132.20
453.97	6244.55
454.15	6263.27
454.34	6104.12
454.52	6492.65
454.70	6342.85
454.89	6333.49
455.07	6291.36
455.26	6324.13
455.44	6534.78
455.62	6455.20
455.81	6471.58
455.99	6476.26
456.17	6644.78
456.36	6604.99
456.54	6682.23
456.73	6595.63
456.91	6860.11
457.09	6932.67
457.28	6855.43
457.46	6789.89
457.64	6925.65
457.83	6810.96
458.01	7035.65
458.19	7016.93
458.38	6927.99
458.56	6906.92
458.74	6902.24
458.93	7023.95
459.11	6876.49
459.29	6998.20
459.48	7056.72
459.66	7002.88
459.84	7171.40
460.03	7133.95
460.21	7126.93
460.39	7033.31
460.57	7241.62
460.76	7318.86
460.94	7311.83
461.12	7337.58
461.31	7250.98
461.49	7283.75
461.67	7311.83
461.85	7349.28
462.04	7449.93
462.22	7822.07
462.40	7571.63
462.59	7489.71
462.77	7634.83
462.95	7761.22
463.13	7440.56
463.32	7585.68
463.50	7705.04
463.68	7634.83
463.86	7705.04
464.05	7573.97
464.23	7527.16
464.41	7616.10
464.59	7468.65
464.78	7765.90
464.96	7618.44
465.14	7761.22
465.32	7793.98
465.50	7777.60
465.69	7845.48
465.87	7723.77
466.05	7967.18
466.23	7808.03
466.41	7882.92
466.60	7967.18
466.78	7962.50
466.96	7913.35
467.14	7868.88
467.32	7957.82
467.51	8056.12
467.69	7857.18
467.87	8224.64
468.05	8138.04
468.23	7918.03
468.41	8074.85
468.60	8142.72
468.78	8201.24
468.96	8168.47
469.14	8301.88
469.32	8428.27
469.50	8222.30
469.69	8407.20
469.87	8587.43
470.05	8472.74
470.23	8423.59
470.41	8451.67
470.59	8578.06
470.77	8620.19
470.95	8489.12
471.14	8519.55
471.32	8491.46
471.50	8727.86
471.68	8765.31
471.86	8887.01
472.04	8819.14
472.22	8847.22
472.40	8711.47
472.58	8901.06
472.77	9090.64
472.95	9109.36
473.13	9348.10
473.31	9418.32
473.49	9013.40
473.67	9188.94
473.85	9132.77
474.03	9394.91
474.21	9582.15
474.39	9404.27
474.57	9547.05
474.75	9481.51
474.93	9668.75
475.12	9378.53
475.30	9568.11
475.48	9755.35
475.66	9813.87
475.84	9956.64
476.02	9724.93
476.20	10026.86
476.38	10235.16
476.56	10370.91
476.74	10171.97
476.92	10246.87
477.10	10221.12
477.28	10497.30
477.46	10200.05
477.64	10509.01
477.82	10621.35
478.00	10806.25
478.18	10780.51
478.36	10876.47
478.54	10958.39
478.72	10906.90
478.90	11040.31
479.08	11454.58
479.26	11332.87
479.44	11337.56
479.62	11508.41
479.80	11510.75
479.98	11815.02
480.16	11847.79
480.34	11721.40
480.52	11939.07
480.70	12032.69
480.88	11892.26
481.06	12191.85
481.24	12091.21
481.41	12020.99
481.59	12414.20
481.77	12564.00
481.95	12528.89
482.13	12681.02
482.31	12746.56
482.49	13149.13
482.67	12877.63
482.85	12851.88
483.03	13359.78
483.21	13181.90
483.39	13348.08
483.57	13198.28
483.74	13327.01
483.92	13778.73
484.10	13448.72
484.28	13965.98
484.46	13874.70
484.64	14436.42
484.82	14085.34
485.00	14293.65
485.18	14476.21
485.35	14817.93
485.53	14476.21
485.71	14516.00
485.89	14799.21
486.07	14979.43
486.25	14883.47
486.43	15136.24
486.61	15035.60
486.78	15307.10
486.96	15283.70
487.14	15470.94
487.32	15637.12
487.50	15765.85
487.68	15852.45
487.85	15983.52
488.03	15976.50
488.21	16215.23
488.39	16603.76
488.57	16622.48
488.75	16833.13
488.92	16922.07
489.10	16931.44
489.28	17018.04
489.46	17041.44
489.64	17315.28
489.81	17439.33
489.99	17603.17
490.17	17556.36
490.35	18078.30
490.53	17830.20
490.70	17874.67
490.88	17984.68
491.06	18174.26
491.24	18508.96
491.41	18338.10
491.59	18766.42
491.77	18583.85
491.95	18841.31
492.13	19133.88
492.30	18853.02
492.48	19080.05
492.66	19140.90
492.84	19475.60
493.01	19412.40
493.19	19513.05
493.37	19592.62
493.54	19861.79
493.72	19997.54
493.90	20039.67
494.08	20119.24
494.25	20332.23
494.43	20020.94
494.61	20704.38
494.79	20861.19
494.96	20577.99
495.14	20781.62
495.32	21191.21
495.49	20802.68
495.67	21060.14
495.85	21369.09
496.02	21259.09
496.20	21687.40
496.38	21617.19
496.55	21795.07
496.73	22429.35
496.91	21748.26
497.09	22277.22
497.26	22141.47
497.44	22260.84
497.62	22295.94
497.79	22675.11
497.97	22710.22
498.14	22888.10
498.32	23126.83
498.50	23089.38
498.67	23297.69
498.85	23201.73
499.03	23440.47
499.20	23300.03
499.38	23276.63
499.56	23381.95
499.73	23662.82
499.91	23501.32
500.08	23936.66
500.26	23939.00
500.44	24025.60
500.61	24250.29
500.79	23819.63
500.97	24428.17
501.14	24582.65
501.32	24617.75
501.49	24065.39
501.67	24641.16
501.84	24816.70
502.02	24645.84
502.20	24896.28
502.37	24980.54
502.55	24793.29
502.72	24863.51
502.90	25249.70
503.07	25025.01
503.25	25156.08
503.43	25235.66
503.60	25376.09
503.78	25680.36
503.95	25535.24
504.13	25788.02
504.30	25579.71
504.48	25336.30
504.65	25958.88
504.83	26436.35
505.01	26354.43
505.18	26125.06
505.36	26539.33
505.53	26029.10
505.71	26302.94
505.88	26637.64
506.06	26497.20
506.23	26862.33
506.41	26909.14
506.58	26902.12
506.76	27087.02
506.93	27054.25
507.11	26995.74
507.28	27147.87
507.46	27094.04
507.63	27491.93
507.81	27704.92
507.98	27522.36
508.16	27700.24
508.33	27435.76
508.50	27985.79
508.68	27798.54
508.85	27833.65
509.03	27775.14
509.20	28194.09
509.38	28343.89
509.55	28467.94
509.73	28624.75
509.90	28613.05
510.08	28219.84
510.25	28261.97
510.42	28507.72
510.60	28687.95
510.77	28467.94
510.95	29125.63
511.12	28879.87
511.30	29017.96
511.47	29139.67
511.64	29186.48
511.82	29357.34
511.99	29521.18
512.17	29509.47
512.34	29528.20
512.51	29986.94
512.69	30000.99
512.86	29750.55
513.04	30103.97
513.21	30040.78
513.38	30235.04
513.56	30333.34
513.73	29886.30
513.90	29720.12
514.08	30464.41
514.25	30333.34
514.43	30513.56
514.60	30483.14
514.77	30785.07
514.95	30733.57
515.12	30525.27
515.29	30714.85
515.47	31290.62
515.64	31246.15
515.81	31152.53
515.99	31356.16
516.16	31440.42
516.33	31030.82
516.51	31407.65
516.68	31393.61
516.85	31395.95
517.03	31608.93
517.20	31679.15
517.37	31941.29
517.54	31761.07
517.72	31810.22
517.89	31768.09
518.06	31852.35
518.24	32203.43
518.41	32261.94
518.58	31934.27
518.75	32156.62
518.93	32217.47
519.10	32254.92
519.27	32741.75
519.45	32283.01
519.62	32519.40
519.79	32762.82
519.96	32510.04
520.14	33116.24
520.31	32828.35
520.48	32828.35
520.65	33184.12
520.83	33282.42
521.00	33099.86
521.17	33282.42
521.34	33310.50
521.52	33312.84
521.69	33118.58
521.86	33528.17
522.03	33734.14
522.20	33853.51
522.38	33986.92
522.55	34171.82
522.72	34141.39
522.89	33802.02
523.07	34295.87
523.24	34265.44
523.41	34408.22
523.58	34265.44
523.75	34719.51
523.92	33879.25
524.10	34227.99
524.27	34438.64
524.44	34644.61
524.61	34897.39
524.78	34494.82
524.96	35239.11
525.13	35009.73
525.30	35124.42
525.47	34801.43
525.64	34946.54
525.81	35136.12
525.98	35058.88
526.16	35054.20
526.33	35285.92
526.50	35168.89
526.67	35264.85
526.84	35201.66
527.01	35318.68
527.18	35613.59
527.36	35859.35
527.53	35875.73
527.70	36032.55
527.87	36215.11
528.04	35952.97
528.21	35952.97
528.38	35550.40
528.55	36378.95
528.72	35655.72
528.89	36006.80
529.07	36034.89
529.24	36065.31
529.41	36072.34
529.58	36776.84
529.75	36044.25
529.92	36451.50
530.09	36381.29
530.26	36725.35
530.43	36671.51
530.60	36093.40
530.77	36392.99
530.94	36751.09
531.11	36535.76
531.28	36800.24
531.46	37158.34
531.63	37050.68
531.80	36678.54
531.97	37174.73
532.14	37258.99
532.31	36786.20
532.48	37310.48
532.65	37289.42
532.82	37141.96
532.99	37500.06
533.16	37338.57
533.33	37289.42
533.50	37579.64
533.67	37411.12
533.84	37163.03
534.01	37797.31
534.18	37738.80
534.35	37937.74
534.52	37717.73
534.69	38174.14
534.86	38082.86
535.03	37689.65
535.20	38391.81
535.37	38272.44
535.54	38625.86
535.71	38230.31
535.88	38124.99
536.05	38424.57
536.22	38623.52
536.38	38431.60
536.55	38693.74
536.72	38424.57
536.89	38361.38
537.06	38480.75
537.23	38848.21
537.40	38581.39
537.57	38085.20
537.74	38658.63
537.91	38724.16
538.08	38871.62
538.25	38497.13
538.42	39000.35
538.59	39131.42
538.75	38789.70
538.92	39297.59
539.09	39370.15
539.26	39203.97
539.43	39077.58
539.60	39484.84
539.77	39494.20
539.94	39772.72
540.11	39374.83
540.28	39346.75
540.44	39580.80
540.61	39234.40
540.78	39360.79
540.95	39758.68
541.12	39730.59
541.29	39700.17
541.46	40009.12
541.62	39945.92
541.79	40060.61
541.96	39580.80
542.13	39653.36
542.30	40018.48
542.47	39744.64
542.63	40374.24
542.80	40346.15
542.97	40889.16
543.14	40308.71
543.31	40521.69
543.48	40573.19
543.64	40933.63
543.81	40542.76
543.98	40591.91
544.15	40589.57
544.32	40713.62
544.48	41043.63
544.65	40903.20
544.82	41441.53
544.99	40486.59
545.16	40683.19
545.32	40917.25
545.49	41649.83
545.66	41460.25
545.83	41071.72
546.00	41577.28
546.16	41010.87
546.33	41413.44
546.50	41134.92
546.67	41474.29
546.83	40713.62
547.00	41284.71
547.17	41006.19
547.34	41357.27
547.50	41584.30
547.67	41684.94
547.84	41413.44
548.00	41862.82
548.17	41783.24
548.34	42117.94
548.51	42059.43
548.67	41937.72
548.84	42363.70
549.01	41886.23
549.18	42029.00
549.34	42302.84
549.51	42010.28
549.68	42188.16
549.84	41928.36
550.01	42122.62
550.18	41883.89
550.34	42316.89
550.51	42171.77
550.68	42628.18
550.84	42122.62
551.01	42476.04
551.18	42553.28
551.34	42234.97
551.51	42464.34
551.68	42071.13
551.84	42567.32
552.01	42277.10
552.18	42777.97
552.34	42628.18
552.51	43192.25
552.68	42546.26
552.84	42742.86
553.01	42988.62
553.18	42866.91
553.34	42632.86
553.51	43203.95
553.67	42876.27
553.84	43150.12
554.01	43051.81
554.17	43021.39
554.34	43452.05
554.51	42810.74
554.67	43529.28
554.84	42864.57
555.00	43540.99
555.17	43227.35
555.33	43548.01
555.50	43709.50
555.67	43363.11
555.83	43585.46
556.00	43482.47
556.16	44037.18
556.33	43522.26
556.50	43690.78
556.66	43599.50
556.83	43592.48
556.99	43983.35
557.16	43899.09
557.32	43835.89
557.49	43613.54
557.65	43367.79
557.82	43477.79
557.98	44032.50
558.15	43482.47
558.32	43768.02
558.48	43573.75
558.65	43526.94
558.81	43784.40
558.98	43878.02
559.14	43473.11
559.31	43562.05
559.47	43768.02
559.64	44186.97
559.80	43910.79
559.97	43770.36
560.13	43978.67
560.30	43775.04
560.46	44109.74
560.63	44130.80
560.79	44456.14
560.96	44289.96
561.12	44381.24
561.29	44512.31
561.45	44467.84
561.61	44444.43
561.78	43920.15
561.94	44491.24
562.11	44535.71
562.27	44460.82
562.44	44430.39
562.60	44989.78
562.77	43859.30
562.93	44032.50
563.10	44697.21
563.26	44376.56
563.42	44648.06
563.59	44430.39
563.75	44296.98
563.92	44109.74
564.08	44727.64
564.24	44797.85
564.41	44596.57
564.57	44975.73
564.74	44669.12
564.90	44692.53
565.07	45092.76
565.23	44577.84
565.39	44542.74
565.56	44947.65
565.72	44516.99
565.88	44732.32
566.05	45191.06
566.21	44868.07
566.38	44954.67
566.54	45214.47
566.70	44584.86
566.87	44999.14
567.03	45123.19
567.19	45113.83
567.36	45024.89
567.52	44720.62
567.68	44992.12
567.85	45359.58
568.01	45172.34
568.17	44737.00
568.34	45291.71
568.50	45242.56
568.66	44638.70
568.83	44629.34
568.99	45106.80
569.15	45198.09
569.32	45062.33
569.48	45001.48
569.64	45406.39
569.81	44961.69
569.97	45207.45
570.13	45408.73
570.30	44807.22
570.46	45062.33
570.62	45074.04
570.78	45092.76
570.95	45219.15
571.11	45399.37
571.27	45558.53
571.43	45146.59
571.60	45116.17
571.76	44980.42
571.92	45682.58
572.09	45352.56
572.25	45034.25
572.41	45249.58
572.57	45205.11
572.74	45909.61
572.90	45256.60
573.06	45312.77
573.22	45464.91
573.38	45890.88
573.55	45326.81
573.71	45794.92
573.87	45455.54
574.03	45715.34
574.20	45855.78
574.36	45359.58
574.52	45748.11
574.68	45736.41
574.84	45666.19
575.01	45500.01
575.17	45645.13
575.33	45439.16
575.49	45488.31
575.65	45628.74
575.82	45518.74
575.98	45485.97
576.14	45832.37
576.30	45694.28
576.46	45710.66
576.62	45553.85
576.79	45539.80
576.95	44933.60
577.11	45799.60
577.27	45467.25
577.43	45778.54
577.59	45654.49
577.75	45301.07
577.92	45207.45
578.08	45673.21
578.24	45102.12
578.40	45895.56
578.56	45696.62
578.72	45720.02
578.88	45902.59
579.04	45687.26
579.21	45478.95
579.37	45984.51
579.53	45703.64
579.69	45642.79
579.85	45645.13
580.01	45605.34
580.17	45886.20
580.33	46375.37
580.49	45890.88
580.65	45832.37
580.82	45844.07
580.98	45261.28
581.14	45471.93
581.30	45876.84
581.46	45703.64
581.62	45586.61
581.78	45638.11
581.94	45895.56
582.10	45930.67
582.26	45837.05
582.42	45525.76
582.58	45649.81
582.74	46248.99
582.90	45750.45
583.06	45956.42
583.22	45481.29
583.38	45933.01
583.54	46085.15
583.70	45869.82
583.86	46045.36
584.02	45855.78
584.18	46234.94
584.34	45881.52
584.50	45883.86
584.66	46167.07
584.82	46045.36
584.98	46333.24
585.14	46232.60
585.30	45909.61
585.46	46071.10
585.62	46108.55
585.78	45867.48
585.94	45640.45
586.10	45748.11
586.26	45937.69
586.42	46068.76
586.58	45797.26
586.74	46195.15
586.90	45916.63
587.06	46092.17
587.22	46248.99
587.38	45865.14
587.54	45874.50
587.70	46593.04
587.86	46295.80
588.02	46195.15
588.18	46288.77
588.34	46150.68
588.49	45766.84
588.65	45773.86
588.81	46206.86
588.97	45928.33
589.13	45673.21
589.29	46113.23
589.45	46363.67
589.61	46061.74
589.77	46363.67
589.93	46176.43
590.08	46274.73
