SpectraSuite Data File
++++++++++++++++++++++++++++++++++++
Date: Fri Oct 25 11:34:37 EDT 2013
User: price-jones
Dark Spectrum Present: No
Reference Spectrum Present: No
Number of Sampled Component Spectra: 1
Spectrometers: USB2+H05261
Integration Time (usec): 100000 (USB2+H05261)
Spectra Averaged: 1 (USB2+H05261)
Boxcar Smoothing: 0 (USB2+H05261)
Correct for Electrical Dark: No (USB2+H05261)
Strobe/Lamp Enabled: No (USB2+H05261)
Correct for Detector Non-linearity: No (USB2+H05261)
Correct for Stray Light: No (USB2+H05261)
Number of Pixels in Processed Spectrum: 2048
>>>>>Begin Processed Spectral Data<<<<<
365.73	266.82
365.92	266.82
366.12	266.82
366.32	227.03
366.52	168.52
366.72	180.22
366.91	252.78
367.11	145.11
367.31	177.88
367.51	138.09
367.70	191.92
367.90	175.54
368.10	217.67
368.30	220.01
368.49	173.20
368.69	220.01
368.89	173.20
369.09	234.05
369.28	189.58
369.48	170.86
369.68	257.46
369.87	259.80
370.07	299.59
370.27	201.29
370.47	383.85
370.66	566.41
370.86	524.28
371.06	528.96
371.25	601.52
371.45	606.20
371.65	561.73
371.84	533.64
372.04	533.64
372.24	521.94
372.44	573.43
372.63	582.79
372.83	575.77
373.03	599.18
373.22	624.92
373.42	645.99
373.62	610.88
373.81	643.65
374.01	594.50
374.21	568.75
374.40	671.73
374.60	631.94
374.79	657.69
374.99	683.44
375.19	683.44
375.38	653.01
375.58	622.58
375.78	676.41
375.97	662.37
376.17	699.82
376.37	711.52
376.56	706.84
376.76	730.25
376.95	669.39
377.15	718.54
377.35	610.88
377.54	713.86
377.74	704.50
377.93	688.12
378.13	718.54
378.33	615.56
378.52	695.14
378.72	678.76
378.91	758.33
379.11	772.38
379.31	723.23
379.50	716.20
379.70	697.48
379.89	685.78
380.09	713.86
380.28	737.27
380.48	685.78
380.68	674.07
380.87	727.91
381.07	840.25
381.26	688.12
381.46	709.18
381.65	760.67
381.85	774.72
382.04	746.63
382.24	711.52
382.43	739.61
382.63	741.95
382.83	748.97
383.02	753.65
383.22	793.44
383.41	823.87
383.61	781.74
383.80	826.21
384.00	706.84
384.19	793.44
384.39	791.10
384.58	854.30
384.78	763.01
384.97	812.17
385.17	800.46
385.36	821.53
385.56	809.83
385.75	887.06
385.95	844.93
386.14	863.66
386.34	894.08
386.53	858.98
386.72	821.53
386.92	940.90
387.11	798.12
387.31	917.49
387.50	861.32
387.70	870.68
387.89	823.87
388.09	889.40
388.28	915.15
388.48	781.74
388.67	898.77
388.86	882.38
389.06	945.58
389.25	938.55
389.45	929.19
389.64	889.40
389.84	861.32
390.03	964.30
390.22	985.37
390.42	954.94
390.61	915.15
390.81	896.43
391.00	938.55
391.19	971.32
391.39	957.28
391.58	976.00
391.78	1006.43
391.97	976.00
392.16	1130.48
392.36	1004.09
392.55	1001.75
392.75	1036.86
392.94	990.05
393.13	1029.84
393.33	1020.47
393.52	1074.31
393.71	1076.65
393.91	1034.52
394.10	1076.65
394.29	1062.60
394.49	1039.20
394.68	1039.20
394.88	1114.10
395.07	1149.20
395.26	1114.10
395.46	1097.71
395.65	1125.80
395.84	1107.07
396.04	1174.95
396.23	1214.74
396.42	1231.12
396.62	1137.50
396.81	1191.33
397.00	1165.59
397.19	1170.27
397.39	1224.10
397.58	1291.98
397.77	1184.31
397.97	1174.95
398.16	1214.74
398.35	1273.25
398.55	1198.35
398.74	1242.82
398.93	1231.12
399.12	1348.15
399.32	1273.25
399.51	1327.08
399.70	1299.00
399.90	1329.42
400.09	1277.93
400.28	1357.51
400.47	1273.25
400.67	1418.36
400.86	1345.81
401.05	1418.36
401.24	1350.49
401.44	1345.81
401.63	1404.32
401.82	1413.68
402.01	1280.27
402.21	1448.79
402.40	1453.47
402.59	1416.02
402.78	1416.02
402.97	1430.07
403.17	1469.86
403.36	1446.45
403.55	1481.56
403.74	1451.13
403.93	1586.88
404.13	1659.44
404.32	1540.07
404.51	1551.78
404.70	1540.07
404.89	1514.33
405.09	1605.61
405.28	1678.16
405.47	1659.44
405.66	1626.67
405.85	1579.86
406.05	1659.44
406.24	1694.55
406.43	1673.48
406.62	1643.06
406.81	1746.04
407.00	1717.95
407.20	1713.27
407.39	1661.78
407.58	1795.19
407.77	1825.62
407.96	1785.83
408.15	1788.17
408.34	1783.49
408.54	1804.55
408.73	1898.17
408.92	1816.26
409.11	1907.54
409.30	1888.81
409.49	1853.70
409.68	1966.05
409.87	1991.80
410.07	1921.58
410.26	1928.60
410.45	2059.67
410.64	1879.45
410.83	2003.50
411.02	2029.24
411.21	2031.58
411.40	2062.01
411.59	2080.74
411.78	2122.87
411.98	2115.84
412.17	2090.10
412.36	2106.48
412.55	2300.75
412.74	2244.57
412.93	2136.91
413.12	2122.87
413.31	2361.60
413.50	2361.60
413.69	2207.13
413.88	2340.54
414.07	2450.54
414.26	2354.58
414.45	2434.16
414.64	2469.27
414.83	2516.08
415.02	2548.84
415.22	2581.61
415.41	2506.71
415.60	2593.31
415.79	2628.42
415.98	2511.39
416.17	2609.70
416.36	2616.72
416.55	2562.89
416.74	2642.46
416.93	2799.28
417.12	2787.58
417.31	2761.83
417.50	2792.26
417.69	2881.20
417.88	2892.90
418.07	2813.32
418.26	2808.64
418.45	2796.94
418.64	2988.86
418.83	2981.84
419.02	2923.33
419.21	3047.38
419.39	2899.92
419.58	2918.65
419.77	2918.65
419.96	2956.10
420.15	3070.78
420.34	3014.61
420.53	2984.18
420.72	3185.47
420.91	3159.72
421.10	3075.46
421.29	3159.72
421.48	3108.23
421.67	3215.90
421.86	3218.24
422.05	3246.32
422.24	3180.79
422.43	3148.02
422.61	3208.87
422.80	3323.56
422.99	3248.66
423.18	3143.34
423.37	3119.93
423.56	3234.62
423.75	3356.33
423.94	3150.36
424.13	3094.19
424.32	3192.49
424.50	3225.26
424.69	3386.76
424.88	3290.79
425.07	3276.75
425.26	3307.18
425.45	3309.52
425.64	3281.43
425.83	3265.05
426.01	3344.63
426.20	3419.52
426.39	3417.18
426.58	3386.76
426.77	3328.24
426.96	3187.81
427.15	3339.94
427.33	3508.46
427.52	3351.65
427.71	3456.97
427.90	3445.27
428.09	3543.57
428.28	3492.08
428.46	3562.30
428.65	3599.74
428.84	3599.74
429.03	3613.79
429.22	3414.84
429.40	3581.02
429.59	3487.40
429.78	3475.70
429.97	3435.91
430.16	3616.13
430.34	3723.79
430.53	3655.92
430.72	3707.41
430.91	3702.73
431.10	3770.60
431.28	3716.77
431.47	3831.46
431.66	3798.69
431.85	3726.13
432.03	3833.80
432.22	3927.42
432.41	3861.88
432.60	3831.46
432.79	3815.07
432.97	3920.40
433.16	4002.32
433.35	3777.62
433.54	3892.31
433.72	4070.19
433.91	3992.95
434.10	4025.72
434.28	4079.55
434.47	4028.06
434.66	4023.38
434.85	4294.88
435.03	4098.28
435.22	4072.53
435.41	4180.20
435.59	4126.36
435.78	4138.07
435.97	4290.20
436.16	4121.68
436.34	4133.39
436.53	4124.02
436.72	4365.10
436.90	4205.94
437.09	4360.42
437.28	4217.65
437.46	4238.71
437.65	4322.97
437.84	4337.01
438.02	4411.91
438.21	4311.27
438.40	4311.27
438.58	4587.45
438.77	4571.07
438.96	4503.19
439.14	4585.11
439.33	4695.11
439.52	4643.62
439.70	4770.01
439.89	4777.03
440.08	4781.71
440.26	4695.11
440.45	4889.38
440.63	4762.99
440.82	4868.31
441.01	4821.50
441.19	4877.68
441.38	5118.75
441.57	5015.77
441.75	5123.43
441.94	5170.24
442.12	5128.11
442.31	5163.22
442.50	5139.82
442.68	5228.76
442.87	5062.58
443.05	5167.90
443.24	5378.55
443.43	5338.76
443.61	5305.99
443.80	5621.97
443.98	5093.01
444.17	5116.41
444.35	5291.95
444.54	5235.78
444.73	5249.82
444.91	5427.70
445.10	5397.28
445.28	5446.43
445.47	5294.29
445.65	5352.81
445.84	5481.53
446.02	5589.20
446.21	5406.64
446.39	5416.00
446.58	5439.40
446.77	5336.42
446.95	5317.70
447.14	5359.83
447.32	5406.64
447.51	5399.62
447.69	5296.63
447.88	5544.73
448.06	5488.56
448.25	5544.73
448.43	5418.34
448.62	5628.99
448.80	5631.33
448.99	5582.18
449.17	5682.82
449.36	5413.66
449.54	5636.01
449.73	5621.97
449.91	5966.03
450.10	5682.82
450.28	5846.66
450.46	5820.91
450.65	5706.23
450.83	5877.09
451.02	5703.89
451.20	6069.01
451.39	5832.62
451.57	5959.00
451.76	5771.76
451.94	5942.62
452.13	5996.45
452.31	5851.34
452.49	5949.64
452.68	6012.84
452.86	5930.92
453.05	5966.03
453.23	5937.94
453.42	5893.47
453.60	5977.73
453.78	6118.16
453.97	6045.60
454.15	6141.57
454.34	6174.33
454.52	6181.35
454.70	6260.93
454.89	6083.05
455.07	6342.85
455.26	6366.26
455.44	6361.58
455.62	6392.00
455.81	6448.18
455.99	6427.11
456.17	6406.05
456.36	6401.37
456.54	6523.07
456.73	6640.10
456.91	6689.25
457.09	6607.33
457.28	6867.13
457.46	6693.93
457.64	6738.40
457.83	6612.01
458.01	6820.32
458.19	6846.07
458.38	6597.97
458.56	6815.64
458.74	6722.02
458.93	6628.40
459.11	6937.35
459.29	6803.94
459.48	6925.65
459.66	6754.79
459.84	6974.80
460.03	7227.57
460.21	7225.23
460.39	7033.31
460.57	6939.69
460.76	7087.14
460.94	7089.48
461.12	7201.83
461.31	7087.14
461.49	7131.61
461.67	7307.15
461.85	7265.02
462.04	7119.91
462.22	7627.81
462.40	7468.65
462.59	7180.76
462.77	7391.41
462.95	7473.33
463.13	7538.87
463.32	7419.50
463.50	7311.83
463.68	7447.58
463.86	7669.94
464.05	7548.23
464.23	7454.61
464.41	7482.69
464.59	7534.18
464.78	7543.55
464.96	7705.04
465.14	7456.95
465.32	7698.02
465.50	7667.60
465.69	7878.24
465.87	7637.17
466.05	7641.85
466.23	7648.87
466.41	7679.30
466.60	8093.57
466.78	7747.17
466.96	7896.97
467.14	7749.51
467.32	7836.11
467.51	8002.29
467.69	7714.41
467.87	7971.86
468.05	8131.02
468.23	7901.65
468.41	7833.77
468.60	7868.88
468.78	8086.55
468.96	7815.05
469.14	8409.54
469.32	8273.79
469.50	8035.06
469.69	8344.01
469.87	8348.69
470.05	8437.63
470.23	8358.05
470.41	8264.43
470.59	8248.05
470.77	8442.31
470.95	8456.36
471.14	8671.68
471.32	8278.47
471.50	8636.58
471.68	8603.81
471.86	8542.96
472.04	8657.64
472.22	9039.15
472.40	8671.68
472.58	8814.46
472.77	8695.09
472.95	8842.54
473.13	8992.34
473.31	8882.33
473.49	8952.55
473.67	8964.25
473.85	8954.89
474.03	9100.00
474.21	9074.26
474.39	9533.00
474.57	9210.01
474.75	9488.53
474.93	9514.28
475.12	9310.65
475.30	9521.30
475.48	9462.79
475.66	9582.15
475.84	9607.90
476.02	9717.90
476.20	9652.37
476.38	9895.78
476.56	10221.12
476.74	10012.81
476.92	10092.39
477.10	10024.51
477.28	10183.67
477.46	10129.84
477.64	10106.43
477.82	10387.30
478.00	10544.11
478.18	10619.01
478.36	10789.87
478.54	10663.48
478.72	10647.10
478.90	10801.57
479.08	10965.41
479.26	10899.87
479.44	11253.30
479.62	11110.52
479.80	11241.59
479.98	11360.96
480.16	11428.84
480.34	11272.02
480.52	11648.85
480.70	11690.98
480.88	11616.08
481.06	11625.44
481.24	11676.93
481.41	11950.78
481.59	11969.50
481.77	12163.76
481.95	12056.10
482.13	12320.58
482.31	12334.62
482.49	12404.84
482.67	12739.54
482.85	12807.41
483.03	12987.63
483.21	13153.81
483.39	13111.68
483.57	12784.01
483.74	12996.99
483.92	13245.09
484.10	13394.89
484.28	13525.96
484.46	13830.23
484.64	13745.97
484.82	13862.99
485.00	13963.64
485.18	14286.63
485.35	14298.33
485.53	14363.87
485.71	14279.61
485.89	14466.85
486.07	14431.74
486.25	14609.62
486.43	14801.55
486.61	15068.37
486.78	14993.47
486.96	15145.61
487.14	15091.77
487.32	15260.29
487.50	15508.39
487.68	15590.31
487.85	15812.66
488.03	16098.20
488.21	16252.68
488.39	15908.62
488.57	16102.89
488.75	16271.40
488.92	16285.45
489.10	16484.39
489.28	16645.89
489.46	16751.21
489.64	16758.24
489.81	17364.43
489.99	17121.02
490.17	17111.66
490.35	17521.25
490.53	17507.21
490.70	17521.25
490.88	17448.69
491.06	17579.76
491.24	17825.52
491.41	17844.24
491.59	18068.94
491.77	18387.25
491.95	18242.14
492.13	18429.38
492.30	18817.91
492.48	18572.15
492.66	18757.05
492.84	18581.51
493.01	19014.51
493.19	18970.04
493.37	19150.26
493.54	19353.89
493.72	19580.92
493.90	19482.62
494.08	19772.85
494.25	19913.28
494.43	20042.01
494.61	20084.14
494.79	19948.39
494.96	20191.80
495.14	20044.35
495.32	21003.97
495.49	20561.61
495.67	20669.27
495.85	20617.78
496.02	20587.35
496.20	20893.96
496.38	21113.97
496.55	21350.37
496.73	21708.47
496.91	21521.23
497.09	21600.80
497.26	21624.21
497.44	21624.21
497.62	21539.95
497.79	21956.57
497.97	22087.64
498.14	22204.66
498.32	22305.31
498.50	22361.48
498.67	22864.69
498.85	22661.07
499.03	23073.00
499.20	22719.58
499.38	22710.22
499.56	23136.20
499.73	23126.83
499.91	23173.64
500.08	23480.25
500.26	23353.87
500.44	23653.45
500.61	23681.54
500.79	23424.08
500.97	23536.43
501.14	24107.52
501.32	23922.62
501.49	23892.19
501.67	24318.17
501.84	24589.67
502.02	24367.32
502.20	24425.83
502.37	24105.18
502.55	24161.35
502.72	24645.84
502.90	24435.19
503.07	24685.63
503.25	24580.31
503.43	24393.06
503.60	24807.34
503.78	25184.16
503.95	24872.87
504.13	25223.95
504.30	25483.75
504.48	25088.20
504.65	25362.04
504.83	25420.56
505.01	25521.20
505.18	25694.40
505.36	25862.92
505.53	25755.26
505.71	26216.34
505.88	25907.39
506.06	25818.45
506.23	26265.49
506.41	25891.01
506.58	26209.32
506.76	26209.32
506.93	26457.42
507.11	26768.71
507.28	27030.85
507.46	26412.95
507.63	26955.95
507.81	26813.18
507.98	26609.55
508.16	26768.71
508.33	27080.00
508.50	27098.72
508.68	27152.55
508.85	27728.33
509.03	27489.59
509.20	27332.78
509.38	27962.38
509.55	28016.21
509.73	28046.64
509.90	27938.97
510.08	28020.89
510.25	28074.73
510.42	27770.46
510.60	28224.52
510.77	28203.46
510.95	28208.14
511.12	28341.55
511.30	28465.60
511.47	28215.16
511.64	28601.35
511.82	28814.34
511.99	28760.50
512.17	29003.92
512.34	28968.81
512.51	28978.17
512.69	29207.55
512.86	29191.16
513.04	29212.23
513.21	29277.76
513.38	29113.92
513.56	29497.77
513.73	29390.11
513.90	29619.48
514.08	29366.70
514.25	29624.16
514.43	29682.67
514.60	29926.09
514.77	29844.17
514.95	30562.72
515.12	29986.94
515.29	29909.71
515.47	30302.92
515.64	30078.22
515.81	30106.31
515.99	30415.26
516.16	30969.97
516.33	30527.61
516.51	30761.66
516.68	30309.94
516.85	30551.01
517.03	31117.42
517.20	31021.46
517.37	31253.17
517.54	30984.01
517.72	30810.81
517.89	31103.38
518.06	31201.68
518.24	31164.23
518.41	31206.36
518.58	31030.82
518.75	31040.18
518.93	31482.55
519.10	31529.36
519.27	31608.93
519.45	31653.40
519.62	31821.92
519.79	32184.71
519.96	31983.42
520.14	31976.40
520.31	31768.09
520.48	31969.38
520.65	32081.72
520.83	32397.70
521.00	32486.64
521.17	32280.67
521.34	32659.84
521.52	32329.82
521.69	32739.41
521.86	33024.96
522.03	32954.74
522.20	33111.56
522.38	33397.10
522.55	33027.30
522.72	33219.22
522.89	33132.62
523.07	33106.88
523.24	33205.18
523.41	33502.43
523.58	33472.00
523.75	33778.61
523.92	33596.05
524.10	33502.43
524.27	33809.04
524.44	33677.97
524.61	33923.72
524.78	33916.70
524.96	34274.80
525.13	34195.23
525.30	34323.96
525.47	34412.90
525.64	34157.78
525.81	34300.55
525.98	34511.20
526.16	34398.85
526.33	34129.69
526.50	34801.43
526.67	34569.71
526.84	34543.97
527.01	34719.51
527.18	34668.02
527.36	34792.06
527.53	34763.98
527.70	35438.05
527.87	35292.94
528.04	34763.98
528.21	35000.37
528.38	35101.01
528.55	35192.30
528.72	35072.93
528.89	35416.99
529.07	35351.45
529.24	35234.42
529.41	35295.28
529.58	35463.80
529.75	35115.06
529.92	35622.95
530.09	35449.75
530.26	35534.01
530.43	35639.34
530.60	35365.49
530.77	35728.28
530.94	35704.87
531.11	35714.23
531.28	35978.72
531.46	35988.08
531.63	35796.15
531.80	35772.75
531.97	36060.63
532.14	36091.06
532.31	36051.27
532.48	36507.68
532.65	36678.54
532.82	36528.74
532.99	36568.53
533.16	36208.09
533.33	36514.70
533.50	36825.99
533.67	36692.58
533.84	36961.74
534.01	37266.01
534.18	36715.98
534.35	37387.72
534.52	37055.36
534.69	37083.45
534.86	37413.46
535.03	37249.63
535.20	37268.35
535.37	37263.67
535.54	37308.14
535.71	37266.01
535.88	37106.85
536.05	37326.86
536.22	37474.32
536.38	37359.63
536.55	37509.43
536.72	37486.02
536.89	37511.77
537.06	37624.11
537.23	37921.36
537.40	37757.52
537.57	37514.11
537.74	37488.36
537.91	37961.15
538.08	37579.64
538.25	37453.25
538.42	38075.84
538.59	38323.93
538.75	37912.00
538.92	38356.70
539.09	38267.76
539.26	38752.25
539.43	37963.49
539.60	38754.59
539.77	38211.59
539.94	38888.00
540.11	38220.95
540.28	38518.20
540.44	38462.02
540.61	38707.78
540.78	38621.18
540.95	38581.39
541.12	38597.77
541.29	39040.14
541.46	38986.30
541.62	38663.31
541.79	39290.57
541.96	38768.63
542.13	38941.83
542.30	39035.45
542.47	39299.94
542.63	39306.96
542.80	39674.42
542.97	39583.14
543.14	39473.13
543.31	39948.26
543.48	39660.38
543.64	39952.94
543.81	39845.28
543.98	39585.48
544.15	39966.99
544.32	39999.76
544.48	40130.83
544.65	40243.17
544.82	40175.30
544.99	39866.34
545.16	39835.92
545.32	40025.50
545.49	40470.20
545.66	40268.92
545.83	40289.98
546.00	40360.20
546.16	40556.80
546.33	40091.04
546.50	40055.93
546.67	40844.69
546.83	39835.92
547.00	40046.57
547.17	40217.43
547.34	40247.85
547.50	41010.87
547.67	40650.42
547.84	40664.47
548.00	40533.40
548.17	40954.69
548.34	41146.62
548.51	41038.95
548.67	40573.19
548.84	41027.25
549.01	40959.38
549.18	40776.81
549.34	40914.90
549.51	40811.92
549.68	41036.61
549.84	40921.93
550.01	41514.08
550.18	40931.29
550.34	41443.87
550.51	41546.85
550.68	41439.18
550.84	40753.41
551.01	41684.94
551.18	41418.12
551.34	41184.07
551.51	41673.24
551.68	41820.69
551.84	41640.47
552.01	41385.35
552.18	41717.71
552.34	41696.64
552.51	41970.49
552.68	41846.44
552.84	41504.72
553.01	42054.75
553.18	41750.48
553.34	41893.25
553.51	41918.99
553.67	41614.72
553.84	42476.04
554.01	41860.48
554.17	42085.17
554.34	41942.40
554.51	42391.78
554.67	42349.65
554.84	42543.92
555.00	42408.17
555.17	42075.81
555.33	42155.39
555.50	42122.62
555.67	42656.26
555.83	42361.36
556.00	42188.16
556.16	42698.39
556.33	42457.32
556.50	42281.78
556.66	42326.25
556.83	42019.64
556.99	42595.41
557.16	42885.64
557.32	42969.90
557.49	42616.47
557.65	42447.96
557.82	42487.74
557.98	42852.87
558.15	42504.13
558.32	42710.10
558.48	42993.30
558.65	42995.64
558.81	42883.30
558.98	42906.70
559.14	43110.33
559.31	43138.41
559.47	42962.87
559.64	43594.82
559.80	42939.47
559.97	43222.67
560.13	42848.19
560.30	42993.30
560.46	43569.07
560.63	43487.15
560.79	43047.13
560.96	43112.67
561.12	43377.15
561.29	43866.32
561.45	43665.03
561.61	43533.96
561.78	43426.30
561.94	43634.61
562.11	43012.02
562.27	43187.56
562.44	43615.88
562.60	43447.36
562.77	43585.46
562.93	43728.23
563.10	43901.43
563.26	43377.15
563.42	44013.77
563.59	43730.57
563.75	43723.55
563.92	43510.56
564.08	43552.69
564.24	43660.35
564.41	43894.41
564.57	43356.08
564.74	43922.49
564.90	43978.67
565.07	43880.36
565.23	43828.87
565.39	43828.87
565.56	43969.30
565.72	43700.14
565.88	43819.51
566.05	43414.60
566.21	43910.79
566.38	44053.56
566.54	43814.83
566.70	43859.30
566.87	44044.20
567.03	43931.86
567.19	44142.50
567.36	44027.82
567.52	44107.40
567.68	44397.62
567.85	44114.42
568.01	44367.20
568.17	43966.96
568.34	44109.74
568.50	44521.67
568.66	44271.23
568.83	44121.44
568.99	43592.48
569.15	44233.78
569.32	43938.88
569.48	44233.78
569.64	44617.63
569.81	44320.38
569.97	44348.47
570.13	44615.29
570.30	43969.30
570.46	44350.81
570.62	44261.87
570.78	43983.35
570.95	43915.47
571.11	44484.22
571.27	44329.75
571.43	44715.93
571.60	44409.32
571.76	44439.75
571.92	44254.85
572.09	44526.35
572.25	43955.26
572.41	43995.05
572.57	44236.12
572.74	45310.43
572.90	44318.04
573.06	44671.46
573.22	44491.24
573.38	44617.63
573.55	44282.94
573.71	44617.63
573.87	44484.22
574.03	44542.74
574.20	44711.25
574.36	44835.30
574.52	44760.40
574.68	44814.24
574.84	44495.92
575.01	44706.57
575.17	44170.59
575.33	44847.00
575.49	44634.02
575.65	44800.19
575.82	44500.61
575.98	44385.92
576.14	44912.54
576.30	45074.04
576.46	44893.82
576.62	44275.91
576.79	44605.93
576.95	44311.02
577.11	44231.44
577.27	44322.72
577.43	44854.03
577.59	44760.40
577.75	44282.94
577.92	44336.77
578.08	44690.19
578.24	44959.35
578.40	44966.37
578.56	44858.71
578.72	44797.85
578.88	44795.51
579.04	44446.77
579.21	44830.62
579.37	44737.00
579.53	44636.36
579.69	44458.48
579.85	44825.94
580.01	44999.14
580.17	44795.51
580.33	44837.64
580.49	45092.76
580.65	44673.81
580.82	44713.59
580.98	44865.73
581.14	45111.49
581.30	44835.30
581.46	44575.50
581.62	44917.22
581.78	44594.23
581.94	45085.74
582.10	44847.00
582.26	45027.23
582.42	45186.38
582.58	44868.07
582.74	44706.57
582.90	44758.06
583.06	44837.64
583.22	44968.71
583.38	45092.76
583.54	44662.10
583.70	45104.46
583.86	45495.33
584.02	45256.60
584.18	45488.31
584.34	45109.14
584.50	45230.85
584.66	45481.29
584.82	45062.33
584.98	45242.56
585.14	45095.10
585.30	44842.32
585.46	44933.60
585.62	45059.99
585.78	45296.39
585.94	44694.87
586.10	44905.52
586.26	45191.06
586.42	44540.39
586.58	45099.78
586.74	45057.65
586.90	44634.02
587.06	44968.71
587.22	45441.50
587.38	44886.79
587.54	45432.14
587.70	45123.19
587.86	45254.26
588.02	45200.43
588.18	45097.44
588.34	45354.90
588.49	45240.21
588.65	44898.50
588.81	44783.81
588.97	44891.48
589.13	45067.02
589.29	45116.17
589.45	45230.85
589.61	44463.16
589.77	45326.81
589.93	45205.11
590.08	45656.83
