SpectraSuite Data File
++++++++++++++++++++++++++++++++++++
Date: Fri Oct 25 10:43:23 EDT 2013
User: price-jones
Dark Spectrum Present: No
Reference Spectrum Present: No
Number of Sampled Component Spectra: 1
Spectrometers: USB2+H05261
Integration Time (usec): 100000 (USB2+H05261)
Spectra Averaged: 1 (USB2+H05261)
Boxcar Smoothing: 0 (USB2+H05261)
Correct for Electrical Dark: No (USB2+H05261)
Strobe/Lamp Enabled: No (USB2+H05261)
Correct for Detector Non-linearity: No (USB2+H05261)
Correct for Stray Light: No (USB2+H05261)
Number of Pixels in Processed Spectrum: 2048
>>>>>Begin Processed Spectral Data<<<<<
365.73	126.39
365.92	126.39
366.12	126.39
366.32	93.62
366.52	7.02
366.72	0.00
366.91	18.72
367.11	4.68
367.31	7.02
367.51	0.00
367.70	14.04
367.90	53.83
368.10	9.36
368.30	65.54
368.49	0.00
368.69	44.47
368.89	84.26
369.09	28.09
369.28	18.72
369.48	30.43
369.68	44.47
369.87	70.22
370.07	88.94
370.27	67.88
370.47	196.60
370.66	390.87
370.86	409.59
371.06	444.70
371.25	461.09
371.45	496.19
371.65	526.62
371.84	491.51
372.04	484.49
372.24	479.81
372.44	458.74
372.63	526.62
372.83	503.22
373.03	538.32
373.22	554.71
373.42	442.36
373.62	449.38
373.81	526.62
374.01	655.35
374.21	582.79
374.40	512.58
374.60	510.24
374.79	557.05
374.99	587.47
375.19	631.94
375.38	580.45
375.58	578.11
375.78	575.77
375.97	594.50
376.17	688.12
376.37	592.16
376.56	587.47
376.76	610.88
376.95	610.88
377.15	592.16
377.35	624.92
377.54	664.71
377.74	580.45
377.93	608.54
378.13	723.23
378.33	664.71
378.52	608.54
378.72	667.05
378.91	608.54
379.11	727.91
379.31	638.97
379.50	741.95
379.70	732.59
379.89	645.99
380.09	641.31
380.28	662.37
380.48	643.65
380.68	709.18
380.87	727.91
381.07	767.70
381.26	732.59
381.46	678.76
381.65	802.80
381.85	795.78
382.04	662.37
382.24	683.44
382.43	739.61
382.63	697.48
382.83	805.14
383.02	739.61
383.22	681.10
383.41	706.84
383.61	727.91
383.80	779.40
384.00	807.48
384.19	748.97
384.39	786.42
384.58	772.38
384.78	851.96
384.97	812.17
385.17	791.10
385.36	816.85
385.56	858.98
385.75	791.10
385.95	741.95
386.14	786.42
386.34	779.40
386.53	870.68
386.72	809.83
386.92	891.74
387.11	814.51
387.31	922.17
387.50	875.36
387.70	887.06
387.89	950.26
388.09	922.17
388.28	819.19
388.48	875.36
388.67	915.15
388.86	929.19
389.06	936.21
389.25	936.21
389.45	945.58
389.64	1046.22
389.84	1022.81
390.03	954.94
390.22	966.64
390.42	978.34
390.61	959.62
390.81	1076.65
391.00	1090.69
391.19	1062.60
391.39	1057.92
391.58	1006.43
391.78	1032.18
391.97	1043.88
392.16	1064.94
392.36	987.71
392.55	994.73
392.75	999.41
392.94	924.51
393.13	936.21
393.33	1060.26
393.52	1048.56
393.71	1118.78
393.91	1086.01
394.10	1022.81
394.29	1111.75
394.49	1163.25
394.68	1193.67
394.88	1203.04
395.07	1231.12
395.26	1242.82
395.46	1268.57
395.65	1277.93
395.84	1345.81
396.04	1221.76
396.23	1191.33
396.42	1224.10
396.62	1217.08
396.81	1231.12
397.00	1160.91
397.19	1256.87
397.39	1235.80
397.58	1385.60
397.77	1341.13
397.97	1383.26
398.16	1376.24
398.35	1451.13
398.55	1338.79
398.74	1399.64
398.93	1547.09
399.12	1549.43
399.32	1472.20
399.51	1568.16
399.70	1500.28
399.90	1504.96
400.09	1507.30
400.28	1682.85
400.47	1600.93
400.67	1586.88
400.86	1717.95
401.05	1701.57
401.24	1816.26
401.44	1685.19
401.63	1624.33
401.82	1715.61
402.01	1760.08
402.21	1687.53
402.40	1792.85
402.59	1771.79
402.78	1802.21
402.97	1771.79
403.17	1820.94
403.36	1874.77
403.55	1783.49
403.74	1872.43
403.93	1905.20
404.13	2022.22
404.32	1851.36
404.51	1980.09
404.70	1940.30
404.89	1966.05
405.09	2010.52
405.28	1928.60
405.47	1994.14
405.66	2012.86
405.85	1980.09
406.05	1996.48
406.24	1956.69
406.43	1968.39
406.62	2073.71
406.81	2139.25
407.00	2062.01
407.20	1954.35
407.39	2045.63
407.58	2066.69
407.77	2160.31
407.96	2179.04
408.15	2275.00
408.34	2115.84
408.54	2300.75
408.73	2293.72
408.92	2321.81
409.11	2377.98
409.30	2300.75
409.49	2284.36
409.68	2244.57
409.87	2298.41
410.07	2354.58
410.26	2275.00
410.45	2495.01
410.64	2483.31
410.83	2420.11
411.02	2495.01
411.21	2530.12
411.40	2544.16
411.59	2647.15
411.78	2682.25
411.98	2640.12
412.17	2705.66
412.36	2649.49
412.55	2740.77
412.74	2649.49
412.93	2682.25
413.12	2778.22
413.31	2843.75
413.50	2836.73
413.69	2820.35
413.88	2923.33
414.07	2883.54
414.26	3061.42
414.45	2993.55
414.64	3040.36
414.83	3159.72
415.02	3115.25
415.22	3166.74
415.41	3157.38
415.60	3138.66
415.79	3248.66
415.98	3269.73
416.17	3185.47
416.36	3332.92
416.55	3222.92
416.74	3260.37
416.93	3148.02
417.12	3246.32
417.31	3363.35
417.50	3307.18
417.69	3438.25
417.88	3536.55
418.07	3440.59
418.26	3468.67
418.45	3557.61
418.64	3747.20
418.83	3618.47
419.02	3569.32
419.21	3667.62
419.39	3576.34
419.58	3613.79
419.77	3421.86
419.96	3763.58
420.15	3623.15
420.34	3623.15
420.53	3721.45
420.72	3875.93
420.91	3873.59
421.10	3861.88
421.29	3868.91
421.48	3899.33
421.67	3866.56
421.86	3854.86
422.05	3702.73
422.24	3808.05
422.43	3744.86
422.61	3857.20
422.80	3927.42
422.99	3906.35
423.18	3861.88
423.37	4037.42
423.56	3873.59
423.75	3997.64
423.94	3946.14
424.13	3566.98
424.32	3779.97
424.50	4079.55
424.69	3852.52
424.88	4028.06
425.07	3981.25
425.26	4023.38
425.45	3925.08
425.64	3969.55
425.83	3964.87
426.01	3946.14
426.20	4119.34
426.39	3969.55
426.58	3904.01
426.77	3831.46
426.96	3932.10
427.15	3971.89
427.33	4042.11
427.52	4091.26
427.71	4175.52
427.90	3920.40
428.09	4105.30
428.28	4152.11
428.46	4131.05
428.65	4259.78
428.84	4189.56
429.03	4325.31
429.22	4077.21
429.40	4315.95
429.59	4161.47
429.78	3899.33
429.97	3974.23
430.16	3971.89
430.34	4035.08
430.53	4266.80
430.72	4205.94
430.91	4210.62
431.10	4219.99
431.28	4440.00
431.47	4575.75
431.66	4704.48
431.85	4465.74
432.03	4561.70
432.22	4699.80
432.41	4573.41
432.60	4779.37
432.79	4737.24
432.97	4882.36
433.16	4723.20
433.35	4531.28
433.54	4629.58
433.72	4622.56
433.91	4711.50
434.10	4695.11
434.28	4648.30
434.47	4795.76
434.66	4954.91
434.85	4954.91
435.03	4924.49
435.22	4961.94
435.41	5081.30
435.59	5158.54
435.78	5240.46
435.97	5006.41
436.16	5177.26
436.34	5078.96
436.53	5090.67
436.72	5029.81
436.90	5100.03
437.09	5207.69
437.28	5191.31
437.46	5275.57
437.65	5231.10
437.84	5338.76
438.02	5163.22
438.21	5195.99
438.40	5083.64
438.58	5350.46
438.77	5383.23
438.96	5296.63
439.14	5633.67
439.33	5605.58
439.52	5731.97
439.70	5748.36
439.89	5540.05
440.08	5598.56
440.26	5526.00
440.45	5621.97
440.63	5682.82
440.82	6150.93
441.01	5968.37
441.19	5987.09
441.38	6080.71
441.57	6052.63
441.75	6171.99
441.94	6237.53
442.12	6296.04
442.31	6256.25
442.50	6171.99
442.68	6310.08
442.87	6237.53
443.05	6361.58
443.24	6534.78
443.43	6303.06
443.61	6384.98
443.80	6516.05
443.98	6349.87
444.17	6221.14
444.35	6612.01
444.54	6597.97
444.73	6438.81
444.91	6548.82
445.10	6572.22
445.28	6380.30
445.47	6436.47
445.65	6230.51
445.84	6525.41
446.02	6729.04
446.21	6494.99
446.39	6658.82
446.58	6623.72
446.77	6640.10
446.95	6705.63
447.14	6602.65
447.32	6799.26
447.51	6560.52
447.69	6703.29
447.88	6731.38
448.06	6654.14
448.25	6738.40
448.43	6810.96
448.62	6696.27
448.80	6733.72
448.99	6775.85
449.17	6813.30
449.36	6853.09
449.54	6946.71
449.73	7225.23
449.91	7185.44
450.10	6899.90
450.28	7178.42
450.46	7286.09
450.65	7143.32
450.83	7199.49
451.02	7094.16
451.20	7281.41
451.39	7255.66
451.57	7143.32
451.76	7183.10
451.94	7232.26
452.13	7222.89
452.31	7232.26
452.49	7019.27
452.68	7239.28
452.86	7091.82
453.05	7171.40
453.23	7410.14
453.42	7314.17
453.60	7316.51
453.78	7588.02
453.97	7426.52
454.15	7246.30
454.34	7328.22
454.52	7564.61
454.70	7438.22
454.89	7588.02
455.07	7475.67
455.26	7627.81
455.44	7660.57
455.62	7665.25
455.81	7728.45
455.99	7709.72
456.17	7829.09
456.36	7810.37
456.54	7871.22
456.73	8009.31
456.91	8257.41
457.09	8091.23
457.28	8428.27
457.46	8091.23
457.64	8189.53
457.83	8161.45
458.01	7925.05
458.19	8133.36
458.38	8086.55
458.56	8409.54
458.74	8119.32
458.93	8198.90
459.11	8353.37
459.29	8039.74
459.48	8311.24
459.66	8535.93
459.84	8444.65
460.03	8489.12
460.21	8512.53
460.39	8547.64
460.57	8512.53
460.76	8461.04
460.94	8566.36
461.12	8575.72
461.31	8744.24
461.49	8720.84
461.67	8636.58
461.85	8887.01
462.04	8748.92
462.22	9338.74
462.40	8849.57
462.59	8887.01
462.77	8802.75
462.95	8978.30
463.13	8905.74
463.32	8725.52
463.50	9090.64
463.68	8973.61
463.86	9057.87
464.05	8933.82
464.23	8814.46
464.41	8901.06
464.59	8781.69
464.78	9167.88
464.96	9081.28
465.14	9135.11
465.32	9109.36
465.50	9263.84
465.69	9376.19
465.87	9268.52
466.05	9261.50
466.23	9275.54
466.41	9116.39
466.60	9497.89
466.78	9184.26
466.96	9186.60
467.14	9151.49
467.32	9205.33
467.51	9369.16
467.69	9205.33
467.87	9446.40
468.05	9563.43
468.23	9434.70
468.41	9516.62
468.60	9273.20
468.78	9673.43
468.96	9563.43
469.14	9624.28
469.32	9678.12
469.50	9579.81
469.69	9804.50
469.87	9877.06
470.05	9692.16
470.23	9748.33
470.41	9610.24
470.59	10054.94
470.77	9760.03
470.95	9947.28
471.14	10178.99
471.32	9970.68
471.50	10211.76
471.68	10209.42
471.86	10277.29
472.04	10579.22
472.22	10579.22
472.40	9923.87
472.58	10478.58
472.77	10377.94
472.95	10597.95
473.13	10824.98
473.31	10291.34
473.49	10537.09
473.67	10815.62
473.85	10738.38
474.03	10832.00
474.21	10801.57
474.39	10993.50
474.57	10993.50
474.75	11152.65
474.93	11323.51
475.12	11208.83
475.30	11007.54
475.48	11346.92
475.66	11323.51
475.84	11225.21
476.02	11571.61
476.20	11339.90
476.38	11679.27
476.56	11716.72
476.74	11854.81
476.92	12009.29
477.10	11903.96
477.28	11847.79
477.46	12095.89
477.64	12217.60
477.82	12299.52
478.00	12753.58
478.18	12329.94
478.36	12613.15
478.54	12489.10
478.72	12816.77
478.90	13046.15
479.08	13125.72
479.26	13107.00
479.44	13116.36
479.62	13214.66
479.80	13142.11
479.98	13401.91
480.16	13310.63
480.34	13455.74
480.52	13944.91
480.70	13795.12
480.88	13832.57
481.06	13914.48
481.24	13958.96
481.41	14193.01
481.59	14193.01
481.77	14483.24
481.95	14530.05
482.13	14841.34
482.31	14562.81
482.49	14991.13
482.67	14808.57
482.85	15056.67
483.03	14977.09
483.21	15222.84
483.39	15506.05
483.57	15297.74
483.74	15295.40
483.92	15609.03
484.10	15499.03
484.28	15807.98
484.46	16175.44
484.64	16135.65
484.82	16100.55
485.00	16353.32
485.18	16421.20
485.35	16446.94
485.53	15927.35
485.71	16166.08
485.89	16313.53
486.07	16116.93
486.25	16669.30
486.43	16744.19
486.61	16760.58
486.78	17116.34
486.96	17390.18
487.14	17713.17
487.32	17930.84
487.50	17745.94
487.68	18101.70
487.85	17989.36
488.03	18363.84
488.21	18223.41
488.39	18202.35
488.57	18691.52
488.75	18792.16
488.92	19147.92
489.10	19314.10
489.28	19208.78
489.46	19501.34
489.64	19697.95
489.81	20095.84
489.99	20037.33
490.17	20386.07
490.35	20231.59
490.53	20264.36
490.70	20507.77
490.88	20617.78
491.06	20587.35
491.24	20552.24
491.41	20325.21
491.59	20540.54
491.77	20882.26
491.95	20840.13
492.13	21034.39
492.30	21341.00
492.48	21319.94
492.66	21624.21
492.84	21654.64
493.01	22031.46
493.19	22185.94
493.37	22328.71
493.54	22010.40
493.72	22813.20
493.90	22347.44
494.08	23197.05
494.25	23145.56
494.43	22991.08
494.61	23129.17
494.79	23384.29
494.96	23578.56
495.14	23246.20
495.32	23796.23
495.49	23503.66
495.67	23908.57
495.85	23903.89
496.02	24259.65
496.20	24226.89
496.38	24652.86
496.55	24643.50
496.73	25069.48
496.91	24891.60
497.09	25095.22
497.26	25172.46
497.44	24889.26
497.62	24861.17
497.79	25607.80
497.97	25387.79
498.14	25296.51
498.32	25558.65
498.50	25390.13
498.67	25869.94
498.85	25806.75
499.03	26157.83
499.20	26204.64
499.38	26394.22
499.56	26434.01
499.73	26595.51
499.91	26647.00
500.08	26581.46
500.26	26382.52
500.44	26874.03
500.61	26682.11
500.79	26366.13
500.97	26698.49
501.14	27054.25
501.32	27112.77
501.49	27063.61
501.67	27386.61
501.84	27115.11
502.02	27531.72
502.20	27393.63
502.37	27597.26
502.55	27938.97
502.72	27791.52
502.90	28091.11
503.07	27807.90
503.25	28109.83
503.43	27948.34
503.60	28245.58
503.78	27917.91
503.95	28191.75
504.13	28407.08
504.30	28690.29
504.48	28489.00
504.65	28673.90
504.83	29060.09
505.01	28856.46
505.18	29212.23
505.36	28973.49
505.53	29497.77
505.71	29109.24
505.88	29406.49
506.06	29153.71
506.23	29677.99
506.41	29373.72
506.58	29961.20
506.76	30134.40
506.93	29689.70
507.11	29696.72
507.28	29799.70
507.46	30293.55
507.63	30092.27
507.81	30092.27
507.98	30464.41
508.16	30405.90
508.33	30560.37
508.50	30661.02
508.68	30604.84
508.85	31049.55
509.03	30991.03
509.20	31138.49
509.38	31157.21
509.55	31304.67
509.73	31627.66
509.90	31552.76
510.08	31119.76
510.25	31260.20
510.42	31016.78
510.60	32018.53
510.77	31711.92
510.95	32194.07
511.12	32032.57
511.30	31878.10
511.47	32315.78
511.64	32329.82
511.82	32257.26
511.99	32053.64
512.17	32402.38
512.34	31775.11
512.51	32411.74
512.69	32671.54
512.86	32758.14
513.04	32748.78
513.21	32727.71
513.38	32327.48
513.56	32877.51
513.73	32879.85
513.90	32893.89
514.08	33006.23
514.25	33207.52
514.43	33221.56
514.60	33006.23
514.77	32921.98
514.95	33582.01
515.12	33324.55
515.29	33759.89
515.47	34031.39
515.64	34078.20
515.81	33362.00
515.99	33841.81
516.16	33762.23
516.33	33251.99
516.51	33741.16
516.68	33467.32
516.85	33462.64
517.03	33464.98
517.20	33816.06
517.37	34096.92
517.54	34260.76
517.72	34113.31
517.89	33715.42
518.06	33853.51
518.24	34136.71
518.41	33937.77
518.58	34457.37
518.75	34431.62
518.93	34558.01
519.10	34815.47
519.27	35016.75
519.45	34658.65
519.62	35225.06
519.79	35222.72
519.96	35545.72
520.14	35491.88
520.31	35189.95
520.48	35328.05
520.65	35133.78
520.83	36100.42
521.00	35913.18
521.17	35859.35
521.34	35744.66
521.52	36198.73
521.69	36233.83
521.86	36004.46
522.03	36023.19
522.20	36032.55
522.38	36463.21
522.55	36610.66
522.72	36313.41
522.89	36046.59
523.07	36297.03
523.24	36381.29
523.41	36938.33
523.58	36559.17
523.75	37097.49
523.92	36744.07
524.10	37036.64
524.27	37207.50
524.44	36711.30
524.61	37544.53
524.78	37289.42
524.96	37167.71
525.13	37914.34
525.30	37731.78
525.47	37476.66
525.64	37556.24
525.81	37427.51
525.98	37556.24
526.16	37532.83
526.33	37165.37
526.50	37378.36
526.67	37228.56
526.84	37074.09
527.01	37584.32
527.18	37846.46
527.36	38178.82
527.53	38073.49
527.70	38508.83
527.87	38213.93
528.04	38258.40
528.21	38298.19
528.38	38286.48
528.55	38768.63
528.72	38625.86
528.89	38958.22
529.07	38312.23
529.24	38490.11
529.41	38885.66
529.58	38553.30
529.75	38892.68
529.92	39131.42
530.09	39077.58
530.26	39208.65
530.43	39077.58
530.60	38946.51
530.77	39576.12
530.94	39229.72
531.11	39402.92
531.28	39328.02
531.46	39789.11
531.63	39508.24
531.80	39564.42
531.97	39274.19
532.14	39222.70
532.31	39269.51
532.48	39533.99
532.65	39239.08
532.82	38976.94
532.99	39578.46
533.16	39889.75
533.33	40013.80
533.50	39714.21
533.67	39665.06
533.84	39597.18
534.01	40128.48
534.18	39484.84
534.35	40301.68
534.52	40292.32
534.69	39988.05
534.86	40603.61
535.03	40294.66
535.20	40453.82
535.37	40584.89
535.54	40783.83
535.71	40678.51
535.88	40797.88
536.05	40748.73
536.22	40760.43
536.38	40704.26
536.55	40460.84
536.72	40299.34
536.89	40128.48
537.06	40517.01
537.23	40797.88
537.40	40870.43
537.57	40687.87
537.74	40774.47
537.91	41106.83
538.08	41371.31
538.25	40828.30
538.42	41598.34
538.59	41439.18
538.75	40933.63
538.92	41584.30
539.09	41375.99
539.26	41277.69
539.43	41249.60
539.60	41312.80
539.77	41270.67
539.94	41127.89
540.11	41221.52
540.28	41591.32
540.44	41640.47
540.61	41214.49
540.78	41336.20
540.95	41212.15
541.12	41745.80
541.29	41687.28
541.46	42185.82
541.62	41516.42
541.79	41769.20
541.96	41514.08
542.13	41785.58
542.30	42010.28
542.47	41907.29
542.63	42043.04
542.80	42131.98
542.97	42307.52
543.14	42515.83
543.31	42480.72
543.48	42302.84
543.64	42394.12
543.81	42965.21
543.98	42459.66
544.15	42967.55
544.32	42419.87
544.48	43655.67
544.65	42518.17
544.82	42466.68
544.99	42323.91
545.16	42525.19
545.32	42600.09
545.49	42656.26
545.66	43084.58
545.83	42843.51
546.00	42955.85
546.16	42555.62
546.33	42902.02
546.50	42726.48
546.67	42986.28
546.83	42471.36
547.00	43372.47
547.17	42986.28
547.34	42883.30
547.50	42988.62
547.67	43372.47
547.84	43597.16
548.00	43688.44
548.17	43707.16
548.34	43414.60
548.51	43629.93
548.67	43863.98
548.84	43573.75
549.01	43206.29
549.18	43189.91
549.34	43763.34
549.51	43468.43
549.68	43358.42
549.84	43330.34
550.01	43887.39
550.18	43412.26
550.34	43758.66
550.51	44144.84
550.68	44020.80
550.84	43253.10
551.01	43812.49
551.18	43796.10
551.34	43552.69
551.51	44074.63
551.68	44041.86
551.84	43852.28
552.01	44133.14
552.18	43908.45
552.34	43800.79
552.51	44133.14
552.68	44037.18
552.84	44308.68
553.01	44741.68
553.18	44257.19
553.34	44636.36
553.51	44339.11
553.67	44495.92
553.84	44509.97
554.01	45045.95
554.17	44561.46
554.34	44479.54
554.51	44612.95
554.67	44605.93
554.84	45052.97
555.00	44119.10
555.17	44428.05
555.33	43920.15
555.50	44666.78
555.67	44594.23
555.83	44617.63
556.00	44610.61
556.16	44987.44
556.33	44657.42
556.50	44526.35
556.66	45141.91
556.83	44172.93
556.99	44645.72
557.16	44947.65
557.32	44786.15
557.49	44694.87
557.65	44587.21
557.82	45048.29
557.98	44961.69
558.15	44626.99
558.32	44879.77
558.48	45088.08
558.65	44715.93
558.81	44856.37
558.98	44809.56
559.14	44814.24
559.31	44641.04
559.47	45020.20
559.64	45193.40
559.80	44818.92
559.97	45155.96
560.13	44397.62
560.30	45067.02
560.46	45610.02
560.63	45277.66
560.79	45354.90
560.96	45462.57
561.12	45146.59
561.29	44818.92
561.45	45006.16
561.61	45223.83
561.78	45261.28
561.94	45141.91
562.11	45006.16
562.27	45411.07
562.44	45043.61
562.60	45247.24
562.77	45628.74
562.93	45284.68
563.10	45684.92
563.26	45191.06
563.42	45425.12
563.59	45457.88
563.75	45282.34
563.92	45514.06
564.08	45495.33
564.24	45518.74
564.41	45453.20
564.57	45448.52
564.74	45261.28
564.90	45523.42
565.07	45261.28
565.23	45989.19
565.39	45656.83
565.56	45635.77
565.72	44753.38
565.88	45015.52
566.05	45195.74
566.21	45071.70
566.38	45565.55
566.54	45521.08
566.70	45839.39
566.87	45553.85
567.03	45748.11
567.19	46052.38
567.36	45769.18
567.52	45731.73
567.68	45830.03
567.85	45701.30
568.01	45970.46
568.17	45382.99
568.34	46181.11
568.50	45832.37
568.66	45242.56
568.83	45626.40
568.99	45067.02
569.15	45914.29
569.32	45518.74
569.48	45488.31
569.64	46003.23
569.81	46202.18
569.97	45603.00
570.13	45308.09
570.30	45464.91
570.46	45530.44
570.62	45439.16
570.78	45577.25
570.95	45467.25
571.11	45881.52
571.27	45481.29
571.43	45294.05
571.60	45872.16
571.76	45528.10
571.92	45677.90
572.09	45895.56
572.25	45696.62
572.41	46021.95
572.57	46429.21
572.74	46363.67
572.90	46059.40
573.06	45544.48
573.22	46040.68
573.38	45872.16
573.55	45785.56
573.71	45947.06
573.87	46246.65
574.03	45553.85
574.20	45563.21
574.36	45713.00
574.52	45897.91
574.68	45935.35
574.84	46012.59
575.01	46047.70
575.17	45570.23
575.33	45406.39
575.49	45741.09
575.65	46103.87
575.82	45769.18
575.98	45776.20
576.14	45757.47
576.30	45886.20
576.46	45911.95
576.62	46103.87
576.79	45839.39
576.95	45848.75
577.11	45418.10
577.27	45790.24
577.43	45673.21
577.59	45930.67
577.75	45612.36
577.92	45333.84
578.08	45474.27
578.24	45420.44
578.40	45525.76
578.56	45888.54
578.72	45759.81
578.88	46244.30
579.04	45933.01
579.21	45521.08
579.37	45940.04
579.53	46167.07
579.69	45390.01
579.85	45708.32
580.01	45827.69
580.17	45792.58
580.33	45619.38
580.49	46162.39
580.65	46232.60
580.82	46047.70
580.98	45944.72
581.14	45698.96
581.30	45918.97
581.46	46146.00
581.62	46131.96
581.78	45893.22
581.94	46206.86
582.10	45867.48
582.26	46028.98
582.42	45998.55
582.58	45904.93
582.74	46312.18
582.90	46218.56
583.06	45750.45
583.22	46106.21
583.38	46525.17
583.54	45947.06
583.70	46209.20
583.86	45986.85
584.02	45818.33
584.18	45769.18
584.34	46007.91
584.50	45991.53
584.66	46043.02
584.82	45734.07
584.98	46445.59
585.14	45911.95
585.30	46183.45
585.46	45581.93
585.62	45291.71
585.78	45832.37
585.94	45492.99
586.10	45340.86
586.26	45530.44
586.42	45743.43
586.58	46302.82
586.74	46450.27
586.90	45755.13
587.06	46019.61
587.22	46244.30
587.38	45778.54
587.54	46160.05
587.70	45762.15
587.86	46033.66
588.02	45652.15
588.18	46005.57
588.34	45570.23
588.49	45404.05
588.65	45696.62
588.81	45670.87
588.97	45825.35
589.13	45542.14
589.29	45497.67
589.45	45453.20
589.61	46124.94
589.77	46223.24
589.93	46164.73
590.08	45839.39
