SpectraSuite Data File
++++++++++++++++++++++++++++++++++++
Date: Fri Oct 25 11:34:45 EDT 2013
User: price-jones
Dark Spectrum Present: No
Reference Spectrum Present: No
Number of Sampled Component Spectra: 1
Spectrometers: USB2+H05261
Integration Time (usec): 100000 (USB2+H05261)
Spectra Averaged: 1 (USB2+H05261)
Boxcar Smoothing: 0 (USB2+H05261)
Correct for Electrical Dark: No (USB2+H05261)
Strobe/Lamp Enabled: No (USB2+H05261)
Correct for Detector Non-linearity: No (USB2+H05261)
Correct for Stray Light: No (USB2+H05261)
Number of Pixels in Processed Spectrum: 2048
>>>>>Begin Processed Spectral Data<<<<<
365.73	297.25
365.92	297.25
366.12	297.25
366.32	166.18
366.52	205.97
366.72	217.67
366.91	201.29
367.11	220.01
367.31	187.24
367.51	210.65
367.70	184.90
367.90	243.42
368.10	177.88
368.30	168.52
368.49	133.41
368.69	208.31
368.89	243.42
369.09	222.35
369.28	189.58
369.48	194.26
369.68	217.67
369.87	255.12
370.07	205.97
370.27	250.44
370.47	341.72
370.66	447.04
370.86	491.51
371.06	578.11
371.25	550.03
371.45	507.90
371.65	535.98
371.84	571.09
372.04	571.09
372.24	575.77
372.44	559.39
372.63	631.94
372.83	589.82
373.03	484.49
373.22	589.82
373.42	620.24
373.62	631.94
373.81	594.50
374.01	669.39
374.21	601.52
374.40	620.24
374.60	681.10
374.79	606.20
374.99	615.56
375.19	641.31
375.38	676.41
375.58	641.31
375.78	641.31
375.97	711.52
376.17	660.03
376.37	634.29
376.56	641.31
376.76	636.63
376.95	636.63
377.15	678.76
377.35	697.48
377.54	664.71
377.74	678.76
377.93	664.71
378.13	683.44
378.33	725.57
378.52	706.84
378.72	643.65
378.91	716.20
379.11	617.90
379.31	657.69
379.50	634.29
379.70	662.37
379.89	720.88
380.09	716.20
380.28	681.10
380.48	758.33
380.68	744.29
380.87	702.16
381.07	744.29
381.26	849.61
381.46	802.80
381.65	655.35
381.85	765.36
382.04	786.42
382.24	784.08
382.43	713.86
382.63	770.04
382.83	763.01
383.02	809.83
383.22	744.29
383.41	734.93
383.61	767.70
383.80	807.48
384.00	814.51
384.19	748.97
384.39	758.33
384.58	809.83
384.78	819.19
384.97	795.78
385.17	849.61
385.36	802.80
385.56	898.77
385.75	814.51
385.95	784.08
386.14	882.38
386.34	767.70
386.53	912.81
386.72	802.80
386.92	868.34
387.11	922.17
387.31	891.74
387.50	875.36
387.70	835.57
387.89	873.02
388.09	898.77
388.28	809.83
388.48	978.34
388.67	922.17
388.86	875.36
389.06	809.83
389.25	952.60
389.45	983.02
389.64	910.47
389.84	950.26
390.03	943.24
390.22	880.04
390.42	961.96
390.61	966.64
390.81	898.77
391.00	947.92
391.19	912.81
391.39	980.68
391.58	950.26
391.78	959.62
391.97	1004.09
392.16	1011.11
392.36	1015.79
392.55	1109.41
392.75	1060.26
392.94	959.62
393.13	959.62
393.33	959.62
393.52	1060.26
393.71	1125.80
393.91	990.05
394.10	1071.97
394.29	1118.78
394.49	1015.79
394.68	1107.07
394.88	1151.54
395.07	1090.69
395.26	1107.07
395.46	1088.35
395.65	1158.57
395.84	1116.44
396.04	1128.14
396.23	1095.37
396.42	1139.84
396.62	1177.29
396.81	1146.86
397.00	1191.33
397.19	1256.87
397.39	1256.87
397.58	1149.20
397.77	1235.80
397.97	1179.63
398.16	1320.06
398.35	1249.85
398.55	1203.04
398.74	1338.79
398.93	1277.93
399.12	1287.29
399.32	1231.12
399.51	1231.12
399.70	1362.19
399.90	1263.89
400.09	1352.83
400.28	1334.11
400.47	1294.32
400.67	1301.34
400.86	1273.25
401.05	1432.41
401.24	1373.89
401.44	1394.96
401.63	1371.55
401.82	1373.89
402.01	1387.94
402.21	1453.47
402.40	1392.62
402.59	1416.02
402.78	1385.60
402.97	1355.17
403.17	1437.09
403.36	1514.33
403.55	1437.09
403.74	1586.88
403.93	1497.94
404.13	1575.18
404.32	1565.82
404.51	1579.86
404.70	1685.19
404.89	1577.52
405.09	1612.63
405.28	1537.73
405.47	1621.99
405.66	1685.19
405.85	1652.42
406.05	1699.23
406.24	1619.65
406.43	1659.44
406.62	1727.32
406.81	1799.87
407.00	1682.85
407.20	1619.65
407.39	1732.00
407.58	1743.70
407.77	1750.72
407.96	1816.26
408.15	1888.81
408.34	1750.72
408.54	1856.04
408.73	1849.02
408.92	1792.85
409.11	1895.83
409.30	1818.60
409.49	1923.92
409.68	1907.54
409.87	1952.01
410.07	1977.75
410.26	1968.39
410.45	1914.56
410.64	1961.37
410.83	2033.93
411.02	1959.03
411.21	2050.31
411.40	1996.48
411.59	2059.67
411.78	2108.82
411.98	2153.29
412.17	2230.53
412.36	2172.02
412.55	2188.40
412.74	2183.72
412.93	2216.49
413.12	2286.70
413.31	2326.49
413.50	2188.40
413.69	2251.60
413.88	2361.60
414.07	2420.11
414.26	2375.64
414.45	2356.92
414.64	2413.09
414.83	2523.10
415.02	2527.78
415.22	2490.33
415.41	2553.52
415.60	2574.59
415.79	2544.16
415.98	2614.38
416.17	2516.08
416.36	2614.38
416.55	2605.02
416.74	2705.66
416.93	2628.42
417.12	2724.38
417.31	2677.57
417.50	2649.49
417.69	2780.56
417.88	2850.77
418.07	2911.63
418.26	2911.63
418.45	2892.90
418.64	2925.67
418.83	2841.41
419.02	2953.76
419.21	3007.59
419.39	3035.67
419.58	2970.14
419.77	2928.01
419.96	2942.05
420.15	3016.95
420.34	2892.90
420.53	2963.12
420.72	3063.76
420.91	3070.78
421.10	3080.14
421.29	3176.11
421.48	3073.12
421.67	3180.79
421.86	3220.58
422.05	3201.85
422.24	3091.85
422.43	3192.49
422.61	3227.60
422.80	3290.79
422.99	3204.19
423.18	3269.73
423.37	3220.58
423.56	3234.62
423.75	3220.58
423.94	3176.11
424.13	2963.12
424.32	3145.68
424.50	3307.18
424.69	3248.66
424.88	3351.65
425.07	3246.32
425.26	3208.87
425.45	3379.73
425.64	3243.98
425.83	3155.04
426.01	3391.44
426.20	3379.73
426.39	3258.03
426.58	3309.52
426.77	3293.13
426.96	3323.56
427.15	3300.16
427.33	3361.01
427.52	3337.60
427.71	3421.86
427.90	3346.97
428.09	3606.77
428.28	3478.04
428.46	3424.20
428.65	3466.33
428.84	3658.26
429.03	3545.91
429.22	3435.91
429.40	3581.02
429.59	3428.88
429.78	3391.44
429.97	3391.44
430.16	3562.30
430.34	3618.47
430.53	3726.13
430.72	3772.94
430.91	3740.18
431.10	3794.01
431.28	3772.94
431.47	3749.54
431.66	3676.98
431.85	3815.07
432.03	3896.99
432.22	3801.03
432.41	3740.18
432.60	3901.67
432.79	3861.88
432.97	3880.61
433.16	3796.35
433.35	4002.32
433.54	4049.13
433.72	3953.16
433.91	3913.38
434.10	3908.69
434.28	3988.27
434.47	3974.23
434.66	4074.87
434.85	4088.92
435.03	4056.15
435.22	4177.86
435.41	4035.08
435.59	4009.34
435.78	4131.05
435.97	4189.56
436.16	4215.30
436.34	4131.05
436.53	3999.98
436.72	4250.41
436.90	4152.11
437.09	4287.86
437.28	4198.92
437.46	4344.03
437.65	4273.82
437.84	4484.47
438.02	4547.66
438.21	4416.59
438.40	4372.12
438.58	4606.17
438.77	4526.60
438.96	4505.53
439.14	4512.55
439.33	4746.61
439.52	4608.51
439.70	4678.73
439.89	4840.23
440.08	4748.95
440.26	4603.83
440.45	4716.18
440.63	4720.86
440.82	4943.21
441.01	4854.27
441.19	4940.87
441.38	4985.34
441.57	5013.43
441.75	4994.70
441.94	5139.82
442.12	5085.98
442.31	5198.33
442.50	5022.79
442.68	5100.03
442.87	5249.82
443.05	5167.90
443.24	5200.67
443.43	5263.86
443.61	5203.01
443.80	5392.59
443.98	5132.79
444.17	5172.58
444.35	5273.23
444.54	5263.86
444.73	5313.02
444.91	5160.88
445.10	5298.97
445.28	5217.05
445.47	5387.91
445.65	5329.40
445.84	5385.57
446.02	5528.35
446.21	5275.57
446.39	5348.12
446.58	5411.32
446.77	5509.62
446.95	5366.85
447.14	5373.87
447.32	5320.04
447.51	5380.89
447.69	5416.00
447.88	5334.08
448.06	5526.00
448.25	5575.16
448.43	5493.24
448.62	5593.88
448.80	5523.66
448.99	5500.26
449.17	5636.01
449.36	5483.88
449.54	5664.10
449.73	5619.63
449.91	5830.27
450.10	5825.59
450.28	5790.49
450.46	5741.33
450.65	5652.39
450.83	5849.00
451.02	5886.45
451.20	5881.77
451.39	5856.02
451.57	5905.17
451.76	5799.85
451.94	5947.30
452.13	5900.49
452.31	5841.98
452.49	5928.58
452.68	6024.54
452.86	5980.07
453.05	6169.65
453.23	6066.67
453.42	5942.62
453.60	5905.17
453.78	6129.86
453.97	5830.27
454.15	5902.83
454.34	5959.00
454.52	6211.78
454.70	6087.73
454.89	6108.80
455.07	6209.44
455.26	6141.57
455.44	6431.79
455.62	6396.68
455.81	6305.40
455.99	6590.95
456.17	6394.34
456.36	6399.02
456.54	6380.30
456.73	6656.48
456.91	6693.93
457.09	6707.98
457.28	6689.25
457.46	6609.67
457.64	6604.99
457.83	6548.82
458.01	6668.19
458.19	6803.94
458.38	6761.81
458.56	6956.07
458.74	6623.72
458.93	6817.98
459.11	6707.98
459.29	6904.58
459.48	6953.73
459.66	6808.62
459.84	6986.50
460.03	7094.16
460.21	7007.56
460.39	6916.28
460.57	7080.12
460.76	7148.00
460.94	7054.37
461.12	7028.63
461.31	7096.50
461.49	7258.00
461.67	7178.42
461.85	7194.81
462.04	7258.00
462.22	7480.35
462.40	7379.71
462.59	7391.41
462.77	7585.68
462.95	7311.83
463.13	7330.56
463.32	7489.71
463.50	7353.96
463.68	7503.76
463.86	7515.46
464.05	7213.53
464.23	7372.69
464.41	7651.21
464.59	7473.33
464.78	7616.10
464.96	7513.12
465.14	7571.63
465.32	7597.38
465.50	7641.85
465.69	7674.62
465.87	7571.63
466.05	7566.95
466.23	7756.54
466.41	7632.49
466.60	7955.48
466.78	7967.18
466.96	7700.36
467.14	7892.29
467.32	7688.66
467.51	7978.89
467.69	7531.84
467.87	7953.14
468.05	7878.24
468.23	7974.21
468.41	7939.10
468.60	7864.20
468.78	8025.70
468.96	8018.68
469.14	8182.51
469.32	8093.57
469.50	7871.22
469.69	8262.09
469.87	8196.56
470.05	8257.41
470.23	8238.69
470.41	8208.26
470.59	8360.39
470.77	8463.38
470.95	8109.96
471.14	8641.26
471.32	8140.38
471.50	8638.92
471.68	8744.24
471.86	8404.86
472.04	8711.47
472.22	8877.65
472.40	8538.27
472.58	8725.52
472.77	8975.95
472.95	8842.54
473.13	9074.26
473.31	8901.06
473.49	8910.42
473.67	8865.95
473.85	8978.30
474.03	9348.10
474.21	9088.30
474.39	9392.57
474.57	9336.40
474.75	9355.12
474.93	9308.31
475.12	9263.84
475.30	9605.56
475.48	9525.98
475.66	9554.07
475.84	9542.36
476.02	9626.62
476.20	9617.26
476.38	9750.67
476.56	10066.64
476.74	10036.22
476.92	9893.44
477.10	9998.77
477.28	10076.01
477.46	10003.45
477.64	10223.46
477.82	10380.28
478.00	10333.47
478.18	10492.62
478.36	10579.22
478.54	10771.15
478.72	10766.46
478.90	10862.43
479.08	11143.29
479.26	10930.30
479.44	11185.42
479.62	11021.58
479.80	11250.96
479.98	11360.96
480.16	11611.40
480.34	11311.81
480.52	11616.08
480.70	11358.62
480.88	11492.03
481.06	11721.40
481.24	11992.90
481.41	11859.49
481.59	11915.67
481.77	12208.23
481.95	12147.38
482.13	12308.88
482.31	12133.34
482.49	12510.16
482.67	12666.98
482.85	12702.09
483.03	13074.23
483.21	12786.35
483.39	13027.42
483.57	13055.51
483.74	13179.56
483.92	13146.79
484.10	13191.26
484.28	13336.37
484.46	13694.47
484.64	13741.29
484.82	13635.96
485.00	13813.84
485.18	14150.88
485.35	14183.65
485.53	14106.41
485.71	14331.10
485.89	14504.30
486.07	14342.80
486.25	14684.52
486.43	14492.60
486.61	14934.96
486.78	14773.46
486.96	14836.66
487.14	15290.72
487.32	15342.21
487.50	15297.74
487.68	15410.09
487.85	15976.50
488.03	15803.30
488.21	16140.33
488.39	16027.99
488.57	16348.64
488.75	15929.69
488.92	16713.77
489.10	16538.23
489.28	16919.73
489.46	16830.79
489.64	17003.99
489.81	16943.14
489.99	17090.59
490.17	17071.87
490.35	17387.84
490.53	17453.37
490.70	17589.13
490.88	17692.11
491.06	17820.84
491.24	17635.94
491.41	18064.25
491.59	18033.83
491.77	18073.62
491.95	18352.14
492.13	18654.07
492.30	18448.10
492.48	18647.05
492.66	18780.46
492.84	18864.72
493.01	19000.47
493.19	19185.37
493.37	19220.48
493.54	19056.64
493.72	19300.06
493.90	19278.99
494.08	19660.50
494.25	20051.37
494.43	20030.30
494.61	19983.49
494.79	20219.89
494.96	20084.14
495.14	20114.56
495.32	20657.57
495.49	20278.40
495.67	20519.48
495.85	20996.95
496.02	20957.16
496.20	21167.80
496.38	20954.82
496.55	21247.38
496.73	21706.13
496.91	21687.40
497.09	21582.08
497.26	21546.97
497.44	21750.60
497.62	21678.04
497.79	21940.18
497.97	21858.26
498.14	22249.13
498.32	22532.34
498.50	22059.55
498.67	22813.20
498.85	22551.06
499.03	22586.17
499.20	22689.15
499.38	22993.42
499.56	23187.69
499.73	23058.96
499.91	22979.38
500.08	23587.92
500.26	23147.90
500.44	23349.18
500.61	23344.50
500.79	23421.74
500.97	23531.75
501.14	23814.95
501.32	23721.33
501.49	23557.49
501.67	24020.92
501.84	24114.54
502.02	24023.26
502.20	24025.60
502.37	24372.00
502.55	24294.76
502.72	24673.93
502.90	24236.25
503.07	24411.79
503.25	24599.03
503.43	24531.15
503.60	24940.75
503.78	25090.54
503.95	24765.21
504.13	25160.76
504.30	25088.20
504.48	25221.61
504.65	25369.07
504.83	25455.67
505.01	25532.90
505.18	25514.18
505.36	26085.27
505.53	25572.69
505.71	26043.14
505.88	25802.07
506.06	25914.41
506.23	25993.99
506.41	26078.25
506.58	25930.80
506.76	26366.13
506.93	26581.46
507.11	26286.56
507.28	26448.05
507.46	26387.20
507.63	26457.42
507.81	26792.11
507.98	26424.65
508.16	26859.99
508.33	27016.80
508.50	27098.72
508.68	27360.86
508.85	26902.12
509.03	27180.64
509.20	27096.38
509.38	27625.34
509.55	27697.90
509.73	27676.83
509.90	27754.07
510.08	27810.25
510.25	28006.85
510.42	27789.18
510.60	28458.57
510.77	28114.52
510.95	28437.51
511.12	27824.29
511.30	28252.61
511.47	28526.45
511.64	28280.69
511.82	28875.19
511.99	28318.14
512.17	29006.26
512.34	28533.47
512.51	29078.82
512.69	29324.57
512.86	28982.85
513.04	28947.75
513.21	29039.03
513.38	29113.92
513.56	29799.70
513.73	29198.18
513.90	29387.77
514.08	29214.57
514.25	29638.20
514.43	29757.57
514.60	29893.32
514.77	29790.34
514.95	29869.92
515.12	29677.99
515.29	29926.09
515.47	30101.63
515.64	30157.80
515.81	30188.23
515.99	30391.86
516.16	30541.65
516.33	30909.11
516.51	30998.06
516.68	30230.36
516.85	30632.93
517.03	30831.88
517.20	30579.10
517.37	30677.40
517.54	30813.15
517.72	31047.21
517.89	31557.44
518.06	31381.90
518.24	30991.03
518.41	31447.44
518.58	31253.17
518.75	31161.89
518.93	31768.09
519.10	31105.72
519.27	31557.44
519.45	31531.70
519.62	31922.57
519.79	31938.95
519.96	31740.00
520.14	32058.32
520.31	31861.71
520.48	32215.13
520.65	31910.86
520.83	32374.29
521.00	32367.27
521.17	32311.10
521.34	32198.75
521.52	32603.66
521.69	32708.99
521.86	32400.04
522.03	32856.44
522.20	33301.14
522.38	33202.84
522.55	33373.70
522.72	33177.09
522.89	33429.87
523.07	33085.81
523.24	33137.30
523.41	33226.24
523.58	33024.96
523.75	33638.18
523.92	33577.33
524.10	33596.05
524.27	33514.13
524.44	33329.23
524.61	33420.51
524.78	33457.96
524.96	33888.62
525.13	33944.79
525.30	34157.78
525.47	34050.11
525.64	34284.17
525.81	34195.23
525.98	34316.93
526.16	34115.65
526.33	34363.75
526.50	34677.38
526.67	34174.16
526.84	34375.45
527.01	34448.00
527.18	34782.70
527.36	34902.07
527.53	34827.17
527.70	35040.16
527.87	35201.66
528.04	34368.43
528.21	35072.93
528.38	35012.07
528.55	35037.82
528.72	35339.75
528.89	35218.04
529.07	35204.00
529.24	34958.24
529.41	35023.78
529.58	35234.42
529.75	34731.21
529.92	35435.71
530.09	35218.04
530.26	35299.96
530.43	35276.55
530.60	35442.73
530.77	35356.13
530.94	35880.41
531.11	35695.51
531.28	35800.83
531.46	35920.20
531.63	35693.17
531.80	35896.80
531.97	36439.80
532.14	35765.73
532.31	36144.89
532.48	36699.60
532.65	36367.24
532.82	36226.81
532.99	36591.94
533.16	36172.98
533.33	36470.23
533.50	36510.02
533.67	36540.44
533.84	36348.52
534.01	36711.30
534.18	36711.30
534.35	36914.93
534.52	37223.88
534.69	36884.50
534.86	37017.91
535.03	36807.26
535.20	37371.33
535.37	37378.36
535.54	37099.83
535.71	37024.93
535.88	37514.11
536.05	37188.77
536.22	37322.18
536.38	37282.39
536.55	37696.67
536.72	37603.05
536.89	37151.32
537.06	37603.05
537.23	37490.70
537.40	37420.48
537.57	37614.75
537.74	37638.15
537.91	37654.54
538.08	37563.26
538.25	38127.33
538.42	37778.59
538.59	37989.24
538.75	37930.72
538.92	38052.43
539.09	38206.90
539.26	38106.26
539.43	38127.33
539.60	38326.27
539.77	38646.93
539.94	38675.01
540.11	38064.13
540.28	38761.61
540.44	38518.20
540.61	38387.13
540.78	37769.22
540.95	38440.96
541.12	38382.45
541.29	38501.81
541.46	38806.08
541.62	38876.30
541.79	38988.64
541.96	38696.08
542.13	39047.16
542.30	38747.57
542.47	38632.88
542.63	39047.16
542.80	39187.59
542.97	39002.69
543.14	40002.10
543.31	39438.03
543.48	39105.67
543.64	39948.26
543.81	39564.42
543.98	39723.57
544.15	39959.97
544.32	40144.87
544.48	39695.49
544.65	39812.51
544.82	39641.65
544.99	39831.24
545.16	40154.23
545.32	39793.79
545.49	40271.26
545.66	40119.12
545.83	40006.78
546.00	40561.48
546.16	39873.37
546.33	40336.79
546.50	40076.99
546.67	40287.64
546.83	40032.52
547.00	40002.10
547.17	40048.91
547.34	40051.25
547.50	40528.72
547.67	40423.39
547.84	40659.79
548.00	40671.49
548.17	41083.42
548.34	40753.41
548.51	40601.27
548.67	41038.95
548.84	40762.77
549.01	40959.38
549.18	40779.15
549.34	41263.64
549.51	41713.03
549.68	40634.04
549.84	41146.62
550.01	41265.99
550.18	41235.56
550.34	40950.01
550.51	41036.61
550.68	41333.86
550.84	41137.26
551.01	41446.21
551.18	41013.21
551.34	40891.50
551.51	41865.16
551.68	41296.41
551.84	41567.91
552.01	41404.08
552.18	41298.75
552.34	41125.55
552.51	41205.13
552.68	41486.00
552.84	41584.30
553.01	41804.31
553.18	41532.81
553.34	41560.89
553.51	40907.88
553.67	41713.03
553.84	42148.37
554.01	41773.88
554.17	42206.88
554.34	42487.74
554.51	41902.61
554.67	41972.83
554.84	42375.40
555.00	42579.03
555.17	41792.61
555.33	42073.47
555.50	42019.64
555.67	42197.52
555.83	42080.49
556.00	42529.87
556.16	42923.08
556.33	42707.76
556.50	42658.60
556.66	42630.52
556.83	41951.76
556.99	42272.42
557.16	42525.19
557.32	42682.01
557.49	42892.66
557.65	42700.73
557.82	41944.74
557.98	42780.31
558.15	42450.30
558.32	42782.65
558.48	42623.50
558.65	42810.74
558.81	43012.02
558.98	42871.59
559.14	42667.97
559.31	42424.55
559.47	42693.71
559.64	42600.09
559.80	42518.17
559.97	43037.77
560.13	42836.48
560.30	43201.61
560.46	43704.82
560.63	43217.99
560.79	43138.41
560.96	42944.15
561.12	42857.55
561.29	43068.20
561.45	43313.95
561.61	43098.62
561.78	42745.20
561.94	43014.37
562.11	43524.60
562.27	43264.80
562.44	43124.37
562.60	43147.78
562.77	43489.49
562.93	43260.12
563.10	43622.90
563.26	43269.48
563.42	44172.93
563.59	43262.46
563.75	43147.78
563.92	43758.66
564.08	43751.63
564.24	43356.08
564.41	43154.80
564.57	43859.30
564.74	42930.11
564.90	43475.45
565.07	43412.26
565.23	43768.02
565.39	43620.56
565.56	43838.23
565.72	43325.66
565.88	43751.63
566.05	43529.28
566.21	43906.11
566.38	43583.12
566.54	43779.72
566.70	43824.19
566.87	43999.73
567.03	43634.61
567.19	44041.86
567.36	43466.09
567.52	43915.47
567.68	44186.97
567.85	43765.68
568.01	44076.97
568.17	43768.02
568.34	44184.63
568.50	43997.39
568.66	43920.15
568.83	43889.73
568.99	43742.27
569.15	43550.35
569.32	43777.38
569.48	43721.21
569.64	43941.22
569.81	44044.20
569.97	44002.07
570.13	44374.22
570.30	43480.13
570.46	43992.71
570.62	44069.95
570.78	44128.46
570.95	43885.04
571.11	44825.94
571.27	44348.47
571.43	44016.11
571.60	44203.36
571.76	43840.57
571.92	44020.80
572.09	44374.22
572.25	44339.11
572.41	44219.74
572.57	44285.28
572.74	44266.55
572.90	44463.16
573.06	44495.92
573.22	44423.37
573.38	44521.67
573.55	43990.37
573.71	44360.17
573.87	44467.84
574.03	44439.75
574.20	44818.92
574.36	44596.57
574.52	44460.82
574.68	44507.63
574.84	44418.69
575.01	44886.79
575.17	44570.82
575.33	44512.31
575.49	44601.25
575.65	44545.08
575.82	44404.64
575.98	44636.36
576.14	44858.71
576.30	44828.28
576.46	44816.58
576.62	44678.49
576.79	44765.09
576.95	44289.96
577.11	44304.00
577.27	44168.25
577.43	44524.01
577.59	44308.68
577.75	44479.54
577.92	44210.38
578.08	44336.77
578.24	44353.15
578.40	44811.90
578.56	44671.46
578.72	44446.77
578.88	44987.44
579.04	45062.33
579.21	44589.55
579.37	44753.38
579.53	44720.62
579.69	44823.60
579.85	44280.60
580.01	44411.67
580.17	44121.44
580.33	44818.92
580.49	44720.62
580.65	44931.26
580.82	44334.43
580.98	44542.74
581.14	44622.31
581.30	44924.24
581.46	44301.66
581.62	44713.59
581.78	44533.37
581.94	44619.97
582.10	44575.50
582.26	44470.18
582.42	44847.00
582.58	44357.83
582.74	44580.18
582.90	44786.15
583.06	44842.32
583.22	44414.01
583.38	44608.27
583.54	44601.25
583.70	44568.48
583.86	44772.11
584.02	44863.39
584.18	44797.85
584.34	44704.23
584.50	44931.26
584.66	45296.39
584.82	44910.20
584.98	44912.54
585.14	44935.95
585.30	44388.26
585.46	44830.62
585.62	44935.95
585.78	45219.15
585.94	44961.69
586.10	44942.97
586.26	44673.81
586.42	44713.59
586.58	45022.54
586.74	44734.66
586.90	44636.36
587.06	45188.72
587.22	45160.64
587.38	44610.61
587.54	45464.91
587.70	45230.85
587.86	44966.37
588.02	44643.38
588.18	44631.68
588.34	44928.92
588.49	45067.02
588.65	44931.26
588.81	44634.02
588.97	44617.63
589.13	45057.65
589.29	44926.58
589.45	45418.10
589.61	45160.64
589.77	45200.43
589.93	44868.07
590.08	45151.27
590.24	44989.78
