SpectraSuite Data File
++++++++++++++++++++++++++++++++++++
Date: Fri Oct 25 10:47:19 EDT 2013
User: price-jones
Dark Spectrum Present: No
Reference Spectrum Present: No
Number of Sampled Component Spectra: 1
Spectrometers: USB2+H05261
Integration Time (usec): 100000 (USB2+H05261)
Spectra Averaged: 1 (USB2+H05261)
Boxcar Smoothing: 0 (USB2+H05261)
Correct for Electrical Dark: No (USB2+H05261)
Strobe/Lamp Enabled: No (USB2+H05261)
Correct for Detector Non-linearity: No (USB2+H05261)
Correct for Stray Light: No (USB2+H05261)
Number of Pixels in Processed Spectrum: 2048
>>>>>Begin Processed Spectral Data<<<<<
365.73	133.41
365.92	133.41
366.12	133.41
366.32	77.24
366.52	25.75
366.72	98.30
366.91	84.26
367.11	4.68
367.31	95.96
367.51	21.06
367.70	11.70
367.90	18.72
368.10	86.60
368.30	4.68
368.49	11.70
368.69	7.02
368.89	70.22
369.09	42.13
369.28	81.92
369.48	126.39
369.68	30.43
369.87	79.58
370.07	93.62
370.27	201.29
370.47	175.54
370.66	372.15
370.86	430.66
371.06	425.98
371.25	444.70
371.45	514.92
371.65	521.94
371.84	425.98
372.04	351.08
372.24	409.59
372.44	489.17
372.63	564.07
372.83	470.45
373.03	498.53
373.22	470.45
373.42	517.26
373.62	526.62
373.81	521.94
374.01	505.56
374.21	510.24
374.40	521.94
374.60	580.45
374.79	566.41
374.99	540.66
375.19	524.28
375.38	479.81
375.58	601.52
375.78	645.99
375.97	491.51
376.17	746.63
376.37	596.84
376.56	559.39
376.76	582.79
376.95	547.69
377.15	566.41
377.35	561.73
377.54	617.90
377.74	648.33
377.93	564.07
378.13	585.13
378.33	645.99
378.52	564.07
378.72	732.59
378.91	636.63
379.11	620.24
379.31	585.13
379.50	634.29
379.70	617.90
379.89	606.20
380.09	622.58
380.28	681.10
380.48	624.92
380.68	655.35
380.87	650.67
381.07	641.31
381.26	711.52
381.46	741.95
381.65	589.82
381.85	655.35
382.04	655.35
382.24	699.82
382.43	716.20
382.63	772.38
382.83	695.14
383.02	730.25
383.22	671.73
383.41	723.23
383.61	760.67
383.80	706.84
384.00	786.42
384.19	730.25
384.39	678.76
384.58	645.99
384.78	662.37
384.97	753.65
385.17	699.82
385.36	734.93
385.56	690.46
385.75	676.41
385.95	774.72
386.14	755.99
386.34	702.16
386.53	720.88
386.72	709.18
386.92	814.51
387.11	746.63
387.31	737.27
387.50	695.14
387.70	788.76
387.89	826.21
388.09	788.76
388.28	807.48
388.48	779.40
388.67	849.61
388.86	856.64
389.06	821.53
389.25	905.79
389.45	875.36
389.64	884.72
389.84	863.66
390.03	924.51
390.22	938.55
390.42	901.11
390.61	844.93
390.81	954.94
391.00	894.08
391.19	924.51
391.39	889.40
391.58	877.70
391.78	863.66
391.97	983.02
392.16	959.62
392.36	1001.75
392.55	980.68
392.75	940.90
392.94	968.98
393.13	976.00
393.33	971.32
393.52	1011.11
393.71	985.37
393.91	1029.84
394.10	1027.50
394.29	1018.13
394.49	968.98
394.68	997.07
394.88	1013.45
395.07	1090.69
395.26	1025.15
395.46	1132.82
395.65	999.41
395.84	1046.22
396.04	1191.33
396.23	1090.69
396.42	1153.88
396.62	1128.14
396.81	1170.27
397.00	1125.80
397.19	1067.28
397.39	1259.21
397.58	1240.48
397.77	1144.52
397.97	1165.59
398.16	1193.67
398.35	1268.57
398.55	1139.84
398.74	1338.79
398.93	1261.55
399.12	1334.11
399.32	1289.64
399.51	1235.80
399.70	1256.87
399.90	1263.89
400.09	1275.59
400.28	1259.21
400.47	1397.30
400.67	1500.28
400.86	1378.58
401.05	1362.19
401.24	1495.60
401.44	1416.02
401.63	1359.85
401.82	1345.81
402.01	1399.64
402.21	1467.52
402.40	1495.60
402.59	1336.45
402.78	1437.09
402.97	1423.05
403.17	1476.88
403.36	1523.69
403.55	1544.75
403.74	1511.99
403.93	1554.12
404.13	1533.05
404.32	1565.82
404.51	1617.31
404.70	1437.09
404.89	1570.50
405.09	1713.27
405.28	1568.16
405.47	1554.12
405.66	1682.85
405.85	1605.61
406.05	1755.40
406.24	1610.29
406.43	1561.14
406.62	1750.72
406.81	1802.21
407.00	1706.25
407.20	1626.67
407.39	1680.50
407.58	1741.36
407.77	1762.42
407.96	1823.28
408.15	1933.28
408.34	1778.81
408.54	1849.02
408.73	1893.49
408.92	1900.52
409.11	1900.52
409.30	1940.30
409.49	2031.58
409.68	1954.35
409.87	1989.46
410.07	2010.52
410.26	1963.71
410.45	1982.43
410.64	2047.97
410.83	2122.87
411.02	2078.40
411.21	2122.87
411.40	2146.27
411.59	2225.85
411.78	2272.66
411.98	2188.40
412.17	2282.02
412.36	2349.90
412.55	2244.57
412.74	2202.44
412.93	2221.17
413.12	2265.64
413.31	2471.61
413.50	2347.56
413.69	2464.58
413.88	2319.47
414.07	2366.28
414.26	2429.48
414.45	2593.31
414.64	2415.43
414.83	2619.06
415.02	2621.40
415.22	2619.06
415.41	2574.59
415.60	2637.78
415.79	2715.02
415.98	2775.88
416.17	2745.45
416.36	2708.00
416.55	2686.94
416.74	2729.06
416.93	2789.92
417.12	2864.82
417.31	2918.65
417.50	2876.52
417.69	3117.59
417.88	3038.02
418.07	2946.73
418.26	2935.03
418.45	3091.85
418.64	2993.55
418.83	2995.89
419.02	3117.59
419.21	3201.85
419.39	3105.89
419.58	2956.10
419.77	3038.02
419.96	3138.66
420.15	3180.79
420.34	3197.17
420.53	3075.46
420.72	3253.34
420.91	3300.16
421.10	3206.53
421.29	3323.56
421.48	3218.24
421.67	3274.41
421.86	3358.67
422.05	3314.20
422.24	3225.26
422.43	3370.37
422.61	3393.78
422.80	3353.99
422.99	3442.93
423.18	3440.59
423.37	3363.35
423.56	3520.17
423.75	3286.11
423.94	3351.65
424.13	3307.18
424.32	3325.90
424.50	3440.59
424.69	3480.38
424.88	3459.31
425.07	3501.44
425.26	3398.46
425.45	3449.95
425.64	3368.03
425.83	3417.18
426.01	3412.50
426.20	3405.48
426.39	3515.48
426.58	3473.36
426.77	3454.63
426.96	3466.33
427.15	3468.67
427.33	3492.08
427.52	3531.87
427.71	3506.12
427.90	3564.64
428.09	3440.59
428.28	3644.21
428.46	3499.10
428.65	3613.79
428.84	3719.11
429.03	3747.20
429.22	3585.70
429.40	3531.87
429.59	3707.41
429.78	3489.74
429.97	3405.48
430.16	3632.51
430.34	3707.41
430.53	3747.20
430.72	3850.18
430.91	3857.20
431.10	3840.82
431.28	4004.66
431.47	4081.89
431.66	4016.36
431.85	3936.78
432.03	3981.25
432.22	4018.70
432.41	3948.48
432.60	3992.95
432.79	4004.66
432.97	4133.39
433.16	4102.96
433.35	4114.66
433.54	4053.81
433.72	4086.58
433.91	3936.78
434.10	4098.28
434.28	4229.35
434.47	4245.73
434.66	4264.46
434.85	4161.47
435.03	4229.35
435.22	4374.46
435.41	4486.81
435.59	4414.25
435.78	4432.97
435.97	4400.21
436.16	4454.04
436.34	4484.47
436.53	4386.16
436.72	4636.60
436.90	4468.08
437.09	4521.92
437.28	4545.32
437.46	4449.36
437.65	4493.83
437.84	4622.56
438.02	4575.75
438.21	4603.83
438.40	4571.07
438.58	4770.01
438.77	4643.62
438.96	4638.94
439.14	4716.18
439.33	4854.27
439.52	4812.14
439.70	4936.19
439.89	5001.72
440.08	4919.81
440.26	4936.19
440.45	4947.89
440.63	5013.43
440.82	5219.39
441.01	5130.45
441.19	5151.52
441.38	5284.93
441.57	5350.46
441.75	5369.19
441.94	5416.00
442.12	5404.30
442.31	5423.02
442.50	5308.34
442.68	5420.68
442.87	5444.09
443.05	5446.43
443.24	5427.70
443.43	5631.33
443.61	5575.16
443.80	5685.16
443.98	5327.06
444.17	5500.26
444.35	5563.45
444.54	5544.73
444.73	5551.75
444.91	5668.78
445.10	5577.50
445.28	5626.65
445.47	5621.97
445.65	5568.13
445.84	5685.16
446.02	5689.84
446.21	5556.43
446.39	5727.29
446.58	5870.06
446.77	5776.44
446.95	5636.01
447.14	5720.27
447.32	5783.46
447.51	5694.52
447.69	5650.05
447.88	5757.72
448.06	5867.72
448.25	5799.85
448.43	5727.29
448.62	5865.38
448.80	5860.70
448.99	5888.79
449.17	5895.81
449.36	5858.36
449.54	6157.95
449.73	6043.26
449.91	6104.12
450.10	6047.94
450.28	6286.68
450.46	6333.49
450.65	6080.71
450.83	6225.82
451.02	6279.66
451.20	6090.07
451.39	6143.91
451.57	6092.41
451.76	6237.53
451.94	6087.73
452.13	6326.47
452.31	6204.76
452.49	6207.10
452.68	6443.49
452.86	6291.36
453.05	6466.90
453.23	6359.24
453.42	6265.61
453.60	6321.79
453.78	6366.26
453.97	6384.98
454.15	6274.98
454.34	6490.31
454.52	6562.86
454.70	6303.06
454.89	6663.51
455.07	6410.73
455.26	6682.23
455.44	6473.92
455.62	6623.72
455.81	6670.53
455.99	6745.42
456.17	6827.34
456.36	6649.46
456.54	6813.30
456.73	6754.79
456.91	7030.97
457.09	6953.73
457.28	7045.01
457.46	7157.36
457.64	6932.67
457.83	7002.88
458.01	6930.33
458.19	7194.81
458.38	7143.32
458.56	7047.35
458.74	7232.26
458.93	7110.55
459.11	7162.04
459.29	7279.07
459.48	7286.09
459.66	7417.16
459.84	7297.79
460.03	7494.40
460.21	7372.69
460.39	7325.88
460.57	7265.02
460.76	7428.86
460.94	7625.47
461.12	7447.58
461.31	7515.46
461.49	7529.50
461.67	7353.96
461.85	7784.62
462.04	7564.61
462.22	8170.81
462.40	7747.17
462.59	7592.70
462.77	7726.11
462.95	7833.77
463.13	7857.18
463.32	7826.75
463.50	7988.25
463.68	7852.50
463.86	7927.39
464.05	7763.56
464.23	7878.24
464.41	7875.90
464.59	7768.24
464.78	8145.06
464.96	7911.01
465.14	7925.05
465.32	7955.48
465.50	8086.55
465.69	8152.09
465.87	8051.44
466.05	8121.66
466.23	7833.77
466.41	8063.15
466.60	8404.86
466.78	8030.38
466.96	8156.77
467.14	8077.19
467.32	8418.91
467.51	8276.13
467.69	8180.17
467.87	8203.58
468.05	8276.13
468.23	8226.98
468.41	8376.78
468.60	8322.94
468.78	8484.44
468.96	8435.29
469.14	8503.17
469.32	8683.39
469.50	8367.42
469.69	8599.13
469.87	8751.26
470.05	8706.79
470.23	8678.71
470.41	8517.21
470.59	8786.37
470.77	8683.39
470.95	8924.46
471.14	9041.49
471.32	8725.52
471.50	9041.49
471.68	9114.05
471.86	8856.59
472.04	9188.94
472.22	9174.90
472.40	9247.46
472.58	9123.41
472.77	9008.72
472.95	9238.09
473.13	9415.98
473.31	9317.67
473.49	9348.10
473.67	9320.01
473.85	9390.23
474.03	9455.76
474.21	9643.01
474.39	9755.35
474.57	9762.37
474.75	9748.33
474.93	9797.48
475.12	9755.35
475.30	9729.61
475.48	9905.15
475.66	9870.04
475.84	9949.62
476.02	10064.30
476.20	9930.89
476.38	10324.10
476.56	10391.98
476.74	10637.73
476.92	10352.19
477.10	10267.93
477.28	10670.50
477.46	10740.72
477.64	10497.30
477.82	10981.79
478.00	10972.43
478.18	11009.88
478.36	10899.87
478.54	11307.13
478.72	11115.20
478.90	11365.64
479.08	11487.35
479.26	11412.45
479.44	11637.14
479.62	11580.97
479.80	11627.78
479.98	11735.45
480.16	12011.63
480.34	12004.61
480.52	11983.54
480.70	12145.04
480.88	11936.73
481.06	12006.95
481.24	12393.14
481.41	12418.88
481.59	12674.00
481.77	12561.66
481.95	12798.05
482.13	12566.34
482.31	12809.75
482.49	13282.54
482.67	13284.88
482.85	13167.85
483.03	13200.62
483.21	13675.75
483.39	13551.70
483.57	13614.90
483.74	13745.97
483.92	13682.77
484.10	13771.71
484.28	13984.70
484.46	14024.49
484.64	14391.95
484.82	14113.43
485.00	14377.91
485.18	14771.12
485.35	14658.78
485.53	14626.01
485.71	14743.03
485.89	14911.55
486.07	15016.88
486.25	15023.90
486.43	14974.75
486.61	15248.59
486.78	15370.30
486.96	15606.69
487.14	15749.46
487.32	15599.67
487.50	16140.33
487.68	16084.16
487.85	16299.49
488.03	16435.24
488.21	16723.13
488.39	16718.45
488.57	16446.94
488.75	16870.58
488.92	17247.41
489.10	17001.65
489.28	17165.49
489.46	17645.30
489.64	17584.44
489.81	17956.59
489.99	17628.92
490.17	17970.63
490.35	18104.04
490.53	18153.20
490.70	18235.11
490.88	18115.75
491.06	18506.62
491.24	18764.07
491.41	18548.75
491.59	18583.85
491.77	18560.45
491.95	18815.57
492.13	19108.13
492.30	19541.13
492.48	19377.30
492.66	19571.56
492.84	19517.73
493.01	19573.90
493.19	19545.81
493.37	20123.93
493.54	19899.23
493.72	20283.08
493.90	20531.18
494.08	20489.05
494.25	20432.88
494.43	20627.14
494.61	21118.65
494.79	20610.76
494.96	20798.00
495.14	20945.45
495.32	21385.47
495.49	20900.98
495.67	21259.09
495.85	21436.97
496.02	21600.80
496.20	21645.27
496.38	21771.66
496.55	21869.97
496.73	22190.62
496.91	22118.06
497.09	22202.32
497.26	22537.02
497.44	22717.24
497.62	22410.63
497.79	22434.03
497.97	22656.39
498.14	23026.19
498.32	23255.56
498.50	22787.46
498.67	23080.02
498.85	23599.62
499.03	23337.48
499.20	23608.98
499.38	23529.41
499.56	23608.98
499.73	23524.72
499.91	23711.97
500.08	24250.29
500.26	23599.62
500.44	23981.13
500.61	24011.56
500.79	23693.24
500.97	24107.52
501.14	24704.35
501.32	24498.39
501.49	24491.37
501.67	24683.29
501.84	24465.62
502.02	24423.49
502.20	24828.40
502.37	24884.58
502.55	24858.83
502.72	25050.75
502.90	25357.36
503.07	25282.47
503.25	25472.05
503.43	25270.76
503.60	25511.84
503.78	25373.75
503.95	25369.07
504.13	25993.99
504.30	26019.74
504.48	25869.94
504.65	26015.05
504.83	26347.41
505.01	26277.19
505.18	26190.59
505.36	26583.80
505.53	26143.78
505.71	26920.84
505.88	26597.85
506.06	26473.80
506.23	26838.92
506.41	26455.08
506.58	26815.52
506.76	27056.59
506.93	27065.96
507.11	26789.77
507.28	27381.93
507.46	27124.47
507.63	27374.91
507.81	27543.42
507.98	27278.94
508.16	27374.91
508.33	27651.09
508.50	27735.35
508.68	27620.66
508.85	27995.15
509.03	28177.71
509.20	28063.02
509.38	28224.52
509.55	28477.30
509.73	28339.21
509.90	28587.30
510.08	28528.79
510.25	28739.44
510.42	28701.99
510.60	28767.52
510.77	28954.77
510.95	29046.05
511.12	28521.77
511.30	29252.02
511.47	29085.84
511.64	29441.60
511.82	29259.04
511.99	29259.04
512.17	29296.49
512.34	29289.46
512.51	29472.03
512.69	30075.88
512.86	29879.28
513.04	29284.78
513.21	29837.15
513.38	30277.17
513.56	29804.38
513.73	29905.02
513.90	29996.31
514.08	30103.97
514.25	30504.20
514.43	30052.48
514.60	30242.06
514.77	30270.15
514.95	30850.60
515.12	30768.68
515.29	30728.89
515.47	30448.03
515.64	31049.55
515.81	30651.66
515.99	30824.86
516.16	31077.63
516.33	31171.25
516.51	31498.93
516.68	31204.02
516.85	31208.70
517.03	31208.70
517.20	31456.80
517.37	31440.42
517.54	31470.84
517.72	31887.46
517.89	31548.08
518.06	31864.05
518.24	31304.67
518.41	31501.27
518.58	31910.86
518.75	32011.51
518.93	31866.39
519.10	31955.33
519.27	32198.75
519.45	32245.56
519.62	32692.60
519.79	32404.72
519.96	32238.54
520.14	32973.47
520.31	32278.33
520.48	32704.31
520.65	32479.61
520.83	32872.82
521.00	32975.81
521.17	32863.46
521.34	32865.80
521.52	32994.53
521.69	33053.05
521.86	33015.60
522.03	33326.89
522.20	33191.14
522.38	33317.53
522.55	33357.32
522.72	33324.55
522.89	33619.46
523.07	33589.03
523.24	33858.19
523.41	33359.66
523.58	33640.52
523.75	33989.26
523.92	33961.17
524.10	33937.77
524.27	34115.65
524.44	34604.82
524.61	34499.50
524.78	34216.29
524.96	34410.56
525.13	34520.56
525.30	34689.08
525.47	34686.74
525.64	34499.50
525.81	34981.65
525.98	34761.64
526.16	34799.08
526.33	34955.90
526.50	34883.34
526.67	34717.17
526.84	34878.66
527.01	34742.91
527.18	34747.59
527.36	34728.87
527.53	34927.81
527.70	35098.67
527.87	35676.79
528.04	35374.86
528.21	35218.04
528.38	35655.72
528.55	35971.69
528.72	35639.34
528.89	35793.81
529.07	35707.21
529.24	35538.69
529.41	35821.90
529.58	35756.36
529.75	35758.70
529.92	35892.12
530.09	35714.23
530.26	35744.66
530.43	36098.08
530.60	35744.66
530.77	35950.63
530.94	36196.38
531.11	36423.42
531.28	36690.24
531.46	36320.43
531.63	36446.82
531.80	36304.05
531.97	36498.31
532.14	36615.34
532.31	36533.42
532.48	36638.75
532.65	36720.66
532.82	36807.26
532.99	36577.89
533.16	36657.47
533.33	36950.04
533.50	37308.14
533.67	37074.09
533.84	37193.45
534.01	36931.31
534.18	37315.16
534.35	36781.52
534.52	37532.83
534.69	37546.87
534.86	37247.29
535.03	37233.24
535.20	37649.86
535.37	37708.37
535.54	37970.51
535.71	37619.43
535.88	37368.99
536.05	37493.04
536.22	37827.74
536.38	37715.39
536.55	37991.58
536.72	37916.68
536.89	37600.71
537.06	37825.40
537.23	38263.08
537.40	37851.14
537.57	37972.85
537.74	38490.11
537.91	38550.96
538.08	38607.14
538.25	38370.74
538.42	38176.48
538.59	38370.74
538.75	38206.90
538.92	38321.59
539.09	38415.21
539.26	38452.66
539.43	38803.74
539.60	38766.29
539.77	38337.98
539.94	38787.36
540.11	38536.92
540.28	38583.73
540.44	38677.35
540.61	38909.07
540.78	38522.88
540.95	39019.07
541.12	39173.55
541.29	38609.48
541.46	39047.16
541.62	39089.29
541.79	39246.10
541.96	38888.00
542.13	39098.65
542.30	39100.99
542.47	39405.26
542.63	39215.68
542.80	39133.76
542.97	39646.33
543.14	40135.51
543.31	39697.83
543.48	39716.55
543.64	40392.97
543.81	39805.49
543.98	39798.47
544.15	39636.97
544.32	40098.06
544.48	40112.10
544.65	40397.65
544.82	40325.09
544.99	39770.38
545.16	40060.61
545.32	39395.90
545.49	40573.19
545.66	40285.30
545.83	40470.20
546.00	40573.19
546.16	40477.22
546.33	39981.03
546.50	40016.14
546.67	40416.37
546.83	40002.10
547.00	40907.88
547.17	40680.85
547.34	40280.62
547.50	41081.08
547.67	40697.24
547.84	40638.72
548.00	40610.64
548.17	40910.22
548.34	41298.75
548.51	41095.13
548.67	41230.88
548.84	40989.80
549.01	40884.48
549.18	41144.28
549.34	41226.20
549.51	41270.67
549.68	41488.34
549.84	41244.92
550.01	41144.28
550.18	41148.96
550.34	41167.68
550.51	41397.06
550.68	41205.13
550.84	41219.17
551.01	41500.04
551.18	41357.27
551.34	40851.71
551.51	41654.51
551.68	41481.31
551.84	41804.31
552.01	41462.59
552.18	41612.38
552.34	41684.94
552.51	42068.79
552.68	41947.08
552.84	41956.44
553.01	42457.32
553.18	41961.12
553.34	41933.04
553.51	41654.51
553.67	41624.09
553.84	42087.51
554.01	41593.66
554.17	42377.74
554.34	41928.36
554.51	42438.59
554.67	42143.69
554.84	42160.07
555.00	41722.39
555.17	41708.35
555.33	42253.69
555.50	41970.49
555.67	42326.25
555.83	42848.19
556.00	42543.92
556.16	42576.69
556.33	42349.65
556.50	42527.53
556.66	42178.79
556.83	42185.82
556.99	42897.34
557.16	42536.90
557.32	42707.76
557.49	42263.05
557.65	42108.58
557.82	42593.07
557.98	42424.55
558.15	42492.43
558.32	42462.00
558.48	42740.52
558.65	42567.32
558.81	42588.39
558.98	42677.33
559.14	42845.85
559.31	42689.03
559.47	42745.20
559.64	42784.99
559.80	42639.88
559.97	42923.08
560.13	43016.71
560.30	42050.06
560.46	43063.52
560.63	42775.63
560.79	42457.32
560.96	42934.79
561.12	43187.56
561.29	42656.26
561.45	43129.05
561.61	42902.02
561.78	42948.83
561.94	42546.26
562.11	42913.72
562.27	43021.39
562.44	43030.75
562.60	43131.39
562.77	43524.60
562.93	43152.46
563.10	43143.09
563.26	43049.47
563.42	43342.04
563.59	43030.75
563.75	43012.02
563.92	43716.53
564.08	43512.90
564.24	43290.55
564.41	43215.65
564.57	43330.34
564.74	43283.53
564.90	43505.88
565.07	43000.32
565.23	43154.80
565.39	43447.36
565.56	43433.32
565.72	43203.95
565.88	43124.37
566.05	42909.04
566.21	43400.55
566.38	43072.88
566.54	43540.99
566.70	43339.70
566.87	43714.19
567.03	43725.89
567.19	43742.27
567.36	43468.43
567.52	43601.84
567.68	43945.90
567.85	43615.88
568.01	43929.51
568.17	43346.72
568.34	43805.47
568.50	43613.54
568.66	43761.00
568.83	43765.68
568.99	43337.36
569.15	43257.78
569.32	43798.44
569.48	43187.56
569.64	43459.07
569.81	43454.39
569.97	43428.64
570.13	43899.09
570.30	43267.14
570.46	43335.02
570.62	43552.69
570.78	43494.18
570.95	43519.92
571.11	43753.97
571.27	43863.98
571.43	43650.99
571.60	43674.40
571.76	43339.70
571.92	43674.40
572.09	43931.86
572.25	43915.47
572.41	43618.22
572.57	43842.92
572.74	44348.47
572.90	43866.32
573.06	43985.69
573.22	43660.35
573.38	43569.07
573.55	43250.76
573.71	43730.57
573.87	43894.41
574.03	43641.63
574.20	43608.86
574.36	43931.86
574.52	44154.21
574.68	43959.94
574.84	43784.40
575.01	44032.50
575.17	43824.19
575.33	43810.15
575.49	44278.25
575.65	44142.50
575.82	44088.67
575.98	43981.01
576.14	44383.58
576.30	44231.44
576.46	43906.11
576.62	43917.81
576.79	43807.81
576.95	43807.81
577.11	43880.36
577.27	43751.63
577.43	44720.62
577.59	43910.79
577.75	44296.98
577.92	43662.69
578.08	43739.93
578.24	43765.68
578.40	44219.74
578.56	43941.22
578.72	43957.60
578.88	44091.01
579.04	43686.10
579.21	43775.04
579.37	43971.64
579.53	43786.74
579.69	43875.68
579.85	44060.58
580.01	44013.77
580.17	44205.70
580.33	44402.30
580.49	44004.41
580.65	44516.99
580.82	43906.11
580.98	44165.91
581.14	43894.41
581.30	44556.78
581.46	43871.00
581.62	44172.93
581.78	44304.00
581.94	44318.04
582.10	43831.21
582.26	44357.83
582.42	44013.77
582.58	44385.92
582.74	43894.41
582.90	44203.36
583.06	44416.35
583.22	44285.28
583.38	44271.23
583.54	43775.04
583.70	44247.83
583.86	44133.14
584.02	43810.15
584.18	44376.56
584.34	44353.15
584.50	44411.67
584.66	44231.44
584.82	44144.84
584.98	44374.22
585.14	44409.32
585.30	43917.81
585.46	43856.96
585.62	43662.69
585.78	44259.53
585.94	43920.15
586.10	44208.04
586.26	43611.20
586.42	44626.99
586.58	44067.61
586.74	43669.72
586.90	44233.78
587.06	44046.54
587.22	44299.32
587.38	44439.75
587.54	44175.27
587.70	44374.22
587.86	43983.35
588.02	44287.62
588.18	44381.24
588.34	44189.31
588.49	44582.52
588.65	43880.36
588.81	44201.02
588.97	44137.82
589.13	43957.60
589.29	44109.74
589.45	44402.30
589.61	44343.79
589.77	44741.68
589.93	44406.98
590.08	44385.92
590.24	44786.15
590.40	44657.42
