SpectraSuite Data File
++++++++++++++++++++++++++++++++++++
Date: Fri Oct 25 11:33:30 EDT 2013
User: price-jones
Dark Spectrum Present: No
Reference Spectrum Present: No
Number of Sampled Component Spectra: 1
Spectrometers: USB2+H05261
Integration Time (usec): 100000 (USB2+H05261)
Spectra Averaged: 1 (USB2+H05261)
Boxcar Smoothing: 0 (USB2+H05261)
Correct for Electrical Dark: No (USB2+H05261)
Strobe/Lamp Enabled: No (USB2+H05261)
Correct for Detector Non-linearity: No (USB2+H05261)
Correct for Stray Light: No (USB2+H05261)
Number of Pixels in Processed Spectrum: 2048
>>>>>Begin Processed Spectral Data<<<<<
365.73	177.88
365.92	177.88
366.12	177.88
366.32	147.45
366.52	156.82
366.72	173.20
366.91	142.77
367.11	252.78
367.31	159.16
367.51	159.16
367.70	175.54
367.90	229.37
368.10	166.18
368.30	243.42
368.49	170.86
368.69	208.31
368.89	128.73
369.09	210.65
369.28	245.76
369.48	140.43
369.68	241.08
369.87	198.95
370.07	285.55
370.27	290.23
370.47	327.68
370.66	454.06
370.86	489.17
371.06	557.05
371.25	545.34
371.45	575.77
371.65	638.97
371.84	510.24
372.04	505.56
372.24	517.26
372.44	528.96
372.63	617.90
372.83	610.88
373.03	704.50
373.22	573.43
373.42	580.45
373.62	596.84
373.81	653.01
374.01	624.92
374.21	657.69
374.40	622.58
374.60	706.84
374.79	613.22
374.99	697.48
375.19	678.76
375.38	681.10
375.58	634.29
375.78	592.16
375.97	643.65
376.17	793.44
376.37	674.07
376.56	685.78
376.76	545.34
376.95	615.56
377.15	610.88
377.35	723.23
377.54	678.76
377.74	657.69
377.93	678.76
378.13	697.48
378.33	676.41
378.52	685.78
378.72	692.80
378.91	685.78
379.11	741.95
379.31	706.84
379.50	720.88
379.70	711.52
379.89	744.29
380.09	725.57
380.28	727.91
380.48	753.65
380.68	777.06
380.87	709.18
381.07	746.63
381.26	795.78
381.46	755.99
381.65	849.61
381.85	753.65
382.04	760.67
382.24	828.55
382.43	758.33
382.63	772.38
382.83	816.85
383.02	844.93
383.22	767.70
383.41	786.42
383.61	858.98
383.80	856.64
384.00	814.51
384.19	805.14
384.39	758.33
384.58	847.27
384.78	854.30
384.97	851.96
385.17	880.04
385.36	866.00
385.56	851.96
385.75	823.87
385.95	777.06
386.14	889.40
386.34	826.21
386.53	812.17
386.72	793.44
386.92	844.93
387.11	814.51
387.31	985.37
387.50	898.77
387.70	837.91
387.89	936.21
388.09	835.57
388.28	858.98
388.48	898.77
388.67	1043.88
388.86	931.53
389.06	891.74
389.25	894.08
389.45	931.53
389.64	926.85
389.84	1004.09
390.03	1022.81
390.22	868.34
390.42	966.64
390.61	896.43
390.81	957.28
391.00	994.73
391.19	1090.69
391.39	1001.75
391.58	950.26
391.78	1013.45
391.97	1139.84
392.16	994.73
392.36	1064.94
392.55	1102.39
392.75	1015.79
392.94	992.39
393.13	1008.77
393.33	1116.44
393.52	1095.37
393.71	1104.73
393.91	1109.41
394.10	1123.46
394.29	1130.48
394.49	1125.80
394.68	1067.28
394.88	1032.18
395.07	1149.20
395.26	1146.86
395.46	1181.97
395.65	1137.50
395.84	1142.18
396.04	1179.63
396.23	1266.23
396.42	1139.84
396.62	1226.44
396.81	1200.69
397.00	1245.16
397.19	1207.72
397.39	1186.65
397.58	1322.40
397.77	1207.72
397.97	1317.72
398.16	1249.85
398.35	1266.23
398.55	1254.53
398.74	1224.10
398.93	1284.95
399.12	1259.21
399.32	1238.14
399.51	1287.29
399.70	1378.58
399.90	1322.40
400.09	1362.19
400.28	1301.34
400.47	1451.13
400.67	1378.58
400.86	1336.45
401.05	1394.96
401.24	1413.68
401.44	1390.28
401.63	1460.49
401.82	1425.39
402.01	1458.15
402.21	1511.99
402.40	1472.20
402.59	1540.07
402.78	1516.67
402.97	1568.16
403.17	1535.39
403.36	1589.22
403.55	1523.69
403.74	1612.63
403.93	1537.73
404.13	1535.39
404.32	1568.16
404.51	1568.16
404.70	1605.61
404.89	1647.74
405.09	1647.74
405.28	1687.53
405.47	1792.85
405.66	1685.19
405.85	1820.94
406.05	1764.76
406.24	1720.29
406.43	1687.53
406.62	1830.30
406.81	1867.75
407.00	1743.70
407.20	1753.06
407.39	1820.94
407.58	1811.57
407.77	1884.13
407.96	1837.32
408.15	1888.81
408.34	1891.15
408.54	1839.66
408.73	1886.47
408.92	1933.28
409.11	1975.41
409.30	1928.60
409.49	1895.83
409.68	1984.77
409.87	1954.35
410.07	2012.86
410.26	1987.11
410.45	2092.44
410.64	2078.40
410.83	2045.63
411.02	2139.25
411.21	2113.50
411.40	2169.68
411.59	2211.81
411.78	2101.80
411.98	2104.14
412.17	2317.13
412.36	2333.51
412.55	2314.79
412.74	2387.35
412.93	2380.32
413.12	2387.35
413.31	2403.73
413.50	2473.95
413.69	2392.03
413.88	2504.37
414.07	2441.18
414.26	2583.95
414.45	2520.76
414.64	2328.83
414.83	2523.10
415.02	2586.29
415.22	2630.76
415.41	2626.08
415.60	2736.09
415.79	2665.87
415.98	2616.72
416.17	2722.04
416.36	2717.36
416.55	2792.26
416.74	2820.35
416.93	2754.81
417.12	2862.48
417.31	2951.42
417.50	2857.79
417.69	2965.46
417.88	2939.71
418.07	2965.46
418.26	2928.01
418.45	3073.12
418.64	3129.30
418.83	3000.57
419.02	3115.25
419.21	3080.14
419.39	3180.79
419.58	3173.77
419.77	2972.48
419.96	3152.70
420.15	3199.51
420.34	3145.68
420.53	3063.76
420.72	3248.66
420.91	3199.51
421.10	3164.40
421.29	3335.26
421.48	3164.40
421.67	3358.67
421.86	3251.00
422.05	3222.92
422.24	3279.09
422.43	3328.24
422.61	3253.34
422.80	3452.29
422.99	3337.60
423.18	3297.81
423.37	3499.10
423.56	3351.65
423.75	3414.84
423.94	3300.16
424.13	3126.96
424.32	3279.09
424.50	3501.44
424.69	3459.31
424.88	3482.72
425.07	3461.65
425.26	3403.14
425.45	3463.99
425.64	3361.01
425.83	3433.57
426.01	3445.27
426.20	3555.27
426.39	3471.01
426.58	3459.31
426.77	3384.41
426.96	3702.73
427.15	3506.12
427.33	3541.23
427.52	3515.48
427.71	3569.32
427.90	3494.42
428.09	3485.06
428.28	3808.05
428.46	3763.58
428.65	3693.37
428.84	3700.39
429.03	3836.14
429.22	3667.62
429.40	3691.02
429.59	3847.84
429.78	3637.19
429.97	3595.06
430.16	3672.30
430.34	3873.59
430.53	3953.16
430.72	3808.05
430.91	3845.50
431.10	3782.31
431.28	3969.55
431.47	4093.60
431.66	4009.34
431.85	3936.78
432.03	4051.47
432.22	4114.66
432.41	4133.39
432.60	4208.28
432.79	4093.60
432.97	4056.15
433.16	4102.96
433.35	4067.85
433.54	4121.68
433.72	4128.70
433.91	4112.32
434.10	4201.26
434.28	4067.85
434.47	4217.65
434.66	4280.84
434.85	4318.29
435.03	4212.96
435.22	4074.87
435.41	4388.50
435.59	4299.56
435.78	4313.61
435.97	4374.46
436.16	4386.16
436.34	4308.93
436.53	4381.48
436.72	4589.79
436.90	4421.27
437.09	4477.44
437.28	4432.97
437.46	4482.13
437.65	4526.60
437.84	4589.79
438.02	4650.64
438.21	4645.96
438.40	4582.77
438.58	4762.99
438.77	4793.42
438.96	4805.12
439.14	4819.16
439.33	4828.53
439.52	4856.61
439.70	4856.61
439.89	4947.89
440.08	4936.19
440.26	4964.28
440.45	4758.31
440.63	5053.22
440.82	5200.67
441.01	5032.15
441.19	5334.08
441.38	5238.12
441.57	5160.88
441.75	5268.55
441.94	5362.17
442.12	5303.65
442.31	5308.34
442.50	5411.32
442.68	5465.15
442.87	5315.36
443.05	5430.04
443.24	5664.10
443.43	5448.77
443.61	5488.56
443.80	5724.95
443.98	5434.72
444.17	5259.18
444.35	5561.11
444.54	5556.43
444.73	5518.98
444.91	5659.42
445.10	5774.10
445.28	5643.03
445.47	5593.88
445.65	5650.05
445.84	5593.88
446.02	5809.21
446.21	5593.88
446.39	5535.37
446.58	5788.14
446.77	5710.91
446.95	5680.48
447.14	5643.03
447.32	5820.91
447.51	5802.19
447.69	5891.13
447.88	5687.50
448.06	5792.83
448.25	5891.13
448.43	5778.78
448.62	5774.10
448.80	5727.29
448.99	5778.78
449.17	5825.59
449.36	5760.06
449.54	5741.33
449.73	6143.91
449.91	6080.71
450.10	6120.50
450.28	6080.71
450.46	6078.37
450.65	6036.24
450.83	5980.07
451.02	6134.54
451.20	6246.89
451.39	6157.95
451.57	6150.93
451.76	6132.20
451.94	6340.51
452.13	6342.85
452.31	6204.76
452.49	6204.76
452.68	6340.51
452.86	6122.84
453.05	6349.87
453.23	6406.05
453.42	6155.61
453.60	6277.32
453.78	6375.62
453.97	6209.44
454.15	6375.62
454.34	6347.53
454.52	6712.66
454.70	6431.79
454.89	6368.60
455.07	6544.14
455.26	6633.08
455.44	6752.45
455.62	6663.51
455.81	6626.06
455.99	6757.13
456.17	6661.16
456.36	6754.79
456.54	6740.74
456.73	6977.14
456.91	6979.48
457.09	7042.67
457.28	7176.08
457.46	6892.88
457.64	7026.29
457.83	6913.94
458.01	6967.77
458.19	7045.01
458.38	7152.68
458.56	7218.21
458.74	7241.62
458.93	7236.94
459.11	7157.36
459.29	7213.53
459.48	7087.14
459.66	7307.15
459.84	7393.75
460.03	7424.18
460.21	7405.46
460.39	7403.11
460.57	7405.46
460.76	7363.33
460.94	7410.14
461.12	7522.48
461.31	7590.36
461.49	7344.60
461.67	7328.22
461.85	7672.28
462.04	7733.13
462.22	7974.21
462.40	7705.04
462.59	7599.72
462.77	7742.49
462.95	7644.19
463.13	7721.43
463.32	7571.63
463.50	7815.05
463.68	7948.46
463.86	7903.99
464.05	7934.42
464.23	7798.66
464.41	7833.77
464.59	7873.56
464.78	8116.98
464.96	8009.31
465.14	7943.78
465.32	8116.98
465.50	8100.59
465.69	8166.13
465.87	7999.95
466.05	8196.56
466.23	8229.32
466.41	8229.32
466.60	8226.98
466.78	8219.96
466.96	8032.72
467.14	8276.13
467.32	8402.52
467.51	8346.35
467.69	8194.22
467.87	8372.10
468.05	8262.09
468.23	8114.64
468.41	8414.23
468.60	8329.97
468.78	8472.74
468.96	8390.82
469.14	8535.93
469.32	8674.03
469.50	8545.30
469.69	8610.83
469.87	8643.60
470.05	8456.36
470.23	8664.66
470.41	8514.87
470.59	8861.27
470.77	8826.16
470.95	8840.20
471.14	9090.64
471.32	8891.70
471.50	9015.74
471.68	8947.87
471.86	9156.18
472.04	9139.79
472.22	9221.71
472.40	9116.39
472.58	9256.82
472.77	9195.96
472.95	9298.95
473.13	9785.78
473.31	9207.67
473.49	9420.66
473.67	9334.06
473.85	9530.66
474.03	9804.50
474.21	9729.61
474.39	9638.33
474.57	9795.14
474.75	9856.00
474.93	9973.02
475.12	9977.70
475.30	9895.78
475.48	10029.20
475.66	10101.75
475.84	10092.39
476.02	9895.78
476.20	10272.61
476.38	10274.95
476.56	10445.81
476.74	10642.42
476.92	10363.89
477.10	10356.87
477.28	10616.67
477.46	10628.37
477.64	10787.53
477.82	10953.71
478.00	11187.76
478.18	11000.52
478.36	11192.44
478.54	11351.60
478.72	11316.49
478.90	11386.71
479.08	11485.01
479.26	11751.83
479.44	11653.53
479.62	11768.21
479.80	11805.66
479.98	11918.01
480.16	12475.06
480.34	12121.63
480.52	12336.96
480.70	12374.41
480.88	12208.23
481.06	12212.92
481.24	12620.17
481.41	12624.85
481.59	12674.00
481.77	12695.07
481.95	12828.48
482.13	12882.31
482.31	13132.75
482.49	13432.33
482.67	13221.69
482.85	13233.39
483.03	13664.05
483.21	13570.43
483.39	13743.63
483.57	13764.69
483.74	13874.70
483.92	13928.53
484.10	13830.23
484.28	14452.81
484.46	14665.80
484.64	14794.53
484.82	14541.75
485.00	14672.82
485.18	14663.46
485.35	15016.88
485.53	14761.76
485.71	15002.83
485.89	15344.55
486.07	15417.11
486.25	15559.88
486.43	15365.62
486.61	15817.34
486.78	15875.85
486.96	15777.55
487.14	15997.56
487.32	15934.37
487.50	16358.00
487.68	16222.25
487.85	16503.12
488.03	16826.11
488.21	16924.41
488.39	16872.92
488.57	16978.25
488.75	16971.22
488.92	17275.49
489.10	17373.80
489.28	17551.68
489.46	17729.56
489.64	17568.06
489.81	18120.43
489.99	18094.68
490.17	17989.36
490.35	18263.20
490.53	18443.42
490.70	18492.57
490.88	18511.30
491.06	18963.02
491.24	18705.56
491.41	19126.86
491.59	19103.45
491.77	19309.42
491.95	19475.60
492.13	19620.71
492.30	19559.86
492.48	19927.32
492.66	19721.35
492.84	19733.06
493.01	20039.67
493.19	20432.88
493.37	20109.88
493.54	20369.68
493.72	20374.36
493.90	20390.75
494.08	20823.75
494.25	21057.80
494.43	20919.71
494.61	21275.47
494.79	21149.08
494.96	21043.76
495.14	21795.07
495.32	21743.58
495.49	21771.66
495.67	21766.98
495.85	22050.19
496.02	22160.19
496.20	22483.19
496.38	22595.53
496.55	22312.33
496.73	23044.91
496.91	22546.38
497.09	22773.41
497.26	22670.43
497.44	22869.37
497.62	23206.41
497.79	23363.23
497.97	23201.73
498.14	23616.01
498.32	23967.09
498.50	23709.63
498.67	24198.80
498.85	23728.35
499.03	23763.46
499.20	24030.28
499.38	24161.35
499.56	24212.84
499.73	24416.47
499.91	24510.09
500.08	24538.18
500.26	24526.47
500.44	24643.50
500.61	25025.01
500.79	24802.66
500.97	25125.65
501.14	25003.94
501.32	25125.65
501.49	25060.12
501.67	25050.75
501.84	25198.21
502.02	25544.61
502.20	25741.21
502.37	25565.67
502.55	25575.03
502.72	25982.29
502.90	25883.98
503.07	25876.96
503.25	25893.35
503.43	25860.58
503.60	26335.71
503.78	26405.92
503.95	26080.59
504.13	26520.61
504.30	26658.70
504.48	26635.30
504.65	26724.24
504.83	26803.82
505.01	27110.43
505.18	26974.67
505.36	27147.87
505.53	27161.92
505.71	27222.77
505.88	27405.33
506.06	27400.65
506.23	27426.40
506.41	27630.02
506.58	28053.66
506.76	27585.55
506.93	28032.60
507.11	27716.62
507.28	28006.85
507.46	28446.87
507.63	28247.93
507.81	28465.60
507.98	28067.70
508.16	28283.03
508.33	28528.79
508.50	28390.70
508.68	28727.74
508.85	29020.30
509.03	28678.58
509.20	28732.42
509.38	29331.59
509.55	29668.63
509.73	29216.91
509.90	29575.01
510.08	29401.81
510.25	29209.89
510.42	29628.84
510.60	29940.13
510.77	29827.79
510.95	30169.51
511.12	29867.58
511.30	29593.73
511.47	30333.34
511.64	29797.36
511.82	30073.54
511.99	30300.58
512.17	30188.23
512.34	30572.08
512.51	30918.48
512.69	30939.54
512.86	30661.02
513.04	31164.23
513.21	31007.42
513.38	30742.94
513.56	31124.44
513.73	30991.03
513.90	31459.14
514.08	30979.33
514.25	31295.30
514.43	31442.76
514.60	31639.36
514.77	31735.32
514.95	31754.05
515.12	31543.40
515.29	31777.45
515.47	31821.92
515.64	32278.33
515.81	31632.34
515.99	32177.68
516.16	32304.07
516.33	32306.41
516.51	32453.87
516.68	32114.49
516.85	32327.48
517.03	32435.14
517.20	32847.08
517.37	32456.21
517.54	32306.41
517.72	32945.38
517.89	32919.63
518.06	33195.82
518.24	33434.55
518.41	33003.89
518.58	33127.94
518.75	32910.27
518.93	33373.70
519.10	33109.22
519.27	32989.85
519.45	33560.94
519.62	33755.21
519.79	33823.08
519.96	33787.97
520.14	33720.10
520.31	33919.04
520.48	33977.56
520.65	34089.90
520.83	34443.32
521.00	34190.55
521.17	34106.29
521.34	34211.61
521.52	34251.40
521.69	34785.04
521.86	34326.30
522.03	34328.64
522.20	35047.18
522.38	35131.44
522.55	35084.63
522.72	34918.45
522.89	34951.22
523.07	35033.14
523.24	35065.91
523.41	35288.26
523.58	35136.12
523.75	35519.97
523.92	35419.33
524.10	35115.06
524.27	35611.25
524.44	35662.74
524.61	35599.55
524.78	35651.04
524.96	35704.87
525.13	36236.17
525.30	35571.46
525.47	36282.98
525.64	36196.38
525.81	36130.85
525.98	36233.83
526.16	35873.39
526.33	35934.24
526.50	36549.81
526.67	36287.67
526.84	36577.89
527.01	36465.55
527.18	36851.73
527.36	36811.95
527.53	36772.16
527.70	36683.22
527.87	37221.54
528.04	36863.44
528.21	36690.24
528.38	36870.46
528.55	37420.48
528.72	37081.11
528.89	37193.45
529.07	36870.46
529.24	36650.45
529.41	37661.56
529.58	37310.48
529.75	37247.29
529.92	37282.39
530.09	37598.37
530.26	37713.05
530.43	37556.24
530.60	37773.91
530.77	37141.96
530.94	37792.63
531.11	37888.59
531.28	37532.83
531.46	37743.48
531.63	38082.86
531.80	38054.77
531.97	38134.35
532.14	38557.99
532.31	37933.06
532.48	38242.01
532.65	38513.52
532.82	38820.13
532.99	38270.10
533.16	38319.25
533.33	38675.01
533.50	38869.28
533.67	38616.50
533.84	38602.46
534.01	38569.69
534.18	38415.21
534.35	39669.74
534.52	39122.05
534.69	39232.06
534.86	39335.04
535.03	38836.51
535.20	38845.87
535.37	39143.12
535.54	39356.11
535.71	39454.41
535.88	39122.05
536.05	39372.49
536.22	39601.86
536.38	39620.59
536.55	39213.34
536.72	39929.54
536.89	39744.64
537.06	40142.53
537.23	39906.13
537.40	39611.23
537.57	40037.20
537.74	40095.72
537.91	40133.17
538.08	39522.29
538.25	39716.55
538.42	40128.48
538.59	40580.21
538.75	40189.34
538.92	40655.11
539.09	40570.85
539.26	40236.15
539.43	40395.31
539.60	40643.40
539.77	40371.90
539.94	40577.87
540.11	40760.43
540.28	40678.51
540.44	40807.24
540.61	40673.83
540.78	40430.41
540.95	40786.18
541.12	41221.52
541.29	40776.81
541.46	40615.32
541.62	41572.60
541.79	41390.03
541.96	40648.08
542.13	40776.81
542.30	40959.38
542.47	41404.08
542.63	41207.47
542.80	41268.33
542.97	42017.30
543.14	41317.48
543.31	41722.39
543.48	41413.44
543.64	41972.83
543.81	41975.17
543.98	42052.41
544.15	41797.29
544.32	42216.24
544.48	41663.88
544.65	42405.83
544.82	42375.40
544.99	41869.84
545.16	42204.54
545.32	41717.71
545.49	42721.80
545.66	43161.82
545.83	42377.74
546.00	42316.89
546.16	42408.17
546.33	42483.06
546.50	42153.05
546.67	42602.43
546.83	42272.42
547.00	42555.62
547.17	42674.99
547.34	42674.99
547.50	43199.27
547.67	43206.29
547.84	43068.20
548.00	42932.45
548.17	43363.11
548.34	43344.38
548.51	43370.13
548.67	43075.22
548.84	43325.66
549.01	42836.48
549.18	42974.58
549.34	43526.94
549.51	43508.22
549.68	43529.28
549.84	43161.82
550.01	43440.34
550.18	43271.82
550.34	43388.85
550.51	43723.55
550.68	43772.70
550.84	43358.42
551.01	43182.88
551.18	43517.58
551.34	43512.90
551.51	43878.02
551.68	43777.38
551.84	43636.95
552.01	43658.01
552.18	43730.57
552.34	43730.57
552.51	43697.80
552.68	43948.24
552.84	43786.74
553.01	44292.30
553.18	44399.96
553.34	43913.13
553.51	44079.31
553.67	44348.47
553.84	44116.76
554.01	44135.48
554.17	44339.11
554.34	44311.02
554.51	44287.62
554.67	44524.01
554.84	44898.50
555.00	44100.37
555.17	44755.72
555.33	44882.11
555.50	44406.98
555.67	44769.77
555.83	44519.33
556.00	44907.86
556.16	45167.66
556.33	44886.79
556.50	44947.65
556.66	45069.36
556.83	44552.10
556.99	45010.84
557.16	44844.66
557.32	44608.27
557.49	45418.10
557.65	44842.32
557.82	44697.21
557.98	45111.49
558.15	44912.54
558.32	45198.09
558.48	44296.98
558.65	45200.43
558.81	45305.75
558.98	45247.24
559.14	44882.11
559.31	45221.49
559.47	44678.49
559.64	45666.19
559.80	45464.91
559.97	45338.52
560.13	45177.02
560.30	45195.74
560.46	46101.53
560.63	45684.92
560.79	45645.13
560.96	45738.75
561.12	45691.94
561.29	45755.13
561.45	45247.24
561.61	45731.73
561.78	45284.68
561.94	45893.22
562.11	45652.15
562.27	45422.78
562.44	45563.21
562.60	45624.06
562.77	45553.85
562.93	45872.16
563.10	45769.18
563.26	45682.58
563.42	45954.08
563.59	45827.69
563.75	46064.08
563.92	46131.96
564.08	45682.58
564.24	45738.75
564.41	45940.04
564.57	46089.83
564.74	45830.03
564.90	45787.90
565.07	46078.13
565.23	45951.74
565.39	46122.60
565.56	45731.73
565.72	46134.30
565.88	45996.21
566.05	46256.01
566.21	46450.27
566.38	46190.47
566.54	46284.09
566.70	46328.56
566.87	46195.15
567.03	45904.93
567.19	46248.99
567.36	46141.32
567.52	45951.74
567.68	46574.32
567.85	46649.22
568.01	46735.82
568.17	46248.99
568.34	46646.88
568.50	46579.00
568.66	45940.04
568.83	46541.55
568.99	46539.21
569.15	46616.45
569.32	46335.59
569.48	46384.74
569.64	46850.50
569.81	46499.42
569.97	46518.15
570.13	46759.22
570.30	45855.78
570.46	46511.13
570.62	46323.88
570.78	46391.76
570.95	46368.35
571.11	46981.57
571.27	46607.09
571.43	46443.25
571.60	46768.58
571.76	46494.74
571.92	46504.10
572.09	46857.52
572.25	46314.52
572.41	46464.32
572.57	46845.82
572.74	46876.25
572.90	46679.64
573.06	46885.61
573.22	46958.17
573.38	46747.52
573.55	46754.54
573.71	47199.24
573.87	46850.50
574.03	46684.33
574.20	47468.40
574.36	46909.02
574.52	47042.43
574.68	47262.44
574.84	47009.66
575.01	47187.54
575.17	47299.89
575.33	46763.90
575.49	46522.83
575.65	46967.53
575.82	46684.33
575.98	46703.05
576.14	47590.11
576.30	47201.58
576.46	46883.27
576.62	46857.52
576.79	46791.99
576.95	46478.36
577.11	46742.84
577.27	47306.91
577.43	47285.84
577.59	46588.36
577.75	46916.04
577.92	46710.07
578.08	46768.58
578.24	47215.63
578.40	47203.92
578.56	47131.37
578.72	46747.52
578.88	47133.71
579.04	47339.68
579.21	46916.04
579.37	47136.05
579.53	47138.39
579.69	46801.35
579.85	47393.51
580.01	47262.44
580.17	46721.77
580.33	47105.62
580.49	47227.33
580.65	47019.02
580.82	47281.16
580.98	46925.40
581.14	46930.08
581.30	47136.05
581.46	47037.75
581.62	46714.75
581.78	46979.23
581.94	47061.15
582.10	47019.02
582.26	46937.10
582.42	47271.80
582.58	47253.08
582.74	47452.02
582.90	46986.25
583.06	47571.39
583.22	46974.55
583.38	47482.45
583.54	47297.55
583.70	47585.43
583.86	47620.54
584.02	47033.07
584.18	47379.46
584.34	47555.00
584.50	47468.40
584.66	47613.52
584.82	47107.96
584.98	47667.35
585.14	47487.13
585.30	47349.04
585.46	47320.95
585.62	47159.45
585.78	47349.04
585.94	46997.96
586.10	47147.75
586.26	47166.48
586.42	47283.50
586.58	47421.59
586.74	47295.21
586.90	47363.08
587.06	47063.49
587.22	47484.79
587.38	46789.65
587.54	47395.85
587.70	47653.31
587.86	47496.49
588.02	47480.11
588.18	47379.46
588.34	47332.65
588.49	47290.52
588.65	47098.60
588.81	47349.04
588.97	47606.50
589.13	47620.54
589.29	47505.85
589.45	47746.93
589.61	47880.34
589.77	47784.38
589.93	47391.17
590.08	47569.05
