SpectraSuite Data File
++++++++++++++++++++++++++++++++++++
Date: Fri Oct 25 11:33:56 EDT 2013
User: price-jones
Dark Spectrum Present: No
Reference Spectrum Present: No
Number of Sampled Component Spectra: 1
Spectrometers: USB2+H05261
Integration Time (usec): 100000 (USB2+H05261)
Spectra Averaged: 1 (USB2+H05261)
Boxcar Smoothing: 0 (USB2+H05261)
Correct for Electrical Dark: No (USB2+H05261)
Strobe/Lamp Enabled: No (USB2+H05261)
Correct for Detector Non-linearity: No (USB2+H05261)
Correct for Stray Light: No (USB2+H05261)
Number of Pixels in Processed Spectrum: 2048
>>>>>Begin Processed Spectral Data<<<<<
365.73	290.23
365.92	290.23
366.12	290.23
366.32	198.95
366.52	177.88
366.72	217.67
366.91	112.35
367.11	161.50
367.31	140.43
367.51	180.22
367.70	194.26
367.90	238.73
368.10	180.22
368.30	149.79
368.49	140.43
368.69	147.45
368.89	117.03
369.09	191.92
369.28	245.76
369.48	159.16
369.68	208.31
369.87	215.33
370.07	243.42
370.27	205.97
370.47	341.72
370.66	451.72
370.86	503.22
371.06	540.66
371.25	545.34
371.45	566.41
371.65	585.13
371.84	510.24
372.04	535.98
372.24	561.73
372.44	592.16
372.63	582.79
372.83	582.79
373.03	582.79
373.22	559.39
373.42	596.84
373.62	573.43
373.81	613.22
374.01	606.20
374.21	634.29
374.40	582.79
374.60	697.48
374.79	622.58
374.99	676.41
375.19	706.84
375.38	678.76
375.58	674.07
375.78	683.44
375.97	641.31
376.17	688.12
376.37	676.41
376.56	662.37
376.76	650.67
376.95	697.48
377.15	692.80
377.35	727.91
377.54	683.44
377.74	716.20
377.93	697.48
378.13	643.65
378.33	774.72
378.52	624.92
378.72	748.97
378.91	734.93
379.11	744.29
379.31	746.63
379.50	627.26
379.70	753.65
379.89	744.29
380.09	631.94
380.28	711.52
380.48	727.91
380.68	727.91
380.87	657.69
381.07	711.52
381.26	826.21
381.46	727.91
381.65	746.63
381.85	681.10
382.04	723.23
382.24	767.70
382.43	760.67
382.63	739.61
382.83	755.99
383.02	816.85
383.22	880.04
383.41	746.63
383.61	798.12
383.80	802.80
384.00	826.21
384.19	809.83
384.39	812.17
384.58	880.04
384.78	809.83
384.97	821.53
385.17	847.27
385.36	828.55
385.56	793.44
385.75	847.27
385.95	912.81
386.14	873.02
386.34	884.72
386.53	816.85
386.72	861.32
386.92	875.36
387.11	901.11
387.31	847.27
387.50	828.55
387.70	847.27
387.89	917.49
388.09	898.77
388.28	856.64
388.48	922.17
388.67	940.90
388.86	849.61
389.06	894.08
389.25	903.45
389.45	952.60
389.64	1011.11
389.84	997.07
390.03	903.45
390.22	1027.50
390.42	1006.43
390.61	954.94
390.81	924.51
391.00	931.53
391.19	1046.22
391.39	950.26
391.58	990.05
391.78	976.00
391.97	1041.54
392.16	1116.44
392.36	1076.65
392.55	1020.47
392.75	997.07
392.94	1004.09
393.13	973.66
393.33	1004.09
393.52	1039.20
393.71	1064.94
393.91	1093.03
394.10	1050.90
394.29	1107.07
394.49	1107.07
394.68	1158.57
394.88	1116.44
395.07	1071.97
395.26	1172.61
395.46	1135.16
395.65	1249.85
395.84	1224.10
396.04	1224.10
396.23	1160.91
396.42	1263.89
396.62	1235.80
396.81	1116.44
397.00	1170.27
397.19	1193.67
397.39	1181.97
397.58	1184.31
397.77	1163.25
397.97	1242.82
398.16	1242.82
398.35	1306.02
398.55	1259.21
398.74	1331.76
398.93	1268.57
399.12	1217.08
399.32	1329.42
399.51	1320.06
399.70	1401.98
399.90	1301.34
400.09	1334.11
400.28	1301.34
400.47	1439.43
400.67	1322.40
400.86	1409.00
401.05	1465.18
401.24	1458.15
401.44	1432.41
401.63	1446.45
401.82	1432.41
402.01	1467.52
402.21	1458.15
402.40	1481.56
402.59	1434.75
402.78	1418.36
402.97	1621.99
403.17	1565.82
403.36	1486.24
403.55	1570.50
403.74	1612.63
403.93	1516.67
404.13	1549.43
404.32	1607.95
404.51	1565.82
404.70	1671.14
404.89	1633.69
405.09	1619.65
405.28	1647.74
405.47	1600.93
405.66	1694.55
405.85	1760.08
406.05	1710.93
406.24	1762.42
406.43	1715.61
406.62	1769.44
406.81	1802.21
407.00	1729.66
407.20	1750.72
407.39	1706.25
407.58	1825.62
407.77	1743.70
407.96	1844.34
408.15	1961.37
408.34	1912.22
408.54	1956.69
408.73	1921.58
408.92	1921.58
409.11	1928.60
409.30	2043.29
409.49	1937.96
409.68	2022.22
409.87	2026.90
410.07	2057.33
410.26	2076.06
410.45	2083.08
410.64	1966.05
410.83	2143.93
411.02	2275.00
411.21	2228.19
411.40	2115.84
411.59	2193.08
411.78	2169.68
411.98	2193.08
412.17	2310.11
412.36	2317.13
412.55	2406.07
412.74	2312.45
412.93	2340.54
413.12	2335.85
413.31	2380.32
413.50	2312.45
413.69	2363.94
413.88	2450.54
414.07	2352.24
414.26	2424.80
414.45	2485.65
414.64	2431.82
414.83	2537.14
415.02	2504.37
415.22	2614.38
415.41	2633.10
415.60	2644.81
415.79	2626.08
415.98	2600.34
416.17	2684.59
416.36	2693.96
416.55	2705.66
416.74	2822.69
416.93	2853.11
417.12	2871.84
417.31	2841.41
417.50	2808.64
417.69	2897.58
417.88	2878.86
418.07	2913.97
418.26	2946.73
418.45	2972.48
418.64	3042.70
418.83	3016.95
419.02	3038.02
419.21	2988.86
419.39	3007.59
419.58	3014.61
419.77	2944.39
419.96	3112.91
420.15	3218.24
420.34	3185.47
420.53	3208.87
420.72	3218.24
420.91	3171.43
421.10	3255.69
421.29	3180.79
421.48	3166.74
421.67	3403.14
421.86	3236.96
422.05	3314.20
422.24	3253.34
422.43	3370.37
422.61	3456.97
422.80	3321.22
422.99	3368.03
423.18	3386.76
423.37	3372.71
423.56	3361.01
423.75	3375.05
423.94	3353.99
424.13	3129.30
424.32	3206.53
424.50	3281.43
424.69	3323.56
424.88	3510.80
425.07	3428.88
425.26	3286.11
425.45	3353.99
425.64	3400.80
425.83	3267.39
426.01	3447.61
426.20	3396.12
426.39	3447.61
426.58	3548.25
426.77	3466.33
426.96	3494.42
427.15	3574.00
427.33	3559.95
427.52	3433.57
427.71	3674.64
427.90	3662.94
428.09	3618.47
428.28	3669.96
428.46	3707.41
428.65	3728.47
428.84	3686.34
429.03	3723.79
429.22	3751.88
429.40	3632.51
429.59	3681.66
429.78	3817.41
429.97	3599.74
430.16	3864.22
430.34	3817.41
430.53	3929.76
430.72	3871.25
430.91	3999.98
431.10	3964.87
431.28	3791.67
431.47	3859.54
431.66	4014.02
431.85	3854.86
432.03	4049.13
432.22	4107.64
432.41	4112.32
432.60	4107.64
432.79	4039.76
432.97	4093.60
433.16	4065.51
433.35	4105.30
433.54	4079.55
433.72	4194.24
433.91	4187.22
434.10	4208.28
434.28	4084.23
434.47	4252.75
434.66	4397.87
434.85	4196.58
435.03	4292.54
435.22	4369.78
435.41	4538.30
435.59	4428.29
435.78	4428.29
435.97	4369.78
436.16	4304.25
436.34	4358.08
436.53	4344.03
436.72	4545.32
436.90	4318.29
437.09	4568.73
437.28	4383.82
437.46	4355.74
437.65	4526.60
437.84	4617.88
438.02	4545.32
438.21	4531.28
438.40	4573.41
438.58	4624.90
438.77	4800.44
438.96	4807.46
439.14	4683.41
439.33	4851.93
439.52	4983.00
439.70	4809.80
439.89	4896.40
440.08	4971.30
440.26	5060.24
440.45	4854.27
440.63	5100.03
440.82	5081.30
441.01	5006.41
441.19	5219.39
441.38	5322.38
441.57	5317.70
441.75	5331.74
441.94	5228.76
442.12	5310.68
442.31	5401.96
442.50	5401.96
442.68	5383.23
442.87	5366.85
443.05	5460.47
443.24	5551.75
443.43	5514.30
443.61	5434.72
443.80	5689.84
443.98	5369.19
444.17	5324.72
444.35	5528.35
444.54	5675.80
444.73	5511.96
444.91	5678.14
445.10	5706.23
445.28	5664.10
445.47	5631.33
445.65	5540.05
445.84	5673.46
446.02	5603.24
446.21	5554.09
446.39	5661.76
446.58	5706.23
446.77	5750.70
446.95	5582.18
447.14	5708.57
447.32	5753.04
447.51	5813.89
447.69	5778.78
447.88	5610.26
448.06	5530.69
448.25	5692.18
448.43	5703.89
448.62	5755.38
448.80	5785.80
448.99	5884.11
449.17	5902.83
449.36	5797.51
449.54	5804.53
449.73	6003.47
449.91	6139.23
450.10	5921.56
450.28	6146.25
450.46	5912.19
450.65	5914.53
450.83	6235.19
451.02	6113.48
451.20	6216.46
451.39	6214.12
451.57	5998.79
451.76	6237.53
451.94	6113.48
452.13	6335.83
452.31	6167.31
452.49	6162.63
452.68	6260.93
452.86	6335.83
453.05	6429.45
453.23	6272.64
453.42	6298.38
453.60	6317.11
453.78	6436.47
453.97	6345.19
454.15	6197.74
454.34	6476.26
454.52	6420.09
454.70	6452.86
454.89	6532.44
455.07	6504.35
455.26	6520.73
455.44	6600.31
455.62	6586.27
455.81	6600.31
455.99	6635.42
456.17	6839.05
456.36	6778.19
456.54	6916.28
456.73	6916.28
456.91	6878.83
457.09	7052.03
457.28	6979.48
457.46	7054.37
457.64	6991.18
457.83	7150.34
458.01	7096.50
458.19	7145.66
458.38	6967.77
458.56	7283.75
458.74	7232.26
458.93	7155.02
459.11	7187.79
459.29	7150.34
459.48	7241.62
459.66	7255.66
459.84	7262.68
460.03	7302.47
460.21	7412.48
460.39	7475.67
460.57	7346.94
460.76	7552.91
460.94	7475.67
461.12	7613.76
461.31	7424.18
461.49	7360.98
461.67	7372.69
461.85	7590.36
462.04	7377.37
462.22	8215.28
462.40	7660.57
462.59	7801.01
462.77	7740.15
462.95	7768.24
463.13	7695.68
463.32	7796.32
463.50	7836.11
463.68	7847.82
463.86	7861.86
464.05	7751.85
464.23	8013.99
464.41	8025.70
464.59	7740.15
464.78	8124.00
464.96	7889.95
465.14	7805.69
465.32	7969.52
465.50	8285.50
465.69	8051.44
465.87	7906.33
466.05	8046.76
466.23	8028.04
466.41	8138.04
466.60	8287.84
466.78	8093.57
466.96	8116.98
467.14	8212.94
467.32	8163.79
467.51	8409.54
467.69	8074.85
467.87	8294.86
468.05	8292.52
468.23	8276.13
468.41	8362.73
468.60	8479.76
468.78	8615.51
468.96	8334.65
469.14	8641.26
469.32	8636.58
469.50	8428.27
469.69	8702.11
469.87	8765.31
470.05	8692.75
470.23	8657.64
470.41	8692.75
470.59	8547.64
470.77	8788.71
470.95	8596.79
471.14	9078.94
471.32	8730.20
471.50	8924.46
471.68	9004.04
471.86	9247.46
472.04	8891.70
472.22	9207.67
472.40	8814.46
472.58	9188.94
472.77	9345.76
472.95	9369.16
473.13	9643.01
473.31	9275.54
473.49	9348.10
473.67	9336.40
473.85	9589.17
474.03	9717.90
474.21	9696.84
474.39	9715.56
474.57	9743.65
474.75	9961.32
474.93	9881.74
475.12	9811.53
475.30	9860.68
475.48	10047.92
475.66	9895.78
475.84	10012.81
476.02	10352.19
476.20	10094.73
476.38	10104.09
476.56	10326.44
476.74	10569.86
476.92	10284.31
477.10	10532.41
477.28	10658.80
477.46	10501.98
477.64	10874.13
477.82	10927.96
478.00	11239.25
478.18	10930.30
478.36	11143.29
478.54	11318.83
478.72	11227.55
478.90	11424.15
479.08	11477.99
479.26	11492.03
479.44	11653.53
479.62	11719.06
479.80	11772.89
479.98	12217.60
480.16	12119.29
480.34	11784.60
480.52	11875.88
480.70	12098.23
480.88	12018.65
481.06	12414.20
481.24	12184.83
481.41	12564.00
481.59	12507.82
481.77	12723.15
481.95	12762.94
482.13	12924.44
482.31	12603.78
482.49	13378.50
482.67	13193.60
482.85	13376.16
483.03	13006.36
483.21	13685.11
483.39	13659.37
483.57	13703.84
483.74	13923.85
483.92	13958.96
484.10	13909.80
484.28	13898.10
484.46	14200.03
484.64	14595.58
484.82	14115.77
485.00	14860.06
485.18	14665.80
485.35	15159.65
485.53	14747.72
485.71	15129.22
485.89	15468.60
486.07	15145.61
486.25	15311.78
486.43	15410.09
486.61	15522.43
486.78	15880.53
486.96	15953.09
487.14	16137.99
487.32	15758.83
487.50	15887.56
487.68	16133.31
487.85	16332.26
488.03	16868.24
488.21	17001.65
488.39	16599.08
488.57	17151.45
488.75	16889.31
488.92	17322.30
489.10	17331.67
489.28	17160.81
489.46	17736.58
489.64	17743.60
489.81	18064.25
489.99	18064.25
490.17	18171.92
490.35	18541.72
490.53	18326.39
490.70	18616.62
490.88	18808.54
491.06	18899.83
491.24	18862.38
491.41	19037.92
491.59	18888.12
491.77	19264.95
491.95	18813.23
492.13	19271.97
492.30	19569.22
492.48	19637.09
492.66	19466.24
492.84	19859.45
493.01	20198.82
493.19	19934.34
493.37	20453.94
493.54	20219.89
493.72	20437.56
493.90	20540.54
494.08	20659.91
494.25	20926.73
494.43	20575.65
494.61	21240.36
494.79	21092.91
494.96	21273.13
495.14	21200.57
495.32	21509.52
495.49	21296.53
495.67	21626.55
495.85	21530.59
496.02	21750.60
496.20	22197.64
496.38	22302.96
496.55	22590.85
496.73	22747.67
496.91	22441.06
497.09	22422.33
497.26	22661.07
497.44	22909.16
497.62	22771.07
497.79	23285.99
497.97	23239.18
498.14	23178.33
498.32	23461.53
498.50	23920.28
498.67	24013.90
498.85	24208.16
499.03	23927.30
499.20	23658.14
499.38	24116.88
499.56	23985.81
499.73	24374.34
499.91	24299.44
500.08	24500.73
500.26	24386.04
500.44	24261.99
500.61	24610.73
500.79	24208.16
500.97	24861.17
501.14	25280.13
501.32	25167.78
501.49	24938.41
501.67	25350.34
501.84	25350.34
502.02	25586.74
502.20	25523.54
502.37	25596.10
502.55	25497.80
502.72	25991.65
502.90	25453.33
503.07	25823.13
503.25	25647.59
503.43	25926.11
503.60	26436.35
503.78	26429.33
503.95	26026.76
504.13	26448.05
504.30	26529.97
504.48	26696.15
504.65	26808.50
504.83	26513.59
505.01	26876.37
505.18	27124.47
505.36	27239.15
505.53	27007.44
505.71	26899.78
505.88	27185.32
506.06	27108.08
506.23	27117.45
506.41	27185.32
506.58	27765.78
506.76	27718.96
506.93	27885.14
507.11	27576.19
507.28	28268.99
507.46	27995.15
507.63	27838.33
507.81	28140.26
507.98	27740.03
508.16	28203.46
508.33	28381.34
508.50	28435.17
508.68	28395.38
508.85	29010.94
509.03	28453.89
509.20	28875.19
509.38	29259.04
509.55	28467.94
509.73	29046.05
509.90	29500.11
510.08	29142.01
510.25	29357.34
510.42	29355.00
510.60	29834.81
510.77	29750.55
510.95	30199.93
511.12	29649.91
511.30	29582.03
511.47	29991.62
511.64	29785.66
511.82	30050.14
511.99	30375.47
512.17	30164.82
512.34	30328.66
512.51	30581.44
512.69	31077.63
512.86	30579.10
513.04	30918.48
513.21	30810.81
513.38	30904.43
513.56	31019.12
513.73	30630.59
513.90	30939.54
514.08	30883.37
514.25	31321.05
514.43	31117.42
514.60	31133.81
514.77	31084.65
514.95	31257.85
515.12	31405.31
515.29	31379.56
515.47	31573.83
515.64	32074.70
515.81	31740.00
515.99	31594.89
516.16	32114.49
516.33	32058.32
516.51	32247.90
516.68	31978.74
516.85	32086.40
517.03	32432.80
517.20	32556.85
517.37	32357.91
517.54	32936.02
517.72	33160.71
517.89	32566.21
518.06	32563.87
518.24	32566.21
518.41	32737.07
518.58	32723.03
518.75	32620.05
518.93	33024.96
519.10	33001.55
519.27	33277.74
519.45	33134.96
519.62	33525.83
519.79	33078.79
519.96	33366.68
520.14	33376.04
520.31	33556.26
520.48	33937.77
520.65	33710.74
520.83	33998.62
521.00	34359.06
521.17	34197.57
521.34	34265.44
521.52	34440.98
521.69	34087.56
521.86	34419.92
522.03	34366.09
522.20	34244.38
522.38	34726.53
522.55	34785.04
522.72	34785.04
522.89	34597.80
523.07	35400.60
523.24	34993.35
523.41	35236.77
523.58	34443.32
523.75	35522.31
523.92	34742.91
524.10	35157.19
524.27	35292.94
524.44	35777.43
524.61	35234.42
524.78	35622.95
524.96	35646.36
525.13	35526.99
525.30	35606.57
525.47	36121.49
525.64	35814.88
525.81	36180.00
525.98	35791.47
526.16	36250.22
526.33	35943.61
526.50	36142.55
526.67	36093.40
526.84	36432.78
527.01	36095.74
527.18	36304.05
527.36	36816.63
527.53	36570.87
527.70	36514.70
527.87	36837.69
528.04	36524.06
528.21	36636.41
528.38	36814.29
528.55	36793.22
528.72	36935.99
528.89	36931.31
529.07	37010.89
529.24	37254.31
529.41	37237.92
529.58	37254.31
529.75	36996.85
529.92	37324.52
530.09	37542.19
530.26	37413.46
530.43	37544.53
530.60	37474.32
530.77	37368.99
530.94	37603.05
531.11	37502.40
531.28	37708.37
531.46	37729.44
531.63	37787.95
531.80	37848.80
531.97	38286.48
532.14	38274.78
532.31	37654.54
532.48	38178.82
532.65	38178.82
532.82	38536.92
532.99	38480.75
533.16	37792.63
533.33	38494.79
533.50	38536.92
533.67	38148.39
533.84	38335.63
534.01	38417.55
534.18	38532.24
534.35	39241.42
534.52	39166.52
534.69	39028.43
534.86	39377.17
535.03	39367.81
535.20	38946.51
535.37	39318.66
535.54	39498.88
535.71	38939.49
535.88	39290.57
536.05	39049.50
536.22	39704.85
536.38	39257.81
536.55	39335.04
536.72	39386.54
536.89	39402.92
537.06	39225.04
537.23	39611.23
537.40	39468.45
537.57	39812.51
537.74	39313.98
537.91	39978.69
538.08	40467.86
538.25	39543.35
538.42	39913.16
538.59	40348.50
538.75	40009.12
538.92	39915.50
539.09	40268.92
539.26	40069.97
539.43	40832.99
539.60	40694.89
539.77	40025.50
539.94	40767.45
540.11	40577.87
540.28	40484.25
540.44	40425.73
540.61	40399.99
540.78	39992.73
540.95	40313.39
541.12	40603.61
541.29	40362.54
541.46	40474.88
541.62	40655.11
541.79	41081.08
541.96	40423.39
542.13	40357.86
542.30	40875.12
542.47	41041.29
542.63	41242.58
542.80	41347.90
542.97	41532.81
543.14	41624.09
543.31	41500.04
543.48	41401.74
543.64	41996.23
543.81	41745.80
543.98	41544.51
544.15	41954.10
544.32	41841.76
544.48	42609.45
544.65	42265.39
544.82	42000.91
544.99	41530.47
545.16	41820.69
545.32	42050.06
545.49	42206.88
545.66	42237.31
545.83	41965.81
546.00	42602.43
546.16	41879.21
546.33	42373.06
546.50	42288.80
546.67	42410.51
546.83	42003.25
547.00	42197.52
547.17	41855.80
547.34	42480.72
547.50	42871.59
547.67	43182.88
547.84	42993.30
548.00	43182.88
548.17	42848.19
548.34	43049.47
548.51	43201.61
548.67	42686.69
548.84	42911.38
549.01	42686.69
549.18	42953.51
549.34	42951.17
549.51	43208.63
549.68	43227.35
549.84	42625.84
550.01	43086.92
550.18	43047.13
550.34	43491.83
550.51	43438.00
550.68	43512.90
550.84	42923.08
551.01	43409.92
551.18	43643.97
551.34	43374.81
551.51	43707.16
551.68	43756.32
551.84	44011.43
552.01	43482.47
552.18	43927.17
552.34	43220.33
552.51	43400.55
552.68	43416.94
552.84	43693.12
553.01	43861.64
553.18	44210.38
553.34	44032.50
553.51	43882.70
553.67	43702.48
553.84	44390.60
554.01	44264.21
554.17	43840.57
554.34	44011.43
554.51	44254.85
554.67	44811.90
554.84	44135.48
555.00	44201.02
555.17	44083.99
555.33	44222.08
555.50	44437.41
555.67	44240.81
555.83	44329.75
556.00	44488.90
556.16	45095.10
556.33	44596.57
556.50	44289.96
556.66	44676.15
556.83	44304.00
556.99	44758.06
557.16	44999.14
557.32	44495.92
557.49	44470.18
557.65	44575.50
557.82	44971.05
557.98	44746.36
558.15	44774.45
558.32	44931.26
558.48	44676.15
558.65	45151.27
558.81	45106.80
558.98	44704.23
559.14	45045.95
559.31	44760.40
559.47	44587.21
559.64	45244.90
559.80	45151.27
559.97	45263.62
560.13	45013.18
560.30	45460.23
560.46	45364.26
560.63	45296.39
560.79	45088.08
560.96	45329.16
561.12	45226.17
561.29	45392.35
561.45	45303.41
561.61	44966.37
561.78	45427.46
561.94	45382.99
562.11	45570.23
562.27	45317.45
562.44	45268.30
562.60	46092.17
562.77	45289.37
562.93	45530.44
563.10	45750.45
563.26	45612.36
563.42	45839.39
563.59	45710.66
563.75	45312.77
563.92	45881.52
564.08	45270.64
564.24	45694.28
564.41	45605.34
564.57	45865.14
564.74	45811.31
564.90	45125.53
565.07	45654.49
565.23	45371.28
565.39	46005.57
565.56	46007.91
565.72	45783.22
565.88	46082.81
566.05	45280.00
566.21	45874.50
566.38	45991.53
566.54	46103.87
566.70	45911.95
566.87	45705.98
567.03	45741.09
567.19	45925.99
567.36	45893.22
567.52	45893.22
567.68	46373.03
567.85	46307.50
568.01	46038.34
568.17	45656.83
568.34	46036.00
568.50	45764.49
568.66	46127.28
568.83	46169.41
568.99	45715.34
569.15	46274.73
569.32	46024.29
569.48	46209.20
569.64	46059.40
569.81	46146.00
569.97	46124.94
570.13	46408.14
570.30	45673.21
570.46	46450.27
570.62	46440.91
570.78	46373.03
570.95	46089.83
571.11	46241.96
571.27	46033.66
571.43	46071.10
571.60	46220.90
571.76	46057.06
571.92	46326.22
572.09	46494.74
572.25	46064.08
572.41	46300.48
572.57	46202.18
572.74	46600.07
572.90	46436.23
573.06	46408.14
573.22	46401.12
573.38	46890.29
573.55	46918.38
573.71	46857.52
573.87	46471.34
574.03	46658.58
574.20	46733.48
574.36	46555.60
574.52	46948.81
574.68	46356.65
574.84	46604.75
575.01	47021.36
575.17	46686.67
575.33	46831.78
575.49	46740.50
575.65	46614.11
575.82	46712.41
575.98	46316.86
576.14	46850.50
576.30	47140.73
576.46	47117.32
576.62	46632.83
576.79	46834.12
576.95	46363.67
577.11	46803.69
577.27	46742.84
577.43	47119.66
577.59	46761.56
577.75	46714.75
577.92	46616.45
578.08	46902.00
578.24	47000.30
578.40	46906.68
578.56	47077.54
578.72	46738.16
578.88	46340.27
579.04	46880.93
579.21	46635.17
579.37	46700.71
579.53	47056.47
579.69	46571.98
579.85	46665.60
580.01	46852.84
580.17	46941.78
580.33	46897.31
580.49	46941.78
580.65	47292.86
580.82	46719.43
580.98	46607.09
581.14	46696.03
581.30	46965.19
581.46	46560.28
581.62	46932.42
581.78	46380.06
581.94	46602.41
582.10	46681.98
582.26	46976.89
582.42	46848.16
582.58	46625.81
582.74	47344.36
582.90	46791.99
583.06	47082.22
583.22	46541.55
583.38	46775.61
583.54	47019.02
583.70	47220.31
583.86	47217.97
584.02	47278.82
584.18	47358.40
584.34	47435.64
584.50	46775.61
584.66	47250.74
584.82	46773.27
584.98	47552.66
585.14	47327.97
585.30	47016.68
585.46	47049.45
585.62	46885.61
585.78	47257.76
585.94	46693.69
586.10	46791.99
586.26	47159.45
586.42	46890.29
586.58	47159.45
586.74	47093.92
586.90	46953.49
587.06	46621.13
587.22	46993.28
587.38	46571.98
587.54	47061.15
587.70	47571.39
587.86	46988.60
588.02	47243.71
588.18	46768.58
588.34	47365.42
588.49	47161.79
588.65	47161.79
588.81	46997.96
588.97	47049.45
589.13	47454.36
589.29	47480.11
589.45	47164.14
589.61	47428.62
589.77	47386.49
589.93	47533.94
590.08	47562.03
