SpectraSuite Data File
++++++++++++++++++++++++++++++++++++
Date: Fri Oct 25 10:47:53 EDT 2013
User: price-jones
Dark Spectrum Present: No
Reference Spectrum Present: No
Number of Sampled Component Spectra: 1
Spectrometers: USB2+H05261
Integration Time (usec): 100000 (USB2+H05261)
Spectra Averaged: 1 (USB2+H05261)
Boxcar Smoothing: 0 (USB2+H05261)
Correct for Electrical Dark: No (USB2+H05261)
Strobe/Lamp Enabled: No (USB2+H05261)
Correct for Detector Non-linearity: No (USB2+H05261)
Correct for Stray Light: No (USB2+H05261)
Number of Pixels in Processed Spectrum: 2048
>>>>>Begin Processed Spectral Data<<<<<
365.73	91.28
365.92	91.28
366.12	91.28
366.32	14.04
366.52	21.06
366.72	49.15
366.91	28.09
367.11	107.66
367.31	77.24
367.51	39.79
367.70	0.00
367.90	58.51
368.10	42.13
368.30	49.15
368.49	16.38
368.69	51.49
368.89	25.75
369.09	25.75
369.28	9.36
369.48	63.19
369.68	88.94
369.87	126.39
370.07	110.01
370.27	210.65
370.47	205.97
370.66	365.12
370.86	428.32
371.06	447.04
371.25	531.30
371.45	463.43
371.65	447.04
371.84	468.11
372.04	486.83
372.24	528.96
372.44	458.74
372.63	510.24
372.83	505.56
373.03	475.13
373.22	423.64
373.42	564.07
373.62	498.53
373.81	521.94
374.01	503.22
374.21	568.75
374.40	564.07
374.60	585.13
374.79	571.09
374.99	578.11
375.19	547.69
375.38	561.73
375.58	657.69
375.78	585.13
375.97	531.30
376.17	629.60
376.37	580.45
376.56	664.71
376.76	589.82
376.95	585.13
377.15	491.51
377.35	589.82
377.54	613.22
377.74	692.80
377.93	669.39
378.13	678.76
378.33	599.18
378.52	643.65
378.72	620.24
378.91	634.29
379.11	622.58
379.31	585.13
379.50	667.05
379.70	716.20
379.89	629.60
380.09	643.65
380.28	620.24
380.48	669.39
380.68	582.79
380.87	641.31
381.07	678.76
381.26	702.16
381.46	706.84
381.65	688.12
381.85	734.93
382.04	779.40
382.24	699.82
382.43	716.20
382.63	674.07
382.83	674.07
383.02	634.29
383.22	720.88
383.41	709.18
383.61	765.36
383.80	849.61
384.00	683.44
384.19	856.64
384.39	798.12
384.58	758.33
384.78	727.91
384.97	741.95
385.17	760.67
385.36	763.01
385.56	685.78
385.75	765.36
385.95	763.01
386.14	727.91
386.34	816.85
386.53	819.19
386.72	774.72
386.92	835.57
387.11	833.23
387.31	826.21
387.50	851.96
387.70	847.27
387.89	868.34
388.09	933.87
388.28	823.87
388.48	889.40
388.67	873.02
388.86	809.83
389.06	917.49
389.25	884.72
389.45	880.04
389.64	915.15
389.84	915.15
390.03	919.83
390.22	938.55
390.42	858.98
390.61	926.85
390.81	919.83
391.00	947.92
391.19	924.51
391.39	978.34
391.58	954.94
391.78	973.66
391.97	987.71
392.16	978.34
392.36	1008.77
392.55	898.77
392.75	903.45
392.94	980.68
393.13	954.94
393.33	931.53
393.52	971.32
393.71	1025.15
393.91	985.37
394.10	1013.45
394.29	973.66
394.49	1039.20
394.68	1198.35
394.88	1114.10
395.07	1121.12
395.26	1034.52
395.46	1116.44
395.65	1160.91
395.84	1090.69
396.04	1186.65
396.23	1123.46
396.42	1167.93
396.62	1193.67
396.81	1156.22
397.00	1078.99
397.19	1179.63
397.39	1231.12
397.58	1268.57
397.77	1233.46
397.97	1334.11
398.16	1270.91
398.35	1301.34
398.55	1317.72
398.74	1221.76
398.93	1373.89
399.12	1334.11
399.32	1317.72
399.51	1352.83
399.70	1359.85
399.90	1383.26
400.09	1392.62
400.28	1380.92
400.47	1406.66
400.67	1479.22
400.86	1465.18
401.05	1427.73
401.24	1535.39
401.44	1432.41
401.63	1579.86
401.82	1558.80
402.01	1516.67
402.21	1514.33
402.40	1502.62
402.59	1530.71
402.78	1507.30
402.97	1551.78
403.17	1549.43
403.36	1537.73
403.55	1621.99
403.74	1561.14
403.93	1694.55
404.13	1699.23
404.32	1713.27
404.51	1757.74
404.70	1764.76
404.89	1682.85
405.09	1636.03
405.28	1797.53
405.47	1694.55
405.66	1680.50
405.85	1645.40
406.05	1760.08
406.24	1776.47
406.43	1806.89
406.62	1851.36
406.81	1884.13
407.00	1769.44
407.20	1804.55
407.39	1781.15
407.58	1987.11
407.77	1884.13
407.96	1973.07
408.15	2003.50
408.34	1900.52
408.54	1966.05
408.73	1898.17
408.92	1888.81
409.11	2099.46
409.30	2017.54
409.49	2019.88
409.68	2057.33
409.87	1987.11
410.07	2148.61
410.26	2047.97
410.45	2062.01
410.64	2143.93
410.83	2179.04
411.02	2244.57
411.21	2282.02
411.40	2263.30
411.59	2263.30
411.78	2326.49
411.98	2291.38
412.17	2340.54
412.36	2473.95
412.55	2382.67
412.74	2356.92
412.93	2469.27
413.12	2307.77
413.31	2497.35
413.50	2485.65
413.69	2349.90
413.88	2565.23
414.07	2590.97
414.26	2607.36
414.45	2588.63
414.64	2654.17
414.83	2633.10
415.02	2686.94
415.22	2731.41
415.41	2925.67
415.60	2789.92
415.79	2747.79
415.98	2771.19
416.17	2871.84
416.36	2773.53
416.55	2846.09
416.74	2860.13
416.93	2979.50
417.12	2913.97
417.31	2988.86
417.50	2946.73
417.69	3126.96
417.88	2967.80
418.07	3038.02
418.26	3096.53
418.45	3152.70
418.64	3180.79
418.83	3131.64
419.02	3192.49
419.21	3082.49
419.39	3248.66
419.58	3110.57
419.77	3124.62
419.96	3297.81
420.15	3272.07
420.34	3276.75
420.53	3255.69
420.72	3524.85
420.91	3297.81
421.10	3342.28
421.29	3372.71
421.48	3377.39
421.67	3398.46
421.86	3363.35
422.05	3482.72
422.24	3548.25
422.43	3421.86
422.61	3585.70
422.80	3574.00
422.99	3566.98
423.18	3529.53
423.37	3555.27
423.56	3471.01
423.75	3440.59
423.94	3529.53
424.13	3243.98
424.32	3297.81
424.50	3585.70
424.69	3693.37
424.88	3543.57
425.07	3524.85
425.26	3515.48
425.45	3534.21
425.64	3499.10
425.83	3531.87
426.01	3536.55
426.20	3698.05
426.39	3543.57
426.58	3576.34
426.77	3576.34
426.96	3669.96
427.15	3658.26
427.33	3574.00
427.52	3576.34
427.71	3700.39
427.90	3632.51
428.09	3756.56
428.28	3698.05
428.46	3672.30
428.65	3822.09
428.84	3906.35
429.03	3913.38
429.22	3719.11
429.40	3784.65
429.59	3798.69
429.78	3742.52
429.97	3744.86
430.16	3791.67
430.34	3822.09
430.53	3810.39
430.72	3864.22
430.91	3782.31
431.10	4030.40
431.28	4046.79
431.47	4215.30
431.66	4016.36
431.85	4060.83
432.03	4131.05
432.22	4051.47
432.41	4198.92
432.60	3971.89
432.79	4252.75
432.97	4231.69
433.16	4271.48
433.35	4105.30
433.54	4243.39
433.72	4219.99
433.91	4081.89
434.10	4124.02
434.28	4229.35
434.47	4484.47
434.66	4498.51
434.85	4400.21
435.03	4458.72
435.22	4308.93
435.41	4709.16
435.59	4678.73
435.78	4645.96
435.97	4388.50
436.16	4489.15
436.34	4568.73
436.53	4645.96
436.72	4755.97
436.90	4564.04
437.09	4517.23
437.28	4620.22
437.46	4716.18
437.65	4681.07
437.84	4622.56
438.02	4664.69
438.21	4739.58
438.40	4690.43
438.58	4884.70
438.77	4844.91
438.96	4809.80
439.14	4945.55
439.33	5011.09
439.52	5057.90
439.70	5116.41
439.89	5137.48
440.08	5172.58
440.26	5074.28
440.45	4985.34
440.63	5177.26
440.82	5364.51
441.01	5224.08
441.19	5444.09
441.38	5324.72
441.57	5486.22
441.75	5568.13
441.94	5614.95
442.12	5659.42
442.31	5750.70
442.50	5577.50
442.68	5673.46
442.87	5706.23
443.05	5776.44
443.24	5802.19
443.43	5841.98
443.61	5734.31
443.80	5970.71
443.98	5621.97
444.17	5430.04
444.35	5914.53
444.54	5923.90
444.73	5893.47
444.91	5839.64
445.10	5788.14
445.28	5982.41
445.47	5760.06
445.65	5909.85
445.84	5895.81
446.02	5928.58
446.21	5806.87
446.39	5701.54
446.58	5998.79
446.77	5937.94
446.95	5706.23
447.14	5970.71
447.32	6001.13
447.51	5991.77
447.69	5879.43
447.88	6066.67
448.06	5937.94
448.25	5949.64
448.43	5874.74
448.62	5963.68
448.80	6040.92
448.99	6040.92
449.17	6129.86
449.36	6040.92
449.54	6115.82
449.73	6293.70
449.91	6394.34
450.10	6347.53
450.28	6420.09
450.46	6251.57
450.65	6324.13
450.83	6396.68
451.02	6317.11
451.20	6511.37
451.39	6413.07
451.57	6300.72
451.76	6368.60
451.94	6469.24
452.13	6572.22
452.31	6373.28
452.49	6387.32
452.68	6502.01
452.86	6422.43
453.05	6462.22
453.23	6581.59
453.42	6387.32
453.60	6614.35
453.78	6665.85
453.97	6586.27
454.15	6628.40
454.34	6633.08
454.52	6759.47
454.70	6846.07
454.89	6825.00
455.07	6747.76
455.26	6820.32
455.44	7066.08
455.62	6953.73
455.81	6834.36
455.99	6984.16
456.17	6923.30
456.36	7140.97
456.54	7232.26
456.73	7293.11
456.91	7314.17
457.09	7295.45
457.28	7426.52
457.46	7232.26
457.64	7344.60
457.83	7307.15
458.01	7094.16
458.19	7178.42
458.38	7330.56
458.56	7421.84
458.74	7375.03
458.93	7515.46
459.11	7363.33
459.29	7492.05
459.48	7550.57
459.66	7431.20
459.84	7613.76
460.03	7749.51
460.21	7543.55
460.39	7768.24
460.57	7700.36
460.76	7754.19
460.94	7658.23
461.12	7733.13
461.31	7791.64
461.49	7801.01
461.67	7716.75
461.85	7971.86
462.04	7887.61
462.22	8201.24
462.40	8004.63
462.59	7887.61
462.77	8109.96
462.95	8091.23
463.13	7934.42
463.32	8028.04
463.50	8109.96
463.68	7962.50
463.86	8126.34
464.05	8023.36
464.23	8091.23
464.41	8053.78
464.59	8124.00
464.78	8414.23
464.96	8372.10
465.14	8154.43
465.32	8446.99
465.50	8402.52
465.69	8351.03
465.87	8180.17
466.05	8313.58
466.23	8264.43
466.41	8308.90
466.60	8379.12
466.78	8458.70
466.96	8355.71
467.14	8344.01
467.32	8404.86
467.51	8699.77
467.69	8360.39
467.87	8580.40
468.05	8812.12
468.23	8500.83
468.41	8475.08
468.60	8505.51
468.78	8777.01
468.96	8702.11
469.14	8744.24
469.32	9013.40
469.50	8533.59
469.69	8943.19
469.87	8982.98
470.05	8753.60
470.23	8938.51
470.41	9034.47
470.59	9013.40
470.77	9085.96
470.95	9160.86
471.14	9135.11
471.32	8912.76
471.50	9074.26
471.68	9483.85
471.86	9427.68
472.04	9350.44
472.22	9518.96
472.40	9327.03
472.58	9507.26
472.77	9418.32
472.95	9500.23
473.13	9874.72
473.31	9603.22
473.49	9652.37
473.67	9643.01
473.85	9586.83
474.03	10047.92
474.21	9834.93
474.39	9975.36
474.57	10061.96
474.75	9954.30
474.93	10052.60
475.12	10059.62
475.30	10169.63
475.48	10188.35
475.66	10490.28
475.84	9998.77
476.02	10249.21
476.20	10207.08
476.38	10583.90
476.56	10890.51
476.74	10710.29
476.92	10487.94
477.10	10923.28
477.28	10738.38
477.46	10981.79
477.64	11059.03
477.82	11480.33
478.00	11349.26
478.18	11325.85
478.36	11456.92
478.54	11407.77
478.72	11389.05
478.90	11669.91
479.08	11978.86
479.26	12006.95
479.44	12009.29
479.62	11822.05
479.80	11887.58
479.98	12348.67
480.16	12617.83
480.34	12343.99
480.52	12772.30
480.70	12528.89
480.88	12358.03
481.06	12428.24
481.24	12437.61
481.41	13050.83
481.59	13114.02
481.77	12823.80
481.95	12966.57
482.13	13132.75
482.31	13020.40
482.49	13591.49
482.67	13540.00
482.85	13783.41
483.03	13738.94
483.21	13790.44
483.39	14129.81
483.57	13874.70
483.74	14281.95
483.92	14483.24
484.10	14150.88
484.28	14551.11
484.46	14707.93
484.64	15000.49
484.82	14588.56
485.00	14721.97
485.18	14920.92
485.35	15250.93
485.53	14991.13
485.71	15016.88
485.89	15403.07
486.07	15117.52
486.25	15180.71
486.43	15763.51
486.61	15421.79
486.78	16093.52
486.96	15887.56
487.14	16149.70
487.32	16358.00
487.50	16610.78
487.68	16652.91
487.85	16908.03
488.03	16791.00
488.21	16973.56
488.39	16793.34
488.57	16945.48
488.75	17287.20
488.92	17610.19
489.10	17750.62
489.28	17624.23
489.46	17886.37
489.64	17991.70
489.81	18143.83
489.99	18384.91
490.17	18532.36
490.35	18862.38
490.53	18661.09
490.70	18691.52
490.88	18623.64
491.06	19094.09
491.24	18888.12
491.41	19096.43
491.59	19278.99
491.77	19311.76
491.95	19431.13
492.13	19601.99
492.30	19882.85
492.48	19679.22
492.66	19999.88
492.84	19887.53
493.01	20245.63
493.19	20020.94
493.37	20599.05
493.54	20257.34
493.72	20821.41
493.90	20664.59
494.08	20870.56
494.25	21263.77
494.43	21205.25
494.61	21291.85
494.79	21605.49
494.96	21385.47
495.14	21736.56
495.32	21509.52
495.49	21776.34
495.67	21649.96
495.85	22153.17
496.02	22134.45
496.20	22377.86
496.38	22321.69
496.55	22546.38
496.73	22698.52
496.91	22363.82
497.09	22925.55
497.26	22939.59
497.44	22934.91
497.62	23300.03
497.79	23358.55
497.97	23070.66
498.14	23400.68
498.32	23545.79
498.50	23805.59
498.67	23953.04
498.85	23817.29
499.03	24180.07
499.20	23929.64
499.38	24037.30
499.56	24414.13
499.73	24451.58
499.91	24439.87
500.08	24643.50
500.26	24287.74
500.44	24826.06
500.61	24713.72
500.79	24540.52
500.97	24987.56
501.14	25104.59
501.32	25245.02
501.49	25062.46
501.67	25064.80
501.84	25387.79
502.02	25607.80
502.20	25666.31
502.37	25607.80
502.55	25692.06
502.72	25727.17
502.90	25757.60
503.07	25455.67
503.25	25633.55
503.43	25972.92
503.60	26038.46
503.78	26141.44
503.95	26017.40
504.13	26394.22
504.30	26618.91
504.48	26244.43
504.65	26831.90
504.83	26944.25
505.01	27124.47
505.18	27295.33
505.36	27105.74
505.53	27110.43
505.71	27644.07
505.88	27414.69
506.06	27314.05
506.23	27178.30
506.41	27133.83
506.58	27538.74
506.76	27461.51
506.93	27901.53
507.11	27744.71
507.28	27868.76
507.46	27683.86
507.63	28130.90
507.81	28339.21
507.98	28044.30
508.16	28210.48
508.33	27974.08
508.50	28025.57
508.68	29010.94
508.85	28893.91
509.03	28741.78
509.20	28723.05
509.38	28774.55
509.55	29184.14
509.73	29158.39
509.90	29027.32
510.08	29120.95
510.25	29418.19
510.42	29387.77
510.60	29469.69
510.77	29530.54
510.95	29788.00
511.12	29722.46
511.30	29839.49
511.47	29961.20
511.64	30176.53
511.82	30242.06
511.99	30092.27
512.17	30256.11
512.34	29567.99
512.51	30464.41
512.69	30541.65
512.86	30543.99
513.04	30473.78
513.21	30721.87
513.38	30780.39
513.56	30745.28
513.73	30354.41
513.90	30632.93
514.08	30745.28
514.25	31077.63
514.43	31269.56
514.60	31304.67
514.77	30492.50
514.95	31358.50
515.12	31014.44
515.29	31498.93
515.47	31529.36
515.64	31321.05
515.81	31461.48
515.99	31398.29
516.16	31601.91
516.33	31421.69
516.51	31613.62
516.68	31648.72
516.85	31431.05
517.03	31585.53
517.20	32046.62
517.37	31894.48
517.54	32299.39
517.72	32154.28
517.89	31936.61
518.06	31873.42
518.24	32187.05
518.41	32032.57
518.58	32439.82
518.75	32416.42
518.93	32708.99
519.10	32451.53
519.27	32875.16
519.45	33141.99
519.62	33078.79
519.79	32781.54
519.96	33333.91
520.14	33539.88
520.31	32907.93
520.48	33464.98
520.65	33303.48
520.83	33413.49
521.00	33624.14
521.17	33553.92
521.34	33631.16
521.52	33865.21
521.69	33668.61
521.86	34220.97
522.03	34132.03
522.20	33914.36
522.38	34258.42
522.55	34555.67
522.72	34216.29
522.89	34099.26
523.07	34717.17
523.24	34433.96
523.41	34876.32
523.58	34375.45
523.75	34670.36
523.92	35068.25
524.10	34841.21
524.27	35005.05
524.44	35194.64
524.61	35185.27
524.78	35033.14
524.96	35119.74
525.13	35304.64
525.30	35484.86
525.47	35564.44
525.64	35459.12
525.81	35487.20
525.98	35573.80
526.16	35367.84
526.33	35154.85
526.50	35548.06
526.67	35620.61
526.84	35328.05
527.01	35431.03
527.18	35611.25
527.36	36067.66
527.53	35901.48
527.70	36711.30
527.87	36273.62
528.04	35929.56
528.21	36259.58
528.38	35674.45
528.55	36629.38
528.72	36194.04
528.89	36781.52
529.07	36687.90
529.24	36357.88
529.41	36231.49
529.58	36708.96
529.75	36432.78
529.92	36465.55
530.09	36699.60
530.26	36882.16
530.43	36877.48
530.60	36919.61
530.77	36952.38
530.94	37088.13
531.11	36854.08
531.28	37385.38
531.46	37301.12
531.63	36896.20
531.80	37315.16
531.97	36879.82
532.14	37212.18
532.31	37050.68
532.48	37219.20
532.65	37642.84
532.82	37684.97
532.99	37455.59
533.16	37326.86
533.33	38162.43
533.50	37865.19
533.67	37724.75
533.84	37663.90
534.01	37930.72
534.18	38019.66
534.35	38314.57
534.52	37895.61
534.69	38003.28
534.86	38148.39
535.03	38026.68
535.20	38649.27
535.37	38649.27
535.54	38904.38
535.71	38333.29
535.88	38604.80
536.05	38859.91
536.22	38326.27
536.38	38593.09
536.55	38801.40
536.72	38962.90
536.89	38665.65
537.06	38340.32
537.23	38859.91
537.40	38541.60
537.57	38888.00
537.74	38728.84
537.91	38998.01
538.08	38829.49
538.25	38359.04
538.42	39103.33
538.59	39407.60
538.75	38747.57
538.92	39508.24
539.09	39089.29
539.26	39714.21
539.43	39414.62
539.60	39232.06
539.77	39220.36
539.94	39501.22
540.11	38906.73
540.28	39526.97
540.44	39742.30
540.61	39295.25
540.78	39349.09
540.95	39463.77
541.12	39140.78
541.29	39564.42
541.46	39763.36
541.62	39927.20
541.79	39945.92
541.96	39938.90
542.13	39938.90
542.30	40074.65
542.47	40444.46
542.63	40165.93
542.80	40545.10
542.97	40678.51
543.14	40531.06
543.31	40444.46
543.48	40357.86
543.64	40774.47
543.81	40666.81
543.98	41188.75
544.15	40652.76
544.32	40519.35
544.48	41214.49
544.65	40760.43
544.82	40416.37
544.99	40795.54
545.16	40790.86
545.32	40781.49
545.49	40875.12
545.66	41160.66
545.83	41029.59
546.00	41200.45
546.16	41542.17
546.33	40786.18
546.50	40334.45
546.67	40952.35
546.83	40830.65
547.00	41139.60
547.17	40842.35
547.34	41237.90
547.50	41378.33
547.67	41258.96
547.84	41270.67
548.00	41837.08
548.17	41858.14
548.34	41373.65
548.51	41998.57
548.67	41897.93
548.84	41818.35
549.01	41975.17
549.18	41514.08
549.34	41415.78
549.51	41741.11
549.68	41944.74
549.84	41769.20
550.01	42284.12
550.18	41635.79
550.34	41766.86
550.51	42071.13
550.68	41558.55
550.84	41724.73
551.01	42057.09
551.18	42293.48
551.34	41975.17
551.51	42218.58
551.68	41820.69
551.84	42068.79
552.01	42014.96
552.18	42251.35
552.34	42080.49
552.51	42377.74
552.68	42040.70
552.84	42291.14
553.01	42492.43
553.18	42293.48
553.34	42590.73
553.51	42071.13
553.67	42611.79
553.84	42588.39
554.01	42845.85
554.17	43068.20
554.34	43363.11
554.51	42600.09
554.67	43009.68
554.84	42801.38
555.00	42906.70
555.17	42649.24
555.33	42906.70
555.50	42604.77
555.67	42670.31
555.83	42904.36
556.00	43519.92
556.16	43253.10
556.33	43136.07
556.50	43047.13
556.66	43028.41
556.83	42976.92
556.99	42916.06
557.16	43496.52
557.32	43005.00
557.49	43079.90
557.65	43058.84
557.82	43288.21
557.98	43028.41
558.15	43285.87
558.32	43194.59
558.48	43201.61
558.65	43276.51
558.81	43157.14
558.98	43522.26
559.14	43260.12
559.31	43131.39
559.47	43524.60
559.64	43498.86
559.80	43650.99
559.97	43438.00
560.13	43480.13
560.30	43658.01
560.46	43735.25
560.63	43578.43
560.79	43615.88
560.96	43896.75
561.12	43601.84
561.29	43775.04
561.45	43786.74
561.61	44034.84
561.78	43707.16
561.94	43723.55
562.11	43496.52
562.27	43725.89
562.44	43438.00
562.60	43997.39
562.77	43927.17
562.93	43552.69
563.10	44093.35
563.26	43749.29
563.42	43791.42
563.59	43772.70
563.75	43728.23
563.92	44179.95
564.08	43648.65
564.24	44439.75
564.41	43391.19
564.57	43892.07
564.74	43770.36
564.90	43856.96
565.07	43981.01
565.23	43803.13
565.39	44128.46
565.56	44121.44
565.72	43931.86
565.88	43882.70
566.05	44194.00
566.21	44018.46
566.38	43641.63
566.54	44175.27
566.70	44170.59
566.87	44465.50
567.03	44240.81
567.19	44289.96
567.36	44339.11
567.52	43840.57
567.68	44610.61
567.85	44165.91
568.01	44432.73
568.17	43838.23
568.34	44346.13
568.50	43711.84
568.66	44486.56
568.83	44549.76
568.99	44184.63
569.15	44128.46
569.32	43583.12
569.48	43737.59
569.64	44570.82
569.81	44406.98
569.97	44191.65
570.13	44746.36
570.30	44009.09
570.46	44135.48
570.62	44109.74
570.78	44182.29
570.95	44376.56
571.11	44486.56
571.27	44301.66
571.43	43943.56
571.60	44734.66
571.76	44926.58
571.92	44189.31
572.09	44364.85
572.25	44430.39
572.41	44645.72
572.57	44119.10
572.74	45078.72
572.90	44233.78
573.06	44512.31
573.22	44671.46
573.38	44477.20
573.55	44069.95
573.71	44720.62
573.87	44524.01
574.03	44205.70
574.20	44685.51
574.36	44545.08
574.52	44339.11
574.68	44589.55
574.84	45069.36
575.01	44474.86
575.17	44266.55
575.33	44371.88
575.49	44224.42
575.65	44877.43
575.82	44671.46
575.98	44896.16
576.14	45118.51
576.30	44495.92
576.46	44299.32
576.62	44493.58
576.79	44439.75
576.95	44294.64
577.11	44451.45
577.27	44650.40
577.43	44308.68
577.59	44404.64
577.75	44877.43
577.92	44336.77
578.08	44404.64
578.24	44634.02
578.40	44458.48
578.56	44641.04
578.72	44570.82
578.88	44486.56
579.04	44870.41
579.21	44765.09
579.37	44509.97
579.53	44439.75
579.69	44568.48
579.85	44336.77
580.01	44495.92
580.17	44601.25
580.33	44938.29
580.49	44898.50
580.65	44729.98
580.82	44601.25
580.98	44779.13
581.14	44524.01
581.30	44854.03
581.46	44694.87
581.62	44514.65
581.78	44825.94
581.94	44858.71
582.10	45226.17
582.26	44746.36
582.42	44439.75
582.58	44622.31
582.74	44414.01
582.90	44863.39
583.06	44914.88
583.22	44966.37
583.38	44893.82
583.54	44863.39
583.70	44598.91
583.86	44650.40
584.02	44374.22
584.18	44601.25
584.34	44774.45
584.50	44376.56
584.66	44823.60
584.82	44467.84
584.98	45045.95
585.14	44540.39
585.30	44975.73
585.46	44868.07
585.62	44383.58
585.78	44634.02
585.94	44425.71
586.10	44552.10
586.26	44788.49
586.42	44556.78
586.58	45209.79
586.74	44961.69
586.90	44416.35
587.06	44704.23
587.22	44891.48
587.38	44383.58
587.54	45062.33
587.70	45418.10
587.86	44797.85
588.02	45062.33
588.18	45186.38
588.34	44662.10
588.49	44615.29
588.65	44453.79
588.81	44423.37
588.97	44788.49
589.13	45022.54
589.29	44739.34
589.45	45041.27
589.61	45202.77
589.77	45212.13
589.93	45052.97
590.08	44507.63
590.24	45081.06
590.40	45727.05
