SpectraSuite Data File
++++++++++++++++++++++++++++++++++++
Date: Fri Oct 25 11:25:43 EDT 2013
User: price-jones
Dark Spectrum Present: No
Reference Spectrum Present: No
Number of Sampled Component Spectra: 1
Spectrometers: USB2+H05261
Integration Time (usec): 100000 (USB2+H05261)
Spectra Averaged: 1 (USB2+H05261)
Boxcar Smoothing: 0 (USB2+H05261)
Correct for Electrical Dark: No (USB2+H05261)
Strobe/Lamp Enabled: No (USB2+H05261)
Correct for Detector Non-linearity: No (USB2+H05261)
Correct for Stray Light: No (USB2+H05261)
Number of Pixels in Processed Spectrum: 2048
>>>>>Begin Processed Spectral Data<<<<<
365.73	205.97
365.92	205.97
366.12	205.97
366.32	180.22
366.52	98.30
366.72	124.05
366.91	70.22
367.11	184.90
367.31	107.66
367.51	138.09
367.70	110.01
367.90	117.03
368.10	156.82
368.30	131.07
368.49	138.09
368.69	126.39
368.89	159.16
369.09	152.13
369.28	208.31
369.48	184.90
369.68	201.29
369.87	212.99
370.07	208.31
370.27	257.46
370.47	376.83
370.66	585.13
370.86	603.86
371.06	653.01
371.25	779.40
371.45	683.44
371.65	718.54
371.84	734.93
372.04	681.10
372.24	662.37
372.44	667.05
372.63	765.36
372.83	772.38
373.03	793.44
373.22	830.89
373.42	840.25
373.62	720.88
373.81	770.04
374.01	718.54
374.21	734.93
374.40	847.27
374.60	854.30
374.79	807.48
374.99	854.30
375.19	830.89
375.38	772.38
375.58	894.08
375.78	908.13
375.97	873.02
376.17	997.07
376.37	870.68
376.56	863.66
376.76	837.91
376.95	819.19
377.15	887.06
377.35	896.43
377.54	898.77
377.74	856.64
377.93	889.40
378.13	835.57
378.33	926.85
378.52	908.13
378.72	945.58
378.91	1022.81
379.11	903.45
379.31	987.71
379.50	1011.11
379.70	901.11
379.89	950.26
380.09	1006.43
380.28	903.45
380.48	994.73
380.68	994.73
380.87	1078.99
381.07	1076.65
381.26	1043.88
381.46	1069.62
381.65	1050.90
381.85	947.92
382.04	1032.18
382.24	992.39
382.43	1041.54
382.63	1069.62
382.83	1095.37
383.02	1069.62
383.22	1062.60
383.41	1116.44
383.61	1104.73
383.80	1083.67
384.00	1109.41
384.19	1144.52
384.39	1118.78
384.58	1177.29
384.78	1128.14
384.97	1121.12
385.17	1111.75
385.36	1188.99
385.56	1146.86
385.75	1219.42
385.95	1095.37
386.14	1179.63
386.34	1196.01
386.53	1165.59
386.72	1228.78
386.92	1233.46
387.11	1294.32
387.31	1214.74
387.50	1193.67
387.70	1273.25
387.89	1289.64
388.09	1315.38
388.28	1165.59
388.48	1306.02
388.67	1364.53
388.86	1256.87
389.06	1294.32
389.25	1179.63
389.45	1345.81
389.64	1366.87
389.84	1350.49
390.03	1338.79
390.22	1350.49
390.42	1394.96
390.61	1343.47
390.81	1380.92
391.00	1453.47
391.19	1427.73
391.39	1430.07
391.58	1448.79
391.78	1439.43
391.97	1385.60
392.16	1563.48
392.36	1446.45
392.55	1565.82
392.75	1556.46
392.94	1537.73
393.13	1589.22
393.33	1511.99
393.52	1582.20
393.71	1624.33
393.91	1614.97
394.10	1643.06
394.29	1652.42
394.49	1661.78
394.68	1699.23
394.88	1640.72
395.07	1650.08
395.26	1570.50
395.46	1631.35
395.65	1724.97
395.84	1743.70
396.04	1750.72
396.23	1750.72
396.42	1708.59
396.62	1792.85
396.81	1757.74
397.00	1647.74
397.19	1823.28
397.39	1727.32
397.58	1729.66
397.77	1790.51
397.97	1778.81
398.16	1809.23
398.35	1942.64
398.55	1970.73
398.74	1895.83
398.93	1923.92
399.12	1930.94
399.32	1970.73
399.51	1966.05
399.70	1893.49
399.90	1961.37
400.09	2038.61
400.28	1989.46
400.47	1933.28
400.67	2097.12
400.86	2090.10
401.05	2033.93
401.24	2054.99
401.44	2080.74
401.63	2106.48
401.82	2136.91
402.01	2176.70
402.21	2136.91
402.40	2209.47
402.59	2204.78
402.78	2118.18
402.97	2221.17
403.17	2186.06
403.36	2293.72
403.55	2279.68
403.74	2338.20
403.93	2305.43
404.13	2473.95
404.32	2310.11
404.51	2340.54
404.70	2441.18
404.89	2480.97
405.09	2499.69
405.28	2380.32
405.47	2525.44
405.66	2373.30
405.85	2502.03
406.05	2420.11
406.24	2527.78
406.43	2567.57
406.62	2656.51
406.81	2675.23
407.00	2551.18
407.20	2530.12
407.39	2511.39
407.58	2635.44
407.77	2761.83
407.96	2834.39
408.15	2733.75
408.34	2757.15
408.54	2663.53
408.73	2731.41
408.92	2904.60
409.11	2829.71
409.30	2696.30
409.49	2904.60
409.68	2902.26
409.87	2897.58
410.07	2974.82
410.26	2892.90
410.45	3042.70
410.64	3061.42
410.83	3082.49
411.02	3075.46
411.21	3187.81
411.40	3059.08
411.59	3222.92
411.78	3286.11
411.98	3103.55
412.17	3164.40
412.36	3295.47
412.55	3384.41
412.74	3349.31
412.93	3391.44
413.12	3337.60
413.31	3447.61
413.50	3585.70
413.69	3410.16
413.88	3574.00
414.07	3471.01
414.26	3618.47
414.45	3648.90
414.64	3604.42
414.83	3810.39
415.02	3758.90
415.22	3866.56
415.41	3726.13
415.60	3815.07
415.79	3791.67
415.98	4053.81
416.17	3845.50
416.36	3803.37
416.55	3908.69
416.74	4119.34
416.93	4018.70
417.12	4098.28
417.31	4119.34
417.50	4219.99
417.69	4245.73
417.88	4217.65
418.07	4276.16
418.26	4381.48
418.45	4175.52
418.64	4313.61
418.83	4388.50
419.02	4395.53
419.21	4418.93
419.39	4418.93
419.58	4381.48
419.77	4428.29
419.96	4641.28
420.15	4575.75
420.34	4393.19
420.53	4514.89
420.72	4770.01
420.91	4692.77
421.10	4840.23
421.29	4858.95
421.48	4704.48
421.67	4638.94
421.86	4648.30
422.05	4713.84
422.24	4828.53
422.43	4835.55
422.61	4837.89
422.80	4737.24
422.99	4816.82
423.18	4936.19
423.37	4938.53
423.56	4870.65
423.75	4809.80
423.94	4798.10
424.13	4540.64
424.32	4613.20
424.50	4992.36
424.69	5025.13
424.88	4959.60
425.07	4842.57
425.26	4730.22
425.45	5001.72
425.64	4814.48
425.83	4924.49
426.01	5107.05
426.20	5191.31
426.39	5139.82
426.58	5095.35
426.77	4917.47
426.96	5041.51
427.15	5060.24
427.33	5011.09
427.52	5074.28
427.71	5177.26
427.90	5130.45
428.09	5191.31
428.28	5301.31
428.46	5310.68
428.65	5380.89
428.84	5432.38
429.03	5441.75
429.22	5224.08
429.40	5551.75
429.59	5401.96
429.78	5378.55
429.97	5298.97
430.16	5427.70
430.34	5497.92
430.53	5575.16
430.72	5708.57
430.91	5514.30
431.10	5657.07
431.28	5741.33
431.47	5781.12
431.66	5802.19
431.85	5713.25
432.03	5832.62
432.22	5937.94
432.41	5811.55
432.60	5818.57
432.79	5907.51
432.97	5963.68
433.16	6022.20
433.35	5907.51
433.54	5841.98
433.72	6052.63
433.91	5937.94
434.10	6122.84
434.28	6108.80
434.47	6214.12
434.66	6232.85
434.85	6347.53
435.03	6253.91
435.22	6204.76
435.41	6415.41
435.59	6333.49
435.78	6389.66
435.97	6417.75
436.16	6209.44
436.34	6513.71
436.53	6476.26
436.72	6590.95
436.90	6590.95
437.09	6663.51
437.28	6579.25
437.46	6469.24
437.65	6607.33
437.84	6834.36
438.02	6665.85
438.21	6684.57
438.40	6808.62
438.58	7035.65
438.77	6864.79
438.96	6923.30
439.14	7035.65
439.33	6916.28
439.52	7185.44
439.70	7206.51
439.89	7250.98
440.08	7281.41
440.26	7431.20
440.45	7342.26
440.63	7370.35
440.82	7548.23
441.01	7552.91
441.19	7733.13
441.38	7646.53
441.57	7524.82
441.75	7770.58
441.94	7936.76
442.12	7873.56
442.31	7974.21
442.50	7985.91
442.68	7822.07
442.87	8018.68
443.05	8182.51
443.24	8159.11
443.43	8175.49
443.61	8126.34
443.80	8332.31
443.98	8002.29
444.17	7857.18
444.35	8187.19
444.54	8439.97
444.73	8311.24
444.91	8329.97
445.10	8301.88
445.28	8196.56
445.47	8023.36
445.65	8320.60
445.84	8449.33
446.02	8243.37
446.21	8423.59
446.39	8369.76
446.58	8355.71
446.77	8248.05
446.95	8208.26
447.14	8568.70
447.32	8617.85
447.51	8601.47
447.69	8430.61
447.88	8446.99
448.06	8454.02
448.25	8507.85
448.43	8411.89
448.62	8500.83
448.80	8372.10
448.99	8814.46
449.17	8580.40
449.36	8458.70
449.54	8786.37
449.73	9011.06
449.91	8982.98
450.10	9067.24
450.28	8847.22
450.46	9025.11
450.65	8816.80
450.83	9116.39
451.02	8910.42
451.20	8952.55
451.39	9039.15
451.57	8992.34
451.76	9055.53
451.94	9137.45
452.13	9233.41
452.31	9301.29
452.49	9001.70
452.68	9249.80
452.86	9458.10
453.05	9329.38
453.23	9399.59
453.42	9142.13
453.60	9289.59
453.78	9441.72
453.97	9266.18
454.15	9359.80
454.34	9352.78
454.52	9764.72
454.70	9603.22
454.89	9266.18
455.07	9734.29
455.26	9680.46
455.44	9816.21
455.62	9659.39
455.81	9853.66
455.99	9961.32
456.17	9966.00
456.36	9958.98
456.54	10150.90
456.73	10370.91
456.91	10396.66
457.09	10347.51
457.28	10356.87
457.46	10279.63
457.64	10576.88
457.83	10450.49
458.01	10375.59
458.19	10672.84
458.38	10593.26
458.56	10647.10
458.74	10527.73
458.93	10654.12
459.11	10750.08
459.29	11035.63
459.48	10810.93
459.66	10710.29
459.84	10899.87
460.03	10883.49
460.21	10864.77
460.39	10738.38
460.57	10984.13
460.76	10998.18
460.94	11187.76
461.12	11147.97
461.31	11119.89
461.49	11084.78
461.67	11021.58
461.85	11583.31
462.04	11143.29
462.22	11789.28
462.40	11396.07
462.59	11323.51
462.77	11414.79
462.95	11215.85
463.13	11506.07
463.32	11365.64
463.50	11693.32
463.68	11709.70
463.86	11798.64
464.05	11461.60
464.23	11756.51
464.41	11864.18
464.59	11606.72
464.78	12002.27
464.96	11967.16
465.14	11571.61
465.32	12131.00
465.50	11918.01
465.69	12219.94
465.87	12180.15
466.05	12044.40
466.23	12060.78
466.41	12180.15
466.60	12638.89
466.78	12393.14
466.96	12416.54
467.14	12517.18
467.32	12376.75
467.51	12425.90
467.69	12133.34
467.87	12304.20
468.05	12741.88
468.23	12346.33
468.41	12327.60
468.60	12236.32
468.78	12812.09
468.96	12650.60
469.14	12755.92
469.32	12849.54
469.50	12365.05
469.69	13097.64
469.87	12929.12
470.05	13179.56
470.23	13207.64
470.41	13076.57
470.59	13221.69
470.77	13212.32
470.95	13057.85
471.14	13413.61
471.32	13287.22
471.50	13217.01
471.68	13397.23
471.86	13528.30
472.04	13750.65
472.22	13912.14
472.40	13731.92
472.58	13823.20
472.77	14125.13
472.95	13738.94
473.13	14270.25
473.31	13947.25
473.49	14127.47
473.67	14129.81
473.85	14111.09
474.03	14396.64
474.21	14747.72
474.39	14649.41
474.57	14508.98
474.75	14902.19
474.93	14824.95
475.12	14881.13
475.30	14902.19
475.48	14752.40
475.66	15213.48
475.84	15105.82
476.02	15178.37
476.20	15161.99
476.38	15466.26
476.56	15920.32
476.74	15850.11
476.92	15714.36
477.10	15749.46
477.28	16037.35
477.46	16044.37
477.64	16252.68
477.82	16318.22
478.00	16716.11
478.18	16610.78
478.36	16655.25
478.54	16842.50
478.72	17099.95
478.90	17071.87
479.08	17364.43
479.26	17535.29
479.44	17621.89
479.62	17659.34
479.80	17851.27
479.98	17994.04
480.16	18232.77
480.34	17968.29
480.52	18321.71
480.70	18752.37
480.88	18331.08
481.06	18583.85
481.24	18569.81
481.41	18984.09
481.59	19410.06
481.77	19475.60
481.95	19346.87
482.13	19531.77
482.31	19403.04
482.49	20233.93
482.67	20067.75
482.85	20079.46
483.03	20325.21
483.21	20861.19
483.39	21062.48
483.57	20666.93
483.74	21254.40
483.92	21275.47
484.10	21146.74
484.28	21254.40
484.46	21874.65
484.64	22518.29
484.82	22015.08
485.00	22181.26
485.18	22696.17
485.35	22726.60
485.53	22864.69
485.71	22867.03
485.89	23393.65
486.07	23239.18
486.25	23264.92
486.43	23332.80
486.61	23363.23
486.78	23786.86
486.96	23913.25
487.14	24505.41
487.32	24627.12
487.50	24746.48
487.68	24599.03
487.85	25256.72
488.03	25252.04
488.21	25617.16
488.39	25727.17
488.57	25951.86
488.75	25802.07
488.92	25900.37
489.10	26443.37
489.28	26206.98
489.46	26703.17
489.64	26820.20
489.81	27108.08
489.99	27798.54
490.17	27758.75
490.35	27828.97
490.53	28051.32
490.70	28161.33
490.88	27737.69
491.06	28222.18
491.24	28615.39
491.41	28573.26
491.59	29067.11
491.77	28914.98
491.95	29619.48
492.13	29472.03
492.30	29518.84
492.48	29905.02
492.66	29701.40
492.84	29991.62
493.01	30565.06
493.19	30178.87
493.37	30806.13
493.54	31119.76
493.72	31470.84
493.90	31452.12
494.08	31632.34
494.25	31819.58
494.43	31604.25
494.61	32044.27
494.79	32114.49
494.96	32006.83
495.14	32315.78
495.32	32648.13
495.49	32828.35
495.67	32751.12
495.85	33303.48
496.02	33109.22
496.20	33717.76
496.38	33825.42
496.55	34122.67
496.73	34391.83
496.91	34260.76
497.09	34728.87
497.26	34448.00
497.44	34492.47
497.62	34756.96
497.79	36062.97
497.97	35192.30
498.14	35915.52
498.32	36245.54
498.50	35931.90
498.67	36070.00
498.85	35934.24
499.03	36802.58
499.20	36999.19
499.38	36432.78
499.56	36708.96
499.73	37118.56
499.91	37179.41
500.08	37177.07
500.26	37106.85
500.44	37214.52
500.61	37481.34
500.79	37427.51
500.97	37804.33
501.14	38291.16
501.32	38485.43
501.49	38124.99
501.67	38225.63
501.84	38841.19
502.02	38656.29
502.20	38939.49
502.37	39140.78
502.55	38969.92
502.72	39339.72
502.90	39262.49
503.07	39129.08
503.25	39814.85
503.43	39419.30
503.60	39791.45
503.78	39487.18
503.95	40100.40
504.13	39917.84
504.30	40376.58
504.48	39793.79
504.65	40620.00
504.83	41048.32
505.01	41120.87
505.18	40886.82
505.36	41532.81
505.53	40945.33
505.71	41078.74
505.88	41425.14
506.06	41361.95
506.23	41942.40
506.41	41390.03
506.58	41661.54
506.76	41820.69
506.93	42389.44
507.11	41581.96
507.28	42043.04
507.46	42316.89
507.63	42682.01
507.81	42873.93
507.98	42895.00
508.16	42792.01
508.33	43182.88
508.50	43044.79
508.68	43466.09
508.85	43428.64
509.03	43625.25
509.20	43800.79
509.38	43728.23
509.55	44121.44
509.73	44226.76
509.90	44533.37
510.08	44563.80
510.25	44383.58
510.42	44416.35
510.60	44818.92
510.77	44659.76
510.95	45195.74
511.12	44933.60
511.30	44655.08
511.47	44933.60
511.64	45158.30
511.82	45911.95
511.99	45375.97
512.17	45584.27
512.34	45418.10
512.51	45818.33
512.69	45874.50
512.86	46445.59
513.04	46373.03
513.21	46295.80
513.38	46588.36
513.56	46141.32
513.73	46174.09
513.90	47196.90
514.08	46527.51
514.25	46878.59
514.43	47379.46
514.60	47147.75
514.77	47033.07
514.95	47723.52
515.12	47327.97
515.29	47042.43
515.47	47938.85
515.64	47976.30
515.81	47515.22
515.99	48067.58
516.16	47856.93
516.33	48130.78
516.51	48226.74
516.68	48236.10
516.85	48025.45
517.03	48619.95
517.20	48484.20
517.37	48629.31
517.54	48739.32
517.72	49003.80
517.89	48954.64
518.06	48980.39
518.24	48622.29
518.41	48835.28
518.58	49357.22
518.75	49233.17
518.93	49235.51
519.10	49027.20
519.27	49521.05
519.45	49741.06
519.62	49656.81
519.79	49687.23
519.96	49387.64
520.14	50024.27
520.31	49350.20
520.48	50035.97
520.65	50459.61
520.83	50422.16
521.00	50389.39
521.17	50190.45
521.34	50403.44
521.52	50375.35
521.69	50553.23
521.86	50923.04
522.03	50780.26
522.20	50967.51
522.38	51021.34
522.55	50946.44
522.72	51126.66
522.89	50770.90
523.07	51026.02
523.24	51220.28
523.41	51545.62
523.58	51084.53
523.75	51412.21
523.92	51594.77
524.10	51749.24
524.27	51735.20
524.44	51934.15
524.61	51847.55
524.78	52105.01
524.96	51990.32
525.13	52053.51
525.30	52224.37
525.47	52207.99
525.64	52465.45
525.81	52320.34
525.98	52217.35
526.16	52488.85
526.33	52404.59
526.50	52715.89
526.67	52617.58
526.84	52905.47
527.01	52545.03
527.18	52456.09
527.36	52750.99
527.53	53036.54
527.70	53254.21
527.87	53036.54
528.04	53038.88
528.21	53202.72
528.38	53174.63
528.55	53441.45
528.72	53048.24
528.89	53183.99
529.07	53127.82
529.24	53160.59
529.41	53567.84
529.58	53296.34
529.75	53595.93
529.92	53738.70
530.09	53532.73
530.26	53930.62
530.43	53975.09
530.60	53490.60
530.77	53556.14
530.94	54019.56
531.11	53804.24
531.28	53708.27
531.46	54071.06
531.63	54087.44
531.80	53904.88
531.97	54389.37
532.14	54239.57
532.31	54211.49
532.48	54323.83
532.65	54424.48
532.82	54319.15
532.99	54288.73
533.16	54422.14
533.33	54553.21
533.50	54686.62
533.67	54546.18
533.84	54422.14
534.01	54782.58
534.18	54808.32
534.35	55004.93
534.52	54981.52
534.69	55089.19
534.86	55023.65
535.03	54939.39
535.20	55140.68
535.37	55042.38
535.54	55143.02
535.71	55201.53
535.88	55262.39
536.05	55543.25
536.22	55655.60
536.38	55409.84
536.55	55262.39
536.72	55526.87
536.89	55152.38
537.06	55409.84
537.23	55660.28
537.40	55320.90
537.57	55550.27
537.74	55498.78
537.91	55683.69
538.08	55554.96
538.25	55519.85
538.42	55674.32
538.59	55882.63
538.75	55681.34
538.92	55908.38
539.09	56121.37
539.26	56034.77
539.43	55908.38
539.60	56186.90
539.77	56034.77
539.94	56243.07
540.11	56069.87
540.28	56245.41
540.44	56233.71
540.61	56048.81
540.78	56158.81
540.95	56308.61
541.12	56430.32
541.29	56219.67
541.46	56444.36
541.62	56404.57
541.79	56486.49
541.96	56432.66
542.13	56580.11
542.30	56530.96
542.47	56596.49
542.63	56818.84
542.80	56830.55
542.97	56657.35
543.14	56959.28
543.31	56884.38
543.48	56942.89
543.64	57411.00
543.81	57123.11
543.98	57326.74
544.15	56980.34
544.32	57223.76
544.48	57329.08
544.65	57394.62
544.82	57403.98
544.99	57230.78
545.16	57261.21
545.32	57272.91
545.49	57502.28
545.66	57546.75
545.83	57656.76
546.00	57626.33
546.16	57359.51
546.33	57366.53
546.50	57272.91
546.67	57471.85
546.83	57312.70
547.00	57331.42
547.17	57628.67
547.34	57666.12
547.50	57832.30
547.67	57872.09
547.84	57762.08
548.00	57860.38
548.17	58176.36
548.34	58010.18
548.51	58134.23
548.67	58127.20
548.84	57860.38
549.01	57921.24
549.18	58082.73
549.34	58220.83
549.51	58099.12
549.68	58171.67
549.84	58061.67
550.01	58143.59
550.18	57932.94
550.34	58314.45
550.51	58401.05
550.68	58234.87
550.84	58148.27
551.01	58185.72
551.18	58265.30
551.34	58298.06
551.51	58319.13
551.68	58401.05
551.84	58417.43
552.01	58372.96
552.18	58431.47
552.34	58188.06
552.51	58604.67
552.68	58314.45
552.84	58433.81
553.01	58915.96
553.18	58403.39
553.34	58658.51
553.51	58518.07
553.67	58749.79
553.84	58794.26
554.01	58733.40
554.17	58901.92
554.34	58899.58
554.51	58969.80
554.67	58782.55
554.84	58787.24
555.00	58820.00
555.17	58810.64
555.33	58897.24
555.50	58878.52
555.67	58702.98
555.83	58899.58
556.00	59145.34
556.16	59346.62
556.33	59040.01
556.50	59077.46
556.66	59274.07
556.83	58955.75
556.99	59201.51
557.16	59519.82
557.32	59388.75
557.49	59618.13
557.65	59157.04
557.82	59234.28
557.98	59103.21
558.15	59344.28
558.32	59355.99
558.48	59213.21
558.65	59381.73
558.81	59316.20
558.98	59339.60
559.14	59426.20
559.31	59538.55
559.47	59487.06
559.64	59604.08
559.80	59578.34
559.97	59505.78
560.13	59274.07
560.30	59313.86
560.46	59573.66
560.63	59615.79
560.79	59676.64
560.96	59597.06
561.12	59707.07
561.29	59501.10
561.45	59810.05
561.61	59554.93
561.78	59414.50
561.94	59465.99
562.11	59627.49
562.27	59821.75
562.44	59772.60
562.60	59877.93
562.77	59732.81
562.93	59868.56
563.10	59889.63
563.26	59676.64
563.42	59915.37
563.59	59718.77
563.75	59903.67
563.92	59894.31
564.08	59859.20
564.24	59959.84
564.41	60081.55
564.57	59990.27
564.74	60032.40
564.90	60046.44
565.07	59992.61
565.23	60011.34
565.39	59835.80
565.56	59957.50
565.72	59749.20
565.88	59922.40
566.05	59962.18
566.21	59889.63
566.38	59987.93
566.54	60271.14
566.70	60126.02
566.87	60317.95
567.03	59999.63
567.19	60144.75
567.36	60207.94
567.52	59976.23
567.68	60343.69
567.85	60252.41
568.01	60331.99
568.17	60137.72
568.34	60221.98
568.50	60168.15
568.66	60161.13
568.83	60437.31
568.99	60175.17
569.15	60236.03
569.32	60238.37
569.48	60423.27
569.64	60390.50
569.81	60367.10
569.97	60067.51
570.13	60336.67
570.30	60184.54
570.46	60339.01
570.62	60303.90
570.78	60339.01
570.95	60327.31
571.11	60458.38
571.27	60341.35
571.43	60299.22
571.60	60371.78
571.76	60399.86
571.92	60587.11
572.09	60238.37
572.25	60364.76
572.41	60406.89
572.57	60434.97
572.74	60633.92
572.90	60470.08
573.06	60481.78
573.22	60360.08
573.38	60402.21
573.55	60357.74
573.71	60610.51
573.87	60584.77
574.03	60154.11
574.20	60638.60
574.36	60425.61
574.52	60701.79
574.68	60465.40
574.84	60711.16
575.01	60774.35
575.17	60631.58
575.33	60605.83
575.49	60388.16
575.65	60631.58
575.82	60818.82
575.98	60577.75
576.14	60924.14
576.30	60474.76
576.46	60666.69
576.62	60612.85
576.79	60764.99
576.95	60654.98
577.11	60697.11
577.27	60727.54
577.43	60650.30
577.59	60444.33
577.75	60601.15
577.92	60465.40
578.08	60549.66
578.24	60563.70
578.40	61031.81
578.56	60743.92
578.72	60652.64
578.88	60760.31
579.04	60989.68
579.21	60671.37
579.37	60753.29
579.53	60697.11
579.69	60486.46
579.85	60821.16
580.01	60685.41
580.17	60535.62
580.33	60690.09
580.49	60708.82
580.65	60781.37
580.82	60903.08
580.98	60631.58
581.14	60671.37
581.30	60781.37
581.46	60612.85
581.62	60842.23
581.78	60626.90
581.94	60645.62
582.10	60605.83
582.26	60832.86
582.42	60788.39
582.58	60846.91
582.74	60898.40
582.90	60683.07
583.06	60746.26
583.22	60573.06
583.38	60802.44
583.54	60757.97
583.70	60849.25
583.86	61034.15
584.02	60704.13
584.18	60919.46
584.34	60814.14
584.50	60739.24
584.66	60654.98
584.82	60781.37
584.98	61020.11
585.14	60828.18
585.30	60963.93
585.46	60985.00
585.62	60933.51
585.78	61169.90
585.94	60582.43
586.10	60893.72
586.26	60867.97
586.42	61200.33
586.58	61057.56
586.74	61045.85
586.90	60828.18
587.06	60830.52
587.22	61064.58
587.38	61097.34
587.54	61090.32
587.70	60982.66
587.86	60996.70
588.02	60722.86
588.18	61013.08
588.34	60931.17
588.49	61001.38
