SpectraSuite Data File
++++++++++++++++++++++++++++++++++++
Date: Fri Oct 25 11:25:46 EDT 2013
User: price-jones
Dark Spectrum Present: No
Reference Spectrum Present: No
Number of Sampled Component Spectra: 1
Spectrometers: USB2+H05261
Integration Time (usec): 100000 (USB2+H05261)
Spectra Averaged: 1 (USB2+H05261)
Boxcar Smoothing: 0 (USB2+H05261)
Correct for Electrical Dark: No (USB2+H05261)
Strobe/Lamp Enabled: No (USB2+H05261)
Correct for Detector Non-linearity: No (USB2+H05261)
Correct for Stray Light: No (USB2+H05261)
Number of Pixels in Processed Spectrum: 2048
>>>>>Begin Processed Spectral Data<<<<<
365.73	210.65
365.92	210.65
366.12	210.65
366.32	203.63
366.52	145.11
366.72	168.52
366.91	128.73
367.11	110.01
367.31	126.39
367.51	126.39
367.70	163.84
367.90	184.90
368.10	117.03
368.30	212.99
368.49	112.35
368.69	196.60
368.89	140.43
369.09	112.35
369.28	121.71
369.48	140.43
369.68	145.11
369.87	236.39
370.07	222.35
370.27	208.31
370.47	322.99
370.66	613.22
370.86	627.26
371.06	676.41
371.25	643.65
371.45	741.95
371.65	718.54
371.84	685.78
372.04	685.78
372.24	716.20
372.44	739.61
372.63	741.95
372.83	767.70
373.03	765.36
373.22	711.52
373.42	788.76
373.62	758.33
373.81	814.51
374.01	812.17
374.21	854.30
374.40	788.76
374.60	854.30
374.79	873.02
374.99	772.38
375.19	805.14
375.38	833.23
375.58	812.17
375.78	938.55
375.97	851.96
376.17	833.23
376.37	905.79
376.56	828.55
376.76	835.57
376.95	919.83
377.15	926.85
377.35	856.64
377.54	896.43
377.74	943.24
377.93	990.05
378.13	903.45
378.33	990.05
378.52	903.45
378.72	926.85
378.91	936.21
379.11	870.68
379.31	936.21
379.50	926.85
379.70	866.00
379.89	973.66
380.09	1015.79
380.28	997.07
380.48	1064.94
380.68	1034.52
380.87	924.51
381.07	950.26
381.26	999.41
381.46	1029.84
381.65	1032.18
381.85	1060.26
382.04	1083.67
382.24	1151.54
382.43	1027.50
382.63	1004.09
382.83	1018.13
383.02	1123.46
383.22	1057.92
383.41	1130.48
383.61	1046.22
383.80	1149.20
384.00	1086.01
384.19	1078.99
384.39	1188.99
384.58	1102.39
384.78	1193.67
384.97	1123.46
385.17	1245.16
385.36	1205.38
385.56	1252.19
385.75	1064.94
385.95	1289.64
386.14	1191.33
386.34	1118.78
386.53	1181.97
386.72	1233.46
386.92	1233.46
387.11	1203.04
387.31	1247.51
387.50	1275.59
387.70	1280.27
387.89	1275.59
388.09	1289.64
388.28	1294.32
388.48	1277.93
388.67	1373.89
388.86	1331.76
389.06	1294.32
389.25	1240.48
389.45	1394.96
389.64	1284.95
389.84	1249.85
390.03	1427.73
390.22	1315.38
390.42	1359.85
390.61	1401.98
390.81	1310.70
391.00	1392.62
391.19	1362.19
391.39	1434.75
391.58	1413.68
391.78	1479.22
391.97	1467.52
392.16	1535.39
392.36	1575.18
392.55	1582.20
392.75	1650.08
392.94	1542.41
393.13	1507.30
393.33	1577.52
393.52	1593.90
393.71	1516.67
393.91	1612.63
394.10	1619.65
394.29	1579.86
394.49	1544.75
394.68	1544.75
394.88	1596.25
395.07	1706.25
395.26	1624.33
395.46	1671.14
395.65	1706.25
395.84	1701.57
396.04	1842.00
396.23	1865.41
396.42	1809.23
396.62	1811.57
396.81	1825.62
397.00	1748.38
397.19	1806.89
397.39	1753.06
397.58	1879.45
397.77	1781.15
397.97	1762.42
398.16	1893.49
398.35	1818.60
398.55	1834.98
398.74	1961.37
398.93	1928.60
399.12	2010.52
399.32	1933.28
399.51	1970.73
399.70	1923.92
399.90	1881.79
400.09	1975.41
400.28	2052.65
400.47	2003.50
400.67	2010.52
400.86	2069.03
401.05	1930.94
401.24	2062.01
401.44	2111.16
401.63	2225.85
401.82	2174.36
402.01	2094.78
402.21	2174.36
402.40	2153.29
402.59	2104.14
402.78	2216.49
402.97	2246.91
403.17	2328.83
403.36	2223.51
403.55	2352.24
403.74	2237.55
403.93	2375.64
404.13	2363.94
404.32	2361.60
404.51	2275.00
404.70	2366.28
404.89	2333.51
405.09	2551.18
405.28	2415.43
405.47	2518.42
405.66	2448.20
405.85	2504.37
406.05	2420.11
406.24	2541.82
406.43	2457.56
406.62	2635.44
406.81	2663.53
407.00	2525.44
407.20	2520.76
407.39	2602.68
407.58	2609.70
407.77	2710.34
407.96	2780.56
408.15	2780.56
408.34	2703.32
408.54	2780.56
408.73	2761.83
408.92	2771.19
409.11	2911.63
409.30	3019.29
409.49	2850.77
409.68	2850.77
409.87	2853.11
410.07	2956.10
410.26	2944.39
410.45	2890.56
410.64	3023.97
410.83	3105.89
411.02	3197.17
411.21	3089.51
411.40	3197.17
411.59	3302.50
411.78	3129.30
411.98	3138.66
412.17	3353.99
412.36	3300.16
412.55	3414.84
412.74	3346.97
412.93	3424.20
413.12	3428.88
413.31	3529.53
413.50	3569.32
413.69	3478.04
413.88	3510.80
414.07	3562.30
414.26	3595.06
414.45	3639.53
414.64	3651.24
414.83	3684.00
415.02	3676.98
415.22	3765.92
415.41	3882.95
415.60	3868.91
415.79	3925.08
415.98	4042.11
416.17	3976.57
416.36	3962.53
416.55	3913.38
416.74	4028.06
416.93	3962.53
417.12	4208.28
417.31	4180.20
417.50	4095.94
417.69	4252.75
417.88	4234.03
418.07	4283.18
418.26	4381.48
418.45	4248.07
418.64	4512.55
418.83	4430.63
419.02	4339.35
419.21	4587.45
419.39	4542.98
419.58	4496.17
419.77	4355.74
419.96	4465.74
420.15	4540.64
420.34	4559.36
420.53	4592.13
420.72	4762.99
420.91	4547.66
421.10	4760.65
421.29	4823.84
421.48	4676.39
421.67	4748.95
421.86	4685.75
422.05	4596.81
422.24	4793.42
422.43	4873.00
422.61	4842.57
422.80	4861.29
422.99	4856.61
423.18	4987.68
423.37	5118.75
423.56	4931.51
423.75	4875.34
423.94	4793.42
424.13	4617.88
424.32	4706.82
424.50	5020.45
424.69	5130.45
424.88	5083.64
425.07	4933.85
425.26	4837.89
425.45	4985.34
425.64	4973.64
425.83	5093.01
426.01	5055.56
426.20	5006.41
426.39	5062.58
426.58	4997.04
426.77	5128.11
426.96	5224.08
427.15	5029.81
427.33	5132.79
427.52	5076.62
427.71	5219.39
427.90	5390.25
428.09	5334.08
428.28	5490.90
428.46	5224.08
428.65	5317.70
428.84	5348.12
429.03	5537.71
429.22	5153.86
429.40	5439.40
429.59	5413.66
429.78	5310.68
429.97	5385.57
430.16	5526.00
430.34	5612.60
430.53	5556.43
430.72	5692.18
430.91	5558.77
431.10	5647.71
431.28	5799.85
431.47	5865.38
431.66	5944.96
431.85	5830.27
432.03	5968.37
432.22	5872.40
432.41	5909.85
432.60	5905.17
432.79	5912.19
432.97	6059.65
433.16	6134.54
433.35	6045.60
433.54	6122.84
433.72	6141.57
433.91	6029.22
434.10	6122.84
434.28	6232.85
434.47	6216.46
434.66	6310.08
434.85	6338.17
435.03	6429.45
435.22	6188.38
435.41	6289.02
435.59	6368.60
435.78	6464.56
435.97	6539.46
436.16	6499.67
436.34	6394.34
436.53	6359.24
436.72	6448.18
436.90	6389.66
437.09	6534.78
437.28	6312.42
437.46	6597.97
437.65	6682.23
437.84	6663.51
438.02	6633.08
438.21	6743.08
438.40	6733.72
438.58	6993.52
438.77	7021.61
438.96	6857.77
439.14	6916.28
439.33	7049.69
439.52	7199.49
439.70	7103.53
439.89	7351.62
440.08	7396.09
440.26	7442.90
440.45	7248.64
440.63	7382.05
440.82	7475.67
441.01	7527.16
441.19	7564.61
441.38	7747.17
441.57	7658.23
441.75	7632.49
441.94	7957.82
442.12	7665.25
442.31	8023.36
442.50	7957.82
442.68	7728.45
442.87	8063.15
443.05	7995.27
443.24	8196.56
443.43	8142.72
443.61	8215.28
443.80	8528.91
443.98	7960.16
444.17	7889.95
444.35	8278.47
444.54	8322.94
444.73	8348.69
444.91	8336.99
445.10	8348.69
445.28	8395.50
445.47	8173.15
445.65	8390.82
445.84	8376.78
446.02	8283.16
446.21	8430.61
446.39	8446.99
446.58	8575.72
446.77	8351.03
446.95	8145.06
447.14	8425.93
447.32	8498.49
447.51	8559.34
447.69	8388.48
447.88	8409.54
448.06	8695.09
448.25	8538.27
448.43	8652.96
448.62	8496.14
448.80	8477.42
448.99	8674.03
449.17	8713.81
449.36	8683.39
449.54	8741.90
449.73	9001.70
449.91	8994.68
450.10	8807.44
450.28	8943.19
450.46	9048.51
450.65	9064.89
450.83	9076.60
451.02	9071.92
451.20	9083.62
451.39	9420.66
451.57	9231.07
451.76	8943.19
451.94	9020.42
452.13	9369.16
452.31	9542.36
452.49	9165.54
452.68	9287.25
452.86	9380.87
453.05	9486.19
453.23	9652.37
453.42	9366.82
453.60	9404.27
453.78	9495.55
453.97	9497.89
454.15	9385.55
454.34	9467.47
454.52	9734.29
454.70	9818.55
454.89	9624.28
455.07	9909.83
455.26	9916.85
455.44	9844.29
455.62	9769.40
455.81	10054.94
455.99	10052.60
456.17	9935.57
456.36	10054.94
456.54	10092.39
456.73	10296.02
456.91	10391.98
457.09	10525.39
457.28	10408.36
457.46	10293.68
457.64	10401.34
457.83	10534.75
458.01	10424.75
458.19	10700.93
458.38	10623.69
458.56	10754.76
458.74	10525.39
458.93	10611.99
459.11	10682.20
459.29	10431.77
459.48	10792.21
459.66	10885.83
459.84	10906.90
460.03	11094.14
460.21	11154.99
460.39	10827.32
460.57	10930.30
460.76	11002.86
460.94	11052.01
461.12	11124.57
461.31	11206.48
461.49	11082.44
461.67	11133.93
461.85	11274.36
462.04	11274.36
462.22	12023.33
462.40	11634.80
462.59	11524.80
462.77	11431.18
462.95	11655.87
463.13	11456.92
463.32	11653.53
463.50	11723.74
463.68	11698.00
463.86	11658.21
464.05	11599.70
464.23	11470.97
464.41	12023.33
464.59	11461.60
464.78	11875.88
464.96	11960.14
465.14	12063.12
465.32	11854.81
465.50	12358.03
465.69	12308.88
465.87	12102.91
466.05	12058.44
466.23	12243.34
466.41	12105.25
466.60	12262.07
466.78	12189.51
466.96	12233.98
467.14	12215.26
467.32	12336.96
467.51	12664.64
467.69	12025.67
467.87	12491.44
468.05	12556.97
468.23	12276.11
468.41	12383.77
468.60	12358.03
468.78	12821.45
468.96	12561.66
469.14	12432.93
469.32	12987.63
469.50	12746.56
469.69	12858.90
469.87	13179.56
470.05	13018.06
470.23	13209.98
470.41	12961.89
470.59	13439.36
470.77	12992.31
470.95	13226.37
471.14	13710.86
471.32	13209.98
471.50	13415.95
471.68	13507.23
471.86	13432.33
472.04	13799.80
472.22	14190.67
472.40	13673.41
472.58	13898.10
472.77	13874.70
472.95	14038.53
473.13	14644.73
473.31	13940.23
473.49	14092.37
473.67	14237.48
473.85	14040.87
474.03	14504.30
474.21	14558.13
474.39	14586.22
474.57	14525.36
474.75	14918.57
474.93	14991.13
475.12	15105.82
475.30	15094.11
475.48	14867.08
475.66	15260.29
475.84	15037.94
476.02	15424.13
476.20	15253.27
476.38	15520.09
476.56	16063.10
476.74	15768.19
476.92	15681.59
477.10	15651.16
477.28	16135.65
477.46	16039.69
477.64	16283.11
477.82	16336.94
478.00	16837.81
478.18	16723.13
478.36	16716.11
478.54	17205.28
478.72	17200.60
478.90	17378.48
479.08	17387.84
479.26	17514.23
479.44	17675.73
479.62	17865.31
479.80	17970.63
479.98	18127.45
480.16	18602.58
480.34	18129.79
480.52	18618.96
480.70	18691.52
480.88	18345.12
481.06	18682.16
481.24	18981.74
481.41	19040.26
481.59	19180.69
481.77	19058.98
481.95	19166.65
482.13	19822.00
482.31	19351.55
482.49	20126.27
482.67	19896.89
482.85	20329.89
483.03	20489.05
483.21	20898.64
483.39	20388.41
483.57	21034.39
483.74	21050.78
483.92	21259.09
484.10	21149.08
484.28	21563.36
484.46	21907.41
484.64	22314.67
484.82	21837.20
485.00	22230.41
485.18	22635.32
485.35	22977.04
485.53	22817.88
485.71	22885.76
485.89	23419.40
486.07	23393.65
486.25	23040.23
486.43	23674.52
486.61	23828.99
486.78	23793.89
486.96	23967.09
487.14	24435.19
487.32	24549.88
487.50	24669.25
487.68	25088.20
487.85	25069.48
488.03	25460.35
488.21	25528.22
488.39	25558.65
488.57	25785.68
488.75	26106.34
488.92	26403.58
489.10	26450.39
489.28	26237.41
489.46	27000.42
489.64	27094.04
489.81	27498.95
489.99	27718.96
490.17	27674.49
490.35	28158.99
490.53	28025.57
490.70	28067.70
490.88	28334.53
491.06	28322.82
491.24	28603.69
491.41	28931.36
491.59	28776.89
491.77	29233.29
491.95	29488.41
492.13	29729.48
492.30	29750.55
492.48	30092.27
492.66	29607.78
492.84	30136.74
493.01	30637.61
493.19	30700.81
493.37	30831.88
493.54	30958.27
493.72	31435.74
493.90	31292.96
494.08	31611.28
494.25	31805.54
494.43	32034.91
494.61	32198.75
494.79	32137.90
494.96	32505.36
495.14	32446.85
495.32	33472.00
495.49	33097.52
495.67	33490.73
495.85	33303.48
496.02	33638.18
496.20	33516.47
496.38	33968.19
496.55	34122.67
496.73	34380.13
496.91	34103.95
497.09	34721.85
497.26	34845.90
497.44	34991.01
497.62	35302.30
497.79	35739.98
497.97	35702.53
498.14	35758.70
498.32	36077.02
498.50	36442.14
498.67	36315.75
498.85	36154.26
499.03	36685.56
499.20	36460.87
499.38	36692.58
499.56	37212.18
499.73	36966.42
499.91	37071.75
500.08	37425.17
500.26	37163.03
500.44	37359.63
500.61	37607.73
500.79	37696.67
500.97	37717.73
501.14	38539.26
501.32	38417.55
501.49	38330.95
501.67	38536.92
501.84	38827.15
502.02	39002.69
502.20	38749.91
502.37	38918.43
502.55	39210.99
502.72	39215.68
502.90	39660.38
503.07	39398.24
503.25	39643.99
503.43	39367.81
503.60	40165.93
503.78	40261.90
503.95	40240.83
504.13	40212.74
504.30	40477.22
504.48	40502.97
504.65	40708.94
504.83	40629.36
505.01	41200.45
505.18	40926.61
505.36	41645.15
505.53	41160.66
505.71	41565.57
505.88	41710.69
506.06	41375.99
506.23	41701.32
506.41	41680.26
506.58	41940.06
506.76	41832.39
506.93	42607.11
507.11	42087.51
507.28	42586.05
507.46	42787.33
507.63	42756.91
507.81	42967.55
507.98	43098.62
508.16	43122.03
508.33	43351.40
508.50	43246.08
508.68	43213.31
508.85	43817.17
509.03	43217.99
509.20	43931.86
509.38	44133.14
509.55	44002.07
509.73	44285.28
509.90	44343.79
510.08	44608.27
510.25	44596.57
510.42	44680.83
510.60	44879.77
510.77	44868.07
510.95	45050.63
511.12	44568.48
511.30	45031.91
511.47	45813.65
511.64	45577.25
511.82	45652.15
511.99	45743.43
512.17	45722.37
512.34	45390.01
512.51	46485.38
512.69	46092.17
512.86	45961.10
513.04	46330.90
513.21	46199.83
513.38	46576.66
513.56	46433.89
513.73	46745.18
513.90	46906.68
514.08	46946.47
514.25	46911.36
514.43	47487.13
514.60	46880.93
514.77	47112.64
514.95	47484.79
515.12	47168.82
515.29	47629.90
515.47	47767.99
515.64	47873.32
515.81	47952.90
515.99	48280.57
516.16	48226.74
516.33	47859.27
516.51	48301.64
516.68	48360.15
516.85	48699.53
517.03	48673.78
517.20	48598.88
517.37	48793.15
517.54	48573.14
517.72	48533.35
517.89	48641.01
518.06	49043.59
518.24	49010.82
518.41	49345.51
518.58	49118.48
518.75	49263.60
518.93	49200.40
519.10	49546.80
519.27	49600.63
519.45	49717.66
519.62	49855.75
519.79	49741.06
519.96	49801.92
520.14	50490.04
520.31	49872.14
520.48	50162.36
520.65	50145.98
520.83	50454.93
521.00	50384.71
521.17	50415.14
521.34	50494.72
521.52	50672.60
521.69	50391.73
521.86	50768.56
522.03	51131.34
522.20	51452.00
522.38	51337.31
522.55	51133.68
522.72	51138.36
522.89	51227.31
523.07	51831.16
523.24	51248.37
523.41	51531.57
523.58	51449.66
523.75	51475.40
523.92	51627.54
524.10	51849.89
524.27	52018.41
524.44	51372.42
524.61	51906.06
524.78	51767.97
524.96	52437.36
525.13	52027.77
525.30	52287.57
525.47	52207.99
525.64	52491.19
525.81	52521.62
525.98	52823.55
526.16	52479.49
526.33	52507.58
526.50	52959.30
526.67	52519.28
526.84	52914.83
527.01	52828.23
527.18	52828.23
527.36	52938.24
527.53	52839.93
527.70	53305.70
527.87	53139.52
528.04	53148.88
528.21	53722.32
528.38	53268.25
528.55	53350.17
528.72	53123.14
528.89	53439.11
529.07	53130.16
529.24	53448.47
529.41	53497.62
529.58	53352.51
529.75	53621.67
529.92	53640.40
530.09	53560.82
530.26	53860.41
530.43	54080.42
530.60	53897.86
530.77	53708.27
530.94	53876.79
531.11	54071.06
531.28	54073.40
531.46	54202.13
531.63	54085.10
531.80	54129.57
531.97	53951.69
532.14	54337.88
532.31	54321.49
532.48	54267.66
532.65	54562.57
532.82	54181.06
532.99	54518.10
533.16	54710.02
533.33	54866.84
533.50	54773.22
533.67	54775.56
533.84	54534.48
534.01	54827.05
534.18	54761.51
534.35	55339.63
534.52	54958.12
534.69	55173.45
534.86	55114.94
535.03	55107.91
535.20	54990.89
535.37	55189.83
535.54	55306.86
535.71	55089.19
535.88	55311.54
536.05	55367.71
536.22	55414.52
536.38	55330.26
536.55	55515.17
536.72	55477.72
536.89	55384.10
537.06	55339.63
537.23	55494.10
537.40	55480.06
537.57	55842.84
537.74	55742.20
537.91	55714.11
538.08	55847.52
538.25	55428.57
538.42	55835.82
538.59	56030.08
538.75	55955.19
538.92	55910.72
539.09	56343.72
539.26	56053.49
539.43	56046.47
539.60	56107.32
539.77	56112.00
539.94	56425.64
540.11	56273.50
540.28	56144.77
540.44	56184.56
540.61	56074.55
540.78	56350.74
540.95	56165.84
541.12	56102.64
541.29	56114.34
541.46	56542.66
541.62	56477.13
541.79	56624.58
541.96	56301.59
542.13	56282.86
542.30	56629.26
542.47	56818.84
542.63	56662.03
542.80	56767.35
542.97	56896.08
543.14	57104.39
543.31	57127.80
543.48	57240.14
543.64	57499.94
543.81	57352.49
543.98	57329.08
544.15	57293.97
544.32	57146.52
544.48	57382.91
544.65	57176.95
544.82	57394.62
544.99	57120.77
545.16	57434.41
545.32	57523.35
545.49	57642.71
545.66	57631.01
545.83	57551.43
546.00	57523.35
546.16	57415.68
546.33	57626.33
546.50	57418.02
546.67	57661.44
546.83	57186.31
547.00	57453.13
547.17	57886.13
547.34	57736.34
547.50	58059.33
547.67	57829.96
547.84	57780.81
548.00	57879.11
548.17	58319.13
548.34	57752.72
548.51	58042.95
548.67	58204.44
548.84	58188.06
549.01	57993.79
549.18	58068.69
549.34	57972.73
549.51	58131.89
549.68	58284.02
549.84	58349.56
550.01	58415.09
550.18	58042.95
550.34	58585.95
550.51	58637.44
550.68	58408.07
550.84	58295.72
551.01	58349.56
551.18	58199.76
551.34	58365.94
551.51	58515.73
551.68	58623.40
551.84	58536.80
552.01	58321.47
552.18	58401.05
552.34	58539.14
552.51	58569.57
552.68	58489.99
552.84	58438.50
553.01	58831.71
553.18	58747.45
553.34	58726.38
553.51	58550.84
553.67	58585.95
553.84	58983.84
554.01	58894.90
554.17	58922.99
554.34	59042.35
554.51	58843.41
554.67	59011.93
554.84	58951.07
555.00	58897.24
555.17	58920.65
555.33	58988.52
555.50	58857.45
555.67	58955.75
555.83	58941.71
556.00	59110.23
556.16	59491.74
556.33	59161.72
556.50	59126.61
556.66	59210.87
556.83	58892.56
556.99	59185.13
557.16	59550.25
557.32	59325.56
557.49	59416.84
557.65	59253.00
557.82	59517.48
557.98	59215.55
558.15	59161.72
558.32	59412.16
558.48	59353.65
558.65	59353.65
558.81	59346.62
558.98	59370.03
559.14	59550.25
559.31	59515.14
559.47	59543.23
559.64	59594.72
559.80	59576.00
559.97	59791.33
560.13	59484.72
560.30	59526.84
560.46	59678.98
560.63	59732.81
560.79	59697.70
560.96	59854.52
561.12	59690.68
561.29	59716.43
561.45	59847.50
561.61	59601.74
561.78	59573.66
561.94	59552.59
562.11	59821.75
562.27	59735.15
562.44	60006.65
562.60	60044.10
562.77	60074.53
562.93	59526.84
563.10	59969.21
563.26	59716.43
563.42	59884.95
563.59	59903.67
563.75	59730.47
563.92	59945.80
564.08	59796.01
564.24	60060.49
564.41	59877.93
564.57	60079.21
564.74	59927.08
564.90	60210.28
565.07	60053.47
565.23	59838.14
565.39	60126.02
565.56	60016.02
565.72	59920.05
565.88	60018.36
566.05	60161.13
566.21	60058.15
566.38	60123.68
566.54	60191.56
566.70	60226.66
566.87	60233.69
567.03	60055.81
567.19	60308.58
567.36	60324.97
567.52	60172.83
567.68	60467.74
567.85	60273.48
568.01	60353.05
568.17	60287.52
568.34	60378.80
568.50	60156.45
568.66	60292.20
568.83	60266.45
568.99	60203.26
569.15	60416.25
569.32	60217.30
569.48	60219.64
569.64	60320.29
569.81	60549.66
569.97	60371.78
570.13	60322.63
570.30	60385.82
570.46	60456.04
570.62	60374.12
570.78	60388.16
570.95	60196.24
571.11	60439.65
571.27	60357.74
571.43	60486.46
571.60	60458.38
571.76	60514.55
571.92	60523.91
572.09	60552.00
572.25	60470.08
572.41	60439.65
572.57	60413.91
572.74	60671.37
572.90	60432.63
573.06	60575.40
573.22	60261.77
573.38	60568.38
573.55	60589.45
573.71	60807.12
573.87	60683.07
574.03	60355.39
574.20	60535.62
574.36	60549.66
574.52	60832.86
574.68	60706.47
574.84	60664.35
575.01	60823.50
575.17	60598.81
575.33	60542.64
575.49	60514.55
575.65	60530.93
575.82	60741.58
575.98	60757.97
576.14	60727.54
576.30	60795.42
576.46	60470.08
576.62	60772.01
576.79	60493.49
576.95	60666.69
577.11	60793.07
577.27	60636.26
577.43	60767.33
577.59	60772.01
577.75	60514.55
577.92	60678.39
578.08	60610.51
578.24	60750.94
578.40	60734.56
578.56	60816.48
578.72	60856.27
578.88	60818.82
579.04	60748.60
579.21	60631.58
579.37	61045.85
579.53	60949.89
579.69	60746.26
579.85	60720.52
580.01	60715.84
580.17	60617.53
580.33	60807.12
580.49	60903.08
580.65	60720.52
580.82	60783.71
580.98	60786.05
581.14	60781.37
581.30	61071.60
581.46	60617.53
581.62	60757.97
581.78	60800.10
581.94	60942.87
582.10	60601.15
582.26	60701.79
582.42	60673.71
582.58	60942.87
582.74	60891.38
582.90	60973.30
583.06	60673.71
583.22	60736.90
583.38	60938.19
583.54	60987.34
583.70	60809.46
583.86	61029.47
584.02	60786.05
584.18	60903.08
584.34	60790.73
584.50	60874.99
584.66	60802.44
584.82	60715.84
584.98	61041.17
585.14	61001.38
585.30	61024.79
585.46	61078.62
585.62	60786.05
585.78	61099.68
585.94	60926.49
586.10	60985.00
586.26	60940.53
586.42	60746.26
586.58	61027.13
586.74	61057.56
586.90	60802.44
587.06	60779.03
587.22	60891.38
587.38	60968.61
587.54	61237.78
587.70	61172.24
587.86	61022.45
588.02	60968.61
588.18	61116.07
588.34	60865.63
588.49	60977.98
