SpectraSuite Data File
++++++++++++++++++++++++++++++++++++
Date: Fri Oct 25 11:25:45 EDT 2013
User: price-jones
Dark Spectrum Present: No
Reference Spectrum Present: No
Number of Sampled Component Spectra: 1
Spectrometers: USB2+H05261
Integration Time (usec): 100000 (USB2+H05261)
Spectra Averaged: 1 (USB2+H05261)
Boxcar Smoothing: 0 (USB2+H05261)
Correct for Electrical Dark: No (USB2+H05261)
Strobe/Lamp Enabled: No (USB2+H05261)
Correct for Detector Non-linearity: No (USB2+H05261)
Correct for Stray Light: No (USB2+H05261)
Number of Pixels in Processed Spectrum: 2048
>>>>>Begin Processed Spectral Data<<<<<
365.73	217.67
365.92	217.67
366.12	217.67
366.32	110.01
366.52	152.13
366.72	184.90
366.91	86.60
367.11	149.79
367.31	114.69
367.51	163.84
367.70	93.62
367.90	117.03
368.10	135.75
368.30	168.52
368.49	131.07
368.69	156.82
368.89	119.37
369.09	194.26
369.28	161.50
369.48	166.18
369.68	149.79
369.87	196.60
370.07	224.69
370.27	189.58
370.47	360.44
370.66	540.66
370.86	683.44
371.06	648.33
371.25	636.63
371.45	613.22
371.65	627.26
371.84	648.33
372.04	678.76
372.24	692.80
372.44	741.95
372.63	784.08
372.83	737.27
373.03	739.61
373.22	777.06
373.42	664.71
373.62	699.82
373.81	823.87
374.01	798.12
374.21	795.78
374.40	816.85
374.60	840.25
374.79	744.29
374.99	844.93
375.19	793.44
375.38	873.02
375.58	929.19
375.78	833.23
375.97	866.00
376.17	983.02
376.37	802.80
376.56	896.43
376.76	866.00
376.95	837.91
377.15	931.53
377.35	835.57
377.54	896.43
377.74	882.38
377.93	947.92
378.13	866.00
378.33	961.96
378.52	950.26
378.72	933.87
378.91	947.92
379.11	940.90
379.31	908.13
379.50	929.19
379.70	894.08
379.89	1055.58
380.09	961.96
380.28	1013.45
380.48	983.02
380.68	933.87
380.87	985.37
381.07	994.73
381.26	1086.01
381.46	1032.18
381.65	1018.13
381.85	1111.75
382.04	1018.13
382.24	1116.44
382.43	1074.31
382.63	1114.10
382.83	1053.24
383.02	1064.94
383.22	1186.65
383.41	1057.92
383.61	1076.65
383.80	1165.59
384.00	1095.37
384.19	1067.28
384.39	1137.50
384.58	1151.54
384.78	1188.99
384.97	1118.78
385.17	1163.25
385.36	1123.46
385.56	1121.12
385.75	1142.18
385.95	1212.40
386.14	1165.59
386.34	1186.65
386.53	1179.63
386.72	1165.59
386.92	1221.76
387.11	1233.46
387.31	1270.91
387.50	1252.19
387.70	1291.98
387.89	1261.55
388.09	1238.14
388.28	1273.25
388.48	1233.46
388.67	1284.95
388.86	1322.40
389.06	1294.32
389.25	1355.17
389.45	1341.13
389.64	1420.71
389.84	1394.96
390.03	1427.73
390.22	1371.55
390.42	1439.43
390.61	1385.60
390.81	1423.05
391.00	1488.58
391.19	1502.62
391.39	1430.07
391.58	1474.54
391.78	1378.58
391.97	1497.94
392.16	1537.73
392.36	1542.41
392.55	1516.67
392.75	1500.28
392.94	1523.69
393.13	1444.11
393.33	1556.46
393.52	1519.01
393.71	1633.69
393.91	1617.31
394.10	1645.40
394.29	1614.97
394.49	1565.82
394.68	1479.22
394.88	1558.80
395.07	1617.31
395.26	1699.23
395.46	1605.61
395.65	1671.14
395.84	1739.02
396.04	1860.73
396.23	1715.61
396.42	1678.16
396.62	1710.93
396.81	1830.30
397.00	1717.95
397.19	1774.13
397.39	1764.76
397.58	1872.43
397.77	1795.19
397.97	1886.47
398.16	1907.54
398.35	1886.47
398.55	1977.75
398.74	1867.75
398.93	1872.43
399.12	1867.75
399.32	1837.32
399.51	1839.66
399.70	1973.07
399.90	1825.62
400.09	1991.80
400.28	1984.77
400.47	2064.35
400.67	2111.16
400.86	2029.24
401.05	1930.94
401.24	2104.14
401.44	2108.82
401.63	2214.15
401.82	2139.25
402.01	2176.70
402.21	2221.17
402.40	2139.25
402.59	2083.08
402.78	2275.00
402.97	2256.28
403.17	2235.21
403.36	2237.55
403.55	2296.07
403.74	2249.25
403.93	2277.34
404.13	2335.85
404.32	2338.20
404.51	2333.51
404.70	2387.35
404.89	2399.05
405.09	2443.52
405.28	2356.92
405.47	2394.37
405.66	2459.90
405.85	2459.90
406.05	2590.97
406.24	2530.12
406.43	2579.27
406.62	2663.53
406.81	2644.81
407.00	2616.72
407.20	2595.65
407.39	2700.98
407.58	2705.66
407.77	2619.06
407.96	2705.66
408.15	2665.87
408.34	2780.56
408.54	2754.81
408.73	2848.43
408.92	2843.75
409.11	2944.39
409.30	2848.43
409.49	2937.37
409.68	2881.20
409.87	2911.63
410.07	2935.03
410.26	3108.23
410.45	3084.83
410.64	3075.46
410.83	3075.46
411.02	3070.78
411.21	3108.23
411.40	3091.85
411.59	3206.53
411.78	3148.02
411.98	3157.38
412.17	3337.60
412.36	3288.45
412.55	3251.00
412.74	3337.60
412.93	3419.52
413.12	3370.37
413.31	3449.95
413.50	3468.67
413.69	3412.50
413.88	3595.06
414.07	3637.19
414.26	3651.24
414.45	3819.75
414.64	3723.79
414.83	3644.21
415.02	3634.85
415.22	3707.41
415.41	3882.95
415.60	3751.88
415.79	3845.50
415.98	4051.47
416.17	3906.35
416.36	3843.16
416.55	3892.31
416.74	4049.13
416.93	3981.25
417.12	3967.21
417.31	4168.49
417.50	4210.62
417.69	4203.60
417.88	4231.69
418.07	4177.86
418.26	4278.50
418.45	4259.78
418.64	4496.17
418.83	4447.02
419.02	4285.52
419.21	4521.92
419.39	4512.55
419.58	4505.53
419.77	4557.02
419.96	4603.83
420.15	4535.96
420.34	4526.60
420.53	4514.89
420.72	4690.43
420.91	4430.63
421.10	4676.39
421.29	4748.95
421.48	4704.48
421.67	4755.97
421.86	4734.90
422.05	4777.03
422.24	4793.42
422.43	4732.56
422.61	4896.40
422.80	4835.55
422.99	4929.17
423.18	4887.04
423.37	4992.36
423.56	4910.44
423.75	4903.42
423.94	4702.14
424.13	4571.07
424.32	4880.02
424.50	5011.09
424.69	5057.90
424.88	5090.67
425.07	4849.59
425.26	4978.32
425.45	4994.70
425.64	4961.94
425.83	5048.54
426.01	5111.73
426.20	5046.20
426.39	5301.31
426.58	5055.56
426.77	5078.96
426.96	5036.83
427.15	5085.98
427.33	5158.54
427.52	5109.39
427.71	5132.79
427.90	5198.33
428.09	5165.56
428.28	5226.42
428.46	5437.06
428.65	5266.21
428.84	5411.32
429.03	5509.62
429.22	5252.16
429.40	5427.70
429.59	5516.64
429.78	5280.25
429.97	5303.65
430.16	5425.36
430.34	5579.84
430.53	5701.54
430.72	5610.26
430.91	5792.83
431.10	5671.12
431.28	5844.32
431.47	5753.04
431.66	5802.19
431.85	5802.19
432.03	5895.81
432.22	5879.43
432.41	5942.62
432.60	5823.25
432.79	5959.00
432.97	5877.09
433.16	5886.45
433.35	6005.81
433.54	6073.69
433.72	6029.22
433.91	5947.30
434.10	6064.33
434.28	5942.62
434.47	6167.31
434.66	6235.19
434.85	6324.13
435.03	6267.95
435.22	6190.72
435.41	6541.80
435.59	6326.47
435.78	6406.05
435.97	6305.40
436.16	6413.07
436.34	6406.05
436.53	6450.52
436.72	6434.13
436.90	6274.98
437.09	6651.80
437.28	6518.39
437.46	6534.78
437.65	6548.82
437.84	6586.27
438.02	6780.53
438.21	6895.22
438.40	6537.12
438.58	6906.92
438.77	6963.09
438.96	6967.77
439.14	7040.33
439.33	7054.37
439.52	7260.34
439.70	7002.88
439.89	7314.17
440.08	7393.75
440.26	7363.33
440.45	7325.88
440.63	7433.54
440.82	7456.95
441.01	7538.87
441.19	7620.78
441.38	7716.75
441.57	7824.41
441.75	7810.37
441.94	7889.95
442.12	7726.11
442.31	8154.43
442.50	7950.80
442.68	8109.96
442.87	7939.10
443.05	8056.12
443.24	8205.92
443.43	7950.80
443.61	8189.53
443.80	8568.70
443.98	8065.49
444.17	7878.24
444.35	8299.54
444.54	8184.85
444.73	8264.43
444.91	8154.43
445.10	8344.01
445.28	8262.09
445.47	8264.43
445.65	8042.08
445.84	8416.57
446.02	8507.85
446.21	8252.73
446.39	8276.13
446.58	8634.24
446.77	8336.99
446.95	8231.66
447.14	8336.99
447.32	8540.61
447.51	8564.02
447.69	8327.63
447.88	8442.31
448.06	8423.59
448.25	8458.70
448.43	8542.96
448.62	8456.36
448.80	8416.57
448.99	8671.68
449.17	8622.53
449.36	8540.61
449.54	8814.46
449.73	8784.03
449.91	8786.37
450.10	8901.06
450.28	9022.77
450.46	9069.58
450.65	9235.75
450.83	9055.53
451.02	9247.46
451.20	9158.52
451.39	9132.77
451.57	9146.81
451.76	9067.24
451.94	9242.78
452.13	9380.87
452.31	9270.86
452.49	9118.73
452.68	9366.82
452.86	9317.67
453.05	9233.41
453.23	9408.95
453.42	9212.35
453.60	9474.49
453.78	9437.04
453.97	9350.44
454.15	9369.16
454.34	9561.09
454.52	9795.14
454.70	9692.16
454.89	9654.71
455.07	9584.49
455.26	9598.54
455.44	9951.96
455.62	9973.02
455.81	9664.07
455.99	9785.78
456.17	10157.92
456.36	9902.81
456.54	10104.09
456.73	10148.56
456.91	10525.39
457.09	10366.23
457.28	10574.54
457.46	10434.11
457.64	10586.24
457.83	10544.11
458.01	10370.91
458.19	10707.95
458.38	10630.71
458.56	10712.63
458.74	10733.70
458.93	10569.86
459.11	10761.78
459.29	10640.08
459.48	10965.41
459.66	10944.34
459.84	10881.15
460.03	11009.88
460.21	10841.36
460.39	10927.96
460.57	10946.69
460.76	11096.48
460.94	11110.52
461.12	11105.84
461.31	11075.42
461.49	11269.68
461.67	11035.63
461.85	11454.58
462.04	11150.31
462.22	11791.62
462.40	11630.12
462.59	11520.12
462.77	11377.34
462.95	11520.12
463.13	11747.15
463.32	11487.35
463.50	11683.95
463.68	11489.69
463.86	11793.96
464.05	11501.39
464.23	11693.32
464.41	11887.58
464.59	11868.86
464.78	12105.25
464.96	11782.26
465.14	11587.99
465.32	11901.62
465.50	12182.49
465.69	12086.53
465.87	11967.16
466.05	12058.44
466.23	12184.83
466.41	12077.16
466.60	12475.06
466.78	12009.29
466.96	12175.47
467.14	12114.61
467.32	12367.39
467.51	12416.54
467.69	11929.71
467.87	12187.17
468.05	12376.75
468.23	12212.92
468.41	12535.91
468.60	12744.22
468.78	12697.41
468.96	12425.90
469.14	12755.92
469.32	13008.70
469.50	12645.91
469.69	12884.65
469.87	12879.97
470.05	13247.43
470.23	13188.92
470.41	13177.22
470.59	13366.80
470.77	13085.94
470.95	13312.97
471.14	13390.20
471.32	13200.62
471.50	13453.40
471.68	13497.87
471.86	13570.43
472.04	13511.91
472.22	13912.14
472.40	13844.27
472.58	13701.50
472.77	14092.37
472.95	14092.37
473.13	14483.24
473.31	13977.68
473.49	14127.47
473.67	13996.40
473.85	14209.39
474.03	14607.28
474.21	14853.04
474.39	14705.59
474.57	14459.83
474.75	15019.22
474.93	14813.25
475.12	14846.02
475.30	14911.55
475.48	14902.19
475.66	15229.87
475.84	15218.16
476.02	15414.77
476.20	15157.31
476.38	15405.41
476.56	15864.15
476.74	16037.35
476.92	15761.17
477.10	15723.72
477.28	16079.48
477.46	16194.17
477.64	16170.76
477.82	16428.22
478.00	16896.33
478.18	16842.50
478.36	16994.63
478.54	16964.20
478.72	17462.74
478.90	17378.48
479.08	17380.82
479.26	17869.99
479.44	17554.02
479.62	17729.56
479.80	18008.08
479.98	18010.42
480.16	18625.98
480.34	17916.80
480.52	18698.54
480.70	18424.70
480.88	18448.10
481.06	18635.35
481.24	18539.38
481.41	19066.00
481.59	19187.71
481.77	19480.28
481.95	19566.88
482.13	19690.93
482.31	19775.19
482.49	20002.22
482.67	20161.37
482.85	20306.49
483.03	20411.81
483.21	20484.37
483.39	20641.18
483.57	20739.49
483.74	21055.46
483.92	21200.57
484.10	21156.10
484.28	21542.29
484.46	21764.64
484.64	22111.04
484.82	21895.71
485.00	22401.27
485.18	22731.28
485.35	22796.82
485.53	22862.35
485.71	22625.96
485.89	23468.55
486.07	23339.82
486.25	23028.53
486.43	23585.58
486.61	23513.02
486.78	23728.35
486.96	24011.56
487.14	24414.13
487.32	24364.98
487.50	24594.35
487.68	24957.13
487.85	25202.89
488.03	25132.67
488.21	25546.95
488.39	25443.96
488.57	25549.29
488.75	25996.33
488.92	26354.43
489.10	26342.73
489.28	26712.53
489.46	26883.39
489.64	26892.76
489.81	27917.91
489.99	27332.78
490.17	27618.32
490.35	28030.26
490.53	27882.80
490.70	28411.76
490.88	28023.23
491.06	28428.15
491.24	28713.69
491.41	28945.41
491.59	29024.98
491.77	29329.25
491.95	29303.51
492.13	29504.79
492.30	30174.19
492.48	29654.59
492.66	30099.29
492.84	30181.21
493.01	30403.56
493.19	30478.46
493.37	30850.60
493.54	30735.92
493.72	31360.84
493.90	31229.77
494.08	31229.77
494.25	31915.54
494.43	31826.60
494.61	32210.45
494.79	32428.12
494.96	32182.37
495.14	32594.30
495.32	32718.35
495.49	32929.00
495.67	32856.44
495.85	33134.96
496.02	33654.56
496.20	33535.20
496.38	34017.35
496.55	34326.30
496.73	34539.29
496.91	34272.46
497.09	34588.44
497.26	34653.97
497.44	34703.12
497.62	35061.22
497.79	35536.35
497.97	35157.19
498.14	35885.09
498.32	36119.15
498.50	36180.00
498.67	36320.43
498.85	36091.06
499.03	36182.34
499.20	36470.23
499.38	36388.31
499.56	36961.74
499.73	37256.65
499.91	36844.71
500.08	37364.31
500.26	36786.20
500.44	37376.01
500.61	37750.50
500.79	38019.66
500.97	37947.11
501.14	38178.82
501.32	38225.63
501.49	38583.73
501.67	38478.41
501.84	38756.93
502.02	38958.22
502.20	38911.41
502.37	39030.77
502.55	39648.68
502.72	39133.76
502.90	39503.56
503.07	39196.95
503.25	39445.05
503.43	39730.59
503.60	40095.72
503.78	40332.11
503.95	39849.96
504.13	40460.84
504.30	40350.84
504.48	40158.91
504.65	40715.96
504.83	40779.15
505.01	41116.19
505.18	40680.85
505.36	40999.16
505.53	40931.29
505.71	41457.91
505.88	41443.87
506.06	41558.55
506.23	42043.04
506.41	41958.78
506.58	42014.96
506.76	41846.44
506.93	42553.28
507.11	41729.41
507.28	42326.25
507.46	42745.20
507.63	42483.06
507.81	42813.08
507.98	43189.91
508.16	42902.02
508.33	43299.91
508.50	43447.36
508.68	43288.21
508.85	43337.36
509.03	43571.41
509.20	43688.44
509.38	44095.69
509.55	44037.18
509.73	44034.84
509.90	44500.61
510.08	44252.51
510.25	44409.32
510.42	44631.68
510.60	44999.14
510.77	44779.13
510.95	45219.15
511.12	45254.26
511.30	45301.07
511.47	45247.24
511.64	45446.18
511.82	45944.72
511.99	45577.25
512.17	45598.32
512.34	45500.01
512.51	46389.42
512.69	46199.83
512.86	45923.65
513.04	46527.51
513.21	46447.93
513.38	46246.65
513.56	46822.42
513.73	46927.74
513.90	46979.23
514.08	46541.55
514.25	47297.55
514.43	47208.61
514.60	46583.68
514.77	47250.74
514.95	47496.49
515.12	47463.72
515.29	47702.46
515.47	47646.29
515.64	48128.44
515.81	47917.79
515.99	48266.53
516.16	48362.49
516.33	48114.39
516.51	48526.33
516.68	48701.87
516.85	48547.39
517.03	48350.79
517.20	48804.85
517.37	48839.96
517.54	48706.55
517.72	48676.12
517.89	49071.67
518.06	48935.92
518.24	48856.34
518.41	49024.86
518.58	48849.32
518.75	49167.63
518.93	49102.10
519.10	49041.24
519.27	49507.01
519.45	49499.99
519.62	49553.82
519.79	49717.66
519.96	49537.44
520.14	50127.25
520.31	50052.36
520.48	50288.75
520.65	49972.78
520.83	50588.34
521.00	50337.90
521.17	50059.38
521.34	50724.09
521.52	50649.19
521.69	50354.29
521.86	50815.37
522.03	50995.59
522.20	51058.79
522.38	51028.36
522.55	51241.35
522.72	51262.41
522.89	51257.73
523.07	51278.80
523.24	51210.92
523.41	51412.21
523.58	51398.16
523.75	51744.56
523.92	51341.99
524.10	51604.13
524.27	52002.02
524.44	51807.76
524.61	51557.32
524.78	52051.17
524.96	51859.25
525.13	51985.64
525.30	52322.68
525.47	52317.99
525.64	52226.71
525.81	52334.38
525.98	52767.38
526.16	52409.28
526.33	52343.74
526.50	52774.40
526.67	52694.82
526.84	52556.73
527.01	52397.57
527.18	52921.85
527.36	52865.68
527.53	52566.09
527.70	53291.66
527.87	53228.46
528.04	52891.43
528.21	53347.83
528.38	53324.43
528.55	53511.67
528.72	53446.13
528.89	53228.46
529.07	53572.52
529.24	53542.10
529.41	53593.59
529.58	53338.47
529.75	53574.86
529.92	53581.88
530.09	53904.88
530.26	54085.10
530.43	53834.66
530.60	53722.32
530.77	53729.34
530.94	54108.50
531.11	53993.82
531.28	53640.40
531.46	54115.53
531.63	54319.15
531.80	53982.12
531.97	54218.51
532.14	54265.32
532.31	54078.08
532.48	54548.53
532.65	54501.71
532.82	54415.11
532.99	54763.85
533.16	54618.74
533.33	54831.73
533.50	54766.20
533.67	54365.96
533.84	54590.66
534.01	55000.25
534.18	54738.11
534.35	55370.05
534.52	54899.61
534.69	55173.45
534.86	55327.92
535.03	54920.67
535.20	55000.25
535.37	55189.83
535.54	55299.84
535.71	55093.87
535.88	55461.33
536.05	55456.65
536.22	55297.50
536.38	55587.72
536.55	55215.58
536.72	55590.06
536.89	55178.13
537.06	55241.32
537.23	55655.60
537.40	55208.56
537.57	55676.66
537.74	55629.85
537.91	55826.46
538.08	55426.23
538.25	55629.85
538.42	55817.10
538.59	55999.66
538.75	55849.86
538.92	55913.06
539.09	56240.73
539.26	55948.17
539.43	56039.45
539.60	56175.20
539.77	56327.33
539.94	56135.41
540.11	56205.62
540.28	56442.02
540.44	56437.34
540.61	56427.98
540.78	56315.63
540.95	56507.55
541.12	56254.78
541.29	56271.16
541.46	56303.93
541.62	56542.66
541.79	56535.64
541.96	56076.90
542.13	56374.14
542.30	56638.62
542.47	56743.95
542.63	56809.48
542.80	56828.21
542.97	56889.06
543.14	56996.73
543.31	57008.43
543.48	57123.11
543.64	57303.34
543.81	57064.60
543.98	57457.81
544.15	57148.86
544.32	57677.82
544.48	57361.85
544.65	57401.64
544.82	57165.24
544.99	57275.25
545.16	57090.35
545.32	57226.10
545.49	57513.98
545.66	57633.35
545.83	57518.67
546.00	57719.95
546.16	57609.95
546.33	57556.11
546.50	57530.37
546.67	57530.37
546.83	57268.23
547.00	57584.20
547.17	57757.40
547.34	57783.15
547.50	57956.35
547.67	58113.16
547.84	57851.02
548.00	58007.84
548.17	58234.87
548.34	57820.59
548.51	58169.33
548.67	58188.06
548.84	57916.56
549.01	58003.16
549.18	57907.19
549.34	57996.13
549.51	57963.37
549.68	58232.53
549.84	58099.12
550.01	58293.38
550.18	57853.36
550.34	58344.87
550.51	58337.85
550.68	58213.80
550.84	57916.56
551.01	58452.54
551.18	58368.28
551.34	58195.08
551.51	58433.81
551.68	58478.28
551.84	58340.19
552.01	58370.62
552.18	58478.28
552.34	58230.19
552.51	58609.35
552.68	58307.43
552.84	58536.80
553.01	58691.27
553.18	58543.82
553.34	58789.58
553.51	58740.42
553.67	58871.49
553.84	58855.11
554.01	58834.05
554.17	58960.44
554.34	58976.82
554.51	58951.07
554.67	58864.47
554.84	58913.62
555.00	58885.54
555.17	58866.81
555.33	58972.14
555.50	58857.45
555.67	58848.09
555.83	58988.52
556.00	59075.12
556.16	59351.30
556.33	59189.81
556.50	59140.66
556.66	59267.05
556.83	58878.52
556.99	59208.53
557.16	59430.88
557.32	59463.65
557.49	59477.69
557.65	59217.89
557.82	59292.79
557.98	59255.34
558.15	59283.43
558.32	59290.45
558.48	59386.41
558.65	59426.20
558.81	59316.20
558.98	59386.41
559.14	59402.80
559.31	59578.34
559.47	59447.27
559.64	59519.82
559.80	59604.08
559.97	59573.66
560.13	59475.35
560.30	59676.64
560.46	59585.36
560.63	59662.60
560.79	59620.47
560.96	59800.69
561.12	59671.96
561.29	59686.00
561.45	59430.88
561.61	59561.95
561.78	59842.82
561.94	59538.55
562.11	59760.90
562.27	59688.34
562.44	60013.68
562.60	59891.97
562.77	59884.95
562.93	59756.22
563.10	59936.44
563.26	59903.67
563.42	60158.79
563.59	59870.90
563.75	59678.98
563.92	60018.36
564.08	59966.87
564.24	60011.34
564.41	59962.18
564.57	59793.67
564.74	59990.27
564.90	60044.10
565.07	59821.75
565.23	60048.78
565.39	60006.65
565.56	60163.47
565.72	60037.08
565.88	60193.90
566.05	59863.88
566.21	60060.49
566.38	60128.36
566.54	60172.83
566.70	60395.18
566.87	60254.75
567.03	60107.30
567.19	60282.84
567.36	60229.01
567.52	60100.28
567.68	60458.38
567.85	60238.37
568.01	60331.99
568.17	60130.70
568.34	60252.41
568.50	60282.84
568.66	60348.37
568.83	60329.65
568.99	60236.03
569.15	60268.79
569.32	60474.76
569.48	60250.07
569.64	60427.95
569.81	60633.92
569.97	60357.74
570.13	60341.35
570.30	60177.51
570.46	60310.92
570.62	60528.59
570.78	60573.06
570.95	60233.69
571.11	60591.79
571.27	60280.50
571.43	60502.85
571.60	60210.28
571.76	60427.95
571.92	60399.86
572.09	60301.56
572.25	60320.29
572.41	60589.45
572.57	60509.87
572.74	60662.00
572.90	60360.08
573.06	60697.11
573.22	60397.52
573.38	60406.89
573.55	60654.98
573.71	60582.43
573.87	60645.62
574.03	60507.53
574.20	60657.32
574.36	60404.55
574.52	60767.33
574.68	60673.71
574.84	60617.53
575.01	60692.43
575.17	60640.94
575.33	60659.66
575.49	60552.00
575.65	60643.28
575.82	60722.86
575.98	60769.67
576.14	60795.42
576.30	60821.16
576.46	60437.31
576.62	60694.77
576.79	60566.04
576.95	60584.77
577.11	60793.07
577.27	60903.08
577.43	60753.29
577.59	60573.06
577.75	60580.09
577.92	60603.49
578.08	60584.77
578.24	60739.24
578.40	60966.27
578.56	60694.77
578.72	60851.59
578.88	60807.12
579.04	60926.49
579.21	60809.46
579.37	60935.85
579.53	60830.52
579.69	60470.08
579.85	60781.37
580.01	60764.99
580.17	60704.13
580.33	60835.20
580.49	60851.59
580.65	60837.54
580.82	60779.03
580.98	60605.83
581.14	60659.66
581.30	61041.17
581.46	60741.58
581.62	60966.27
581.78	60729.88
581.94	60750.94
582.10	60898.40
582.26	60877.33
582.42	60746.26
582.58	60879.67
582.74	60846.91
582.90	60804.78
583.06	60767.33
583.22	60711.16
583.38	60903.08
583.54	60853.93
583.70	60809.46
583.86	60891.38
584.02	60739.24
584.18	60870.31
584.34	60863.29
584.50	60835.20
584.66	60786.05
584.82	60779.03
584.98	60994.36
585.14	61020.11
585.30	60839.89
585.46	60982.66
585.62	60963.93
585.78	61073.94
585.94	60769.67
586.10	60935.85
586.26	60669.03
586.42	60814.14
586.58	61034.15
586.74	60982.66
586.90	60849.25
587.06	60877.33
587.22	60919.46
587.38	60917.12
587.54	61249.48
587.70	61174.58
587.86	60924.14
588.02	60917.12
588.18	61155.86
588.34	60910.10
588.49	61038.83
