SpectraSuite Data File
++++++++++++++++++++++++++++++++++++
Date: Fri Oct 25 10:44:10 EDT 2013
User: price-jones
Dark Spectrum Present: No
Reference Spectrum Present: No
Number of Sampled Component Spectra: 1
Spectrometers: USB2+H05261
Integration Time (usec): 100000 (USB2+H05261)
Spectra Averaged: 1 (USB2+H05261)
Boxcar Smoothing: 0 (USB2+H05261)
Correct for Electrical Dark: No (USB2+H05261)
Strobe/Lamp Enabled: No (USB2+H05261)
Correct for Detector Non-linearity: No (USB2+H05261)
Correct for Stray Light: No (USB2+H05261)
Number of Pixels in Processed Spectrum: 2048
>>>>>Begin Processed Spectral Data<<<<<
365.73	100.64
365.92	100.64
366.12	100.64
366.32	37.45
366.52	51.49
366.72	67.88
366.91	0.00
367.11	60.85
367.31	28.09
367.51	32.77
367.70	14.04
367.90	21.06
368.10	0.00
368.30	39.79
368.49	0.00
368.69	51.49
368.89	37.45
369.09	0.00
369.28	28.09
369.48	16.38
369.68	79.58
369.87	60.85
370.07	117.03
370.27	100.64
370.47	184.90
370.66	379.17
370.86	407.25
371.06	496.19
371.25	528.96
371.45	442.36
371.65	435.34
371.84	510.24
372.04	402.57
372.24	437.68
372.44	463.43
372.63	498.53
372.83	447.04
373.03	423.64
373.22	535.98
373.42	535.98
373.62	449.38
373.81	624.92
374.01	582.79
374.21	545.34
374.40	538.32
374.60	507.90
374.79	610.88
374.99	599.18
375.19	596.84
375.38	627.26
375.58	610.88
375.78	603.86
375.97	582.79
376.17	592.16
376.37	573.43
376.56	603.86
376.76	617.90
376.95	660.03
377.15	631.94
377.35	608.54
377.54	592.16
377.74	622.58
377.93	650.67
378.13	622.58
378.33	662.37
378.52	624.92
378.72	725.57
378.91	690.46
379.11	765.36
379.31	730.25
379.50	627.26
379.70	650.67
379.89	655.35
380.09	620.24
380.28	716.20
380.48	734.93
380.68	702.16
380.87	667.05
381.07	683.44
381.26	716.20
381.46	723.23
381.65	674.07
381.85	744.29
382.04	730.25
382.24	690.46
382.43	723.23
382.63	730.25
382.83	629.60
383.02	739.61
383.22	645.99
383.41	727.91
383.61	744.29
383.80	777.06
384.00	777.06
384.19	725.57
384.39	723.23
384.58	840.25
384.78	753.65
384.97	739.61
385.17	741.95
385.36	706.84
385.56	788.76
385.75	877.70
385.95	744.29
386.14	833.23
386.34	833.23
386.53	844.93
386.72	819.19
386.92	875.36
387.11	894.08
387.31	917.49
387.50	882.38
387.70	847.27
387.89	887.06
388.09	896.43
388.28	910.47
388.48	821.53
388.67	910.47
388.86	884.72
389.06	936.21
389.25	940.90
389.45	987.71
389.64	950.26
389.84	901.11
390.03	978.34
390.22	1020.47
390.42	1039.20
390.61	1076.65
390.81	1006.43
391.00	1022.81
391.19	1100.05
391.39	1076.65
391.58	1039.20
391.78	1053.24
391.97	985.37
392.16	980.68
392.36	1069.62
392.55	1001.75
392.75	1069.62
392.94	976.00
393.13	1004.09
393.33	950.26
393.52	1088.35
393.71	1032.18
393.91	1057.92
394.10	1181.97
394.29	1174.95
394.49	1116.44
394.68	1111.75
394.88	1207.72
395.07	1226.44
395.26	1121.12
395.46	1221.76
395.65	1261.55
395.84	1205.38
396.04	1240.48
396.23	1142.18
396.42	1121.12
396.62	1149.20
396.81	1149.20
397.00	1179.63
397.19	1259.21
397.39	1299.00
397.58	1320.06
397.77	1348.15
397.97	1350.49
398.16	1315.38
398.35	1535.39
398.55	1376.24
398.74	1451.13
398.93	1600.93
399.12	1495.60
399.32	1504.96
399.51	1554.12
399.70	1523.69
399.90	1544.75
400.09	1598.59
400.28	1666.46
400.47	1535.39
400.67	1565.82
400.86	1621.99
401.05	1661.78
401.24	1631.35
401.44	1748.38
401.63	1678.16
401.82	1727.32
402.01	1715.61
402.21	1792.85
402.40	1710.93
402.59	1820.94
402.78	1818.60
402.97	1762.42
403.17	1886.47
403.36	1722.63
403.55	1797.53
403.74	1900.52
403.93	1727.32
404.13	1853.70
404.32	1764.76
404.51	1844.34
404.70	1926.26
404.89	1902.86
405.09	1980.09
405.28	1923.92
405.47	1872.43
405.66	1853.70
405.85	1984.77
406.05	1998.82
406.24	2017.54
406.43	2017.54
406.62	2111.16
406.81	2143.93
407.00	1930.94
407.20	2094.78
407.39	2122.87
407.58	2062.01
407.77	2223.51
407.96	2200.10
408.15	2148.61
408.34	2237.55
408.54	2291.38
408.73	2270.32
408.92	2270.32
409.11	2361.60
409.30	2312.45
409.49	2282.02
409.68	2296.07
409.87	2265.64
410.07	2286.70
410.26	2406.07
410.45	2502.03
410.64	2455.22
410.83	2569.91
411.02	2434.16
411.21	2553.52
411.40	2445.86
411.59	2567.57
411.78	2635.44
411.98	2654.17
412.17	2612.04
412.36	2649.49
412.55	2682.25
412.74	2780.56
412.93	2761.83
413.12	2686.94
413.31	2855.45
413.50	2771.19
413.69	2892.90
413.88	2846.09
414.07	2974.82
414.26	2967.80
414.45	2935.03
414.64	2979.50
414.83	2836.73
415.02	2981.84
415.22	3087.17
415.41	3152.70
415.60	3063.76
415.79	3164.40
415.98	3248.66
416.17	3220.58
416.36	3213.56
416.55	3276.75
416.74	3239.30
416.93	3241.64
417.12	3162.06
417.31	3267.39
417.50	3410.16
417.69	3482.72
417.88	3485.06
418.07	3384.41
418.26	3412.50
418.45	3456.97
418.64	3562.30
418.83	3501.44
419.02	3435.91
419.21	3548.25
419.39	3581.02
419.58	3562.30
419.77	3531.87
419.96	3590.38
420.15	3611.45
420.34	3618.47
420.53	3775.28
420.72	3693.37
420.91	3765.92
421.10	3737.84
421.29	3864.22
421.48	3716.77
421.67	3829.12
421.86	3669.96
422.05	3782.31
422.24	3723.79
422.43	3964.87
422.61	3798.69
422.80	3908.69
422.99	3901.67
423.18	3705.07
423.37	3885.29
423.56	3953.16
423.75	3824.44
423.94	3735.50
424.13	3576.34
424.32	3833.80
424.50	3908.69
424.69	4063.17
424.88	3995.29
425.07	3925.08
425.26	3819.75
425.45	3925.08
425.64	3934.44
425.83	3962.53
426.01	3978.91
426.20	4058.49
426.39	4011.68
426.58	3941.46
426.77	3904.01
426.96	3873.59
427.15	4011.68
427.33	3974.23
427.52	4011.68
427.71	4126.36
427.90	3953.16
428.09	4140.41
428.28	4175.52
428.46	4198.92
428.65	4084.23
428.84	4231.69
429.03	4196.58
429.22	4145.09
429.40	4191.90
429.59	4140.41
429.78	3908.69
429.97	3941.46
430.16	4049.13
430.34	4159.13
430.53	4196.58
430.72	4208.28
430.91	4229.35
431.10	4397.87
431.28	4463.40
431.47	4601.49
431.66	4468.08
431.85	4470.42
432.03	4697.46
432.22	4615.54
432.41	4418.93
432.60	4667.03
432.79	4709.16
432.97	4812.14
433.16	4641.28
433.35	4613.20
433.54	4566.39
433.72	4629.58
433.91	4643.62
434.10	4702.14
434.28	4706.82
434.47	4865.97
434.66	4875.34
434.85	4770.01
435.03	4901.08
435.22	4919.81
435.41	5142.16
435.59	5027.47
435.78	4978.32
435.97	5146.84
436.16	5004.07
436.34	4990.02
436.53	5142.16
436.72	5217.05
436.90	5029.81
437.09	5195.99
437.28	5034.49
437.46	5317.70
437.65	5034.49
437.84	5277.91
438.02	5238.12
438.21	5132.79
438.40	5109.39
438.58	5270.89
438.77	5338.76
438.96	5458.13
439.14	5542.39
439.33	5551.75
439.52	5561.11
439.70	5689.84
439.89	5652.39
440.08	5685.16
440.26	5650.05
440.45	5720.27
440.63	6003.47
440.82	5806.87
441.01	5884.11
441.19	5914.53
441.38	6026.88
441.57	6050.28
441.75	6057.31
441.94	6183.70
442.12	6331.15
442.31	6319.45
442.50	6106.46
442.68	6326.47
442.87	6260.93
443.05	6235.19
443.24	6471.58
443.43	6443.49
443.61	6387.32
443.80	6820.32
443.98	6438.81
444.17	6183.70
444.35	6576.91
444.54	6567.54
444.73	6544.14
444.91	6614.35
445.10	6476.26
445.28	6492.65
445.47	6403.71
445.65	6382.64
445.84	6530.09
446.02	6494.99
446.21	6562.86
446.39	6483.28
446.58	6576.91
446.77	6530.09
446.95	6607.33
447.14	6677.55
447.32	6909.26
447.51	6675.21
447.69	6621.38
447.88	6757.13
448.06	6813.30
448.25	6684.57
448.43	6548.82
448.62	6651.80
448.80	6738.40
448.99	6862.45
449.17	6890.54
449.36	6754.79
449.54	6935.01
449.73	6867.13
449.91	6953.73
450.10	7052.03
450.28	7042.67
450.46	7307.15
450.65	7059.06
450.83	7110.55
451.02	7211.19
451.20	7213.53
451.39	7152.68
451.57	7325.88
451.76	7150.34
451.94	7300.13
452.13	7194.81
452.31	7192.47
452.49	6906.92
452.68	7328.22
452.86	7389.07
453.05	7283.75
453.23	7302.47
453.42	7358.64
453.60	7148.00
453.78	7405.46
453.97	7494.40
454.15	7302.47
454.34	7342.26
454.52	7501.42
454.70	7606.74
454.89	7578.65
455.07	7655.89
455.26	7723.77
455.44	7808.03
455.62	7686.32
455.81	7648.87
455.99	7758.88
456.17	7613.76
456.36	7782.28
456.54	7873.56
456.73	8009.31
456.91	8018.68
457.09	8035.06
457.28	8168.47
457.46	8072.51
457.64	7995.27
457.83	7983.57
458.01	7946.12
458.19	8311.24
458.38	8074.85
458.56	8098.25
458.74	8056.12
458.93	8154.43
459.11	8430.61
459.29	8313.58
459.48	8264.43
459.66	8320.60
459.84	8458.70
460.03	8674.03
460.21	8468.06
460.39	8521.89
460.57	8374.44
460.76	8557.00
460.94	8655.30
461.12	8407.20
461.31	8599.13
461.49	8683.39
461.67	8645.94
461.85	8814.46
462.04	8793.39
462.22	8868.29
462.40	8910.42
462.59	8849.57
462.77	8777.01
462.95	8819.14
463.13	8889.35
463.32	8964.25
463.50	8779.35
463.68	8882.33
463.86	9043.83
464.05	8924.46
464.23	8826.16
464.41	9015.74
464.59	8748.92
464.78	9282.56
464.96	9027.45
465.14	8997.02
465.32	9289.59
465.50	9057.87
465.69	9427.68
465.87	9142.13
466.05	9130.43
466.23	9128.09
466.41	9116.39
466.60	9448.74
466.78	9135.11
466.96	9350.44
467.14	9378.53
467.32	9238.09
467.51	9411.29
467.69	9123.41
467.87	9530.66
468.05	9439.38
468.23	9430.02
468.41	9635.99
468.60	9390.23
468.78	9617.26
468.96	9504.92
469.14	9762.37
469.32	9813.87
469.50	9626.62
469.69	9802.16
469.87	9797.48
470.05	9891.10
470.23	9844.29
470.41	10038.56
470.59	9949.62
470.77	9727.27
470.95	10106.43
471.14	10204.74
471.32	10108.77
471.50	10307.72
471.68	10324.10
471.86	10300.70
472.04	10345.17
472.22	10771.15
472.40	10448.15
472.58	10424.75
472.77	10614.33
472.95	10593.26
473.13	10839.02
473.31	10672.84
473.49	10218.78
473.67	10429.43
473.85	10696.25
474.03	10963.07
474.21	10953.71
474.39	11073.07
474.57	10871.79
474.75	11129.25
474.93	11115.20
475.12	11396.07
475.30	11234.57
475.48	11178.40
475.66	11314.15
475.84	11169.04
476.02	11309.47
476.20	11620.76
476.38	11676.93
476.56	11915.67
476.74	12030.35
476.92	11695.66
477.10	11838.43
477.28	11913.33
477.46	12049.08
477.64	12297.17
477.82	12545.27
478.00	12620.17
478.18	12348.67
478.36	12322.92
478.54	12879.97
478.72	12819.11
478.90	12891.67
479.08	13078.91
479.26	12823.80
479.44	13174.88
479.62	13198.28
479.80	13308.29
479.98	13144.45
480.16	13729.58
480.34	13530.64
480.52	13654.69
480.70	13923.85
480.88	13760.01
481.06	13862.99
481.24	13872.36
481.41	14202.37
481.59	14455.15
481.77	14473.87
481.95	14394.29
482.13	14359.19
482.31	14560.47
482.49	14850.70
482.67	14581.54
482.85	14937.30
483.03	14993.47
483.21	15183.06
483.39	15499.03
483.57	15307.10
483.74	15520.09
483.92	15527.11
484.10	15477.96
484.28	15714.36
484.46	15793.94
484.64	16257.36
484.82	15999.90
485.00	16152.04
485.18	16339.28
485.35	16781.64
485.53	16395.45
485.71	16187.14
485.89	16510.14
486.07	16587.38
486.25	16538.23
486.43	17067.19
486.61	17188.89
486.78	17195.92
486.96	17341.03
487.14	17844.24
487.32	17734.24
487.50	17657.00
487.68	18090.00
487.85	18228.09
488.03	18317.03
488.21	18066.60
488.39	18394.27
488.57	18635.35
488.75	18572.15
488.92	19227.50
489.10	19108.13
489.28	19250.91
489.46	19711.99
489.64	19765.82
489.81	20250.32
489.99	20126.27
490.17	20004.56
490.35	20016.26
490.53	20486.71
490.70	20538.20
490.88	20299.47
491.06	20709.06
491.24	20659.91
491.41	20758.21
491.59	21095.25
491.77	21020.35
491.95	20821.41
492.13	21624.21
492.30	21364.41
492.48	21774.00
492.66	21467.39
492.84	21813.79
493.01	22253.81
493.19	22089.98
493.37	22061.89
493.54	22181.26
493.72	22771.07
493.90	22405.95
494.08	22726.60
494.25	23192.37
494.43	23342.16
494.61	23281.31
494.79	23356.21
494.96	23407.70
495.14	23105.77
495.32	23601.96
495.49	23426.42
495.67	23655.79
495.85	23850.06
496.02	24041.98
496.20	24205.82
496.38	24540.52
496.55	24505.41
496.73	25158.42
496.91	24847.13
497.09	24687.97
497.26	25050.75
497.44	24833.08
497.62	25263.74
497.79	25722.49
497.97	24837.76
498.14	25633.55
498.32	25511.84
498.50	25806.75
498.67	25996.33
498.85	25848.88
499.03	26483.16
499.20	26218.68
499.38	26101.65
499.56	26389.54
499.73	26345.07
499.91	26382.52
500.08	26258.47
500.26	26001.01
500.44	26712.53
500.61	26792.11
500.79	26553.38
500.97	26899.78
501.14	26986.38
501.32	27257.88
501.49	27084.68
501.67	27150.21
501.84	27330.44
502.02	27702.58
502.20	27370.22
502.37	28077.07
502.55	27894.50
502.72	28198.77
502.90	27976.42
503.07	28250.27
503.25	27852.38
503.43	27946.00
503.60	28203.46
503.78	27943.66
503.95	28421.13
504.13	28636.45
504.30	28446.87
504.48	28741.78
504.65	28732.42
504.83	29006.26
505.01	29181.80
505.18	29275.42
505.36	29638.20
505.53	29156.05
505.71	29392.45
505.88	29731.83
506.06	29350.32
506.23	29549.26
506.41	29586.71
506.58	29832.47
506.76	30050.14
506.93	30125.04
507.11	29640.54
507.28	29867.58
507.46	29544.58
507.63	29823.11
507.81	30169.51
507.98	30113.33
508.16	30132.06
508.33	30499.52
508.50	30824.86
508.68	31344.45
508.85	31009.76
509.03	30897.41
509.20	31178.28
509.38	31133.81
509.55	31215.72
509.73	31449.78
509.90	31548.08
510.08	31267.22
510.25	31391.26
510.42	31592.55
510.60	31917.89
510.77	32151.94
510.95	31735.32
511.12	31648.72
511.30	31826.60
511.47	31992.78
511.64	32058.32
511.82	32435.14
511.99	32285.35
512.17	32320.46
512.34	32196.41
512.51	32430.46
512.69	32912.61
512.86	32823.67
513.04	32964.10
513.21	32842.40
513.38	32673.88
513.56	33205.18
513.73	32613.02
513.90	32692.60
514.08	32833.04
514.25	33062.41
514.43	33013.26
514.60	33654.56
514.77	32898.57
514.95	33617.11
515.12	33750.52
515.29	33507.11
515.47	34110.97
515.64	34113.31
515.81	33514.13
515.99	33888.62
516.16	33212.20
516.33	33670.95
516.51	33397.10
516.68	33020.28
516.85	33570.30
517.03	33895.64
517.20	33853.51
517.37	33958.83
517.54	34115.65
517.72	34483.11
517.89	33830.10
518.06	34206.93
518.24	34501.84
518.41	34501.84
518.58	34576.73
518.75	34815.47
518.93	34483.11
519.10	34728.87
519.27	35395.92
519.45	35424.01
519.62	34895.05
519.79	35503.59
519.96	35243.79
520.14	35494.22
520.31	35222.72
520.48	35496.56
520.65	35370.18
520.83	35796.15
521.00	36013.82
521.17	35814.88
521.34	36168.30
521.52	36119.15
521.69	36119.15
521.86	36477.25
522.03	36294.69
522.20	36177.66
522.38	36463.21
522.55	36404.69
522.72	36615.34
522.89	36587.25
523.07	36699.60
523.24	36547.47
523.41	36594.28
523.58	36861.10
523.75	37462.61
523.92	37296.44
524.10	37130.26
524.27	37350.27
524.44	37357.29
524.61	37251.97
524.78	37642.84
524.96	37577.30
525.13	37741.14
525.30	37778.59
525.47	38092.22
525.64	37649.86
525.81	37872.21
525.98	37432.19
526.16	37317.50
526.33	37467.30
526.50	37446.23
526.67	37357.29
526.84	37443.89
527.01	37422.83
527.18	37715.39
527.36	38265.42
527.53	38813.10
527.70	38045.41
527.87	38555.64
528.04	38880.98
528.21	38579.05
528.38	38429.26
528.55	38565.01
528.72	38625.86
528.89	39016.73
529.07	38930.13
529.24	38745.23
529.41	38780.34
529.58	38920.77
529.75	38660.97
529.92	38813.10
530.09	39129.08
530.26	39278.87
530.43	39063.54
530.60	39051.84
530.77	39519.95
530.94	39754.00
531.11	39229.72
531.28	39519.95
531.46	39517.60
531.63	39999.76
531.80	39299.94
531.97	39508.24
532.14	39168.87
532.31	39218.02
532.48	39541.01
532.65	39683.78
532.82	39608.89
532.99	39824.22
533.16	40002.10
533.33	39840.60
533.50	40208.06
533.67	40004.44
533.84	39969.33
534.01	40060.61
534.18	40385.94
534.35	40563.82
534.52	40449.14
534.69	40184.66
534.86	40554.46
535.03	40175.30
535.20	40758.09
535.37	41130.23
535.54	40933.63
535.71	40634.04
535.88	40858.73
536.05	40671.49
536.22	40538.08
536.38	40346.15
536.55	40683.19
536.72	40744.05
536.89	40851.71
537.06	40905.54
537.23	40952.35
537.40	40821.28
537.57	40884.48
537.74	41102.15
537.91	41364.29
538.08	41303.43
538.25	40959.38
538.42	41055.34
538.59	41703.67
538.75	41085.76
538.92	41523.44
539.09	41537.49
539.26	41549.19
539.43	41593.66
539.60	41071.72
539.77	40966.40
539.94	41200.45
540.11	41268.33
540.28	41497.70
540.44	41848.78
540.61	41469.61
540.78	41371.31
540.95	41848.78
541.12	41326.84
541.29	41799.63
541.46	42131.98
541.62	42024.32
541.79	41935.38
541.96	41750.48
542.13	41865.16
542.30	42120.28
542.47	42415.19
542.63	42131.98
542.80	42038.36
542.97	42653.92
543.14	42960.53
543.31	42986.28
543.48	42740.52
543.64	42965.21
543.81	43091.60
543.98	42457.32
544.15	42773.29
544.32	43147.78
544.48	43164.16
544.65	42733.50
544.82	43316.29
544.99	42733.50
545.16	42789.67
545.32	42759.25
545.49	43531.62
545.66	43643.97
545.83	43423.96
546.00	43250.76
546.16	43145.44
546.33	43098.62
546.50	42677.33
546.67	43260.12
546.83	43161.82
547.00	43203.95
547.17	43531.62
547.34	42972.24
547.50	43573.75
547.67	43466.09
547.84	43590.14
548.00	43676.74
548.17	43826.53
548.34	43592.48
548.51	43723.55
548.67	43730.57
548.84	43957.60
549.01	43510.56
549.18	43648.65
549.34	44177.61
549.51	44236.12
549.68	43929.51
549.84	43938.88
550.01	44009.09
550.18	43835.89
550.34	44009.09
550.51	44538.05
550.68	43796.10
550.84	43639.29
551.01	44371.88
551.18	43735.25
551.34	43985.69
551.51	43868.66
551.68	44608.27
551.84	44538.05
552.01	44350.81
552.18	44259.53
552.34	44158.89
552.51	44467.84
552.68	44327.41
552.84	44484.22
553.01	44701.89
553.18	44891.48
553.34	44547.42
553.51	44112.08
553.67	44467.84
553.84	45272.98
554.01	44477.20
554.17	44811.90
554.34	45062.33
554.51	44884.45
554.67	44931.26
554.84	44828.28
555.00	44650.40
555.17	44903.18
555.33	44994.46
555.50	44460.82
555.67	44666.78
555.83	44884.45
556.00	44980.42
556.16	45298.73
556.33	44823.60
556.50	44549.76
556.66	44692.53
556.83	44783.81
556.99	45223.83
557.16	45298.73
557.32	45600.66
557.49	45195.74
557.65	45006.16
557.82	45006.16
557.98	45530.44
558.15	44884.45
558.32	45354.90
558.48	45146.59
558.65	45043.61
558.81	44938.29
558.98	44828.28
559.14	44818.92
559.31	45275.32
559.47	45429.80
559.64	45415.76
559.80	45628.74
559.97	45401.71
560.13	44886.79
560.30	45064.67
560.46	45301.07
560.63	45242.56
560.79	45500.01
560.96	45567.89
561.12	45399.37
561.29	44832.96
561.45	45202.77
561.61	45890.88
561.78	45401.71
561.94	45411.07
562.11	45539.80
562.27	45588.95
562.44	45478.95
562.60	46129.62
562.77	46078.13
562.93	45886.20
563.10	45844.07
563.26	45071.70
563.42	45705.98
563.59	45530.44
563.75	45572.57
563.92	46075.79
564.08	45666.19
564.24	46138.98
564.41	45710.66
564.57	45457.88
564.74	45574.91
564.90	46225.58
565.07	45645.13
565.23	45624.06
565.39	45904.93
565.56	45556.19
565.72	45577.25
565.88	45516.40
566.05	45544.48
566.21	46057.06
566.38	45659.17
566.54	45556.19
566.70	46211.54
566.87	46321.54
567.03	45783.22
567.19	46490.06
567.36	46195.15
567.52	45750.45
567.68	45900.25
567.85	45762.15
568.01	46653.90
568.17	45603.00
568.34	45883.86
568.50	46028.98
568.66	45815.99
568.83	45911.95
568.99	45603.00
569.15	45626.40
569.32	45764.49
569.48	45610.02
569.64	46019.61
569.81	45942.38
569.97	45661.51
570.13	46328.56
570.30	46040.68
570.46	45371.28
570.62	45949.40
570.78	45432.14
570.95	45874.50
571.11	46012.59
571.27	45804.28
571.43	45993.87
571.60	45813.65
571.76	45734.07
571.92	45989.19
572.09	46288.77
572.25	45769.18
572.41	46483.04
572.57	46094.51
572.74	46356.65
572.90	46190.47
573.06	45897.91
573.22	46092.17
573.38	45799.60
573.55	45879.18
573.71	46932.42
573.87	46160.05
574.03	46064.08
574.20	46300.48
574.36	45743.43
574.52	45954.08
574.68	46124.94
574.84	46281.75
575.01	46138.98
575.17	45965.78
575.33	45720.02
575.49	45759.81
575.65	46162.39
575.82	46354.31
575.98	46253.67
576.14	46148.34
576.30	46307.50
576.46	46089.83
576.62	46096.85
576.79	46216.22
576.95	45848.75
577.11	46227.92
577.27	46281.75
577.43	46064.08
577.59	46143.66
577.75	45930.67
577.92	45874.50
578.08	46127.28
578.24	45642.79
578.40	46026.63
578.56	46279.41
578.72	46045.36
578.88	46267.71
579.04	46534.53
579.21	45893.22
579.37	46394.10
579.53	46410.48
579.69	46082.81
579.85	45954.08
580.01	46267.71
580.17	46237.28
580.33	46651.56
580.49	46637.51
580.65	46288.77
580.82	46476.02
580.98	46260.69
581.14	46358.99
581.30	46195.15
581.46	46401.12
581.62	46340.27
581.78	46115.58
581.94	46712.41
582.10	46422.19
582.26	46597.73
582.42	46082.81
582.58	46649.22
582.74	46363.67
582.90	46293.46
583.06	46632.83
583.22	46286.43
583.38	46684.33
583.54	46775.61
583.70	46775.61
583.86	46286.43
584.02	45949.40
584.18	46649.22
584.34	46433.89
584.50	46607.09
584.66	46040.68
584.82	46337.93
584.98	46223.24
585.14	46405.80
585.30	46452.61
585.46	46368.35
585.62	45827.69
585.78	46220.90
585.94	45790.24
586.10	46129.62
586.26	46127.28
586.42	46506.44
586.58	46443.25
586.74	46099.19
586.90	46021.95
587.06	46274.73
587.22	46602.41
587.38	46003.23
587.54	46192.81
587.70	46412.82
587.86	45804.28
588.02	46192.81
588.18	46569.64
588.34	46117.92
588.49	46045.36
588.65	45394.69
588.81	46115.58
588.97	45710.66
589.13	45668.53
589.29	46256.01
589.45	46305.16
589.61	46136.64
589.77	46440.91
589.93	46106.21
