SpectraSuite Data File
++++++++++++++++++++++++++++++++++++
Date: Fri Oct 25 11:26:13 EDT 2013
User: price-jones
Dark Spectrum Present: No
Reference Spectrum Present: No
Number of Sampled Component Spectra: 1
Spectrometers: USB2+H05261
Integration Time (usec): 100000 (USB2+H05261)
Spectra Averaged: 1 (USB2+H05261)
Boxcar Smoothing: 0 (USB2+H05261)
Correct for Electrical Dark: No (USB2+H05261)
Strobe/Lamp Enabled: No (USB2+H05261)
Correct for Detector Non-linearity: No (USB2+H05261)
Correct for Stray Light: No (USB2+H05261)
Number of Pixels in Processed Spectrum: 2048
>>>>>Begin Processed Spectral Data<<<<<
365.73	210.65
365.92	210.65
366.12	210.65
366.32	145.11
366.52	175.54
366.72	217.67
366.91	163.84
367.11	156.82
367.31	238.73
367.51	159.16
367.70	166.18
367.90	131.07
368.10	117.03
368.30	156.82
368.49	173.20
368.69	220.01
368.89	124.05
369.09	77.24
369.28	166.18
369.48	147.45
369.68	220.01
369.87	250.44
370.07	170.86
370.27	259.80
370.47	379.17
370.66	643.65
370.86	645.99
371.06	702.16
371.25	678.76
371.45	669.39
371.65	688.12
371.84	669.39
372.04	706.84
372.24	767.70
372.44	713.86
372.63	760.67
372.83	751.31
373.03	727.91
373.22	723.23
373.42	730.25
373.62	809.83
373.81	877.70
374.01	849.61
374.21	833.23
374.40	858.98
374.60	791.10
374.79	823.87
374.99	758.33
375.19	842.59
375.38	849.61
375.58	858.98
375.78	957.28
375.97	814.51
376.17	896.43
376.37	858.98
376.56	858.98
376.76	901.11
376.95	826.21
377.15	917.49
377.35	889.40
377.54	896.43
377.74	980.68
377.93	959.62
378.13	889.40
378.33	968.98
378.52	922.17
378.72	992.39
378.91	933.87
379.11	887.06
379.31	877.70
379.50	950.26
379.70	1081.33
379.89	983.02
380.09	1027.50
380.28	950.26
380.48	931.53
380.68	1036.86
380.87	1015.79
381.07	1001.75
381.26	1008.77
381.46	994.73
381.65	1032.18
381.85	1034.52
382.04	1022.81
382.24	985.37
382.43	1111.75
382.63	1071.97
382.83	1043.88
383.02	1069.62
383.22	1111.75
383.41	1032.18
383.61	1060.26
383.80	1172.61
384.00	1102.39
384.19	1118.78
384.39	1107.07
384.58	1130.48
384.78	1078.99
384.97	1179.63
385.17	1231.12
385.36	1291.98
385.56	1203.04
385.75	1128.14
385.95	1235.80
386.14	1226.44
386.34	1188.99
386.53	1214.74
386.72	1181.97
386.92	1165.59
387.11	1231.12
387.31	1270.91
387.50	1301.34
387.70	1240.48
387.89	1261.55
388.09	1256.87
388.28	1284.95
388.48	1238.14
388.67	1301.34
388.86	1301.34
389.06	1273.25
389.25	1322.40
389.45	1350.49
389.64	1315.38
389.84	1434.75
390.03	1310.70
390.22	1423.05
390.42	1355.17
390.61	1420.71
390.81	1411.34
391.00	1432.41
391.19	1409.00
391.39	1383.26
391.58	1444.11
391.78	1507.30
391.97	1535.39
392.16	1448.79
392.36	1589.22
392.55	1507.30
392.75	1549.43
392.94	1409.00
393.13	1549.43
393.33	1523.69
393.52	1572.84
393.71	1617.31
393.91	1563.48
394.10	1533.05
394.29	1488.58
394.49	1600.93
394.68	1633.69
394.88	1605.61
395.07	1701.57
395.26	1689.87
395.46	1647.74
395.65	1776.47
395.84	1792.85
396.04	1722.63
396.23	1671.14
396.42	1729.66
396.62	1729.66
396.81	1816.26
397.00	1769.44
397.19	1748.38
397.39	1818.60
397.58	1863.07
397.77	1813.92
397.97	1912.22
398.16	1799.87
398.35	1823.28
398.55	1844.34
398.74	1804.55
398.93	1975.41
399.12	1898.17
399.32	1844.34
399.51	1914.56
399.70	1959.03
399.90	2015.20
400.09	1994.14
400.28	2115.84
400.47	2083.08
400.67	2064.35
400.86	2062.01
401.05	2069.03
401.24	2085.42
401.44	2125.21
401.63	2094.78
401.82	2108.82
402.01	2122.87
402.21	2183.72
402.40	2148.61
402.59	2214.15
402.78	2193.08
402.97	2204.78
403.17	2232.87
403.36	2204.78
403.55	2328.83
403.74	2413.09
403.93	2312.45
404.13	2275.00
404.32	2394.37
404.51	2415.43
404.70	2375.64
404.89	2406.07
405.09	2427.14
405.28	2523.10
405.47	2438.84
405.66	2473.95
405.85	2487.99
406.05	2560.55
406.24	2513.74
406.43	2630.76
406.62	2583.95
406.81	2621.40
407.00	2553.52
407.20	2583.95
407.39	2574.59
407.58	2736.09
407.77	2829.71
407.96	2635.44
408.15	2698.64
408.34	2722.04
408.54	2757.15
408.73	2780.56
408.92	2848.43
409.11	2897.58
409.30	2808.64
409.49	2895.24
409.68	2951.42
409.87	2956.10
410.07	3077.80
410.26	3007.59
410.45	3047.38
410.64	3108.23
410.83	3075.46
411.02	3171.43
411.21	3110.57
411.40	3105.89
411.59	3349.31
411.78	3136.32
411.98	3091.85
412.17	3227.60
412.36	3187.81
412.55	3332.92
412.74	3309.52
412.93	3396.12
413.12	3316.54
413.31	3527.19
413.50	3361.01
413.69	3456.97
413.88	3613.79
414.07	3527.19
414.26	3655.92
414.45	3686.34
414.64	3599.74
414.83	3754.22
415.02	3852.52
415.22	3925.08
415.41	3915.72
415.60	3981.25
415.79	3913.38
415.98	4025.72
416.17	3967.21
416.36	3983.59
416.55	3915.72
416.74	4049.13
416.93	4119.34
417.12	4208.28
417.31	4156.79
417.50	4285.52
417.69	4306.59
417.88	4095.94
418.07	4234.03
418.26	4306.59
418.45	4449.36
418.64	4561.70
418.83	4468.08
419.02	4465.74
419.21	4468.08
419.39	4531.28
419.58	4440.00
419.77	4386.16
419.96	4578.09
420.15	4554.68
420.34	4580.43
420.53	4634.26
420.72	4568.73
420.91	4849.59
421.10	4690.43
421.29	4814.48
421.48	4692.77
421.67	4723.20
421.86	4690.43
422.05	4807.46
422.24	4772.35
422.43	4727.88
422.61	4884.70
422.80	4952.57
422.99	4826.18
423.18	5095.35
423.37	5011.09
423.56	4968.96
423.75	4891.72
423.94	4896.40
424.13	4592.13
424.32	4751.29
424.50	4912.78
424.69	5111.73
424.88	5064.92
425.07	4880.02
425.26	4814.48
425.45	4835.55
425.64	4964.28
425.83	4898.74
426.01	5064.92
426.20	5043.85
426.39	4992.36
426.58	4980.66
426.77	4975.98
426.96	5247.48
427.15	5064.92
427.33	5242.80
427.52	5095.35
427.71	5144.50
427.90	5289.61
428.09	5277.91
428.28	5228.76
428.46	5378.55
428.65	5408.98
428.84	5294.29
429.03	5380.89
429.22	5247.48
429.40	5523.66
429.59	5420.68
429.78	5301.31
429.97	5195.99
430.16	5537.71
430.34	5437.06
430.53	5476.85
430.72	5680.48
430.91	5551.75
431.10	5598.56
431.28	5762.40
431.47	5753.04
431.66	5832.62
431.85	5788.14
432.03	5823.25
432.22	5959.00
432.41	5879.43
432.60	5762.40
432.79	5886.45
432.97	5961.34
433.16	5968.37
433.35	5989.43
433.54	6125.18
433.72	6003.47
433.91	6153.27
434.10	6113.48
434.28	6120.50
434.47	6186.04
434.66	6146.25
434.85	6282.00
435.03	6253.91
435.22	6408.39
435.41	6452.86
435.59	6469.24
435.78	6380.30
435.97	6307.74
436.16	6422.43
436.34	6431.79
436.53	6342.85
436.72	6473.92
436.90	6509.03
437.09	6682.23
437.28	6380.30
437.46	6445.84
437.65	6745.42
437.84	6867.13
438.02	6740.74
438.21	6759.47
438.40	6773.51
438.58	6899.90
438.77	7096.50
438.96	6967.77
439.14	7150.34
439.33	7222.89
439.52	7108.21
439.70	7227.57
439.89	7178.42
440.08	7218.21
440.26	7253.32
440.45	7351.62
440.63	7302.47
440.82	7667.60
441.01	7468.65
441.19	7492.05
441.38	7721.43
441.57	7648.87
441.75	7702.70
441.94	7964.84
442.12	7934.42
442.31	7978.89
442.50	8154.43
442.68	7953.14
442.87	8084.21
443.05	7981.23
443.24	8306.56
443.43	8018.68
443.61	8023.36
443.80	8369.76
443.98	8070.17
444.17	7887.61
444.35	8116.98
444.54	8360.39
444.73	8353.37
444.91	8259.75
445.10	8187.19
445.28	8402.52
445.47	8248.05
445.65	8404.86
445.84	8409.54
446.02	8308.90
446.21	8458.70
446.39	8358.05
446.58	8360.39
446.77	8439.97
446.95	8276.13
447.14	8409.54
447.32	8486.78
447.51	8470.40
447.69	8503.17
447.88	8510.19
448.06	8348.69
448.25	8449.33
448.43	8580.40
448.62	8587.43
448.80	8559.34
448.99	8533.59
449.17	8620.19
449.36	8496.14
449.54	8968.93
449.73	8992.34
449.91	8861.27
450.10	9081.28
450.28	8959.57
450.46	8936.17
450.65	9048.51
450.83	9107.02
451.02	8987.66
451.20	9336.40
451.39	9039.15
451.57	9071.92
451.76	8821.48
451.94	8924.46
452.13	9142.13
452.31	9242.78
452.49	9202.99
452.68	9280.22
452.86	9242.78
453.05	9533.00
453.23	9490.87
453.42	9404.27
453.60	9432.36
453.78	9521.30
453.97	9277.88
454.15	9469.81
454.34	9518.96
454.52	9696.84
454.70	9710.88
454.89	9621.94
455.07	9664.07
455.26	9839.61
455.44	9914.51
455.62	9888.76
455.81	9930.89
455.99	10057.28
456.17	10186.01
456.36	9867.70
456.54	10073.67
456.73	10148.56
456.91	10574.54
457.09	10452.83
457.28	10389.64
457.46	10377.94
457.64	10558.16
457.83	10525.39
458.01	10480.92
458.19	10717.31
458.38	10539.43
458.56	10527.73
458.74	10520.71
458.93	10506.66
459.11	10628.37
459.29	10775.83
459.48	10771.15
459.66	10895.19
459.84	10775.83
460.03	11044.99
460.21	11028.60
460.39	11028.60
460.57	11023.92
460.76	11023.92
460.94	11037.97
461.12	11140.95
461.31	11417.13
461.49	11054.35
461.67	11047.33
461.85	11419.47
462.04	11520.12
462.22	11524.80
462.40	11435.86
462.59	11426.50
462.77	11316.49
462.95	11375.00
463.13	11417.13
463.32	11698.00
463.50	11702.68
463.68	11653.53
463.86	11655.87
464.05	11651.19
464.23	11548.20
464.41	11906.31
464.59	11595.01
464.78	12210.57
464.96	11784.60
465.14	11616.08
465.32	12119.29
465.50	12170.79
465.69	12023.33
465.87	11871.20
466.05	12327.60
466.23	12098.23
466.41	12226.96
466.60	12428.24
466.78	12107.59
466.96	12084.19
467.14	12196.53
467.32	12372.07
467.51	12453.99
467.69	12280.79
467.87	12358.03
468.05	12458.67
468.23	12255.04
468.41	12449.31
468.60	12475.06
468.78	12538.25
468.96	12540.59
469.14	12685.70
469.32	12987.63
469.50	12786.35
469.69	12919.76
469.87	12837.84
470.05	13078.91
470.23	13273.18
470.41	13209.98
470.59	13228.71
470.77	13186.58
470.95	13186.58
471.14	13598.51
471.32	13015.72
471.50	13392.55
471.68	13640.64
471.86	13668.73
472.04	13785.76
472.22	13774.05
472.40	13778.73
472.58	13825.54
472.77	13694.47
472.95	14211.73
473.13	14534.73
473.31	13741.29
473.49	14087.68
473.67	13963.64
473.85	14300.67
474.03	14881.13
474.21	14677.50
474.39	14782.82
474.57	14719.63
474.75	14991.13
474.93	15012.20
475.12	14993.47
475.30	15152.63
475.48	14899.85
475.66	15150.29
475.84	15035.60
476.02	15246.25
476.20	15484.98
476.38	15667.55
476.56	15653.50
476.74	15791.59
476.92	15843.09
477.10	15620.74
477.28	16149.70
477.46	16280.77
477.64	16252.68
477.82	16374.39
478.00	16893.99
478.18	16657.59
478.36	16910.37
478.54	17003.99
478.72	17345.71
478.90	17394.86
479.08	17614.87
479.26	17713.17
479.44	17502.53
479.62	17921.48
479.80	17991.70
479.98	18324.05
480.16	18279.58
480.34	18118.09
480.52	18359.16
480.70	18389.59
480.88	18611.94
481.06	18883.44
481.24	18733.65
481.41	18991.11
481.59	19236.86
481.77	19344.53
481.95	19297.72
482.13	19681.56
482.31	19697.95
482.49	20187.12
482.67	20280.74
482.85	20350.96
483.03	20400.11
483.21	20547.56
483.39	20414.15
483.57	20645.87
483.74	20718.42
483.92	21074.18
484.10	21383.13
484.28	21671.02
484.46	22366.16
484.64	22354.46
484.82	21881.67
485.00	22335.73
485.18	22630.64
485.35	22537.02
485.53	22696.17
485.71	23115.13
485.89	23180.67
486.07	23218.11
486.25	23140.88
486.43	23718.99
486.61	23733.03
486.78	24144.97
486.96	23922.62
487.14	24603.71
487.32	24299.44
487.50	24442.21
487.68	24821.38
487.85	25029.69
488.03	25472.05
488.21	25797.38
488.39	25879.30
488.57	25993.99
488.75	26031.44
488.92	26214.00
489.10	26508.91
489.28	26597.85
489.46	26693.81
489.64	26850.63
489.81	27440.44
489.99	27508.32
490.17	27470.87
490.35	28009.19
490.53	28158.99
490.70	28233.88
490.88	28044.30
491.06	28945.41
491.24	28914.98
491.41	28755.82
491.59	29163.08
491.77	29113.92
491.95	29366.70
492.13	29355.00
492.30	29624.16
492.48	30005.67
492.66	29853.53
492.84	30150.78
493.01	30574.42
493.19	30459.73
493.37	30745.28
493.54	31276.58
493.72	31498.93
493.90	31388.92
494.08	31108.06
494.25	32039.59
494.43	31885.12
494.61	31861.71
494.79	32154.28
494.96	32526.42
495.14	32912.61
495.32	33244.97
495.49	32655.15
495.67	33600.73
495.85	33273.06
496.02	33862.87
496.20	33965.85
496.38	33935.43
496.55	33806.70
496.73	34501.84
496.91	34527.58
497.09	34665.67
497.26	35030.80
497.44	34852.92
497.62	35037.82
497.79	35744.66
497.97	35688.49
498.14	35920.20
498.32	36226.81
498.50	36154.26
498.67	36423.42
498.85	36065.31
499.03	36821.31
499.20	36343.84
499.38	36690.24
499.56	36935.99
499.73	36996.85
499.91	36968.76
500.08	37383.04
500.26	37165.37
500.44	37251.97
500.61	37565.60
500.79	37495.38
500.97	37567.94
501.14	38572.03
501.32	38607.14
501.49	38403.51
501.67	38473.73
501.84	38726.50
502.02	38801.40
502.20	38958.22
502.37	38850.55
502.55	39164.18
502.72	39042.48
502.90	39337.38
503.07	39264.83
503.25	39466.11
503.43	39489.52
503.60	39962.31
503.78	40308.71
503.95	40240.83
504.13	40140.19
504.30	40701.92
504.48	40479.57
504.65	40973.42
504.83	40538.08
505.01	41125.55
505.18	40811.92
505.36	41158.32
505.53	41071.72
505.71	41368.97
505.88	41677.92
506.06	41153.64
506.23	41794.95
506.41	41530.47
506.58	42040.70
506.76	41488.34
506.93	42527.53
507.11	42354.33
507.28	42696.05
507.46	42176.45
507.63	42705.41
507.81	43250.76
507.98	42738.18
508.16	42614.13
508.33	43250.76
508.50	43313.95
508.68	43430.98
508.85	44109.74
509.03	43454.39
509.20	43983.35
509.38	44039.52
509.55	43849.94
509.73	43920.15
509.90	44460.82
510.08	44086.33
510.25	44292.30
510.42	44706.57
510.60	44713.59
510.77	44980.42
510.95	45427.46
511.12	44938.29
511.30	45162.98
511.47	45230.85
511.64	45373.63
511.82	45940.04
511.99	45584.27
512.17	46239.62
512.34	45544.48
512.51	46281.75
512.69	46057.06
512.86	46314.52
513.04	46382.40
513.21	46625.81
513.38	46593.04
513.56	46916.04
513.73	47107.96
513.90	46326.22
514.08	46887.95
514.25	47089.24
514.43	47173.50
514.60	47440.32
514.77	47107.96
514.95	47683.73
515.12	47597.13
515.29	47360.74
515.47	47910.77
515.64	47426.28
515.81	47866.30
515.99	48336.74
516.16	48177.59
516.33	48243.12
516.51	48303.98
516.68	48633.99
516.85	48369.51
517.03	48732.29
517.20	48755.70
517.37	48582.50
517.54	48446.75
517.72	48561.44
517.89	48973.37
518.06	49071.67
518.24	49020.18
518.41	49052.95
518.58	49387.64
518.75	49202.74
518.93	49481.27
519.10	49050.61
519.27	49680.21
519.45	49277.64
519.62	49879.16
519.79	49883.84
519.96	49815.96
520.14	49942.35
520.31	49935.33
520.48	50375.35
520.65	50375.35
520.83	50274.71
521.00	50611.74
521.17	50363.65
521.34	50578.98
521.52	50370.67
521.69	50845.80
521.86	50429.18
522.03	51318.59
522.20	51295.18
522.38	51143.05
522.55	51063.47
522.72	51105.60
522.89	51077.51
523.07	51704.77
523.24	51641.58
523.41	51508.17
523.58	51274.12
523.75	51569.02
523.92	51487.10
524.10	51737.54
524.27	51760.95
524.44	51924.78
524.61	52065.22
524.78	52444.38
524.96	52053.51
525.13	52325.02
525.30	52336.72
525.47	52325.02
525.64	52226.71
525.81	52254.80
525.98	52296.93
526.16	52317.99
526.33	52315.65
526.50	52889.09
526.67	52573.11
526.84	52837.59
527.01	52512.26
527.18	52900.79
527.36	52727.59
527.53	52750.99
527.70	53282.30
527.87	53113.78
528.04	52940.58
528.21	53378.26
528.38	53167.61
528.55	53326.77
528.72	53298.68
528.89	53001.43
529.07	53160.59
529.24	53270.59
529.41	53729.34
529.58	53539.75
529.75	53420.39
529.92	53668.48
530.09	53563.16
530.26	53715.29
530.43	53954.03
530.60	53609.97
530.77	53478.90
530.94	53914.24
531.11	53902.54
531.28	54237.23
531.46	53771.47
531.63	53911.90
531.80	54000.84
531.97	54066.38
532.14	54262.98
532.31	54305.11
532.48	54443.20
532.65	54567.25
532.82	54365.96
532.99	54497.03
533.16	54539.16
533.33	54852.80
533.50	54714.70
533.67	54670.23
533.84	54478.31
534.01	54518.10
534.18	54955.78
534.35	55070.46
534.52	54981.52
534.69	54967.48
534.86	55224.94
535.03	55035.36
535.20	54913.65
535.37	55241.32
535.54	55311.54
535.71	55173.45
535.88	55103.23
536.05	55580.70
536.22	55540.91
536.38	55449.63
536.55	55297.50
536.72	55498.78
536.89	55442.61
537.06	55571.34
537.23	55618.15
537.40	55358.35
537.57	55561.98
537.74	55660.28
537.91	55985.61
538.08	55845.18
538.25	55648.58
538.42	55805.39
538.59	56212.65
538.75	55566.66
538.92	56069.87
539.09	56011.36
539.26	56060.51
539.43	56086.26
539.60	56189.24
539.77	56039.45
539.94	56261.80
540.11	56193.92
540.28	56301.59
540.44	56327.33
540.61	56420.95
540.78	56287.54
540.95	56521.60
541.12	56100.30
541.29	56360.10
541.46	56470.11
541.62	56662.03
541.79	56381.16
541.96	56390.53
542.13	56533.30
542.30	56786.08
542.47	56816.50
542.63	56713.52
542.80	56755.65
542.97	57123.11
543.14	57017.79
543.31	57226.10
543.48	57024.81
543.64	57399.30
543.81	57198.01
543.98	57172.27
544.15	57116.09
544.32	57322.06
544.48	57483.56
544.65	57389.94
544.82	57535.05
544.99	57226.10
545.16	57485.90
545.32	57298.65
545.49	57455.47
545.66	57659.10
545.83	57532.71
546.00	57511.64
546.16	57471.85
546.33	57425.04
546.50	57249.50
546.67	57542.07
546.83	57340.78
547.00	57612.29
547.17	57645.05
547.34	57808.89
547.50	57869.75
547.67	57932.94
547.84	57925.92
548.00	58049.97
548.17	58307.43
548.34	57907.19
548.51	57946.98
548.67	58204.44
548.84	57883.79
549.01	57841.66
549.18	57946.98
549.34	58260.62
549.51	58309.77
549.68	58225.51
549.84	58227.85
550.01	58342.53
550.18	58038.26
550.34	58131.89
550.51	58269.98
550.68	58497.01
550.84	58171.67
551.01	58323.81
551.18	58410.41
551.34	58134.23
551.51	58445.52
551.68	58323.81
551.84	58417.43
552.01	58284.02
552.18	58501.69
552.34	58415.09
552.51	58581.27
552.68	58576.59
552.84	58578.93
553.01	58712.34
553.18	58525.10
553.34	58742.77
553.51	58419.77
553.67	58719.36
553.84	58843.41
554.01	58801.28
554.17	58824.68
554.34	59032.99
554.51	58953.41
554.67	58831.71
554.84	58880.86
555.00	59018.95
555.17	58983.84
555.33	58838.73
555.50	58866.81
555.67	58937.03
555.83	58869.15
556.00	59093.85
556.16	59391.09
556.33	59325.56
556.50	59093.85
556.66	59147.68
556.83	58939.37
556.99	59112.57
557.16	59245.98
557.32	59393.43
557.49	59505.78
557.65	59250.66
557.82	59241.30
557.98	59257.68
558.15	59494.08
558.32	59522.16
558.48	59365.35
558.65	59339.60
558.81	59440.24
558.98	59271.73
559.14	59512.80
559.31	59538.55
559.47	59508.12
559.64	59470.67
559.80	59538.55
559.97	59791.33
560.13	59370.03
560.30	59503.44
560.46	59723.45
560.63	59653.23
560.79	59660.26
560.96	59681.32
561.12	59751.54
561.29	59690.68
561.45	59927.08
561.61	59573.66
561.78	59536.21
561.94	59709.41
562.11	59735.15
562.27	59650.89
562.44	59744.51
562.60	60133.04
562.77	59723.45
562.93	59723.45
563.10	59980.91
563.26	60044.10
563.42	60102.62
563.59	60079.21
563.75	59604.08
563.92	59880.27
564.08	59812.39
564.24	59884.95
564.41	60250.07
564.57	59955.16
564.74	60097.94
564.90	60093.25
565.07	59950.48
565.23	59887.29
565.39	59969.21
565.56	60076.87
565.72	60121.34
565.88	60011.34
566.05	60065.17
566.21	60170.49
566.38	60229.01
566.54	60067.51
566.70	60224.32
566.87	60247.73
567.03	60020.70
567.19	60240.71
567.36	60013.68
567.52	60137.72
567.68	60350.71
567.85	60362.42
568.01	60214.96
568.17	60156.45
568.34	60135.38
568.50	60172.83
568.66	60196.24
568.83	60444.33
568.99	60261.77
569.15	60331.99
569.32	60121.34
569.48	60266.45
569.64	60512.21
569.81	60308.58
569.97	60151.77
570.13	60425.61
570.30	60247.73
570.46	60261.77
570.62	60233.69
570.78	60406.89
570.95	60243.05
571.11	60402.21
571.27	60449.02
571.43	60404.55
571.60	60444.33
571.76	60533.28
571.92	60353.05
572.09	60404.55
572.25	60465.40
572.41	60467.74
572.57	60610.51
572.74	60570.72
572.90	60257.09
573.06	60467.74
573.22	60519.23
573.38	60383.48
573.55	60423.27
573.71	60809.46
573.87	60542.64
574.03	60402.21
574.20	60629.24
574.36	60650.30
574.52	60566.04
574.68	60755.63
574.84	60704.13
575.01	60502.85
575.17	60619.88
575.33	60568.38
575.49	60505.19
575.65	60739.24
575.82	60708.82
575.98	60729.88
576.14	60989.68
576.30	60865.63
576.46	60680.73
576.62	60556.68
576.79	60488.80
576.95	60437.31
577.11	60699.45
577.27	60622.22
577.43	60989.68
577.59	60514.55
577.75	60404.55
577.92	60530.93
578.08	60809.46
578.24	60781.37
578.40	60781.37
578.56	60828.18
578.72	60680.73
578.88	60687.75
579.04	60863.29
579.21	60900.74
579.37	60914.78
579.53	60809.46
579.69	60292.20
579.85	60645.62
580.01	60659.66
580.17	60662.00
580.33	60928.83
580.49	60835.20
580.65	60764.99
580.82	60619.88
580.98	60704.13
581.14	60540.30
581.30	60795.42
581.46	60786.05
581.62	60952.23
581.78	60699.45
581.94	61020.11
582.10	60893.72
582.26	60793.07
582.42	60720.52
582.58	61015.43
582.74	60851.59
582.90	60669.03
583.06	60788.39
583.22	60523.91
583.38	60729.88
583.54	60783.71
583.70	60762.65
583.86	60980.32
584.02	61013.08
584.18	60935.85
584.34	60774.35
584.50	60912.44
584.66	60823.50
584.82	60638.60
584.98	61085.64
585.14	60853.93
585.30	60814.14
585.46	60954.57
585.62	60919.46
585.78	61027.13
585.94	60772.01
586.10	60818.82
586.26	61022.45
586.42	61172.24
586.58	61038.83
586.74	61017.77
586.90	61024.79
587.06	61207.35
587.22	60942.87
587.38	60947.55
587.54	61064.58
587.70	61043.51
587.86	60999.04
588.02	60811.80
588.18	60996.70
588.34	60973.30
588.49	60776.69
