SpectraSuite Data File
++++++++++++++++++++++++++++++++++++
Date: Fri Oct 25 11:23:56 EDT 2013
User: price-jones
Dark Spectrum Present: No
Reference Spectrum Present: No
Number of Sampled Component Spectra: 1
Spectrometers: USB2+H05261
Integration Time (usec): 100000 (USB2+H05261)
Spectra Averaged: 1 (USB2+H05261)
Boxcar Smoothing: 0 (USB2+H05261)
Correct for Electrical Dark: No (USB2+H05261)
Strobe/Lamp Enabled: No (USB2+H05261)
Correct for Detector Non-linearity: No (USB2+H05261)
Correct for Stray Light: No (USB2+H05261)
Number of Pixels in Processed Spectrum: 2048
>>>>>Begin Processed Spectral Data<<<<<
365.73	168.52
365.92	168.52
366.12	168.52
366.32	117.03
366.52	67.88
366.72	133.41
366.91	95.96
367.11	110.01
367.31	124.05
367.51	91.28
367.70	110.01
367.90	138.09
368.10	128.73
368.30	187.24
368.49	102.98
368.69	168.52
368.89	149.79
369.09	145.11
369.28	140.43
369.48	126.39
369.68	163.84
369.87	220.01
370.07	180.22
370.27	234.05
370.47	325.33
370.66	655.35
370.86	645.99
371.06	641.31
371.25	676.41
371.45	669.39
371.65	648.33
371.84	725.57
372.04	662.37
372.24	695.14
372.44	711.52
372.63	746.63
372.83	767.70
373.03	676.41
373.22	723.23
373.42	781.74
373.62	837.91
373.81	828.55
374.01	793.44
374.21	851.96
374.40	851.96
374.60	821.53
374.79	870.68
374.99	887.06
375.19	753.65
375.38	772.38
375.58	849.61
375.78	903.45
375.97	849.61
376.17	919.83
376.37	866.00
376.56	837.91
376.76	908.13
376.95	844.93
377.15	910.47
377.35	943.24
377.54	898.77
377.74	830.89
377.93	882.38
378.13	912.81
378.33	940.90
378.52	994.73
378.72	901.11
378.91	917.49
379.11	926.85
379.31	985.37
379.50	922.17
379.70	1032.18
379.89	933.87
380.09	910.47
380.28	964.30
380.48	985.37
380.68	971.32
380.87	987.71
381.07	1088.35
381.26	1086.01
381.46	1078.99
381.65	983.02
381.85	1076.65
382.04	1078.99
382.24	1114.10
382.43	1008.77
382.63	1001.75
382.83	1046.22
383.02	1100.05
383.22	1095.37
383.41	1074.31
383.61	1086.01
383.80	1163.25
384.00	1088.35
384.19	1114.10
384.39	1198.35
384.58	1086.01
384.78	1165.59
384.97	1123.46
385.17	1137.50
385.36	1132.82
385.56	1146.86
385.75	1163.25
385.95	1174.95
386.14	1116.44
386.34	1149.20
386.53	1212.40
386.72	1193.67
386.92	1184.31
387.11	1205.38
387.31	1231.12
387.50	1191.33
387.70	1226.44
387.89	1214.74
388.09	1261.55
388.28	1306.02
388.48	1313.04
388.67	1327.08
388.86	1331.76
389.06	1371.55
389.25	1380.92
389.45	1308.36
389.64	1345.81
389.84	1404.32
390.03	1423.05
390.22	1479.22
390.42	1439.43
390.61	1366.87
390.81	1324.74
391.00	1427.73
391.19	1409.00
391.39	1392.62
391.58	1437.09
391.78	1455.81
391.97	1481.56
392.16	1446.45
392.36	1540.07
392.55	1533.05
392.75	1519.01
392.94	1460.49
393.13	1568.16
393.33	1514.33
393.52	1568.16
393.71	1629.01
393.91	1540.07
394.10	1558.80
394.29	1600.93
394.49	1614.97
394.68	1673.48
394.88	1591.56
395.07	1664.12
395.26	1572.84
395.46	1661.78
395.65	1668.80
395.84	1696.89
396.04	1764.76
396.23	1785.83
396.42	1900.52
396.62	1778.81
396.81	1830.30
397.00	1673.48
397.19	1774.13
397.39	1706.25
397.58	1792.85
397.77	1729.66
397.97	1886.47
398.16	1830.30
398.35	2031.58
398.55	1813.92
398.74	1944.99
398.93	2001.16
399.12	1916.90
399.32	1879.45
399.51	1914.56
399.70	2024.56
399.90	1973.07
400.09	2047.97
400.28	1919.24
400.47	2029.24
400.67	2129.89
400.86	2153.29
401.05	2101.80
401.24	2022.22
401.44	2071.37
401.63	2148.61
401.82	2122.87
402.01	2087.76
402.21	2111.16
402.40	2181.38
402.59	2284.36
402.78	2225.85
402.97	2277.34
403.17	2310.11
403.36	2132.23
403.55	2237.55
403.74	2415.43
403.93	2239.89
404.13	2326.49
404.32	2286.70
404.51	2296.07
404.70	2387.35
404.89	2345.22
405.09	2525.44
405.28	2541.82
405.47	2574.59
405.66	2525.44
405.85	2546.50
406.05	2518.42
406.24	2509.05
406.43	2642.46
406.62	2654.17
406.81	2553.52
407.00	2539.48
407.20	2614.38
407.39	2616.72
407.58	2710.34
407.77	2750.13
407.96	2813.32
408.15	2771.19
408.34	2768.85
408.54	2885.88
408.73	2785.24
408.92	2829.71
409.11	2951.42
409.30	2846.09
409.49	2984.18
409.68	2946.73
409.87	2750.13
410.07	2981.84
410.26	3009.93
410.45	3005.25
410.64	3112.91
410.83	3094.19
411.02	3101.21
411.21	3110.57
411.40	3246.32
411.59	3283.77
411.78	3225.26
411.98	3119.93
412.17	3297.81
412.36	3370.37
412.55	3431.23
412.74	3426.54
412.93	3318.88
413.12	3286.11
413.31	3613.79
413.50	3365.69
413.69	3508.46
413.88	3620.81
414.07	3784.65
414.26	3604.42
414.45	3751.88
414.64	3648.90
414.83	3761.24
415.02	3829.12
415.22	3852.52
415.41	3913.38
415.60	3892.31
415.79	3946.14
415.98	4039.76
416.17	4004.66
416.36	3922.74
416.55	4074.87
416.74	3957.85
416.93	3943.80
417.12	3964.87
417.31	4147.43
417.50	4084.23
417.69	4320.63
417.88	4339.35
418.07	4271.48
418.26	4337.01
418.45	4294.88
418.64	4374.46
418.83	4376.80
419.02	4444.68
419.21	4610.86
419.39	4561.70
419.58	4468.08
419.77	4493.83
419.96	4486.81
420.15	4760.65
420.34	4709.16
420.53	4634.26
420.72	4683.41
420.91	4734.90
421.10	4739.58
421.29	4777.03
421.48	4674.05
421.67	4830.87
421.86	4622.56
422.05	4765.33
422.24	4711.50
422.43	4793.42
422.61	4926.83
422.80	5006.41
422.99	4877.68
423.18	4933.85
423.37	5109.39
423.56	5027.47
423.75	4922.15
423.94	4882.36
424.13	4568.73
424.32	4781.71
424.50	5137.48
424.69	5114.07
424.88	5158.54
425.07	4954.91
425.26	4910.44
425.45	4987.68
425.64	4961.94
425.83	4737.24
426.01	5167.90
426.20	5006.41
426.39	5142.16
426.58	5097.69
426.77	5130.45
426.96	5156.20
427.15	5135.14
427.33	5146.84
427.52	5254.50
427.71	5247.48
427.90	5364.51
428.09	5350.46
428.28	5465.15
428.46	5320.04
428.65	5315.36
428.84	5507.28
429.03	5474.51
429.22	5376.21
429.40	5406.64
429.59	5509.62
429.78	5378.55
429.97	5329.40
430.16	5591.54
430.34	5673.46
430.53	5729.63
430.72	5593.88
430.91	5694.52
431.10	5661.76
431.28	5769.42
431.47	5673.46
431.66	5746.02
431.85	5734.31
432.03	6047.94
432.22	6031.56
432.41	5870.06
432.60	5942.62
432.79	6115.82
432.97	5970.71
433.16	6045.60
433.35	6024.54
433.54	6188.38
433.72	5921.56
433.91	6181.35
434.10	6424.77
434.28	6092.41
434.47	6305.40
434.66	6169.65
434.85	6263.27
435.03	6415.41
435.22	6209.44
435.41	6406.05
435.59	6347.53
435.78	6455.20
435.97	6417.75
436.16	6457.54
436.34	6516.05
436.53	6548.82
436.72	6567.54
436.90	6413.07
437.09	6712.66
437.28	6527.75
437.46	6633.08
437.65	6693.93
437.84	6808.62
438.02	6864.79
438.21	6808.62
438.40	6668.19
438.58	7030.97
438.77	6967.77
438.96	6899.90
439.14	7248.64
439.33	7248.64
439.52	7171.40
439.70	7375.03
439.89	7426.52
440.08	7496.74
440.26	7265.02
440.45	7419.50
440.63	7473.33
440.82	7604.40
441.01	7452.27
441.19	7646.53
441.38	7817.39
441.57	7648.87
441.75	7918.03
441.94	8142.72
442.12	8229.32
442.31	8159.11
442.50	8025.70
442.68	7981.23
442.87	8215.28
443.05	8032.72
443.24	8386.14
443.43	8074.85
443.61	8065.49
443.80	8641.26
443.98	8241.03
444.17	7901.65
444.35	8336.99
444.54	8498.49
444.73	8491.46
444.91	8105.28
445.10	8468.06
445.28	8362.73
445.47	8304.22
445.65	8414.23
445.84	8486.78
446.02	8287.84
446.21	8444.65
446.39	8266.77
446.58	8491.46
446.77	8526.57
446.95	8411.89
447.14	8379.12
447.32	8606.15
447.51	8547.64
447.69	8610.83
447.88	8496.14
448.06	8428.27
448.25	8552.32
448.43	8643.60
448.62	8678.71
448.80	8498.49
448.99	8685.73
449.17	8894.04
449.36	8676.37
449.54	8922.12
449.73	8863.61
449.91	9116.39
450.10	8990.00
450.28	9144.47
450.46	9249.80
450.65	8973.61
450.83	9118.73
451.02	9057.87
451.20	9130.43
451.39	9137.45
451.57	9212.35
451.76	9013.40
451.94	9123.41
452.13	9406.61
452.31	9219.37
452.49	9186.60
452.68	9334.06
452.86	9242.78
453.05	9760.03
453.23	9582.15
453.42	9415.98
453.60	9291.93
453.78	9621.94
453.97	9331.72
454.15	9380.87
454.34	9605.56
454.52	9600.88
454.70	9804.50
454.89	9851.31
455.07	9748.33
455.26	9853.66
455.44	10026.86
455.62	9867.70
455.81	9921.53
455.99	10064.30
456.17	10300.70
456.36	9989.41
456.54	10284.31
456.73	10078.35
456.91	10738.38
457.09	10586.24
457.28	10597.95
457.46	10293.68
457.64	10527.73
457.83	10597.95
458.01	10303.04
458.19	10569.86
458.38	10476.24
458.56	10516.03
458.74	10733.70
458.93	10516.03
459.11	10810.93
459.29	10824.98
459.48	10843.70
459.66	10942.00
459.84	10946.69
460.03	10932.64
460.21	10876.47
460.39	10710.29
460.57	11234.57
460.76	11169.04
460.94	11077.76
461.12	11248.61
461.31	11290.74
461.49	11213.51
461.67	11375.00
461.85	11417.13
462.04	11227.55
462.22	11449.90
462.40	11653.53
462.59	11445.22
462.77	11405.43
462.95	11648.85
463.13	11454.58
463.32	11658.21
463.50	11747.15
463.68	11772.89
463.86	11932.05
464.05	11735.45
464.23	11838.43
464.41	11789.28
464.59	11784.60
464.78	12264.41
464.96	11829.07
465.14	11950.78
465.32	11988.22
465.50	12147.38
465.69	12306.54
465.87	12173.13
466.05	12135.68
466.23	12297.17
466.41	12390.80
466.60	12461.01
466.78	12018.65
466.96	12112.27
467.14	12138.02
467.32	12236.32
467.51	12741.88
467.69	12201.21
467.87	12465.69
468.05	12531.23
468.23	12248.02
468.41	12461.01
468.60	12793.37
468.78	12917.42
468.96	12657.62
469.14	12896.35
469.32	12910.40
469.50	12631.87
469.69	13095.30
469.87	13343.39
470.05	12973.59
470.23	13074.23
470.41	13195.94
470.59	13355.10
470.77	13212.32
470.95	13181.90
471.14	13713.20
471.32	13411.27
471.50	13694.47
471.68	13715.54
471.86	13891.08
472.04	13827.88
472.22	14010.45
472.40	13628.94
472.58	13729.58
472.77	14064.28
472.95	13982.36
473.13	14988.79
473.31	14258.54
473.49	13965.98
473.67	14080.66
473.85	14459.83
474.03	14836.66
474.21	14698.56
474.39	14878.79
474.57	14953.68
474.75	14956.02
474.93	15234.55
475.12	14820.27
475.30	15007.52
475.48	14874.10
475.66	15367.96
475.84	15122.20
476.02	15826.70
476.20	15300.08
476.38	15955.43
476.56	16264.38
476.74	15988.20
476.92	16067.78
477.10	15786.91
477.28	16229.27
477.46	16170.76
477.64	16311.19
477.82	16549.93
478.00	17102.29
478.18	16994.63
478.36	17195.92
478.54	17310.60
478.72	17015.69
478.90	17160.81
479.08	17451.03
479.26	17893.40
479.44	17855.95
479.62	18047.87
479.80	18050.21
479.98	18106.38
480.16	18731.31
480.34	18480.87
480.52	18628.32
480.70	18633.00
480.88	18415.34
481.06	18838.97
481.24	19026.21
481.41	19012.17
481.59	19538.79
481.77	19623.05
481.95	19599.65
482.13	19868.81
482.31	19702.63
482.49	20470.33
482.67	20250.32
482.85	20580.33
483.03	20652.89
483.21	20683.31
483.39	21270.79
483.57	20929.07
483.74	21149.08
483.92	21336.32
484.10	21532.93
484.28	21785.71
484.46	21900.39
484.64	22302.96
484.82	21902.73
485.00	22396.59
485.18	22698.52
485.35	22909.16
485.53	22799.16
485.71	22986.40
485.89	23899.21
486.07	23222.80
486.25	23435.78
486.43	23449.83
486.61	24201.14
486.78	23939.00
486.96	24388.38
487.14	24472.64
487.32	24947.77
487.50	24889.26
487.68	25165.44
487.85	25362.04
488.03	25605.46
488.21	25949.52
488.39	25600.78
488.57	25898.03
488.75	26356.77
488.92	26183.57
489.10	26958.29
489.28	27033.19
489.46	26918.50
489.64	26946.59
489.81	27557.47
489.99	27875.78
490.17	28254.95
490.35	28252.61
490.53	28299.42
490.70	28439.85
490.88	28444.53
491.06	28826.04
491.24	29156.05
491.41	28996.90
491.59	29289.46
491.77	29572.67
491.95	29516.50
492.13	29710.76
492.30	30164.82
492.48	30169.51
492.66	30717.19
492.84	30249.08
493.01	30967.63
493.19	30792.09
493.37	30651.66
493.54	31363.18
493.72	31611.28
493.90	31405.31
494.08	31732.98
494.25	32109.81
494.43	32336.84
494.61	32486.64
494.79	32350.88
494.96	32659.84
495.14	32940.70
495.32	33420.51
495.49	33060.07
495.67	33301.14
495.85	33184.12
496.02	34108.63
496.20	34052.45
496.38	34340.34
496.55	34045.43
496.73	35194.64
496.91	34614.18
497.09	35143.14
497.26	35159.53
497.44	35510.61
497.62	35409.96
497.79	35978.72
497.97	35494.22
498.14	36290.01
498.32	35831.26
498.50	36362.56
498.67	36350.86
498.85	36437.46
499.03	36992.17
499.20	36907.91
499.38	36795.56
499.56	37069.40
499.73	37708.37
499.91	37233.24
500.08	38092.22
500.26	37558.58
500.44	37652.20
500.61	37951.79
500.79	37766.88
500.97	38490.11
501.14	38888.00
501.32	38237.33
501.49	38944.17
501.67	38785.02
501.84	38927.79
502.02	38983.96
502.20	39533.99
502.37	39847.62
502.55	39203.97
502.72	39505.90
502.90	39739.96
503.07	39962.31
503.25	39906.13
503.43	39913.16
503.60	40348.50
503.78	40201.04
503.95	40643.40
504.13	41181.73
504.30	40737.02
504.48	40809.58
504.65	40964.06
504.83	40964.06
505.01	41570.25
505.18	41504.72
505.36	41717.71
505.53	41364.29
505.71	41471.95
505.88	41823.03
506.06	41790.27
506.23	41975.17
506.41	41614.72
506.58	42103.90
506.76	42529.87
506.93	42635.20
507.11	42595.41
507.28	42780.31
507.46	42951.17
507.63	42829.46
507.81	43344.38
507.98	43096.28
508.16	43243.74
508.33	43786.74
508.50	43679.08
508.68	43828.87
508.85	44598.91
509.03	43608.86
509.20	44404.64
509.38	44250.17
509.55	44573.16
509.73	44711.25
509.90	44772.11
510.08	44690.19
510.25	45013.18
510.42	44872.75
510.60	45237.87
510.77	45263.62
510.95	45549.17
511.12	45010.84
511.30	45317.45
511.47	45663.85
511.64	45897.91
511.82	45933.01
511.99	46092.17
512.17	45993.87
512.34	45815.99
512.51	46356.65
512.69	45933.01
512.86	46192.81
513.04	46597.73
513.21	46504.10
513.38	46948.81
513.56	47285.84
513.73	46960.51
513.90	47150.09
514.08	47047.11
514.25	47295.21
514.43	47695.44
514.60	47608.84
514.77	47391.17
514.95	47831.19
515.12	47587.77
515.29	47601.82
515.47	47929.49
515.64	48189.29
515.81	47988.00
515.99	48505.26
516.16	48746.34
516.33	48547.39
516.51	49048.27
516.68	48872.73
516.85	48580.16
517.03	49162.95
517.20	48814.21
517.37	48825.92
517.54	48589.52
517.72	49284.66
517.89	49130.19
518.06	49420.41
518.24	49317.43
518.41	49467.22
518.58	49521.05
518.75	49542.12
518.93	49865.11
519.10	49518.71
519.27	49476.58
519.45	49940.01
519.62	50183.43
519.79	50127.25
519.96	50038.31
520.14	49993.84
520.31	50131.93
520.48	50543.87
520.65	50202.15
520.83	50923.04
521.00	50798.99
521.17	50546.21
521.34	50710.05
521.52	50473.65
521.69	50679.62
521.86	51121.98
522.03	51377.10
522.20	51742.22
522.38	51831.16
522.55	51573.70
522.72	51524.55
522.89	51536.26
523.07	51760.95
523.24	51772.65
523.41	51702.43
523.58	51805.42
523.75	52236.08
523.92	52182.24
524.10	52013.73
524.27	52203.31
524.44	52135.43
524.61	52411.62
524.78	52334.38
524.96	52491.19
525.13	52711.20
525.30	52542.69
525.47	52697.16
525.64	52685.46
525.81	52896.11
525.98	52601.20
526.16	52498.22
526.33	52640.99
526.50	53083.35
526.67	52921.85
526.84	53048.24
527.01	53003.77
527.18	52729.93
527.36	52952.28
527.53	52961.64
527.70	53542.10
527.87	53413.37
528.04	53045.90
528.21	53467.20
528.38	53373.58
528.55	53591.25
528.72	53422.73
528.89	54014.88
529.07	53375.92
529.24	53537.41
529.41	53783.17
529.58	53876.79
529.75	53577.20
529.92	53570.18
530.09	54031.27
530.26	54124.89
530.43	54157.66
530.60	54042.97
530.77	54064.03
530.94	54237.23
531.11	53968.07
531.28	54482.99
531.46	54464.27
531.63	54534.48
531.80	54429.16
531.97	54721.72
532.14	54555.55
532.31	54548.53
532.48	54667.89
532.65	54951.10
532.82	54571.93
532.99	54761.51
533.16	54908.97
533.33	54775.56
533.50	55246.00
533.67	54913.65
533.84	54721.72
534.01	55084.51
534.18	55028.34
534.35	55592.40
534.52	55334.95
534.69	55365.37
534.86	55140.68
535.03	55138.34
535.20	55377.08
535.37	55456.65
535.54	55648.58
535.71	55274.09
535.88	55529.21
536.05	55496.44
536.22	55711.77
536.38	55695.39
536.55	55728.16
536.72	55655.60
536.89	55388.78
537.06	55461.33
537.23	55882.63
537.40	55606.45
537.57	55814.76
537.74	55840.50
537.91	56154.13
538.08	56116.68
538.25	55826.46
538.42	56133.07
538.59	56474.79
538.75	55833.48
538.92	55903.70
539.09	56378.82
539.26	56392.87
539.43	56037.11
539.60	56399.89
539.77	56275.84
539.94	56736.93
540.11	56596.49
540.28	56458.40
540.44	56591.81
540.61	56750.97
540.78	56594.15
540.95	56542.66
541.12	56383.51
541.29	56392.87
541.46	56795.44
541.62	56889.06
541.79	56570.75
541.96	56446.70
542.13	56549.68
542.30	56853.95
542.47	56769.69
542.63	56868.00
542.80	57078.64
542.97	57095.03
543.14	57380.57
543.31	57219.08
543.48	57141.84
543.64	57333.76
543.81	57675.48
543.98	57422.70
544.15	57399.30
544.32	57640.37
544.48	57731.65
544.65	57270.57
544.82	57532.71
544.99	57654.42
545.16	57443.77
545.32	57448.45
545.49	57680.16
545.66	57904.85
545.83	57715.27
546.00	57939.96
546.16	57836.98
546.33	57502.28
546.50	57497.60
546.67	57750.38
546.83	57366.53
547.00	57900.17
547.17	57787.83
547.34	57822.93
547.50	57961.03
547.67	58192.74
547.84	57921.24
548.00	58471.26
548.17	58223.17
548.34	58197.42
548.51	58431.47
548.67	58361.26
548.84	58269.98
549.01	58134.23
549.18	58379.98
549.34	58344.87
549.51	58492.33
549.68	58251.25
549.84	58553.18
550.01	58548.50
550.18	58457.22
550.34	58578.93
550.51	58525.10
550.68	58717.02
550.84	58475.94
551.01	58731.06
551.18	58595.31
551.34	58665.53
551.51	58684.25
551.68	58623.40
551.84	58735.74
552.01	58866.81
552.18	58934.69
552.34	58478.28
552.51	58894.90
552.68	58625.74
552.84	58707.66
553.01	59007.25
553.18	58705.32
553.34	58908.94
553.51	58712.34
553.67	58890.22
553.84	59009.59
554.01	59110.23
554.17	58997.88
554.34	58934.69
554.51	59178.10
554.67	59206.19
554.84	59082.14
555.00	58932.35
555.17	59011.93
555.33	59002.56
555.50	59114.91
555.67	58904.26
555.83	59100.87
556.00	59189.81
556.16	59531.53
556.33	59503.44
556.50	59175.76
556.66	59735.15
556.83	59194.49
556.99	59561.95
557.16	59568.97
557.32	59540.89
557.49	59664.94
557.65	59295.13
557.82	59648.55
557.98	59447.27
558.15	59339.60
558.32	59536.21
558.48	59451.95
558.65	59430.88
558.81	59686.00
558.98	59580.68
559.14	59615.79
559.31	59760.90
559.47	59751.54
559.64	59859.20
559.80	59821.75
559.97	59711.75
560.13	59852.18
560.30	59763.24
560.46	59779.62
560.63	59749.20
560.79	59718.77
560.96	60023.04
561.12	59957.50
561.29	59891.97
561.45	60182.19
561.61	59863.88
561.78	59952.82
561.94	59828.77
562.11	59803.03
562.27	59952.82
562.44	60037.08
562.60	60133.04
562.77	60121.34
562.93	59969.21
563.10	60156.45
563.26	59955.16
563.42	60282.84
563.59	60135.38
563.75	60013.68
563.92	60142.41
564.08	60191.56
564.24	60182.19
564.41	60341.35
564.57	60210.28
564.74	60210.28
564.90	60161.13
565.07	60186.88
565.23	60252.41
565.39	60388.16
565.56	60521.57
565.72	60212.62
565.88	60214.96
566.05	60264.11
566.21	60247.73
566.38	60397.52
566.54	60378.80
566.70	60383.48
566.87	60617.53
567.03	60058.15
567.19	60486.46
567.36	60418.59
567.52	60275.82
567.68	60706.47
567.85	60514.55
568.01	60369.44
568.17	60446.68
568.34	60734.56
568.50	60594.13
568.66	60573.06
568.83	60596.47
568.99	60552.00
569.15	60353.05
569.32	60516.89
569.48	60500.51
569.64	60458.38
569.81	60624.56
569.97	60488.80
570.13	60683.07
570.30	60306.24
570.46	60666.69
570.62	60685.41
570.78	60640.94
570.95	60537.96
571.11	60823.50
571.27	60622.22
571.43	60556.68
571.60	60809.46
571.76	60568.38
571.92	60786.05
572.09	60631.58
572.25	60654.98
572.41	60687.75
572.57	60449.02
572.74	60872.65
572.90	60662.00
573.06	60748.60
573.22	60549.66
573.38	60867.97
573.55	60589.45
573.71	60961.59
573.87	60853.93
574.03	60507.53
574.20	60769.67
574.36	60828.18
574.52	60804.78
574.68	61087.98
574.84	61013.08
575.01	60800.10
575.17	60760.31
575.33	60732.22
575.49	60809.46
575.65	60889.04
575.82	60839.89
575.98	60973.30
576.14	61083.30
576.30	60900.74
576.46	60982.66
576.62	60811.80
576.79	60924.14
576.95	60837.54
577.11	60851.59
577.27	60966.27
577.43	60886.70
577.59	60818.82
577.75	60853.93
577.92	60694.77
578.08	60725.20
578.24	60954.57
578.40	61006.06
578.56	61078.62
578.72	60900.74
578.88	61041.17
579.04	61179.26
579.21	60996.70
579.37	61263.52
579.53	61099.68
579.69	60750.94
579.85	60893.72
580.01	61146.50
580.17	60636.26
580.33	61057.56
580.49	61104.37
580.65	61092.66
580.82	60973.30
580.98	61041.17
581.14	60800.10
581.30	61155.86
581.46	61003.72
581.62	61200.33
581.78	60912.44
581.94	61027.13
582.10	61095.00
582.26	60994.36
582.42	60931.17
582.58	60977.98
582.74	61024.79
582.90	61001.38
583.06	61125.43
583.22	60821.16
583.38	60910.10
583.54	61116.07
583.70	61080.96
583.86	61113.73
584.02	61095.00
584.18	61221.39
584.34	61022.45
584.50	61165.22
584.66	60921.80
584.82	60818.82
584.98	61322.04
585.14	61172.24
585.30	60935.85
585.46	61155.86
585.62	61139.47
585.78	61141.81
585.94	60889.04
586.10	61151.18
586.26	61167.56
586.42	61240.12
586.58	61340.76
586.74	61118.41
586.90	61286.93
587.06	60994.36
587.22	61146.50
587.38	61085.64
587.54	61251.82
587.70	61544.39
587.86	61226.07
588.02	61172.24
588.18	61368.85
588.34	60975.64
588.49	61174.58
