SpectraSuite Data File
++++++++++++++++++++++++++++++++++++
Date: Fri Oct 25 11:33:24 EDT 2013
User: price-jones
Dark Spectrum Present: No
Reference Spectrum Present: No
Number of Sampled Component Spectra: 1
Spectrometers: USB2+H05261
Integration Time (usec): 100000 (USB2+H05261)
Spectra Averaged: 1 (USB2+H05261)
Boxcar Smoothing: 0 (USB2+H05261)
Correct for Electrical Dark: No (USB2+H05261)
Strobe/Lamp Enabled: No (USB2+H05261)
Correct for Detector Non-linearity: No (USB2+H05261)
Correct for Stray Light: No (USB2+H05261)
Number of Pixels in Processed Spectrum: 2048
>>>>>Begin Processed Spectral Data<<<<<
365.73	271.50
365.92	271.50
366.12	271.50
366.32	191.92
366.52	205.97
366.72	205.97
366.91	117.03
367.11	177.88
367.31	215.33
367.51	222.35
367.70	234.05
367.90	191.92
368.10	163.84
368.30	248.10
368.49	182.56
368.69	201.29
368.89	212.99
369.09	128.73
369.28	177.88
369.48	184.90
369.68	241.08
369.87	238.73
370.07	255.12
370.27	320.65
370.47	283.20
370.66	456.40
370.86	552.37
371.06	505.56
371.25	498.53
371.45	521.94
371.65	594.50
371.84	561.73
372.04	566.41
372.24	641.31
372.44	631.94
372.63	594.50
372.83	653.01
373.03	585.13
373.22	608.54
373.42	592.16
373.62	660.03
373.81	655.35
374.01	645.99
374.21	620.24
374.40	636.63
374.60	688.12
374.79	716.20
374.99	580.45
375.19	699.82
375.38	655.35
375.58	608.54
375.78	653.01
375.97	615.56
376.17	795.78
376.37	622.58
376.56	695.14
376.76	660.03
376.95	662.37
377.15	664.71
377.35	732.59
377.54	645.99
377.74	706.84
377.93	702.16
378.13	741.95
378.33	690.46
378.52	653.01
378.72	641.31
378.91	753.65
379.11	704.50
379.31	681.10
379.50	706.84
379.70	734.93
379.89	725.57
380.09	772.38
380.28	737.27
380.48	770.04
380.68	732.59
380.87	674.07
381.07	777.06
381.26	725.57
381.46	770.04
381.65	718.54
381.85	861.32
382.04	800.46
382.24	727.91
382.43	812.17
382.63	807.48
382.83	837.91
383.02	781.74
383.22	849.61
383.41	819.19
383.61	753.65
383.80	847.27
384.00	851.96
384.19	786.42
384.39	847.27
384.58	812.17
384.78	814.51
384.97	861.32
385.17	767.70
385.36	891.74
385.56	887.06
385.75	884.72
385.95	837.91
386.14	795.78
386.34	833.23
386.53	866.00
386.72	866.00
386.92	945.58
387.11	952.60
387.31	875.36
387.50	966.64
387.70	786.42
387.89	870.68
388.09	891.74
388.28	912.81
388.48	903.45
388.67	964.30
388.86	959.62
389.06	952.60
389.25	887.06
389.45	919.83
389.64	997.07
389.84	926.85
390.03	961.96
390.22	901.11
390.42	933.87
390.61	999.41
390.81	891.74
391.00	1015.79
391.19	973.66
391.39	1088.35
391.58	1022.81
391.78	1062.60
391.97	1093.03
392.16	1020.47
392.36	1053.24
392.55	1055.58
392.75	1102.39
392.94	1102.39
393.13	1088.35
393.33	1114.10
393.52	1055.58
393.71	1125.80
393.91	1093.03
394.10	1107.07
394.29	1071.97
394.49	1069.62
394.68	1177.29
394.88	1118.78
395.07	1165.59
395.26	1151.54
395.46	1160.91
395.65	1240.48
395.84	1156.22
396.04	1181.97
396.23	1235.80
396.42	1207.72
396.62	1233.46
396.81	1205.38
397.00	1181.97
397.19	1205.38
397.39	1179.63
397.58	1303.68
397.77	1172.61
397.97	1308.36
398.16	1310.70
398.35	1235.80
398.55	1315.38
398.74	1359.85
398.93	1336.45
399.12	1266.23
399.32	1390.28
399.51	1306.02
399.70	1306.02
399.90	1329.42
400.09	1409.00
400.28	1474.54
400.47	1331.76
400.67	1420.71
400.86	1439.43
401.05	1394.96
401.24	1458.15
401.44	1504.96
401.63	1453.47
401.82	1458.15
402.01	1390.28
402.21	1462.83
402.40	1537.73
402.59	1406.66
402.78	1467.52
402.97	1500.28
403.17	1511.99
403.36	1598.59
403.55	1497.94
403.74	1570.50
403.93	1600.93
404.13	1605.61
404.32	1558.80
404.51	1652.42
404.70	1706.25
404.89	1643.06
405.09	1785.83
405.28	1664.12
405.47	1741.36
405.66	1732.00
405.85	1739.02
406.05	1694.55
406.24	1713.27
406.43	1736.68
406.62	1739.02
406.81	1860.73
407.00	1870.09
407.20	1652.42
407.39	1797.53
407.58	1902.86
407.77	1746.04
407.96	1853.70
408.15	1851.36
408.34	1884.13
408.54	1940.30
408.73	1947.33
408.92	1870.09
409.11	2050.31
409.30	1849.02
409.49	1952.01
409.68	2019.88
409.87	2033.93
410.07	2085.42
410.26	2202.44
410.45	2101.80
410.64	2040.95
410.83	2043.29
411.02	2062.01
411.21	2181.38
411.40	2167.34
411.59	2125.21
411.78	2211.81
411.98	2270.32
412.17	2183.72
412.36	2335.85
412.55	2289.04
412.74	2305.43
412.93	2342.88
413.12	2399.05
413.31	2483.31
413.50	2478.63
413.69	2289.04
413.88	2506.71
414.07	2485.65
414.26	2457.56
414.45	2464.58
414.64	2511.39
414.83	2665.87
415.02	2600.34
415.22	2665.87
415.41	2635.44
415.60	2658.85
415.79	2693.96
415.98	2775.88
416.17	2722.04
416.36	2808.64
416.55	2839.07
416.74	2850.77
416.93	2785.24
417.12	2846.09
417.31	2839.07
417.50	2883.54
417.69	2993.55
417.88	3059.08
418.07	2890.56
418.26	2888.22
418.45	3000.57
418.64	3019.29
418.83	3052.06
419.02	3009.93
419.21	3176.11
419.39	3077.80
419.58	2998.23
419.77	3110.57
419.96	3155.04
420.15	3187.81
420.34	3143.34
420.53	3021.63
420.72	3234.62
420.91	3283.77
421.10	3229.94
421.29	3344.63
421.48	3038.02
421.67	3236.96
421.86	3206.53
422.05	3272.07
422.24	3253.34
422.43	3487.40
422.61	3386.76
422.80	3389.10
422.99	3372.71
423.18	3400.80
423.37	3384.41
423.56	3405.48
423.75	3501.44
423.94	3321.22
424.13	3180.79
424.32	3337.60
424.50	3417.18
424.69	3419.52
424.88	3473.36
425.07	3342.28
425.26	3243.98
425.45	3534.21
425.64	3302.50
425.83	3382.07
426.01	3644.21
426.20	3414.84
426.39	3419.52
426.58	3442.93
426.77	3419.52
426.96	3452.29
427.15	3433.57
427.33	3515.48
427.52	3541.23
427.71	3634.85
427.90	3632.51
428.09	3648.90
428.28	3653.58
428.46	3782.31
428.65	3641.87
428.84	3768.26
429.03	3918.06
429.22	3777.62
429.40	3782.31
429.59	3812.73
429.78	3714.43
429.97	3581.02
430.16	3857.20
430.34	3847.84
430.53	4025.72
430.72	3871.25
430.91	3992.95
431.10	3906.35
431.28	3922.74
431.47	3955.51
431.66	3824.44
431.85	3971.89
432.03	4208.28
432.22	4201.26
432.41	4044.45
432.60	4112.32
432.79	4065.51
432.97	4224.67
433.16	4105.30
433.35	4159.13
433.54	4306.59
433.72	4170.83
433.91	4159.13
434.10	4177.86
434.28	4276.16
434.47	4262.12
434.66	4231.69
434.85	4339.35
435.03	4397.87
435.22	4320.63
435.41	4390.84
435.59	4318.29
435.78	4390.84
435.97	4236.37
436.16	4337.01
436.34	4311.27
436.53	4362.76
436.72	4535.96
436.90	4332.33
437.09	4531.28
437.28	4416.59
437.46	4538.30
437.65	4608.51
437.84	4526.60
438.02	4578.09
438.21	4737.24
438.40	4617.88
438.58	4725.54
438.77	4791.08
438.96	4805.12
439.14	4865.97
439.33	4891.72
439.52	4894.06
439.70	4985.34
439.89	5034.49
440.08	5128.11
440.26	5008.75
440.45	5032.15
440.63	4973.64
440.82	5263.86
441.01	5041.51
441.19	5156.20
441.38	5095.35
441.57	5261.52
441.75	5313.02
441.94	5380.89
442.12	5528.35
442.31	5547.07
442.50	5610.26
442.68	5535.37
442.87	5476.85
443.05	5401.96
443.24	5551.75
443.43	5643.03
443.61	5647.71
443.80	5703.89
443.98	5404.30
444.17	5390.25
444.35	5654.73
444.54	5668.78
444.73	5729.63
444.91	5607.92
445.10	5659.42
445.28	5591.54
445.47	5584.52
445.65	5858.36
445.84	5593.88
446.02	5628.99
446.21	5795.17
446.39	5659.42
446.58	5743.67
446.77	5760.06
446.95	5701.54
447.14	5654.73
447.32	5860.70
447.51	5713.25
447.69	5743.67
447.88	5724.95
448.06	5783.46
448.25	5872.40
448.43	5877.09
448.62	5799.85
448.80	5867.72
448.99	6017.52
449.17	6001.13
449.36	5685.16
449.54	5973.05
449.73	5921.56
449.91	6118.16
450.10	6106.46
450.28	6087.73
450.46	6150.93
450.65	6176.67
450.83	5996.45
451.02	6136.88
451.20	6291.36
451.39	6150.93
451.57	6197.74
451.76	6080.71
451.94	6211.78
452.13	6455.20
452.31	6370.94
452.49	6293.70
452.68	6207.10
452.86	6356.90
453.05	6487.96
453.23	6326.47
453.42	6232.85
453.60	6370.94
453.78	6525.41
453.97	6462.22
454.15	6324.13
454.34	6291.36
454.52	6520.73
454.70	6586.27
454.89	6672.87
455.07	6717.34
455.26	6628.40
455.44	6740.74
455.62	6597.97
455.81	6651.80
455.99	6672.87
456.17	6820.32
456.36	6745.42
456.54	6920.96
456.73	6953.73
456.91	6892.88
457.09	7096.50
457.28	7199.49
457.46	6913.94
457.64	7023.95
457.83	7176.08
458.01	6937.35
458.19	7302.47
458.38	6916.28
458.56	7218.21
458.74	7232.26
458.93	7084.80
459.11	7122.25
459.29	7070.76
459.48	7286.09
459.66	7548.23
459.84	7232.26
460.03	7548.23
460.21	7461.63
460.39	7407.80
460.57	7396.09
460.76	7410.14
460.94	7475.67
461.12	7602.06
461.31	7438.22
461.49	7637.17
461.67	7503.76
461.85	7686.32
462.04	7789.30
462.22	8016.33
462.40	7920.37
462.59	7641.85
462.77	7801.01
462.95	7896.97
463.13	7576.31
463.32	7779.94
463.50	7728.45
463.68	7845.48
463.86	7922.71
464.05	7985.91
464.23	7815.05
464.41	7911.01
464.59	7782.28
464.78	8131.02
464.96	8030.38
465.14	7969.52
465.32	8126.34
465.50	8177.83
465.69	8241.03
465.87	8084.21
466.05	8046.76
466.23	8173.15
466.41	8327.63
466.60	8201.24
466.78	8140.38
466.96	8152.09
467.14	8376.78
467.32	8409.54
467.51	8367.42
467.69	8184.85
467.87	8280.82
468.05	8278.47
468.23	8390.82
468.41	8498.49
468.60	8435.29
468.78	8718.50
468.96	8285.50
469.14	8645.94
469.32	8713.81
469.50	8521.89
469.69	8816.80
469.87	8723.18
470.05	8891.70
470.23	8561.68
470.41	8777.01
470.59	8889.35
470.77	8765.31
470.95	8894.04
471.14	9064.89
471.32	8812.12
471.50	9015.74
471.68	8755.94
471.86	9352.78
472.04	9261.50
472.22	9376.19
472.40	9083.62
472.58	9427.68
472.77	9345.76
472.95	9462.79
473.13	9514.28
473.31	9605.56
473.49	9483.85
473.67	9341.08
473.85	9408.95
474.03	9771.74
474.21	9980.04
474.39	9675.77
474.57	9788.12
474.75	10080.69
474.93	9902.81
475.12	10066.64
475.30	10033.88
475.48	10047.92
475.66	10174.31
475.84	10143.88
476.02	10408.36
476.20	10387.30
476.38	10422.41
476.56	10780.51
476.74	10836.68
476.92	10445.81
477.10	10466.88
477.28	10609.65
477.46	10731.36
477.64	10841.36
477.82	10946.69
478.00	11253.30
478.18	11166.70
478.36	11272.02
478.54	11475.65
478.72	11386.71
478.90	11625.44
479.08	11730.76
479.26	11829.07
479.44	11440.54
479.62	11789.28
479.80	11887.58
479.98	11983.54
480.16	12128.66
480.34	11983.54
480.52	12404.84
480.70	12198.87
480.88	12133.34
481.06	12400.16
481.24	12510.16
481.41	12755.92
481.59	12915.08
481.77	12791.03
481.95	12898.69
482.13	13123.38
482.31	12950.18
482.49	13273.18
482.67	13261.48
482.85	13493.19
483.03	13724.90
483.21	13909.80
483.39	13788.10
483.57	13933.21
483.74	13893.42
483.92	14038.53
484.10	14143.86
484.28	14317.06
484.46	14441.11
484.64	14771.12
484.82	14647.07
485.00	14647.07
485.18	15049.64
485.35	15323.49
485.53	15054.33
485.71	15414.77
485.89	15487.32
486.07	15454.56
486.25	15318.81
486.43	15367.96
486.61	15562.22
486.78	16065.44
486.96	15786.91
487.14	16107.57
487.32	16231.62
487.50	16334.60
487.68	16601.42
487.85	16856.54
488.03	16791.00
488.21	16889.31
488.39	16931.44
488.57	17081.23
488.75	17355.07
488.92	17642.96
489.10	17436.99
489.28	17455.72
489.46	18061.91
489.64	17617.21
489.81	18033.83
489.99	18279.58
490.17	18059.57
490.35	18572.15
490.53	18618.96
490.70	18602.58
490.88	18696.20
491.06	18892.80
491.24	19187.71
491.41	19157.28
491.59	19066.00
491.77	19330.48
491.95	19536.45
492.13	19585.60
492.30	19763.48
492.48	19805.61
492.66	19833.70
492.84	19868.81
493.01	20053.71
493.19	20168.40
493.37	20318.19
493.54	20524.16
493.72	20720.76
493.90	20779.28
494.08	20809.70
494.25	20929.07
494.43	21097.59
494.61	21144.40
494.79	21362.07
494.96	21495.48
495.14	21678.04
495.32	21724.85
495.49	21736.56
495.67	21902.73
495.85	21958.91
496.02	21928.48
496.20	22387.22
496.38	22478.50
496.55	22286.58
496.73	22906.82
496.91	22691.49
497.09	23040.23
497.26	22963.00
497.44	22775.75
497.62	23290.67
497.79	23510.68
497.97	23332.80
498.14	23679.20
498.32	23828.99
498.50	23653.45
498.67	24041.98
498.85	23939.00
499.03	23988.15
499.20	24102.84
499.38	24290.08
499.56	24304.12
499.73	24751.17
499.91	24538.18
500.08	24879.89
500.26	24814.36
500.44	24940.75
500.61	25029.69
500.79	24744.14
500.97	24943.09
501.14	25729.51
501.32	24987.56
501.49	25376.09
501.67	25289.49
501.84	25788.02
502.02	25701.42
502.20	25867.60
502.37	26068.89
502.55	25593.76
502.72	25865.26
502.90	26120.38
503.07	25928.45
503.25	26499.55
503.43	26127.40
503.60	26326.35
503.78	26560.40
503.95	26527.63
504.13	26527.63
504.30	27037.87
504.48	26899.78
504.65	26724.24
504.83	27054.25
505.01	27243.84
505.18	26899.78
505.36	27702.58
505.53	27449.80
505.71	27538.74
505.88	27222.77
506.06	27501.29
506.23	27674.49
506.41	27824.29
506.58	27861.74
506.76	28013.87
506.93	28229.20
507.11	28196.43
507.28	27981.10
507.46	27807.90
507.63	28273.67
507.81	28510.07
507.98	28182.39
508.16	28418.78
508.33	28678.58
508.50	28940.72
508.68	28725.39
508.85	29057.75
509.03	29017.96
509.20	29188.82
509.38	29530.54
509.55	29570.33
509.73	29352.66
509.90	29350.32
510.08	29390.11
510.25	29579.69
510.42	29619.48
510.60	29680.33
510.77	29727.14
510.95	30225.68
511.12	29928.43
511.30	30251.42
511.47	30326.32
511.64	30359.09
511.82	30841.24
511.99	30815.49
512.17	30824.86
512.34	30960.61
512.51	31019.12
512.69	30913.80
512.86	30834.22
513.04	31405.31
513.21	31105.72
513.38	31035.50
513.56	31208.70
513.73	31204.02
513.90	31393.61
514.08	31208.70
514.25	31721.28
514.43	31484.89
514.60	31424.03
514.77	31541.06
514.95	31807.88
515.12	31417.01
515.29	31997.46
515.47	32341.52
515.64	32140.24
515.81	32217.47
515.99	32458.55
516.16	32620.05
516.33	32376.63
516.51	32474.93
516.68	32407.06
516.85	32318.12
517.03	32638.77
517.20	32547.49
517.37	32652.81
517.54	32580.26
517.72	32971.13
517.89	32732.39
518.06	33347.95
518.24	32884.53
518.41	32884.53
518.58	33251.99
518.75	33163.05
518.93	33385.40
519.10	33479.02
519.27	33654.56
519.45	33577.33
519.62	33773.93
519.79	33689.67
519.96	33605.41
520.14	33996.28
520.31	33820.74
520.48	34616.52
520.65	34295.87
520.83	34305.23
521.00	34431.62
521.17	34347.36
521.34	34618.86
521.52	34719.51
521.69	34455.03
521.86	34703.12
522.03	35173.57
522.20	34892.71
522.38	35143.14
522.55	35393.58
522.72	35098.67
522.89	35557.42
523.07	35363.15
523.24	35555.08
523.41	35442.73
523.58	35164.21
523.75	35768.07
523.92	35629.98
524.10	35477.84
524.27	35772.75
524.44	35901.48
524.61	35695.51
524.78	35751.68
524.96	35758.70
525.13	36224.47
525.30	36437.46
525.47	36044.25
525.64	36254.90
525.81	36278.30
525.98	36533.42
526.16	36432.78
526.33	36528.74
526.50	36605.98
526.67	36126.17
526.84	36650.45
527.01	36905.57
527.18	36835.35
527.36	37102.17
527.53	37043.66
527.70	37401.76
527.87	37462.61
528.04	37092.81
528.21	37333.89
528.38	37146.64
528.55	37401.76
528.72	36964.08
528.89	37497.72
529.07	37605.39
529.24	37214.52
529.41	37603.05
529.58	37638.15
529.75	37579.64
529.92	37715.39
530.09	38029.02
530.26	37998.60
530.43	38057.11
530.60	37680.28
530.77	37516.45
530.94	38206.90
531.11	37525.81
531.28	38319.25
531.46	38675.01
531.63	37734.12
531.80	38256.06
531.97	38195.20
532.14	38878.64
532.31	38417.55
532.48	38675.01
532.65	38913.75
532.82	38536.92
532.99	38883.32
533.16	38534.58
533.33	39056.52
533.50	39131.42
533.67	39119.71
533.84	38799.06
534.01	38902.04
534.18	39103.33
534.35	39257.81
534.52	39201.63
534.69	39257.81
534.86	39681.44
535.03	39166.52
535.20	39470.79
535.37	39765.70
535.54	39672.08
535.71	39594.84
535.88	39873.37
536.05	39821.87
536.22	39913.16
536.38	39477.82
536.55	39700.17
536.72	40318.07
536.89	39545.69
537.06	39583.14
537.23	40196.36
537.40	39772.72
537.57	40105.08
537.74	39798.47
537.91	40306.37
538.08	39983.37
538.25	39852.30
538.42	39903.79
538.59	40559.14
538.75	40140.19
538.92	40648.08
539.09	40404.67
539.26	40739.36
539.43	40711.28
539.60	40755.75
539.77	40823.62
539.94	41153.64
540.11	41015.55
540.28	40741.71
540.44	40781.49
540.61	40809.58
540.78	40500.63
540.95	41553.87
541.12	40687.87
541.29	41029.59
541.46	41586.64
541.62	40924.27
541.79	41607.70
541.96	40851.71
542.13	41233.22
542.30	41048.32
542.47	41558.55
542.63	41457.91
542.80	41570.25
542.97	41818.35
543.14	41799.63
543.31	42202.20
543.48	41858.14
543.64	42403.49
543.81	42014.96
543.98	42195.18
544.15	42078.15
544.32	42171.77
544.48	42616.47
544.65	42108.58
544.82	42490.09
544.99	42319.23
545.16	42792.01
545.32	42270.08
545.49	42307.52
545.66	42593.07
545.83	42913.72
546.00	42941.81
546.16	42815.42
546.33	42583.71
546.50	42590.73
546.67	42920.74
546.83	42625.84
547.00	42759.25
547.17	42473.70
547.34	42391.78
547.50	43077.56
547.67	43594.82
547.84	42895.00
548.00	43028.41
548.17	43196.93
548.34	43377.15
548.51	43423.96
548.67	43433.32
548.84	43030.75
549.01	43377.15
549.18	43393.53
549.34	43679.08
549.51	44034.84
549.68	43585.46
549.84	43585.46
550.01	43873.34
550.18	43344.38
550.34	43786.74
550.51	43803.13
550.68	43882.70
550.84	43742.27
551.01	44016.11
551.18	43711.84
551.34	43817.17
551.51	44058.24
551.68	43854.62
551.84	43735.25
552.01	44243.15
552.18	44088.67
552.34	44233.78
552.51	43749.29
552.68	44051.22
552.84	44446.77
553.01	44102.71
553.18	44020.80
553.34	44315.70
553.51	44130.80
553.67	44411.67
553.84	44767.43
554.01	44570.82
554.17	44584.86
554.34	44767.43
554.51	44458.48
554.67	44631.68
554.84	44690.19
555.00	44568.48
555.17	44643.38
555.33	44875.09
555.50	44786.15
555.67	44790.83
555.83	44917.22
556.00	44807.22
556.16	45022.54
556.33	44741.68
556.50	44882.11
556.66	45177.02
556.83	45305.75
556.99	45502.35
557.16	45420.44
557.32	44996.80
557.49	45284.68
557.65	44811.90
557.82	45160.64
557.98	44940.63
558.15	44907.86
558.32	45415.76
558.48	45148.93
558.65	45123.19
558.81	45401.71
558.98	45249.58
559.14	45443.84
559.31	45165.32
559.47	45347.88
559.64	45429.80
559.80	45235.53
559.97	45963.44
560.13	45324.47
560.30	45900.25
560.46	45865.14
560.63	45530.44
560.79	45925.99
560.96	45820.67
561.12	45900.25
561.29	45462.57
561.45	46169.41
561.61	45776.20
561.78	45488.31
561.94	46103.87
562.11	46281.75
562.27	46071.10
562.44	46019.61
562.60	45698.96
562.77	45603.00
562.93	45914.29
563.10	46089.83
563.26	46120.26
563.42	46291.12
563.59	46017.27
563.75	45769.18
563.92	45993.87
564.08	46218.56
564.24	46279.41
564.41	45928.33
564.57	46583.68
564.74	45918.97
564.90	46342.61
565.07	46232.60
565.23	46429.21
565.39	46665.60
565.56	46689.01
565.72	46115.58
565.88	46279.41
566.05	46291.12
566.21	46525.17
566.38	46284.09
566.54	46609.43
566.70	46464.32
566.87	46461.97
567.03	46213.88
567.19	46944.12
567.36	46316.86
567.52	46457.29
567.68	46707.73
567.85	46749.86
568.01	46380.06
568.17	46796.67
568.34	46946.47
568.50	46794.33
568.66	46639.86
568.83	46789.65
568.99	46272.39
569.15	46859.87
569.32	46546.23
569.48	46391.76
569.64	47166.48
569.81	47098.60
569.97	46916.04
570.13	46939.44
570.30	46473.68
570.46	46822.42
570.62	46770.93
570.78	46766.24
570.95	46630.49
571.11	47297.55
571.27	46965.19
571.43	46501.76
571.60	46588.36
571.76	46862.21
571.92	46534.53
572.09	46796.67
572.25	46766.24
572.41	47086.90
572.57	46667.94
572.74	47201.58
572.90	47007.32
573.06	47168.82
573.22	47117.32
573.38	46990.94
573.55	47164.14
573.71	47409.89
573.87	46829.44
574.03	46944.12
574.20	47068.17
574.36	46820.08
574.52	47002.64
574.68	47131.37
574.84	47351.38
575.01	47629.90
575.17	47435.64
575.33	47201.58
575.49	46822.42
575.65	47576.07
575.82	47388.83
575.98	46773.27
576.14	47246.05
576.30	47391.17
576.46	47077.54
576.62	47334.99
576.79	47138.39
576.95	46742.84
577.11	47236.69
577.27	46937.10
577.43	47323.29
577.59	47416.91
577.75	46962.85
577.92	46721.77
578.08	46822.42
578.24	47297.55
578.40	47494.15
578.56	47089.24
578.72	47283.50
578.88	47171.16
579.04	47299.89
579.21	47054.13
579.37	47346.70
579.53	47217.97
579.69	46897.31
579.85	47030.72
580.01	47445.00
580.17	47054.13
580.33	47580.75
580.49	47131.37
580.65	47557.35
580.82	47232.01
580.98	47110.30
581.14	46883.27
581.30	47676.71
581.46	46990.94
581.62	47098.60
581.78	47150.09
581.94	47756.29
582.10	47100.94
582.26	47613.52
582.42	47576.07
582.58	47494.15
582.74	47655.65
582.90	47306.91
583.06	47634.58
583.22	47157.11
583.38	47697.78
583.54	47805.44
583.70	47650.97
583.86	47391.17
584.02	47487.13
584.18	47814.80
584.34	47988.00
584.50	47437.98
584.66	47716.50
584.82	47388.83
584.98	47854.59
585.14	47707.14
585.30	47192.22
585.46	47540.96
585.62	46983.91
585.78	47344.36
585.94	47126.69
586.10	47344.36
586.26	47463.72
586.42	47402.87
586.58	47578.41
586.74	47360.74
586.90	47283.50
587.06	47342.02
587.22	47550.32
587.38	47803.10
587.54	47971.62
587.70	47929.49
587.86	47924.81
588.02	47302.23
588.18	47777.36
588.34	47426.28
588.49	48161.20
588.65	47433.30
588.81	47948.21
588.97	47915.45
589.13	47470.75
589.29	47543.30
589.45	47737.57
589.61	47566.71
589.77	47547.98
589.93	47894.38
