SpectraSuite Data File
++++++++++++++++++++++++++++++++++++
Date: Fri Oct 25 10:48:08 EDT 2013
User: price-jones
Dark Spectrum Present: No
Reference Spectrum Present: No
Number of Sampled Component Spectra: 1
Spectrometers: USB2+H05261
Integration Time (usec): 100000 (USB2+H05261)
Spectra Averaged: 1 (USB2+H05261)
Boxcar Smoothing: 0 (USB2+H05261)
Correct for Electrical Dark: No (USB2+H05261)
Strobe/Lamp Enabled: No (USB2+H05261)
Correct for Detector Non-linearity: No (USB2+H05261)
Correct for Stray Light: No (USB2+H05261)
Number of Pixels in Processed Spectrum: 2048
>>>>>Begin Processed Spectral Data<<<<<
365.73	135.75
365.92	135.75
366.12	135.75
366.32	95.96
366.52	70.22
366.72	32.77
366.91	35.11
367.11	0.00
367.31	0.00
367.51	67.88
367.70	58.51
367.90	53.83
368.10	77.24
368.30	53.83
368.49	37.45
368.69	21.06
368.89	65.54
369.09	39.79
369.28	65.54
369.48	107.66
369.68	147.45
369.87	128.73
370.07	100.64
370.27	117.03
370.47	147.45
370.66	395.55
370.86	418.96
371.06	416.62
371.25	489.17
371.45	400.23
371.65	360.44
371.84	397.89
372.04	433.00
372.24	442.36
372.44	454.06
372.63	526.62
372.83	517.26
373.03	493.85
373.22	458.74
373.42	461.09
373.62	538.32
373.81	498.53
374.01	540.66
374.21	559.39
374.40	533.64
374.60	552.37
374.79	559.39
374.99	451.72
375.19	538.32
375.38	533.64
375.58	500.87
375.78	578.11
375.97	587.47
376.17	674.07
376.37	622.58
376.56	540.66
376.76	566.41
376.95	571.09
377.15	645.99
377.35	603.86
377.54	617.90
377.74	634.29
377.93	589.82
378.13	592.16
378.33	585.13
378.52	620.24
378.72	568.75
378.91	641.31
379.11	599.18
379.31	610.88
379.50	606.20
379.70	706.84
379.89	620.24
380.09	594.50
380.28	617.90
380.48	690.46
380.68	589.82
380.87	617.90
381.07	699.82
381.26	674.07
381.46	641.31
381.65	617.90
381.85	676.41
382.04	706.84
382.24	730.25
382.43	711.52
382.63	599.18
382.83	657.69
383.02	718.54
383.22	725.57
383.41	688.12
383.61	779.40
383.80	784.08
384.00	709.18
384.19	739.61
384.39	748.97
384.58	718.54
384.78	720.88
384.97	784.08
385.17	692.80
385.36	713.86
385.56	758.33
385.75	791.10
385.95	772.38
386.14	685.78
386.34	765.36
386.53	758.33
386.72	744.29
386.92	748.97
387.11	791.10
387.31	784.08
387.50	781.74
387.70	779.40
387.89	791.10
388.09	791.10
388.28	767.70
388.48	856.64
388.67	835.57
388.86	770.04
389.06	959.62
389.25	919.83
389.45	931.53
389.64	870.68
389.84	889.40
390.03	917.49
390.22	873.02
390.42	901.11
390.61	896.43
390.81	884.72
391.00	1001.75
391.19	1022.81
391.39	926.85
391.58	940.90
391.78	919.83
391.97	945.58
392.16	978.34
392.36	1025.15
392.55	983.02
392.75	877.70
392.94	866.00
393.13	997.07
393.33	1043.88
393.52	966.64
393.71	1090.69
393.91	1039.20
394.10	1036.86
394.29	1032.18
394.49	1107.07
394.68	1064.94
394.88	1142.18
395.07	1125.80
395.26	1100.05
395.46	1109.41
395.65	1130.48
395.84	1137.50
396.04	1210.06
396.23	1095.37
396.42	1128.14
396.62	1160.91
396.81	1104.73
397.00	1097.71
397.19	1121.12
397.39	1233.46
397.58	1191.33
397.77	1200.69
397.97	1228.78
398.16	1207.72
398.35	1345.81
398.55	1245.16
398.74	1376.24
398.93	1376.24
399.12	1350.49
399.32	1228.78
399.51	1334.11
399.70	1317.72
399.90	1373.89
400.09	1378.58
400.28	1441.77
400.47	1315.38
400.67	1404.32
400.86	1350.49
401.05	1401.98
401.24	1420.71
401.44	1458.15
401.63	1458.15
401.82	1488.58
402.01	1441.77
402.21	1460.49
402.40	1544.75
402.59	1507.30
402.78	1460.49
402.97	1490.92
403.17	1511.99
403.36	1661.78
403.55	1605.61
403.74	1671.14
403.93	1589.22
404.13	1579.86
404.32	1554.12
404.51	1561.14
404.70	1624.33
404.89	1624.33
405.09	1748.38
405.28	1755.40
405.47	1633.69
405.66	1671.14
405.85	1776.47
406.05	1626.67
406.24	1856.04
406.43	1727.32
406.62	1832.64
406.81	1792.85
407.00	1820.94
407.20	1699.23
407.39	1755.40
407.58	1874.77
407.77	1771.79
407.96	1905.20
408.15	1842.00
408.34	1863.07
408.54	1947.33
408.73	1994.14
408.92	1987.11
409.11	1984.77
409.30	1982.43
409.49	2022.22
409.68	1982.43
409.87	2092.44
410.07	2047.97
410.26	2043.29
410.45	2003.50
410.64	2204.78
410.83	2195.42
411.02	2237.55
411.21	2202.44
411.40	2162.66
411.59	2331.17
411.78	2251.60
411.98	2204.78
412.17	2211.81
412.36	2237.55
412.55	2345.22
412.74	2469.27
412.93	2349.90
413.12	2401.39
413.31	2438.84
413.50	2420.11
413.69	2546.50
413.88	2518.42
414.07	2466.92
414.26	2562.89
414.45	2541.82
414.64	2583.95
414.83	2663.53
415.02	2502.03
415.22	2691.62
415.41	2696.30
415.60	2661.19
415.79	2836.73
415.98	2864.82
416.17	2773.53
416.36	2782.90
416.55	2689.28
416.74	2899.92
416.93	2939.71
417.12	2832.05
417.31	2923.33
417.50	2895.24
417.69	3080.14
417.88	3035.67
418.07	2991.20
418.26	3080.14
418.45	2993.55
418.64	3180.79
418.83	3183.13
419.02	2970.14
419.21	3012.27
419.39	3155.04
419.58	3211.22
419.77	3133.98
419.96	3084.83
420.15	3150.36
420.34	3180.79
420.53	3239.30
420.72	3410.16
420.91	3468.67
421.10	3337.60
421.29	3325.90
421.48	3243.98
421.67	3300.16
421.86	3255.69
422.05	3442.93
422.24	3337.60
422.43	3445.27
422.61	3309.52
422.80	3365.69
422.99	3487.40
423.18	3499.10
423.37	3403.14
423.56	3386.76
423.75	3459.31
423.94	3396.12
424.13	3276.75
424.32	3281.43
424.50	3503.78
424.69	3543.57
424.88	3632.51
425.07	3379.73
425.26	3417.18
425.45	3529.53
425.64	3445.27
425.83	3461.65
426.01	3550.59
426.20	3688.68
426.39	3555.27
426.58	3627.83
426.77	3548.25
426.96	3627.83
427.15	3599.74
427.33	3599.74
427.52	3611.45
427.71	3637.19
427.90	3620.81
428.09	3742.52
428.28	3597.40
428.46	3707.41
428.65	3712.09
428.84	3744.86
429.03	3955.51
429.22	3581.02
429.40	3653.58
429.59	3707.41
429.78	3616.13
429.97	3592.72
430.16	3733.15
430.34	3794.01
430.53	3920.40
430.72	3794.01
430.91	3866.56
431.10	3964.87
431.28	4070.19
431.47	3990.61
431.66	3955.51
431.85	3997.64
432.03	4098.28
432.22	4114.66
432.41	4166.15
432.60	4173.18
432.79	4107.64
432.97	4217.65
433.16	4086.58
433.35	4051.47
433.54	4133.39
433.72	4201.26
433.91	4187.22
434.10	4245.73
434.28	4329.99
434.47	4287.86
434.66	4402.55
434.85	4449.36
435.03	4344.03
435.22	4327.65
435.41	4383.82
435.59	4346.37
435.78	4566.39
435.97	4521.92
436.16	4596.81
436.34	4496.17
436.53	4580.43
436.72	4507.87
436.90	4475.10
437.09	4524.26
437.28	4507.87
437.46	4479.79
437.65	4681.07
437.84	4702.14
438.02	4620.22
438.21	4674.05
438.40	4545.32
438.58	4732.56
438.77	4699.80
438.96	4770.01
439.14	4966.62
439.33	5032.15
439.52	4990.02
439.70	5006.41
439.89	4973.64
440.08	4997.04
440.26	4990.02
440.45	5146.84
440.63	5144.50
440.82	5268.55
441.01	5245.14
441.19	5184.29
441.38	5373.87
441.57	5320.04
441.75	5205.35
441.94	5521.32
442.12	5631.33
442.31	5603.24
442.50	5612.60
442.68	5579.84
442.87	5523.66
443.05	5621.97
443.24	5734.31
443.43	5617.29
443.61	5654.73
443.80	5813.89
443.98	5563.45
444.17	5467.49
444.35	5666.44
444.54	5867.72
444.73	5706.23
444.91	5614.95
445.10	5844.32
445.28	5795.17
445.47	5547.07
445.65	5696.86
445.84	5748.36
446.02	5937.94
446.21	5809.21
446.39	5624.31
446.58	5942.62
446.77	5923.90
446.95	5872.40
447.14	5959.00
447.32	6115.82
447.51	5776.44
447.69	5851.34
447.88	5944.96
448.06	5872.40
448.25	5795.17
448.43	5781.12
448.62	5966.03
448.80	5818.57
448.99	5863.04
449.17	5982.41
449.36	5933.26
449.54	6148.59
449.73	6366.26
449.91	6251.57
450.10	6038.58
450.28	6413.07
450.46	6277.32
450.65	6209.44
450.83	6202.42
451.02	6085.39
451.20	6427.11
451.39	6258.59
451.57	6441.15
451.76	6289.02
451.94	6249.23
452.13	6349.87
452.31	6282.00
452.49	6251.57
452.68	6448.18
452.86	6445.84
453.05	6436.47
453.23	6539.46
453.42	6387.32
453.60	6539.46
453.78	6532.44
453.97	6242.21
454.15	6523.07
454.34	6441.15
454.52	6548.82
454.70	6612.01
454.89	6614.35
455.07	6581.59
455.26	6668.19
455.44	6909.26
455.62	6759.47
455.81	6967.77
455.99	6855.43
456.17	6820.32
456.36	6841.39
456.54	7002.88
456.73	7049.69
456.91	7084.80
457.09	7300.13
457.28	7281.41
457.46	7215.87
457.64	7227.57
457.83	7105.87
458.01	6946.71
458.19	7318.86
458.38	7265.02
458.56	7370.35
458.74	7255.66
458.93	7218.21
459.11	7353.96
459.29	7403.11
459.48	7452.27
459.66	7302.47
459.84	7578.65
460.03	7583.34
460.21	7541.21
460.39	7609.08
460.57	7461.63
460.76	7517.80
460.94	7566.95
461.12	7531.84
461.31	7824.41
461.49	7630.15
461.67	7644.19
461.85	8032.72
462.04	7581.00
462.22	8191.88
462.40	7838.45
462.59	7927.39
462.77	7805.69
462.95	7826.75
463.13	7749.51
463.32	8028.04
463.50	8112.30
463.68	7948.46
463.86	8016.33
464.05	7962.50
464.23	7967.18
464.41	8234.00
464.59	7857.18
464.78	8184.85
464.96	8161.45
465.14	8072.51
465.32	8166.13
465.50	8222.30
465.69	8273.79
465.87	8255.07
466.05	8161.45
466.23	8234.00
466.41	8236.35
466.60	8388.48
466.78	8154.43
466.96	8308.90
467.14	8245.71
467.32	8208.26
467.51	8493.80
467.69	8224.64
467.87	8381.46
468.05	8585.08
468.23	8388.48
468.41	8355.71
468.60	8498.49
468.78	8535.93
468.96	8571.04
469.14	8659.98
469.32	8655.30
469.50	8535.93
469.69	8723.18
469.87	8868.29
470.05	8664.66
470.23	8954.89
470.41	8786.37
470.59	8924.46
470.77	8793.39
470.95	8905.74
471.14	9135.11
471.32	9015.74
471.50	9214.69
471.68	9210.01
471.86	9022.77
472.04	9224.05
472.22	9411.29
472.40	8947.87
472.58	9331.72
472.77	9303.63
472.95	9479.17
473.13	9596.20
473.31	9481.51
473.49	9453.42
473.67	9596.20
473.85	9619.60
474.03	9837.27
474.21	9767.06
474.39	10003.45
474.57	9916.85
474.75	10059.62
474.93	9944.94
475.12	10010.47
475.30	9905.15
475.48	9956.64
475.66	10286.65
475.84	10146.22
476.02	10171.97
476.20	10111.11
476.38	10464.54
476.56	10693.91
476.74	10691.57
476.92	10574.54
477.10	10644.76
477.28	10705.61
477.46	10927.96
477.64	10885.83
477.82	11122.23
478.00	11300.11
478.18	11082.44
478.36	11389.05
478.54	11243.93
478.72	11510.75
478.90	11723.74
479.08	11665.23
479.26	11843.11
479.44	11580.97
479.62	11850.13
479.80	11910.99
479.98	12196.53
480.16	12217.60
480.34	12116.95
480.52	12224.62
480.70	12353.35
480.88	12283.13
481.06	12205.89
481.24	12496.12
481.41	12526.55
481.59	12713.79
481.77	12912.74
481.95	12772.30
482.13	13099.98
482.31	13158.49
482.49	13179.56
482.67	13490.85
482.85	13483.83
483.03	13685.11
483.21	13722.56
483.39	13635.96
483.57	13935.55
483.74	13947.25
483.92	14237.48
484.10	14197.69
484.28	14366.21
484.46	14766.44
484.64	14562.81
484.82	14345.14
485.00	14427.06
485.18	14663.46
485.35	14750.06
485.53	14759.42
485.71	14862.40
485.89	15044.96
486.07	15236.89
486.25	15463.92
486.43	15520.09
486.61	15363.28
486.78	15812.66
486.96	15906.28
487.14	16077.14
487.32	16046.71
487.50	16301.83
487.68	16217.57
487.85	16432.90
488.03	16465.67
488.21	16924.41
488.39	16725.47
488.57	16835.47
488.75	17092.93
488.92	17074.21
489.10	17715.51
489.28	17535.29
489.46	17778.71
489.64	17804.46
489.81	18132.13
489.99	18462.15
490.17	18200.01
490.35	18281.92
490.53	18382.57
490.70	19014.51
490.88	18515.98
491.06	18927.91
491.24	19056.64
491.41	18860.04
491.59	19084.73
491.77	19119.84
491.95	19241.54
492.13	19061.32
492.30	19459.21
492.48	19609.01
492.66	19765.82
492.84	19648.80
493.01	20247.97
493.19	19807.95
493.37	20219.89
493.54	20027.96
493.72	20542.88
493.90	20510.11
494.08	20594.37
494.25	20854.17
494.43	21008.65
494.61	20833.11
494.79	21149.08
494.96	20987.58
495.14	20994.61
495.32	21500.16
495.49	21521.23
495.67	21500.16
495.85	22094.66
496.02	21893.37
496.20	22162.53
496.38	22057.21
496.55	22190.62
496.73	22693.83
496.91	22256.15
497.09	22569.79
497.26	22787.46
497.44	22661.07
497.62	22618.94
497.79	23229.82
497.97	22831.93
498.14	23044.91
498.32	23672.18
498.50	23424.08
498.67	23854.74
498.85	23714.31
499.03	23510.68
499.20	23850.06
499.38	23786.86
499.56	24056.03
499.73	24016.24
499.91	24482.00
500.08	24374.34
500.26	24503.07
500.44	24425.83
500.61	24264.33
500.79	24463.28
500.97	24718.40
501.14	24716.06
501.32	24865.85
501.49	24884.58
501.67	24999.26
501.84	25209.91
502.02	25146.72
502.20	24973.52
502.37	25420.56
502.55	25500.14
502.72	25610.14
502.90	25413.54
503.07	25626.53
503.25	25645.25
503.43	25560.99
503.60	26136.76
503.78	25912.07
503.95	25982.29
504.13	26012.71
504.30	26462.10
504.48	26036.12
504.65	26429.33
504.83	26574.44
505.01	26611.89
505.18	26721.90
505.36	26815.52
505.53	26803.82
505.71	27133.83
505.88	27197.02
506.06	27014.46
506.23	27105.74
506.41	27269.58
506.58	27543.42
506.76	27021.48
506.93	27648.75
507.11	27475.55
507.28	27585.55
507.46	27639.39
507.63	27772.80
507.81	27885.14
507.98	27569.17
508.16	27995.15
508.33	28341.55
508.50	28116.86
508.68	28252.61
508.85	28954.77
509.03	28379.00
509.20	28259.63
509.38	29111.58
509.55	29062.43
509.73	28765.18
509.90	28989.88
510.08	29048.39
510.25	28931.36
510.42	29331.59
510.60	29170.10
510.77	29284.78
510.95	29450.96
511.12	29273.08
511.30	29694.38
511.47	29638.20
511.64	29844.17
511.82	29949.50
511.99	29699.06
512.17	29956.52
512.34	29600.76
512.51	29888.64
512.69	30249.08
512.86	30394.20
513.04	30426.96
513.21	30335.68
513.38	29893.32
513.56	30223.34
513.73	30464.41
513.90	30567.40
514.08	30476.12
514.25	30649.32
514.43	30775.70
514.60	30677.40
514.77	30864.64
514.95	31054.23
515.12	30789.75
515.29	30988.69
515.47	31161.89
515.64	31992.78
515.81	31147.85
515.99	31009.76
516.16	31187.64
516.33	31302.32
516.51	31496.59
516.68	31498.93
516.85	31318.71
517.03	31658.09
517.20	31505.95
517.37	31772.77
517.54	32294.71
517.72	32147.26
517.89	31536.38
518.06	32268.97
518.24	31800.86
518.41	31847.67
518.58	32278.33
518.75	32294.71
518.93	32882.19
519.10	32240.88
519.27	32498.34
519.45	32486.64
519.62	32945.38
519.79	32795.59
519.96	32996.87
520.14	33039.00
520.31	32690.26
520.48	33296.46
520.65	33153.69
520.83	33504.77
521.00	33221.56
521.17	33263.69
521.34	33486.04
521.52	33425.19
521.69	33816.06
521.86	33638.18
522.03	33518.81
522.20	34050.11
522.38	33666.27
522.55	33724.78
522.72	34085.22
522.89	34087.56
523.07	34232.68
523.24	33893.30
523.41	34253.74
523.58	34045.43
523.75	34651.63
523.92	34321.62
524.10	34115.65
524.27	34639.93
524.44	34958.24
524.61	34639.93
524.78	34693.76
524.96	35047.18
525.13	34747.59
525.30	35063.57
525.47	35157.19
525.64	34677.38
525.81	34719.51
525.98	35225.06
526.16	35084.63
526.33	34822.49
526.50	35405.28
526.67	34962.92
526.84	35077.61
527.01	35178.25
527.18	35709.55
527.36	35526.99
527.53	35871.05
527.70	35665.08
527.87	35796.15
528.04	35594.87
528.21	35641.68
528.38	35995.10
528.55	36245.54
528.72	36039.57
528.89	36048.93
529.07	36084.04
529.24	35976.37
529.41	36191.70
529.58	36009.14
529.75	36016.16
529.92	36596.62
530.09	36212.77
530.26	36608.32
530.43	36615.34
530.60	36587.25
530.77	36610.66
530.94	36715.98
531.11	36561.51
531.28	37081.11
531.46	36910.25
531.63	37130.26
531.80	36935.99
531.97	36907.91
532.14	37095.15
532.31	36697.26
532.48	37280.05
532.65	37483.68
532.82	37305.80
532.99	37558.58
533.16	37251.97
533.33	37092.81
533.50	37532.83
533.67	37642.84
533.84	37207.50
534.01	37256.65
534.18	37502.40
534.35	37787.95
534.52	37544.53
534.69	37912.00
534.86	37804.33
535.03	37764.54
535.20	38101.58
535.37	37902.64
535.54	38026.68
535.71	38108.60
535.88	38078.18
536.05	38319.25
536.22	37996.26
536.38	38038.39
536.55	38384.79
536.72	37963.49
536.89	37794.97
537.06	38110.94
537.23	38391.81
537.40	38525.22
537.57	38408.19
537.74	38440.96
537.91	38616.50
538.08	38923.11
538.25	38450.32
538.42	38459.68
538.59	38815.44
538.75	38447.98
538.92	39433.35
539.09	39026.09
539.26	39098.65
539.43	39110.35
539.60	38948.85
539.77	38918.43
539.94	39037.80
540.11	38775.66
540.28	38698.42
540.44	38752.25
540.61	39290.57
540.78	38981.62
540.95	38911.41
541.12	39260.15
541.29	39278.87
541.46	39313.98
541.62	39484.84
541.79	39732.93
541.96	39262.49
542.13	39510.58
542.30	40065.29
542.47	39873.37
542.63	39629.95
542.80	40210.40
542.97	39985.71
543.14	40051.25
543.31	40470.20
543.48	40350.84
543.64	40641.06
543.81	40348.50
543.98	40741.71
544.15	40151.89
544.32	40481.91
544.48	40547.44
544.65	40954.69
544.82	40521.69
544.99	39962.31
545.16	40711.28
545.32	40268.92
545.49	40676.17
545.66	40903.20
545.83	40355.52
546.00	41530.47
546.16	41006.19
546.33	40699.58
546.50	40620.00
546.67	40926.61
546.83	40222.11
547.00	41198.11
547.17	40587.23
547.34	40802.56
547.50	41373.65
547.67	41532.81
547.84	41036.61
548.00	41577.28
548.17	41464.93
548.34	41385.35
548.51	41408.76
548.67	41280.03
548.84	41514.08
549.01	41352.58
549.18	41584.30
549.34	41825.37
549.51	41326.84
549.68	41544.51
549.84	41518.76
550.01	41839.42
550.18	41528.13
550.34	41312.80
550.51	41818.35
550.68	41462.59
550.84	41504.72
551.01	41811.33
551.18	41998.57
551.34	42031.34
551.51	41748.14
551.68	42337.95
551.84	41961.12
552.01	41879.21
552.18	41862.82
552.34	41799.63
552.51	42384.76
552.68	42190.50
552.84	42000.91
553.01	42555.62
553.18	42099.22
553.34	42110.92
553.51	41794.95
553.67	42504.13
553.84	42630.52
554.01	42462.00
554.17	42855.21
554.34	42459.66
554.51	42424.55
554.67	42497.11
554.84	42476.04
555.00	42611.79
555.17	42913.72
555.33	42827.12
555.50	42462.00
555.67	42569.66
555.83	42485.40
556.00	42838.83
556.16	42948.83
556.33	42672.65
556.50	42845.85
556.66	42824.78
556.83	42368.38
556.99	42937.13
557.16	43005.00
557.32	42784.99
557.49	42628.18
557.65	42656.26
557.82	42876.27
557.98	42504.13
558.15	42866.91
558.32	42969.90
558.48	42707.76
558.65	42515.83
558.81	43229.69
558.98	43173.52
559.14	43173.52
559.31	42684.35
559.47	43548.01
559.64	43508.22
559.80	43725.89
559.97	43379.49
560.13	43194.59
560.30	43353.74
560.46	43650.99
560.63	42939.47
560.79	43203.95
560.96	43512.90
561.12	43871.00
561.29	43379.49
561.45	43409.92
561.61	43407.58
561.78	43489.49
561.94	43217.99
562.11	43311.61
562.27	43236.72
562.44	43571.41
562.60	43761.00
562.77	43365.45
562.93	43459.07
563.10	43746.95
563.26	43281.19
563.42	43620.56
563.59	43608.86
563.75	43641.63
563.92	43473.11
564.08	43496.52
564.24	43969.30
564.41	43821.85
564.57	43711.84
564.74	43856.96
564.90	43430.98
565.07	43929.51
565.23	43721.21
565.39	43489.49
565.56	43690.78
565.72	43768.02
565.88	44151.87
566.05	43583.12
566.21	43899.09
566.38	43496.52
566.54	43592.48
566.70	44053.56
566.87	44458.48
567.03	43913.13
567.19	43899.09
567.36	44051.22
567.52	43948.24
567.68	44350.81
567.85	43770.36
568.01	43957.60
568.17	43835.89
568.34	43875.68
568.50	43983.35
568.66	43524.60
568.83	43892.07
568.99	43711.84
569.15	43772.70
569.32	44013.77
569.48	43878.02
569.64	44196.34
569.81	44034.84
569.97	43983.35
570.13	43988.03
570.30	44016.11
570.46	43894.41
570.62	43704.82
570.78	43737.59
570.95	43915.47
571.11	44002.07
571.27	43917.81
571.43	44018.46
571.60	44147.18
571.76	44119.10
571.92	44114.42
572.09	43873.34
572.25	44030.16
572.41	44194.00
572.57	44301.66
572.74	44301.66
572.90	44385.92
573.06	43983.35
573.22	44095.69
573.38	44219.74
573.55	43871.00
573.71	44582.52
573.87	44217.40
574.03	44037.18
574.20	44378.90
574.36	44299.32
574.52	44210.38
574.68	44318.04
574.84	44399.96
575.01	44507.63
575.17	43943.56
575.33	44198.68
575.49	44596.57
575.65	44004.41
575.82	44151.87
575.98	44353.15
576.14	44706.57
576.30	44306.34
576.46	44519.33
576.62	43988.03
576.79	44215.06
576.95	43906.11
577.11	43915.47
577.27	44156.55
577.43	44109.74
577.59	44304.00
577.75	44222.08
577.92	44268.89
578.08	44086.33
578.24	44079.31
578.40	44020.80
578.56	44259.53
578.72	44257.19
578.88	44587.21
579.04	44109.74
579.21	44449.11
579.37	44243.15
579.53	44170.59
579.69	44329.75
579.85	44002.07
580.01	44245.49
580.17	44332.09
580.33	44432.73
580.49	44404.64
580.65	44521.67
580.82	44355.49
580.98	44170.59
581.14	44329.75
581.30	44524.01
581.46	44430.39
581.62	44762.75
581.78	44437.41
581.94	44809.56
582.10	44390.60
582.26	44318.04
582.42	44765.09
582.58	44596.57
582.74	44076.97
582.90	44568.48
583.06	44346.13
583.22	44638.70
583.38	44755.72
583.54	44612.95
583.70	44231.44
583.86	44828.28
584.02	44023.14
584.18	44711.25
584.34	45078.72
584.50	44327.41
584.66	44554.44
584.82	44320.38
584.98	44594.23
585.14	44608.27
585.30	44355.49
585.46	44692.53
585.62	44170.59
585.78	44521.67
585.94	44123.78
586.10	44404.64
586.26	43674.40
586.42	44952.33
586.58	44601.25
586.74	44217.40
586.90	44547.42
587.06	44561.46
587.22	44561.46
587.38	44137.82
587.54	45141.91
587.70	44624.65
587.86	44797.85
588.02	44292.30
588.18	44753.38
588.34	44797.85
588.49	44282.94
588.65	44229.10
588.81	44444.43
588.97	44404.64
589.13	44430.39
589.29	44648.06
589.45	44762.75
589.61	44404.64
589.77	44580.18
589.93	44402.30
590.08	44765.09
590.24	44559.12
