SpectraSuite Data File
++++++++++++++++++++++++++++++++++++
Date: Fri Oct 25 11:22:56 EDT 2013
User: price-jones
Dark Spectrum Present: No
Reference Spectrum Present: No
Number of Sampled Component Spectra: 1
Spectrometers: USB2+H05261
Integration Time (usec): 100000 (USB2+H05261)
Spectra Averaged: 1 (USB2+H05261)
Boxcar Smoothing: 0 (USB2+H05261)
Correct for Electrical Dark: No (USB2+H05261)
Strobe/Lamp Enabled: No (USB2+H05261)
Correct for Detector Non-linearity: No (USB2+H05261)
Correct for Stray Light: No (USB2+H05261)
Number of Pixels in Processed Spectrum: 2048
>>>>>Begin Processed Spectral Data<<<<<
365.73	236.39
365.92	236.39
366.12	236.39
366.32	117.03
366.52	203.63
366.72	154.48
366.91	149.79
367.11	102.98
367.31	156.82
367.51	95.96
367.70	145.11
367.90	114.69
368.10	191.92
368.30	86.60
368.49	166.18
368.69	159.16
368.89	77.24
369.09	133.41
369.28	138.09
369.48	236.39
369.68	236.39
369.87	175.54
370.07	173.20
370.27	220.01
370.47	308.95
370.66	594.50
370.86	615.56
371.06	699.82
371.25	662.37
371.45	636.63
371.65	704.50
371.84	706.84
372.04	685.78
372.24	816.85
372.44	730.25
372.63	734.93
372.83	755.99
373.03	704.50
373.22	720.88
373.42	763.01
373.62	816.85
373.81	781.74
374.01	779.40
374.21	816.85
374.40	826.21
374.60	847.27
374.79	781.74
374.99	763.01
375.19	875.36
375.38	868.34
375.58	812.17
375.78	952.60
375.97	884.72
376.17	884.72
376.37	912.81
376.56	915.15
376.76	875.36
376.95	816.85
377.15	917.49
377.35	840.25
377.54	873.02
377.74	912.81
377.93	875.36
378.13	922.17
378.33	898.77
378.52	912.81
378.72	945.58
378.91	926.85
379.11	945.58
379.31	894.08
379.50	940.90
379.70	1067.28
379.89	898.77
380.09	1020.47
380.28	978.34
380.48	1004.09
380.68	929.19
380.87	938.55
381.07	1081.33
381.26	1008.77
381.46	1001.75
381.65	1036.86
381.85	997.07
382.04	1025.15
382.24	987.71
382.43	1135.16
382.63	1067.28
382.83	997.07
383.02	1076.65
383.22	1109.41
383.41	1088.35
383.61	1081.33
383.80	1093.03
384.00	1055.58
384.19	1146.86
384.39	1086.01
384.58	1086.01
384.78	1153.88
384.97	1125.80
385.17	1153.88
385.36	1174.95
385.56	1207.72
385.75	1130.48
385.95	1165.59
386.14	1179.63
386.34	1242.82
386.53	1217.08
386.72	1181.97
386.92	1203.04
387.11	1252.19
387.31	1284.95
387.50	1170.27
387.70	1261.55
387.89	1259.21
388.09	1284.95
388.28	1294.32
388.48	1306.02
388.67	1434.75
388.86	1310.70
389.06	1224.10
389.25	1324.74
389.45	1362.19
389.64	1364.53
389.84	1385.60
390.03	1322.40
390.22	1380.92
390.42	1334.11
390.61	1355.17
390.81	1376.24
391.00	1427.73
391.19	1465.18
391.39	1446.45
391.58	1425.39
391.78	1434.75
391.97	1458.15
392.16	1432.41
392.36	1528.37
392.55	1544.75
392.75	1528.37
392.94	1549.43
393.13	1586.88
393.33	1521.35
393.52	1490.92
393.71	1589.22
393.91	1591.56
394.10	1565.82
394.29	1500.28
394.49	1650.08
394.68	1603.27
394.88	1640.72
395.07	1724.97
395.26	1631.35
395.46	1636.03
395.65	1678.16
395.84	1661.78
396.04	1856.04
396.23	1743.70
396.42	1746.04
396.62	1879.45
396.81	1790.51
397.00	1762.42
397.19	1825.62
397.39	1760.08
397.58	1952.01
397.77	1778.81
397.97	1907.54
398.16	1818.60
398.35	1867.75
398.55	1989.46
398.74	1909.88
398.93	1909.88
399.12	1989.46
399.32	1774.13
399.51	1944.99
399.70	1973.07
399.90	1933.28
400.09	2080.74
400.28	2024.56
400.47	2057.33
400.67	2108.82
400.86	2085.42
401.05	2141.59
401.24	2104.14
401.44	2179.04
401.63	2167.34
401.82	2118.18
402.01	2108.82
402.21	2172.02
402.40	2200.10
402.59	2207.13
402.78	2143.93
402.97	2282.02
403.17	2298.41
403.36	2443.52
403.55	2277.34
403.74	2382.67
403.93	2401.39
404.13	2354.58
404.32	2331.17
404.51	2319.47
404.70	2373.30
404.89	2466.92
405.09	2387.35
405.28	2396.71
405.47	2567.57
405.66	2546.50
405.85	2518.42
406.05	2499.69
406.24	2572.25
406.43	2579.27
406.62	2691.62
406.81	2740.77
407.00	2597.99
407.20	2574.59
407.39	2717.36
407.58	2609.70
407.77	2670.55
407.96	2794.60
408.15	2708.00
408.34	2691.62
408.54	2787.58
408.73	2869.50
408.92	2801.62
409.11	2972.48
409.30	2942.05
409.49	3016.95
409.68	2977.16
409.87	2932.69
410.07	3075.46
410.26	3108.23
410.45	3021.63
410.64	3103.55
410.83	3021.63
411.02	3056.74
411.21	3206.53
411.40	3143.34
411.59	3232.28
411.78	3199.51
411.98	3267.39
412.17	3225.26
412.36	3255.69
412.55	3447.61
412.74	3384.41
412.93	3386.76
413.12	3480.38
413.31	3588.04
413.50	3510.80
413.69	3541.23
413.88	3611.45
414.07	3557.61
414.26	3662.94
414.45	3777.62
414.64	3730.81
414.83	3733.15
415.02	3789.33
415.22	3726.13
415.41	3765.92
415.60	3981.25
415.79	3899.33
415.98	4023.38
416.17	3976.57
416.36	3955.51
416.55	3983.59
416.74	4070.19
416.93	4105.30
417.12	4182.54
417.31	4168.49
417.50	4348.72
417.69	4351.06
417.88	4287.86
418.07	4297.22
418.26	4400.21
418.45	4395.53
418.64	4430.63
418.83	4418.93
419.02	4580.43
419.21	4409.57
419.39	4622.56
419.58	4547.66
419.77	4332.33
419.96	4622.56
420.15	4589.79
420.34	4711.50
420.53	4582.77
420.72	4725.54
420.91	4793.42
421.10	4814.48
421.29	4784.06
421.48	4741.93
421.67	4695.11
421.86	4889.38
422.05	4835.55
422.24	4727.88
422.43	4793.42
422.61	4887.04
422.80	5088.32
422.99	5069.60
423.18	4975.98
423.37	4994.70
423.56	4959.60
423.75	5011.09
423.94	4795.76
424.13	4681.07
424.32	4884.70
424.50	5116.41
424.69	5184.29
424.88	5093.01
425.07	4957.25
425.26	5011.09
425.45	4938.53
425.64	4985.34
425.83	5041.51
426.01	5043.85
426.20	4999.38
426.39	5146.84
426.58	5116.41
426.77	5172.58
426.96	5172.58
427.15	5146.84
427.33	5116.41
427.52	5184.29
427.71	5233.44
427.90	5226.42
428.09	5355.15
428.28	5434.72
428.46	5263.86
428.65	5495.58
428.84	5605.58
429.03	5488.56
429.22	5392.59
429.40	5619.63
429.59	5645.37
429.78	5355.15
429.97	5385.57
430.16	5547.07
430.34	5605.58
430.53	5799.85
430.72	5647.71
430.91	5729.63
431.10	5530.69
431.28	5968.37
431.47	5795.17
431.66	5729.63
431.85	5902.83
432.03	6097.10
432.22	6069.01
432.41	5942.62
432.60	5991.77
432.79	5921.56
432.97	6090.07
433.16	6052.63
433.35	6108.80
433.54	6033.90
433.72	6127.52
433.91	6204.76
434.10	6258.59
434.28	6174.33
434.47	6108.80
434.66	6214.12
434.85	6338.17
435.03	6384.98
435.22	6202.42
435.41	6560.52
435.59	6382.64
435.78	6691.59
435.97	6471.58
436.16	6497.33
436.34	6459.88
436.53	6532.44
436.72	6773.51
436.90	6392.00
437.09	6792.23
437.28	6473.92
437.46	6787.55
437.65	6663.51
437.84	6965.43
438.02	6738.40
438.21	7005.22
438.40	6668.19
438.58	6813.30
438.77	7007.56
438.96	6967.77
439.14	7042.67
439.33	7152.68
439.52	7325.88
439.70	7265.02
439.89	7459.29
440.08	7384.39
440.26	7356.30
440.45	7438.22
440.63	7454.61
440.82	7543.55
441.01	7646.53
441.19	7541.21
441.38	7606.74
441.57	7756.54
441.75	7857.18
441.94	7971.86
442.12	8053.78
442.31	8046.76
442.50	8056.12
442.68	8006.97
442.87	8154.43
443.05	8126.34
443.24	8334.65
443.43	8381.46
443.61	8222.30
443.80	8514.87
443.98	8102.93
444.17	7920.37
444.35	8292.52
444.54	8446.99
444.73	8395.50
444.91	8397.84
445.10	8461.04
445.28	8428.27
445.47	8461.04
445.65	8540.61
445.84	8365.07
446.02	8428.27
446.21	8578.06
446.39	8606.15
446.58	8561.68
446.77	8564.02
446.95	8266.77
447.14	8659.98
447.32	8477.42
447.51	8615.51
447.69	8463.38
447.88	8580.40
448.06	8634.24
448.25	8540.61
448.43	8624.87
448.62	8638.92
448.80	8809.78
448.99	8730.20
449.17	8716.16
449.36	8706.79
449.54	8966.59
449.73	9095.32
449.91	8950.21
450.10	9188.94
450.28	9123.41
450.46	9081.28
450.65	9137.45
450.83	9193.62
451.02	9085.96
451.20	9329.38
451.39	9095.32
451.57	9191.28
451.76	9107.02
451.94	9490.87
452.13	9502.58
452.31	9404.27
452.49	9167.88
452.68	9301.29
452.86	9523.64
453.05	9516.62
453.23	9563.43
453.42	9547.05
453.60	9600.88
453.78	9731.95
453.97	9628.96
454.15	9647.69
454.34	9572.79
454.52	9755.35
454.70	9804.50
454.89	9734.29
455.07	9823.23
455.26	10068.98
455.44	10080.69
455.62	9996.43
455.81	10022.17
455.99	10125.16
456.17	10129.84
456.36	10022.17
456.54	10289.00
456.73	10560.50
456.91	10677.52
457.09	10427.09
457.28	10611.99
457.46	10274.95
457.64	10665.82
457.83	10721.99
458.01	10413.04
458.19	10544.11
458.38	10628.37
458.56	10796.89
458.74	10904.56
458.93	10743.06
459.11	10813.28
459.29	10815.62
459.48	11059.03
459.66	10960.73
459.84	11016.90
460.03	11178.40
460.21	11136.27
460.39	11049.67
460.57	11115.20
460.76	11063.71
460.94	11485.01
461.12	11297.77
461.31	11115.20
461.49	11147.97
461.67	11379.68
461.85	11611.40
462.04	11527.14
462.22	11742.47
462.40	11728.42
462.59	11641.82
462.77	11665.23
462.95	11887.58
463.13	11859.49
463.32	11751.83
463.50	11578.63
463.68	12114.61
463.86	11798.64
464.05	11934.39
464.23	11812.68
464.41	11995.25
464.59	11934.39
464.78	12084.19
464.96	12086.53
465.14	12212.92
465.32	11826.73
465.50	12241.00
465.69	12292.49
465.87	12411.86
466.05	12245.68
466.23	12009.29
466.41	12395.48
466.60	12592.08
466.78	12353.35
466.96	12367.39
467.14	12238.66
467.32	12608.47
467.51	12884.65
467.69	12327.60
467.87	12573.36
468.05	12716.13
468.23	12446.97
468.41	12636.55
468.60	12561.66
468.78	12959.55
468.96	12685.70
469.14	12870.61
469.32	12964.23
469.50	12898.69
469.69	13156.15
469.87	13418.29
470.05	13132.75
470.23	13378.50
470.41	13385.52
470.59	13338.71
470.77	13369.14
470.95	13378.50
471.14	13724.90
471.32	13462.76
471.50	13607.87
471.68	13696.82
471.86	13895.76
472.04	13909.80
472.22	13912.14
472.40	13769.37
472.58	14209.39
472.77	14118.11
472.95	14396.64
473.13	14586.22
473.31	14487.92
473.49	14167.26
473.67	14225.78
473.85	14298.33
474.03	14836.66
474.21	14462.17
474.39	14909.21
474.57	14857.72
474.75	15016.88
474.93	15140.93
475.12	15035.60
475.30	15157.31
475.48	15063.69
475.66	15417.11
475.84	15253.27
476.02	15515.41
476.20	15452.22
476.38	15772.87
476.56	16149.70
476.74	16301.83
476.92	16037.35
477.10	15850.11
477.28	16032.67
477.46	16276.09
477.64	16549.93
477.82	16713.77
478.00	17401.88
478.18	16915.05
478.36	17085.91
478.54	17221.66
478.72	17263.79
478.90	17547.00
479.08	17561.04
479.26	17937.87
479.44	17783.39
479.62	18445.76
479.80	18480.87
479.98	18321.71
480.16	19103.45
480.34	18389.59
480.52	18775.78
480.70	19021.53
480.88	18534.70
481.06	19168.99
481.24	18869.40
481.41	19264.95
481.59	19578.58
481.77	19639.44
481.95	20142.65
482.13	20006.90
482.31	19892.21
482.49	20542.88
482.67	20540.54
482.85	20479.69
483.03	21102.27
483.21	20849.49
483.39	21214.62
483.57	21153.76
483.74	21209.93
483.92	21528.25
484.10	21184.19
484.28	21858.26
484.46	22237.43
484.64	22553.40
484.82	22256.15
485.00	22672.77
485.18	22963.00
485.35	23073.00
485.53	23026.19
485.71	23023.85
485.89	23592.60
486.07	23962.40
486.25	23758.78
486.43	23765.80
486.61	24114.54
486.78	24030.28
486.96	24479.66
487.14	24779.25
487.32	24655.20
487.50	25263.74
487.68	25027.35
487.85	25671.00
488.03	25692.06
488.21	26291.24
488.39	26160.17
488.57	26405.92
488.75	26649.34
488.92	26946.59
489.10	27105.74
489.28	26628.27
489.46	27566.83
489.64	27182.98
489.81	28037.28
489.99	27927.27
490.17	28336.87
490.35	28254.95
490.53	28479.64
490.70	28842.42
490.88	28528.79
491.06	28968.81
491.24	29160.73
491.41	29635.86
491.59	29399.47
491.77	29081.16
491.95	29647.57
492.13	30101.63
492.30	29989.28
492.48	30059.50
492.66	30302.92
492.84	30373.13
493.01	31168.91
493.19	31049.55
493.37	31274.24
493.54	31854.69
493.72	31367.86
493.90	31988.10
494.08	32119.17
494.25	32615.37
494.43	32369.61
494.61	32701.96
494.79	32851.76
494.96	33209.86
495.14	33303.48
495.32	33457.96
495.49	33472.00
495.67	33638.18
495.85	34024.37
496.02	34040.75
496.20	34232.68
496.38	34637.59
496.55	34136.71
496.73	35314.00
496.91	34742.91
497.09	34930.16
497.26	35262.51
497.44	35473.16
497.62	35800.83
497.79	35849.99
497.97	35969.35
498.14	36247.88
498.32	36776.84
498.50	36498.31
498.67	37158.34
498.85	37191.11
499.03	37144.30
499.20	37273.03
499.38	37008.55
499.56	37350.27
499.73	37291.76
499.91	37577.30
500.08	38146.05
500.26	37593.68
500.44	38342.66
500.61	38490.11
500.79	38160.09
500.97	38579.05
501.14	39239.08
501.32	38810.76
501.49	38998.01
501.67	38696.08
501.84	39583.14
502.02	39136.10
502.20	39653.36
502.37	39693.15
502.55	39234.40
502.72	40332.11
502.90	40374.24
503.07	39826.56
503.25	40346.15
503.43	40208.06
503.60	40882.14
503.78	40863.41
503.95	40460.84
504.13	40938.31
504.30	40774.47
504.48	40627.02
504.65	40961.72
504.83	41287.05
505.01	41738.77
505.18	41596.00
505.36	42181.13
505.53	41715.37
505.71	41928.36
505.88	42457.32
506.06	41787.92
506.23	42270.08
506.41	42550.94
506.58	42328.59
506.76	42583.71
506.93	43152.46
507.11	42731.16
507.28	42895.00
507.46	43012.02
507.63	43171.18
507.81	43365.45
507.98	43594.82
508.16	43299.91
508.33	43959.94
508.50	43894.41
508.68	43842.92
508.85	44308.68
509.03	44009.09
509.20	44603.59
509.38	44671.46
509.55	44545.08
509.73	44933.60
509.90	44697.21
510.08	44973.39
510.25	44856.37
510.42	44982.76
510.60	45490.65
510.77	45387.67
510.95	45729.39
511.12	45661.51
511.30	45556.19
511.47	45890.88
511.64	45778.54
511.82	46007.91
511.99	46160.05
512.17	45675.55
512.34	46036.00
512.51	46703.05
512.69	46885.61
512.86	46789.65
513.04	47187.54
513.21	46852.84
513.38	46993.28
513.56	47351.38
513.73	47042.43
513.90	47416.91
514.08	47391.17
514.25	47765.65
514.43	47639.26
514.60	48175.25
514.77	47866.30
514.95	48034.81
515.12	47709.48
515.29	48004.39
515.47	48222.06
515.64	48303.98
515.81	48011.41
515.99	48589.52
516.16	48694.85
516.33	48842.30
516.51	49296.36
516.68	48437.39
516.85	48989.75
517.03	49251.89
517.20	49230.83
517.37	48961.67
517.54	49422.75
517.72	49315.09
517.89	49284.66
518.06	49907.24
518.24	49780.85
518.41	49488.29
518.58	49734.04
518.75	49469.56
518.93	50059.38
519.10	49909.58
519.27	50195.13
519.45	49918.95
519.62	50506.42
519.79	50223.22
519.96	49970.44
520.14	50796.65
520.31	50197.47
520.48	50607.06
520.65	50911.33
520.83	51201.56
521.00	51063.47
521.17	50686.64
521.34	51196.88
521.52	51470.72
521.69	51000.27
521.86	51049.42
522.03	51601.79
522.20	51707.12
522.38	51679.03
522.55	51693.07
522.72	51655.62
522.89	51679.03
523.07	52013.73
523.24	51833.50
523.41	52224.37
523.58	52041.81
523.75	52360.12
523.92	52217.35
524.10	52465.45
524.27	52332.04
524.44	52392.89
524.61	52250.12
524.78	52666.73
524.96	52535.66
525.13	52683.12
525.30	52673.76
525.47	53015.47
525.64	52910.15
525.81	52919.51
525.98	52818.87
526.16	53057.60
526.33	52781.42
526.50	53183.99
526.67	53052.92
526.84	53102.07
527.01	53214.42
527.18	53359.53
527.36	53319.74
527.53	53439.11
527.70	53631.04
527.87	53605.29
528.04	53223.78
528.21	53652.10
528.38	53588.91
528.55	53930.62
528.72	53614.65
528.89	53888.49
529.07	53656.78
529.24	53757.42
529.41	54129.57
529.58	53832.32
529.75	53731.68
529.92	53867.43
530.09	54204.47
530.26	54344.90
530.43	54230.21
530.60	54218.51
530.77	54396.39
530.94	54370.64
531.11	54342.56
531.28	54466.61
531.46	54836.41
531.63	54632.78
531.80	54401.07
531.97	54754.49
532.14	54843.43
532.31	54768.54
532.48	55133.66
532.65	54866.84
532.82	54798.96
532.99	55238.98
533.16	54796.62
533.33	55107.91
533.50	55304.52
533.67	55051.74
533.84	54869.18
534.01	55189.83
534.18	55306.86
534.35	55496.44
534.52	55456.65
534.69	55484.74
534.86	55597.09
535.03	55246.00
535.20	55519.85
535.37	55510.49
535.54	55690.71
535.71	55449.63
535.88	55765.60
536.05	55875.61
536.22	56046.47
536.38	55725.81
536.55	56023.06
536.72	55861.57
536.89	55576.02
537.06	55929.44
537.23	56039.45
537.40	55789.01
537.57	55845.18
537.74	56112.00
537.91	56418.61
538.08	56062.85
538.25	56027.74
538.42	56406.91
538.59	56467.76
538.75	56226.69
538.92	56474.79
539.09	56402.23
539.26	56470.11
539.43	56481.81
539.60	56399.89
539.77	56502.87
539.94	56720.54
540.11	56589.47
540.28	56828.21
540.44	56844.59
540.61	56804.80
540.78	56837.57
540.95	56584.79
541.12	56474.79
541.29	56858.63
541.46	56729.90
541.62	56868.00
541.79	56931.19
541.96	56591.81
542.13	56708.84
542.30	57031.83
542.47	57078.64
542.63	57188.65
542.80	57216.74
542.97	57394.62
543.14	57310.36
543.31	57619.31
543.48	57499.94
543.64	57846.34
543.81	57497.60
543.98	57448.45
544.15	57504.62
544.32	57528.03
544.48	57954.00
544.65	57621.65
544.82	57757.40
544.99	57535.05
545.16	57654.42
545.32	57649.74
545.49	57946.98
545.66	57698.89
545.83	57778.46
546.00	57970.39
546.16	58106.14
546.33	58019.54
546.50	57666.12
546.67	58220.83
546.83	57865.06
547.00	57996.13
547.17	57902.51
547.34	58059.33
547.50	58284.02
547.67	58192.74
547.84	58312.11
548.00	58387.00
548.17	58501.69
548.34	58454.88
548.51	58691.27
548.67	58344.87
548.84	58562.54
549.01	58408.07
549.18	58513.39
549.34	58588.29
549.51	58607.01
549.68	58766.17
549.84	58740.42
550.01	58770.85
550.18	58466.58
550.34	58656.17
550.51	58791.92
550.68	58770.85
550.84	58412.75
551.01	58756.81
551.18	58752.13
551.34	58639.78
551.51	58731.06
551.68	58841.07
551.84	58930.01
552.01	58773.19
552.18	58948.73
552.34	58784.90
552.51	58850.43
552.68	58887.88
552.84	58911.28
553.01	59138.32
553.18	58911.28
553.34	59128.95
553.51	59180.45
553.67	58880.86
553.84	59276.41
554.01	59360.67
554.17	59323.22
554.34	59348.96
554.51	59192.15
554.67	59227.26
554.84	59309.18
555.00	59325.56
555.17	59353.65
555.33	59236.62
555.50	59171.08
555.67	59391.09
555.83	59262.36
556.00	59245.98
556.16	59753.88
556.33	59395.77
556.50	59398.12
556.66	59571.32
556.83	59498.76
556.99	59693.02
557.16	59653.23
557.32	59732.81
557.49	59796.01
557.65	59606.42
557.82	59742.17
557.98	59503.44
558.15	59512.80
558.32	59812.39
558.48	59583.02
558.65	59454.29
558.81	59681.32
558.98	59728.13
559.14	59756.22
559.31	59945.80
559.47	60013.68
559.64	59976.23
559.80	59859.20
559.97	59987.93
560.13	59962.18
560.30	60013.68
560.46	59952.82
560.63	60090.91
560.79	59971.55
560.96	60107.30
561.12	60001.97
561.29	59987.93
561.45	60364.76
561.61	59987.93
561.78	60051.12
561.94	60179.85
562.11	60177.51
562.27	60193.90
562.44	60119.00
562.60	60308.58
562.77	60245.39
562.93	59891.97
563.10	60264.11
563.26	60030.06
563.42	60406.89
563.59	60374.12
563.75	60306.24
563.92	60133.04
564.08	60142.41
564.24	60470.08
564.41	60254.75
564.57	60402.21
564.74	60474.76
564.90	60584.77
565.07	60385.82
565.23	60289.86
565.39	60416.25
565.56	60554.34
565.72	60245.39
565.88	60526.25
566.05	60512.21
566.21	60425.61
566.38	60526.25
566.54	60615.19
566.70	60715.84
566.87	60676.05
567.03	60657.32
567.19	60743.92
567.36	60488.80
567.52	60378.80
567.68	60645.62
567.85	60547.32
568.01	60640.94
568.17	60533.28
568.34	60757.97
568.50	60559.02
568.66	60701.79
568.83	60659.66
568.99	60434.97
569.15	60697.11
569.32	60750.94
569.48	60591.79
569.64	60865.63
569.81	60654.98
569.97	60650.30
570.13	60596.47
570.30	60645.62
570.46	60596.47
570.62	60835.20
570.78	60846.91
570.95	60802.44
571.11	60797.76
571.27	60858.61
571.43	60732.22
571.60	61102.03
571.76	61015.43
571.92	60968.61
572.09	60893.72
572.25	60706.47
572.41	60734.56
572.57	60818.82
572.74	61050.53
572.90	61003.72
573.06	60917.12
573.22	60779.03
573.38	60917.12
573.55	60828.18
573.71	61064.58
573.87	61097.34
574.03	60666.69
574.20	61020.11
574.36	60889.04
574.52	61043.51
574.68	61097.34
574.84	61190.97
575.01	61006.06
575.17	60994.36
575.33	60938.19
575.49	60739.24
575.65	61073.94
575.82	60949.89
575.98	61141.81
576.14	61020.11
576.30	61165.22
576.46	60985.00
576.62	60835.20
576.79	60914.78
576.95	61008.40
577.11	61202.67
577.27	61036.49
577.43	60949.89
577.59	60968.61
577.75	60903.08
577.92	60844.57
578.08	61029.47
578.24	61050.53
578.40	61151.18
578.56	61144.16
578.72	61116.07
578.88	61275.22
579.04	61460.13
579.21	61195.65
579.37	61172.24
579.53	61240.12
579.69	61125.43
579.85	61132.45
580.01	61317.35
580.17	60910.10
580.33	61272.88
580.49	61111.39
580.65	61109.05
580.82	61038.83
580.98	61029.47
581.14	60907.76
581.30	61202.67
581.46	61265.86
581.62	61197.99
581.78	61148.84
581.94	61160.54
582.10	61305.65
582.26	60989.68
582.42	61106.71
582.58	61083.30
582.74	60977.98
582.90	61148.84
583.06	61092.66
583.22	60985.00
583.38	61125.43
583.54	61022.45
583.70	61277.57
583.86	61200.33
584.02	60987.34
584.18	61233.10
584.34	61158.20
584.50	60982.66
584.66	61045.85
584.82	61036.49
584.98	61293.95
585.14	61279.91
585.30	61265.86
585.46	61326.72
585.62	61223.73
585.78	61275.22
585.94	61242.46
586.10	61235.44
586.26	61219.05
586.42	61422.68
586.58	61413.32
586.74	61324.38
586.90	61027.13
587.06	61247.14
587.22	61553.75
587.38	61216.71
587.54	61305.65
587.70	61315.01
587.86	61371.19
588.02	61263.52
588.18	61418.00
588.34	61219.05
588.49	61406.30
