SpectraSuite Data File
++++++++++++++++++++++++++++++++++++
Date: Fri Oct 25 11:22:53 EDT 2013
User: price-jones
Dark Spectrum Present: No
Reference Spectrum Present: No
Number of Sampled Component Spectra: 1
Spectrometers: USB2+H05261
Integration Time (usec): 100000 (USB2+H05261)
Spectra Averaged: 1 (USB2+H05261)
Boxcar Smoothing: 0 (USB2+H05261)
Correct for Electrical Dark: No (USB2+H05261)
Strobe/Lamp Enabled: No (USB2+H05261)
Correct for Detector Non-linearity: No (USB2+H05261)
Correct for Stray Light: No (USB2+H05261)
Number of Pixels in Processed Spectrum: 2048
>>>>>Begin Processed Spectral Data<<<<<
365.73	217.67
365.92	217.67
366.12	217.67
366.32	196.60
366.52	128.73
366.72	163.84
366.91	191.92
367.11	152.13
367.31	81.92
367.51	88.94
367.70	77.24
367.90	117.03
368.10	117.03
368.30	91.28
368.49	184.90
368.69	124.05
368.89	187.24
369.09	236.39
369.28	128.73
369.48	128.73
369.68	222.35
369.87	182.56
370.07	177.88
370.27	259.80
370.47	341.72
370.66	606.20
370.86	599.18
371.06	713.86
371.25	688.12
371.45	676.41
371.65	807.48
371.84	706.84
372.04	664.71
372.24	814.51
372.44	681.10
372.63	716.20
372.83	734.93
373.03	650.67
373.22	681.10
373.42	791.10
373.62	765.36
373.81	800.46
374.01	835.57
374.21	800.46
374.40	767.70
374.60	889.40
374.79	807.48
374.99	901.11
375.19	851.96
375.38	866.00
375.58	837.91
375.78	854.30
375.97	896.43
376.17	896.43
376.37	826.21
376.56	929.19
376.76	954.94
376.95	830.89
377.15	929.19
377.35	840.25
377.54	861.32
377.74	800.46
377.93	901.11
378.13	891.74
378.33	910.47
378.52	821.53
378.72	959.62
378.91	908.13
379.11	964.30
379.31	917.49
379.50	976.00
379.70	919.83
379.89	966.64
380.09	875.36
380.28	980.68
380.48	1025.15
380.68	901.11
380.87	987.71
381.07	1006.43
381.26	1011.11
381.46	952.60
381.65	983.02
381.85	947.92
382.04	1043.88
382.24	1071.97
382.43	1149.20
382.63	1100.05
382.83	1102.39
383.02	1064.94
383.22	1043.88
383.41	1053.24
383.61	1090.69
383.80	1181.97
384.00	1062.60
384.19	1130.48
384.39	1125.80
384.58	1128.14
384.78	1146.86
384.97	1146.86
385.17	1172.61
385.36	1210.06
385.56	1186.65
385.75	1207.72
385.95	1186.65
386.14	1275.59
386.34	1224.10
386.53	1196.01
386.72	1289.64
386.92	1331.76
387.11	1212.40
387.31	1240.48
387.50	1184.31
387.70	1142.18
387.89	1303.68
388.09	1313.04
388.28	1352.83
388.48	1315.38
388.67	1348.15
388.86	1413.68
389.06	1322.40
389.25	1331.76
389.45	1352.83
389.64	1317.72
389.84	1277.93
390.03	1453.47
390.22	1385.60
390.42	1423.05
390.61	1394.96
390.81	1380.92
391.00	1401.98
391.19	1404.32
391.39	1507.30
391.58	1427.73
391.78	1465.18
391.97	1521.35
392.16	1474.54
392.36	1549.43
392.55	1423.05
392.75	1490.92
392.94	1502.62
393.13	1502.62
393.33	1341.13
393.52	1614.97
393.71	1584.54
393.91	1591.56
394.10	1680.50
394.29	1558.80
394.49	1626.67
394.68	1570.50
394.88	1612.63
395.07	1703.91
395.26	1540.07
395.46	1617.31
395.65	1617.31
395.84	1696.89
396.04	1762.42
396.23	1687.53
396.42	1795.19
396.62	1837.32
396.81	1860.73
397.00	1818.60
397.19	1886.47
397.39	1694.55
397.58	1872.43
397.77	1830.30
397.97	1874.77
398.16	1748.38
398.35	1907.54
398.55	1893.49
398.74	1961.37
398.93	1991.80
399.12	1970.73
399.32	1940.30
399.51	1858.39
399.70	1994.14
399.90	2031.58
400.09	1984.77
400.28	2017.54
400.47	2066.69
400.67	2052.65
400.86	2071.37
401.05	2087.76
401.24	2083.08
401.44	2108.82
401.63	2101.80
401.82	2207.13
402.01	2115.84
402.21	2125.21
402.40	2244.57
402.59	2167.34
402.78	2298.41
402.97	2242.23
403.17	2307.77
403.36	2209.47
403.55	2342.88
403.74	2413.09
403.93	2396.71
404.13	2506.71
404.32	2392.03
404.51	2326.49
404.70	2303.09
404.89	2338.20
405.09	2443.52
405.28	2480.97
405.47	2471.61
405.66	2579.27
405.85	2593.31
406.05	2553.52
406.24	2548.84
406.43	2523.10
406.62	2600.34
406.81	2700.98
407.00	2558.21
407.20	2574.59
407.39	2675.23
407.58	2846.09
407.77	2862.48
407.96	2752.47
408.15	2846.09
408.34	2841.41
408.54	2703.32
408.73	2799.28
408.92	2832.05
409.11	2867.16
409.30	2890.56
409.49	3000.57
409.68	2920.99
409.87	2958.44
410.07	3021.63
410.26	3124.62
410.45	3094.19
410.64	3098.87
410.83	3066.10
411.02	3119.93
411.21	3318.88
411.40	3190.15
411.59	3108.23
411.78	3295.47
411.98	3232.28
412.17	3225.26
412.36	3358.67
412.55	3346.97
412.74	3410.16
412.93	3414.84
413.12	3386.76
413.31	3581.02
413.50	3449.95
413.69	3456.97
413.88	3602.08
414.07	3454.63
414.26	3625.49
414.45	3590.38
414.64	3681.66
414.83	3660.60
415.02	3782.31
415.22	3850.18
415.41	3922.74
415.60	3932.10
415.79	3992.95
415.98	4135.73
416.17	3880.61
416.36	3997.64
416.55	3929.76
416.74	4051.47
416.93	3934.44
417.12	4210.62
417.31	4180.20
417.50	4250.41
417.69	4358.08
417.88	4365.10
418.07	4381.48
418.26	4255.09
418.45	4299.56
418.64	4409.57
418.83	4475.10
419.02	4477.44
419.21	4573.41
419.39	4568.73
419.58	4526.60
419.77	4454.04
419.96	4521.92
420.15	4706.82
420.34	4613.20
420.53	4608.51
420.72	4800.44
420.91	4732.56
421.10	4772.35
421.29	4971.30
421.48	4601.49
421.67	4887.04
421.86	4711.50
422.05	4847.25
422.24	4781.71
422.43	4936.19
422.61	4931.51
422.80	5078.96
422.99	5006.41
423.18	4983.00
423.37	4964.28
423.56	4856.61
423.75	4987.68
423.94	4844.91
424.13	4545.32
424.32	4718.52
424.50	5006.41
424.69	5144.50
424.88	5156.20
425.07	5032.15
425.26	4975.98
425.45	4954.91
425.64	4957.25
425.83	5032.15
426.01	5069.60
426.20	5111.73
426.39	5186.63
426.58	5111.73
426.77	5069.60
426.96	5153.86
427.15	5186.63
427.33	5268.55
427.52	5032.15
427.71	5303.65
427.90	5214.71
428.09	5406.64
428.28	5427.70
428.46	5261.52
428.65	5500.26
428.84	5565.79
429.03	5568.13
429.22	5401.96
429.40	5437.06
429.59	5753.04
429.78	5380.89
429.97	5413.66
430.16	5544.73
430.34	5713.25
430.53	5617.29
430.72	5767.08
430.91	5778.78
431.10	5746.02
431.28	5867.72
431.47	5795.17
431.66	6073.69
431.85	5961.34
432.03	5980.07
432.22	6036.24
432.41	5916.87
432.60	6010.50
432.79	5942.62
432.97	6143.91
433.16	6001.13
433.35	6071.35
433.54	6179.01
433.72	6317.11
433.91	6139.23
434.10	6146.25
434.28	6017.52
434.47	6179.01
434.66	6106.46
434.85	6422.43
435.03	6375.62
435.22	6193.06
435.41	6562.86
435.59	6452.86
435.78	6469.24
435.97	6534.78
436.16	6396.68
436.34	6434.13
436.53	6588.61
436.72	6724.36
436.90	6499.67
437.09	6619.04
437.28	6541.80
437.46	6855.43
437.65	6607.33
437.84	6745.42
438.02	6970.12
438.21	6871.81
438.40	6750.10
438.58	7045.01
438.77	7208.85
438.96	7045.01
439.14	7187.79
439.33	7096.50
439.52	7279.07
439.70	7227.57
439.89	7405.46
440.08	7363.33
440.26	7267.36
440.45	7316.51
440.63	7492.05
440.82	7613.76
441.01	7548.23
441.19	7543.55
441.38	7653.55
441.57	7578.65
441.75	7789.30
441.94	8060.80
442.12	8067.83
442.31	8156.77
442.50	8131.02
442.68	8156.77
442.87	8013.99
443.05	8269.11
443.24	8360.39
443.43	8184.85
443.61	8322.94
443.80	8475.08
443.98	8238.69
444.17	7817.39
444.35	8416.57
444.54	8542.96
444.73	8304.22
444.91	8475.08
445.10	8329.97
445.28	8526.57
445.47	8336.99
445.65	8336.99
445.84	8706.79
446.02	8362.73
446.21	8510.19
446.39	8531.25
446.58	8425.93
446.77	8596.79
446.95	8325.29
447.14	8500.83
447.32	8711.47
447.51	8505.51
447.69	8479.76
447.88	8711.47
448.06	8432.95
448.25	8601.47
448.43	8723.18
448.62	8554.66
448.80	8648.28
448.99	8557.00
449.17	8683.39
449.36	8699.77
449.54	8903.40
449.73	9104.68
449.91	8931.48
450.10	9034.47
450.28	9067.24
450.46	9261.50
450.65	9039.15
450.83	9104.68
451.02	9029.79
451.20	9247.46
451.39	9451.08
451.57	9202.99
451.76	9153.84
451.94	9212.35
452.13	9366.82
452.31	9401.93
452.49	9355.12
452.68	9472.15
452.86	9404.27
453.05	9345.76
453.23	9614.92
453.42	9507.26
453.60	9357.46
453.78	9596.20
453.97	9720.24
454.15	9411.29
454.34	9509.60
454.52	9877.06
454.70	9907.49
454.89	9839.61
455.07	9760.03
455.26	9781.10
455.44	10314.74
455.62	10061.96
455.81	10115.80
455.99	10040.90
456.17	10141.54
456.36	10186.01
456.54	10139.20
456.73	10448.15
456.91	10593.26
457.09	10602.63
457.28	10576.88
457.46	10487.94
457.64	10480.92
457.83	10572.20
458.01	10368.57
458.19	10569.86
458.38	10714.97
458.56	10782.85
458.74	10693.91
458.93	10787.53
459.11	10656.46
459.29	11012.22
459.48	10752.42
459.66	10693.91
459.84	11105.84
460.03	11190.10
460.21	11089.46
460.39	10885.83
460.57	10979.45
460.76	11112.86
460.94	11192.44
461.12	11286.06
461.31	11068.39
461.49	11250.96
461.67	11157.33
461.85	11431.18
462.04	11449.90
462.22	11747.15
462.40	11836.09
462.59	11508.41
462.77	11531.82
462.95	11786.94
463.13	11695.66
463.32	11515.44
463.50	11688.64
463.68	11899.28
463.86	11999.93
464.05	11920.35
464.23	11885.24
464.41	11929.71
464.59	11960.14
464.78	12393.14
464.96	12360.37
465.14	12037.38
465.32	12269.09
465.50	12233.98
465.69	12140.36
465.87	12461.01
466.05	12351.01
466.23	12236.32
466.41	12301.86
466.60	12655.28
466.78	12549.95
466.96	12175.47
467.14	12266.75
467.32	12325.26
467.51	12533.57
467.69	12271.43
467.87	12669.32
468.05	12524.21
468.23	12549.95
468.41	12372.07
468.60	12807.41
468.78	12978.27
468.96	12823.80
469.14	12954.87
469.32	13224.03
469.50	12779.32
469.69	12975.93
469.87	13348.08
470.05	13212.32
470.23	13336.37
470.41	13312.97
470.59	13397.23
470.77	13462.76
470.95	13561.06
471.14	13715.54
471.32	13186.58
471.50	13797.46
471.68	13886.40
471.86	13795.12
472.04	13778.73
472.22	13767.03
472.40	13757.67
472.58	13790.44
472.77	13914.48
472.95	14146.20
473.13	14836.66
473.31	14146.20
473.49	14019.81
473.67	14370.89
473.85	14530.05
474.03	14864.74
474.21	14764.10
474.39	14888.15
474.57	14974.75
474.75	14941.98
474.93	15103.48
475.12	14909.21
475.30	15108.16
475.48	15122.20
475.66	15264.97
475.84	15321.15
476.02	15538.82
476.20	15541.16
476.38	15660.52
476.56	16231.62
476.74	15887.56
476.92	16112.25
477.10	16156.72
477.28	16329.92
477.46	16245.66
477.64	16652.91
477.82	16648.23
478.00	17008.67
478.18	16772.28
478.36	16938.46
478.54	17408.90
478.72	17366.78
478.90	17429.97
479.08	17832.54
479.26	17865.31
479.44	17820.84
479.62	18111.07
479.80	18150.85
479.98	18132.13
480.16	18403.63
480.34	18515.98
480.52	18738.33
480.70	18991.11
480.88	18525.34
481.06	19126.86
481.24	19063.66
481.41	19337.51
481.59	19552.84
481.77	19782.21
481.95	19515.39
482.13	19826.68
482.31	19917.96
482.49	20519.48
482.67	20009.24
482.85	20704.38
483.03	20709.06
483.21	20879.92
483.39	21109.29
483.57	20933.75
483.74	21266.11
483.92	21420.58
484.10	21298.88
484.28	22134.45
484.46	21968.27
484.64	22359.14
484.82	22008.06
485.00	22625.96
485.18	23166.62
485.35	23339.82
485.53	23431.10
485.71	23302.37
485.89	23859.42
486.07	23683.88
486.25	23428.76
486.43	23566.85
486.61	23894.53
486.78	24343.91
486.96	24372.00
487.14	24622.44
487.32	25046.07
487.50	25043.73
487.68	24971.18
487.85	25518.86
488.03	25933.14
488.21	25905.05
488.39	25827.81
488.57	26288.90
488.75	26202.30
488.92	26532.31
489.10	27164.26
489.28	26930.20
489.46	27489.59
489.64	27063.61
489.81	27828.97
489.99	27868.76
490.17	27978.76
490.35	28229.20
490.53	28503.04
490.70	28704.33
490.88	28280.69
491.06	28599.01
491.24	29219.25
491.41	29020.30
491.59	29308.19
491.77	29249.67
491.95	29965.88
492.13	29933.11
492.30	30522.93
492.48	30288.87
492.66	30691.44
492.84	30595.48
493.01	30979.33
493.19	30644.63
493.37	31131.47
493.54	31590.21
493.72	31648.72
493.90	31351.48
494.08	32055.98
494.25	32402.38
494.43	32130.87
494.61	32575.58
494.79	32568.55
494.96	32816.65
495.14	33060.07
495.32	33446.26
495.49	33469.66
495.67	33621.80
495.85	33710.74
496.02	34117.99
496.20	34211.61
496.38	34190.55
496.55	34515.88
496.73	35171.23
496.91	34508.86
497.09	35012.07
497.26	35491.88
497.44	35442.73
497.62	35405.28
497.79	36006.80
497.97	35655.72
498.14	36467.89
498.32	36573.21
498.50	36732.37
498.67	36444.48
498.85	36704.28
499.03	37146.64
499.20	37041.32
499.38	37722.41
499.56	37237.92
499.73	37298.78
499.91	37787.95
500.08	38092.22
500.26	37919.02
500.44	38143.71
500.61	38211.59
500.79	37783.27
500.97	38082.86
501.14	38873.96
501.32	38782.68
501.49	38813.10
501.67	38724.16
501.84	39091.63
502.02	38756.93
502.20	39316.32
502.37	39564.42
502.55	39313.98
502.72	39861.66
502.90	39730.59
503.07	39431.01
503.25	40189.34
503.43	40430.41
503.60	40072.31
503.78	40575.53
503.95	40739.36
504.13	40559.14
504.30	40933.63
504.48	40641.06
504.65	41303.43
504.83	41687.28
505.01	41869.84
505.18	41422.80
505.36	41858.14
505.53	41748.14
505.71	42181.13
505.88	42234.97
506.06	41834.74
506.23	41968.15
506.41	41984.53
506.58	42160.07
506.76	42422.21
506.93	43086.92
507.11	42674.99
507.28	42951.17
507.46	43096.28
507.63	42869.25
507.81	43686.10
507.98	43517.58
508.16	43791.42
508.33	43978.67
508.50	43971.64
508.68	44107.40
508.85	44238.47
509.03	43941.22
509.20	44594.23
509.38	44816.58
509.55	44865.73
509.73	45106.80
509.90	45415.76
510.08	44575.50
510.25	44830.62
510.42	45036.59
510.60	45404.05
510.77	45411.07
510.95	45535.12
511.12	45832.37
511.30	45317.45
511.47	45647.47
511.64	45766.84
511.82	46068.76
511.99	46064.08
512.17	46230.26
512.34	46522.83
512.51	46525.17
512.69	46508.79
512.86	46770.93
513.04	47072.85
513.21	46614.11
513.38	46831.78
513.56	47482.45
513.73	46967.53
513.90	47480.11
514.08	47091.58
514.25	47215.63
514.43	47620.54
514.60	47430.96
514.77	47597.13
514.95	48215.04
515.12	48020.77
515.29	47826.51
515.47	48208.01
515.64	48491.22
515.81	48472.49
515.99	48692.50
516.16	48591.86
516.33	48708.89
516.51	48690.16
516.68	48971.03
516.85	48921.88
517.03	49111.46
517.20	49137.21
517.37	49359.56
517.54	49277.64
517.72	49106.78
517.89	49584.25
518.06	49661.49
518.24	49434.45
518.41	49448.50
518.58	49755.11
518.75	49759.79
518.93	49977.46
519.10	49389.98
519.27	50115.55
519.45	50064.06
519.62	50335.56
519.79	49942.35
519.96	50653.87
520.14	50475.99
520.31	50234.92
520.48	50623.45
520.65	50515.78
520.83	51100.92
521.00	50791.97
521.17	50918.35
521.34	51033.04
521.52	51384.12
521.69	51241.35
521.86	51452.00
522.03	51353.69
522.20	51508.17
522.38	51784.35
522.55	51386.46
522.72	51695.41
522.89	51601.79
523.07	52184.58
523.24	51938.83
523.41	52107.35
523.58	51531.57
523.75	52465.45
523.92	52210.33
524.10	52250.12
524.27	52364.81
524.44	52463.11
524.61	52652.69
524.78	52254.80
524.96	52268.84
525.13	52835.25
525.30	52807.17
525.47	52720.57
525.64	52633.97
525.81	52809.51
525.98	52935.90
526.16	52760.36
526.33	52629.29
526.50	53347.83
526.67	53102.07
526.84	53404.00
527.01	53209.74
527.18	53242.51
527.36	53071.65
527.53	53322.08
527.70	53490.60
527.87	53710.61
528.04	53361.87
528.21	53652.10
528.38	53846.36
528.55	53780.83
528.72	53741.04
528.89	53778.49
529.07	53663.80
529.24	53755.08
529.41	53932.96
529.58	54101.48
529.75	53860.41
529.92	54234.89
530.09	54237.23
530.26	54101.48
530.43	54398.73
530.60	54134.25
530.77	54195.10
530.94	54326.17
531.11	54377.67
531.28	54380.01
531.46	54192.76
531.63	54876.20
531.80	54695.98
531.97	54852.80
532.14	54658.53
532.31	54644.49
532.48	54951.10
532.65	54782.58
532.82	54681.94
532.99	54880.88
533.16	55110.25
533.33	55079.83
533.50	55269.41
533.67	54934.71
533.84	54813.01
534.01	55159.41
534.18	54934.71
534.35	55407.50
534.52	55456.65
534.69	55327.92
534.86	55402.82
535.03	55402.82
535.20	55367.71
535.37	55498.78
535.54	55611.13
535.71	55508.14
535.88	55447.29
536.05	55571.34
536.22	55990.30
536.38	55791.35
536.55	55789.01
536.72	55812.41
536.89	55863.91
537.06	55978.59
537.23	56020.72
537.40	55707.09
537.57	55894.33
537.74	55955.19
537.91	56114.34
538.08	56369.46
538.25	56030.08
538.42	55980.93
538.59	56137.75
538.75	56081.58
538.92	56083.92
539.09	56727.56
539.26	56353.08
539.43	56334.35
539.60	56617.56
539.77	56257.12
539.94	56514.58
540.11	56591.81
540.28	56676.07
540.44	56704.16
540.61	56942.89
540.78	56664.37
540.95	56500.53
541.12	56640.96
541.29	56516.92
541.46	56849.27
541.62	56655.01
541.79	56970.98
541.96	56519.26
542.13	56884.38
542.30	56928.85
542.47	57190.99
542.63	57235.46
542.80	57073.96
542.97	57200.35
543.14	57418.02
543.31	57352.49
543.48	57528.03
543.64	57619.31
543.81	57591.22
543.98	57535.05
544.15	57474.20
544.32	57764.42
544.48	57652.08
544.65	57443.77
544.82	57532.71
544.99	57436.75
545.16	57684.84
545.32	57446.11
545.49	57705.91
545.66	57946.98
545.83	57937.62
546.00	57769.10
546.16	57752.72
546.33	57783.15
546.50	57855.70
546.67	57862.72
546.83	57677.82
547.00	58122.52
547.17	57911.88
547.34	57813.57
547.50	58148.27
547.67	58431.47
547.84	58330.83
548.00	58216.14
548.17	58314.45
548.34	58335.51
548.51	58300.40
548.67	58429.13
548.84	58473.60
549.01	58183.38
549.18	58621.06
549.34	58471.26
549.51	58480.63
549.68	58595.31
549.84	58443.18
550.01	58623.40
550.18	58522.76
550.34	58506.37
550.51	58609.35
550.68	58740.42
550.84	58681.91
551.01	58997.88
551.18	58440.84
551.34	58768.51
551.51	58777.87
551.68	58759.15
551.84	58438.50
552.01	58595.31
552.18	58876.18
552.34	58632.76
552.51	58787.24
552.68	58719.36
552.84	58656.17
553.01	59079.80
553.18	59161.72
553.34	59161.72
553.51	59042.35
553.67	59025.97
553.84	59288.11
554.01	59112.57
554.17	59147.68
554.34	59145.34
554.51	59395.77
554.67	59400.46
554.84	59260.02
555.00	59297.47
555.17	58958.09
555.33	59208.53
555.50	59234.28
555.67	59152.36
555.83	59147.68
556.00	59323.22
556.16	59627.49
556.33	59482.37
556.50	59533.87
556.66	59664.94
556.83	59363.01
556.99	59674.30
557.16	59805.37
557.32	59770.26
557.49	59732.81
557.65	59494.08
557.82	59456.63
557.98	59700.04
558.15	59791.33
558.32	59613.44
558.48	59657.91
558.65	59480.03
558.81	59676.64
558.98	59826.43
559.14	59873.24
559.31	59819.41
559.47	59746.86
559.64	59952.82
559.80	59922.40
559.97	59788.98
560.13	59898.99
560.30	60018.36
560.46	59770.26
560.63	59786.64
560.79	59861.54
560.96	59856.86
561.12	59948.14
561.29	60074.53
561.45	59994.95
561.61	59999.63
561.78	60261.77
561.94	59924.74
562.11	60006.65
562.27	60126.02
562.44	60184.54
562.60	60128.36
562.77	60374.12
562.93	59894.31
563.10	60378.80
563.26	60058.15
563.42	60360.08
563.59	60191.56
563.75	60238.37
563.92	60371.78
564.08	60313.26
564.24	60385.82
564.41	60245.39
564.57	60301.56
564.74	60261.77
564.90	60186.88
565.07	60301.56
565.23	60486.46
565.39	60154.11
565.56	60453.70
565.72	60444.33
565.88	60313.26
566.05	60310.92
566.21	60327.31
566.38	60425.61
566.54	60505.19
566.70	60533.28
566.87	60804.78
567.03	60544.98
567.19	60671.37
567.36	60645.62
567.52	60444.33
567.68	60678.39
567.85	60662.00
568.01	60654.98
568.17	60547.32
568.34	60647.96
568.50	60601.15
568.66	60537.96
568.83	60690.09
568.99	60463.06
569.15	60556.68
569.32	60568.38
569.48	60757.97
569.64	60786.05
569.81	60629.24
569.97	60596.47
570.13	60760.31
570.30	60772.01
570.46	60580.09
570.62	60718.18
570.78	60629.24
570.95	60743.92
571.11	60877.33
571.27	60678.39
571.43	60753.29
571.60	61041.17
571.76	60849.25
571.92	60764.99
572.09	60589.45
572.25	60846.91
572.41	60961.59
572.57	60683.07
572.74	61010.74
572.90	60907.76
573.06	60832.86
573.22	60626.90
573.38	60917.12
573.55	60830.52
573.71	61183.94
573.87	60893.72
574.03	60624.56
574.20	60977.98
574.36	60727.54
574.52	60938.19
574.68	61160.54
574.84	61146.50
575.01	61085.64
575.17	60905.42
575.33	60743.92
575.49	60750.94
575.65	60884.36
575.82	61155.86
575.98	60999.04
576.14	61186.28
576.30	60788.39
576.46	60921.80
576.62	60931.17
576.79	60975.64
576.95	60835.20
577.11	61162.88
577.27	61090.32
577.43	60963.93
577.59	60779.03
577.75	60853.93
577.92	60851.59
578.08	60910.10
578.24	60966.27
578.40	61111.39
578.56	61153.52
578.72	61001.38
578.88	60975.64
579.04	61024.79
579.21	60924.14
579.37	61382.89
579.53	61226.07
579.69	60985.00
579.85	60903.08
580.01	61073.94
580.17	61034.15
580.33	61045.85
580.49	61085.64
580.65	61160.54
580.82	61015.43
580.98	60994.36
581.14	60739.24
581.30	61244.80
581.46	61029.47
581.62	61315.01
581.78	61120.75
581.94	61322.04
582.10	61069.26
582.26	61268.20
582.42	60973.30
582.58	61151.18
582.74	61148.84
582.90	61062.24
583.06	61139.47
583.22	61132.45
583.38	61097.34
583.54	61066.92
583.70	60987.34
583.86	61298.63
584.02	60903.08
584.18	61254.16
584.34	61085.64
584.50	61219.05
584.66	61256.50
584.82	60905.42
584.98	61429.70
585.14	61366.51
585.30	61286.93
585.46	61446.08
585.62	61324.38
585.78	61289.27
585.94	60907.76
586.10	61265.86
586.26	61333.74
586.42	61247.14
586.58	61190.97
586.74	61298.63
586.90	61139.47
587.06	61219.05
587.22	61490.55
587.38	61179.26
587.54	61343.10
587.70	61488.21
587.86	61336.08
588.02	61284.59
588.18	61439.06
588.34	61375.87
588.49	61345.44
