SpectraSuite Data File
++++++++++++++++++++++++++++++++++++
Date: Fri Oct 25 10:47:27 EDT 2013
User: price-jones
Dark Spectrum Present: No
Reference Spectrum Present: No
Number of Sampled Component Spectra: 1
Spectrometers: USB2+H05261
Integration Time (usec): 100000 (USB2+H05261)
Spectra Averaged: 1 (USB2+H05261)
Boxcar Smoothing: 0 (USB2+H05261)
Correct for Electrical Dark: No (USB2+H05261)
Strobe/Lamp Enabled: No (USB2+H05261)
Correct for Detector Non-linearity: No (USB2+H05261)
Correct for Stray Light: No (USB2+H05261)
Number of Pixels in Processed Spectrum: 2048
>>>>>Begin Processed Spectral Data<<<<<
365.73	53.83
365.92	53.83
366.12	53.83
366.32	84.26
366.52	37.45
366.72	46.81
366.91	70.22
367.11	44.47
367.31	70.22
367.51	0.00
367.70	58.51
367.90	65.54
368.10	39.79
368.30	128.73
368.49	32.77
368.69	86.60
368.89	21.06
369.09	70.22
369.28	9.36
369.48	110.01
369.68	60.85
369.87	121.71
370.07	124.05
370.27	79.58
370.47	217.67
370.66	332.36
370.86	379.17
371.06	451.72
371.25	524.28
371.45	362.78
371.65	524.28
371.84	407.25
372.04	346.40
372.24	486.83
372.44	440.02
372.63	503.22
372.83	524.28
373.03	400.23
373.22	493.85
373.42	535.98
373.62	477.47
373.81	582.79
374.01	512.58
374.21	477.47
374.40	482.15
374.60	456.40
374.79	554.71
374.99	519.60
375.19	573.43
375.38	500.87
375.58	545.34
375.78	599.18
375.97	585.13
376.17	638.97
376.37	624.92
376.56	526.62
376.76	613.22
376.95	568.75
377.15	589.82
377.35	657.69
377.54	648.33
377.74	587.47
377.93	596.84
378.13	634.29
378.33	622.58
378.52	603.86
378.72	573.43
378.91	683.44
379.11	615.56
379.31	533.64
379.50	550.03
379.70	655.35
379.89	622.58
380.09	608.54
380.28	589.82
380.48	594.50
380.68	695.14
380.87	697.48
381.07	671.73
381.26	685.78
381.46	690.46
381.65	620.24
381.85	643.65
382.04	692.80
382.24	690.46
382.43	660.03
382.63	662.37
382.83	615.56
383.02	723.23
383.22	657.69
383.41	613.22
383.61	699.82
383.80	718.54
384.00	702.16
384.19	763.01
384.39	791.10
384.58	758.33
384.78	755.99
384.97	753.65
385.17	706.84
385.36	741.95
385.56	692.80
385.75	741.95
385.95	791.10
386.14	777.06
386.34	784.08
386.53	685.78
386.72	739.61
386.92	851.96
387.11	807.48
387.31	784.08
387.50	779.40
387.70	847.27
387.89	823.87
388.09	866.00
388.28	854.30
388.48	840.25
388.67	844.93
388.86	828.55
389.06	887.06
389.25	894.08
389.45	887.06
389.64	926.85
389.84	938.55
390.03	912.81
390.22	919.83
390.42	882.38
390.61	840.25
390.81	861.32
391.00	922.17
391.19	938.55
391.39	936.21
391.58	968.98
391.78	943.24
391.97	987.71
392.16	994.73
392.36	1020.47
392.55	994.73
392.75	961.96
392.94	908.13
393.13	922.17
393.33	959.62
393.52	1034.52
393.71	966.64
393.91	994.73
394.10	889.40
394.29	1060.26
394.49	1071.97
394.68	1114.10
394.88	1074.31
395.07	1160.91
395.26	1046.22
395.46	1086.01
395.65	1160.91
395.84	1083.67
396.04	1163.25
396.23	1018.13
396.42	1043.88
396.62	1048.56
396.81	1013.45
397.00	1081.33
397.19	1135.16
397.39	1191.33
397.58	1256.87
397.77	1240.48
397.97	1233.46
398.16	1273.25
398.35	1231.12
398.55	1310.70
398.74	1247.51
398.93	1338.79
399.12	1299.00
399.32	1212.40
399.51	1287.29
399.70	1334.11
399.90	1261.55
400.09	1277.93
400.28	1446.45
400.47	1404.32
400.67	1392.62
400.86	1420.71
401.05	1392.62
401.24	1537.73
401.44	1481.56
401.63	1446.45
401.82	1418.36
402.01	1404.32
402.21	1448.79
402.40	1409.00
402.59	1509.65
402.78	1462.83
402.97	1495.60
403.17	1537.73
403.36	1526.03
403.55	1493.26
403.74	1652.42
403.93	1605.61
404.13	1678.16
404.32	1591.56
404.51	1572.84
404.70	1593.90
404.89	1591.56
405.09	1652.42
405.28	1664.12
405.47	1706.25
405.66	1682.85
405.85	1753.06
406.05	1647.74
406.24	1722.63
406.43	1741.36
406.62	1785.83
406.81	1820.94
407.00	1661.78
407.20	1750.72
407.39	1708.59
407.58	1692.21
407.77	1863.07
407.96	2043.29
408.15	1834.98
408.34	1870.09
408.54	1930.94
408.73	1944.99
408.92	1921.58
409.11	1980.09
409.30	1966.05
409.49	2001.16
409.68	2040.95
409.87	1975.41
410.07	1994.14
410.26	1966.05
410.45	2118.18
410.64	2169.68
410.83	2186.06
411.02	2127.55
411.21	2253.94
411.40	2209.47
411.59	2352.24
411.78	2275.00
411.98	2284.36
412.17	2207.13
412.36	2413.09
412.55	2340.54
412.74	2377.98
412.93	2286.70
413.12	2307.77
413.31	2576.93
413.50	2424.80
413.69	2455.22
413.88	2532.46
414.07	2476.29
414.26	2609.70
414.45	2574.59
414.64	2576.93
414.83	2553.52
415.02	2675.23
415.22	2537.14
415.41	2588.63
415.60	2658.85
415.79	2686.94
415.98	2848.43
416.17	2733.75
416.36	2883.54
416.55	2768.85
416.74	2820.35
416.93	2782.90
417.12	2911.63
417.31	2789.92
417.50	2923.33
417.69	3070.78
417.88	3047.38
418.07	2902.26
418.26	2972.48
418.45	3012.27
418.64	3124.62
418.83	3183.13
419.02	2972.48
419.21	3150.36
419.39	3070.78
419.58	3208.87
419.77	3108.23
419.96	3194.83
420.15	3201.85
420.34	3183.13
420.53	3117.59
420.72	3248.66
420.91	3276.75
421.10	3375.05
421.29	3241.64
421.48	3253.34
421.67	3353.99
421.86	3346.97
422.05	3300.16
422.24	3281.43
422.43	3346.97
422.61	3358.67
422.80	3314.20
422.99	3527.19
423.18	3414.84
423.37	3501.44
423.56	3527.19
423.75	3475.70
423.94	3414.84
424.13	3225.26
424.32	3356.33
424.50	3581.02
424.69	3435.91
424.88	3618.47
425.07	3382.07
425.26	3442.93
425.45	3468.67
425.64	3463.99
425.83	3356.33
426.01	3442.93
426.20	3515.48
426.39	3471.01
426.58	3536.55
426.77	3506.12
426.96	3503.78
427.15	3543.57
427.33	3569.32
427.52	3669.96
427.71	3667.62
427.90	3681.66
428.09	3838.48
428.28	3632.51
428.46	3681.66
428.65	3763.58
428.84	3779.97
429.03	3758.90
429.22	3618.47
429.40	3733.15
429.59	3716.77
429.78	3564.64
429.97	3597.40
430.16	3665.28
430.34	3719.11
430.53	3864.22
430.72	3819.75
430.91	3803.37
431.10	3857.20
431.28	3911.04
431.47	4011.68
431.66	4051.47
431.85	3906.35
432.03	4056.15
432.22	4231.69
432.41	4098.28
432.60	4166.15
432.79	4072.53
432.97	4227.01
433.16	4166.15
433.35	4163.81
433.54	4283.18
433.72	4198.92
433.91	4067.85
434.10	4170.83
434.28	4257.43
434.47	4301.90
434.66	4369.78
434.85	4449.36
435.03	4440.00
435.22	4322.97
435.41	4514.89
435.59	4440.00
435.78	4447.02
435.97	4428.29
436.16	4475.10
436.34	4542.98
436.53	4517.23
436.72	4596.81
436.90	4557.02
437.09	4535.96
437.28	4601.49
437.46	4552.34
437.65	4493.83
437.84	4535.96
438.02	4613.20
438.21	4627.24
438.40	4489.15
438.58	4718.52
438.77	4875.34
438.96	4772.35
439.14	4727.88
439.33	4823.84
439.52	4964.28
439.70	4837.89
439.89	4950.23
440.08	5011.09
440.26	5029.81
440.45	5053.22
440.63	5137.48
440.82	5277.91
441.01	5144.50
441.19	5313.02
441.38	5364.51
441.57	5282.59
441.75	5481.53
441.94	5467.49
442.12	5537.71
442.31	5558.77
442.50	5453.45
442.68	5411.32
442.87	5668.78
443.05	5600.90
443.24	5757.72
443.43	5565.79
443.61	5746.02
443.80	5762.40
443.98	5481.53
444.17	5603.24
444.35	5685.16
444.54	5811.55
444.73	5619.63
444.91	5666.44
445.10	5715.59
445.28	5769.42
445.47	5579.84
445.65	5769.42
445.84	5610.26
446.02	5748.36
446.21	5717.93
446.39	5790.49
446.58	5717.93
446.77	5797.51
446.95	5764.74
447.14	5783.46
447.32	5900.49
447.51	5865.38
447.69	5717.93
447.88	6010.50
448.06	5839.64
448.25	5813.89
448.43	5944.96
448.62	5944.96
448.80	5867.72
448.99	6017.52
449.17	5891.13
449.36	5970.71
449.54	6129.86
449.73	6003.47
449.91	6134.54
450.10	6211.78
450.28	6289.02
450.46	6277.32
450.65	6267.95
450.83	6204.76
451.02	6211.78
451.20	6331.15
451.39	6342.85
451.57	6401.37
451.76	6190.72
451.94	6387.32
452.13	6235.19
452.31	6375.62
452.49	6125.18
452.68	6251.57
452.86	6382.64
453.05	6459.88
453.23	6520.73
453.42	6382.64
453.60	6307.74
453.78	6654.14
453.97	6462.22
454.15	6569.88
454.34	6445.84
454.52	6506.69
454.70	6483.28
454.89	6820.32
455.07	6820.32
455.26	6743.08
455.44	6778.19
455.62	6834.36
455.81	6799.26
455.99	6885.86
456.17	6850.75
456.36	7077.78
456.54	6963.09
456.73	6970.12
456.91	7124.59
457.09	7035.65
457.28	7180.76
457.46	7155.02
457.64	7293.11
457.83	7272.04
458.01	7150.34
458.19	7255.66
458.38	7122.25
458.56	7288.43
458.74	7239.28
458.93	7136.29
459.11	7307.15
459.29	7262.68
459.48	7400.77
459.66	7377.37
459.84	7428.86
460.03	7527.16
460.21	7389.07
460.39	7569.29
460.57	7304.81
460.76	7698.02
460.94	7688.66
461.12	7435.88
461.31	7648.87
461.49	7585.68
461.67	7515.46
461.85	7758.88
462.04	7653.55
462.22	7943.78
462.40	7955.48
462.59	7793.98
462.77	7749.51
462.95	7969.52
463.13	7723.77
463.32	7878.24
463.50	8021.02
463.68	8175.49
463.86	7978.89
464.05	7992.93
464.23	7777.60
464.41	7887.61
464.59	7913.35
464.78	8070.17
464.96	7845.48
465.14	7988.25
465.32	8140.38
465.50	8138.04
465.69	8166.13
465.87	8379.12
466.05	8182.51
466.23	8084.21
466.41	8315.92
466.60	8311.24
466.78	8252.73
466.96	8182.51
467.14	8341.67
467.32	8304.22
467.51	8514.87
467.69	8072.51
467.87	8372.10
468.05	8446.99
468.23	8383.80
468.41	8280.82
468.60	8418.91
468.78	8650.62
468.96	8397.84
469.14	8390.82
469.32	8557.00
469.50	8379.12
469.69	8685.73
469.87	8823.82
470.05	8662.32
470.23	8791.05
470.41	8833.18
470.59	8875.31
470.77	8788.71
470.95	8856.59
471.14	8919.78
471.32	8730.20
471.50	9060.21
471.68	9125.75
471.86	9240.44
472.04	9156.18
472.22	9369.16
472.40	9252.14
472.58	9207.67
472.77	9315.33
472.95	9516.62
473.13	9544.70
473.31	9430.02
473.49	9530.66
473.67	9458.10
473.85	9671.09
474.03	9671.09
474.21	9720.24
474.39	9860.68
474.57	9680.46
474.75	9827.91
474.93	9741.31
475.12	9802.16
475.30	10087.71
475.48	10001.11
475.66	10146.22
475.84	10171.97
476.02	10193.03
476.20	10274.95
476.38	10094.73
476.56	10539.43
476.74	10523.05
476.92	10380.28
477.10	10611.99
477.28	10579.22
477.46	10785.19
477.64	10614.33
477.82	10817.96
478.00	11026.26
478.18	11304.79
478.36	11321.17
478.54	11314.15
478.72	11349.26
478.90	11435.86
479.08	11513.10
479.26	11552.88
479.44	11655.87
479.62	11971.84
479.80	11927.37
479.98	12013.97
480.16	12131.00
480.34	12028.01
480.52	12276.11
480.70	12348.67
480.88	12355.69
481.06	12320.58
481.24	12156.74
481.41	12510.16
481.59	12760.60
481.77	12987.63
481.95	12746.56
482.13	12999.34
482.31	12922.10
482.49	13132.75
482.67	13245.09
482.85	13350.42
483.03	13598.51
483.21	13851.29
483.39	13774.05
483.57	13635.96
483.74	13692.13
483.92	14054.92
484.10	14059.60
484.28	14413.02
484.46	14340.46
484.64	14799.21
484.82	14368.55
485.00	14525.36
485.18	14703.25
485.35	14855.38
485.53	14618.99
485.71	14913.89
485.89	15281.36
486.07	14949.00
486.25	15529.45
486.43	15475.62
486.61	15330.51
486.78	15693.29
486.96	15627.76
487.14	15964.79
487.32	15974.16
487.50	16191.83
487.68	16135.65
487.85	16673.98
488.03	16744.19
488.21	16781.64
488.39	16737.17
488.57	17025.06
488.75	16910.37
488.92	17465.08
489.10	17539.97
489.28	17535.29
489.46	17568.06
489.64	17556.36
489.81	18066.60
489.99	17972.97
490.17	18223.41
490.35	18520.66
490.53	18192.98
490.70	18448.10
490.88	18637.69
491.06	18757.05
491.24	18518.32
491.41	18944.30
491.59	18682.16
491.77	19185.37
491.95	19152.60
492.13	19190.05
492.30	19599.65
492.48	19410.06
492.66	19665.18
492.84	19690.93
493.01	20325.21
493.19	19644.12
493.37	20240.95
493.54	20304.15
493.72	20397.77
493.90	20479.69
494.08	20496.07
494.25	20851.83
494.43	20676.29
494.61	21184.19
494.79	21025.03
494.96	20954.82
495.14	21043.76
495.32	21291.85
495.49	21579.74
495.67	21561.02
495.85	21710.81
496.02	21788.05
496.20	21713.15
496.38	22221.05
496.55	22223.39
496.73	22712.56
496.91	22595.53
497.09	22640.00
497.26	22764.05
497.44	22946.61
497.62	22981.72
497.79	22951.29
497.97	22806.18
498.14	23269.61
498.32	23197.05
498.50	23414.72
498.67	23440.47
498.85	23323.44
499.03	23906.23
499.20	23821.97
499.38	23648.77
499.56	23978.79
499.73	23967.09
499.91	24009.22
500.08	24219.86
500.26	24233.91
500.44	24252.63
500.61	24570.94
500.79	24556.90
500.97	24346.25
501.14	24886.92
501.32	24652.86
501.49	24533.50
501.67	24851.81
501.84	25097.56
502.02	24996.92
502.20	25469.71
502.37	25282.47
502.55	25263.74
502.72	25488.43
502.90	25376.09
503.07	25387.79
503.25	25598.44
503.43	25568.01
503.60	25659.29
503.78	25603.12
503.95	25722.49
504.13	25947.18
504.30	26504.23
504.48	25930.80
504.65	26429.33
504.83	26410.60
505.01	26749.98
505.18	26548.70
505.36	26565.08
505.53	26656.36
505.71	27133.83
505.88	26923.18
506.06	26906.80
506.23	26927.86
506.41	27152.55
506.58	26953.61
506.76	27164.26
506.93	27707.26
507.11	27590.24
507.28	27662.79
507.46	27470.87
507.63	27454.48
507.81	27728.33
507.98	27646.41
508.16	27971.74
508.33	27615.98
508.50	28168.35
508.68	27843.01
508.85	28411.76
509.03	28587.30
509.20	28531.13
509.38	28849.44
509.55	28781.57
509.73	28931.36
509.90	28751.14
510.08	28926.68
510.25	28905.62
510.42	29240.31
510.60	28545.17
510.77	28975.83
510.95	29436.92
511.12	29034.35
511.30	29153.71
511.47	29731.83
511.64	29652.25
511.82	29537.56
511.99	29427.56
512.17	29722.46
512.34	29399.47
512.51	30120.35
512.69	30291.21
512.86	29816.08
513.04	30064.18
513.21	30066.52
513.38	30487.82
513.56	30188.23
513.73	30106.31
513.90	30459.73
514.08	30450.37
514.25	30258.45
514.43	30520.59
514.60	30845.92
514.77	30761.66
514.95	31171.25
515.12	30719.53
515.29	30881.03
515.47	31250.83
515.64	31206.36
515.81	31147.85
515.99	31178.28
516.16	31489.57
516.33	31246.15
516.51	31171.25
516.68	31257.85
516.85	31058.91
517.03	31386.58
517.20	31604.25
517.37	31730.64
517.54	31948.31
517.72	31393.61
517.89	31985.76
518.06	31751.71
518.24	31901.50
518.41	31814.90
518.58	31763.41
518.75	31896.82
518.93	32533.45
519.10	32105.13
519.27	32491.32
519.45	32645.79
519.62	32376.63
519.79	32776.86
519.96	32753.46
520.14	32886.87
520.31	32739.41
520.48	32655.15
520.65	32849.42
520.83	33259.01
521.00	33446.26
521.17	33521.15
521.34	33364.34
521.52	33055.39
521.69	33226.24
521.86	33844.15
522.03	33720.10
522.20	33268.37
522.38	33893.30
522.55	33535.20
522.72	33694.35
522.89	33750.52
523.07	34122.67
523.24	34012.66
523.41	34176.50
523.58	33734.14
523.75	34415.24
523.92	34342.68
524.10	34520.56
524.27	34197.57
524.44	34553.33
524.61	34672.70
524.78	34756.96
524.96	34382.47
525.13	34953.56
525.30	34939.52
525.47	35115.06
525.64	35028.46
525.81	34773.34
525.98	34724.19
526.16	34721.85
526.33	35101.01
526.50	35321.02
526.67	34962.92
526.84	35220.38
527.01	35014.41
527.18	34962.92
527.36	35175.91
527.53	35487.20
527.70	35852.33
527.87	35992.76
528.04	35466.14
528.21	35742.32
528.38	35700.19
528.55	36088.72
528.72	35908.50
528.89	35873.39
529.07	36306.39
529.24	35674.45
529.41	36093.40
529.58	36304.05
529.75	36306.39
529.92	36503.00
530.09	36175.32
530.26	36730.03
530.43	36194.04
530.60	36294.69
530.77	36505.34
530.94	36978.12
531.11	36371.92
531.28	36870.46
531.46	36945.36
531.63	37057.70
531.80	36854.08
531.97	37069.40
532.14	36863.44
532.31	36641.09
532.48	36971.10
532.65	37184.09
532.82	37120.90
532.99	37123.24
533.16	36978.12
533.33	37275.37
533.50	37631.13
533.67	37909.66
533.84	37418.14
534.01	37364.31
534.18	37247.29
534.35	37778.59
534.52	37626.45
534.69	37383.04
534.86	37762.20
535.03	37759.86
535.20	37710.71
535.37	38148.39
535.54	38195.20
535.71	38319.25
535.88	38253.72
536.05	38036.05
536.22	38148.39
536.38	38082.86
536.55	37956.47
536.72	37933.06
536.89	37837.10
537.06	38190.52
537.23	38504.15
537.40	38511.17
537.57	38265.42
537.74	38361.38
537.91	38679.69
538.08	38422.23
538.25	38256.06
538.42	38864.60
538.59	39166.52
538.75	38368.40
538.92	38796.72
539.09	38656.29
539.26	38679.69
539.43	39173.55
539.60	39007.37
539.77	39225.04
539.94	38951.20
540.11	38944.17
540.28	38733.53
540.44	39194.61
540.61	38983.96
540.78	38925.45
540.95	39232.06
541.12	39124.40
541.29	38927.79
541.46	38944.17
541.62	39412.28
541.79	39831.24
541.96	39035.45
542.13	39112.69
542.30	39377.17
542.47	39620.59
542.63	39533.99
542.80	39412.28
542.97	40072.31
543.14	40465.52
543.31	40215.08
543.48	40006.78
543.64	40542.76
543.81	40210.40
543.98	40388.28
544.15	40187.00
544.32	40643.40
544.48	40538.08
544.65	40210.40
544.82	40376.58
544.99	40252.53
545.16	40275.94
545.32	40292.32
545.49	40573.19
545.66	40669.15
545.83	40964.06
546.00	40676.17
546.16	40830.65
546.33	40451.48
546.50	40575.53
546.67	40905.54
546.83	40346.15
547.00	40713.62
547.17	40624.68
547.34	40708.94
547.50	41057.68
547.67	40989.80
547.84	40884.48
548.00	41209.81
548.17	41404.08
548.34	41006.19
548.51	41083.42
548.67	41265.99
548.84	41471.95
549.01	41486.00
549.18	41034.27
549.34	41237.90
549.51	41759.84
549.68	41432.16
549.84	41551.53
550.01	41476.63
550.18	41366.63
550.34	41972.83
550.51	41771.54
550.68	41284.71
550.84	41212.15
551.01	41797.29
551.18	41621.75
551.34	41336.20
551.51	41823.03
551.68	41808.99
551.84	42066.45
552.01	41745.80
552.18	41851.12
552.34	41713.03
552.51	42068.79
552.68	42160.07
552.84	42099.22
553.01	42267.73
553.18	42075.81
553.34	41869.84
553.51	42012.62
553.67	42174.11
553.84	42298.16
554.01	42005.59
554.17	42440.93
554.34	42494.77
554.51	42485.40
554.67	42618.81
554.84	42321.57
555.00	42040.70
555.17	42190.50
555.33	42927.77
555.50	42499.45
555.67	42403.49
555.83	42447.96
556.00	42574.34
556.16	42258.37
556.33	42178.79
556.50	42780.31
556.66	42773.29
556.83	42188.16
556.99	42651.58
557.16	42808.40
557.32	43117.35
557.49	42822.44
557.65	42871.59
557.82	42373.06
557.98	43100.97
558.15	42759.25
558.32	42770.95
558.48	42920.74
558.65	42838.83
558.81	42787.33
558.98	43260.12
559.14	42845.85
559.31	42887.98
559.47	42892.66
559.64	43306.93
559.80	43363.11
559.97	43601.84
560.13	43107.99
560.30	43175.86
560.46	43398.21
560.63	43061.18
560.79	42932.45
560.96	43463.75
561.12	43503.54
561.29	43213.31
561.45	43255.44
561.61	43164.16
561.78	43194.59
561.94	43358.42
562.11	43058.84
562.27	43449.70
562.44	43608.86
562.60	43566.73
562.77	43555.03
562.93	43199.27
563.10	43318.64
563.26	43070.54
563.42	43482.47
563.59	43241.40
563.75	43459.07
563.92	43892.07
564.08	43267.14
564.24	43887.39
564.41	43433.32
564.57	43599.50
564.74	44091.01
564.90	43536.30
565.07	43655.67
565.23	43643.97
565.39	43515.24
565.56	43498.86
565.72	43569.07
565.88	43552.69
566.05	43704.82
566.21	43768.02
566.38	43976.33
566.54	43615.88
566.70	43878.02
566.87	44236.12
567.03	43814.83
567.19	44126.12
567.36	43707.16
567.52	44081.65
567.68	43962.28
567.85	43704.82
568.01	43838.23
568.17	43779.72
568.34	43442.68
568.50	44086.33
568.66	43487.15
568.83	43903.77
568.99	43435.66
569.15	43746.95
569.32	43962.28
569.48	44072.29
569.64	44191.65
569.81	44296.98
569.97	43643.97
570.13	44044.20
570.30	43875.68
570.46	43892.07
570.62	43501.20
570.78	43878.02
570.95	43489.49
571.11	43793.76
571.27	44158.89
571.43	44636.36
571.60	43739.93
571.76	43782.06
571.92	44322.72
572.09	43861.64
572.25	43765.68
572.41	43924.83
572.57	44311.02
572.74	44421.03
572.90	44060.58
573.06	44109.74
573.22	44236.12
573.38	44009.09
573.55	43899.09
573.71	43999.73
573.87	44165.91
574.03	43950.58
574.20	43938.88
574.36	44158.89
574.52	44540.39
574.68	44385.92
574.84	44451.45
575.01	44121.44
575.17	44311.02
575.33	43866.32
575.49	44058.24
575.65	44669.12
575.82	44629.34
575.98	44243.15
576.14	44453.79
576.30	43894.41
576.46	44147.18
576.62	43454.39
576.79	43959.94
576.95	43622.90
577.11	44004.41
577.27	43941.22
577.43	44552.10
577.59	44210.38
577.75	43936.54
577.92	43966.96
578.08	43922.49
578.24	44081.65
578.40	44083.99
578.56	44245.49
578.72	44142.50
578.88	44563.80
579.04	44325.07
579.21	44215.06
579.37	44123.78
579.53	44664.44
579.69	44027.82
579.85	43840.57
580.01	44205.70
580.17	44835.30
580.33	44762.75
580.49	44729.98
580.65	44332.09
580.82	44233.78
580.98	44332.09
581.14	44102.71
581.30	44516.99
581.46	44062.93
581.62	44177.61
581.78	44156.55
581.94	44346.13
582.10	44296.98
582.26	44542.74
582.42	44212.72
582.58	44285.28
582.74	43838.23
582.90	44224.42
583.06	44184.63
583.22	44683.17
583.38	44722.96
583.54	44591.89
583.70	44416.35
583.86	44615.29
584.02	44353.15
584.18	44458.48
584.34	44453.79
584.50	44205.70
584.66	44339.11
584.82	44121.44
584.98	44608.27
585.14	44123.78
585.30	44416.35
585.46	44484.22
585.62	43927.17
585.78	44421.03
585.94	43749.29
586.10	44369.54
586.26	44140.16
586.42	44821.26
586.58	44704.23
586.74	44533.37
586.90	44086.33
587.06	44208.04
587.22	44357.83
587.38	44172.93
587.54	44547.42
587.70	44456.14
587.86	44935.95
588.02	44666.78
588.18	44900.84
588.34	44460.82
588.49	44425.71
588.65	43906.11
588.81	44388.26
588.97	44069.95
589.13	44339.11
589.29	44025.48
589.45	44250.17
589.61	44673.81
589.77	44694.87
589.93	44582.52
590.08	45006.16
590.24	44662.10
590.40	44760.40
