SpectraSuite Data File
++++++++++++++++++++++++++++++++++++
Date: Fri Oct 25 11:33:37 EDT 2013
User: price-jones
Dark Spectrum Present: No
Reference Spectrum Present: No
Number of Sampled Component Spectra: 1
Spectrometers: USB2+H05261
Integration Time (usec): 100000 (USB2+H05261)
Spectra Averaged: 1 (USB2+H05261)
Boxcar Smoothing: 0 (USB2+H05261)
Correct for Electrical Dark: No (USB2+H05261)
Strobe/Lamp Enabled: No (USB2+H05261)
Correct for Detector Non-linearity: No (USB2+H05261)
Correct for Stray Light: No (USB2+H05261)
Number of Pixels in Processed Spectrum: 2048
>>>>>Begin Processed Spectral Data<<<<<
365.73	292.57
365.92	292.57
366.12	292.57
366.32	194.26
366.52	145.11
366.72	140.43
366.91	147.45
367.11	170.86
367.31	184.90
367.51	198.95
367.70	191.92
367.90	180.22
368.10	154.48
368.30	145.11
368.49	191.92
368.69	217.67
368.89	175.54
369.09	117.03
369.28	196.60
369.48	227.03
369.68	208.31
369.87	217.67
370.07	231.71
370.27	222.35
370.47	332.36
370.66	512.58
370.86	629.60
371.06	566.41
371.25	547.69
371.45	535.98
371.65	528.96
371.84	557.05
372.04	589.82
372.24	528.96
372.44	620.24
372.63	655.35
372.83	559.39
373.03	550.03
373.22	620.24
373.42	613.22
373.62	615.56
373.81	650.67
374.01	704.50
374.21	615.56
374.40	599.18
374.60	662.37
374.79	678.76
374.99	648.33
375.19	631.94
375.38	674.07
375.58	636.63
375.78	655.35
375.97	688.12
376.17	763.01
376.37	648.33
376.56	697.48
376.76	704.50
376.95	662.37
377.15	671.73
377.35	695.14
377.54	723.23
377.74	725.57
377.93	615.56
378.13	730.25
378.33	709.18
378.52	774.72
378.72	688.12
378.91	697.48
379.11	699.82
379.31	753.65
379.50	697.48
379.70	737.27
379.89	706.84
380.09	702.16
380.28	793.44
380.48	718.54
380.68	650.67
380.87	727.91
381.07	716.20
381.26	732.59
381.46	748.97
381.65	685.78
381.85	760.67
382.04	730.25
382.24	826.21
382.43	748.97
382.63	692.80
382.83	788.76
383.02	814.51
383.22	842.59
383.41	849.61
383.61	837.91
383.80	802.80
384.00	837.91
384.19	856.64
384.39	837.91
384.58	814.51
384.78	732.59
384.97	830.89
385.17	800.46
385.36	805.14
385.56	866.00
385.75	842.59
385.95	894.08
386.14	870.68
386.34	863.66
386.53	875.36
386.72	903.45
386.92	922.17
387.11	851.96
387.31	943.24
387.50	877.70
387.70	858.98
387.89	957.28
388.09	861.32
388.28	861.32
388.48	959.62
388.67	964.30
388.86	1001.75
389.06	903.45
389.25	936.21
389.45	997.07
389.64	987.71
389.84	961.96
390.03	943.24
390.22	896.43
390.42	976.00
390.61	896.43
390.81	954.94
391.00	961.96
391.19	1018.13
391.39	1008.77
391.58	1029.84
391.78	1048.56
391.97	1008.77
392.16	1015.79
392.36	968.98
392.55	1149.20
392.75	1081.33
392.94	1011.11
393.13	1107.07
393.33	999.41
393.52	1104.73
393.71	1188.99
393.91	1053.24
394.10	1149.20
394.29	1184.31
394.49	1139.84
394.68	1123.46
394.88	1088.35
395.07	1081.33
395.26	1093.03
395.46	1114.10
395.65	1132.82
395.84	1179.63
396.04	1205.38
396.23	1125.80
396.42	1160.91
396.62	1245.16
396.81	1240.48
397.00	1163.25
397.19	1245.16
397.39	1306.02
397.58	1252.19
397.77	1196.01
397.97	1284.95
398.16	1249.85
398.35	1345.81
398.55	1214.74
398.74	1306.02
398.93	1277.93
399.12	1270.91
399.32	1301.34
399.51	1275.59
399.70	1383.26
399.90	1378.58
400.09	1371.55
400.28	1425.39
400.47	1373.89
400.67	1455.81
400.86	1441.77
401.05	1366.87
401.24	1430.07
401.44	1448.79
401.63	1507.30
401.82	1460.49
402.01	1488.58
402.21	1483.90
402.40	1427.73
402.59	1514.33
402.78	1544.75
402.97	1561.14
403.17	1446.45
403.36	1610.29
403.55	1504.96
403.74	1645.40
403.93	1638.38
404.13	1624.33
404.32	1633.69
404.51	1533.05
404.70	1657.10
404.89	1626.67
405.09	1715.61
405.28	1687.53
405.47	1743.70
405.66	1633.69
405.85	1729.66
406.05	1659.44
406.24	1795.19
406.43	1776.47
406.62	1774.13
406.81	1919.24
407.00	1853.70
407.20	1767.10
407.39	1734.34
407.58	1753.06
407.77	1818.60
407.96	1853.70
408.15	1919.24
408.34	1849.02
408.54	1916.90
408.73	1858.39
408.92	1966.05
409.11	1933.28
409.30	1949.67
409.49	1998.82
409.68	1916.90
409.87	1980.09
410.07	2062.01
410.26	2069.03
410.45	2057.33
410.64	2122.87
410.83	2111.16
411.02	2162.66
411.21	2134.57
411.40	2113.50
411.59	2108.82
411.78	2190.74
411.98	2104.14
412.17	2221.17
412.36	2270.32
412.55	2267.98
412.74	2352.24
412.93	2298.41
413.12	2289.04
413.31	2450.54
413.50	2424.80
413.69	2452.88
413.88	2504.37
414.07	2443.52
414.26	2445.86
414.45	2616.72
414.64	2450.54
414.83	2562.89
415.02	2597.99
415.22	2593.31
415.41	2703.32
415.60	2590.97
415.79	2759.49
415.98	2827.37
416.17	2640.12
416.36	2810.98
416.55	2696.30
416.74	2708.00
416.93	2925.67
417.12	2892.90
417.31	2906.95
417.50	2822.69
417.69	2946.73
417.88	2899.92
418.07	2850.77
418.26	2993.55
418.45	2869.50
418.64	3183.13
418.83	3145.68
419.02	3042.70
419.21	3059.08
419.39	3005.25
419.58	3080.14
419.77	3110.57
419.96	3178.45
420.15	3138.66
420.34	3152.70
420.53	3096.53
420.72	3112.91
420.91	3279.09
421.10	3190.15
421.29	3260.37
421.48	3220.58
421.67	3225.26
421.86	3288.45
422.05	3218.24
422.24	3269.73
422.43	3361.01
422.61	3417.18
422.80	3379.73
422.99	3344.63
423.18	3454.63
423.37	3548.25
423.56	3295.47
423.75	3543.57
423.94	3330.58
424.13	3279.09
424.32	3248.66
424.50	3405.48
424.69	3550.59
424.88	3604.42
425.07	3349.31
425.26	3316.54
425.45	3440.59
425.64	3414.84
425.83	3456.97
426.01	3417.18
426.20	3478.04
426.39	3613.79
426.58	3471.01
426.77	3550.59
426.96	3442.93
427.15	3595.06
427.33	3693.37
427.52	3630.17
427.71	3653.58
427.90	3599.74
428.09	3527.19
428.28	3712.09
428.46	3676.98
428.65	3651.24
428.84	3805.71
429.03	3784.65
429.22	3693.37
429.40	3653.58
429.59	3868.91
429.78	3688.68
429.97	3698.05
430.16	3829.12
430.34	3733.15
430.53	3852.52
430.72	3978.91
430.91	3896.99
431.10	3843.16
431.28	3936.78
431.47	4007.00
431.66	3992.95
431.85	3936.78
432.03	4241.05
432.22	4091.26
432.41	4128.70
432.60	4002.32
432.79	4016.36
432.97	4208.28
433.16	4112.32
433.35	4147.43
433.54	4180.20
433.72	4227.01
433.91	4278.50
434.10	4065.51
434.28	4276.16
434.47	4222.33
434.66	4175.52
434.85	4266.80
435.03	4379.14
435.22	4360.42
435.41	4381.48
435.59	4550.00
435.78	4423.61
435.97	4322.97
436.16	4386.16
436.34	4344.03
436.53	4444.68
436.72	4568.73
436.90	4507.87
437.09	4596.81
437.28	4528.94
437.46	4557.02
437.65	4627.24
437.84	4498.51
438.02	4521.92
438.21	4510.21
438.40	4580.43
438.58	4727.88
438.77	4802.78
438.96	4648.30
439.14	4840.23
439.33	4840.23
439.52	4997.04
439.70	4903.42
439.89	5013.43
440.08	5050.88
440.26	5029.81
440.45	4954.91
440.63	5130.45
440.82	5214.71
441.01	5090.67
441.19	5156.20
441.38	5205.35
441.57	5249.82
441.75	5387.91
441.94	5406.64
442.12	5404.30
442.31	5406.64
442.50	5357.49
442.68	5593.88
442.87	5504.94
443.05	5605.58
443.24	5521.32
443.43	5472.17
443.61	5504.94
443.80	5673.46
443.98	5469.83
444.17	5308.34
444.35	5516.64
444.54	5621.97
444.73	5631.33
444.91	5692.18
445.10	5661.76
445.28	5668.78
445.47	5659.42
445.65	5741.33
445.84	5734.31
446.02	5699.20
446.21	5731.97
446.39	5668.78
446.58	5717.93
446.77	5575.16
446.95	5526.00
447.14	5797.51
447.32	5895.81
447.51	5816.23
447.69	5776.44
447.88	5944.96
448.06	5909.85
448.25	5654.73
448.43	5738.99
448.62	5783.46
448.80	5760.06
448.99	5844.32
449.17	5919.21
449.36	5987.09
449.54	6008.16
449.73	6171.99
449.91	6059.65
450.10	5970.71
450.28	6054.97
450.46	6244.55
450.65	5996.45
450.83	6188.38
451.02	6139.23
451.20	6328.81
451.39	6179.01
451.57	6132.20
451.76	5996.45
451.94	6319.45
452.13	6417.75
452.31	6284.34
452.49	6235.19
452.68	6480.94
452.86	6471.58
453.05	6272.64
453.23	6445.84
453.42	6445.84
453.60	6518.39
453.78	6394.34
453.97	6436.47
454.15	6244.55
454.34	6352.21
454.52	6628.40
454.70	6703.29
454.89	6502.01
455.07	6466.90
455.26	6588.61
455.44	6754.79
455.62	6836.70
455.81	6686.91
455.99	6813.30
456.17	6675.21
456.36	6773.51
456.54	6897.56
456.73	6853.09
456.91	7166.72
457.09	7040.33
457.28	6881.18
457.46	7105.87
457.64	6991.18
457.83	7014.59
458.01	6925.65
458.19	7265.02
458.38	7157.36
458.56	7255.66
458.74	7279.07
458.93	7131.61
459.11	7108.21
459.29	7220.55
459.48	7215.87
459.66	7155.02
459.84	7234.60
460.03	7363.33
460.21	7417.16
460.39	7339.92
460.57	7515.46
460.76	7644.19
460.94	7681.64
461.12	7463.97
461.31	7412.48
461.49	7550.57
461.67	7407.80
461.85	7695.68
462.04	7576.31
462.22	7906.33
462.40	7929.74
462.59	7880.58
462.77	7730.79
462.95	7836.11
463.13	7929.74
463.32	7791.64
463.50	7906.33
463.68	7850.16
463.86	8093.57
464.05	7836.11
464.23	7810.37
464.41	7922.71
464.59	7840.79
464.78	8257.41
464.96	8107.62
465.14	7782.28
465.32	8088.89
465.50	8196.56
465.69	7992.93
465.87	8177.83
466.05	7995.27
466.23	8196.56
466.41	8105.28
466.60	8355.71
466.78	8463.38
466.96	8198.90
467.14	8191.88
467.32	8257.41
467.51	8348.69
467.69	8175.49
467.87	8468.06
468.05	8568.70
468.23	8465.72
468.41	8463.38
468.60	8402.52
468.78	8304.22
468.96	8477.42
469.14	8482.10
469.32	8753.60
469.50	8491.46
469.69	8924.46
469.87	8767.65
470.05	8739.56
470.23	8919.78
470.41	8896.38
470.59	8943.19
470.77	8868.29
470.95	8826.16
471.14	8919.78
471.32	8975.95
471.50	9191.28
471.68	9130.43
471.86	9088.30
472.04	9125.75
472.22	9455.76
472.40	9083.62
472.58	9280.22
472.77	9298.95
472.95	9537.68
473.13	9671.09
473.31	9242.78
473.49	9219.37
473.67	9320.01
473.85	9734.29
474.03	9839.61
474.21	9727.27
474.39	9846.63
474.57	9926.21
474.75	9940.26
474.93	9886.42
475.12	9834.93
475.30	10083.03
475.48	10003.45
475.66	10106.43
475.84	10125.16
476.02	10321.76
476.20	10333.47
476.38	10384.96
476.56	10600.29
476.74	10630.71
476.92	10396.66
477.10	10602.63
477.28	10696.25
477.46	10640.08
477.64	10799.23
477.82	10918.60
478.00	11246.27
478.18	11007.54
478.36	11129.25
478.54	11398.41
478.72	11316.49
478.90	11583.31
479.08	11705.02
479.26	11693.32
479.44	11709.70
479.62	11808.00
479.80	11707.36
479.98	11967.16
480.16	12166.10
480.34	12264.41
480.52	12325.26
480.70	12299.52
480.88	12107.59
481.06	12416.54
481.24	12549.95
481.41	12587.40
481.59	12755.92
481.77	12922.10
481.95	13055.51
482.13	13083.59
482.31	13172.54
482.49	13252.11
482.67	13329.35
482.85	13444.04
483.03	13422.97
483.21	13645.32
483.39	13895.76
483.57	13776.39
483.74	13844.27
483.92	13989.38
484.10	14003.43
484.28	14272.59
484.46	14656.43
484.64	14726.65
484.82	14443.45
485.00	14497.28
485.18	15040.28
485.35	15194.76
485.53	15206.46
485.71	15307.10
485.89	15602.01
486.07	15480.30
486.25	15695.63
486.43	15594.99
486.61	15906.28
486.78	15695.63
486.96	15770.53
487.14	16196.51
487.32	16020.97
487.50	16400.13
487.68	16336.94
487.85	16451.63
488.03	16947.82
488.21	17099.95
488.39	17043.78
488.57	17167.83
488.75	17092.93
488.92	17469.76
489.10	17603.17
489.28	17823.18
489.46	17790.41
489.64	17860.63
489.81	18207.03
489.99	18185.96
490.17	18401.29
490.35	18420.02
490.53	18633.00
490.70	18682.16
490.88	18574.49
491.06	18946.64
491.24	19112.81
491.41	18984.09
491.59	19470.92
491.77	19110.47
491.95	19281.33
492.13	19885.19
492.30	19538.79
492.48	19857.10
492.66	19381.98
492.84	20102.86
493.01	20610.76
493.19	20320.53
493.37	20276.06
493.54	20084.14
493.72	20624.80
493.90	20341.60
494.08	20765.23
494.25	21153.76
494.43	21015.67
494.61	21130.36
494.79	21570.38
494.96	21289.51
495.14	21289.51
495.32	21666.34
495.49	21694.43
495.67	21804.43
495.85	22183.60
496.02	22270.20
496.20	22586.17
496.38	22583.83
496.55	22520.63
496.73	22860.01
496.91	22738.30
497.09	22944.27
497.26	23147.90
497.44	22885.76
497.62	22813.20
497.79	23183.01
497.97	23459.19
498.14	23510.68
498.32	23620.69
498.50	23608.98
498.67	23978.79
498.85	23777.50
499.03	24135.60
499.20	24231.57
499.38	24280.72
499.56	24786.27
499.73	24397.74
499.91	24584.99
500.08	24643.50
500.26	24407.11
500.44	24519.45
500.61	24730.10
500.79	24711.38
500.97	25266.08
501.14	25329.28
501.32	25158.42
501.49	25118.63
501.67	25254.38
501.84	25766.96
502.02	25771.64
502.20	25633.55
502.37	25766.96
502.55	25584.40
502.72	25853.56
502.90	25883.98
503.07	26148.46
503.25	26185.91
503.43	25972.92
503.60	26326.35
503.78	26419.97
503.95	26656.36
504.13	26469.12
504.30	26649.34
504.48	27182.98
504.65	26696.15
504.83	27187.66
505.01	26867.01
505.18	27218.09
505.36	27103.40
505.53	27300.01
505.71	27435.76
505.88	27487.25
506.06	27232.13
506.23	27723.65
506.41	27484.91
506.58	27442.78
506.76	27747.05
506.93	27817.27
507.11	28217.50
507.28	28058.34
507.46	28151.96
507.63	28367.29
507.81	28287.71
507.98	28257.29
508.16	28573.26
508.33	28348.57
508.50	28720.71
508.68	29032.00
508.85	29186.48
509.03	28968.81
509.20	29134.99
509.38	29535.22
509.55	29350.32
509.73	29284.78
509.90	29883.96
510.08	29572.67
510.25	29289.46
510.42	29743.53
510.60	29607.78
510.77	30459.73
510.95	30218.66
511.12	29998.65
511.30	30185.89
511.47	30008.01
511.64	30164.82
511.82	30129.72
511.99	30228.02
512.17	30293.55
512.34	30607.19
512.51	30696.13
512.69	30916.14
512.86	30658.68
513.04	31075.29
513.21	31094.02
513.38	31321.05
513.56	31552.76
513.73	31051.89
513.90	30979.33
514.08	31332.75
514.25	31878.10
514.43	31356.16
514.60	31281.26
514.77	31660.43
514.95	31732.98
515.12	31868.73
515.29	31796.18
515.47	32130.87
515.64	32240.88
515.81	31948.31
515.99	32217.47
516.16	32774.52
516.33	32409.40
516.51	32610.68
516.68	32500.68
516.85	32711.33
517.03	32596.64
517.20	32849.42
517.37	32807.29
517.54	32620.05
517.72	33041.34
517.89	32795.59
518.06	33031.98
518.24	33336.25
518.41	33170.07
518.58	32835.38
518.75	32905.59
518.93	33425.19
519.10	33411.15
519.27	33514.13
519.45	33266.03
519.62	33600.73
519.79	33897.98
519.96	33724.78
520.14	33912.02
520.31	33916.70
520.48	33736.48
520.65	34195.23
520.83	34132.03
521.00	34698.44
521.17	34176.50
521.34	34607.16
521.52	34555.67
521.69	34857.60
521.86	34890.37
522.03	34665.67
522.20	34742.91
522.38	35323.36
522.55	35225.06
522.72	34742.91
522.89	35070.59
523.07	35391.24
523.24	34937.18
523.41	35646.36
523.58	35253.15
523.75	35524.65
523.92	35536.35
524.10	35653.38
524.27	35711.89
524.44	35974.03
524.61	35784.45
524.78	36119.15
524.96	35559.76
525.13	36212.77
525.30	36224.47
525.47	36549.81
525.64	36367.24
525.81	36645.77
525.98	36463.21
526.16	36615.34
526.33	36404.69
526.50	36545.12
526.67	36229.15
526.84	36825.99
527.01	36371.92
527.18	37165.37
527.36	36662.15
527.53	36891.52
527.70	37319.84
527.87	37556.24
528.04	36858.76
528.21	37525.81
528.38	36973.44
528.55	37614.75
528.72	36865.78
528.89	37275.37
529.07	37158.34
529.24	37127.92
529.41	37312.82
529.58	37654.54
529.75	37455.59
529.92	37813.70
530.09	37600.71
530.26	37818.38
530.43	37757.52
530.60	37776.25
530.77	37462.61
530.94	38080.52
531.11	38029.02
531.28	38033.71
531.46	37951.79
531.63	38045.41
531.80	38356.70
531.97	38293.50
532.14	37904.98
532.31	38300.53
532.48	38363.72
532.65	38813.10
532.82	38707.78
532.99	38354.36
533.16	38808.42
533.33	38873.96
533.50	38754.59
533.67	39056.52
533.84	38572.03
534.01	38897.36
534.18	38780.34
534.35	39543.35
534.52	39236.74
534.69	39302.28
534.86	39782.09
535.03	39021.41
535.20	39702.51
535.37	39328.02
535.54	39604.20
535.71	39571.44
535.88	39658.04
536.05	39431.01
536.22	40172.96
536.38	39950.60
536.55	40048.91
536.72	39716.55
536.89	39400.58
537.06	39894.43
537.23	39920.18
537.40	39896.77
537.57	39873.37
537.74	40016.14
537.91	40491.27
538.08	39955.29
538.25	39938.90
538.42	40285.30
538.59	41146.62
538.75	40559.14
538.92	40746.39
539.09	40538.08
539.26	40187.00
539.43	40690.21
539.60	40584.89
539.77	40964.06
539.94	41558.55
540.11	40603.61
540.28	41067.04
540.44	40765.11
540.61	40690.21
540.78	41198.11
540.95	40535.74
541.12	40549.78
541.29	40832.99
541.46	40856.39
541.62	41125.55
541.79	41406.42
541.96	41067.04
542.13	41214.49
542.30	41359.61
542.47	41397.06
542.63	41720.05
542.80	41717.71
542.97	41633.45
543.14	42047.72
543.31	41790.27
543.48	42178.79
543.64	42274.76
543.81	42234.97
543.98	42412.85
544.15	42117.94
544.32	42227.95
544.48	42869.25
544.65	42389.44
544.82	42443.27
544.99	42394.12
545.16	42464.34
545.32	42251.35
545.49	42745.20
545.66	42780.31
545.83	42789.67
546.00	43178.20
546.16	42363.70
546.33	42349.65
546.50	42787.33
546.67	43091.60
546.83	42829.46
547.00	42265.39
547.17	42953.51
547.34	42820.10
547.50	43005.00
547.67	43594.82
547.84	42974.58
548.00	43405.23
548.17	43243.74
548.34	43426.30
548.51	43529.28
548.67	43278.85
548.84	43210.97
549.01	43599.50
549.18	43337.36
549.34	43805.47
549.51	43749.29
549.68	44100.37
549.84	43505.88
550.01	44280.60
550.18	43484.81
550.34	43498.86
550.51	43838.23
550.68	43793.76
550.84	43187.56
551.01	44339.11
551.18	43604.18
551.34	43578.43
551.51	44083.99
551.68	43838.23
551.84	43688.44
552.01	43896.75
552.18	43690.78
552.34	43910.79
552.51	43704.82
552.68	43847.60
552.84	44339.11
553.01	44329.75
553.18	44233.78
553.34	44257.19
553.51	44245.49
553.67	44451.45
553.84	44542.74
554.01	44425.71
554.17	44289.96
554.34	44718.28
554.51	44769.77
554.67	44898.50
554.84	44617.63
555.00	44795.51
555.17	44905.52
555.33	44755.72
555.50	44533.37
555.67	44823.60
555.83	44591.89
556.00	45160.64
556.16	45132.55
556.33	44641.04
556.50	45036.59
556.66	44760.40
556.83	44596.57
556.99	45291.71
557.16	45270.64
557.32	44744.02
557.49	44868.07
557.65	44919.56
557.82	45226.17
557.98	45249.58
558.15	45633.42
558.32	45188.72
558.48	45361.92
558.65	45340.86
558.81	45361.92
558.98	45310.43
559.14	45209.79
559.31	45544.48
559.47	45003.82
559.64	45790.24
559.80	45509.38
559.97	45984.51
560.13	45368.94
560.30	45612.36
560.46	45993.87
560.63	46073.45
560.79	45507.04
560.96	45883.86
561.12	45813.65
561.29	45610.02
561.45	45717.68
561.61	45869.82
561.78	45364.26
561.94	46024.29
562.11	45848.75
562.27	45769.18
562.44	45612.36
562.60	46157.70
562.77	45993.87
562.93	46234.94
563.10	46052.38
563.26	46326.22
563.42	46312.18
563.59	45834.71
563.75	46143.66
563.92	46368.35
564.08	45759.81
564.24	46347.29
564.41	46092.17
564.57	46108.55
564.74	45975.14
564.90	46216.22
565.07	45851.09
565.23	46256.01
565.39	45979.82
565.56	46373.03
565.72	45830.03
565.88	46043.02
566.05	46164.73
566.21	46340.27
566.38	46361.33
566.54	46700.71
566.70	46696.03
566.87	46515.81
567.03	46417.50
567.19	46623.47
567.36	46473.68
567.52	46251.33
567.68	46679.64
567.85	46728.80
568.01	46473.68
568.17	46787.31
568.34	46700.71
568.50	46766.24
568.66	46440.91
568.83	46417.50
568.99	46445.59
569.15	46279.41
569.32	46096.85
569.48	46394.10
569.64	46712.41
569.81	46691.35
569.97	46635.17
570.13	46780.29
570.30	46607.09
570.46	46600.07
570.62	46897.31
570.78	46644.54
570.95	46733.48
571.11	46944.12
571.27	46724.11
571.43	46663.26
571.60	46649.22
571.76	46401.12
571.92	46698.37
572.09	46909.02
572.25	46553.26
572.41	47079.88
572.57	46855.18
572.74	47412.23
572.90	46557.94
573.06	46834.12
573.22	46801.35
573.38	47182.86
573.55	47126.69
573.71	47058.81
573.87	46969.87
574.03	47222.65
574.20	47164.14
574.36	46784.97
574.52	47206.26
574.68	47157.11
574.84	46997.96
575.01	47370.10
575.17	47381.80
575.33	47016.68
575.49	46859.87
575.65	47522.24
575.82	46852.84
575.98	47143.07
576.14	47201.58
576.30	47201.58
576.46	46969.87
576.62	46904.34
576.79	47182.86
576.95	47077.54
577.11	46478.36
577.27	47023.70
577.43	46726.46
577.59	46815.40
577.75	47330.31
577.92	47117.32
578.08	46857.52
578.24	47009.66
578.40	46852.84
578.56	47459.04
578.72	47208.61
578.88	47466.06
579.04	47217.97
579.21	47035.41
579.37	47098.60
579.53	47217.97
579.69	46923.06
579.85	47309.25
580.01	47187.54
580.17	47302.23
580.33	47098.60
580.49	47114.98
580.65	47079.88
580.82	46621.13
580.98	47117.32
581.14	47070.51
581.30	47342.02
581.46	47206.26
581.62	47367.76
581.78	47395.85
581.94	47508.19
582.10	47199.24
582.26	47084.56
582.42	47288.18
582.58	47040.09
582.74	47452.02
582.90	47557.35
583.06	47449.68
583.22	47297.55
583.38	47351.38
583.54	47344.36
583.70	47264.78
583.86	47557.35
584.02	47433.30
584.18	47737.57
584.34	47889.70
584.50	47777.36
584.66	47332.65
584.82	47978.64
584.98	47901.40
585.14	47250.74
585.30	47306.91
585.46	47267.12
585.62	47538.62
585.78	48011.41
585.94	46920.72
586.10	47452.02
586.26	47224.99
586.42	47054.13
586.58	47508.19
586.74	47040.09
586.90	47203.92
587.06	47372.44
587.22	47753.95
587.38	47470.75
587.54	47578.41
587.70	47526.92
587.86	47360.74
588.02	47309.25
588.18	47166.48
588.34	47257.76
588.49	47531.60
588.65	47423.93
588.81	47454.36
588.97	47821.83
589.13	47334.99
589.29	47728.20
589.45	48034.81
589.61	47842.89
589.77	47927.15
589.93	47377.12
590.08	47430.96
