SpectraSuite Data File
++++++++++++++++++++++++++++++++++++
Date: Fri Oct 25 10:44:37 EDT 2013
User: price-jones
Dark Spectrum Present: No
Reference Spectrum Present: No
Number of Sampled Component Spectra: 1
Spectrometers: USB2+H05261
Integration Time (usec): 100000 (USB2+H05261)
Spectra Averaged: 1 (USB2+H05261)
Boxcar Smoothing: 0 (USB2+H05261)
Correct for Electrical Dark: No (USB2+H05261)
Strobe/Lamp Enabled: No (USB2+H05261)
Correct for Detector Non-linearity: No (USB2+H05261)
Correct for Stray Light: No (USB2+H05261)
Number of Pixels in Processed Spectrum: 2048
>>>>>Begin Processed Spectral Data<<<<<
365.73	117.03
365.92	117.03
366.12	117.03
366.32	110.01
366.52	16.38
366.72	84.26
366.91	0.00
367.11	46.81
367.31	0.00
367.51	23.41
367.70	42.13
367.90	117.03
368.10	0.00
368.30	65.54
368.49	37.45
368.69	46.81
368.89	79.58
369.09	46.81
369.28	18.72
369.48	58.51
369.68	9.36
369.87	91.28
370.07	93.62
370.27	147.45
370.47	224.69
370.66	322.99
370.86	393.21
371.06	465.77
371.25	498.53
371.45	390.87
371.65	440.02
371.84	458.74
372.04	421.30
372.24	486.83
372.44	505.56
372.63	507.90
372.83	496.19
373.03	500.87
373.22	493.85
373.42	454.06
373.62	437.68
373.81	554.71
374.01	493.85
374.21	533.64
374.40	475.13
374.60	531.30
374.79	442.36
374.99	587.47
375.19	517.26
375.38	566.41
375.58	547.69
375.78	610.88
375.97	552.37
376.17	566.41
376.37	535.98
376.56	592.16
376.76	564.07
376.95	557.05
377.15	566.41
377.35	550.03
377.54	550.03
377.74	613.22
377.93	550.03
378.13	538.32
378.33	676.41
378.52	650.67
378.72	603.86
378.91	648.33
379.11	624.92
379.31	608.54
379.50	704.50
379.70	660.03
379.89	631.94
380.09	620.24
380.28	667.05
380.48	641.31
380.68	538.32
380.87	634.29
381.07	631.94
381.26	645.99
381.46	695.14
381.65	655.35
381.85	667.05
382.04	664.71
382.24	711.52
382.43	613.22
382.63	678.76
382.83	657.69
383.02	678.76
383.22	678.76
383.41	662.37
383.61	660.03
383.80	692.80
384.00	760.67
384.19	643.65
384.39	697.48
384.58	718.54
384.78	777.06
384.97	767.70
385.17	793.44
385.36	695.14
385.56	779.40
385.75	774.72
385.95	751.31
386.14	800.46
386.34	737.27
386.53	695.14
386.72	763.01
386.92	793.44
387.11	765.36
387.31	713.86
387.50	746.63
387.70	844.93
387.89	793.44
388.09	901.11
388.28	868.34
388.48	805.14
388.67	847.27
388.86	919.83
389.06	894.08
389.25	870.68
389.45	933.87
389.64	856.64
389.84	959.62
390.03	896.43
390.22	905.79
390.42	875.36
390.61	950.26
390.81	873.02
391.00	964.30
391.19	973.66
391.39	936.21
391.58	919.83
391.78	971.32
391.97	1029.84
392.16	961.96
392.36	1046.22
392.55	971.32
392.75	980.68
392.94	959.62
393.13	1020.47
393.33	912.81
393.52	1032.18
393.71	1048.56
393.91	1020.47
394.10	999.41
394.29	1043.88
394.49	1018.13
394.68	1022.81
394.88	1097.71
395.07	1219.42
395.26	1135.16
395.46	1128.14
395.65	1083.67
395.84	1139.84
396.04	1149.20
396.23	1029.84
396.42	1165.59
396.62	1062.60
396.81	1156.22
397.00	1116.44
397.19	1086.01
397.39	1224.10
397.58	1259.21
397.77	1228.78
397.97	1268.57
398.16	1188.99
398.35	1280.27
398.55	1273.25
398.74	1184.31
398.93	1294.32
399.12	1315.38
399.32	1334.11
399.51	1341.13
399.70	1399.64
399.90	1282.61
400.09	1409.00
400.28	1420.71
400.47	1369.21
400.67	1369.21
400.86	1399.64
401.05	1441.77
401.24	1504.96
401.44	1432.41
401.63	1514.33
401.82	1507.30
402.01	1451.13
402.21	1547.09
402.40	1488.58
402.59	1603.27
402.78	1563.48
402.97	1502.62
403.17	1483.90
403.36	1600.93
403.55	1643.06
403.74	1640.72
403.93	1572.84
404.13	1624.33
404.32	1619.65
404.51	1603.27
404.70	1607.95
404.89	1542.41
405.09	1668.80
405.28	1682.85
405.47	1664.12
405.66	1659.44
405.85	1818.60
406.05	1692.21
406.24	1818.60
406.43	1774.13
406.62	1785.83
406.81	1893.49
407.00	1834.98
407.20	1769.44
407.39	1867.75
407.58	1928.60
407.77	1849.02
407.96	1909.88
408.15	1973.07
408.34	1935.62
408.54	2040.95
408.73	1977.75
408.92	1970.73
409.11	2118.18
409.30	2019.88
409.49	2078.40
409.68	1987.11
409.87	2062.01
410.07	2087.76
410.26	2073.71
410.45	2057.33
410.64	2012.86
410.83	2200.10
411.02	2141.59
411.21	2314.79
411.40	2258.62
411.59	2214.15
411.78	2235.21
411.98	2282.02
412.17	2289.04
412.36	2382.67
412.55	2319.47
412.74	2431.82
412.93	2499.69
413.12	2387.35
413.31	2534.80
413.50	2523.10
413.69	2431.82
413.88	2459.90
414.07	2429.48
414.26	2605.02
414.45	2600.34
414.64	2509.05
414.83	2651.83
415.02	2621.40
415.22	2796.94
415.41	2796.94
415.60	2848.43
415.79	2918.65
415.98	2766.51
416.17	2874.18
416.36	2925.67
416.55	2899.92
416.74	2885.88
416.93	2913.97
417.12	2930.35
417.31	2885.88
417.50	2848.43
417.69	3103.55
417.88	3082.49
418.07	3047.38
418.26	3117.59
418.45	3201.85
418.64	3148.02
418.83	3220.58
419.02	3180.79
419.21	3105.89
419.39	3258.03
419.58	3234.62
419.77	3267.39
419.96	3295.47
420.15	3307.18
420.34	3290.79
420.53	3262.71
420.72	3412.50
420.91	3466.33
421.10	3501.44
421.29	3438.25
421.48	3353.99
421.67	3559.95
421.86	3396.12
422.05	3426.54
422.24	3407.82
422.43	3438.25
422.61	3421.86
422.80	3382.07
422.99	3440.59
423.18	3487.40
423.37	3543.57
423.56	3604.42
423.75	3449.95
423.94	3398.46
424.13	3213.56
424.32	3290.79
424.50	3571.66
424.69	3595.06
424.88	3564.64
425.07	3585.70
425.26	3527.19
425.45	3475.70
425.64	3531.87
425.83	3595.06
426.01	3485.06
426.20	3571.66
426.39	3691.02
426.58	3588.04
426.77	3569.32
426.96	3562.30
427.15	3632.51
427.33	3789.33
427.52	3648.90
427.71	3709.75
427.90	3723.79
428.09	3761.24
428.28	3913.38
428.46	3805.71
428.65	3693.37
428.84	3803.37
429.03	3868.91
429.22	3669.96
429.40	3786.99
429.59	3634.85
429.78	3543.57
429.97	3662.94
430.16	3681.66
430.34	3798.69
430.53	3831.46
430.72	3801.03
430.91	3801.03
431.10	3866.56
431.28	4014.02
431.47	4128.70
431.66	4093.60
431.85	3932.10
432.03	4152.11
432.22	4276.16
432.41	4205.94
432.60	4107.64
432.79	4147.43
432.97	4224.67
433.16	4318.29
433.35	4124.02
433.54	4262.12
433.72	4379.14
433.91	4173.18
434.10	4299.56
434.28	4264.46
434.47	4437.66
434.66	4449.36
434.85	4489.15
435.03	4437.66
435.22	4367.44
435.41	4559.36
435.59	4643.62
435.78	4695.11
435.97	4631.92
436.16	4465.74
436.34	4564.04
436.53	4461.06
436.72	4690.43
436.90	4596.81
437.09	4704.48
437.28	4524.26
437.46	4601.49
437.65	4767.67
437.84	4744.27
438.02	4629.58
438.21	4685.75
438.40	4606.17
438.58	4835.55
438.77	4788.74
438.96	4915.12
439.14	4978.32
439.33	5034.49
439.52	5135.14
439.70	4978.32
439.89	5104.71
440.08	5188.97
440.26	5254.50
440.45	5057.90
440.63	5156.20
440.82	5451.11
441.01	5245.14
441.19	5322.38
441.38	5420.68
441.57	5472.17
441.75	5476.85
441.94	5633.67
442.12	5617.29
442.31	5682.82
442.50	5636.01
442.68	5516.64
442.87	5703.89
443.05	5781.12
443.24	5909.85
443.43	5816.23
443.61	5778.78
443.80	5963.68
443.98	5575.16
444.17	5570.48
444.35	5944.96
444.54	5811.55
444.73	5846.66
444.91	5806.87
445.10	5720.27
445.28	5727.29
445.47	5724.95
445.65	5729.63
445.84	5858.36
446.02	5900.49
446.21	5884.11
446.39	5813.89
446.58	5912.19
446.77	5949.64
446.95	5790.49
447.14	5849.00
447.32	6097.10
447.51	5940.28
447.69	6038.58
447.88	5959.00
448.06	5970.71
448.25	5907.51
448.43	6092.41
448.62	5996.45
448.80	6026.88
448.99	6071.35
449.17	6050.28
449.36	6127.52
449.54	6188.38
449.73	6183.70
449.91	6263.27
450.10	6312.42
450.28	6436.47
450.46	6363.92
450.65	6282.00
450.83	6410.73
451.02	6377.96
451.20	6373.28
451.39	6539.46
451.57	6509.03
451.76	6202.42
451.94	6469.24
452.13	6448.18
452.31	6527.75
452.49	6377.96
452.68	6450.52
452.86	6691.59
453.05	6656.48
453.23	6820.32
453.42	6483.28
453.60	6614.35
453.78	6745.42
453.97	6724.36
454.15	6736.06
454.34	6560.52
454.52	6810.96
454.70	6722.02
454.89	6899.90
455.07	6899.90
455.26	6897.56
455.44	6984.16
455.62	6988.84
455.81	6871.81
455.99	6946.71
456.17	7140.97
456.36	7129.27
456.54	7030.97
456.73	7246.30
456.91	7136.29
457.09	7274.38
457.28	7321.20
457.46	7337.58
457.64	7379.71
457.83	7255.66
458.01	7033.31
458.19	7592.70
458.38	7307.15
458.56	7492.05
458.74	7353.96
458.93	7377.37
459.11	7421.84
459.29	7433.54
459.48	7562.27
459.66	7557.59
459.84	7396.09
460.03	7695.68
460.21	7573.97
460.39	7644.19
460.57	7676.96
460.76	7681.64
460.94	7758.88
461.12	7733.13
461.31	7768.24
461.49	7606.74
461.67	7793.98
461.85	7838.45
462.04	7934.42
462.22	8074.85
462.40	7939.10
462.59	7901.65
462.77	7962.50
462.95	7950.80
463.13	7920.37
463.32	8119.32
463.50	8362.73
463.68	8025.70
463.86	7969.52
464.05	7932.08
464.23	8105.28
464.41	8205.92
464.59	7906.33
464.78	8325.29
464.96	8241.03
465.14	8231.66
465.32	8304.22
465.50	8461.04
465.69	8222.30
465.87	8252.73
466.05	8496.14
466.23	8189.53
466.41	8166.13
466.60	8765.31
466.78	8304.22
466.96	8313.58
467.14	8400.18
467.32	8346.35
467.51	8697.43
467.69	8229.32
467.87	8404.86
468.05	8571.04
468.23	8414.23
468.41	8620.19
468.60	8596.79
468.78	8718.50
468.96	8606.15
469.14	9029.79
469.32	8826.16
469.50	8671.68
469.69	8767.65
469.87	8840.20
470.05	8781.69
470.23	8973.61
470.41	9137.45
470.59	9015.74
470.77	8985.32
470.95	9027.45
471.14	9256.82
471.32	9020.42
471.50	9200.65
471.68	9153.84
471.86	9287.25
472.04	9130.43
472.22	9348.10
472.40	9329.38
472.58	9507.26
472.77	9511.94
472.95	9535.34
473.13	9736.63
473.31	9577.47
473.49	9509.60
473.67	9591.52
473.85	9537.68
474.03	9954.30
474.21	10008.13
474.39	10090.05
474.57	9977.70
474.75	10057.28
474.93	10106.43
475.12	10186.01
475.30	10080.69
475.48	10146.22
475.66	10321.76
475.84	10270.27
476.02	10424.75
476.20	10431.77
476.38	10366.23
476.56	10881.15
476.74	10665.82
476.92	10609.65
477.10	10726.68
477.28	10977.11
477.46	10712.63
477.64	11012.22
477.82	11236.91
478.00	11501.39
478.18	11197.12
478.36	11222.87
478.54	11477.99
478.72	11522.46
478.90	11714.38
479.08	11674.59
479.26	11836.09
479.44	11871.20
479.62	11896.94
479.80	12133.34
479.98	11967.16
480.16	12526.55
480.34	12276.11
480.52	12585.06
480.70	12585.06
480.88	12489.10
481.06	12709.11
481.24	12512.50
481.41	12737.20
481.59	12795.71
481.77	13034.44
481.95	13046.15
482.13	13303.60
482.31	13158.49
482.49	13762.35
482.67	13364.46
482.85	13748.31
483.03	13554.04
483.21	13776.39
483.39	13664.05
483.57	13596.17
483.74	14214.07
483.92	14288.97
484.10	14274.93
484.28	14588.56
484.46	14724.31
484.64	14953.68
484.82	14736.01
485.00	14745.38
485.18	14941.98
485.35	15000.49
485.53	14878.79
485.71	15150.29
485.89	15309.44
486.07	14944.32
486.25	15257.95
486.43	15337.53
486.61	15651.16
486.78	15826.70
486.96	15950.75
487.14	16372.05
487.32	15971.82
487.50	16549.93
487.68	16734.83
487.85	16657.59
488.03	16842.50
488.21	16957.18
488.39	16945.48
488.57	17097.61
488.75	17095.27
488.92	17308.26
489.10	17710.83
489.28	17937.87
489.46	18150.85
489.64	18015.10
489.81	18307.67
489.99	17977.65
490.17	18338.10
490.35	18728.97
490.53	18621.30
490.70	18560.45
490.88	18925.57
491.06	18890.46
491.24	18862.38
491.41	19082.39
491.59	19150.26
491.77	19309.42
491.95	19564.54
492.13	19499.00
492.30	19728.38
492.48	19728.38
492.66	19800.93
492.84	20093.50
493.01	20018.60
493.19	20137.97
493.37	20290.10
493.54	20365.00
493.72	20617.78
493.90	20390.75
494.08	20992.26
494.25	21116.31
494.43	21200.57
494.61	21558.67
494.79	21312.92
494.96	21172.49
495.14	21467.39
495.32	21895.71
495.49	21745.92
495.67	21715.49
495.85	22518.29
496.02	21982.31
496.20	22253.81
496.38	22354.46
496.55	22572.13
496.73	22600.21
496.91	22457.44
497.09	23194.71
497.26	23082.36
497.44	22895.12
497.62	23300.03
497.79	23580.90
497.97	23278.97
498.14	23491.96
498.32	23524.72
498.50	23456.85
498.67	23875.80
498.85	23789.20
499.03	24130.92
499.20	23920.28
499.38	23875.80
499.56	24250.29
499.73	24772.23
499.91	24329.87
500.08	24456.26
500.26	24474.98
500.44	24669.25
500.61	24535.84
500.79	24877.55
500.97	24718.40
501.14	25261.40
501.32	24924.36
501.49	25179.48
501.67	24856.49
501.84	25563.33
502.02	25359.70
502.20	25549.29
502.37	25689.72
502.55	25708.44
502.72	25472.05
502.90	25912.07
503.07	25663.97
503.25	26312.30
503.43	25898.03
503.60	26225.70
503.78	26022.08
503.95	26043.14
504.13	26047.82
504.30	26457.42
504.48	26494.86
504.65	26876.37
504.83	26649.34
505.01	26867.01
505.18	26806.16
505.36	27435.76
505.53	27243.84
505.71	27384.27
505.88	27374.91
506.06	26962.97
506.23	27770.46
506.41	27304.69
506.58	27321.07
506.76	27442.78
506.93	27847.69
507.11	27854.72
507.28	27917.91
507.46	27742.37
507.63	28217.50
507.81	27957.70
507.98	27730.67
508.16	28166.01
508.33	28304.10
508.50	28559.22
508.68	28622.41
508.85	29134.99
509.03	28795.61
509.20	28584.96
509.38	29024.98
509.55	28711.35
509.73	29125.63
509.90	29027.32
510.08	29324.57
510.25	29123.29
510.42	29134.99
510.60	29408.83
510.77	29457.98
510.95	29502.45
511.12	29621.82
511.30	29614.80
511.47	30096.95
511.64	30230.36
511.82	29935.45
511.99	29933.11
512.17	30377.81
512.34	30146.10
512.51	30312.28
512.69	30588.46
512.86	30672.72
513.04	30539.31
513.21	30157.80
513.38	30387.18
513.56	30551.01
513.73	30333.34
513.90	30501.86
514.08	30752.30
514.25	30733.57
514.43	30672.72
514.60	31072.95
514.77	31161.89
514.95	31178.28
515.12	31285.94
515.29	31197.00
515.47	31578.51
515.64	31646.38
515.81	31487.23
515.99	31669.79
516.16	31494.25
516.33	31159.55
516.51	31522.34
516.68	31283.60
516.85	31700.22
517.03	31452.12
517.20	31742.35
517.37	31732.98
517.54	31690.85
517.72	32283.01
517.89	31740.00
518.06	32077.04
518.24	31894.48
518.41	32409.40
518.58	32643.45
518.75	32526.42
518.93	32500.68
519.10	32388.33
519.27	32706.65
519.45	32673.88
519.62	32804.95
519.79	32933.68
519.96	32936.02
520.14	33273.06
520.31	33067.09
520.48	33310.50
520.65	32833.04
520.83	33446.26
521.00	33652.22
521.17	33574.98
521.34	33689.67
521.52	33277.74
521.69	33598.39
521.86	33656.90
522.03	33652.22
522.20	33963.51
522.38	34040.75
522.55	34110.97
522.72	33968.19
522.89	34251.40
523.07	34782.70
523.24	34012.66
523.41	34738.23
523.58	34515.88
523.75	34471.41
523.92	34787.38
524.10	34955.90
524.27	34976.97
524.44	34817.81
524.61	34766.32
524.78	35285.92
524.96	35159.53
525.13	35213.36
525.30	35288.26
525.47	35660.40
525.64	34941.86
525.81	35363.15
525.98	35402.94
526.16	35093.99
526.33	35103.35
526.50	35283.58
526.67	35054.20
526.84	35143.14
527.01	35281.24
527.18	35526.99
527.36	35821.90
527.53	36006.80
527.70	35964.67
527.87	36240.86
528.04	36191.70
528.21	35807.86
528.38	36561.51
528.55	36322.77
528.72	36474.91
528.89	36634.06
529.07	36308.73
529.24	35974.03
529.41	36091.06
529.58	36114.47
529.75	36055.95
529.92	36505.34
530.09	36676.19
530.26	36840.03
530.43	36570.87
530.60	36638.75
530.77	36357.88
530.94	36893.86
531.11	36833.01
531.28	37008.55
531.46	37130.26
531.63	37186.43
531.80	36933.65
531.97	37088.13
532.14	37649.86
532.31	37078.77
532.48	37027.28
532.65	37448.57
532.82	37656.88
532.99	37242.60
533.16	36891.52
533.33	37900.29
533.50	37425.17
533.67	37507.08
533.84	37528.15
534.01	37689.65
534.18	37497.72
534.35	37752.84
534.52	37727.10
534.69	37954.13
534.86	37764.54
535.03	37523.47
535.20	37851.14
535.37	38323.93
535.54	38447.98
535.71	37986.89
535.88	38022.00
536.05	38380.10
536.22	38225.63
536.38	38085.20
536.55	38174.14
536.72	38452.66
536.89	38190.52
537.06	38579.05
537.23	38770.97
537.40	38422.23
537.57	38843.53
537.74	38653.95
537.91	38990.98
538.08	38464.36
538.25	38548.62
538.42	38979.28
538.59	39016.73
538.75	38562.67
538.92	39159.50
539.09	39047.16
539.26	39175.89
539.43	39253.12
539.60	39166.52
539.77	38590.75
539.94	39491.86
540.11	39000.35
540.28	39194.61
540.44	39098.65
540.61	39402.92
540.78	38831.83
540.95	38892.68
541.12	38808.42
541.29	39260.15
541.46	39206.31
541.62	39606.55
541.79	39849.96
541.96	39445.05
542.13	39763.36
542.30	39576.12
542.47	39922.52
542.63	39791.45
542.80	39817.19
542.97	40479.57
543.14	40332.11
543.31	40044.23
543.48	40395.31
543.64	40671.49
543.81	40268.92
543.98	40385.94
544.15	40676.17
544.32	40825.96
544.48	40797.88
544.65	40243.17
544.82	40769.79
544.99	40322.75
545.16	40928.95
545.32	40481.91
545.49	40842.35
545.66	40875.12
545.83	40870.43
546.00	40821.28
546.16	40842.35
546.33	40456.16
546.50	40540.42
546.67	40435.10
546.83	40734.68
547.00	40947.67
547.17	41015.55
547.34	40645.74
547.50	41181.73
547.67	41689.62
547.84	41095.13
548.00	41694.30
548.17	41757.50
548.34	41233.22
548.51	41478.97
548.67	41471.95
548.84	41708.35
549.01	41619.41
549.18	41130.23
549.34	41436.84
549.51	41816.01
549.68	41769.20
549.84	41638.13
550.01	41993.89
550.18	41574.94
550.34	42010.28
550.51	41516.42
550.68	41607.70
550.84	41687.28
551.01	41984.53
551.18	42033.68
551.34	42113.26
551.51	41972.83
551.68	42047.72
551.84	42213.90
552.01	41757.50
552.18	41942.40
552.34	41940.06
552.51	42216.24
552.68	42321.57
552.84	42415.19
553.01	42192.84
553.18	42405.83
553.34	41787.92
553.51	42129.64
553.67	42099.22
553.84	42843.51
554.01	42272.42
554.17	42899.68
554.34	42770.95
554.51	42469.02
554.67	42492.43
554.84	42349.65
555.00	42094.53
555.17	42438.59
555.33	42586.05
555.50	42342.63
555.67	42602.43
555.83	42719.46
556.00	42770.95
556.16	42864.57
556.33	42768.61
556.50	42597.75
556.66	42773.29
556.83	43138.41
556.99	43187.56
557.16	43206.29
557.32	42951.17
557.49	43021.39
557.65	42508.81
557.82	42665.63
557.98	43051.81
558.15	43119.69
558.32	42862.23
558.48	42752.23
558.65	43096.28
558.81	42342.63
558.98	42759.25
559.14	42895.00
559.31	42962.87
559.47	43145.44
559.64	43196.93
559.80	43339.70
559.97	43562.05
560.13	43079.90
560.30	42852.87
560.46	43283.53
560.63	43051.81
560.79	43166.50
560.96	44032.50
561.12	43164.16
561.29	43313.95
561.45	43337.36
561.61	43320.98
561.78	43768.02
561.94	42972.24
562.11	43515.24
562.27	43250.76
562.44	43487.15
562.60	43615.88
562.77	43487.15
562.93	43660.35
563.10	43662.69
563.26	43423.96
563.42	43770.36
563.59	43166.50
563.75	43215.65
563.92	43746.95
564.08	43545.67
564.24	43856.96
564.41	43519.92
564.57	43440.34
564.74	43220.33
564.90	43861.64
565.07	43849.94
565.23	43634.61
565.39	43253.10
565.56	43810.15
565.72	43360.76
565.88	44107.40
566.05	43828.87
566.21	43536.30
566.38	43480.13
566.54	43615.88
566.70	43920.15
566.87	43917.81
567.03	44201.02
567.19	44051.22
567.36	43985.69
567.52	43594.82
567.68	44119.10
567.85	43859.30
568.01	43702.48
568.17	43489.49
568.34	43906.11
568.50	44004.41
568.66	43983.35
568.83	44095.69
568.99	43517.58
569.15	43391.19
569.32	44039.52
569.48	43871.00
569.64	43824.19
569.81	44149.53
569.97	44067.61
570.13	43992.71
570.30	43564.39
570.46	43779.72
570.62	43592.48
570.78	44208.04
570.95	44119.10
571.11	44376.56
571.27	43531.62
571.43	43660.35
571.60	43943.56
571.76	43679.08
571.92	44046.54
572.09	43901.43
572.25	43833.55
572.41	44233.78
572.57	44313.36
572.74	44395.28
572.90	44442.09
573.06	44446.77
573.22	44201.02
573.38	44275.91
573.55	43498.86
573.71	43852.28
573.87	43920.15
574.03	44006.75
574.20	43885.04
574.36	44128.46
574.52	44114.42
574.68	44189.31
574.84	44133.14
575.01	44203.36
575.17	44374.22
575.33	43887.39
575.49	43856.96
575.65	43948.24
575.82	44376.56
575.98	44093.35
576.14	43849.94
576.30	44360.17
576.46	44067.61
576.62	44072.29
576.79	44374.22
576.95	43973.98
577.11	44339.11
577.27	44165.91
577.43	44037.18
577.59	44149.53
577.75	44205.70
577.92	43812.49
578.08	43945.90
578.24	44219.74
578.40	44430.39
578.56	44177.61
578.72	44287.62
578.88	44524.01
579.04	44545.08
579.21	44495.92
579.37	44194.00
579.53	44065.27
579.69	44222.08
579.85	44374.22
580.01	44191.65
580.17	44320.38
580.33	44458.48
580.49	44254.85
580.65	44357.83
580.82	44299.32
580.98	44273.57
581.14	43995.05
581.30	44428.05
581.46	44161.23
581.62	44568.48
581.78	44109.74
581.94	44877.43
582.10	44353.15
582.26	44538.05
582.42	44208.04
582.58	44304.00
582.74	43936.54
582.90	44596.57
583.06	44460.82
583.22	44392.94
583.38	44472.52
583.54	44563.80
583.70	44308.68
583.86	44144.84
584.02	44275.91
584.18	44165.91
584.34	44299.32
584.50	44161.23
584.66	44030.16
584.82	44229.10
584.98	44493.58
585.14	44830.62
585.30	44130.80
585.46	44528.69
585.62	44275.91
585.78	44168.25
585.94	44446.77
586.10	44156.55
586.26	44095.69
586.42	44655.08
586.58	44512.31
586.74	44500.61
586.90	44161.23
587.06	44362.51
587.22	44177.61
587.38	44048.88
587.54	44392.94
587.70	44783.81
587.86	44589.55
588.02	44619.97
588.18	44624.65
588.34	44282.94
588.49	44023.14
588.65	43611.20
588.81	44388.26
588.97	44079.31
589.13	44268.89
589.29	44093.35
589.45	44350.81
589.61	44406.98
589.77	44655.08
589.93	44645.72
590.08	44713.59
590.24	44519.33
