SpectraSuite Data File
++++++++++++++++++++++++++++++++++++
Date: Fri Oct 25 11:24:06 EDT 2013
User: price-jones
Dark Spectrum Present: No
Reference Spectrum Present: No
Number of Sampled Component Spectra: 1
Spectrometers: USB2+H05261
Integration Time (usec): 100000 (USB2+H05261)
Spectra Averaged: 1 (USB2+H05261)
Boxcar Smoothing: 0 (USB2+H05261)
Correct for Electrical Dark: No (USB2+H05261)
Strobe/Lamp Enabled: No (USB2+H05261)
Correct for Detector Non-linearity: No (USB2+H05261)
Correct for Stray Light: No (USB2+H05261)
Number of Pixels in Processed Spectrum: 2048
>>>>>Begin Processed Spectral Data<<<<<
365.73	220.01
365.92	220.01
366.12	220.01
366.32	154.48
366.52	152.13
366.72	182.56
366.91	182.56
367.11	81.92
367.31	23.41
367.51	126.39
367.70	138.09
367.90	177.88
368.10	65.54
368.30	81.92
368.49	121.71
368.69	191.92
368.89	159.16
369.09	119.37
369.28	154.48
369.48	203.63
369.68	175.54
369.87	187.24
370.07	159.16
370.27	184.90
370.47	311.29
370.66	550.03
370.86	643.65
371.06	660.03
371.25	690.46
371.45	650.67
371.65	662.37
371.84	662.37
372.04	669.39
372.24	739.61
372.44	793.44
372.63	763.01
372.83	678.76
373.03	800.46
373.22	772.38
373.42	751.31
373.62	786.42
373.81	723.23
374.01	793.44
374.21	765.36
374.40	727.91
374.60	802.80
374.79	837.91
374.99	873.02
375.19	760.67
375.38	805.14
375.58	889.40
375.78	798.12
375.97	814.51
376.17	959.62
376.37	830.89
376.56	830.89
376.76	919.83
376.95	868.34
377.15	868.34
377.35	924.51
377.54	912.81
377.74	854.30
377.93	891.74
378.13	863.66
378.33	873.02
378.52	985.37
378.72	896.43
378.91	957.28
379.11	999.41
379.31	905.79
379.50	933.87
379.70	954.94
379.89	1046.22
380.09	959.62
380.28	1020.47
380.48	1027.50
380.68	1020.47
380.87	940.90
381.07	966.64
381.26	1011.11
381.46	968.98
381.65	1020.47
381.85	1076.65
382.04	922.17
382.24	1057.92
382.43	1029.84
382.63	1041.54
382.83	1130.48
383.02	1104.73
383.22	1036.86
383.41	1163.25
383.61	1053.24
383.80	1048.56
384.00	1100.05
384.19	1043.88
384.39	1100.05
384.58	1196.01
384.78	1121.12
384.97	1170.27
385.17	1104.73
385.36	1149.20
385.56	1074.31
385.75	1104.73
385.95	1219.42
386.14	1177.29
386.34	1219.42
386.53	1320.06
386.72	1146.86
386.92	1221.76
387.11	1219.42
387.31	1188.99
387.50	1259.21
387.70	1256.87
387.89	1294.32
388.09	1336.45
388.28	1310.70
388.48	1313.04
388.67	1296.66
388.86	1296.66
389.06	1359.85
389.25	1441.77
389.45	1387.94
389.64	1385.60
389.84	1245.16
390.03	1467.52
390.22	1364.53
390.42	1458.15
390.61	1495.60
390.81	1397.30
391.00	1350.49
391.19	1425.39
391.39	1432.41
391.58	1504.96
391.78	1420.71
391.97	1500.28
392.16	1427.73
392.36	1593.90
392.55	1523.69
392.75	1460.49
392.94	1533.05
393.13	1490.92
393.33	1420.71
393.52	1523.69
393.71	1640.72
393.91	1605.61
394.10	1629.01
394.29	1739.02
394.49	1579.86
394.68	1643.06
394.88	1710.93
395.07	1687.53
395.26	1713.27
395.46	1570.50
395.65	1750.72
395.84	1750.72
396.04	1893.49
396.23	1722.63
396.42	1748.38
396.62	1760.08
396.81	1823.28
397.00	1804.55
397.19	1764.76
397.39	1743.70
397.58	1944.99
397.77	1923.92
397.97	1891.15
398.16	1776.47
398.35	1888.81
398.55	1832.64
398.74	1872.43
398.93	1919.24
399.12	1891.15
399.32	1959.03
399.51	1980.09
399.70	1973.07
399.90	2024.56
400.09	2033.93
400.28	2010.52
400.47	2057.33
400.67	2097.12
400.86	2153.29
401.05	2036.27
401.24	2160.31
401.44	2209.47
401.63	2085.42
401.82	2146.27
402.01	2136.91
402.21	2148.61
402.40	2249.25
402.59	2265.64
402.78	2148.61
402.97	2150.95
403.17	2193.08
403.36	2244.57
403.55	2244.57
403.74	2298.41
403.93	2331.17
404.13	2324.15
404.32	2431.82
404.51	2282.02
404.70	2417.77
404.89	2450.54
405.09	2495.01
405.28	2553.52
405.47	2471.61
405.66	2431.82
405.85	2516.08
406.05	2438.84
406.24	2485.65
406.43	2644.81
406.62	2597.99
406.81	2663.53
407.00	2661.19
407.20	2579.27
407.39	2612.04
407.58	2780.56
407.77	2764.17
407.96	2757.15
408.15	2759.49
408.34	2705.66
408.54	2803.96
408.73	2752.47
408.92	2717.36
409.11	2906.95
409.30	3016.95
409.49	2995.89
409.68	2974.82
409.87	2958.44
410.07	2963.12
410.26	3042.70
410.45	3028.65
410.64	3122.27
410.83	3164.40
411.02	3030.99
411.21	3283.77
411.40	3059.08
411.59	3253.34
411.78	3129.30
411.98	3183.13
412.17	3253.34
412.36	3384.41
412.55	3269.73
412.74	3412.50
412.93	3393.78
413.12	3438.25
413.31	3503.78
413.50	3536.55
413.69	3552.93
413.88	3555.27
414.07	3681.66
414.26	3658.26
414.45	3658.26
414.64	3578.68
414.83	3726.13
415.02	3784.65
415.22	3786.99
415.41	3822.09
415.60	3866.56
415.79	3913.38
415.98	4023.38
416.17	3941.46
416.36	3906.35
416.55	3971.89
416.74	4053.81
416.93	4042.11
417.12	4117.00
417.31	4194.24
417.50	4215.30
417.69	4259.78
417.88	4306.59
418.07	4142.75
418.26	4304.25
418.45	4266.80
418.64	4547.66
418.83	4444.68
419.02	4437.66
419.21	4430.63
419.39	4657.67
419.58	4519.57
419.77	4407.23
419.96	4552.34
420.15	4573.41
420.34	4631.92
420.53	4610.86
420.72	4573.41
420.91	4641.28
421.10	4835.55
421.29	4798.10
421.48	4596.81
421.67	4744.27
421.86	4730.22
422.05	4898.74
422.24	4784.06
422.43	5004.07
422.61	4819.16
422.80	4992.36
422.99	4997.04
423.18	5074.28
423.37	5109.39
423.56	4933.85
423.75	4971.30
423.94	4741.93
424.13	4575.75
424.32	4685.75
424.50	4919.81
424.69	5158.54
424.88	5050.88
425.07	4887.04
425.26	5032.15
425.45	5050.88
425.64	5142.16
425.83	4943.21
426.01	5118.75
426.20	5039.17
426.39	5116.41
426.58	5034.49
426.77	5071.94
426.96	5205.35
427.15	5130.45
427.33	5245.14
427.52	5205.35
427.71	5390.25
427.90	5359.83
428.09	5380.89
428.28	5455.79
428.46	5523.66
428.65	5350.46
428.84	5619.63
429.03	5692.18
429.22	5474.51
429.40	5516.64
429.59	5643.03
429.78	5296.63
429.97	5366.85
430.16	5460.47
430.34	5675.80
430.53	5633.67
430.72	5722.61
430.91	5654.73
431.10	5654.73
431.28	5643.03
431.47	5769.42
431.66	5846.66
431.85	5809.21
432.03	6008.16
432.22	6054.97
432.41	5961.34
432.60	5921.56
432.79	6024.54
432.97	6083.05
433.16	5902.83
433.35	5987.09
433.54	6235.19
433.72	6080.71
433.91	6122.84
434.10	6115.82
434.28	6190.72
434.47	6197.74
434.66	6104.12
434.85	6377.96
435.03	6401.37
435.22	6345.19
435.41	6370.94
435.59	6497.33
435.78	6298.38
435.97	6485.62
436.16	6277.32
436.34	6469.24
436.53	6464.56
436.72	6715.00
436.90	6537.12
437.09	6462.22
437.28	6539.46
437.46	6644.78
437.65	6726.70
437.84	6757.13
438.02	6794.58
438.21	6759.47
438.40	6799.26
438.58	6960.75
438.77	7148.00
438.96	6909.26
439.14	7049.69
439.33	7213.53
439.52	7059.06
439.70	7360.98
439.89	7400.77
440.08	7379.71
440.26	7555.25
440.45	7445.24
440.63	7478.01
440.82	7604.40
441.01	7606.74
441.19	7536.52
441.38	7700.36
441.57	7796.32
441.75	7847.82
441.94	8051.44
442.12	8063.15
442.31	8109.96
442.50	8147.40
442.68	8021.02
442.87	8131.02
443.05	8252.73
443.24	8194.22
443.43	8208.26
443.61	8435.29
443.80	8568.70
443.98	8250.39
444.17	7857.18
444.35	8336.99
444.54	8126.34
444.73	8271.45
444.91	8250.39
445.10	8528.91
445.28	8386.14
445.47	8278.47
445.65	8451.67
445.84	8503.17
446.02	8528.91
446.21	8489.12
446.39	8383.80
446.58	8615.51
446.77	8540.61
446.95	8444.65
447.14	8547.64
447.32	8437.63
447.51	8589.77
447.69	8472.74
447.88	8528.91
448.06	8461.04
448.25	8659.98
448.43	8578.06
448.62	8819.14
448.80	8723.18
448.99	8652.96
449.17	8645.94
449.36	8697.43
449.54	8854.25
449.73	8987.66
449.91	9116.39
450.10	8901.06
450.28	9085.96
450.46	9142.13
450.65	9008.72
450.83	9008.72
451.02	9015.74
451.20	9172.56
451.39	9160.86
451.57	9170.22
451.76	9160.86
451.94	9158.52
452.13	9125.75
452.31	9565.77
452.49	9202.99
452.68	9303.63
452.86	9369.16
453.05	9415.98
453.23	9483.85
453.42	9448.74
453.60	9476.83
453.78	9427.68
453.97	9359.80
454.15	9638.33
454.34	9584.49
454.52	9724.93
454.70	9797.48
454.89	9755.35
455.07	9760.03
455.26	9750.67
455.44	9909.83
455.62	9867.70
455.81	9891.10
455.99	10076.01
456.17	10141.54
456.36	9921.53
456.54	10019.83
456.73	10406.02
456.91	10424.75
457.09	10368.57
457.28	10548.79
457.46	10373.25
457.64	10469.22
457.83	10670.50
458.01	10628.37
458.19	10766.46
458.38	10614.33
458.56	10937.32
458.74	10527.73
458.93	10682.20
459.11	10806.25
459.29	10682.20
459.48	10640.08
459.66	10843.70
459.84	10927.96
460.03	11023.92
460.21	10808.59
460.39	10953.71
460.57	10998.18
460.76	11183.08
460.94	11140.95
461.12	11012.22
461.31	11370.32
461.49	11171.38
461.67	11232.23
461.85	11599.70
462.04	11353.94
462.22	11517.78
462.40	11641.82
462.59	11637.14
462.77	11726.08
462.95	11529.48
463.13	11508.41
463.32	11653.53
463.50	11824.39
463.68	11735.45
463.86	11857.15
464.05	11754.17
464.23	11910.99
464.41	12112.27
464.59	12013.97
464.78	11880.56
464.96	12070.14
465.14	11885.24
465.32	12173.13
465.50	12072.48
465.69	12189.51
465.87	12219.94
466.05	12233.98
466.23	12121.63
466.41	12002.27
466.60	12367.39
466.78	12231.64
466.96	12226.96
467.14	12287.81
467.32	12510.16
467.51	12592.08
467.69	12278.45
467.87	12453.99
468.05	12620.17
468.23	12636.55
468.41	12351.01
468.60	12500.80
468.78	12622.51
468.96	12800.39
469.14	12842.52
469.32	12854.22
469.50	12833.16
469.69	13109.34
469.87	13083.59
470.05	13032.10
470.23	13385.52
470.41	13252.11
470.59	13413.61
470.77	13280.20
470.95	13493.19
471.14	13497.87
471.32	13224.03
471.50	13661.71
471.68	13551.70
471.86	13757.67
472.04	13783.41
472.22	14061.94
472.40	13811.50
472.58	13958.96
472.77	14129.81
472.95	14139.18
473.13	14504.30
473.31	14211.73
473.49	14207.05
473.67	14441.11
473.85	14293.65
474.03	14476.21
474.21	14869.42
474.39	14665.80
474.57	14731.33
474.75	14710.27
474.93	15021.56
475.12	15185.40
475.30	15215.82
475.48	15309.44
475.66	15246.25
475.84	15225.18
476.02	15405.41
476.20	15688.61
476.38	15868.83
476.56	15917.98
476.74	15896.92
476.92	15723.72
477.10	16058.42
477.28	16112.25
477.46	16222.25
477.64	16023.31
477.82	16776.96
478.00	16978.25
478.18	16879.94
478.36	17053.14
478.54	17301.24
478.72	17245.07
478.90	17551.68
479.08	17542.32
479.26	17619.55
479.44	17935.53
479.62	18061.91
479.80	18019.78
479.98	18382.57
480.16	18565.13
480.34	18504.28
480.52	18824.93
480.70	18867.06
480.88	18427.04
481.06	18703.22
481.24	18698.54
481.41	18965.36
481.59	19473.26
481.77	19559.86
481.95	19576.24
482.13	19800.93
482.31	19676.88
482.49	20524.16
482.67	20259.68
482.85	20393.09
483.03	20753.53
483.21	20577.99
483.39	21504.84
483.57	20978.22
483.74	20968.86
483.92	21376.11
484.10	21404.20
484.28	21996.35
484.46	22017.42
484.64	22544.04
484.82	21982.31
485.00	22382.54
485.18	22717.24
485.35	23084.70
485.53	22794.48
485.71	23412.38
485.89	23552.81
486.07	23302.37
486.25	23370.25
486.43	23707.29
486.61	23962.40
486.78	24142.63
486.96	24306.46
487.14	24922.02
487.32	24893.94
487.50	25553.97
487.68	25006.28
487.85	25387.79
488.03	25645.25
488.21	25881.64
488.39	26015.05
488.57	26038.46
488.75	26164.85
488.92	26991.06
489.10	26656.36
489.28	26668.06
489.46	27147.87
489.64	27108.08
489.81	27688.54
489.99	27587.89
490.17	27880.46
490.35	28135.58
490.53	28208.14
490.70	28362.61
490.88	28173.03
491.06	29095.20
491.24	28758.16
491.41	29034.35
491.59	29142.01
491.77	29656.93
491.95	29584.37
492.13	30239.72
492.30	30164.82
492.48	29902.68
492.66	30394.20
492.84	30401.22
493.01	30857.62
493.19	30698.47
493.37	31260.20
493.54	30951.24
493.72	31412.33
493.90	31821.92
494.08	32053.64
494.25	32130.87
494.43	32009.17
494.61	32577.92
494.79	32655.15
494.96	32442.17
495.14	32903.25
495.32	33333.91
495.49	33572.64
495.67	33577.33
495.85	33233.27
496.02	33670.95
496.20	34206.93
496.38	34565.03
496.55	34029.05
496.73	35292.94
496.91	34717.17
497.09	35049.52
497.26	35007.39
497.44	35276.55
497.62	35056.54
497.79	35683.81
497.97	35721.26
498.14	35700.19
498.32	36514.70
498.50	36245.54
498.67	36720.66
498.85	36767.48
499.03	36751.09
499.20	36947.70
499.38	37301.12
499.56	37207.50
499.73	37132.60
499.91	37748.16
500.08	37907.32
500.26	37600.71
500.44	37572.62
500.61	37769.22
500.79	37731.78
500.97	38382.45
501.14	38604.80
501.32	38988.64
501.49	38862.26
501.67	38890.34
501.84	39161.84
502.02	39143.12
502.20	38848.21
502.37	39215.68
502.55	39728.25
502.72	39227.38
502.90	39533.99
503.07	39407.60
503.25	40524.04
503.43	40076.99
503.60	40261.90
503.78	40645.74
503.95	40580.21
504.13	40484.25
504.30	40807.24
504.48	40741.71
504.65	41261.30
504.83	41324.50
505.01	41179.39
505.18	41434.50
505.36	41565.57
505.53	41736.43
505.71	41668.56
505.88	41935.38
506.06	41476.63
506.23	42164.75
506.41	42026.66
506.58	42274.76
506.76	42143.69
506.93	42836.48
507.11	42588.39
507.28	42799.04
507.46	43000.32
507.63	43374.81
507.81	43328.00
507.98	43119.69
508.16	43405.23
508.33	43508.22
508.50	43716.53
508.68	43889.73
508.85	44175.27
509.03	43990.37
509.20	44114.42
509.38	44233.78
509.55	44720.62
509.73	44453.79
509.90	44694.87
510.08	44208.04
510.25	45034.25
510.42	44718.28
510.60	45088.08
510.77	45338.52
510.95	45656.83
511.12	45069.36
511.30	45230.85
511.47	45851.09
511.64	45298.73
511.82	45902.59
511.99	45954.08
512.17	45813.65
512.34	46169.41
512.51	46555.60
512.69	46265.37
512.86	46532.19
513.04	46581.34
513.21	46721.77
513.38	46894.97
513.56	47072.85
513.73	47016.68
513.90	47562.03
514.08	46625.81
514.25	47803.10
514.43	47791.40
514.60	47487.13
514.77	47501.17
514.95	47772.67
515.12	47730.54
515.29	48041.84
515.47	48046.52
515.64	48439.73
515.81	48175.25
515.99	48622.29
516.16	48264.19
516.33	48706.55
516.51	49263.60
516.68	48633.99
516.85	48655.06
517.03	49432.11
517.20	49048.27
517.37	48868.05
517.54	49125.50
517.72	49242.53
517.89	49169.97
518.06	49151.25
518.24	49059.97
518.41	49633.40
518.58	49427.43
518.75	49118.48
518.93	49944.69
519.10	49661.49
519.27	50059.38
519.45	49984.48
519.62	50490.04
519.79	50153.00
519.96	49975.12
520.14	50295.77
520.31	49883.84
520.48	50113.21
520.65	50520.46
520.83	50923.04
521.00	50794.31
521.17	50471.31
521.34	50995.59
521.52	50672.60
521.69	50880.91
521.86	51084.53
522.03	51484.76
522.20	51260.07
522.38	51686.05
522.55	51480.08
522.72	51367.74
522.89	51402.85
523.07	51732.86
523.24	51613.49
523.41	51906.06
523.58	51704.77
523.75	52516.94
523.92	51966.91
524.10	52006.70
524.27	51980.96
524.44	51999.68
524.61	52156.50
524.78	52086.28
524.96	52552.05
525.13	52317.99
525.30	52713.55
525.47	52465.45
525.64	52896.11
525.81	52931.22
525.98	52786.10
526.16	52683.12
526.33	52664.39
526.50	53183.99
526.67	52811.85
526.84	52884.40
527.01	53195.70
527.18	52882.06
527.36	52994.41
527.53	53301.02
527.70	53631.04
527.87	53577.20
528.04	53336.13
528.21	53698.91
528.38	53446.13
528.55	53490.60
528.72	53448.47
528.89	53542.10
529.07	53441.45
529.24	53481.24
529.41	53872.11
529.58	53549.12
529.75	53612.31
529.92	54145.95
530.09	53989.14
530.26	53883.81
530.43	54087.44
530.60	53883.81
530.77	53982.12
530.94	54314.47
531.11	54190.42
531.28	54265.32
531.46	54520.44
531.63	54464.27
531.80	54356.60
531.97	54585.97
532.14	54513.42
532.31	54412.77
532.48	54761.51
532.65	54906.63
532.82	54590.66
532.99	54794.28
533.16	55014.29
533.33	55021.31
533.50	55159.41
533.67	54948.76
533.84	54972.16
534.01	54981.52
534.18	55147.70
534.35	55339.63
534.52	55231.96
534.69	55437.93
534.86	55540.91
535.03	55161.75
535.20	55339.63
535.37	55634.53
535.54	55566.66
535.71	55489.42
535.88	55587.72
536.05	55559.64
536.22	55592.40
536.38	55714.11
536.55	55646.24
536.72	55730.50
536.89	55697.73
537.06	55737.52
537.23	55807.73
537.40	55774.97
537.57	55826.46
537.74	56023.06
537.91	56130.73
538.08	55856.88
538.25	55899.01
538.42	55854.54
538.59	56334.35
538.75	56156.47
538.92	56074.55
539.09	56292.22
539.26	56074.55
539.43	56521.60
539.60	56339.04
539.77	56306.27
539.94	56327.33
540.11	56479.47
540.28	56308.61
540.44	56446.70
540.61	56547.34
540.78	56615.22
540.95	56575.43
541.12	56418.61
541.29	56207.97
541.46	56666.71
541.62	56708.84
541.79	56734.59
541.96	56474.79
542.13	56666.71
542.30	56853.95
542.47	57015.45
542.63	56797.78
542.80	57125.46
542.97	57319.72
543.14	57310.36
543.31	57219.08
543.48	57198.01
543.64	57556.11
543.81	57612.29
543.98	57546.75
544.15	57521.01
544.32	57462.49
544.48	57694.21
544.65	57579.52
544.82	57499.94
544.99	57418.02
545.16	57827.62
545.32	57542.07
545.49	57741.02
545.66	57801.87
545.83	57748.04
546.00	57996.13
546.16	57710.59
546.33	57712.93
546.50	57708.25
546.67	57801.87
546.83	57649.74
547.00	57858.04
547.17	57900.17
547.34	58038.26
547.50	58319.13
547.67	58143.59
547.84	57961.03
548.00	58286.36
548.17	58532.12
548.34	58300.40
548.51	58344.87
548.67	58197.42
548.84	58443.18
549.01	58071.03
549.18	58288.70
549.34	58230.19
549.51	58288.70
549.68	58417.43
549.84	58497.01
550.01	58578.93
550.18	58398.71
550.34	58541.48
550.51	58548.50
550.68	58436.16
550.84	58361.26
551.01	58747.45
551.18	58595.31
551.34	58583.61
551.51	58773.19
551.68	58742.77
551.84	58625.74
552.01	58494.67
552.18	58745.11
552.34	58752.13
552.51	58841.07
552.68	58457.22
552.84	58677.23
553.01	59100.87
553.18	58791.92
553.34	59000.22
553.51	58628.08
553.67	58810.64
553.84	59107.89
554.01	58894.90
554.17	58887.88
554.34	59077.46
554.51	59121.93
554.67	59248.32
554.84	59325.56
555.00	59061.08
555.17	59047.04
555.33	59096.19
555.50	59135.98
555.67	59051.72
555.83	59199.17
556.00	59201.51
556.16	59615.79
556.33	59491.74
556.50	59269.39
556.66	59454.29
556.83	59070.44
556.99	59367.69
557.16	59568.97
557.32	59587.70
557.49	59784.30
557.65	59402.80
557.82	59419.18
557.98	59491.74
558.15	59552.59
558.32	59543.23
558.48	59346.62
558.65	59625.15
558.81	59735.15
558.98	59515.14
559.14	59674.30
559.31	59655.57
559.47	59882.61
559.64	59641.53
559.80	59767.92
559.97	59917.71
560.13	59613.44
560.30	59854.52
560.46	59697.70
560.63	59920.05
560.79	59887.29
560.96	59821.75
561.12	59952.82
561.29	59667.28
561.45	59849.84
561.61	59924.74
561.78	59931.76
561.94	59887.29
562.11	59917.71
562.27	59891.97
562.44	60001.97
562.60	60144.75
562.77	60149.43
562.93	59774.94
563.10	60198.58
563.26	59781.96
563.42	60224.32
563.59	60095.60
563.75	60126.02
563.92	60257.09
564.08	60231.35
564.24	60149.43
564.41	60233.69
564.57	60144.75
564.74	60177.51
564.90	60409.23
565.07	60219.64
565.23	60055.81
565.39	60259.43
565.56	60310.92
565.72	60280.50
565.88	60425.61
566.05	60350.71
566.21	60341.35
566.38	60170.49
566.54	60327.31
566.70	60376.46
566.87	60439.65
567.03	60280.50
567.19	60493.49
567.36	60271.14
567.52	60449.02
567.68	60657.32
567.85	60413.91
568.01	60554.34
568.17	60523.91
568.34	60392.84
568.50	60261.77
568.66	60420.93
568.83	60608.17
568.99	60456.04
569.15	60516.89
569.32	60610.51
569.48	60381.14
569.64	60755.63
569.81	60563.70
569.97	60818.82
570.13	60507.53
570.30	60516.89
570.46	60603.49
570.62	60439.65
570.78	60650.30
570.95	60540.30
571.11	60734.56
571.27	60587.11
571.43	60610.51
571.60	60816.48
571.76	60694.77
571.92	60650.30
572.09	60505.19
572.25	60746.26
572.41	60521.57
572.57	60741.58
572.74	60870.31
572.90	60783.71
573.06	60720.52
573.22	60842.23
573.38	60851.59
573.55	60573.06
573.71	60938.19
573.87	60708.82
574.03	60671.37
574.20	60816.48
574.36	60706.47
574.52	60879.67
574.68	60800.10
574.84	61055.21
575.01	60811.80
575.17	60935.85
575.33	60816.48
575.49	60772.01
575.65	60582.43
575.82	60640.94
575.98	60879.67
576.14	61069.26
576.30	60949.89
576.46	60584.77
576.62	60882.02
576.79	60865.63
576.95	60837.54
577.11	60692.43
577.27	60837.54
577.43	61043.51
577.59	60746.26
577.75	60956.91
577.92	60750.94
578.08	60900.74
578.24	60825.84
578.40	61144.16
578.56	60956.91
578.72	61029.47
578.88	61041.17
579.04	61221.39
579.21	60982.66
579.37	61106.71
579.53	61319.70
579.69	60914.78
579.85	60945.21
580.01	60818.82
580.17	60956.91
580.33	61083.30
580.49	61008.40
580.65	60949.89
580.82	60949.89
580.98	60863.29
581.14	60947.55
581.30	61167.56
581.46	61010.74
581.62	60882.02
581.78	60987.34
581.94	61141.81
582.10	60882.02
582.26	60982.66
582.42	60900.74
582.58	61144.16
582.74	61144.16
582.90	60926.49
583.06	61167.56
583.22	60652.64
583.38	60914.78
583.54	61022.45
583.70	61078.62
583.86	61207.35
584.02	60924.14
584.18	61076.28
584.34	61059.90
584.50	61188.63
584.66	61027.13
584.82	60935.85
584.98	61300.97
585.14	61104.37
585.30	61057.56
585.46	61233.10
585.62	61268.20
585.78	61387.57
585.94	61022.45
586.10	61333.74
586.26	61169.90
586.42	61258.84
586.58	61277.57
586.74	61073.94
586.90	61331.40
587.06	61183.94
587.22	61319.70
587.38	61261.18
587.54	61223.73
587.70	61413.32
587.86	61347.78
588.02	61078.62
588.18	61256.50
588.34	61118.41
588.49	61095.00
