SpectraSuite Data File
++++++++++++++++++++++++++++++++++++
Date: Fri Oct 25 11:23:19 EDT 2013
User: price-jones
Dark Spectrum Present: No
Reference Spectrum Present: No
Number of Sampled Component Spectra: 1
Spectrometers: USB2+H05261
Integration Time (usec): 100000 (USB2+H05261)
Spectra Averaged: 1 (USB2+H05261)
Boxcar Smoothing: 0 (USB2+H05261)
Correct for Electrical Dark: No (USB2+H05261)
Strobe/Lamp Enabled: No (USB2+H05261)
Correct for Detector Non-linearity: No (USB2+H05261)
Correct for Stray Light: No (USB2+H05261)
Number of Pixels in Processed Spectrum: 2048
>>>>>Begin Processed Spectral Data<<<<<
365.73	248.10
365.92	248.10
366.12	248.10
366.32	161.50
366.52	84.26
366.72	217.67
366.91	79.58
367.11	117.03
367.31	142.77
367.51	133.41
367.70	88.94
367.90	133.41
368.10	124.05
368.30	145.11
368.49	91.28
368.69	147.45
368.89	140.43
369.09	180.22
369.28	128.73
369.48	166.18
369.68	189.58
369.87	215.33
370.07	180.22
370.27	182.56
370.47	348.74
370.66	524.28
370.86	617.90
371.06	653.01
371.25	688.12
371.45	711.52
371.65	627.26
371.84	699.82
372.04	741.95
372.24	753.65
372.44	713.86
372.63	763.01
372.83	744.29
373.03	777.06
373.22	786.42
373.42	755.99
373.62	800.46
373.81	854.30
374.01	770.04
374.21	919.83
374.40	819.19
374.60	800.46
374.79	812.17
374.99	894.08
375.19	833.23
375.38	835.57
375.58	854.30
375.78	816.85
375.97	887.06
376.17	912.81
376.37	882.38
376.56	875.36
376.76	842.59
376.95	858.98
377.15	908.13
377.35	856.64
377.54	938.55
377.74	866.00
377.93	891.74
378.13	959.62
378.33	973.66
378.52	842.59
378.72	973.66
378.91	1043.88
379.11	882.38
379.31	987.71
379.50	997.07
379.70	978.34
379.89	1004.09
380.09	990.05
380.28	936.21
380.48	1001.75
380.68	978.34
380.87	994.73
381.07	924.51
381.26	1029.84
381.46	1011.11
381.65	1083.67
381.85	1020.47
382.04	1137.50
382.24	1055.58
382.43	1029.84
382.63	1032.18
382.83	1029.84
383.02	1102.39
383.22	1137.50
383.41	1151.54
383.61	1100.05
383.80	1123.46
384.00	1107.07
384.19	1029.84
384.39	1057.92
384.58	1149.20
384.78	1165.59
384.97	1179.63
385.17	1078.99
385.36	1116.44
385.56	1188.99
385.75	1196.01
385.95	1214.74
386.14	1186.65
386.34	1235.80
386.53	1149.20
386.72	1137.50
386.92	1184.31
387.11	1219.42
387.31	1327.08
387.50	1280.27
387.70	1256.87
387.89	1268.57
388.09	1338.79
388.28	1296.66
388.48	1287.29
388.67	1291.98
388.86	1280.27
389.06	1348.15
389.25	1420.71
389.45	1322.40
389.64	1427.73
389.84	1465.18
390.03	1413.68
390.22	1287.29
390.42	1324.74
390.61	1385.60
390.81	1423.05
391.00	1530.71
391.19	1537.73
391.39	1474.54
391.58	1441.77
391.78	1458.15
391.97	1427.73
392.16	1409.00
392.36	1540.07
392.55	1430.07
392.75	1519.01
392.94	1526.03
393.13	1519.01
393.33	1500.28
393.52	1511.99
393.71	1549.43
393.91	1582.20
394.10	1692.21
394.29	1612.63
394.49	1605.61
394.68	1668.80
394.88	1696.89
395.07	1607.95
395.26	1713.27
395.46	1729.66
395.65	1657.10
395.84	1783.49
396.04	1746.04
396.23	1776.47
396.42	1647.74
396.62	1774.13
396.81	1834.98
397.00	1820.94
397.19	1830.30
397.39	1827.96
397.58	1888.81
397.77	1839.66
397.97	1891.15
398.16	1834.98
398.35	1973.07
398.55	1949.67
398.74	1994.14
398.93	1940.30
399.12	1980.09
399.32	1832.64
399.51	1996.48
399.70	2050.31
399.90	1961.37
400.09	2057.33
400.28	1916.90
400.47	2069.03
400.67	2066.69
400.86	2017.54
401.05	2101.80
401.24	2019.88
401.44	2228.19
401.63	2099.46
401.82	2132.23
402.01	2033.93
402.21	2179.04
402.40	2239.89
402.59	2258.62
402.78	2225.85
402.97	2181.38
403.17	2310.11
403.36	2349.90
403.55	2368.62
403.74	2385.01
403.93	2340.54
404.13	2422.45
404.32	2321.81
404.51	2377.98
404.70	2495.01
404.89	2403.73
405.09	2506.71
405.28	2478.63
405.47	2476.29
405.66	2518.42
405.85	2530.12
406.05	2602.68
406.24	2590.97
406.43	2614.38
406.62	2562.89
406.81	2616.72
407.00	2471.61
407.20	2562.89
407.39	2530.12
407.58	2747.79
407.77	2789.92
407.96	2787.58
408.15	2672.89
408.34	2808.64
408.54	2780.56
408.73	2857.79
408.92	2841.41
409.11	2867.16
409.30	2740.77
409.49	2932.69
409.68	2935.03
409.87	2963.12
410.07	2963.12
410.26	3112.91
410.45	3033.33
410.64	3087.17
410.83	3138.66
411.02	3019.29
411.21	3211.22
411.40	3126.96
411.59	3251.00
411.78	3335.26
411.98	3220.58
412.17	3358.67
412.36	3283.77
412.55	3344.63
412.74	3440.59
412.93	3332.92
413.12	3304.84
413.31	3536.55
413.50	3627.83
413.69	3412.50
413.88	3646.55
414.07	3651.24
414.26	3613.79
414.45	3637.19
414.64	3674.64
414.83	3826.78
415.02	3845.50
415.22	3770.60
415.41	3941.46
415.60	3864.22
415.79	4042.11
415.98	3950.82
416.17	4039.76
416.36	4028.06
416.55	4056.15
416.74	4093.60
416.93	4128.70
417.12	4128.70
417.31	4152.11
417.50	4107.64
417.69	4369.78
417.88	4229.35
418.07	4306.59
418.26	4294.88
418.45	4365.10
418.64	4528.94
418.83	4432.97
419.02	4404.89
419.21	4538.30
419.39	4531.28
419.58	4538.30
419.77	4510.21
419.96	4547.66
420.15	4489.15
420.34	4610.86
420.53	4578.09
420.72	4615.54
420.91	4704.48
421.10	4723.20
421.29	4926.83
421.48	4723.20
421.67	4896.40
421.86	4943.21
422.05	4999.38
422.24	4940.87
422.43	5053.22
422.61	4975.98
422.80	5048.54
422.99	4891.72
423.18	4961.94
423.37	4992.36
423.56	4863.63
423.75	4954.91
423.94	4931.51
424.13	4624.90
424.32	4634.26
424.50	5043.85
424.69	5132.79
424.88	5149.18
425.07	5116.41
425.26	5020.45
425.45	5085.98
425.64	4877.68
425.83	4952.57
426.01	5181.95
426.20	5048.54
426.39	5109.39
426.58	5221.74
426.77	4968.96
426.96	5114.07
427.15	5118.75
427.33	5198.33
427.52	5085.98
427.71	5277.91
427.90	5142.16
428.09	5078.96
428.28	5362.17
428.46	5542.39
428.65	5378.55
428.84	5537.71
429.03	5530.69
429.22	5345.78
429.40	5469.83
429.59	5504.94
429.78	5451.11
429.97	5228.76
430.16	5385.57
430.34	5621.97
430.53	5680.48
430.72	5797.51
430.91	5643.03
431.10	5678.14
431.28	5792.83
431.47	5687.50
431.66	5909.85
431.85	5771.76
432.03	5802.19
432.22	6003.47
432.41	5919.21
432.60	5827.93
432.79	6132.20
432.97	6064.33
433.16	6232.85
433.35	5944.96
433.54	6066.67
433.72	5973.05
433.91	6047.94
434.10	6204.76
434.28	6148.59
434.47	6239.87
434.66	6380.30
434.85	6251.57
435.03	6331.15
435.22	6413.07
435.41	6494.99
435.59	6356.90
435.78	6539.46
435.97	6345.19
436.16	6448.18
436.34	6450.52
436.53	6544.14
436.72	6527.75
436.90	6380.30
437.09	6647.12
437.28	6466.90
437.46	6642.44
437.65	6820.32
437.84	6754.79
438.02	6787.55
438.21	6888.20
438.40	6789.89
438.58	7096.50
438.77	7246.30
438.96	7148.00
439.14	7201.83
439.33	7171.40
439.52	7344.60
439.70	7288.43
439.89	7318.86
440.08	7419.50
440.26	7407.80
440.45	7510.78
440.63	7538.87
440.82	7637.17
441.01	7508.44
441.19	7625.47
441.38	7918.03
441.57	7747.17
441.75	7964.84
441.94	7810.37
442.12	8023.36
442.31	8156.77
442.50	8131.02
442.68	8161.45
442.87	8152.09
443.05	8322.94
443.24	8203.58
443.43	8266.77
443.61	8234.00
443.80	8489.12
443.98	8095.91
444.17	7896.97
444.35	8112.30
444.54	8395.50
444.73	8362.73
444.91	8554.66
445.10	8327.63
445.28	8461.04
445.47	8575.72
445.65	8580.40
445.84	8475.08
446.02	8552.32
446.21	8430.61
446.39	8334.65
446.58	8566.36
446.77	8533.59
446.95	8308.90
447.14	8402.52
447.32	8760.63
447.51	8706.79
447.69	8627.21
447.88	8662.32
448.06	8688.07
448.25	8557.00
448.43	8606.15
448.62	8652.96
448.80	8624.87
448.99	8652.96
449.17	8725.52
449.36	8648.28
449.54	8802.75
449.73	9085.96
449.91	9186.60
450.10	8926.80
450.28	9287.25
450.46	9048.51
450.65	8968.93
450.83	9172.56
451.02	9163.20
451.20	9254.48
451.39	9214.69
451.57	9320.01
451.76	9167.88
451.94	9427.68
452.13	9238.09
452.31	9331.72
452.49	9188.94
452.68	9420.66
452.86	9327.03
453.05	9500.23
453.23	9509.60
453.42	9451.08
453.60	9448.74
453.78	9699.18
453.97	9380.87
454.15	9554.07
454.34	9650.03
454.52	9722.59
454.70	9795.14
454.89	9778.76
455.07	9802.16
455.26	10068.98
455.44	9975.36
455.62	9893.44
455.81	10064.30
455.99	10207.08
456.17	10139.20
456.36	10122.82
456.54	10459.85
456.73	10188.35
456.91	10590.92
457.09	10487.94
457.28	10853.06
457.46	10284.31
457.64	10729.02
457.83	10670.50
458.01	10630.71
458.19	10815.62
458.38	10714.97
458.56	10600.29
458.74	10820.30
458.93	10766.46
459.11	10920.94
459.29	10984.13
459.48	10822.64
459.66	10991.16
459.84	11056.69
460.03	11140.95
460.21	11140.95
460.39	11105.84
460.57	11037.97
460.76	11171.38
460.94	11255.64
461.12	11248.61
461.31	11384.37
461.49	11421.81
461.67	11257.98
461.85	11555.22
462.04	11573.95
462.22	11524.80
462.40	11707.36
462.59	11536.50
462.77	11442.88
462.95	11733.11
463.13	11829.07
463.32	11562.25
463.50	11805.66
463.68	11843.11
463.86	11815.02
464.05	11646.51
464.23	11826.73
464.41	11885.24
464.59	11829.07
464.78	12009.29
464.96	12035.03
465.14	11908.65
465.32	11955.46
465.50	12194.19
465.69	12524.21
465.87	12191.85
466.05	12353.35
466.23	12369.73
466.41	12526.55
466.60	12542.93
466.78	12477.40
466.96	12678.68
467.14	12339.30
467.32	12545.27
467.51	12685.70
467.69	12388.46
467.87	12428.24
468.05	12755.92
468.23	12622.51
468.41	12592.08
468.60	12716.13
468.78	12882.31
468.96	12556.97
469.14	13156.15
469.32	13048.49
469.50	12929.12
469.69	13205.30
469.87	13336.37
470.05	13104.66
470.23	13240.41
470.41	13359.78
470.59	13387.86
470.77	13296.58
470.95	13645.32
471.14	13652.34
471.32	13296.58
471.50	13696.82
471.68	13720.22
471.86	13802.14
472.04	13701.50
472.22	14190.67
472.40	13724.90
472.58	13963.64
472.77	14054.92
472.95	14136.84
473.13	14644.73
473.31	14134.50
473.49	14370.89
473.67	14490.26
473.85	14621.33
474.03	14796.87
474.21	14602.60
474.39	14590.90
474.57	14773.46
474.75	15077.73
474.93	15054.33
475.12	14831.97
475.30	15356.25
475.48	15180.71
475.66	15653.50
475.84	15314.13
476.02	15592.65
476.20	15545.84
476.38	15845.43
476.56	16053.73
476.74	16147.36
476.92	16255.02
477.10	15999.90
477.28	16327.58
477.46	16343.96
477.64	16692.70
477.82	16704.40
478.00	17254.43
478.18	16994.63
478.36	17266.13
478.54	17366.78
478.72	17303.58
478.90	17530.61
479.08	17699.13
479.26	18017.44
479.44	18153.20
479.62	18132.13
479.80	18204.69
479.98	18375.55
480.16	18892.80
480.34	18717.26
480.52	18892.80
480.70	18925.57
480.88	18485.55
481.06	19194.73
481.24	19035.58
481.41	19077.71
481.59	19697.95
481.77	19852.42
481.95	19800.93
482.13	19852.42
482.31	20004.56
482.49	20355.64
482.67	20428.20
482.85	20320.53
483.03	20840.13
483.21	20823.75
483.39	21474.42
483.57	20809.70
483.74	21191.21
483.92	21413.56
484.10	21317.60
484.28	21486.12
484.46	22221.05
484.64	22382.54
484.82	22244.45
485.00	22586.17
485.18	23105.77
485.35	22977.04
485.53	23014.49
485.71	23194.71
485.89	23662.82
486.07	23227.48
486.25	23669.84
486.43	23981.13
486.61	24329.87
486.78	24273.70
486.96	24196.46
487.14	24521.79
487.32	24793.29
487.50	24975.86
487.68	25413.54
487.85	25706.10
488.03	25888.67
488.21	26160.17
488.39	26183.57
488.57	26324.01
488.75	26417.63
488.92	26738.28
489.10	27063.61
489.28	27023.83
489.46	27328.10
489.64	27583.21
489.81	27857.06
489.99	28259.63
490.17	28329.84
490.35	28538.15
490.53	28371.97
490.70	28584.96
490.88	28463.25
491.06	29130.31
491.24	29331.59
491.41	29406.49
491.59	29418.19
491.77	29682.67
491.95	30075.88
492.13	29933.11
492.30	30558.03
492.48	30455.05
492.66	30588.46
492.84	30710.17
493.01	30988.69
493.19	31150.19
493.37	31580.85
493.54	31309.35
493.72	31857.03
493.90	31786.82
494.08	32552.17
494.25	32596.64
494.43	32299.39
494.61	32648.13
494.79	32641.11
494.96	32891.55
495.14	33064.75
495.32	33469.66
495.49	33371.36
495.67	33727.12
495.85	33893.30
496.02	34146.08
496.20	34469.07
496.38	34171.82
496.55	34888.03
496.73	35115.06
496.91	34866.96
497.09	35194.64
497.26	35346.77
497.44	35283.58
497.62	35213.36
497.79	36306.39
497.97	36037.23
498.14	36222.13
498.32	36666.83
498.50	36505.34
498.67	37132.60
498.85	36636.41
499.03	37130.26
499.20	37001.53
499.38	37315.16
499.56	37200.47
499.73	37546.87
499.91	37792.63
500.08	37305.80
500.26	37434.53
500.44	38120.31
500.61	38485.43
500.79	38087.54
500.97	38370.74
501.14	38866.94
501.32	38962.90
501.49	38787.36
501.67	39056.52
501.84	39756.34
502.02	39442.71
502.20	39316.32
502.37	39608.89
502.55	39557.39
502.72	40311.05
502.90	40032.52
503.07	39999.76
503.25	39903.79
503.43	40198.70
503.60	40580.21
503.78	40561.48
503.95	40631.70
504.13	41158.32
504.30	40816.60
504.48	40842.35
504.65	41350.24
504.83	41354.93
505.01	41366.63
505.18	41759.84
505.36	41645.15
505.53	41563.23
505.71	41897.93
505.88	42134.32
506.06	42068.79
506.23	42232.63
506.41	42190.50
506.58	42312.20
506.76	42557.96
506.93	42775.63
507.11	42806.06
507.28	43166.50
507.46	43290.55
507.63	43569.07
507.81	43555.03
507.98	43323.32
508.16	43777.38
508.33	43440.34
508.50	44055.90
508.68	44172.93
508.85	44582.52
509.03	44390.60
509.20	44322.72
509.38	44458.48
509.55	44982.76
509.73	45127.87
509.90	44711.25
510.08	44739.34
510.25	45158.30
510.42	45151.27
510.60	45387.67
510.77	45455.54
510.95	45869.82
511.12	45317.45
511.30	45614.70
511.47	45776.20
511.64	46316.86
511.82	46424.53
511.99	46375.37
512.17	46607.09
512.34	46171.75
512.51	46735.82
512.69	46263.03
512.86	46962.85
513.04	47157.11
513.21	47318.61
513.38	47180.52
513.56	47100.94
513.73	47058.81
513.90	47751.61
514.08	47299.89
514.25	47760.97
514.43	47594.79
514.60	47908.43
514.77	47922.47
514.95	48378.87
515.12	47735.23
515.29	47875.66
515.47	48449.09
515.64	48746.34
515.81	48488.88
515.99	48959.33
516.16	48769.74
516.33	48563.78
516.51	48975.71
516.68	48748.68
516.85	48648.03
517.03	49244.87
517.20	49319.77
517.37	49272.96
517.54	49233.17
517.72	49443.82
517.89	49389.98
518.06	49839.37
518.24	49413.39
518.41	49977.46
518.58	49787.88
518.75	49731.70
518.93	49855.75
519.10	49820.64
519.27	50145.98
519.45	50347.26
519.62	50429.18
519.79	50412.80
519.96	50398.76
520.14	50321.52
520.31	50696.00
520.48	50630.47
520.65	50677.28
520.83	51028.36
521.00	51021.34
521.17	50766.22
521.34	51019.00
521.52	51220.28
521.69	51262.41
521.86	51444.98
522.03	51587.75
522.20	51868.61
522.38	51833.50
522.55	51709.46
522.72	51707.12
522.89	51639.24
523.07	52105.01
523.24	51917.76
523.41	52041.81
523.58	51887.34
523.75	52226.71
523.92	52060.54
524.10	52388.21
524.27	52369.49
524.44	52683.12
524.61	52648.01
524.78	52580.13
524.96	52589.50
525.13	52636.31
525.30	52589.50
525.47	52933.56
525.64	52837.59
525.81	52987.39
525.98	52940.58
526.16	53027.18
526.33	53216.76
526.50	53434.43
526.67	53057.60
526.84	53286.98
527.01	52875.04
527.18	53237.83
527.36	53375.92
527.53	53544.44
527.70	53970.41
527.87	53923.60
528.04	53375.92
528.21	53851.05
528.38	53492.94
528.55	53731.68
528.72	53579.54
528.89	53846.36
529.07	53722.32
529.24	53834.66
529.41	54440.86
529.58	54319.15
529.75	54045.31
529.92	54136.59
530.09	54241.92
530.26	54277.02
530.43	54321.49
530.60	54042.97
530.77	54138.93
530.94	54672.57
531.11	54340.22
531.28	54391.71
531.46	54480.65
531.63	54419.80
531.80	54597.68
531.97	54717.04
532.14	54986.21
532.31	54679.60
532.48	54915.99
532.65	54911.31
532.82	54820.03
532.99	55107.91
533.16	55037.70
533.33	55246.00
533.50	55487.08
533.67	55257.71
533.84	54827.05
534.01	55285.79
534.18	55377.08
534.35	55547.93
534.52	55566.66
534.69	55501.12
534.86	55796.03
535.03	55351.33
535.20	55585.38
535.37	55538.57
535.54	55599.43
535.71	55557.30
535.88	55728.16
536.05	55774.97
536.22	55945.83
536.38	55833.48
536.55	55721.13
536.72	55838.16
536.89	55845.18
537.06	56032.42
537.23	56142.43
537.40	56016.04
537.57	55796.03
537.74	56013.70
537.91	56137.75
538.08	56025.40
538.25	56135.41
538.42	56348.40
538.59	56636.28
538.75	56247.75
538.92	56348.40
539.09	56584.79
539.26	56287.54
539.43	56362.44
539.60	56329.67
539.77	56523.94
539.94	56655.01
540.11	56748.63
540.28	56690.12
540.44	56779.06
540.61	56732.25
540.78	56715.86
540.95	56811.82
541.12	56664.37
541.29	56521.60
541.46	56811.82
541.62	57146.52
541.79	57038.86
541.96	56662.03
542.13	57050.56
542.30	56802.46
542.47	57041.20
542.63	56736.93
542.80	57205.03
542.97	57256.53
543.14	57450.79
543.31	57333.76
543.48	57476.54
543.64	57642.71
543.81	57570.16
543.98	57577.18
544.15	57481.22
544.32	57532.71
544.48	57815.91
544.65	57715.27
544.82	57722.29
544.99	57411.00
545.16	57649.74
545.32	57736.34
545.49	57958.69
545.66	58033.58
545.83	57811.23
546.00	57893.15
546.16	58054.65
546.33	57696.55
546.50	57661.44
546.67	57998.48
546.83	57476.54
547.00	58145.93
547.17	57961.03
547.34	58138.91
547.50	58302.74
547.67	58358.92
547.84	58260.62
548.00	58497.01
548.17	58464.24
548.34	58284.02
548.51	58408.07
548.67	58628.08
548.84	58417.43
549.01	58387.00
549.18	58401.05
549.34	58394.03
549.51	58447.86
549.68	58602.33
549.84	58520.41
550.01	58539.14
550.18	58585.95
550.34	58560.20
550.51	58735.74
550.68	58901.92
550.84	58417.43
551.01	58820.00
551.18	58773.19
551.34	58834.05
551.51	58815.32
551.68	58672.55
551.84	58710.00
552.01	58834.05
552.18	59063.42
552.34	58623.40
552.51	59175.76
552.68	58782.55
552.84	58731.06
553.01	59161.72
553.18	59231.94
553.34	59147.68
553.51	58997.88
553.67	59035.33
553.84	59271.73
554.01	59175.76
554.17	59245.98
554.34	59330.24
554.51	59269.39
554.67	59260.02
554.84	59231.94
555.00	59171.08
555.17	59381.73
555.33	59550.25
555.50	59238.96
555.67	59114.91
555.83	59332.58
556.00	59398.12
556.16	59711.75
556.33	59512.80
556.50	59402.80
556.66	59559.61
556.83	59355.99
556.99	59641.53
557.16	59491.74
557.32	59873.24
557.49	59732.81
557.65	59522.16
557.82	59578.34
557.98	59800.69
558.15	59695.36
558.32	59620.47
558.48	59636.85
558.65	59639.19
558.81	59889.63
558.98	59767.92
559.14	59760.90
559.31	59976.23
559.47	59943.46
559.64	60048.78
559.80	59999.63
559.97	60102.62
560.13	59744.51
560.30	59803.03
560.46	60048.78
560.63	59955.16
560.79	59962.18
560.96	60151.77
561.12	60102.62
561.29	60037.08
561.45	60130.70
561.61	60065.17
561.78	60088.57
561.94	59842.82
562.11	60231.35
562.27	60090.91
562.44	60224.32
562.60	60367.10
562.77	60147.09
562.93	59840.48
563.10	60175.17
563.26	60154.11
563.42	60243.05
563.59	60322.63
563.75	60123.68
563.92	60336.67
564.08	60310.92
564.24	60219.64
564.41	60313.26
564.57	60488.80
564.74	60266.45
564.90	60554.34
565.07	60170.49
565.23	60189.22
565.39	60423.27
565.56	60507.53
565.72	60397.52
565.88	60491.15
566.05	60456.04
566.21	60512.21
566.38	60561.36
566.54	60301.56
566.70	60388.16
566.87	60697.11
567.03	60470.08
567.19	60779.03
567.36	60582.43
567.52	60491.15
567.68	60755.63
567.85	60491.15
568.01	60629.24
568.17	60654.98
568.34	60722.86
568.50	60624.56
568.66	60420.93
568.83	60659.66
568.99	60313.26
569.15	60779.03
569.32	60633.92
569.48	60582.43
569.64	60814.14
569.81	60776.69
569.97	60640.94
570.13	60720.52
570.30	60617.53
570.46	60935.85
570.62	60736.90
570.78	60832.86
570.95	60853.93
571.11	60807.12
571.27	60603.49
571.43	60825.84
571.60	60882.02
571.76	60732.22
571.92	61010.74
572.09	60851.59
572.25	60795.42
572.41	60615.19
572.57	60992.02
572.74	61020.11
572.90	60729.88
573.06	60844.57
573.22	60949.89
573.38	60963.93
573.55	60837.54
573.71	61027.13
573.87	60823.50
574.03	60872.65
574.20	60816.48
574.36	61106.71
574.52	60959.25
574.68	60879.67
574.84	60851.59
575.01	60856.27
575.17	60856.27
575.33	61031.81
575.49	60968.61
575.65	60963.93
575.82	61235.44
575.98	61055.21
576.14	61148.84
576.30	61013.08
576.46	61193.31
576.62	60912.44
576.79	60938.19
576.95	60893.72
577.11	60956.91
577.27	60893.72
577.43	61087.98
577.59	60982.66
577.75	61116.07
577.92	60949.89
578.08	61038.83
578.24	61153.52
578.40	61188.63
578.56	61169.90
578.72	60994.36
578.88	61310.33
579.04	61378.21
579.21	61169.90
579.37	61216.71
579.53	61256.50
579.69	61151.18
579.85	60910.10
580.01	61228.41
580.17	61076.28
580.33	61118.41
580.49	61123.09
580.65	61265.86
580.82	60942.87
580.98	61200.33
581.14	61249.48
581.30	61296.29
581.46	61099.68
581.62	61127.77
581.78	61209.69
581.94	61326.72
582.10	61085.64
582.26	61268.20
582.42	61186.28
582.58	61275.22
582.74	61247.14
582.90	61228.41
583.06	61165.22
583.22	61085.64
583.38	61123.09
583.54	61141.81
583.70	61303.31
583.86	61406.30
584.02	61134.79
584.18	61263.52
584.34	61197.99
584.50	61322.04
584.66	61099.68
584.82	61034.15
584.98	61279.91
585.14	61244.80
585.30	60959.25
585.46	61172.24
585.62	61340.76
585.78	61478.85
585.94	61024.79
586.10	61167.56
586.26	61300.97
586.42	61427.36
586.58	61378.21
586.74	61200.33
586.90	61197.99
587.06	61226.07
587.22	61485.87
587.38	61258.84
587.54	61286.93
587.70	61324.38
587.86	61228.41
588.02	61488.21
588.18	61591.20
588.34	61375.87
588.49	61230.75
