SpectraSuite Data File
++++++++++++++++++++++++++++++++++++
Date: Fri Oct 25 10:47:06 EDT 2013
User: price-jones
Dark Spectrum Present: No
Reference Spectrum Present: No
Number of Sampled Component Spectra: 1
Spectrometers: USB2+H05261
Integration Time (usec): 100000 (USB2+H05261)
Spectra Averaged: 1 (USB2+H05261)
Boxcar Smoothing: 0 (USB2+H05261)
Correct for Electrical Dark: No (USB2+H05261)
Strobe/Lamp Enabled: No (USB2+H05261)
Correct for Detector Non-linearity: No (USB2+H05261)
Correct for Stray Light: No (USB2+H05261)
Number of Pixels in Processed Spectrum: 2048
>>>>>Begin Processed Spectral Data<<<<<
365.73	79.58
365.92	79.58
366.12	79.58
366.32	21.06
366.52	14.04
366.72	145.11
366.91	93.62
367.11	32.77
367.31	42.13
367.51	11.70
367.70	0.00
367.90	0.00
368.10	72.56
368.30	4.68
368.49	18.72
368.69	86.60
368.89	49.15
369.09	84.26
369.28	30.43
369.48	84.26
369.68	93.62
369.87	18.72
370.07	60.85
370.27	168.52
370.47	194.26
370.66	416.62
370.86	435.34
371.06	423.64
371.25	533.64
371.45	442.36
371.65	463.43
371.84	404.91
372.04	456.40
372.24	461.09
372.44	557.05
372.63	503.22
372.83	489.17
373.03	470.45
373.22	514.92
373.42	573.43
373.62	496.19
373.81	512.58
374.01	554.71
374.21	503.22
374.40	582.79
374.60	575.77
374.79	528.96
374.99	514.92
375.19	524.28
375.38	582.79
375.58	526.62
375.78	645.99
375.97	493.85
376.17	589.82
376.37	629.60
376.56	601.52
376.76	573.43
376.95	599.18
377.15	587.47
377.35	606.20
377.54	578.11
377.74	669.39
377.93	636.63
378.13	610.88
378.33	648.33
378.52	627.26
378.72	678.76
378.91	636.63
379.11	615.56
379.31	608.54
379.50	578.11
379.70	657.69
379.89	688.12
380.09	622.58
380.28	650.67
380.48	636.63
380.68	641.31
380.87	634.29
381.07	627.26
381.26	706.84
381.46	697.48
381.65	716.20
381.85	697.48
382.04	720.88
382.24	603.86
382.43	760.67
382.63	664.71
382.83	662.37
383.02	802.80
383.22	830.89
383.41	692.80
383.61	617.90
383.80	702.16
384.00	697.48
384.19	755.99
384.39	706.84
384.58	711.52
384.78	704.50
384.97	784.08
385.17	709.18
385.36	753.65
385.56	812.17
385.75	739.61
385.95	828.55
386.14	833.23
386.34	800.46
386.53	793.44
386.72	767.70
386.92	816.85
387.11	786.42
387.31	786.42
387.50	814.51
387.70	755.99
387.89	854.30
388.09	866.00
388.28	748.97
388.48	821.53
388.67	840.25
388.86	856.64
389.06	858.98
389.25	891.74
389.45	894.08
389.64	947.92
389.84	931.53
390.03	922.17
390.22	910.47
390.42	894.08
390.61	978.34
390.81	940.90
391.00	849.61
391.19	966.64
391.39	933.87
391.58	976.00
391.78	994.73
391.97	1011.11
392.16	961.96
392.36	1013.45
392.55	971.32
392.75	1008.77
392.94	1025.15
393.13	966.64
393.33	952.60
393.52	994.73
393.71	997.07
393.91	1081.33
394.10	1008.77
394.29	1071.97
394.49	1069.62
394.68	1039.20
394.88	1022.81
395.07	1011.11
395.26	1097.71
395.46	1156.22
395.65	1160.91
395.84	1088.35
396.04	1128.14
396.23	1020.47
396.42	1062.60
396.62	1102.39
396.81	1179.63
397.00	1111.75
397.19	1156.22
397.39	1130.48
397.58	1235.80
397.77	1226.44
397.97	1249.85
398.16	1261.55
398.35	1275.59
398.55	1238.14
398.74	1273.25
398.93	1334.11
399.12	1362.19
399.32	1277.93
399.51	1355.17
399.70	1385.60
399.90	1448.79
400.09	1385.60
400.28	1409.00
400.47	1427.73
400.67	1455.81
400.86	1392.62
401.05	1434.75
401.24	1479.22
401.44	1490.92
401.63	1556.46
401.82	1509.65
402.01	1455.81
402.21	1411.34
402.40	1547.09
402.59	1530.71
402.78	1603.27
402.97	1523.69
403.17	1629.01
403.36	1556.46
403.55	1661.78
403.74	1542.41
403.93	1626.67
404.13	1596.25
404.32	1645.40
404.51	1706.25
404.70	1636.03
404.89	1722.63
405.09	1727.32
405.28	1696.89
405.47	1753.06
405.66	1753.06
405.85	1753.06
406.05	1708.59
406.24	1816.26
406.43	1926.26
406.62	1806.89
406.81	1870.09
407.00	1849.02
407.20	1795.19
407.39	1860.73
407.58	1956.69
407.77	1928.60
407.96	1998.82
408.15	1933.28
408.34	1961.37
408.54	1944.99
408.73	1975.41
408.92	1970.73
409.11	2059.67
409.30	1942.64
409.49	1970.73
409.68	2003.50
409.87	2022.22
410.07	2125.21
410.26	1998.82
410.45	2157.97
410.64	2097.12
410.83	2087.76
411.02	2242.23
411.21	2258.62
411.40	2214.15
411.59	2260.96
411.78	2296.07
411.98	2260.96
412.17	2349.90
412.36	2366.28
412.55	2380.32
412.74	2495.01
412.93	2389.69
413.12	2476.29
413.31	2588.63
413.50	2487.99
413.69	2389.69
413.88	2600.34
414.07	2579.27
414.26	2541.82
414.45	2551.18
414.64	2663.53
414.83	2619.06
415.02	2644.81
415.22	2729.06
415.41	2759.49
415.60	2839.07
415.79	2801.62
415.98	2883.54
416.17	2888.22
416.36	2855.45
416.55	2813.32
416.74	2796.94
416.93	2876.52
417.12	2981.84
417.31	3082.49
417.50	2932.69
417.69	2974.82
417.88	3141.00
418.07	3021.63
418.26	3066.10
418.45	3068.44
418.64	3187.81
418.83	3248.66
419.02	3080.14
419.21	3208.87
419.39	3194.83
419.58	3215.90
419.77	3033.33
419.96	3185.47
420.15	3290.79
420.34	3384.41
420.53	3311.86
420.72	3274.41
420.91	3414.84
421.10	3410.16
421.29	3431.23
421.48	3363.35
421.67	3365.69
421.86	3370.37
422.05	3379.73
422.24	3351.65
422.43	3611.45
422.61	3482.72
422.80	3555.27
422.99	3370.37
423.18	3517.83
423.37	3538.89
423.56	3515.48
423.75	3431.23
423.94	3412.50
424.13	3309.52
424.32	3482.72
424.50	3585.70
424.69	3613.79
424.88	3693.37
425.07	3466.33
425.26	3545.91
425.45	3426.54
425.64	3576.34
425.83	3555.27
426.01	3602.08
426.20	3691.02
426.39	3578.68
426.58	3433.57
426.77	3440.59
426.96	3562.30
427.15	3557.61
427.33	3655.92
427.52	3632.51
427.71	3625.49
427.90	3651.24
428.09	3676.98
428.28	3826.78
428.46	3742.52
428.65	3819.75
428.84	3747.20
429.03	3941.46
429.22	3845.50
429.40	3908.69
429.59	3735.50
429.78	3552.93
429.97	3459.31
430.16	3782.31
430.34	3777.62
430.53	3922.74
430.72	3808.05
430.91	3871.25
431.10	3826.78
431.28	4021.04
431.47	4140.41
431.66	4100.62
431.85	4145.09
432.03	4121.68
432.22	4212.96
432.41	4210.62
432.60	4351.06
432.79	4198.92
432.97	4369.78
433.16	4081.89
433.35	4145.09
433.54	4243.39
433.72	4180.20
433.91	4280.84
434.10	4238.71
434.28	4257.43
434.47	4308.93
434.66	4454.04
434.85	4409.57
435.03	4344.03
435.22	4372.12
435.41	4552.34
435.59	4390.84
435.78	4657.67
435.97	4564.04
436.16	4575.75
436.34	4610.86
436.53	4624.90
436.72	4840.23
436.90	4685.75
437.09	4645.96
437.28	4554.68
437.46	4823.84
437.65	4601.49
437.84	4699.80
438.02	4629.58
438.21	4711.50
438.40	4479.79
438.58	4751.29
438.77	4826.18
438.96	4863.63
439.14	4840.23
439.33	4938.53
439.52	4994.70
439.70	5109.39
439.89	5186.63
440.08	5160.88
440.26	5144.50
440.45	5135.14
440.63	5268.55
440.82	5390.25
441.01	5163.22
441.19	5348.12
441.38	5493.24
441.57	5476.85
441.75	5528.35
441.94	5504.94
442.12	5563.45
442.31	5551.75
442.50	5465.15
442.68	5530.69
442.87	5746.02
443.05	5680.48
443.24	5607.92
443.43	5760.06
443.61	5654.73
443.80	5886.45
443.98	5664.10
444.17	5495.58
444.35	5813.89
444.54	5886.45
444.73	5907.51
444.91	5820.91
445.10	5781.12
445.28	5914.53
445.47	5640.69
445.65	5935.60
445.84	5907.51
446.02	6015.18
446.21	5898.15
446.39	5926.24
446.58	5849.00
446.77	5884.11
446.95	5823.25
447.14	5914.53
447.32	6115.82
447.51	5844.32
447.69	5977.73
447.88	6066.67
448.06	5893.47
448.25	5933.26
448.43	6019.86
448.62	6029.22
448.80	6017.52
448.99	6122.84
449.17	6171.99
449.36	6221.14
449.54	6122.84
449.73	6399.02
449.91	6296.04
450.10	6394.34
450.28	6487.96
450.46	6242.21
450.65	6368.60
450.83	6326.47
451.02	6338.17
451.20	6527.75
451.39	6548.82
451.57	6553.50
451.76	6375.62
451.94	6455.20
452.13	6483.28
452.31	6354.55
452.49	6413.07
452.68	6654.14
452.86	6548.82
453.05	6459.88
453.23	6686.91
453.42	6544.14
453.60	6544.14
453.78	6574.56
453.97	6644.78
454.15	6548.82
454.34	6569.88
454.52	6885.86
454.70	6803.94
454.89	6726.70
455.07	6771.17
455.26	6834.36
455.44	6867.13
455.62	6939.69
455.81	6995.86
455.99	6974.80
456.17	7028.63
456.36	6993.52
456.54	6949.05
456.73	6988.84
456.91	7393.75
457.09	7164.38
457.28	7227.57
457.46	7190.13
457.64	7253.32
457.83	7265.02
458.01	7035.65
458.19	7510.78
458.38	7325.88
458.56	7358.64
458.74	7473.33
458.93	7279.07
459.11	7468.65
459.29	7260.34
459.48	7623.12
459.66	7459.29
459.84	7548.23
460.03	7623.12
460.21	7665.25
460.39	7538.87
460.57	7562.27
460.76	7712.07
460.94	7655.89
461.12	7646.53
461.31	7906.33
461.49	7742.49
461.67	7716.75
461.85	7742.49
462.04	7791.64
462.22	8365.07
462.40	7920.37
462.59	8016.33
462.77	7934.42
462.95	8051.44
463.13	7896.97
463.32	8147.40
463.50	8013.99
463.68	7955.48
463.86	7939.10
464.05	8074.85
464.23	8044.42
464.41	8133.36
464.59	8067.83
464.78	8336.99
464.96	8264.43
465.14	8175.49
465.32	8393.16
465.50	8329.97
465.69	8234.00
465.87	8468.06
466.05	8418.91
466.23	8168.47
466.41	8313.58
466.60	8575.72
466.78	8365.07
466.96	8521.89
467.14	8472.74
467.32	8411.89
467.51	8514.87
467.69	8547.64
467.87	8697.43
468.05	8507.85
468.23	8582.74
468.41	8542.96
468.60	8425.93
468.78	8882.33
468.96	8685.73
469.14	8601.47
469.32	8695.09
469.50	8510.19
469.69	8823.82
469.87	8894.04
470.05	8835.52
470.23	8840.20
470.41	8877.65
470.59	9200.65
470.77	8765.31
470.95	9116.39
471.14	9039.15
471.32	8992.34
471.50	9181.92
471.68	9479.17
471.86	9238.09
472.04	9401.93
472.22	9481.51
472.40	9217.03
472.58	9338.74
472.77	9528.32
472.95	9343.42
473.13	9816.21
473.31	9528.32
473.49	9516.62
473.67	9528.32
473.85	9633.64
474.03	9947.28
474.21	9926.21
474.39	9947.28
474.57	10068.98
474.75	10090.05
474.93	10190.69
475.12	9839.61
475.30	10200.05
475.48	10188.35
475.66	10417.72
475.84	10101.75
476.02	10223.46
476.20	10443.47
476.38	10553.48
476.56	10878.81
476.74	10555.82
476.92	10747.74
477.10	10649.44
477.28	10937.32
477.46	10876.47
477.64	11096.48
477.82	11047.33
478.00	11297.77
478.18	11166.70
478.36	11632.46
478.54	11403.09
478.72	11531.82
478.90	11667.57
479.08	11707.36
479.26	12039.72
479.44	12035.03
479.62	12042.06
479.80	12114.61
479.98	12168.45
480.16	12397.82
480.34	12435.27
480.52	12381.43
480.70	12404.84
480.88	12229.30
481.06	12432.93
481.24	12437.61
481.41	12851.88
481.59	12992.31
481.77	13006.36
481.95	13296.58
482.13	13266.16
482.31	13233.39
482.49	13406.59
482.67	13614.90
482.85	13619.58
483.03	13673.41
483.21	13935.55
483.39	13905.12
483.57	13954.27
483.74	14066.62
483.92	14083.00
484.10	14274.93
484.28	14303.01
484.46	14394.29
484.64	14991.13
484.82	14668.14
485.00	14642.39
485.18	14920.92
485.35	15262.63
485.53	15075.39
485.71	14817.93
485.89	15431.15
486.07	15318.81
486.25	15524.77
486.43	15552.86
486.61	15693.29
486.78	16086.50
486.96	16245.66
487.14	16208.21
487.32	16226.93
487.50	16524.18
487.68	16812.07
487.85	16809.73
488.03	16699.72
488.21	17125.70
488.39	16931.44
488.57	17268.47
488.75	17263.79
488.92	17200.60
489.10	17961.27
489.28	17778.71
489.46	18061.91
489.64	18188.30
489.81	18326.39
489.99	18380.23
490.17	18642.37
490.35	18876.42
490.53	18817.91
490.70	18735.99
490.88	18974.72
491.06	19445.17
491.24	19183.03
491.41	18735.99
491.59	18890.46
491.77	19255.59
491.95	19358.57
492.13	19749.44
492.30	20159.03
492.48	19564.54
492.66	19590.28
492.84	19964.77
493.01	20037.33
493.19	20201.16
493.37	20627.14
493.54	20627.14
493.72	20580.33
493.90	20940.77
494.08	21025.03
494.25	21261.43
494.43	21345.69
494.61	21149.08
494.79	21205.25
494.96	21420.58
495.14	21446.33
495.32	21694.43
495.49	22073.59
495.67	21582.08
495.85	22064.23
496.02	22153.17
496.20	22380.20
496.38	22349.78
496.55	22614.26
496.73	23150.24
496.91	22974.70
497.09	22883.42
497.26	22944.27
497.44	23166.62
497.62	23077.68
497.79	23330.46
497.97	23044.91
498.14	23463.87
498.32	23557.49
498.50	23276.63
498.67	23936.66
498.85	23779.84
499.03	24133.26
499.20	24011.56
499.38	23999.85
499.56	24142.63
499.73	24250.29
499.91	24704.35
500.08	24627.12
500.26	24189.44
500.44	24723.08
500.61	24418.81
500.79	24840.11
500.97	24968.84
501.14	25376.09
501.32	25247.36
501.49	25036.71
501.67	25216.93
501.84	25230.98
502.02	25544.61
502.20	25549.29
502.37	25729.51
502.55	25406.52
502.72	25535.24
502.90	25951.86
503.07	25902.71
503.25	26024.42
503.43	25965.90
503.60	25848.88
503.78	25771.64
503.95	26029.10
504.13	26368.48
504.30	26501.89
504.48	26581.46
504.65	26728.92
504.83	26696.15
505.01	26916.16
505.18	27019.14
505.36	26810.84
505.53	26782.75
505.71	27529.38
505.88	27288.31
506.06	27154.90
506.23	27503.64
506.41	27648.75
506.58	27566.83
506.76	27414.69
506.93	27777.48
507.11	27887.48
507.28	27833.65
507.46	27962.38
507.63	27819.61
507.81	28257.29
507.98	27854.72
508.16	28451.55
508.33	28400.06
508.50	28713.69
508.68	28701.99
508.85	29067.11
509.03	28664.54
509.20	28786.25
509.38	28842.42
509.55	29001.58
509.73	29010.94
509.90	29331.59
510.08	28910.30
510.25	29500.11
510.42	29394.79
510.60	29289.46
510.77	29326.91
510.95	29813.74
511.12	29509.47
511.30	29893.32
511.47	30096.95
511.64	29434.58
511.82	30045.46
511.99	29816.08
512.17	30125.04
512.34	29771.61
512.51	30113.33
512.69	30761.66
512.86	30602.50
513.04	30459.73
513.21	30541.65
513.38	30361.43
513.56	30785.07
513.73	30410.58
513.90	31079.97
514.08	31005.08
514.25	30988.69
514.43	31030.82
514.60	30810.81
514.77	30920.82
514.95	31159.55
515.12	31253.17
515.29	31199.34
515.47	31737.66
515.64	31637.02
515.81	31222.75
515.99	31770.43
516.16	31517.65
516.33	31850.01
516.51	31433.39
516.68	31374.88
516.85	31393.61
517.03	31494.25
517.20	31826.60
517.37	31999.80
517.54	31962.36
517.72	32198.75
517.89	31990.44
518.06	31978.74
518.24	31894.48
518.41	32135.56
518.58	32629.41
518.75	32208.11
518.93	32783.88
519.10	32687.92
519.27	32627.07
519.45	32704.31
519.62	32929.00
519.79	33193.48
519.96	33120.92
520.14	33092.83
520.31	33132.62
520.48	33263.69
520.65	33139.65
520.83	33645.20
521.00	33811.38
521.17	33589.03
521.34	33776.27
521.52	33825.42
521.69	33574.98
521.86	34078.20
522.03	34176.50
522.20	33914.36
522.38	33701.37
522.55	34120.33
522.72	33993.94
522.89	33837.12
523.07	34195.23
523.24	34263.10
523.41	34251.40
523.58	34452.69
523.75	35332.73
523.92	34352.04
524.10	34787.38
524.27	34885.68
524.44	34513.54
524.61	34752.27
524.78	35262.51
524.96	35349.11
525.13	35377.20
525.30	35557.42
525.47	35391.24
525.64	35344.43
525.81	35040.16
525.98	35475.50
526.16	34974.63
526.33	35152.51
526.50	35351.45
526.67	35112.72
526.84	35512.95
527.01	35028.46
527.18	35749.34
527.36	35992.76
527.53	35934.24
527.70	36112.13
527.87	36048.93
528.04	35903.82
528.21	35611.25
528.38	35959.99
528.55	36187.02
528.72	36397.67
528.89	36802.58
529.07	36500.65
529.24	36348.52
529.41	36687.90
529.58	36444.48
529.75	36261.92
529.92	36495.97
530.09	36627.04
530.26	36474.91
530.43	36875.14
530.60	36348.52
530.77	37315.16
530.94	36591.94
531.11	36229.15
531.28	37174.73
531.46	37275.37
531.63	37294.10
531.80	37240.26
531.97	37439.21
532.14	36982.80
532.31	37137.28
532.48	37315.16
532.65	37471.98
532.82	37205.16
532.99	37312.82
533.16	37188.77
533.33	37523.47
533.50	37474.32
533.67	38249.03
533.84	37376.01
534.01	38359.04
534.18	37958.81
534.35	38307.55
534.52	37940.08
534.69	38007.96
534.86	38204.56
535.03	37919.02
535.20	38572.03
535.37	38670.33
535.54	38368.40
535.71	38368.40
535.88	38195.20
536.05	38438.62
536.22	38632.88
536.38	38672.67
536.55	38546.28
536.72	38700.76
536.89	38541.60
537.06	38658.63
537.23	38747.57
537.40	38176.48
537.57	38806.08
537.74	38780.34
537.91	39145.46
538.08	38686.71
538.25	38792.04
538.42	38871.62
538.59	39302.28
538.75	38770.97
538.92	39021.41
539.09	39243.76
539.26	38686.71
539.43	39185.25
539.60	39416.96
539.77	39260.15
539.94	39398.24
540.11	39110.35
540.28	39108.01
540.44	39356.11
540.61	39438.03
540.78	39508.24
540.95	39641.65
541.12	39110.35
541.29	39407.60
541.46	39423.98
541.62	39562.08
541.79	39735.27
541.96	39412.28
542.13	39711.87
542.30	39770.38
542.47	40105.08
542.63	39522.29
542.80	40041.88
542.97	40502.97
543.14	40100.40
543.31	40477.22
543.48	40343.81
543.64	40959.38
543.81	40774.47
543.98	40517.01
544.15	40727.66
544.32	40648.08
544.48	41301.09
544.65	40797.88
544.82	41069.38
544.99	40325.09
545.16	41088.10
545.32	41186.41
545.49	41249.60
545.66	41076.40
545.83	40898.52
546.00	41317.48
546.16	41003.85
546.33	40996.82
546.50	40519.35
546.67	41268.33
546.83	40928.95
547.00	41038.95
547.17	40973.42
547.34	40950.01
547.50	41088.10
547.67	41813.67
547.84	41242.58
548.00	41474.29
548.17	41766.86
548.34	41315.14
548.51	41717.71
548.67	41359.61
548.84	42024.32
549.01	41514.08
549.18	41806.65
549.34	41956.44
549.51	41830.05
549.68	41649.83
549.84	41661.54
550.01	42550.94
550.18	41937.72
550.34	41813.67
550.51	41879.21
550.68	41984.53
550.84	41827.71
551.01	42380.08
551.18	41904.95
551.34	42260.71
551.51	42258.37
551.68	42122.62
551.84	42003.25
552.01	41890.91
552.18	42440.93
552.34	42185.82
552.51	42677.33
552.68	42234.97
552.84	42586.05
553.01	42302.84
553.18	42239.65
553.34	41996.23
553.51	41923.68
553.67	42431.57
553.84	42883.30
554.01	42845.85
554.17	42951.17
554.34	42845.85
554.51	42265.39
554.67	42614.13
554.84	42220.92
555.00	42719.46
555.17	42316.89
555.33	43131.39
555.50	42852.87
555.67	42997.98
555.83	42850.53
556.00	42810.74
556.16	42995.64
556.33	42939.47
556.50	43021.39
556.66	43234.38
556.83	43189.91
556.99	42906.70
557.16	43255.44
557.32	43346.72
557.49	42859.89
557.65	42745.20
557.82	42976.92
557.98	43091.60
558.15	42983.94
558.32	43505.88
558.48	43587.80
558.65	42646.90
558.81	43494.18
558.98	43269.48
559.14	43470.77
559.31	43063.52
559.47	43746.95
559.64	43763.34
559.80	43606.52
559.97	43199.27
560.13	43695.46
560.30	43517.58
560.46	43271.82
560.63	43604.18
560.79	43496.52
560.96	43880.36
561.12	43463.75
561.29	43166.50
561.45	43538.65
561.61	43988.03
561.78	43880.36
561.94	43498.86
562.11	43360.76
562.27	43409.92
562.44	43693.12
562.60	43761.00
562.77	43330.34
562.93	43821.85
563.10	43985.69
563.26	43475.45
563.42	44095.69
563.59	43711.84
563.75	43924.83
563.92	43756.32
564.08	43585.46
564.24	44318.04
564.41	44168.25
564.57	43503.54
564.74	44168.25
564.90	44051.22
565.07	44121.44
565.23	43669.72
565.39	43187.56
565.56	43992.71
565.72	43941.22
565.88	44093.35
566.05	44325.07
566.21	43901.43
566.38	43686.10
566.54	44215.06
566.70	44362.51
566.87	44126.12
567.03	44273.57
567.19	44355.49
567.36	44446.77
567.52	44046.54
567.68	44224.42
567.85	43964.62
568.01	44217.40
568.17	44020.80
568.34	44177.61
568.50	44144.84
568.66	44091.01
568.83	44458.48
568.99	44158.89
569.15	44376.56
569.32	44041.86
569.48	43929.51
569.64	44411.67
569.81	44626.99
569.97	43978.67
570.13	44444.43
570.30	43983.35
570.46	43920.15
570.62	43756.32
570.78	43899.09
570.95	44409.32
571.11	44266.55
571.27	44210.38
571.43	44079.31
571.60	44285.28
571.76	44142.50
571.92	44304.00
572.09	44027.82
572.25	44287.62
572.41	44381.24
572.57	44156.55
572.74	44744.02
572.90	44587.21
573.06	44704.23
573.22	44479.54
573.38	43995.05
573.55	44093.35
573.71	44116.76
573.87	44399.96
574.03	44381.24
574.20	44662.10
574.36	44397.62
574.52	44320.38
574.68	44437.41
574.84	44783.81
575.01	44292.30
575.17	44685.51
575.33	44217.40
575.49	44273.57
575.65	44928.92
575.82	44807.22
575.98	44252.51
576.14	45008.50
576.30	44577.84
576.46	44240.81
576.62	44280.60
576.79	44044.20
576.95	44289.96
577.11	44439.75
577.27	44505.29
577.43	44793.17
577.59	44657.42
577.75	44212.72
577.92	44165.91
578.08	44055.90
578.24	44521.67
578.40	44322.72
578.56	44425.71
578.72	44622.31
578.88	44486.56
579.04	44507.63
579.21	44329.75
579.37	44472.52
579.53	44746.36
579.69	44175.27
579.85	44549.76
580.01	44783.81
580.17	44945.31
580.33	44982.76
580.49	44790.83
580.65	44706.57
580.82	44456.14
580.98	44584.86
581.14	44275.91
581.30	44839.98
581.46	44634.02
581.62	44395.28
581.78	45067.02
581.94	44727.64
582.10	43971.64
582.26	44669.12
582.42	44678.49
582.58	44652.74
582.74	44229.10
582.90	44479.54
583.06	44828.28
583.22	44568.48
583.38	44868.07
583.54	44910.20
583.70	44308.68
583.86	44577.84
584.02	44512.31
584.18	44598.91
584.34	44432.73
584.50	44594.23
584.66	44732.32
584.82	45013.18
584.98	44729.98
585.14	44851.69
585.30	44699.55
585.46	45092.76
585.62	44793.17
585.78	44678.49
585.94	44240.81
586.10	44903.18
586.26	44566.14
586.42	44964.03
586.58	44577.84
586.74	44788.49
586.90	44547.42
587.06	44498.26
587.22	44699.55
587.38	44720.62
587.54	44718.28
587.70	44470.18
587.86	44706.57
588.02	44591.89
588.18	44954.67
588.34	44444.43
588.49	44418.69
588.65	44474.86
588.81	44804.88
588.97	44545.08
589.13	44608.27
589.29	44741.68
589.45	45013.18
589.61	45071.70
589.77	44961.69
589.93	44889.13
590.08	45177.02
590.24	44753.38
