SpectraSuite Data File
++++++++++++++++++++++++++++++++++++
Date: Fri Oct 25 11:25:49 EDT 2013
User: price-jones
Dark Spectrum Present: No
Reference Spectrum Present: No
Number of Sampled Component Spectra: 1
Spectrometers: USB2+H05261
Integration Time (usec): 100000 (USB2+H05261)
Spectra Averaged: 1 (USB2+H05261)
Boxcar Smoothing: 0 (USB2+H05261)
Correct for Electrical Dark: No (USB2+H05261)
Strobe/Lamp Enabled: No (USB2+H05261)
Correct for Detector Non-linearity: No (USB2+H05261)
Correct for Stray Light: No (USB2+H05261)
Number of Pixels in Processed Spectrum: 2048
>>>>>Begin Processed Spectral Data<<<<<
365.73	227.03
365.92	227.03
366.12	227.03
366.32	161.50
366.52	91.28
366.72	168.52
366.91	177.88
367.11	121.71
367.31	166.18
367.51	105.32
367.70	112.35
367.90	145.11
368.10	117.03
368.30	187.24
368.49	110.01
368.69	196.60
368.89	135.75
369.09	114.69
369.28	145.11
369.48	163.84
369.68	138.09
369.87	210.65
370.07	238.73
370.27	203.63
370.47	280.86
370.66	599.18
370.86	594.50
371.06	617.90
371.25	685.78
371.45	648.33
371.65	765.36
371.84	655.35
372.04	650.67
372.24	751.31
372.44	732.59
372.63	657.69
372.83	744.29
373.03	758.33
373.22	732.59
373.42	798.12
373.62	730.25
373.81	807.48
374.01	795.78
374.21	711.52
374.40	833.23
374.60	882.38
374.79	770.04
374.99	777.06
375.19	807.48
375.38	868.34
375.58	828.55
375.78	784.08
375.97	924.51
376.17	868.34
376.37	929.19
376.56	898.77
376.76	772.38
376.95	894.08
377.15	945.58
377.35	922.17
377.54	866.00
377.74	915.15
377.93	940.90
378.13	866.00
378.33	945.58
378.52	873.02
378.72	901.11
378.91	1013.45
379.11	866.00
379.31	983.02
379.50	968.98
379.70	938.55
379.89	985.37
380.09	983.02
380.28	919.83
380.48	863.66
380.68	884.72
380.87	978.34
381.07	997.07
381.26	1039.20
381.46	968.98
381.65	1022.81
381.85	1001.75
382.04	1055.58
382.24	957.28
382.43	1062.60
382.63	1064.94
382.83	1043.88
383.02	1050.90
383.22	1121.12
383.41	1086.01
383.61	1137.50
383.80	1156.22
384.00	999.41
384.19	1142.18
384.39	1177.29
384.58	1146.86
384.78	1200.69
384.97	1081.33
385.17	1172.61
385.36	1165.59
385.56	1100.05
385.75	1158.57
385.95	1149.20
386.14	1221.76
386.34	1160.91
386.53	1186.65
386.72	1224.10
386.92	1207.72
387.11	1228.78
387.31	1198.35
387.50	1308.36
387.70	1188.99
387.89	1158.57
388.09	1256.87
388.28	1338.79
388.48	1327.08
388.67	1280.27
388.86	1301.34
389.06	1324.74
389.25	1313.04
389.45	1327.08
389.64	1362.19
389.84	1348.15
390.03	1446.45
390.22	1401.98
390.42	1308.36
390.61	1324.74
390.81	1369.21
391.00	1364.53
391.19	1469.86
391.39	1390.28
391.58	1458.15
391.78	1434.75
391.97	1465.18
392.16	1460.49
392.36	1530.71
392.55	1458.15
392.75	1521.35
392.94	1558.80
393.13	1437.09
393.33	1549.43
393.52	1593.90
393.71	1476.88
393.91	1586.88
394.10	1582.20
394.29	1586.88
394.49	1605.61
394.68	1577.52
394.88	1607.95
395.07	1643.06
395.26	1706.25
395.46	1680.50
395.65	1764.76
395.84	1743.70
396.04	1818.60
396.23	1804.55
396.42	1757.74
396.62	1853.70
396.81	1881.79
397.00	1710.93
397.19	1785.83
397.39	1736.68
397.58	1839.66
397.77	1748.38
397.97	1753.06
398.16	1881.79
398.35	1830.30
398.55	1982.43
398.74	1820.94
398.93	1989.46
399.12	1837.32
399.32	1834.98
399.51	1912.22
399.70	2043.29
399.90	1900.52
400.09	2008.18
400.28	2008.18
400.47	2022.22
400.67	2052.65
400.86	2092.44
401.05	2094.78
401.24	2101.80
401.44	2052.65
401.63	2136.91
401.82	2172.02
402.01	2172.02
402.21	2176.70
402.40	2200.10
402.59	2136.91
402.78	2275.00
402.97	2148.61
403.17	2157.97
403.36	2279.68
403.55	2331.17
403.74	2310.11
403.93	2289.04
404.13	2253.94
404.32	2352.24
404.51	2289.04
404.70	2326.49
404.89	2345.22
405.09	2434.16
405.28	2441.18
405.47	2408.41
405.66	2443.52
405.85	2471.61
406.05	2431.82
406.24	2539.48
406.43	2609.70
406.62	2567.57
406.81	2649.49
407.00	2572.25
407.20	2593.31
407.39	2668.21
407.58	2757.15
407.77	2780.56
407.96	2810.98
408.15	2794.60
408.34	2743.11
408.54	2946.73
408.73	2731.41
408.92	2722.04
409.11	2825.03
409.30	2855.45
409.49	2918.65
409.68	2958.44
409.87	2813.32
410.07	2864.82
410.26	2930.35
410.45	2946.73
410.64	3019.29
410.83	3075.46
411.02	2862.48
411.21	3157.38
411.40	3068.44
411.59	3105.89
411.78	3246.32
411.98	3288.45
412.17	3138.66
412.36	3239.30
412.55	3321.22
412.74	3302.50
412.93	3396.12
413.12	3421.86
413.31	3515.48
413.50	3569.32
413.69	3609.11
413.88	3541.23
414.07	3534.21
414.26	3529.53
414.45	3726.13
414.64	3733.15
414.83	3669.96
415.02	3740.18
415.22	3878.27
415.41	3911.04
415.60	3889.97
415.79	3779.97
415.98	3882.95
416.17	4058.49
416.36	3967.21
416.55	3964.87
416.74	4037.42
416.93	3962.53
417.12	4121.68
417.31	4180.20
417.50	4114.66
417.69	4248.07
417.88	4269.14
418.07	4224.67
418.26	4301.90
418.45	4397.87
418.64	4320.63
418.83	4360.42
419.02	4465.74
419.21	4533.62
419.39	4617.88
419.58	4372.12
419.77	4465.74
419.96	4608.51
420.15	4414.25
420.34	4571.07
420.53	4709.16
420.72	4725.54
420.91	4685.75
421.10	4652.98
421.29	4819.16
421.48	4674.05
421.67	4690.43
421.86	4643.62
422.05	4868.31
422.24	4697.46
422.43	4788.74
422.61	4699.80
422.80	5055.56
422.99	4706.82
423.18	4840.23
423.37	4924.49
423.56	4807.46
423.75	5008.75
423.94	4767.67
424.13	4620.22
424.32	4802.78
424.50	4997.04
424.69	4938.53
424.88	4917.47
425.07	4779.37
425.26	4812.14
425.45	4898.74
425.64	5018.11
425.83	4910.44
426.01	5013.43
426.20	4905.76
426.39	5093.01
426.58	5247.48
426.77	5195.99
426.96	5020.45
427.15	5027.47
427.33	5167.90
427.52	5097.69
427.71	5139.82
427.90	5224.08
428.09	5392.59
428.28	5317.70
428.46	5263.86
428.65	5369.19
428.84	5493.24
429.03	5533.03
429.22	5224.08
429.40	5497.92
429.59	5472.17
429.78	5177.26
429.97	5404.30
430.16	5497.92
430.34	5565.79
430.53	5657.07
430.72	5654.73
430.91	5694.52
431.10	5605.58
431.28	5806.87
431.47	5912.19
431.66	5781.12
431.85	5685.16
432.03	5818.57
432.22	5888.79
432.41	5919.21
432.60	5746.02
432.79	6052.63
432.97	6104.12
433.16	6038.58
433.35	5989.43
433.54	6064.33
433.72	6148.59
433.91	6052.63
434.10	6169.65
434.28	5977.73
434.47	6061.99
434.66	6296.04
434.85	6146.25
435.03	6338.17
435.22	6113.48
435.41	6279.66
435.59	6370.94
435.78	6370.94
435.97	6431.79
436.16	6445.84
436.34	6232.85
436.53	6312.42
436.72	6658.82
436.90	6363.92
437.09	6600.31
437.28	6406.05
437.46	6637.76
437.65	6579.25
437.84	6600.31
438.02	6817.98
438.21	6750.10
438.40	6644.78
438.58	6782.87
438.77	6953.73
438.96	6757.13
439.14	7110.55
439.33	7131.61
439.52	7157.36
439.70	7117.57
439.89	7201.83
440.08	7239.28
440.26	7382.05
440.45	7185.44
440.63	7590.36
440.82	7602.06
441.01	7492.05
441.19	7620.78
441.38	7632.49
441.57	7529.50
441.75	7875.90
441.94	8028.04
442.12	8030.38
442.31	8102.93
442.50	8049.10
442.68	7791.64
442.87	8013.99
443.05	7939.10
443.24	8173.15
443.43	8039.74
443.61	8126.34
443.80	8423.59
443.98	8074.85
444.17	7693.34
444.35	8355.71
444.54	8224.64
444.73	8259.75
444.91	8114.64
445.10	8318.26
445.28	8346.35
445.47	8102.93
445.65	8449.33
445.84	8390.82
446.02	8234.00
446.21	8423.59
446.39	8269.11
446.58	8547.64
446.77	8571.04
446.95	8456.36
447.14	8486.78
447.32	8578.06
447.51	8442.31
447.69	8451.67
447.88	8442.31
448.06	8477.42
448.25	8484.44
448.43	8524.23
448.62	8477.42
448.80	8425.93
448.99	8461.04
449.17	8617.85
449.36	8482.10
449.54	8971.27
449.73	8781.69
449.91	9039.15
450.10	8844.88
450.28	9135.11
450.46	9011.06
450.65	9163.20
450.83	8870.63
451.02	8933.82
451.20	9380.87
451.39	9205.33
451.57	9273.20
451.76	9090.64
451.94	9153.84
452.13	9163.20
452.31	9275.54
452.49	9062.55
452.68	9202.99
452.86	9413.63
453.05	9329.38
453.23	9359.80
453.42	9188.94
453.60	9153.84
453.78	9423.00
453.97	9504.92
454.15	9530.66
454.34	9453.42
454.52	9769.40
454.70	9654.71
454.89	9755.35
455.07	9846.63
455.26	9638.33
455.44	9914.51
455.62	9891.10
455.81	9802.16
455.99	10033.88
456.17	9820.89
456.36	9975.36
456.54	10169.63
456.73	10370.91
456.91	10361.55
457.09	10047.92
457.28	10466.88
457.46	10303.04
457.64	10532.41
457.83	10714.97
458.01	10317.08
458.19	10614.33
458.38	10623.69
458.56	10647.10
458.74	10485.60
458.93	10611.99
459.11	10677.52
459.29	10836.68
459.48	10707.95
459.66	10670.50
459.84	10892.85
460.03	11040.31
460.21	11059.03
460.39	10834.34
460.57	10937.32
460.76	10918.60
460.94	10958.39
461.12	11138.61
461.31	11070.73
461.49	11019.24
461.67	11110.52
461.85	11386.71
462.04	11070.73
462.22	11964.82
462.40	11473.31
462.59	11482.67
462.77	11562.25
462.95	11597.35
463.13	11543.52
463.32	11449.90
463.50	11662.89
463.68	11768.21
463.86	11683.95
464.05	11676.93
464.23	11655.87
464.41	11698.00
464.59	11634.80
464.78	12081.85
464.96	11686.29
465.14	11611.40
465.32	11948.43
465.50	12116.95
465.69	12257.39
465.87	12098.23
466.05	12074.82
466.23	12264.41
466.41	12053.76
466.60	12381.43
466.78	12107.59
466.96	12329.94
467.14	12100.57
467.32	12248.02
467.51	12374.41
467.69	12163.76
467.87	12472.71
468.05	12524.21
468.23	12226.96
468.41	12540.59
468.60	12332.28
468.78	12491.44
468.96	12765.28
469.14	12954.87
469.32	12748.90
469.50	12594.42
469.69	12973.59
469.87	12992.31
470.05	12772.30
470.23	13263.82
470.41	13064.87
470.59	13181.90
470.77	13186.58
470.95	13305.95
471.14	13373.82
471.32	13088.28
471.50	13612.56
471.68	13647.66
471.86	13486.17
472.04	13682.77
472.22	13895.76
472.40	13844.27
472.58	13830.23
472.77	13811.50
472.95	14075.98
473.13	14635.37
473.31	14162.58
473.49	13958.96
473.67	13984.70
473.85	14052.58
474.03	14602.60
474.21	14733.67
474.39	14869.42
474.57	14516.00
474.75	14960.70
474.93	15037.94
475.12	14682.18
475.30	15080.07
475.48	14855.38
475.66	15119.86
475.84	15190.08
476.02	15272.00
476.20	15133.90
476.38	15800.96
476.56	15948.41
476.74	15892.24
476.92	15747.12
477.10	15726.06
477.28	16058.42
477.46	16393.11
477.64	16276.09
477.82	16372.05
478.00	16666.95
478.18	16482.05
478.36	16556.95
478.54	17106.98
478.72	17057.82
478.90	17102.29
479.08	17525.93
479.26	17528.27
479.44	17745.94
479.62	17673.39
479.80	18127.45
479.98	18120.43
480.16	18593.22
480.34	18457.46
480.52	18471.51
480.70	18548.75
480.88	18429.38
481.06	18600.24
481.24	18853.02
481.41	18836.63
481.59	19335.17
481.77	19208.78
481.95	19503.68
482.13	19381.98
482.31	19733.06
482.49	20201.16
482.67	20128.61
482.85	20006.90
483.03	20430.54
483.21	20704.38
483.39	20919.71
483.57	20627.14
483.74	21001.63
483.92	21198.23
484.10	21064.82
484.28	21556.33
484.46	21923.80
484.64	22010.40
484.82	21930.82
485.00	22097.00
485.18	22780.43
485.35	22750.01
485.53	22871.72
485.71	23082.36
485.89	23243.86
486.07	23311.74
486.25	23168.96
486.43	23468.55
486.61	23695.58
486.78	23803.25
486.96	24175.39
487.14	24201.14
487.32	24748.82
487.50	24662.22
487.68	24535.84
487.85	25198.21
488.03	24982.88
488.21	25773.98
488.39	25638.23
488.57	25876.96
488.75	25921.43
488.92	26501.89
489.10	26665.72
489.28	26719.56
489.46	27164.26
489.64	27016.80
489.81	27342.14
489.99	27620.66
490.17	27302.35
490.35	28276.01
490.53	28077.07
490.70	28222.18
490.88	28299.42
491.06	28727.74
491.24	28933.70
491.41	28648.16
491.59	29048.39
491.77	29509.47
491.95	29064.77
492.13	29483.73
492.30	29837.15
492.48	29685.01
492.66	29893.32
492.84	30202.27
493.01	30441.01
493.19	30328.66
493.37	30595.48
493.54	30888.05
493.72	31054.23
493.90	31065.93
494.08	31477.86
494.25	31754.05
494.43	32011.51
494.61	32158.96
494.79	32472.59
494.96	32238.54
495.14	32268.97
495.32	33130.28
495.49	32938.36
495.67	33013.26
495.85	33336.25
496.02	33436.89
496.20	33968.19
496.38	33895.64
496.55	33937.77
496.73	34653.97
496.91	34291.19
497.09	34513.54
497.26	34969.94
497.44	34277.15
497.62	35049.52
497.79	35241.45
497.97	35241.45
498.14	35747.00
498.32	36187.02
498.50	35952.97
498.67	36107.44
498.85	36252.56
499.03	36378.95
499.20	36451.50
499.38	36474.91
499.56	37038.98
499.73	37273.03
499.91	36512.36
500.08	37270.69
500.26	37106.85
500.44	37457.93
500.61	37738.80
500.79	37191.11
500.97	38335.63
501.14	38319.25
501.32	38265.42
501.49	38707.78
501.67	38349.68
501.84	38761.61
502.02	38880.98
502.20	38817.78
502.37	38588.41
502.55	39112.69
502.72	39016.73
502.90	39744.64
503.07	39220.36
503.25	39370.15
503.43	39594.84
503.60	39962.31
503.78	39833.58
503.95	40184.66
504.13	40203.38
504.30	40229.13
504.48	40098.06
504.65	40598.93
504.83	40893.84
505.01	40751.07
505.18	40992.14
505.36	41603.02
505.53	40910.22
505.71	41713.03
505.88	41610.04
506.06	41132.57
506.23	41769.20
506.41	41741.11
506.58	41776.22
506.76	42092.19
506.93	42487.74
507.11	42101.56
507.28	42419.87
507.46	42572.00
507.63	43019.05
507.81	42850.53
507.98	42710.10
508.16	42967.55
508.33	43192.25
508.50	43255.44
508.68	43304.59
508.85	43512.90
509.03	43367.79
509.20	43578.43
509.38	43690.78
509.55	44465.50
509.73	44341.45
509.90	44699.55
510.08	44414.01
510.25	44507.63
510.42	44809.56
510.60	45139.57
510.77	44729.98
510.95	45062.33
511.12	45088.08
511.30	44732.32
511.47	44942.97
511.64	45317.45
511.82	45705.98
511.99	45509.38
512.17	45558.53
512.34	46122.60
512.51	46440.91
512.69	46138.98
512.86	46356.65
513.04	46557.94
513.21	46480.70
513.38	46880.93
513.56	46684.33
513.73	46405.80
513.90	46768.58
514.08	46754.54
514.25	46848.16
514.43	47260.10
514.60	47309.25
514.77	47047.11
514.95	47360.74
515.12	47194.56
515.29	47529.26
515.47	47702.46
515.64	47941.19
515.81	48011.41
515.99	47894.38
516.16	47964.60
516.33	48119.07
516.51	48147.16
516.68	48421.00
516.85	48521.65
517.03	48722.93
517.20	48861.02
517.37	48795.49
517.54	48821.23
517.72	48584.84
517.89	49184.02
518.06	49137.21
518.24	49392.33
518.41	49095.08
518.58	49155.93
518.75	48755.70
518.93	49677.87
519.10	49226.15
519.27	49605.31
519.45	49556.16
519.62	49776.17
519.79	50045.33
519.96	50108.53
520.14	49975.12
520.31	49712.98
520.48	50143.64
520.65	50223.22
520.83	50405.78
521.00	50520.46
521.17	50281.73
521.34	50272.37
521.52	50691.32
521.69	50824.73
521.86	50735.79
522.03	50871.54
522.20	51236.67
522.38	50997.93
522.55	51363.06
522.72	51182.84
522.89	51082.19
523.07	51512.85
523.24	51428.59
523.41	51529.23
523.58	51503.49
523.75	51578.39
523.92	51714.14
524.10	51903.72
524.27	51674.35
524.44	51995.00
524.61	52107.35
524.78	52090.96
524.96	52048.83
525.13	52280.55
525.30	52189.27
525.47	52479.49
525.64	52299.27
525.81	52479.49
525.98	52701.84
526.16	52357.78
526.33	52596.52
526.50	52919.51
526.67	52495.88
526.84	52956.96
527.01	52891.43
527.18	52793.12
527.36	52451.41
527.53	53123.14
527.70	52905.47
527.87	53181.65
528.04	53240.17
528.21	53162.93
528.38	53282.30
528.55	53411.02
528.72	53008.45
528.89	53364.21
529.07	53261.23
529.24	53301.02
529.41	53621.67
529.58	53167.61
529.75	53366.55
529.92	53741.04
530.09	53862.75
530.26	53930.62
530.43	53911.90
530.60	53312.72
530.77	53680.19
530.94	54059.35
531.11	53932.96
531.28	54148.29
531.46	53993.82
531.63	54014.88
531.80	53834.66
531.97	54059.35
532.14	54258.30
532.31	54162.34
532.48	54164.68
532.65	54665.55
532.82	54354.26
532.99	54492.35
533.16	54333.20
533.33	54419.80
533.50	54859.82
533.67	54541.50
533.84	54461.93
534.01	54953.44
534.18	54557.89
534.35	54981.52
534.52	55044.72
534.69	55365.37
534.86	55306.86
535.03	54827.05
535.20	55042.38
535.37	55208.56
535.54	55276.43
535.71	55035.36
535.88	55330.26
536.05	55262.39
536.22	55409.84
536.38	55655.60
536.55	55402.82
536.72	55398.14
536.89	55360.69
537.06	55370.05
537.23	55653.26
537.40	55653.26
537.57	55501.12
537.74	55641.56
537.91	55831.14
538.08	55887.31
538.25	55746.88
538.42	56011.36
538.59	55999.66
538.75	55791.35
538.92	55789.01
539.09	56079.24
539.26	55812.41
539.43	55845.18
539.60	56198.60
539.77	56011.36
539.94	56423.29
540.11	56324.99
540.28	56252.44
540.44	56486.49
540.61	56339.04
540.78	56310.95
540.95	56130.73
541.12	56376.48
541.29	56322.65
541.46	56577.77
541.62	56437.34
541.79	56575.43
541.96	56320.31
542.13	56278.18
542.30	56540.32
542.47	56879.70
542.63	56671.39
542.80	56776.72
542.97	56889.06
543.14	56980.34
543.31	57020.13
543.48	56980.34
543.64	57394.62
543.81	57095.03
543.98	57116.09
544.15	57265.89
544.32	57375.89
544.48	57654.42
544.65	57279.93
544.82	57237.80
544.99	57104.39
545.16	57286.95
545.32	57366.53
545.49	57324.40
545.66	57364.19
545.83	57312.70
546.00	57502.28
546.16	57677.82
546.33	57258.87
546.50	57504.62
546.67	57743.36
546.83	57162.90
547.00	57495.26
547.17	57663.78
547.34	57755.06
547.50	57881.45
547.67	58113.16
547.84	57888.47
548.00	58117.84
548.17	57958.69
548.34	57881.45
548.51	57930.60
548.67	58099.12
548.84	58000.82
549.01	57914.22
549.18	58064.01
549.34	58220.83
549.51	58136.57
549.68	58211.46
549.84	58234.87
550.01	58431.47
550.18	58183.38
550.34	58372.96
550.51	58394.03
550.68	58387.00
550.84	58225.51
551.01	58485.31
551.18	58398.71
551.34	58295.72
551.51	58450.20
551.68	58351.90
551.84	58646.80
552.01	58293.38
552.18	58555.52
552.34	58599.99
552.51	58850.43
552.68	58319.13
552.84	58499.35
553.01	58913.62
553.18	58775.53
553.34	58787.24
553.51	58700.64
553.67	58712.34
553.84	58862.13
554.01	58834.05
554.17	58969.80
554.34	58922.99
554.51	58794.26
554.67	58897.24
554.84	59075.12
555.00	58962.78
555.17	58887.88
555.33	58934.69
555.50	59042.35
555.67	58754.47
555.83	59016.61
556.00	58951.07
556.16	59405.14
556.33	59168.74
556.50	58953.41
556.66	59189.81
556.83	58901.92
556.99	59276.41
557.16	59241.30
557.32	59363.01
557.49	59437.90
557.65	59117.25
557.82	59327.90
557.98	59217.89
558.15	59133.63
558.32	59306.83
558.48	59234.28
558.65	59379.39
558.81	59344.28
558.98	59330.24
559.14	59587.70
559.31	59430.88
559.47	59730.47
559.64	59657.91
559.80	59458.97
559.97	59608.76
560.13	59590.04
560.30	59702.38
560.46	59671.96
560.63	59554.93
560.79	59597.06
560.96	59742.17
561.12	59657.91
561.29	59660.26
561.45	59639.19
561.61	59599.40
561.78	59533.87
561.94	59648.55
562.11	59608.76
562.27	59791.33
562.44	59646.21
562.60	59873.24
562.77	59831.11
562.93	59657.91
563.10	59990.27
563.26	59847.50
563.42	60020.70
563.59	59915.37
563.75	60023.04
563.92	59821.75
564.08	59833.46
564.24	60044.10
564.41	59948.14
564.57	60032.40
564.74	59929.42
564.90	59910.69
565.07	59945.80
565.23	60079.21
565.39	59845.16
565.56	60119.00
565.72	60074.53
565.88	59999.63
566.05	59941.12
566.21	59870.90
566.38	59927.08
566.54	60313.26
566.70	60392.84
566.87	60327.31
567.03	60069.85
567.19	60367.10
567.36	60210.28
567.52	60004.31
567.68	60243.05
567.85	60172.83
568.01	60360.08
568.17	60088.57
568.34	60236.03
568.50	60142.41
568.66	60266.45
568.83	60399.86
568.99	60177.51
569.15	60179.85
569.32	60154.11
569.48	60207.94
569.64	60301.56
569.81	60179.85
569.97	60212.62
570.13	60467.74
570.30	60233.69
570.46	60224.32
570.62	60542.64
570.78	60402.21
570.95	60577.75
571.11	60278.16
571.27	60306.24
571.43	60425.61
571.60	60589.45
571.76	60392.84
571.92	60514.55
572.09	60587.11
572.25	60552.00
572.41	60608.17
572.57	60451.36
572.74	60711.16
572.90	60374.12
573.06	60516.89
573.22	60477.10
573.38	60549.66
573.55	60477.10
573.71	60544.98
573.87	60451.36
574.03	60467.74
574.20	60523.91
574.36	60521.57
574.52	60626.90
574.68	60779.03
574.84	60692.43
575.01	60594.13
575.17	60629.24
575.33	60612.85
575.49	60502.85
575.65	60643.28
575.82	60690.09
575.98	60566.04
576.14	60907.76
576.30	60631.58
576.46	60388.16
576.62	60713.50
576.79	60458.38
576.95	60673.71
577.11	60591.79
577.27	60699.45
577.43	60797.76
577.59	60652.64
577.75	60732.22
577.92	60659.66
578.08	60603.49
578.24	60640.94
578.40	60865.63
578.56	60809.46
578.72	60563.70
578.88	60828.18
579.04	60863.29
579.21	60645.62
579.37	60910.10
579.53	60760.31
579.69	60683.07
579.85	60720.52
580.01	60669.03
580.17	60573.06
580.33	60982.66
580.49	60879.67
580.65	60912.44
580.82	60631.58
580.98	60449.02
581.14	60484.12
581.30	60701.79
581.46	60678.39
581.62	60830.52
581.78	60790.73
581.94	60877.33
582.10	60853.93
582.26	60949.89
582.42	60814.14
582.58	61013.08
582.74	60781.37
582.90	60804.78
583.06	60793.07
583.22	60713.50
583.38	60767.33
583.54	60846.91
583.70	60874.99
583.86	60982.66
584.02	60502.85
584.18	61095.00
584.34	61076.28
584.50	60853.93
584.66	60584.77
584.82	60664.35
584.98	60975.64
585.14	60999.04
585.30	60999.04
585.46	60924.14
585.62	60860.95
585.78	61027.13
585.94	60680.73
586.10	60844.57
586.26	60889.04
586.42	60856.27
586.58	60863.29
586.74	60903.08
586.90	61059.90
587.06	60701.79
587.22	60874.99
587.38	60809.46
587.54	60949.89
587.70	60889.04
587.86	60842.23
588.02	60896.06
588.18	61305.65
588.34	61064.58
588.49	60907.76
