SpectraSuite Data File
++++++++++++++++++++++++++++++++++++
Date: Fri Oct 25 10:43:22 EDT 2013
User: price-jones
Dark Spectrum Present: No
Reference Spectrum Present: No
Number of Sampled Component Spectra: 1
Spectrometers: USB2+H05261
Integration Time (usec): 100000 (USB2+H05261)
Spectra Averaged: 1 (USB2+H05261)
Boxcar Smoothing: 0 (USB2+H05261)
Correct for Electrical Dark: No (USB2+H05261)
Strobe/Lamp Enabled: No (USB2+H05261)
Correct for Detector Non-linearity: No (USB2+H05261)
Correct for Stray Light: No (USB2+H05261)
Number of Pixels in Processed Spectrum: 2048
>>>>>Begin Processed Spectral Data<<<<<
365.73	126.39
365.92	126.39
366.12	126.39
366.32	44.47
366.52	0.00
366.72	18.72
366.91	2.34
367.11	9.36
367.31	0.00
367.51	28.09
367.70	23.41
367.90	65.54
368.10	58.51
368.30	0.00
368.49	56.17
368.69	28.09
368.89	23.41
369.09	0.00
369.28	30.43
369.48	72.56
369.68	51.49
369.87	110.01
370.07	49.15
370.27	126.39
370.47	191.92
370.66	376.83
370.86	411.93
371.06	451.72
371.25	440.02
371.45	428.32
371.65	580.45
371.84	433.00
372.04	486.83
372.24	531.30
372.44	489.17
372.63	428.32
372.83	514.92
373.03	526.62
373.22	416.62
373.42	521.94
373.62	535.98
373.81	568.75
374.01	573.43
374.21	592.16
374.40	531.30
374.60	589.82
374.79	620.24
374.99	608.54
375.19	517.26
375.38	528.96
375.58	678.76
375.78	648.33
375.97	669.39
376.17	582.79
376.37	620.24
376.56	589.82
376.76	622.58
376.95	592.16
377.15	631.94
377.35	638.97
377.54	674.07
377.74	706.84
377.93	545.34
378.13	690.46
378.33	674.07
378.52	718.54
378.72	720.88
378.91	660.03
379.11	638.97
379.31	622.58
379.50	589.82
379.70	620.24
379.89	704.50
380.09	683.44
380.28	608.54
380.48	695.14
380.68	685.78
380.87	697.48
381.07	692.80
381.26	695.14
381.46	678.76
381.65	744.29
381.85	748.97
382.04	732.59
382.24	683.44
382.43	730.25
382.63	793.44
382.83	650.67
383.02	669.39
383.22	695.14
383.41	758.33
383.61	777.06
383.80	744.29
384.00	734.93
384.19	767.70
384.39	786.42
384.58	753.65
384.78	847.27
384.97	741.95
385.17	800.46
385.36	814.51
385.56	842.59
385.75	791.10
385.95	802.80
386.14	826.21
386.34	830.89
386.53	763.01
386.72	882.38
386.92	835.57
387.11	772.38
387.31	882.38
387.50	791.10
387.70	854.30
387.89	807.48
388.09	891.74
388.28	858.98
388.48	926.85
388.67	983.02
388.86	926.85
389.06	919.83
389.25	1111.75
389.45	938.55
389.64	1027.50
389.84	1041.54
390.03	999.41
390.22	978.34
390.42	1001.75
390.61	1013.45
390.81	964.30
391.00	1029.84
391.19	1015.79
391.39	1071.97
391.58	1027.50
391.78	1018.13
391.97	978.34
392.16	980.68
392.36	1062.60
392.55	1020.47
392.75	1050.90
392.94	961.96
393.13	957.28
393.33	1053.24
393.52	1142.18
393.71	1078.99
393.91	1160.91
394.10	1039.20
394.29	1186.65
394.49	1196.01
394.68	1280.27
394.88	1186.65
395.07	1284.95
395.26	1217.08
395.46	1245.16
395.65	1125.80
395.84	1277.93
396.04	1289.64
396.23	1179.63
396.42	1156.22
396.62	1142.18
396.81	1102.39
397.00	1146.86
397.19	1270.91
397.39	1259.21
397.58	1359.85
397.77	1345.81
397.97	1455.81
398.16	1425.39
398.35	1345.81
398.55	1380.92
398.74	1432.41
398.93	1636.03
399.12	1589.22
399.32	1530.71
399.51	1526.03
399.70	1519.01
399.90	1605.61
400.09	1645.40
400.28	1689.87
400.47	1687.53
400.67	1659.44
400.86	1631.35
401.05	1664.12
401.24	1619.65
401.44	1621.99
401.63	1666.46
401.82	1664.12
402.01	1713.27
402.21	1675.82
402.40	1809.23
402.59	1802.21
402.78	1724.97
402.97	1764.76
403.17	1769.44
403.36	1825.62
403.55	1809.23
403.74	1842.00
403.93	1858.39
404.13	1853.70
404.32	1888.81
404.51	1886.47
404.70	2003.50
404.89	1898.17
405.09	2012.86
405.28	1968.39
405.47	1980.09
405.66	1980.09
405.85	2052.65
406.05	1987.11
406.24	1980.09
406.43	1989.46
406.62	2050.31
406.81	2179.04
407.00	2118.18
407.20	1963.71
407.39	2169.68
407.58	2134.57
407.77	2188.40
407.96	2146.27
408.15	2244.57
408.34	2270.32
408.54	2284.36
408.73	2289.04
408.92	2282.02
409.11	2410.75
409.30	2275.00
409.49	2340.54
409.68	2272.66
409.87	2155.63
410.07	2375.64
410.26	2375.64
410.45	2342.88
410.64	2368.62
410.83	2696.30
411.02	2471.61
411.21	2602.68
411.40	2607.36
411.59	2581.61
411.78	2715.02
411.98	2712.68
412.17	2752.47
412.36	2654.17
412.55	2705.66
412.74	2729.06
412.93	2785.24
413.12	2684.59
413.31	2747.79
413.50	2771.19
413.69	2949.08
413.88	2939.71
414.07	2965.46
414.26	2883.54
414.45	3077.80
414.64	3002.91
414.83	3105.89
415.02	3012.27
415.22	2979.50
415.41	3138.66
415.60	3173.77
415.79	3176.11
415.98	3283.77
416.17	3239.30
416.36	3279.09
416.55	3286.11
416.74	3274.41
416.93	3339.94
417.12	3353.99
417.31	3412.50
417.50	3293.13
417.69	3506.12
417.88	3445.27
418.07	3522.51
418.26	3529.53
418.45	3445.27
418.64	3616.13
418.83	3571.66
419.02	3616.13
419.21	3735.50
419.39	3716.77
419.58	3548.25
419.77	3604.42
419.96	3616.13
420.15	3627.83
420.34	3693.37
420.53	3864.22
420.72	3922.74
420.91	3892.31
421.10	3861.88
421.29	3880.61
421.48	3735.50
421.67	3770.60
421.86	3889.97
422.05	3786.99
422.24	3808.05
422.43	3805.71
422.61	3922.74
422.80	3964.87
422.99	3995.29
423.18	3913.38
423.37	4046.79
423.56	4004.66
423.75	3918.06
423.94	3850.18
424.13	3691.02
424.32	3847.84
424.50	4016.36
424.69	4053.81
424.88	4039.76
425.07	3892.31
425.26	3873.59
425.45	4117.00
425.64	4011.68
425.83	3882.95
426.01	4156.79
426.20	4250.41
426.39	3936.78
426.58	4095.94
426.77	4037.42
426.96	3934.44
427.15	3943.80
427.33	4124.02
427.52	4105.30
427.71	4159.13
427.90	4147.43
428.09	4145.09
428.28	4102.96
428.46	4191.90
428.65	4212.96
428.84	4362.76
429.03	4154.45
429.22	4142.75
429.40	4234.03
429.59	4203.60
429.78	4037.42
429.97	3997.64
430.16	4084.23
430.34	4070.19
430.53	4098.28
430.72	4238.71
430.91	4332.33
431.10	4287.86
431.28	4491.49
431.47	4608.51
431.66	4512.55
431.85	4578.09
432.03	4554.68
432.22	4662.35
432.41	4629.58
432.60	4610.86
432.79	4732.56
432.97	4837.89
433.16	4758.31
433.35	4585.11
433.54	4564.04
433.72	4727.88
433.91	4744.27
434.10	4725.54
434.28	4814.48
434.47	4889.38
434.66	5053.22
434.85	4898.74
435.03	4819.16
435.22	4968.96
435.41	5228.76
435.59	5153.86
435.78	5085.98
435.97	4997.04
436.16	5135.14
436.34	5123.43
436.53	5036.83
436.72	5282.59
436.90	5041.51
437.09	5303.65
437.28	5041.51
437.46	5249.82
437.65	5329.40
437.84	5249.82
438.02	5074.28
438.21	5249.82
438.40	5308.34
438.58	5430.04
438.77	5474.51
438.96	5406.64
439.14	5640.69
439.33	5701.54
439.52	5692.18
439.70	5654.73
439.89	5593.88
440.08	5617.29
440.26	5746.02
440.45	5671.12
440.63	5970.71
440.82	6179.01
441.01	5830.27
441.19	6118.16
441.38	6167.31
441.57	6108.80
441.75	6221.14
441.94	6197.74
442.12	6389.66
442.31	6361.58
442.50	6408.39
442.68	6249.23
442.87	6157.95
443.05	6291.36
443.24	6462.22
443.43	6532.44
443.61	6602.65
443.80	6597.97
443.98	6300.72
444.17	6422.43
444.35	6541.80
444.54	6700.95
444.73	6705.63
444.91	6473.92
445.10	6513.71
445.28	6548.82
445.47	6455.20
445.65	6279.66
445.84	6457.54
446.02	6677.55
446.21	6623.72
446.39	6553.50
446.58	6586.27
446.77	6651.80
446.95	6499.67
447.14	6614.35
447.32	6801.60
447.51	6726.70
447.69	6562.86
447.88	6597.97
448.06	6616.69
448.25	6874.15
448.43	6810.96
448.62	6937.35
448.80	6686.91
448.99	6956.07
449.17	6876.49
449.36	6956.07
449.54	7012.24
449.73	7030.97
449.91	7126.93
450.10	7005.22
450.28	7262.68
450.46	7152.68
450.65	7314.17
450.83	7279.07
451.02	7227.57
451.20	7440.56
451.39	7129.27
451.57	7290.77
451.76	7316.51
451.94	7405.46
452.13	7332.90
452.31	7190.13
452.49	7077.78
452.68	7363.33
452.86	7325.88
453.05	7274.38
453.23	7452.27
453.42	7267.36
453.60	7152.68
453.78	7363.33
453.97	7375.03
454.15	7365.67
454.34	7370.35
454.52	7599.72
454.70	7573.97
454.89	7623.12
455.07	7335.24
455.26	7660.57
455.44	7810.37
455.62	7625.47
455.81	7679.30
455.99	7772.92
456.17	7857.18
456.36	8145.06
456.54	8056.12
456.73	8133.36
456.91	8308.90
457.09	8149.75
457.28	8215.28
457.46	8088.89
457.64	8180.17
457.83	8079.53
458.01	7868.88
458.19	8432.95
458.38	8112.30
458.56	8311.24
458.74	8355.71
458.93	8257.41
459.11	8383.80
459.29	8344.01
459.48	8292.52
459.66	8423.59
459.84	8339.33
460.03	8664.66
460.21	8428.27
460.39	8606.15
460.57	8669.34
460.76	8706.79
460.94	8765.31
461.12	8982.98
461.31	8697.43
461.49	8772.33
461.67	8645.94
461.85	8936.17
462.04	8959.57
462.22	9383.21
462.40	9001.70
462.59	8945.53
462.77	8795.73
462.95	9060.21
463.13	8957.23
463.32	8985.32
463.50	8901.06
463.68	8961.91
463.86	9111.71
464.05	8964.25
464.23	9128.09
464.41	9128.09
464.59	9034.47
464.78	9118.73
464.96	9083.62
465.14	8975.95
465.32	9261.50
465.50	9242.78
465.69	9287.25
465.87	9317.67
466.05	9249.80
466.23	9100.00
466.41	9284.91
466.60	9413.63
466.78	9312.99
466.96	9383.21
467.14	9193.62
467.32	9397.25
467.51	9467.47
467.69	9195.96
467.87	9320.01
468.05	9605.56
468.23	9537.68
468.41	9432.36
468.60	9448.74
468.78	9678.12
468.96	9591.52
469.14	9713.22
469.32	9745.99
469.50	9652.37
469.69	9586.83
469.87	9984.73
470.05	9898.13
470.23	9928.55
470.41	9769.40
470.59	9958.98
470.77	9916.85
470.95	9944.94
471.14	10174.31
471.32	9949.62
471.50	10167.29
471.68	10169.63
471.86	10272.61
472.04	10382.62
472.22	10595.61
472.40	10221.12
472.58	10527.73
472.77	10590.92
472.95	10820.30
473.13	11082.44
473.31	10700.93
473.49	10714.97
473.67	10485.60
473.85	10815.62
474.03	10895.19
474.21	10981.79
474.39	11080.10
474.57	11091.80
474.75	11054.35
474.93	11180.74
475.12	11229.89
475.30	11468.62
475.48	11192.44
475.66	11384.37
475.84	11428.84
476.02	11606.72
476.20	11370.32
476.38	11686.29
476.56	11829.07
476.74	11925.03
476.92	11688.64
477.10	11698.00
477.28	12170.79
477.46	12191.85
477.64	12395.48
477.82	12496.12
478.00	12634.21
478.18	12798.05
478.36	12652.94
478.54	12652.94
478.72	12858.90
478.90	13018.06
479.08	13205.30
479.26	13184.24
479.44	13427.65
479.62	13359.78
479.80	13315.31
479.98	13263.82
480.16	14193.01
480.34	13657.03
480.52	13923.85
480.70	13961.30
480.88	13518.93
481.06	13991.72
481.24	14008.11
481.41	14284.29
481.59	14305.35
481.77	14270.25
481.95	14319.40
482.13	14621.33
482.31	14434.08
482.49	15051.99
482.67	14958.36
482.85	14796.87
483.03	15344.55
483.21	15323.49
483.39	15501.37
483.57	15374.98
483.74	15763.51
483.92	15543.50
484.10	15468.60
484.28	15800.96
484.46	16051.39
484.64	16418.86
484.82	16201.19
485.00	16332.26
485.18	16650.57
485.35	16229.27
485.53	16318.22
485.71	16224.59
485.89	16411.84
486.07	16826.11
486.25	16652.91
486.43	17064.85
486.61	17123.36
486.78	17692.11
486.96	17448.69
487.14	17745.94
487.32	17687.43
487.50	18001.06
487.68	18335.76
487.85	18345.12
488.03	18401.29
488.21	18640.03
488.39	18298.31
488.57	18726.63
488.75	18743.01
488.92	19145.58
489.10	19435.81
489.28	19300.06
489.46	20009.24
489.64	19875.83
489.81	19768.16
489.99	20336.91
490.17	20250.32
490.35	20407.13
490.53	20278.40
490.70	20683.31
490.88	20566.29
491.06	20931.41
491.24	20987.58
491.41	20549.90
491.59	20772.25
491.77	20905.66
491.95	21048.44
492.13	21179.51
492.30	21589.10
492.48	21944.86
492.66	21898.05
492.84	21837.20
493.01	22302.96
493.19	22164.87
493.37	22176.58
493.54	22080.61
493.72	22487.87
493.90	22768.73
494.08	22787.46
494.25	23016.83
494.43	23190.03
494.61	23398.34
494.79	23386.63
494.96	23498.98
495.14	23510.68
495.32	23953.04
495.49	23679.20
495.67	23969.43
495.85	24032.62
496.02	24154.33
496.20	24608.39
496.38	24510.09
496.55	24556.90
496.73	25493.12
496.91	25109.27
497.09	24905.64
497.26	24772.23
497.44	25221.61
497.62	25064.80
497.79	25191.19
497.97	25516.52
498.14	25881.64
498.32	25773.98
498.50	25659.29
498.67	26096.97
498.85	26008.03
499.03	26455.08
499.20	26324.01
499.38	26497.20
499.56	26015.05
499.73	26284.22
499.91	26508.91
500.08	26597.85
500.26	26464.44
500.44	26654.02
500.61	26916.16
500.79	26661.04
500.97	27213.41
501.14	26941.91
501.32	27110.43
501.49	27264.90
501.67	27353.84
501.84	27297.67
502.02	27335.12
502.20	27400.65
502.37	27676.83
502.55	27594.92
502.72	27707.26
502.90	28226.86
503.07	28058.34
503.25	28297.08
503.43	28318.14
503.60	28098.13
503.78	28184.73
503.95	28659.86
504.13	28528.79
504.30	28931.36
504.48	28716.03
504.65	28856.46
504.83	29127.97
505.01	29476.71
505.18	29322.23
505.36	29518.84
505.53	29415.85
505.71	29972.90
505.88	29982.26
506.06	29596.07
506.23	29949.50
506.41	29677.99
506.58	30235.04
506.76	29713.10
506.93	29928.43
507.11	30092.27
507.28	30022.05
507.46	29696.72
507.63	29610.12
507.81	29830.13
507.98	30174.19
508.16	30258.45
508.33	30876.35
508.50	30749.96
508.68	31087.00
508.85	31241.47
509.03	30792.09
509.20	31119.76
509.38	30862.30
509.55	31173.60
509.73	31449.78
509.90	31281.26
510.08	31667.45
510.25	31112.74
510.42	31793.84
510.60	31686.17
510.77	31655.75
510.95	32037.25
511.12	31732.98
511.30	32261.94
511.47	32545.15
511.64	32474.93
511.82	32320.46
511.99	32046.62
512.17	32629.41
512.34	32474.93
512.51	32818.99
512.69	33024.96
512.86	32776.86
513.04	33024.96
513.21	32748.78
513.38	32947.72
513.56	33060.07
513.73	32737.07
513.90	32907.93
514.08	33158.37
514.25	33202.84
514.43	33287.10
514.60	32987.51
514.77	33184.12
514.95	33628.82
515.12	33865.21
515.29	33818.40
515.47	34134.37
515.64	34244.38
515.81	33825.42
515.99	34043.09
516.16	34108.63
516.33	33490.73
516.51	33446.26
516.68	33305.82
516.85	33043.68
517.03	33502.43
517.20	34068.84
517.37	34497.16
517.54	34108.63
517.72	34274.80
517.89	34136.71
518.06	33832.44
518.24	33890.96
518.41	34646.95
518.58	34710.14
518.75	34609.50
518.93	35096.33
519.10	34960.58
519.27	34909.09
519.45	35253.15
519.62	35276.55
519.79	35353.79
519.96	35548.06
520.14	35475.50
520.31	35159.53
520.48	35440.39
520.65	35639.34
520.83	35721.26
521.00	35559.76
521.17	35852.33
521.34	35857.01
521.52	36020.84
521.69	36208.09
521.86	36353.20
522.03	36011.48
522.20	36385.97
522.38	36517.04
522.55	36718.32
522.72	36456.18
522.89	36397.67
523.07	36425.76
523.24	36540.44
523.41	36975.78
523.58	36655.13
523.75	37163.03
523.92	37090.47
524.10	36912.59
524.27	37092.81
524.44	37436.87
524.61	37287.07
524.78	37350.27
524.96	37610.07
525.13	37549.21
525.30	37336.23
525.47	37605.39
525.64	37773.91
525.81	37567.94
525.98	37443.89
526.16	37778.59
526.33	37296.44
526.50	37486.02
526.67	37043.66
526.84	37518.79
527.01	37556.24
527.18	37666.24
527.36	38094.56
527.53	38227.97
527.70	38780.34
527.87	38352.02
528.04	38309.89
528.21	38630.54
528.38	38588.41
528.55	38714.80
528.72	38415.21
528.89	39084.61
529.07	38770.97
529.24	39002.69
529.41	38906.73
529.58	38843.53
529.75	38897.36
529.92	38925.45
530.09	39203.97
530.26	39365.47
530.43	39468.45
530.60	39019.07
530.77	39304.62
530.94	39548.03
531.11	39232.06
531.28	39517.60
531.46	39218.02
531.63	39796.13
531.80	39461.43
531.97	39576.12
532.14	39171.21
532.31	39288.23
532.48	39122.05
532.65	39728.25
532.82	39388.88
532.99	39856.98
533.16	39782.09
533.33	40142.53
533.50	40278.28
533.67	39796.13
533.84	39854.64
534.01	40119.12
534.18	40002.10
534.35	40580.21
534.52	40034.86
534.69	40540.42
534.86	40940.65
535.03	40297.00
535.20	40748.73
535.37	41062.36
535.54	40823.62
535.71	40690.21
535.88	40732.34
536.05	40662.13
536.22	40825.96
536.38	40830.65
536.55	40636.38
536.72	41050.66
536.89	40629.36
537.06	40645.74
537.23	40889.16
537.40	40910.22
537.57	41132.57
537.74	41186.41
537.91	41656.85
538.08	40959.38
538.25	40917.25
538.42	41387.69
538.59	41804.31
538.75	41755.16
538.92	41134.92
539.09	41469.61
539.26	41860.48
539.43	41361.95
539.60	41577.28
539.77	41352.58
539.94	41127.89
540.11	41511.74
540.28	41284.71
540.44	41368.97
540.61	41593.66
540.78	40971.08
540.95	41797.29
541.12	41350.24
541.29	41490.68
541.46	41907.29
541.62	42045.38
541.79	42059.43
541.96	41434.50
542.13	41638.13
542.30	41972.83
542.47	42457.32
542.63	42244.33
542.80	41787.92
542.97	42244.33
543.14	42707.76
543.31	42382.42
543.48	42642.22
543.64	42656.26
543.81	42852.87
543.98	42759.25
544.15	42630.52
544.32	42731.16
544.48	43115.01
544.65	42995.64
544.82	42834.14
544.99	42410.51
545.16	42848.19
545.32	42567.32
545.49	43248.42
545.66	43580.78
545.83	43236.72
546.00	43508.22
546.16	43117.35
546.33	42944.15
546.50	42773.29
546.67	43566.73
546.83	42869.25
547.00	42976.92
547.17	43281.19
547.34	42845.85
547.50	43210.97
547.67	43426.30
547.84	43445.02
548.00	43847.60
548.17	44088.67
548.34	43604.18
548.51	43871.00
548.67	43936.54
548.84	44016.11
549.01	43594.82
549.18	43461.41
549.34	43618.22
549.51	43779.72
549.68	44044.20
549.84	43358.42
550.01	43952.92
550.18	43871.00
550.34	44123.78
550.51	43782.06
550.68	43927.17
550.84	43276.51
551.01	44172.93
551.18	43885.04
551.34	43700.14
551.51	44254.85
551.68	44261.87
551.84	44231.44
552.01	44486.56
552.18	44011.43
552.34	44226.76
552.51	44521.67
552.68	44332.09
552.84	44376.56
553.01	44732.32
553.18	44091.01
553.34	44147.18
553.51	43999.73
553.67	44161.23
553.84	45036.59
554.01	44821.26
554.17	45174.68
554.34	44807.22
554.51	44350.81
554.67	45162.98
554.84	44435.07
555.00	44629.34
555.17	44435.07
555.33	44804.88
555.50	44858.71
555.67	44678.49
555.83	44746.36
556.00	44495.92
556.16	45059.99
556.33	44582.52
556.50	44844.66
556.66	45013.18
556.83	44664.44
556.99	44835.30
557.16	45170.00
557.32	45036.59
557.49	44947.65
557.65	44800.19
557.82	45287.03
557.98	45354.90
558.15	45027.23
558.32	45595.98
558.48	44631.68
558.65	45048.29
558.81	44641.04
558.98	44856.37
559.14	45071.70
559.31	45151.27
559.47	44788.49
559.64	45052.97
559.80	45202.77
559.97	45270.64
560.13	44959.35
560.30	45258.94
560.46	45139.57
560.63	45413.41
560.79	45488.31
560.96	45909.61
561.12	45237.87
561.29	45148.93
561.45	45251.92
561.61	45378.31
561.78	45375.97
561.94	45118.51
562.11	45310.43
562.27	45069.36
562.44	45689.60
562.60	45567.89
562.77	45556.19
562.93	45752.79
563.10	45649.81
563.26	45492.99
563.42	45567.89
563.59	45230.85
563.75	45652.15
563.92	45624.06
564.08	45876.84
564.24	45574.91
564.41	45387.67
564.57	45689.60
564.74	45537.46
564.90	45031.91
565.07	45497.67
565.23	45422.78
565.39	45710.66
565.56	45673.21
565.72	45287.03
565.88	45333.84
566.05	45258.94
566.21	45132.55
566.38	45481.29
566.54	45624.06
566.70	46213.88
566.87	46354.31
567.03	45703.64
567.19	46337.93
567.36	45806.62
567.52	45808.96
567.68	46108.55
567.85	45577.25
568.01	45940.04
568.17	45727.05
568.34	45500.01
568.50	45818.33
568.66	45460.23
568.83	46157.70
568.99	45504.70
569.15	45741.09
569.32	45764.49
569.48	45961.10
569.64	46075.79
569.81	45598.32
569.97	45390.01
570.13	45907.27
570.30	45769.18
570.46	45394.69
570.62	45214.47
570.78	44912.54
570.95	45331.50
571.11	45766.84
571.27	45661.51
571.43	45626.40
571.60	46136.64
571.76	45724.71
571.92	45563.21
572.09	46066.42
572.25	45893.22
572.41	46129.62
572.57	45577.25
572.74	46068.76
572.90	46096.85
573.06	46028.98
573.22	46108.55
573.38	46351.97
573.55	45448.52
573.71	46031.32
573.87	45886.20
574.03	45645.13
574.20	45743.43
574.36	46007.91
574.52	46148.34
574.68	46082.81
574.84	45736.41
575.01	45820.67
575.17	45603.00
575.33	45675.55
575.49	46038.34
575.65	45930.67
575.82	45897.91
575.98	45914.29
576.14	45921.31
576.30	46347.29
576.46	45710.66
576.62	45722.37
576.79	46120.26
576.95	45546.82
577.11	45951.74
577.27	45848.75
577.43	45668.53
577.59	45790.24
577.75	45792.58
577.92	45820.67
578.08	45649.81
578.24	45715.34
578.40	45911.95
578.56	45837.05
578.72	45731.73
578.88	46028.98
579.04	46014.93
579.21	45439.16
579.37	45785.56
579.53	46127.28
579.69	45698.96
579.85	45972.80
580.01	45991.53
580.17	45956.42
580.33	45797.26
580.49	46064.08
580.65	45640.45
580.82	46234.94
580.98	45904.93
581.14	45560.87
581.30	46209.20
581.46	46176.43
581.62	45853.44
581.78	45904.93
581.94	46539.21
582.10	46461.97
582.26	46232.60
582.42	45951.74
582.58	46227.92
582.74	45949.40
582.90	46307.50
583.06	46117.92
583.22	46026.63
583.38	46272.39
583.54	46651.56
583.70	46064.08
583.86	46143.66
584.02	45855.78
584.18	46277.07
584.34	46103.87
584.50	45879.18
584.66	46429.21
584.82	46366.01
584.98	46415.16
585.14	46314.52
585.30	46031.32
585.46	45780.88
585.62	45914.29
585.78	46005.57
585.94	46150.68
586.10	46066.42
586.26	45853.44
586.42	46515.81
586.58	46267.71
586.74	45933.01
586.90	45848.75
587.06	46377.72
587.22	46108.55
587.38	45827.69
587.54	46555.60
587.70	46131.96
587.86	45778.54
588.02	46347.29
588.18	46218.56
588.34	45752.79
588.49	45633.42
588.65	45762.15
588.81	45883.86
588.97	45680.24
589.13	45181.70
589.29	45560.87
589.45	45771.52
589.61	45663.85
589.77	46321.54
589.93	46553.26
590.08	46036.00
