SpectraSuite Data File
++++++++++++++++++++++++++++++++++++
Date: Fri Oct 25 11:25:34 EDT 2013
User: price-jones
Dark Spectrum Present: No
Reference Spectrum Present: No
Number of Sampled Component Spectra: 1
Spectrometers: USB2+H05261
Integration Time (usec): 100000 (USB2+H05261)
Spectra Averaged: 1 (USB2+H05261)
Boxcar Smoothing: 0 (USB2+H05261)
Correct for Electrical Dark: No (USB2+H05261)
Strobe/Lamp Enabled: No (USB2+H05261)
Correct for Detector Non-linearity: No (USB2+H05261)
Correct for Stray Light: No (USB2+H05261)
Number of Pixels in Processed Spectrum: 2048
>>>>>Begin Processed Spectral Data<<<<<
365.73	250.44
365.92	250.44
366.12	250.44
366.32	152.13
366.52	175.54
366.72	105.32
366.91	147.45
367.11	177.88
367.31	72.56
367.51	168.52
367.70	170.86
367.90	175.54
368.10	161.50
368.30	119.37
368.49	140.43
368.69	224.69
368.89	159.16
369.09	133.41
369.28	187.24
369.48	84.26
369.68	224.69
369.87	215.33
370.07	194.26
370.27	170.86
370.47	280.86
370.66	617.90
370.86	543.00
371.06	664.71
371.25	669.39
371.45	634.29
371.65	678.76
371.84	685.78
372.04	746.63
372.24	720.88
372.44	746.63
372.63	678.76
372.83	826.21
373.03	688.12
373.22	741.95
373.42	760.67
373.62	802.80
373.81	786.42
374.01	802.80
374.21	840.25
374.40	823.87
374.60	802.80
374.79	854.30
374.99	816.85
375.19	793.44
375.38	905.79
375.58	882.38
375.78	912.81
375.97	868.34
376.17	849.61
376.37	903.45
376.56	823.87
376.76	849.61
376.95	866.00
377.15	875.36
377.35	901.11
377.54	922.17
377.74	868.34
377.93	915.15
378.13	973.66
378.33	924.51
378.52	994.73
378.72	950.26
378.91	926.85
379.11	915.15
379.31	954.94
379.50	964.30
379.70	1025.15
379.89	1015.79
380.09	973.66
380.28	1020.47
380.48	952.60
380.68	964.30
380.87	985.37
381.07	957.28
381.26	952.60
381.46	961.96
381.65	1043.88
381.85	1109.41
382.04	1039.20
382.24	1097.71
382.43	1015.79
382.63	999.41
382.83	1006.43
383.02	1135.16
383.22	1177.29
383.41	1093.03
383.61	1011.11
383.80	1139.84
384.00	1109.41
384.19	990.05
384.39	1053.24
384.58	1083.67
384.78	1142.18
384.97	1163.25
385.17	1114.10
385.36	1116.44
385.56	1233.46
385.75	1177.29
385.95	1193.67
386.14	1186.65
386.34	1151.54
386.53	1247.51
386.72	1193.67
386.92	1291.98
387.11	1210.06
387.31	1273.25
387.50	1308.36
387.70	1242.82
387.89	1287.29
388.09	1301.34
388.28	1259.21
388.48	1245.16
388.67	1324.74
388.86	1369.21
389.06	1401.98
389.25	1299.00
389.45	1399.64
389.64	1345.81
389.84	1331.76
390.03	1362.19
390.22	1320.06
390.42	1366.87
390.61	1380.92
390.81	1359.85
391.00	1366.87
391.19	1467.52
391.39	1469.86
391.58	1465.18
391.78	1397.30
391.97	1483.90
392.16	1474.54
392.36	1476.88
392.55	1540.07
392.75	1472.20
392.94	1507.30
393.13	1570.50
393.33	1610.29
393.52	1600.93
393.71	1570.50
393.91	1575.18
394.10	1544.75
394.29	1542.41
394.49	1572.84
394.68	1701.57
394.88	1582.20
395.07	1551.78
395.26	1701.57
395.46	1706.25
395.65	1811.57
395.84	1715.61
396.04	1769.44
396.23	1710.93
396.42	1624.33
396.62	1750.72
396.81	1741.36
397.00	1706.25
397.19	1722.63
397.39	1769.44
397.58	1853.70
397.77	1888.81
397.97	1984.77
398.16	1940.30
398.35	1912.22
398.55	1813.92
398.74	1928.60
398.93	1834.98
399.12	1893.49
399.32	1891.15
399.51	1902.86
399.70	2047.97
399.90	1935.62
400.09	1989.46
400.28	1989.46
400.47	1980.09
400.67	2062.01
400.86	2097.12
401.05	1966.05
401.24	2026.90
401.44	2237.55
401.63	2071.37
401.82	2069.03
402.01	2153.29
402.21	2162.66
402.40	2150.95
402.59	2211.81
402.78	2155.63
402.97	2186.06
403.17	2139.25
403.36	2207.13
403.55	2139.25
403.74	2319.47
403.93	2434.16
404.13	2413.09
404.32	2415.43
404.51	2326.49
404.70	2457.56
404.89	2441.18
405.09	2502.03
405.28	2267.98
405.47	2401.39
405.66	2532.46
405.85	2562.89
406.05	2532.46
406.24	2462.24
406.43	2572.25
406.62	2579.27
406.81	2717.36
407.00	2513.74
407.20	2539.48
407.39	2609.70
407.58	2665.87
407.77	2693.96
407.96	2663.53
408.15	2689.28
408.34	2761.83
408.54	2796.94
408.73	2771.19
408.92	2818.00
409.11	2808.64
409.30	2984.18
409.49	2888.22
409.68	2951.42
409.87	2946.73
410.07	2925.67
410.26	2951.42
410.45	2951.42
410.64	3042.70
410.83	3019.29
411.02	2986.52
411.21	3208.87
411.40	3117.59
411.59	3045.04
411.78	3346.97
411.98	3211.22
412.17	3314.20
412.36	3241.64
412.55	3307.18
412.74	3403.14
412.93	3351.65
413.12	3281.43
413.31	3487.40
413.50	3396.12
413.69	3375.05
413.88	3585.70
414.07	3524.85
414.26	3735.50
414.45	3641.87
414.64	3681.66
414.83	3770.60
415.02	3709.75
415.22	3831.46
415.41	3775.28
415.60	3892.31
415.79	3885.29
415.98	3901.67
416.17	4065.51
416.36	3960.19
416.55	3892.31
416.74	4072.53
416.93	4009.34
417.12	4112.32
417.31	4124.02
417.50	4100.62
417.69	4229.35
417.88	4404.89
418.07	4283.18
418.26	4124.02
418.45	4313.61
418.64	4440.00
418.83	4311.27
419.02	4283.18
419.21	4447.02
419.39	4337.01
419.58	4521.92
419.77	4280.84
419.96	4545.32
420.15	4568.73
420.34	4524.26
420.53	4594.47
420.72	4662.35
420.91	4613.20
421.10	4744.27
421.29	4851.93
421.48	4524.26
421.67	4615.54
421.86	4650.64
422.05	4809.80
422.24	4830.87
422.43	4767.67
422.61	4812.14
422.80	5039.17
422.99	4819.16
423.18	4858.95
423.37	4875.34
423.56	4992.36
423.75	4816.82
423.94	4617.88
424.13	4575.75
424.32	4828.53
424.50	4954.91
424.69	5083.64
424.88	5158.54
425.07	4877.68
425.26	4835.55
425.45	4891.72
425.64	4983.00
425.83	5064.92
426.01	5139.82
426.20	4973.64
426.39	5109.39
426.58	4947.89
426.77	5027.47
426.96	5109.39
427.15	5144.50
427.33	5240.46
427.52	5046.20
427.71	5198.33
427.90	5188.97
428.09	5359.83
428.28	5263.86
428.46	5397.28
428.65	5401.96
428.84	5500.26
429.03	5441.75
429.22	5294.29
429.40	5462.81
429.59	5338.76
429.78	5294.29
429.97	5390.25
430.16	5535.37
430.34	5633.67
430.53	5661.76
430.72	5591.54
430.91	5556.43
431.10	5614.95
431.28	5657.07
431.47	5636.01
431.66	5837.30
431.85	5816.23
432.03	5877.09
432.22	5870.06
432.41	5916.87
432.60	5823.25
432.79	5949.64
432.97	5933.26
433.16	5870.06
433.35	5785.80
433.54	6076.03
433.72	6134.54
433.91	5987.09
434.10	6026.88
434.28	5879.43
434.47	6225.82
434.66	6153.27
434.85	6209.44
435.03	6305.40
435.22	6345.19
435.41	6499.67
435.59	6251.57
435.78	6541.80
435.97	6296.04
436.16	6399.02
436.34	6298.38
436.53	6431.79
436.72	6642.44
436.90	6494.99
437.09	6612.01
437.28	6551.16
437.46	6466.90
437.65	6640.10
437.84	6768.83
438.02	6576.91
438.21	6902.24
438.40	6715.00
438.58	6829.68
438.77	6965.43
438.96	6817.98
439.14	7150.34
439.33	7213.53
439.52	7232.26
439.70	7246.30
439.89	7187.79
440.08	7330.56
440.26	7300.13
440.45	7377.37
440.63	7545.89
440.82	7585.68
441.01	7482.69
441.19	7609.08
441.38	7676.96
441.57	7658.23
441.75	7847.82
441.94	7789.30
442.12	7784.62
442.31	7971.86
442.50	8070.17
442.68	7873.56
442.87	7943.78
443.05	8145.06
443.24	8358.05
443.43	8105.28
443.61	8187.19
443.80	8456.36
443.98	7964.84
444.17	7941.44
444.35	8161.45
444.54	8482.10
444.73	8142.72
444.91	8124.00
445.10	8226.98
445.28	8131.02
445.47	8243.37
445.65	8355.71
445.84	8435.29
446.02	8301.88
446.21	8344.01
446.39	8287.84
446.58	8376.78
446.77	8500.83
446.95	8107.62
447.14	8257.41
447.32	8617.85
447.51	8416.57
447.69	8510.19
447.88	8472.74
448.06	8365.07
448.25	8418.91
448.43	8397.84
448.62	8589.77
448.80	8493.80
448.99	8554.66
449.17	8622.53
449.36	8688.07
449.54	8933.82
449.73	9114.05
449.91	9064.89
450.10	8926.80
450.28	8943.19
450.46	9062.55
450.65	8865.95
450.83	8915.10
451.02	9011.06
451.20	8840.20
451.39	9111.71
451.57	9231.07
451.76	8999.36
451.94	8987.66
452.13	9334.06
452.31	9092.98
452.49	9219.37
452.68	9181.92
452.86	9212.35
453.05	9212.35
453.23	9540.02
453.42	9210.01
453.60	9371.50
453.78	9425.34
453.97	9500.23
454.15	9434.70
454.34	9380.87
454.52	9565.77
454.70	9476.83
454.89	9603.22
455.07	9769.40
455.26	9884.08
455.44	9799.82
455.62	10015.15
455.81	9685.14
455.99	9921.53
456.17	10005.79
456.36	10127.50
456.54	10312.40
456.73	10038.56
456.91	10333.47
457.09	10228.14
457.28	10597.95
457.46	10162.61
457.64	10682.20
457.83	10476.24
458.01	10417.72
458.19	10656.46
458.38	10546.45
458.56	10623.69
458.74	10586.24
458.93	10483.26
459.11	10693.91
459.29	10593.26
459.48	10696.25
459.66	10604.97
459.84	10839.02
460.03	10967.75
460.21	10937.32
460.39	11040.31
460.57	10883.49
460.76	10949.03
460.94	10958.39
461.12	11126.91
461.31	11133.93
461.49	11154.99
461.67	11201.80
461.85	11384.37
462.04	11152.65
462.22	11531.82
462.40	11571.61
462.59	11356.28
462.77	11536.50
462.95	11538.84
463.13	11543.52
463.32	11487.35
463.50	11623.10
463.68	11611.40
463.86	11749.49
464.05	11702.68
464.23	11524.80
464.41	11864.18
464.59	11592.67
464.78	11957.80
464.96	11857.15
465.14	11824.39
465.32	11915.67
465.50	12070.14
465.69	11971.84
465.87	12156.74
466.05	12093.55
466.23	12107.59
466.41	12177.81
466.60	12411.86
466.78	12196.53
466.96	12105.25
467.14	12292.49
467.32	12365.05
467.51	12496.12
467.69	12067.80
467.87	12287.81
468.05	12615.49
468.23	12388.46
468.41	12549.95
468.60	12437.61
468.78	12645.91
468.96	12568.68
469.14	12805.07
469.32	13004.02
469.50	12517.18
469.69	12959.55
469.87	12919.76
470.05	13163.17
470.23	12919.76
470.41	13151.47
470.59	13273.18
470.77	13034.44
470.95	13252.11
471.14	13607.87
471.32	13242.75
471.50	13401.91
471.68	13226.37
471.86	13628.94
472.04	13509.57
472.22	13799.80
472.40	13846.61
472.58	13731.92
472.77	13907.46
472.95	14043.21
473.13	14235.14
473.31	13907.46
473.49	14106.41
473.67	14010.45
473.85	14345.14
474.03	14635.37
474.21	14483.24
474.39	14829.63
474.57	14621.33
474.75	14668.14
474.93	14747.72
475.12	14689.20
475.30	14839.00
475.48	15023.90
475.66	15185.40
475.84	14897.51
476.02	15236.89
476.20	15325.83
476.38	15885.22
476.56	15761.17
476.74	15749.46
476.92	15901.60
477.10	15983.52
477.28	15735.42
477.46	15983.52
477.64	16053.73
477.82	16292.47
478.00	16882.28
478.18	16744.19
478.36	16877.60
478.54	17158.47
478.72	17195.92
478.90	17322.30
479.08	17446.35
479.26	17579.76
479.44	17767.01
479.62	17673.39
479.80	17755.30
479.98	18040.85
480.16	18235.11
480.34	18097.02
480.52	18349.80
480.70	18487.89
480.88	18134.47
481.06	18527.68
481.24	18707.90
481.41	19096.43
481.59	19117.50
481.77	19122.18
481.95	19452.19
482.13	19822.00
482.31	19527.09
482.49	20030.30
482.67	20177.76
482.85	20496.07
483.03	20652.89
483.21	20776.94
483.39	20688.00
483.57	20669.27
483.74	21130.36
483.92	21099.93
484.10	21209.93
484.28	21551.65
484.46	21834.86
484.64	22141.47
484.82	22115.72
485.00	22073.59
485.18	22419.99
485.35	22661.07
485.53	22532.34
485.71	22827.24
485.89	23166.62
486.07	23501.32
486.25	23215.77
486.43	23470.89
486.61	23765.80
486.78	23770.48
486.96	24159.01
487.14	24107.52
487.32	24369.66
487.50	24758.19
487.68	25003.94
487.85	25081.18
488.03	25497.80
488.21	25783.34
488.39	25549.29
488.57	25727.17
488.75	26167.19
488.92	26689.13
489.10	26403.58
489.28	26312.30
489.46	27246.18
489.64	26906.80
489.81	27414.69
489.99	27288.31
490.17	27843.01
490.35	28236.22
490.53	27936.63
490.70	28400.06
490.88	28135.58
491.06	28676.24
491.24	28620.07
491.41	28432.83
491.59	28823.70
491.77	28914.98
491.95	29652.25
492.13	29301.17
492.30	29867.58
492.48	29783.32
492.66	29949.50
492.84	29944.81
493.01	30265.47
493.19	30555.69
493.37	30747.62
493.54	31030.82
493.72	31634.68
493.90	31407.65
494.08	31463.82
494.25	31604.25
494.43	31737.66
494.61	32273.65
494.79	32170.66
494.96	32383.65
495.14	32243.22
495.32	32844.74
495.49	33181.77
495.67	32912.61
495.85	33525.83
496.02	33476.68
496.20	33804.36
496.38	33820.74
496.55	33638.18
496.73	34548.65
496.91	34366.09
497.09	34756.96
497.26	34857.60
497.44	34742.91
497.62	35166.55
497.79	35700.19
497.97	35171.23
498.14	35835.94
498.32	36013.82
498.50	36184.68
498.67	36357.88
498.85	36336.82
499.03	36594.28
499.20	36648.11
499.38	36886.84
499.56	36973.44
499.73	36893.86
499.91	36732.37
500.08	37434.53
500.26	36966.42
500.44	37574.96
500.61	37415.80
500.79	37284.73
500.97	38326.27
501.14	38242.01
501.32	37893.27
501.49	38340.32
501.67	38462.02
501.84	38792.04
502.02	38651.61
502.20	38803.74
502.37	38923.11
502.55	39260.15
502.72	38972.26
502.90	39206.31
503.07	39328.02
503.25	39580.80
503.43	39531.65
503.60	40009.12
503.78	39920.18
503.95	39922.52
504.13	40044.23
504.30	40336.79
504.48	40484.25
504.65	40332.11
504.83	40673.83
505.01	41043.63
505.18	41031.93
505.36	41247.26
505.53	40687.87
505.71	41404.08
505.88	41727.07
506.06	41289.39
506.23	41911.97
506.41	41329.18
506.58	42192.84
506.76	42157.73
506.93	42256.03
507.11	41663.88
507.28	42359.02
507.46	42564.98
507.63	42623.50
507.81	42859.89
507.98	42883.30
508.16	43136.07
508.33	43068.20
508.50	43278.85
508.68	43540.99
508.85	43466.09
509.03	43999.73
509.20	44020.80
509.38	43894.41
509.55	44091.01
509.73	43903.77
509.90	44189.31
510.08	44594.23
510.25	44542.74
510.42	44505.29
510.60	45043.61
510.77	44905.52
510.95	45326.81
511.12	45102.12
511.30	44896.16
511.47	45256.60
511.64	45329.16
511.82	45558.53
511.99	45139.57
512.17	45844.07
512.34	45441.50
512.51	46167.07
512.69	45998.55
512.86	45862.80
513.04	46667.94
513.21	46403.46
513.38	46405.80
513.56	46794.33
513.73	46728.80
513.90	47047.11
514.08	46672.62
514.25	47072.85
514.43	47393.51
514.60	47070.51
514.77	47168.82
514.95	47313.93
515.12	47454.36
515.29	47456.70
515.47	47889.70
515.64	47906.08
515.81	47393.51
515.99	48100.35
516.16	48626.97
516.33	47716.50
516.51	48402.28
516.68	48259.51
516.85	48364.83
517.03	48641.01
517.20	48678.46
517.37	48673.78
517.54	48547.39
517.72	48657.40
517.89	48753.36
518.06	49029.54
518.24	48982.73
518.41	48940.60
518.58	49088.06
518.75	49301.04
518.93	49478.92
519.10	49310.41
519.27	49904.90
519.45	49661.49
519.62	49771.49
519.79	49876.82
519.96	49701.28
520.14	50082.78
520.31	49801.92
520.48	50199.81
520.65	49741.06
520.83	50670.26
521.00	50595.36
521.17	50197.47
521.34	50387.05
521.52	50588.34
521.69	50506.42
521.86	50946.44
522.03	50813.03
522.20	51147.73
522.38	51302.20
522.55	51131.34
522.72	51028.36
522.89	51121.98
523.07	51393.48
523.24	51318.59
523.41	51473.06
523.58	50993.25
523.75	51428.59
523.92	51913.08
524.10	51583.07
524.27	51681.37
524.44	51985.64
524.61	51943.51
524.78	52107.35
524.96	51927.13
525.13	51973.94
525.30	52184.58
525.47	52481.83
525.64	52509.92
525.81	52552.05
525.98	52439.70
526.16	52254.80
526.33	52554.39
526.50	52980.37
526.67	52390.55
526.84	52687.80
527.01	52568.43
527.18	52875.04
527.36	53020.16
527.53	52886.74
527.70	53432.09
527.87	53268.25
528.04	53118.46
528.21	52968.66
528.38	52982.71
528.55	53432.09
528.72	53109.10
528.89	53221.44
529.07	53258.89
529.24	53214.42
529.41	53567.84
529.58	53745.72
529.75	53432.09
529.92	53731.68
530.09	53483.58
530.26	53724.66
530.43	53965.73
530.60	53642.74
530.77	53502.31
530.94	53918.92
531.11	54012.54
531.28	54035.95
531.46	53944.67
531.63	54195.10
531.80	54138.93
531.97	54349.58
532.14	54473.63
532.31	54281.70
532.48	54440.86
532.65	54534.48
532.82	54314.47
532.99	54628.10
533.16	54239.57
533.33	54749.81
533.50	54279.36
533.67	54440.86
533.84	54457.24
534.01	54717.04
534.18	54686.62
534.35	55075.15
534.52	54738.11
534.69	55238.98
534.86	54976.84
535.03	55021.31
535.20	55157.06
535.37	55269.41
535.54	55250.69
535.71	55091.53
535.88	55313.88
536.05	55330.26
536.22	55274.09
536.38	55477.72
536.55	55622.83
536.72	55353.67
536.89	55451.97
537.06	55688.37
537.23	55526.87
537.40	55398.14
537.57	55744.54
537.74	55664.96
537.91	55999.66
538.08	55770.28
538.25	55512.83
538.42	55847.52
538.59	55931.78
538.75	55650.92
538.92	55861.57
539.09	56123.71
539.26	56109.66
539.43	55941.14
539.60	56184.56
539.77	56222.01
539.94	56406.91
540.11	56320.31
540.28	56353.08
540.44	56556.70
540.61	56336.69
540.78	56275.84
540.95	56296.91
541.12	56062.85
541.29	56203.28
541.46	56397.55
541.62	56514.58
541.79	56420.95
541.96	56402.23
542.13	56610.54
542.30	56427.98
542.47	56699.48
542.63	56591.81
542.80	56886.72
542.97	56729.90
543.14	57045.88
543.31	56940.55
543.48	57312.70
543.64	57544.41
543.81	57228.44
543.98	57202.69
544.15	57013.11
544.32	57230.78
544.48	57502.28
544.65	57099.71
544.82	57207.37
544.99	57359.51
545.16	57392.28
545.32	57202.69
545.49	57506.96
545.66	57425.04
545.83	57602.92
546.00	57631.01
546.16	57181.63
546.33	57441.43
546.50	57331.42
546.67	57661.44
546.83	57233.12
547.00	57631.01
547.17	57565.48
547.34	57605.26
547.50	57925.92
547.67	58031.24
547.84	57726.97
548.00	58162.31
548.17	57949.32
548.34	57829.96
548.51	57900.17
548.67	58157.63
548.84	57769.10
549.01	57930.60
549.18	58078.05
549.34	57993.79
549.51	58169.33
549.68	58216.14
549.84	58087.42
550.01	58284.02
550.18	58005.50
550.34	58532.12
550.51	58277.00
550.68	58342.53
550.84	58185.72
551.01	58431.47
551.18	58384.66
551.34	58431.47
551.51	58424.45
551.68	58478.28
551.84	58408.07
552.01	58475.94
552.18	58546.16
552.34	58206.78
552.51	58658.51
552.68	58361.26
552.84	58527.44
553.01	58768.51
553.18	58644.46
553.34	58630.42
553.51	58585.95
553.67	58710.00
553.84	58927.67
554.01	58749.79
554.17	58995.54
554.34	58866.81
554.51	58857.45
554.67	58869.15
554.84	58894.90
555.00	59014.27
555.17	58988.52
555.33	58887.88
555.50	58644.46
555.67	58955.75
555.83	58899.58
556.00	59018.95
556.16	59236.62
556.33	59178.10
556.50	58974.48
556.66	59271.73
556.83	59110.23
556.99	59351.30
557.16	59391.09
557.32	59423.86
557.49	59681.32
557.65	59089.16
557.82	59231.94
557.98	59271.73
558.15	59262.36
558.32	59430.88
558.48	59220.23
558.65	59330.24
558.81	59276.41
558.98	59374.71
559.14	59498.76
559.31	59332.58
559.47	59573.66
559.64	59753.88
559.80	59601.74
559.97	59817.07
560.13	59515.14
560.30	59505.78
560.46	59482.37
560.63	59531.53
560.79	59646.21
560.96	59704.73
561.12	59627.49
561.29	59583.02
561.45	59625.15
561.61	59760.90
561.78	59636.85
561.94	59597.06
562.11	59744.51
562.27	59807.71
562.44	59833.46
562.60	60013.68
562.77	59945.80
562.93	59660.26
563.10	59994.95
563.26	59709.41
563.42	60123.68
563.59	59922.40
563.75	59559.61
563.92	59985.59
564.08	59929.42
564.24	60144.75
564.41	59950.48
564.57	60100.28
564.74	59976.23
564.90	59833.46
565.07	60058.15
565.23	59987.93
565.39	59962.18
565.56	60264.11
565.72	60116.66
565.88	60161.13
566.05	60072.19
566.21	59980.91
566.38	60027.72
566.54	60090.91
566.70	60467.74
566.87	60175.17
567.03	60018.36
567.19	60257.09
567.36	60182.19
567.52	60069.85
567.68	60285.18
567.85	60406.89
568.01	60156.45
568.17	60416.25
568.34	60348.37
568.50	60079.21
568.66	60203.26
568.83	60484.12
568.99	60341.35
569.15	60383.48
569.32	60343.69
569.48	60577.75
569.64	60540.30
569.81	60484.12
569.97	60271.14
570.13	60285.18
570.30	60212.62
570.46	60360.08
570.62	60402.21
570.78	60329.65
570.95	60395.18
571.11	60584.77
571.27	60229.01
571.43	60598.81
571.60	60451.36
571.76	60411.57
571.92	60402.21
572.09	60521.57
572.25	60360.08
572.41	60119.00
572.57	60383.48
572.74	60886.70
572.90	60659.66
573.06	60486.46
573.22	60409.23
573.38	60736.90
573.55	60577.75
573.71	60605.83
573.87	60502.85
574.03	60416.25
574.20	60526.25
574.36	60444.33
574.52	60746.26
574.68	60650.30
574.84	60842.23
575.01	60638.60
575.17	60860.95
575.33	60404.55
575.49	60584.77
575.65	60575.40
575.82	60697.11
575.98	60629.24
576.14	60746.26
576.30	60680.73
576.46	60313.26
576.62	60341.35
576.79	60598.81
576.95	60544.98
577.11	60647.96
577.27	60867.97
577.43	60837.54
577.59	60577.75
577.75	60463.06
577.92	60652.64
578.08	60573.06
578.24	60472.42
578.40	60910.10
578.56	60711.16
578.72	60748.60
578.88	60851.59
579.04	60982.66
579.21	60889.04
579.37	60865.63
579.53	60832.86
579.69	60685.41
579.85	60746.26
580.01	60636.26
580.17	60598.81
580.33	60619.88
580.49	60917.12
580.65	60797.76
580.82	60790.73
580.98	60685.41
581.14	60816.48
581.30	60940.53
581.46	60753.29
581.62	60912.44
581.78	60830.52
581.94	60877.33
582.10	60867.97
582.26	60704.13
582.42	60601.15
582.58	60783.71
582.74	60603.49
582.90	60851.59
583.06	60645.62
583.22	60643.28
583.38	60713.50
583.54	60732.22
583.70	60807.12
583.86	61050.53
584.02	60814.14
584.18	60818.82
584.34	60917.12
584.50	60917.12
584.66	60863.29
584.82	60739.24
584.98	60917.12
585.14	61087.98
585.30	60837.54
585.46	60767.33
585.62	60912.44
585.78	61013.08
585.94	60680.73
586.10	60872.65
586.26	60823.50
586.42	60835.20
586.58	60912.44
586.74	60907.76
586.90	60903.08
587.06	60587.11
587.22	60898.40
587.38	61087.98
587.54	61127.77
587.70	61120.75
587.86	60968.61
588.02	61120.75
588.18	61092.66
588.34	60928.83
588.49	60982.66
