SpectraSuite Data File
++++++++++++++++++++++++++++++++++++
Date: Fri Oct 25 11:34:37 EDT 2013
User: price-jones
Dark Spectrum Present: No
Reference Spectrum Present: No
Number of Sampled Component Spectra: 1
Spectrometers: USB2+H05261
Integration Time (usec): 100000 (USB2+H05261)
Spectra Averaged: 1 (USB2+H05261)
Boxcar Smoothing: 0 (USB2+H05261)
Correct for Electrical Dark: No (USB2+H05261)
Strobe/Lamp Enabled: No (USB2+H05261)
Correct for Detector Non-linearity: No (USB2+H05261)
Correct for Stray Light: No (USB2+H05261)
Number of Pixels in Processed Spectrum: 2048
>>>>>Begin Processed Spectral Data<<<<<
365.73	292.57
365.92	292.57
366.12	292.57
366.32	156.82
366.52	182.56
366.72	250.44
366.91	142.77
367.11	180.22
367.31	124.05
367.51	152.13
367.70	194.26
367.90	182.56
368.10	182.56
368.30	159.16
368.49	107.66
368.69	198.95
368.89	234.05
369.09	215.33
369.28	276.18
369.48	198.95
369.68	231.71
369.87	217.67
370.07	210.65
370.27	241.08
370.47	334.70
370.66	514.92
370.86	543.00
371.06	498.53
371.25	582.79
371.45	573.43
371.65	573.43
371.84	550.03
372.04	472.79
372.24	557.05
372.44	463.43
372.63	594.50
372.83	608.54
373.03	582.79
373.22	622.58
373.42	566.41
373.62	585.13
373.81	543.00
374.01	681.10
374.21	615.56
374.40	608.54
374.60	592.16
374.79	648.33
374.99	727.91
375.19	657.69
375.38	615.56
375.58	587.47
375.78	643.65
375.97	620.24
376.17	631.94
376.37	683.44
376.56	627.26
376.76	660.03
376.95	627.26
377.15	657.69
377.35	720.88
377.54	688.12
377.74	660.03
377.93	643.65
378.13	732.59
378.33	636.63
378.52	711.52
378.72	692.80
378.91	676.41
379.11	641.31
379.31	718.54
379.50	779.40
379.70	716.20
379.89	676.41
380.09	716.20
380.28	622.58
380.48	744.29
380.68	657.69
380.87	751.31
381.07	704.50
381.26	683.44
381.46	748.97
381.65	842.59
381.85	734.93
382.04	774.72
382.24	739.61
382.43	737.27
382.63	770.04
382.83	755.99
383.02	748.97
383.22	739.61
383.41	802.80
383.61	809.83
383.80	851.96
384.00	880.04
384.19	802.80
384.39	781.74
384.58	777.06
384.78	901.11
384.97	784.08
385.17	840.25
385.36	844.93
385.56	821.53
385.75	767.70
385.95	830.89
386.14	816.85
386.34	912.81
386.53	863.66
386.72	772.38
386.92	802.80
387.11	830.89
387.31	854.30
387.50	891.74
387.70	833.23
387.89	875.36
388.09	814.51
388.28	809.83
388.48	901.11
388.67	889.40
388.86	938.55
389.06	931.53
389.25	947.92
389.45	835.57
389.64	940.90
389.84	917.49
390.03	957.28
390.22	954.94
390.42	891.74
390.61	945.58
390.81	912.81
391.00	917.49
391.19	938.55
391.39	889.40
391.58	997.07
391.78	1025.15
391.97	980.68
392.16	887.06
392.36	1074.31
392.55	947.92
392.75	1067.28
392.94	961.96
393.13	985.37
393.33	997.07
393.52	936.21
393.71	1029.84
393.91	1102.39
394.10	1109.41
394.29	1053.24
394.49	1076.65
394.68	1104.73
394.88	1086.01
395.07	1086.01
395.26	1076.65
395.46	1217.08
395.65	1128.14
395.84	1090.69
396.04	1205.38
396.23	1139.84
396.42	1191.33
396.62	1261.55
396.81	1203.04
397.00	1188.99
397.19	1191.33
397.39	1200.69
397.58	1245.16
397.77	1151.54
397.97	1167.93
398.16	1242.82
398.35	1184.31
398.55	1170.27
398.74	1212.40
398.93	1287.29
399.12	1299.00
399.32	1214.74
399.51	1263.89
399.70	1153.88
399.90	1221.76
400.09	1254.53
400.28	1249.85
400.47	1296.66
400.67	1355.17
400.86	1380.92
401.05	1310.70
401.24	1432.41
401.44	1324.74
401.63	1383.26
401.82	1352.83
402.01	1341.13
402.21	1409.00
402.40	1427.73
402.59	1511.99
402.78	1439.43
402.97	1441.77
403.17	1488.58
403.36	1437.09
403.55	1441.77
403.74	1509.65
403.93	1516.67
404.13	1586.88
404.32	1554.12
404.51	1612.63
404.70	1584.54
404.89	1500.28
405.09	1563.48
405.28	1633.69
405.47	1589.22
405.66	1643.06
405.85	1603.27
406.05	1673.48
406.24	1631.35
406.43	1619.65
406.62	1626.67
406.81	1774.13
407.00	1720.29
407.20	1811.57
407.39	1795.19
407.58	1717.95
407.77	1802.21
407.96	1760.08
408.15	1802.21
408.34	1788.17
408.54	1839.66
408.73	1753.06
408.92	1799.87
409.11	1846.68
409.30	1799.87
409.49	1856.04
409.68	1937.96
409.87	1923.92
410.07	1839.66
410.26	1949.67
410.45	1886.47
410.64	2108.82
410.83	2031.58
411.02	2085.42
411.21	2092.44
411.40	2052.65
411.59	2139.25
411.78	2118.18
411.98	2160.31
412.17	2193.08
412.36	2218.83
412.55	2188.40
412.74	2190.74
412.93	2363.94
413.12	2216.49
413.31	2256.28
413.50	2265.64
413.69	2265.64
413.88	2487.99
414.07	2249.25
414.26	2382.67
414.45	2370.96
414.64	2399.05
414.83	2443.52
415.02	2539.48
415.22	2483.31
415.41	2464.58
415.60	2363.94
415.79	2511.39
415.98	2530.12
416.17	2581.61
416.36	2619.06
416.55	2672.89
416.74	2654.17
416.93	2677.57
417.12	2691.62
417.31	2754.81
417.50	2647.15
417.69	2729.06
417.88	2836.73
418.07	2754.81
418.26	2848.43
418.45	2818.00
418.64	2888.22
418.83	2848.43
419.02	2953.76
419.21	2932.69
419.39	2925.67
419.58	2909.29
419.77	2881.20
419.96	2993.55
420.15	2965.46
420.34	2949.08
420.53	2942.05
420.72	2967.80
420.91	3073.12
421.10	3096.53
421.29	3148.02
421.48	3002.91
421.67	3122.27
421.86	3112.91
422.05	3129.30
422.24	3225.26
422.43	3169.09
422.61	3148.02
422.80	3225.26
422.99	3197.17
423.18	3234.62
423.37	3293.13
423.56	3276.75
423.75	3269.73
423.94	3157.38
424.13	2981.84
424.32	3143.34
424.50	3262.71
424.69	3393.78
424.88	3344.63
425.07	3208.87
425.26	3255.69
425.45	3232.28
425.64	3178.45
425.83	3274.41
426.01	3274.41
426.20	3356.33
426.39	3269.73
426.58	3206.53
426.77	3248.66
426.96	3393.78
427.15	3372.71
427.33	3349.31
427.52	3405.48
427.71	3346.97
427.90	3410.16
428.09	3534.21
428.28	3499.10
428.46	3386.76
428.65	3585.70
428.84	3548.25
429.03	3548.25
429.22	3515.48
429.40	3508.46
429.59	3531.87
429.78	3438.25
429.97	3456.97
430.16	3543.57
430.34	3557.61
430.53	3707.41
430.72	3714.43
430.91	3592.72
431.10	3688.68
431.28	3740.18
431.47	3782.31
431.66	3901.67
431.85	3803.37
432.03	3843.16
432.22	3822.09
432.41	3845.50
432.60	3899.33
432.79	3864.22
432.97	3918.06
433.16	4049.13
433.35	3805.71
433.54	3882.95
433.72	3962.53
433.91	3866.56
434.10	4117.00
434.28	3936.78
434.47	4016.36
434.66	3925.08
434.85	4086.58
435.03	4182.54
435.22	4152.11
435.41	4231.69
435.59	4088.92
435.78	4224.67
435.97	4250.41
436.16	4168.49
436.34	4212.96
436.53	4238.71
436.72	4269.14
436.90	4219.99
437.09	4397.87
437.28	4147.43
437.46	4344.03
437.65	4259.78
437.84	4379.14
438.02	4369.78
438.21	4365.10
438.40	4344.03
438.58	4599.15
438.77	4568.73
438.96	4416.59
439.14	4634.26
439.33	4610.86
439.52	4739.58
439.70	4688.09
439.89	4758.31
440.08	4739.58
440.26	4870.65
440.45	4826.18
440.63	4835.55
440.82	4882.36
441.01	4905.76
441.19	4964.28
441.38	4954.91
441.57	5041.51
441.75	5088.32
441.94	5121.09
442.12	5160.88
442.31	5125.77
442.50	5137.48
442.68	5114.07
442.87	5160.88
443.05	5128.11
443.24	5151.52
443.43	5177.26
443.61	5181.95
443.80	5408.98
443.98	5203.01
444.17	5050.88
444.35	5088.32
444.54	5350.46
444.73	5448.77
444.91	5476.85
445.10	5434.72
445.28	5366.85
445.47	5261.52
445.65	5270.89
445.84	5444.09
446.02	5561.11
446.21	5446.43
446.39	5423.02
446.58	5394.93
446.77	5490.90
446.95	5408.98
447.14	5390.25
447.32	5563.45
447.51	5476.85
447.69	5418.34
447.88	5504.94
448.06	5514.30
448.25	5579.84
448.43	5584.52
448.62	5591.54
448.80	5518.98
448.99	5542.39
449.17	5558.77
449.36	5605.58
449.54	5619.63
449.73	5806.87
449.91	5879.43
450.10	5935.60
450.28	5689.84
450.46	5783.46
450.65	5722.61
450.83	5750.70
451.02	5827.93
451.20	5783.46
451.39	5809.21
451.57	5916.87
451.76	5802.19
451.94	5888.79
452.13	6008.16
452.31	6101.78
452.49	5827.93
452.68	6045.60
452.86	5916.87
453.05	5923.90
453.23	6279.66
453.42	6043.26
453.60	6008.16
453.78	6066.67
453.97	5935.60
454.15	6125.18
454.34	6242.21
454.52	6237.53
454.70	6129.86
454.89	6225.82
455.07	6209.44
455.26	6277.32
455.44	6384.98
455.62	6235.19
455.81	6260.93
455.99	6384.98
456.17	6494.99
456.36	6333.49
456.54	6354.55
456.73	6392.00
456.91	6738.40
457.09	6520.73
457.28	6729.04
457.46	6588.61
457.64	6626.06
457.83	6752.45
458.01	6497.33
458.19	6794.58
458.38	6579.25
458.56	6775.85
458.74	6843.73
458.93	6920.96
459.11	6944.37
459.29	6841.39
459.48	6904.58
459.66	6855.43
459.84	6895.22
460.03	7187.79
460.21	7005.22
460.39	6960.75
460.57	6801.60
460.76	6981.82
460.94	7049.69
461.12	7047.35
461.31	7124.59
461.49	7042.67
461.67	7148.00
461.85	7279.07
462.04	7211.19
462.22	7637.17
462.40	7325.88
462.59	7148.00
462.77	7365.67
462.95	7410.14
463.13	7328.22
463.32	7405.46
463.50	7566.95
463.68	7655.89
463.86	7581.00
464.05	7501.42
464.23	7372.69
464.41	7651.21
464.59	7470.99
464.78	7871.22
464.96	7698.02
465.14	7496.74
465.32	7749.51
465.50	7510.78
465.69	7730.79
465.87	7602.06
466.05	7838.45
466.23	7644.19
466.41	7911.01
466.60	7981.23
466.78	7868.88
466.96	7791.64
467.14	7709.72
467.32	7894.63
467.51	7847.82
467.69	7557.59
467.87	7730.79
468.05	8030.38
468.23	7698.02
468.41	7744.83
468.60	8131.02
468.78	7990.59
468.96	7768.24
469.14	7999.95
469.32	8191.88
469.50	7875.90
469.69	8339.33
469.87	8215.28
470.05	8098.25
470.23	8241.03
470.41	8428.27
470.59	8491.46
470.77	8294.86
470.95	8395.50
471.14	8592.11
471.32	8535.93
471.50	8617.85
471.68	8444.65
471.86	8568.70
472.04	8526.57
472.22	8943.19
472.40	8645.94
472.58	8884.67
472.77	8833.18
472.95	8786.37
473.13	8990.00
473.31	8856.59
473.49	8966.59
473.67	8884.67
473.85	9078.94
474.03	9167.88
474.21	9310.65
474.39	9233.41
474.57	9298.95
474.75	9460.45
474.93	9502.58
475.12	9430.02
475.30	9385.55
475.48	9357.46
475.66	9500.23
475.84	9497.89
476.02	9776.42
476.20	9689.82
476.38	9685.14
476.56	9954.30
476.74	9919.19
476.92	10061.96
477.10	10029.20
477.28	10134.52
477.46	10434.11
477.64	10033.88
477.82	10265.59
478.00	10668.16
478.18	10377.94
478.36	10860.09
478.54	10785.19
478.72	10710.29
478.90	10799.23
479.08	10970.09
479.26	11080.10
479.44	10930.30
479.62	11089.46
479.80	11400.75
479.98	11419.47
480.16	11438.20
480.34	11300.11
480.52	11597.35
480.70	11751.83
480.88	11461.60
481.06	11569.27
481.24	11604.38
481.41	11964.82
481.59	11983.54
481.77	12271.43
481.95	12189.51
482.13	12341.64
482.31	12184.83
482.49	12622.51
482.67	12458.67
482.85	12603.78
483.03	12884.65
483.21	12980.61
483.39	12877.63
483.57	12996.99
483.74	12985.29
483.92	13235.73
484.10	13107.00
484.28	13383.18
484.46	13647.66
484.64	13799.80
484.82	13638.30
485.00	13647.66
485.18	13963.64
485.35	14169.60
485.53	14349.82
485.71	14455.15
485.89	14345.14
486.07	14518.34
486.25	14562.81
486.43	14892.83
486.61	14836.66
486.78	15005.17
486.96	15403.07
487.14	15386.68
487.32	15335.19
487.50	15915.64
487.68	15372.64
487.85	15754.15
488.03	15967.13
488.21	16079.48
488.39	15873.51
488.57	16170.76
488.75	16086.50
488.92	16446.94
489.10	16634.19
489.28	16788.66
489.46	17057.82
489.64	16666.95
489.81	16971.22
489.99	17266.13
490.17	16922.07
490.35	17598.49
490.53	17731.90
490.70	17551.68
490.88	17207.62
491.06	17729.56
491.24	18057.23
491.41	18127.45
491.59	18003.40
491.77	18150.85
491.95	18242.14
492.13	18452.78
492.30	18642.37
492.48	18841.31
492.66	18757.05
492.84	19159.63
493.01	18883.44
493.19	19028.56
493.37	19150.26
493.54	19098.77
493.72	19262.61
493.90	19445.17
494.08	19728.38
494.25	19597.31
494.43	19981.15
494.61	19981.15
494.79	20224.57
494.96	20152.01
495.14	20060.73
495.32	20549.90
495.49	20622.46
495.67	20432.88
495.85	20585.01
496.02	20938.43
496.20	20847.15
496.38	20898.64
496.55	21181.85
496.73	21422.92
496.91	21422.92
497.09	21275.47
497.26	21352.71
497.44	21612.51
497.62	21741.24
497.79	22155.51
497.97	22061.89
498.14	22015.08
498.32	22387.22
498.50	22415.31
498.67	22724.26
498.85	22389.56
499.03	22696.17
499.20	22895.12
499.38	22721.92
499.56	23108.11
499.73	22764.05
499.91	23241.52
500.08	23236.84
500.26	23381.95
500.44	23538.77
500.61	23346.84
500.79	23498.98
500.97	23969.43
501.14	24011.56
501.32	23967.09
501.49	23915.59
501.67	23983.47
501.84	24086.45
502.02	24189.44
502.20	24353.27
502.37	24236.25
502.55	24393.06
502.72	24636.48
502.90	24252.63
503.07	24315.83
503.25	24783.93
503.43	24629.46
503.60	24596.69
503.78	25116.29
503.95	24830.74
504.13	24950.11
504.30	25373.75
504.48	25376.09
504.65	25223.95
504.83	25289.49
505.01	25907.39
505.18	25586.74
505.36	25993.99
505.53	25844.20
505.71	25727.17
505.88	26256.13
506.06	25738.87
506.23	26099.31
506.41	26263.15
506.58	26326.35
506.76	26508.91
506.93	26483.16
507.11	26389.54
507.28	26391.88
507.46	26738.28
507.63	26867.01
507.81	26717.22
507.98	26829.56
508.16	26906.80
508.33	26679.77
508.50	27161.92
508.68	27515.34
508.85	27482.57
509.03	27026.17
509.20	27353.84
509.38	27470.87
509.55	27800.88
509.73	27875.78
509.90	27779.82
510.08	27721.30
510.25	27960.04
510.42	28276.01
510.60	27716.62
510.77	28329.84
510.95	28428.15
511.12	28147.28
511.30	28203.46
511.47	28189.41
511.64	28395.38
511.82	28966.47
511.99	28467.94
512.17	28629.43
512.34	28669.22
512.51	29158.39
512.69	29039.03
512.86	29083.50
513.04	29252.02
513.21	29165.42
513.38	29127.97
513.56	29521.18
513.73	29532.88
513.90	29773.95
514.08	29329.25
514.25	29727.14
514.43	29771.61
514.60	29907.37
514.77	29694.38
514.95	29993.97
515.12	29790.34
515.29	29888.64
515.47	30108.65
515.64	30129.72
515.81	30122.69
515.99	30103.97
516.16	30504.20
516.33	30480.80
516.51	30618.89
516.68	30438.67
516.85	30654.00
517.03	30993.37
517.20	30801.45
517.37	30909.11
517.54	30948.90
517.72	31489.57
517.89	31433.39
518.06	30670.38
518.24	31388.92
518.41	31314.03
518.58	31283.60
518.75	31201.68
518.93	31189.98
519.10	31578.51
519.27	31594.89
519.45	31468.50
519.62	31978.74
519.79	31644.04
519.96	31768.09
520.14	31782.13
520.31	31929.59
520.48	32135.56
520.65	32292.37
520.83	32432.80
521.00	32650.47
521.17	32229.18
521.34	32191.73
521.52	32727.71
521.69	32933.68
521.86	32694.94
522.03	32598.98
522.20	32807.29
522.38	33467.32
522.55	32856.44
522.72	32999.21
522.89	33020.28
523.07	33422.85
523.24	32996.87
523.41	33228.59
523.58	33027.30
523.75	33645.20
523.92	33413.49
524.10	33596.05
524.27	33984.58
524.44	33958.83
524.61	33621.80
524.78	34031.39
524.96	33720.10
525.13	34316.93
525.30	34478.43
525.47	34218.63
525.64	34059.48
525.81	34239.70
525.98	34167.14
526.16	34326.30
526.33	34279.49
526.50	34761.64
526.67	34330.98
526.84	34792.06
527.01	34747.59
527.18	34759.30
527.36	34768.66
527.53	34387.15
527.70	35096.33
527.87	34684.40
528.04	34848.24
528.21	35154.85
528.38	34932.50
528.55	35248.47
528.72	35454.44
528.89	35367.84
529.07	34944.20
529.24	35147.82
529.41	35545.72
529.58	35264.85
529.75	35608.91
529.92	35386.56
530.09	35704.87
530.26	35756.36
530.43	35299.96
530.60	35761.05
530.77	35892.12
530.94	35463.80
531.11	35936.59
531.28	35564.44
531.46	36102.76
531.63	36439.80
531.80	36182.34
531.97	36002.12
532.14	36212.77
532.31	36322.77
532.48	36203.41
532.65	36830.67
532.82	36177.66
532.99	36458.52
533.16	36498.31
533.33	36505.34
533.50	37020.25
533.67	36776.84
533.84	36591.94
534.01	36617.68
534.18	36919.61
534.35	37153.66
534.52	36954.72
534.69	37179.41
534.86	37291.76
535.03	36676.19
535.20	37507.08
535.37	37329.20
535.54	37528.15
535.71	37015.57
535.88	37240.26
536.05	37298.78
536.22	37301.12
536.38	37897.95
536.55	37413.46
536.72	37560.92
536.89	37853.48
537.06	37621.77
537.23	38026.68
537.40	37607.73
537.57	37603.05
537.74	37738.80
537.91	38033.71
538.08	37546.87
538.25	37490.70
538.42	38040.73
538.59	38312.23
538.75	38019.66
538.92	38410.53
539.09	38766.29
539.26	38550.96
539.43	38380.10
539.60	38363.72
539.77	38230.31
539.94	38433.94
540.11	38885.66
540.28	38478.41
540.44	38569.69
540.61	38476.07
540.78	38630.54
540.95	38256.06
541.12	38265.42
541.29	38300.53
541.46	38787.36
541.62	38834.17
541.79	39180.57
541.96	38717.14
542.13	38831.83
542.30	38871.62
542.47	39164.18
542.63	39016.73
542.80	39489.52
542.97	39562.08
543.14	39538.67
543.31	39304.62
543.48	39725.91
543.64	39700.17
543.81	39651.02
543.98	39421.64
544.15	39606.55
544.32	39938.90
544.48	40339.13
544.65	40046.57
544.82	40053.59
544.99	39655.70
545.16	40439.78
545.32	39817.19
545.49	40414.03
545.66	39943.58
545.83	40320.41
546.00	40301.68
546.16	40219.77
546.33	40304.02
546.50	40378.92
546.67	40039.54
546.83	39962.31
547.00	40212.74
547.17	40360.20
547.34	40545.10
547.50	40421.05
547.67	40582.55
547.84	40556.80
548.00	40730.00
548.17	41184.07
548.34	40889.16
548.51	40776.81
548.67	40725.32
548.84	40889.16
549.01	40933.63
549.18	41214.49
549.34	41216.83
549.51	40896.18
549.68	41102.15
549.84	41364.29
550.01	41713.03
550.18	40842.35
550.34	40989.80
550.51	41429.82
550.68	41315.14
550.84	41053.00
551.01	41799.63
551.18	41642.81
551.34	41752.82
551.51	41483.66
551.68	41584.30
551.84	41706.01
552.01	41020.23
552.18	41453.23
552.34	41368.97
552.51	41436.84
552.68	41275.35
552.84	41287.05
553.01	41766.86
553.18	41865.16
553.34	41380.67
553.51	41684.94
553.67	41621.75
553.84	41956.44
554.01	42380.08
554.17	42019.64
554.34	42419.87
554.51	42150.71
554.67	42148.37
554.84	41846.44
555.00	42230.29
555.17	42220.92
555.33	42110.92
555.50	41869.84
555.67	42267.73
555.83	42288.80
556.00	42368.38
556.16	42635.20
556.33	42677.33
556.50	42373.06
556.66	42422.21
556.83	42450.30
556.99	42775.63
557.16	42806.06
557.32	42679.67
557.49	42452.64
557.65	42438.59
557.82	42789.67
557.98	42342.63
558.15	42529.87
558.32	42246.67
558.48	42684.35
558.65	42408.17
558.81	42918.40
558.98	42742.86
559.14	43447.36
559.31	42632.86
559.47	43264.80
559.64	43552.69
559.80	42735.84
559.97	43203.95
560.13	42740.52
560.30	43042.45
560.46	43002.66
560.63	43044.79
560.79	43260.12
560.96	43257.78
561.12	43313.95
561.29	43236.72
561.45	43391.19
561.61	43742.27
561.78	43201.61
561.94	43370.13
562.11	43220.33
562.27	43313.95
562.44	43454.39
562.60	43557.37
562.77	43655.67
562.93	43194.59
563.10	43440.34
563.26	43634.61
563.42	43711.84
563.59	43672.06
563.75	43487.15
563.92	43201.61
564.08	43653.33
564.24	43655.67
564.41	43292.89
564.57	43615.88
564.74	43871.00
564.90	43604.18
565.07	43159.48
565.23	43335.02
565.39	43531.62
565.56	43957.60
565.72	43505.88
565.88	43929.51
566.05	43878.02
566.21	43805.47
566.38	43805.47
566.54	44165.91
566.70	43885.04
566.87	43805.47
567.03	43674.40
567.19	44308.68
567.36	44114.42
567.52	43969.30
567.68	43922.49
567.85	43929.51
568.01	44259.53
568.17	43866.32
568.34	43955.26
568.50	43856.96
568.66	43753.97
568.83	44018.46
568.99	44025.48
569.15	44289.96
569.32	43821.85
569.48	44212.72
569.64	44329.75
569.81	44367.20
569.97	44240.81
570.13	44493.58
570.30	44100.37
570.46	43901.43
570.62	44004.41
570.78	44172.93
570.95	44285.28
571.11	44439.75
571.27	44446.77
571.43	44196.34
571.60	44175.27
571.76	44088.67
571.92	44479.54
572.09	44175.27
572.25	44327.41
572.41	44350.81
572.57	44556.78
572.74	44528.69
572.90	44545.08
573.06	44760.40
573.22	44369.54
573.38	44631.68
573.55	44116.76
573.71	44744.02
573.87	44964.03
574.03	44327.41
574.20	44687.85
574.36	44315.70
574.52	44636.36
574.68	44549.76
574.84	44788.49
575.01	44975.73
575.17	44334.43
575.33	44416.35
575.49	44463.16
575.65	44533.37
575.82	44715.93
575.98	44484.22
576.14	44737.00
576.30	44933.60
576.46	44612.95
576.62	44605.93
576.79	44388.26
576.95	43992.71
577.11	44261.87
577.27	44360.17
577.43	44098.03
577.59	44641.04
577.75	44364.85
577.92	44095.69
578.08	44170.59
578.24	44739.34
578.40	44879.77
578.56	44959.35
578.72	44837.64
578.88	44947.65
579.04	44556.78
579.21	44814.24
579.37	45001.48
579.53	44734.66
579.69	44882.11
579.85	44605.93
580.01	44737.00
580.17	44439.75
580.33	44832.96
580.49	44737.00
580.65	44573.16
580.82	44460.82
580.98	44535.71
581.14	44556.78
581.30	44521.67
581.46	44479.54
581.62	44542.74
581.78	44879.77
581.94	44704.23
582.10	44978.07
582.26	44842.32
582.42	44704.23
582.58	44772.11
582.74	45336.18
582.90	44453.79
583.06	44985.10
583.22	44626.99
583.38	44521.67
583.54	44411.67
583.70	45069.36
583.86	44573.16
584.02	44914.88
584.18	45092.76
584.34	44896.16
584.50	44949.99
584.66	45280.00
584.82	45057.65
584.98	45179.36
585.14	45048.29
585.30	44891.48
585.46	44758.06
585.62	45361.92
585.78	44938.29
585.94	44589.55
586.10	45216.81
586.26	44830.62
586.42	44442.09
586.58	44863.39
586.74	45010.84
586.90	44898.50
587.06	44971.05
587.22	44935.95
587.38	45029.57
587.54	44987.44
587.70	45177.02
587.86	44921.90
588.02	45408.73
588.18	45078.72
588.34	44711.25
588.49	45160.64
588.65	44992.12
588.81	44825.94
588.97	45294.05
589.13	45153.62
589.29	45294.05
589.45	45350.22
589.61	45359.58
589.77	45408.73
589.93	45179.36
590.08	45502.35
590.24	45682.58
