SpectraSuite Data File
++++++++++++++++++++++++++++++++++++
Date: Fri Oct 25 11:33:32 EDT 2013
User: price-jones
Dark Spectrum Present: No
Reference Spectrum Present: No
Number of Sampled Component Spectra: 1
Spectrometers: USB2+H05261
Integration Time (usec): 100000 (USB2+H05261)
Spectra Averaged: 1 (USB2+H05261)
Boxcar Smoothing: 0 (USB2+H05261)
Correct for Electrical Dark: No (USB2+H05261)
Strobe/Lamp Enabled: No (USB2+H05261)
Correct for Detector Non-linearity: No (USB2+H05261)
Correct for Stray Light: No (USB2+H05261)
Number of Pixels in Processed Spectrum: 2048
>>>>>Begin Processed Spectral Data<<<<<
365.73	304.27
365.92	304.27
366.12	304.27
366.32	173.20
366.52	114.69
366.72	210.65
366.91	210.65
367.11	156.82
367.31	205.97
367.51	177.88
367.70	117.03
367.90	205.97
368.10	177.88
368.30	119.37
368.49	142.77
368.69	241.08
368.89	156.82
369.09	180.22
369.28	212.99
369.48	248.10
369.68	222.35
369.87	224.69
370.07	208.31
370.27	257.46
370.47	351.08
370.66	524.28
370.86	477.47
371.06	547.69
371.25	538.32
371.45	552.37
371.65	575.77
371.84	528.96
372.04	489.17
372.24	566.41
372.44	585.13
372.63	617.90
372.83	568.75
373.03	608.54
373.22	528.96
373.42	613.22
373.62	566.41
373.81	739.61
374.01	634.29
374.21	643.65
374.40	660.03
374.60	617.90
374.79	681.10
374.99	645.99
375.19	615.56
375.38	704.50
375.58	683.44
375.78	702.16
375.97	653.01
376.17	606.20
376.37	664.71
376.56	770.04
376.76	713.86
376.95	645.99
377.15	667.05
377.35	734.93
377.54	690.46
377.74	751.31
377.93	648.33
378.13	720.88
378.33	744.29
378.52	681.10
378.72	692.80
378.91	657.69
379.11	781.74
379.31	692.80
379.50	746.63
379.70	723.23
379.89	755.99
380.09	704.50
380.28	716.20
380.48	711.52
380.68	753.65
380.87	770.04
381.07	770.04
381.26	744.29
381.46	819.19
381.65	786.42
381.85	704.50
382.04	732.59
382.24	753.65
382.43	809.83
382.63	755.99
382.83	723.23
383.02	732.59
383.22	847.27
383.41	795.78
383.61	793.44
383.80	821.53
384.00	774.72
384.19	765.36
384.39	809.83
384.58	880.04
384.78	877.70
384.97	887.06
385.17	779.40
385.36	898.77
385.56	821.53
385.75	833.23
385.95	812.17
386.14	863.66
386.34	786.42
386.53	882.38
386.72	793.44
386.92	870.68
387.11	875.36
387.31	861.32
387.50	842.59
387.70	767.70
387.89	905.79
388.09	926.85
388.28	908.13
388.48	891.74
388.67	950.26
388.86	908.13
389.06	910.47
389.25	954.94
389.45	919.83
389.64	990.05
389.84	924.51
390.03	912.81
390.22	1036.86
390.42	1029.84
390.61	950.26
390.81	990.05
391.00	964.30
391.19	1069.62
391.39	1083.67
391.58	1036.86
391.78	1015.79
391.97	1050.90
392.16	1050.90
392.36	1041.54
392.55	1048.56
392.75	1004.09
392.94	1088.35
393.13	1088.35
393.33	1069.62
393.52	1041.54
393.71	1121.12
393.91	1160.91
394.10	1128.14
394.29	1109.41
394.49	999.41
394.68	1172.61
394.88	1114.10
395.07	1144.52
395.26	1167.93
395.46	1116.44
395.65	1135.16
395.84	1132.82
396.04	1256.87
396.23	1249.85
396.42	1181.97
396.62	1327.08
396.81	1191.33
397.00	1167.93
397.19	1284.95
397.39	1188.99
397.58	1296.66
397.77	1245.16
397.97	1263.89
398.16	1268.57
398.35	1313.04
398.55	1275.59
398.74	1362.19
398.93	1306.02
399.12	1308.36
399.32	1296.66
399.51	1343.47
399.70	1406.66
399.90	1291.98
400.09	1404.32
400.28	1394.96
400.47	1390.28
400.67	1413.68
400.86	1469.86
401.05	1451.13
401.24	1420.71
401.44	1483.90
401.63	1486.24
401.82	1511.99
402.01	1397.30
402.21	1479.22
402.40	1451.13
402.59	1521.35
402.78	1500.28
402.97	1500.28
403.17	1486.24
403.36	1551.78
403.55	1563.48
403.74	1596.25
403.93	1582.20
404.13	1636.03
404.32	1633.69
404.51	1673.48
404.70	1657.10
404.89	1661.78
405.09	1722.63
405.28	1753.06
405.47	1802.21
405.66	1722.63
405.85	1668.80
406.05	1710.93
406.24	1741.36
406.43	1760.08
406.62	1818.60
406.81	1877.11
407.00	1717.95
407.20	1732.00
407.39	1687.53
407.58	1825.62
407.77	1858.39
407.96	1872.43
408.15	1935.62
408.34	1956.69
408.54	2076.06
408.73	1856.04
408.92	1837.32
409.11	1994.14
409.30	1966.05
409.49	1973.07
409.68	2029.24
409.87	1982.43
410.07	2101.80
410.26	2073.71
410.45	2036.27
410.64	1982.43
410.83	2062.01
411.02	2087.76
411.21	2176.70
411.40	2134.57
411.59	2244.57
411.78	2165.00
411.98	2230.53
412.17	2242.23
412.36	2251.60
412.55	2242.23
412.74	2375.64
412.93	2349.90
413.12	2207.13
413.31	2434.16
413.50	2370.96
413.69	2319.47
413.88	2413.09
414.07	2466.92
414.26	2537.14
414.45	2583.95
414.64	2581.61
414.83	2588.63
415.02	2597.99
415.22	2532.46
415.41	2595.65
415.60	2640.12
415.79	2733.75
415.98	2801.62
416.17	2668.21
416.36	2764.17
416.55	2729.06
416.74	2787.58
416.93	2836.73
417.12	2724.38
417.31	2771.19
417.50	2850.77
417.69	3049.72
417.88	3000.57
418.07	2984.18
418.26	2949.08
418.45	2775.88
418.64	3164.40
418.83	3169.09
419.02	2991.20
419.21	3105.89
419.39	3066.10
419.58	3012.27
419.77	3126.96
419.96	3208.87
420.15	3110.57
420.34	3206.53
420.53	3052.06
420.72	3229.94
420.91	3290.79
421.10	3187.81
421.29	3454.63
421.48	3166.74
421.67	3260.37
421.86	3255.69
422.05	3307.18
422.24	3180.79
422.43	3293.13
422.61	3449.95
422.80	3407.82
422.99	3295.47
423.18	3492.08
423.37	3520.17
423.56	3424.20
423.75	3346.97
423.94	3304.84
424.13	3253.34
424.32	3260.37
424.50	3449.95
424.69	3487.40
424.88	3496.76
425.07	3389.10
425.26	3375.05
425.45	3431.23
425.64	3386.76
425.83	3384.41
426.01	3447.61
426.20	3496.76
426.39	3524.85
426.58	3358.67
426.77	3379.73
426.96	3611.45
427.15	3489.74
427.33	3674.64
427.52	3541.23
427.71	3698.05
427.90	3632.51
428.09	3548.25
428.28	3524.85
428.46	3616.13
428.65	3693.37
428.84	3763.58
429.03	3899.33
429.22	3669.96
429.40	3838.48
429.59	3798.69
429.78	3878.27
429.97	3679.32
430.16	3775.28
430.34	3742.52
430.53	4025.72
430.72	3896.99
430.91	3934.44
431.10	3889.97
431.28	3948.48
431.47	3981.25
431.66	4044.45
431.85	3981.25
432.03	4121.68
432.22	4133.39
432.41	3976.57
432.60	4042.11
432.79	4035.08
432.97	4194.24
433.16	4105.30
433.35	4180.20
433.54	4131.05
433.72	4166.15
433.91	4248.07
434.10	4168.49
434.28	4133.39
434.47	4245.73
434.66	4379.14
434.85	4360.42
435.03	4409.57
435.22	4124.02
435.41	4503.19
435.59	4346.37
435.78	4528.94
435.97	4477.44
436.16	4425.95
436.34	4355.74
436.53	4444.68
436.72	4493.83
436.90	4383.82
437.09	4428.29
437.28	4390.84
437.46	4627.24
437.65	4517.23
437.84	4631.92
438.02	4592.13
438.21	4692.77
438.40	4521.92
438.58	4823.84
438.77	4767.67
438.96	4823.84
439.14	4898.74
439.33	4863.63
439.52	4863.63
439.70	4964.28
439.89	4980.66
440.08	5013.43
440.26	4929.17
440.45	5032.15
440.63	5100.03
440.82	5207.69
441.01	5156.20
441.19	5165.56
441.38	5238.12
441.57	5303.65
441.75	5320.04
441.94	5373.87
442.12	5383.23
442.31	5336.42
442.50	5528.35
442.68	5369.19
442.87	5387.91
443.05	5310.68
443.24	5521.32
443.43	5603.24
443.61	5753.04
443.80	5685.16
443.98	5430.04
444.17	5448.77
444.35	5572.82
444.54	5666.44
444.73	5631.33
444.91	5600.90
445.10	5673.46
445.28	5643.03
445.47	5537.71
445.65	5799.85
445.84	5724.95
446.02	5682.82
446.21	5769.42
446.39	5839.64
446.58	5863.04
446.77	5820.91
446.95	5668.78
447.14	5579.84
447.32	5891.13
447.51	5998.79
447.69	5722.61
447.88	5650.05
448.06	5813.89
448.25	5788.14
448.43	5846.66
448.62	5923.90
448.80	5797.51
448.99	5884.11
449.17	5909.85
449.36	5872.40
449.54	6097.10
449.73	6183.70
449.91	6265.61
450.10	5940.28
450.28	6190.72
450.46	6143.91
450.65	6256.25
450.83	6258.59
451.02	6211.78
451.20	6169.65
451.39	6179.01
451.57	6333.49
451.76	6146.25
451.94	6097.10
452.13	6279.66
452.31	6373.28
452.49	6129.86
452.68	6349.87
452.86	6377.96
453.05	6314.77
453.23	6483.28
453.42	6314.77
453.60	6384.98
453.78	6553.50
453.97	6553.50
454.15	6408.39
454.34	6228.17
454.52	6469.24
454.70	6478.60
454.89	6642.44
455.07	6808.62
455.26	6693.93
455.44	6602.65
455.62	6572.22
455.81	6876.49
455.99	6619.04
456.17	6789.89
456.36	6679.89
456.54	6853.09
456.73	6911.60
456.91	7173.74
457.09	7089.48
457.28	7115.23
457.46	7005.22
457.64	7087.14
457.83	7126.93
458.01	7105.87
458.19	7215.87
458.38	7152.68
458.56	7176.08
458.74	7087.14
458.93	7197.15
459.11	7119.91
459.29	7250.98
459.48	7250.98
459.66	7269.70
459.84	7133.95
460.03	7302.47
460.21	7267.36
460.39	7166.72
460.57	7391.41
460.76	7506.10
460.94	7644.19
461.12	7522.48
461.31	7588.02
461.49	7459.29
461.67	7440.56
461.85	7513.12
462.04	7627.81
462.22	7985.91
462.40	7894.63
462.59	7756.54
462.77	7793.98
462.95	7859.52
463.13	7920.37
463.32	7789.30
463.50	7894.63
463.68	7822.07
463.86	7936.76
464.05	7981.23
464.23	7889.95
464.41	8105.28
464.59	7768.24
464.78	8077.19
464.96	8039.74
465.14	7878.24
465.32	7997.61
465.50	8105.28
465.69	8088.89
465.87	8182.51
466.05	8004.63
466.23	7995.27
466.41	8084.21
466.60	8109.96
466.78	8276.13
466.96	8189.53
467.14	8147.40
467.32	8234.00
467.51	8271.45
467.69	8215.28
467.87	8510.19
468.05	8386.14
468.23	8383.80
468.41	8407.20
468.60	8435.29
468.78	8535.93
468.96	8404.86
469.14	8629.56
469.32	8868.29
469.50	8465.72
469.69	8725.52
469.87	8727.86
470.05	8758.28
470.23	8664.66
470.41	8865.95
470.59	8830.84
470.77	8739.56
470.95	8805.10
471.14	9032.13
471.32	8842.54
471.50	9188.94
471.68	8985.32
471.86	9064.89
472.04	9200.65
472.22	9497.89
472.40	9261.50
472.58	9341.08
472.77	9202.99
472.95	9268.52
473.13	9741.31
473.31	9294.27
473.49	9547.05
473.67	9507.26
473.85	9631.30
474.03	9865.36
474.21	9860.68
474.39	9898.13
474.57	9888.76
474.75	9973.02
474.93	10010.47
475.12	9825.57
475.30	10181.33
475.48	10043.24
475.66	10087.71
475.84	10150.90
476.02	10265.59
476.20	10040.90
476.38	10225.80
476.56	10473.90
476.74	10473.90
476.92	10422.41
477.10	10375.59
477.28	10747.74
477.46	10801.57
477.64	10885.83
477.82	11068.39
478.00	11375.00
478.18	11234.57
478.36	11302.45
478.54	11290.74
478.72	11332.87
478.90	11316.49
479.08	11431.18
479.26	11894.60
479.44	11667.57
479.62	11822.05
479.80	11934.39
479.98	11981.20
480.16	12372.07
480.34	12360.37
480.52	12198.87
480.70	12362.71
480.88	12507.82
481.06	12472.71
481.24	12458.67
481.41	12547.61
481.59	12734.85
481.77	12905.71
481.95	13184.24
482.13	13071.89
482.31	12999.34
482.49	13319.99
482.67	13193.60
482.85	13441.70
483.03	13575.11
483.21	13832.57
483.39	14064.28
483.57	13713.20
483.74	14129.81
483.92	13900.44
484.10	14003.43
484.28	14129.81
484.46	14349.82
484.64	14785.16
484.82	14469.19
485.00	14850.70
485.18	14827.29
485.35	14958.36
485.53	15157.31
485.71	15321.15
485.89	15386.68
486.07	15569.24
486.25	15545.84
486.43	15920.32
486.61	15662.86
486.78	15768.19
486.96	15674.57
487.14	16030.33
487.32	16327.58
487.50	16517.16
487.68	16585.04
487.85	16891.65
488.03	16837.81
488.21	16884.62
488.39	16734.83
488.57	17139.74
488.75	17490.82
488.92	17179.53
489.10	17591.47
489.28	17853.61
489.46	17963.61
489.64	17900.42
489.81	18090.00
489.99	18176.60
490.17	18232.77
490.35	18530.02
490.53	18717.26
490.70	18637.69
490.88	18817.91
491.06	18991.11
491.24	19103.45
491.41	18951.32
491.59	19236.86
491.77	19410.06
491.95	19454.53
492.13	19356.23
492.30	19758.80
492.48	19807.95
492.66	19887.53
492.84	19580.92
493.01	19910.94
493.19	20175.42
493.37	20587.35
493.54	20636.50
493.72	20666.93
493.90	20849.49
494.08	20765.23
494.25	21078.86
494.43	20908.01
494.61	21369.09
494.79	21130.36
494.96	21443.99
495.14	21504.84
495.32	21792.73
495.49	21689.74
495.67	21891.03
495.85	21802.09
496.02	22424.67
496.20	22251.47
496.38	22403.61
496.55	22593.19
496.73	22974.70
496.91	22881.08
497.09	22986.40
497.26	22972.36
497.44	22810.86
497.62	23136.20
497.79	23608.98
497.97	23484.94
498.14	23339.82
498.32	23793.89
498.50	23831.33
498.67	24070.07
498.85	23889.85
499.03	24175.39
499.20	23992.83
499.38	24432.85
499.56	24393.06
499.73	24662.22
499.91	24594.35
500.08	24814.36
500.26	24854.15
500.44	24730.10
500.61	25186.50
500.79	24837.76
500.97	25060.12
501.14	25268.42
501.32	25397.15
501.49	25221.61
501.67	25741.21
501.84	25600.78
502.02	25546.95
502.20	25792.70
502.37	25869.94
502.55	25612.48
502.72	26026.76
502.90	26171.87
503.07	25762.28
503.25	25865.26
503.43	25982.29
503.60	26281.88
503.78	26618.91
503.95	26398.90
504.13	26834.24
504.30	27206.39
504.48	26424.65
504.65	26845.94
504.83	27000.42
505.01	27075.32
505.18	27417.04
505.36	27180.64
505.53	27419.38
505.71	27019.14
505.88	27204.05
506.06	27477.89
506.23	27824.29
506.41	27468.53
506.58	27541.08
506.76	27800.88
506.93	28315.80
507.11	28470.28
507.28	28144.94
507.46	28350.91
507.63	28320.48
507.81	28898.59
507.98	28779.23
508.16	28650.50
508.33	28247.93
508.50	28643.48
508.68	28882.21
508.85	29202.86
509.03	28716.03
509.20	29259.04
509.38	29364.36
509.55	29406.49
509.73	29429.90
509.90	29617.14
510.08	29621.82
510.25	29745.87
510.42	29493.09
510.60	30010.35
510.77	29872.26
510.95	29921.41
511.12	29776.30
511.30	29893.32
511.47	30099.29
511.64	30473.78
511.82	30319.30
511.99	30333.34
512.17	30270.15
512.34	30384.83
512.51	30925.50
512.69	31211.04
512.86	30993.37
513.04	30941.88
513.21	31199.34
513.38	31267.22
513.56	31250.83
513.73	31096.36
513.90	31426.37
514.08	31278.92
514.25	31915.54
514.43	31859.37
514.60	31683.83
514.77	31964.70
514.95	31651.06
515.12	32147.26
515.29	31632.34
515.47	31789.16
515.64	32381.31
515.81	32465.57
515.99	32292.37
516.16	32474.93
516.33	32388.33
516.51	32669.20
516.68	32353.23
516.85	32706.65
517.03	32758.14
517.20	32858.78
517.37	32701.96
517.54	32790.91
517.72	32636.43
517.89	33090.49
518.06	33017.94
518.24	33102.20
518.41	33198.16
518.58	33340.93
518.75	33635.84
518.93	33432.21
519.10	33724.78
519.27	33460.30
519.45	33635.84
519.62	33745.84
519.79	33715.42
519.96	33930.75
520.14	34136.71
520.31	33832.44
520.48	34057.14
520.65	34139.05
520.83	34609.50
521.00	34359.06
521.17	34227.99
521.34	34712.49
521.52	34588.44
521.69	34925.47
521.86	34679.72
522.03	34794.40
522.20	34899.73
522.38	35536.35
522.55	35049.52
522.72	35079.95
522.89	35103.35
523.07	35489.54
523.24	35557.42
523.41	35526.99
523.58	35068.25
523.75	35405.28
523.92	35615.93
524.10	35915.52
524.27	35576.14
524.44	35606.57
524.61	35744.66
524.78	35910.84
524.96	36032.55
525.13	36020.84
525.30	36332.14
525.47	36355.54
525.64	35959.99
525.81	36095.74
525.98	36282.98
526.16	36580.23
526.33	36463.21
526.50	36968.76
526.67	36294.69
526.84	36627.04
527.01	36605.98
527.18	36877.48
527.36	36699.60
527.53	36999.19
527.70	37408.78
527.87	37221.54
528.04	37235.58
528.21	37434.53
528.38	37230.90
528.55	37359.63
528.72	37357.29
528.89	37514.11
529.07	37221.54
529.24	37638.15
529.41	37710.71
529.58	37567.94
529.75	37551.56
529.92	37621.77
530.09	38087.54
530.26	37926.04
530.43	37778.59
530.60	37809.01
530.77	37663.90
530.94	38178.82
531.11	38115.62
531.28	37912.00
531.46	38071.15
531.63	37979.87
531.80	38209.25
531.97	38529.90
532.14	38412.87
532.31	38696.08
532.48	38726.50
532.65	38930.13
532.82	38689.06
532.99	38548.62
533.16	38553.30
533.33	38614.16
533.50	38820.13
533.67	39136.10
533.84	38672.67
534.01	39028.43
534.18	38735.87
534.35	39274.19
534.52	39182.91
534.69	39730.59
534.86	39119.71
535.03	38899.70
535.20	39934.22
535.37	39643.99
535.54	39688.46
535.71	39587.82
535.88	39676.76
536.05	39531.65
536.22	40119.12
536.38	39901.45
536.55	39957.63
536.72	39948.26
536.89	39761.02
537.06	40020.82
537.23	40198.70
537.40	39938.90
537.57	40016.14
537.74	39735.27
537.91	40837.67
538.08	39896.77
538.25	39969.33
538.42	40184.66
538.59	40341.47
538.75	40231.47
538.92	40568.51
539.09	40629.36
539.26	40273.60
539.43	40264.24
539.60	41006.19
539.77	40505.31
539.94	40666.81
540.11	40652.76
540.28	41053.00
540.44	40627.02
540.61	41287.05
540.78	40760.43
540.95	40921.93
541.12	40772.13
541.29	41027.25
541.46	41354.93
541.62	40699.58
541.79	41177.04
541.96	41134.92
542.13	40957.03
542.30	41380.67
542.47	41600.68
542.63	41226.20
542.80	41621.75
542.97	41975.17
543.14	42328.59
543.31	42038.36
543.48	42080.49
543.64	42440.93
543.81	42206.88
543.98	41996.23
544.15	41766.86
544.32	42038.36
544.48	42593.07
544.65	42492.43
544.82	42553.28
544.99	42501.79
545.16	42543.92
545.32	42157.73
545.49	42579.03
545.66	42658.60
545.83	42719.46
546.00	42749.88
546.16	42548.60
546.33	42679.67
546.50	42595.41
546.67	42902.02
546.83	42693.71
547.00	42960.53
547.17	42920.74
547.34	43096.28
547.50	42944.15
547.67	43442.68
547.84	43030.75
548.00	43398.21
548.17	43573.75
548.34	43590.14
548.51	43782.06
548.67	43643.97
548.84	42895.00
549.01	43557.37
549.18	43653.33
549.34	43758.66
549.51	43772.70
549.68	43566.73
549.84	43585.46
550.01	43819.51
550.18	43302.25
550.34	43566.73
550.51	44069.95
550.68	44528.69
550.84	43328.00
551.01	44109.74
551.18	44074.63
551.34	44137.82
551.51	43978.67
551.68	43910.79
551.84	44060.58
552.01	43374.81
552.18	43629.93
552.34	43901.43
552.51	44177.61
552.68	43700.14
552.84	43447.36
553.01	44650.40
553.18	43917.81
553.34	44502.95
553.51	44126.12
553.67	44460.82
553.84	44701.89
554.01	44797.85
554.17	44168.25
554.34	44584.86
554.51	44392.94
554.67	44430.39
554.84	44685.51
555.00	44308.68
555.17	44694.87
555.33	45174.68
555.50	44809.56
555.67	45031.91
555.83	45118.51
556.00	44996.80
556.16	45640.45
556.33	45174.68
556.50	45076.38
556.66	44978.07
556.83	44758.06
556.99	45752.79
557.16	45539.80
557.32	45085.74
557.49	45202.77
557.65	44935.95
557.82	45350.22
557.98	45357.24
558.15	44839.98
558.32	45153.62
558.48	45148.93
558.65	45401.71
558.81	45397.03
558.98	45467.25
559.14	44891.48
559.31	45530.44
559.47	45184.04
559.64	45324.47
559.80	45825.35
559.97	45874.50
560.13	45497.67
560.30	45488.31
560.46	45694.28
560.63	45710.66
560.79	45757.47
560.96	46131.96
561.12	46085.15
561.29	46241.96
561.45	45855.78
561.61	45937.69
561.78	45778.54
561.94	45841.73
562.11	45792.58
562.27	46302.82
562.44	46384.74
562.60	45750.45
562.77	45776.20
562.93	45993.87
563.10	46038.34
563.26	45989.19
563.42	46272.39
563.59	46108.55
563.75	45762.15
563.92	45633.42
564.08	45858.12
564.24	46272.39
564.41	46349.63
564.57	46312.18
564.74	45984.51
564.90	45876.84
565.07	46108.55
565.23	45933.01
565.39	45968.12
565.56	46298.14
565.72	46267.71
565.88	46195.15
566.05	46557.94
566.21	46239.62
566.38	46492.40
566.54	46527.51
566.70	46417.50
566.87	46667.94
567.03	46281.75
567.19	46864.55
567.36	46616.45
567.52	46588.36
567.68	46583.68
567.85	46726.46
568.01	46981.57
568.17	46419.84
568.34	46515.81
568.50	46934.76
568.66	46520.49
568.83	46693.69
568.99	46401.12
569.15	46541.55
569.32	46707.73
569.48	46373.03
569.64	47033.07
569.81	46885.61
569.97	46541.55
570.13	46663.26
570.30	46609.43
570.46	46927.74
570.62	47351.38
570.78	46469.00
570.95	47065.83
571.11	46979.23
571.27	46890.29
571.43	46628.15
571.60	46588.36
571.76	46485.38
571.92	46791.99
572.09	46590.70
572.25	46679.64
572.41	46887.95
572.57	47049.45
572.74	47187.54
572.90	46965.19
573.06	47370.10
573.22	46873.91
573.38	47313.93
573.55	46965.19
573.71	47416.91
573.87	47227.33
574.03	47098.60
574.20	47409.89
574.36	46733.48
574.52	47040.09
574.68	46967.53
574.84	47281.16
575.01	47306.91
575.17	47618.20
575.33	46820.08
575.49	47019.02
575.65	46934.76
575.82	47075.19
575.98	47271.80
576.14	47686.07
576.30	47447.34
576.46	47302.23
576.62	47021.36
576.79	47325.63
576.95	46845.82
577.11	46927.74
577.27	47227.33
577.43	47229.67
577.59	47154.77
577.75	47014.34
577.92	46752.20
578.08	47042.43
578.24	47452.02
578.40	47412.23
578.56	47166.48
578.72	47374.78
578.88	47208.61
579.04	47161.79
579.21	47061.15
579.37	47283.50
579.53	47414.57
579.69	46831.78
579.85	47477.77
580.01	46941.78
580.17	47217.97
580.33	47491.81
580.49	47421.59
580.65	47213.29
580.82	46997.96
580.98	47409.89
581.14	47117.32
581.30	47129.03
581.46	47332.65
581.62	47746.93
581.78	47002.64
581.94	47292.86
582.10	46953.49
582.26	47562.03
582.42	47784.38
582.58	47325.63
582.74	47437.98
582.90	47091.58
583.06	47325.63
583.22	47636.92
583.38	47213.29
583.54	47147.75
583.70	47604.16
583.86	47545.64
584.02	47241.37
584.18	47945.87
584.34	47423.93
584.50	47772.67
584.66	47744.59
584.82	47814.80
584.98	47681.39
585.14	47412.23
585.30	47512.88
585.46	47576.07
585.62	47129.03
585.78	47473.09
585.94	47222.65
586.10	47487.13
586.26	47257.76
586.42	47445.00
586.58	47342.02
586.74	47767.99
586.90	47583.09
587.06	47793.74
587.22	47531.60
587.38	47632.24
587.54	47756.29
587.70	47784.38
587.86	47327.97
588.02	47122.01
588.18	47697.78
588.34	47290.52
588.49	47887.36
588.65	47269.46
588.81	47679.05
588.97	47852.25
589.13	47351.38
589.29	47615.86
589.45	47798.42
589.61	47767.99
589.77	48030.13
589.93	47665.01
