SpectraSuite Data File
++++++++++++++++++++++++++++++++++++
Date: Fri Oct 25 11:23:04 EDT 2013
User: price-jones
Dark Spectrum Present: No
Reference Spectrum Present: No
Number of Sampled Component Spectra: 1
Spectrometers: USB2+H05261
Integration Time (usec): 100000 (USB2+H05261)
Spectra Averaged: 1 (USB2+H05261)
Boxcar Smoothing: 0 (USB2+H05261)
Correct for Electrical Dark: No (USB2+H05261)
Strobe/Lamp Enabled: No (USB2+H05261)
Correct for Detector Non-linearity: No (USB2+H05261)
Correct for Stray Light: No (USB2+H05261)
Number of Pixels in Processed Spectrum: 2048
>>>>>Begin Processed Spectral Data<<<<<
365.73	187.24
365.92	187.24
366.12	187.24
366.32	201.29
366.52	140.43
366.72	152.13
366.91	126.39
367.11	135.75
367.31	145.11
367.51	131.07
367.70	154.48
367.90	170.86
368.10	105.32
368.30	112.35
368.49	131.07
368.69	215.33
368.89	58.51
369.09	110.01
369.28	210.65
369.48	147.45
369.68	187.24
369.87	198.95
370.07	187.24
370.27	201.29
370.47	299.59
370.66	585.13
370.86	636.63
371.06	622.58
371.25	615.56
371.45	699.82
371.65	669.39
371.84	664.71
372.04	695.14
372.24	669.39
372.44	685.78
372.63	678.76
372.83	641.31
373.03	763.01
373.22	779.40
373.42	751.31
373.62	781.74
373.81	741.95
374.01	833.23
374.21	788.76
374.40	877.70
374.60	821.53
374.79	844.93
374.99	795.78
375.19	760.67
375.38	774.72
375.58	910.47
375.78	819.19
375.97	856.64
376.17	903.45
376.37	887.06
376.56	868.34
376.76	858.98
376.95	835.57
377.15	858.98
377.35	851.96
377.54	870.68
377.74	929.19
377.93	821.53
378.13	884.72
378.33	992.39
378.52	1022.81
378.72	917.49
378.91	1027.50
379.11	938.55
379.31	997.07
379.50	873.02
379.70	1006.43
379.89	1034.52
380.09	983.02
380.28	976.00
380.48	999.41
380.68	945.58
380.87	947.92
381.07	1008.77
381.26	947.92
381.46	1118.78
381.65	1107.07
381.85	997.07
382.04	1036.86
382.24	959.62
382.43	1076.65
382.63	1004.09
382.83	999.41
383.02	1111.75
383.22	1088.35
383.41	1149.20
383.61	1090.69
383.80	1111.75
384.00	1118.78
384.19	1128.14
384.39	1193.67
384.58	1200.69
384.78	1046.22
384.97	1102.39
385.17	1123.46
385.36	1256.87
385.56	1097.71
385.75	1107.07
385.95	1177.29
386.14	1144.52
386.34	1137.50
386.53	1263.89
386.72	1231.12
386.92	1294.32
387.11	1219.42
387.31	1282.61
387.50	1240.48
387.70	1203.04
387.89	1273.25
388.09	1336.45
388.28	1224.10
388.48	1170.27
388.67	1315.38
388.86	1320.06
389.06	1313.04
389.25	1345.81
389.45	1420.71
389.64	1289.64
389.84	1413.68
390.03	1355.17
390.22	1418.36
390.42	1423.05
390.61	1364.53
390.81	1397.30
391.00	1430.07
391.19	1406.66
391.39	1448.79
391.58	1481.56
391.78	1526.03
391.97	1497.94
392.16	1528.37
392.36	1469.86
392.55	1453.47
392.75	1523.69
392.94	1530.71
393.13	1500.28
393.33	1533.05
393.52	1462.83
393.71	1647.74
393.91	1572.84
394.10	1542.41
394.29	1551.78
394.49	1544.75
394.68	1556.46
394.88	1596.25
395.07	1675.82
395.26	1519.01
395.46	1661.78
395.65	1703.91
395.84	1762.42
396.04	1783.49
396.23	1837.32
396.42	1802.21
396.62	1785.83
396.81	1874.77
397.00	1774.13
397.19	1792.85
397.39	1827.96
397.58	1797.53
397.77	1729.66
397.97	1837.32
398.16	1832.64
398.35	1891.15
398.55	1926.26
398.74	1919.24
398.93	1975.41
399.12	2012.86
399.32	1989.46
399.51	1937.96
399.70	2062.01
399.90	2001.16
400.09	2019.88
400.28	2031.58
400.47	1949.67
400.67	2054.99
400.86	2092.44
401.05	2230.53
401.24	2125.21
401.44	2136.91
401.63	2071.37
401.82	2169.68
402.01	2169.68
402.21	2118.18
402.40	2279.68
402.59	2256.28
402.78	2195.42
402.97	2260.96
403.17	2263.30
403.36	2293.72
403.55	2335.85
403.74	2394.37
403.93	2307.77
404.13	2403.73
404.32	2368.62
404.51	2373.30
404.70	2417.77
404.89	2345.22
405.09	2408.41
405.28	2466.92
405.47	2506.71
405.66	2492.67
405.85	2572.25
406.05	2586.29
406.24	2609.70
406.43	2504.37
406.62	2544.16
406.81	2651.83
407.00	2637.78
407.20	2703.32
407.39	2745.45
407.58	2736.09
407.77	2665.87
407.96	2815.66
408.15	2813.32
408.34	2722.04
408.54	2686.94
408.73	2773.53
408.92	2754.81
409.11	2867.16
409.30	2951.42
409.49	2953.76
409.68	2965.46
409.87	2967.80
410.07	3019.29
410.26	2991.20
410.45	3056.74
410.64	3061.42
410.83	3138.66
411.02	3063.76
411.21	3166.74
411.40	3131.64
411.59	3164.40
411.78	3276.75
411.98	3208.87
412.17	3384.41
412.36	3258.03
412.55	3461.65
412.74	3407.82
412.93	3482.72
413.12	3356.33
413.31	3475.70
413.50	3435.91
413.69	3510.80
413.88	3613.79
414.07	3513.14
414.26	3679.32
414.45	3662.94
414.64	3747.20
414.83	3904.01
415.02	3894.65
415.22	3913.38
415.41	3922.74
415.60	3864.22
415.79	3892.31
415.98	3983.59
416.17	4042.11
416.36	3999.98
416.55	4018.70
416.74	4163.81
416.93	4173.18
417.12	4128.70
417.31	4229.35
417.50	4346.37
417.69	4444.68
417.88	4390.84
418.07	4304.25
418.26	4311.27
418.45	4313.61
418.64	4484.47
418.83	4503.19
419.02	4596.81
419.21	4678.73
419.39	4526.60
419.58	4468.08
419.77	4510.21
419.96	4601.49
420.15	4571.07
420.34	4550.00
420.53	4622.56
420.72	4748.95
420.91	4732.56
421.10	4699.80
421.29	4947.89
421.48	4748.95
421.67	4739.58
421.86	4891.72
422.05	4882.36
422.24	4760.65
422.43	4863.63
422.61	4889.38
422.80	4905.76
422.99	4915.12
423.18	4835.55
423.37	4968.96
423.56	5020.45
423.75	5039.17
423.94	4882.36
424.13	4606.17
424.32	4898.74
424.50	5076.62
424.69	5259.18
424.88	5123.43
425.07	5001.72
425.26	5025.13
425.45	5055.56
425.64	5069.60
425.83	5025.13
426.01	5107.05
426.20	5111.73
426.39	5165.56
426.58	5029.81
426.77	5020.45
426.96	5242.80
427.15	5219.39
427.33	5331.74
427.52	5226.42
427.71	5266.21
427.90	5301.31
428.09	5200.67
428.28	5427.70
428.46	5483.88
428.65	5518.98
428.84	5542.39
429.03	5652.39
429.22	5350.46
429.40	5528.35
429.59	5493.24
429.78	5383.23
429.97	5277.91
430.16	5584.52
430.34	5680.48
430.53	5729.63
430.72	5806.87
430.91	5788.14
431.10	5645.37
431.28	5874.74
431.47	5827.93
431.66	5860.70
431.85	5949.64
432.03	5996.45
432.22	6083.05
432.41	5928.58
432.60	5926.24
432.79	5905.17
432.97	6225.82
433.16	6029.22
433.35	5968.37
433.54	6244.55
433.72	6221.14
433.91	6216.46
434.10	6050.28
434.28	6181.35
434.47	6181.35
434.66	6478.60
434.85	6415.41
435.03	6300.72
435.22	6272.64
435.41	6373.28
435.59	6518.39
435.78	6455.20
435.97	6438.81
436.16	6518.39
436.34	6490.31
436.53	6349.87
436.72	6771.17
436.90	6630.74
437.09	6820.32
437.28	6494.99
437.46	6682.23
437.65	6747.76
437.84	6745.42
438.02	6775.85
438.21	6881.18
438.40	6736.06
438.58	6927.99
438.77	7185.44
438.96	6918.62
439.14	7171.40
439.33	7131.61
439.52	7321.20
439.70	7583.34
439.89	7393.75
440.08	7487.37
440.26	7276.73
440.45	7461.63
440.63	7503.76
440.82	7791.64
441.01	7611.42
441.19	7679.30
441.38	7817.39
441.57	7798.66
441.75	7934.42
441.94	8072.51
442.12	8208.26
442.31	8077.19
442.50	8390.82
442.68	8013.99
442.87	8119.32
443.05	8091.23
443.24	8208.26
443.43	8255.07
443.61	8414.23
443.80	8461.04
443.98	8182.51
444.17	7801.01
444.35	8147.40
444.54	8327.63
444.73	8411.89
444.91	8465.72
445.10	8315.92
445.28	8175.49
445.47	8336.99
445.65	8336.99
445.84	8409.54
446.02	8636.58
446.21	8692.75
446.39	8566.36
446.58	8484.44
446.77	8627.21
446.95	8173.15
447.14	8545.30
447.32	8769.99
447.51	8622.53
447.69	8383.80
447.88	8685.73
448.06	8491.46
448.25	8594.45
448.43	8709.13
448.62	8847.22
448.80	8603.81
448.99	8585.08
449.17	8795.73
449.36	8741.90
449.54	8844.88
449.73	8889.35
449.91	8971.27
450.10	8924.46
450.28	9139.79
450.46	9071.92
450.65	9235.75
450.83	8971.27
451.02	9207.67
451.20	9231.07
451.39	9198.31
451.57	9020.42
451.76	9109.36
451.94	9413.63
452.13	9577.47
452.31	9345.76
452.49	9256.82
452.68	9472.15
452.86	9488.53
453.05	9493.21
453.23	9544.70
453.42	9544.70
453.60	9458.10
453.78	9549.39
453.97	9415.98
454.15	9547.05
454.34	9472.15
454.52	9851.31
454.70	9614.92
454.89	9753.01
455.07	10008.13
455.26	9853.66
455.44	9984.73
455.62	9935.57
455.81	10083.03
455.99	10104.09
456.17	10076.01
456.36	10164.95
456.54	10164.95
456.73	10239.84
456.91	10466.88
457.09	10359.21
457.28	10593.26
457.46	10347.51
457.64	10710.29
457.83	10593.26
458.01	10518.37
458.19	10768.80
458.38	10534.75
458.56	10792.21
458.74	10740.72
458.93	10869.45
459.11	11037.97
459.29	10803.91
459.48	10944.34
459.66	11147.97
459.84	10944.34
460.03	11204.14
460.21	11194.78
460.39	11021.58
460.57	11080.10
460.76	11159.67
460.94	11087.12
461.12	11250.96
461.31	10981.79
461.49	11211.17
461.67	11257.98
461.85	11372.66
462.04	11515.44
462.22	11538.84
462.40	11665.23
462.59	11506.07
462.77	11665.23
462.95	11737.79
463.13	11714.38
463.32	11634.80
463.50	11798.64
463.68	11988.22
463.86	12159.08
464.05	11826.73
464.23	11840.77
464.41	12114.61
464.59	11775.24
464.78	12203.55
464.96	12131.00
465.14	12042.06
465.32	12147.38
465.50	12147.38
465.69	12306.54
465.87	12210.57
466.05	12166.10
466.23	12362.71
466.41	12233.98
466.60	12713.79
466.78	12409.52
466.96	12121.63
467.14	12241.00
467.32	12386.12
467.51	12489.10
467.69	12084.19
467.87	12638.89
468.05	12781.67
468.23	12652.94
468.41	12674.00
468.60	12580.38
468.78	12886.99
468.96	12683.36
469.14	12917.42
469.32	13214.66
469.50	12676.34
469.69	13104.66
469.87	13252.11
470.05	13359.78
470.23	13121.04
470.41	13486.17
470.59	13542.34
470.77	13348.08
470.95	13624.26
471.14	13607.87
471.32	13439.36
471.50	13642.98
471.68	13617.24
471.86	13640.64
472.04	13998.74
472.22	13874.70
472.40	13708.52
472.58	14097.05
472.77	14368.55
472.95	14530.05
473.13	14691.54
473.31	14242.16
473.49	14160.24
473.67	14139.18
473.85	14326.42
474.03	14949.00
474.21	14513.66
474.39	14799.21
474.57	14801.55
474.75	14967.73
474.93	14991.13
475.12	15183.06
475.30	15492.01
475.48	15281.36
475.66	15232.21
475.84	15147.95
476.02	15393.70
476.20	15398.38
476.38	15557.54
476.56	16266.72
476.74	16353.32
476.92	16079.48
477.10	16100.55
477.28	16292.47
477.46	16348.64
477.64	16348.64
477.82	16657.59
478.00	17329.33
478.18	16830.79
478.36	17102.29
478.54	17355.07
478.72	17305.92
478.90	17633.60
479.08	17774.03
479.26	17795.09
479.44	17731.90
479.62	17874.67
479.80	18195.32
479.98	18211.71
480.16	18759.39
480.34	18621.30
480.52	19080.05
480.70	18913.87
480.88	18487.89
481.06	19094.09
481.24	18902.17
481.41	19248.57
481.59	19473.26
481.77	19566.88
481.95	19737.74
482.13	20091.16
482.31	20088.82
482.49	20402.45
482.67	20278.40
482.85	20575.65
483.03	20826.09
483.21	21036.74
483.39	21010.99
483.57	21153.76
483.74	21373.77
483.92	21813.79
484.10	21380.79
484.28	21792.73
484.46	22197.64
484.64	22583.83
484.82	22190.62
485.00	22530.00
485.18	22661.07
485.35	23241.52
485.53	23140.88
485.71	23295.35
485.89	23747.08
486.07	23276.63
486.25	23445.15
486.43	23861.76
486.61	24081.77
486.78	24226.89
486.96	24659.88
487.14	24800.32
487.32	24592.01
487.50	24739.46
487.68	25324.60
487.85	25694.40
488.03	25528.22
488.21	26075.91
488.39	25682.70
488.57	26450.39
488.75	26583.80
488.92	26625.93
489.10	27323.41
489.28	27023.83
489.46	27363.20
489.64	27185.32
489.81	27931.95
489.99	28013.87
490.17	27999.83
490.35	28238.56
490.53	28563.90
490.70	28807.31
490.88	28512.41
491.06	28959.45
491.24	28793.27
491.41	29434.58
491.59	29692.04
491.77	29649.91
491.95	29682.67
492.13	30080.56
492.30	30270.15
492.48	30288.87
492.66	30499.52
492.84	30471.43
493.01	31145.51
493.19	30857.62
493.37	31421.69
493.54	31683.83
493.72	31531.70
493.90	31796.18
494.08	32130.87
494.25	32348.54
494.43	32481.95
494.61	32407.06
494.79	32840.06
494.96	32732.39
495.14	33486.04
495.32	33200.50
495.49	33350.29
495.67	33205.18
495.85	33958.83
496.02	33848.83
496.20	34192.89
496.38	34408.22
496.55	34855.26
496.73	35246.13
496.91	34719.51
497.09	35182.93
497.26	35030.80
497.44	35012.07
497.62	35772.75
497.79	36182.34
497.97	35908.50
498.14	36109.78
498.32	36168.30
498.50	36615.34
498.67	36540.44
498.85	36858.76
499.03	37670.92
499.20	37017.91
499.38	36945.36
499.56	37275.37
499.73	37783.27
499.91	37331.54
500.08	37794.97
500.26	37951.79
500.44	37930.72
500.61	38412.87
500.79	38686.71
500.97	38356.70
501.14	38871.62
501.32	38990.98
501.49	38911.41
501.67	38824.81
501.84	39002.69
502.02	39344.41
502.20	39070.56
502.37	39826.56
502.55	39618.25
502.72	39929.54
502.90	39906.13
503.07	39985.71
503.25	39941.24
503.43	40025.50
503.60	40392.97
503.78	40715.96
503.95	40580.21
504.13	40868.09
504.30	40870.43
504.48	40905.54
504.65	41223.86
504.83	41050.66
505.01	41743.45
505.18	41528.13
505.36	42129.64
505.53	41640.47
505.71	42029.00
505.88	42279.44
506.06	41804.31
506.23	42249.01
506.41	42431.57
506.58	42529.87
506.76	42260.71
506.93	42766.27
507.11	42724.14
507.28	42667.97
507.46	43168.84
507.63	43339.70
507.81	43641.63
507.98	42892.66
508.16	43288.21
508.33	43896.75
508.50	43756.32
508.68	44083.99
508.85	44753.38
509.03	44360.17
509.20	44076.97
509.38	44430.39
509.55	44608.27
509.73	44662.10
509.90	44823.60
510.08	45076.38
510.25	44957.01
510.42	45240.21
510.60	45347.88
510.77	45373.63
510.95	45572.57
511.12	45343.20
511.30	45661.51
511.47	45801.94
511.64	45914.29
511.82	45998.55
511.99	45823.01
512.17	46103.87
512.34	46419.84
512.51	46494.74
512.69	46873.91
512.86	46651.56
513.04	46866.89
513.21	47140.73
513.38	47217.97
513.56	47285.84
513.73	46913.70
513.90	47573.73
514.08	47428.62
514.25	47725.86
514.43	48191.63
514.60	47606.50
514.77	47576.07
514.95	48343.77
515.12	47856.93
515.29	48027.79
515.47	48575.48
515.64	48444.41
515.81	48381.21
515.99	48680.80
516.16	48722.93
516.33	48657.40
516.51	48725.27
516.68	48966.35
516.85	48608.25
517.03	49579.57
517.20	49162.95
517.37	49392.33
517.54	49207.42
517.72	49684.89
517.89	49633.40
518.06	49565.52
518.24	49801.92
518.41	49738.72
518.58	49787.88
518.75	49635.74
518.93	49991.50
519.10	49745.75
519.27	50075.76
519.45	50384.71
519.62	50625.79
519.79	50483.01
519.96	50113.21
520.14	50480.67
520.31	50220.87
520.48	50637.49
520.65	50773.24
520.83	51009.64
521.00	51077.51
521.17	50857.50
521.34	50747.50
521.52	50841.12
521.69	51267.09
521.86	51313.90
522.03	51604.13
522.20	51667.33
522.38	51774.99
522.55	51709.46
522.72	51482.42
522.89	51817.12
523.07	51866.27
523.24	51667.33
523.41	52158.84
523.58	51772.65
523.75	52046.49
523.92	52053.51
524.10	52449.06
524.27	52268.84
524.44	52376.51
524.61	52357.78
524.78	52734.61
524.96	52795.46
525.13	52643.33
525.30	52767.38
525.47	52846.96
525.64	53057.60
525.81	52687.80
525.98	52898.45
526.16	52853.98
526.33	53038.88
526.50	53158.25
526.67	53303.36
526.84	53275.27
527.01	53202.72
527.18	53073.99
527.36	53399.32
527.53	53256.55
527.70	53298.68
527.87	53785.51
528.04	53460.18
528.21	53783.17
528.38	53682.53
528.55	53947.01
528.72	53429.75
528.89	53535.07
529.07	53659.12
529.24	54038.29
529.41	53904.88
529.58	54066.38
529.75	53825.30
529.92	54410.43
530.09	54284.04
530.26	54391.71
530.43	54309.79
530.60	54075.74
530.77	54075.74
530.94	54380.01
531.11	54419.80
531.28	54288.73
531.46	54553.21
531.63	54569.59
531.80	54569.59
531.97	55049.40
532.14	54731.09
532.31	54754.49
532.48	54969.82
532.65	54988.55
532.82	55054.08
532.99	55093.87
533.16	55110.25
533.33	55306.86
533.50	55227.28
533.67	54941.74
533.84	54953.44
534.01	55178.13
534.18	55304.52
534.35	55435.59
534.52	55538.57
534.69	55686.03
534.86	55475.38
535.03	55344.31
535.20	55458.99
535.37	55519.85
535.54	55435.59
535.71	55552.62
535.88	55636.87
536.05	55573.68
536.22	55983.27
536.38	55999.66
536.55	55810.07
536.72	55957.53
536.89	55861.57
537.06	55786.67
537.23	56163.50
537.40	55906.04
537.57	56189.24
537.74	56224.35
537.91	56348.40
538.08	56168.18
538.25	56030.08
538.42	56030.08
538.59	56516.92
538.75	56156.47
538.92	56212.65
539.09	56413.93
539.26	56346.06
539.43	56334.35
539.60	56472.45
539.77	56535.64
539.94	56863.32
540.11	56713.52
540.28	56767.35
540.44	56624.58
540.61	56666.71
540.78	56549.68
540.95	56612.88
541.12	56460.74
541.29	56643.30
541.46	56985.02
541.62	56931.19
541.79	56842.25
541.96	56697.14
542.13	56877.36
542.30	56837.57
542.47	57090.35
542.63	57120.77
542.80	57027.15
542.97	57228.44
543.14	57584.20
543.31	57453.13
543.48	57352.49
543.64	57621.65
543.81	57570.16
543.98	57474.20
544.15	57495.26
544.32	57705.91
544.48	57804.21
544.65	57710.59
544.82	57733.99
544.99	57551.43
545.16	57757.40
545.32	57570.16
545.49	57717.61
545.66	57844.00
545.83	58089.76
546.00	58066.35
546.16	58269.98
546.33	57991.45
546.50	57682.50
546.67	58014.86
546.83	57738.68
547.00	58103.80
547.17	58202.10
547.34	58131.89
547.50	58155.29
547.67	58321.47
547.84	58204.44
548.00	58356.58
548.17	58288.70
548.34	58410.41
548.51	58621.06
548.67	58564.88
548.84	58253.59
549.01	58513.39
549.18	58302.74
549.34	58497.01
549.51	58475.94
549.68	58431.47
549.84	58756.81
550.01	58618.72
550.18	58597.65
550.34	58805.96
550.51	58656.17
550.68	58873.84
550.84	58679.57
551.01	58843.41
551.18	58866.81
551.34	58913.62
551.51	58838.73
551.68	58805.96
551.84	59018.95
552.01	58639.78
552.18	58855.11
552.34	58728.72
552.51	59028.31
552.68	58803.62
552.84	58822.34
553.01	59145.34
553.18	59143.00
553.34	59138.32
553.51	58817.66
553.67	59063.42
553.84	59091.51
554.01	59040.01
554.17	58995.54
554.34	59157.04
554.51	59262.36
554.67	59292.79
554.84	59278.75
555.00	59077.46
555.17	59360.67
555.33	59519.82
555.50	59285.77
555.67	59180.45
555.83	59220.23
556.00	59318.54
556.16	59583.02
556.33	59629.83
556.50	59508.12
556.66	59568.97
556.83	59386.41
556.99	59554.93
557.16	59690.68
557.32	59889.63
557.49	59976.23
557.65	59386.41
557.82	59512.80
557.98	59618.13
558.15	59615.79
558.32	59599.40
558.48	59597.06
558.65	59578.34
558.81	59667.28
558.98	59718.77
559.14	59810.05
559.31	59732.81
559.47	60034.74
559.64	60046.44
559.80	60025.38
559.97	59891.97
560.13	59882.61
560.30	59702.38
560.46	59697.70
560.63	59800.69
560.79	59868.56
560.96	60217.30
561.12	59959.84
561.29	60116.66
561.45	59994.95
561.61	59891.97
561.78	60046.44
561.94	60130.70
562.11	60083.89
562.27	60086.23
562.44	60231.35
562.60	60133.04
562.77	60156.45
562.93	59955.16
563.10	60221.98
563.26	60175.17
563.42	60374.12
563.59	60336.67
563.75	60161.13
563.92	60451.36
564.08	60102.62
564.24	60566.04
564.41	60353.05
564.57	60467.74
564.74	60170.49
564.90	60474.76
565.07	60273.48
565.23	60392.84
565.39	60285.18
565.56	60334.33
565.72	60229.01
565.88	60430.29
566.05	60481.78
566.21	60514.55
566.38	60432.63
566.54	60516.89
566.70	60652.64
566.87	60533.28
567.03	60470.08
567.19	60762.65
567.36	60612.85
567.52	60568.38
567.68	60713.50
567.85	60762.65
568.01	60619.88
568.17	60643.28
568.34	60692.43
568.50	60549.66
568.66	60519.23
568.83	60619.88
568.99	60502.85
569.15	60516.89
569.32	60683.07
569.48	60694.77
569.64	60626.90
569.81	60669.03
569.97	60465.40
570.13	60844.57
570.30	60577.75
570.46	60643.28
570.62	60837.54
570.78	60643.28
570.95	60610.51
571.11	60893.72
571.27	60554.34
571.43	60774.35
571.60	60800.10
571.76	60926.49
571.92	60933.51
572.09	60877.33
572.25	60769.67
572.41	60615.19
572.57	60701.79
572.74	61024.79
572.90	60940.53
573.06	60678.39
573.22	60903.08
573.38	60666.69
573.55	60945.21
573.71	61162.88
573.87	60828.18
574.03	60788.39
574.20	60821.16
574.36	60701.79
574.52	61092.66
574.68	60980.32
574.84	60966.27
575.01	60949.89
575.17	60921.80
575.33	60844.57
575.49	60975.64
575.65	60977.98
575.82	61036.49
575.98	60954.57
576.14	61085.64
576.30	61167.56
576.46	61020.11
576.62	61038.83
576.79	60996.70
576.95	60811.80
577.11	61022.45
577.27	60989.68
577.43	61095.00
577.59	60992.02
577.75	60985.00
577.92	60884.36
578.08	60954.57
578.24	61022.45
578.40	61085.64
578.56	61069.26
578.72	61045.85
578.88	61336.08
579.04	61214.37
579.21	61228.41
579.37	61315.01
579.53	61244.80
579.69	60954.57
579.85	61179.26
580.01	61078.62
580.17	60905.42
580.33	61095.00
580.49	61109.05
580.65	61134.79
580.82	60985.00
580.98	61125.43
581.14	61020.11
581.30	61235.44
581.46	61066.92
581.62	61132.45
581.78	61158.20
581.94	61279.91
582.10	61214.37
582.26	61406.30
582.42	60985.00
582.58	61214.37
582.74	61226.07
582.90	61310.33
583.06	61270.54
583.22	61001.38
583.38	61188.63
583.54	61289.27
583.70	61137.13
583.86	61279.91
584.02	61038.83
584.18	61071.60
584.34	61268.20
584.50	61256.50
584.66	61102.03
584.82	61017.77
584.98	61286.93
585.14	61214.37
585.30	61186.28
585.46	61202.67
585.62	61247.14
585.78	61329.06
585.94	61123.09
586.10	61364.17
586.26	61127.77
586.42	61331.40
586.58	61176.92
586.74	61439.06
586.90	61064.58
587.06	61249.48
587.22	61450.77
587.38	61340.76
587.54	61286.93
587.70	61443.74
587.86	61366.51
588.02	61427.36
588.18	61312.67
588.34	61286.93
588.49	61205.01
