SpectraSuite Data File
++++++++++++++++++++++++++++++++++++
Date: Fri Oct 25 11:24:02 EDT 2013
User: price-jones
Dark Spectrum Present: No
Reference Spectrum Present: No
Number of Sampled Component Spectra: 1
Spectrometers: USB2+H05261
Integration Time (usec): 100000 (USB2+H05261)
Spectra Averaged: 1 (USB2+H05261)
Boxcar Smoothing: 0 (USB2+H05261)
Correct for Electrical Dark: No (USB2+H05261)
Strobe/Lamp Enabled: No (USB2+H05261)
Correct for Detector Non-linearity: No (USB2+H05261)
Correct for Stray Light: No (USB2+H05261)
Number of Pixels in Processed Spectrum: 2048
>>>>>Begin Processed Spectral Data<<<<<
365.73	229.37
365.92	229.37
366.12	229.37
366.32	182.56
366.52	88.94
366.72	152.13
366.91	189.58
367.11	65.54
367.31	114.69
367.51	152.13
367.70	72.56
367.90	147.45
368.10	121.71
368.30	105.32
368.49	154.48
368.69	203.63
368.89	177.88
369.09	133.41
369.28	184.90
369.48	131.07
369.68	182.56
369.87	234.05
370.07	189.58
370.27	304.27
370.47	369.80
370.66	575.77
370.86	695.14
371.06	711.52
371.25	678.76
371.45	624.92
371.65	681.10
371.84	725.57
372.04	711.52
372.24	770.04
372.44	730.25
372.63	772.38
372.83	723.23
373.03	767.70
373.22	727.91
373.42	690.46
373.62	711.52
373.81	807.48
374.01	809.83
374.21	786.42
374.40	814.51
374.60	805.14
374.79	870.68
374.99	809.83
375.19	858.98
375.38	856.64
375.58	877.70
375.78	868.34
375.97	887.06
376.17	889.40
376.37	816.85
376.56	868.34
376.76	938.55
376.95	901.11
377.15	919.83
377.35	945.58
377.54	950.26
377.74	887.06
377.93	863.66
378.13	903.45
378.33	940.90
378.52	912.81
378.72	950.26
378.91	992.39
379.11	884.72
379.31	910.47
379.50	926.85
379.70	994.73
379.89	950.26
380.09	964.30
380.28	976.00
380.48	990.05
380.68	987.71
380.87	994.73
381.07	976.00
381.26	1022.81
381.46	1041.54
381.65	999.41
381.85	1057.92
382.04	1004.09
382.24	1018.13
382.43	1022.81
382.63	1041.54
382.83	1025.15
383.02	1025.15
383.22	1142.18
383.41	1102.39
383.61	1128.14
383.80	1135.16
384.00	1142.18
384.19	1123.46
384.39	1156.22
384.58	1160.91
384.78	1132.82
384.97	1146.86
385.17	1177.29
385.36	1142.18
385.56	1149.20
385.75	1186.65
385.95	1116.44
386.14	1203.04
386.34	1179.63
386.53	1212.40
386.72	1254.53
386.92	1303.68
387.11	1270.91
387.31	1277.93
387.50	1219.42
387.70	1200.69
387.89	1317.72
388.09	1224.10
388.28	1198.35
388.48	1226.44
388.67	1343.47
388.86	1282.61
389.06	1359.85
389.25	1364.53
389.45	1282.61
389.64	1345.81
389.84	1406.66
390.03	1336.45
390.22	1376.24
390.42	1430.07
390.61	1378.58
390.81	1453.47
391.00	1458.15
391.19	1479.22
391.39	1481.56
391.58	1444.11
391.78	1357.51
391.97	1341.13
392.16	1488.58
392.36	1444.11
392.55	1479.22
392.75	1540.07
392.94	1591.56
393.13	1551.78
393.33	1439.43
393.52	1490.92
393.71	1617.31
393.91	1673.48
394.10	1526.03
394.29	1629.01
394.49	1638.38
394.68	1577.52
394.88	1621.99
395.07	1680.50
395.26	1661.78
395.46	1638.38
395.65	1715.61
395.84	1647.74
396.04	1741.36
396.23	1781.15
396.42	1715.61
396.62	1776.47
396.81	1727.32
397.00	1781.15
397.19	1755.40
397.39	1781.15
397.58	1792.85
397.77	1774.13
397.97	1893.49
398.16	1806.89
398.35	1860.73
398.55	1823.28
398.74	1851.36
398.93	1874.77
399.12	1870.09
399.32	1673.48
399.51	1921.58
399.70	2033.93
399.90	1914.56
400.09	1921.58
400.28	2015.20
400.47	2045.63
400.67	2040.95
400.86	2054.99
401.05	2092.44
401.24	2155.63
401.44	2083.08
401.63	2129.89
401.82	2078.40
402.01	2157.97
402.21	2080.74
402.40	2312.45
402.59	2183.72
402.78	2176.70
402.97	2256.28
403.17	2216.49
403.36	2279.68
403.55	2272.66
403.74	2377.98
403.93	2422.45
404.13	2314.79
404.32	2305.43
404.51	2354.58
404.70	2459.90
404.89	2352.24
405.09	2483.31
405.28	2392.03
405.47	2579.27
405.66	2466.92
405.85	2495.01
406.05	2480.97
406.24	2668.21
406.43	2607.36
406.62	2658.85
406.81	2747.79
407.00	2525.44
407.20	2609.70
407.39	2630.76
407.58	2675.23
407.77	2773.53
407.96	2806.30
408.15	2675.23
408.34	2764.17
408.54	2832.05
408.73	2813.32
408.92	2892.90
409.11	2906.95
409.30	2906.95
409.49	2766.51
409.68	2899.92
409.87	2878.86
410.07	3129.30
410.26	2998.23
410.45	3054.40
410.64	3054.40
410.83	3059.08
411.02	3077.80
411.21	3002.91
411.40	3155.04
411.59	3283.77
411.78	3155.04
411.98	3143.34
412.17	3206.53
412.36	3311.86
412.55	3405.48
412.74	3421.86
412.93	3330.58
413.12	3232.28
413.31	3550.59
413.50	3496.76
413.69	3496.76
413.88	3667.62
414.07	3581.02
414.26	3625.49
414.45	3700.39
414.64	3571.66
414.83	3810.39
415.02	3791.67
415.22	3882.95
415.41	4081.89
415.60	3948.48
415.79	3854.86
415.98	3976.57
416.17	3932.10
416.36	3955.51
416.55	4128.70
416.74	4128.70
416.93	4025.72
417.12	4184.88
417.31	4161.47
417.50	4168.49
417.69	4208.28
417.88	4304.25
418.07	4269.14
418.26	4337.01
418.45	4447.02
418.64	4500.85
418.83	4479.79
419.02	4578.09
419.21	4606.17
419.39	4582.77
419.58	4449.36
419.77	4421.27
419.96	4643.62
420.15	4695.11
420.34	4613.20
420.53	4564.04
420.72	4685.75
420.91	4484.47
421.10	4905.76
421.29	4692.77
421.48	4737.24
421.67	4727.88
421.86	4837.89
422.05	4748.95
422.24	4833.21
422.43	4765.33
422.61	4889.38
422.80	5048.54
422.99	5018.11
423.18	4887.04
423.37	5006.41
423.56	4861.29
423.75	4844.91
423.94	4840.23
424.13	4631.92
424.32	4758.31
424.50	4929.17
424.69	5158.54
424.88	5036.83
425.07	5076.62
425.26	4992.36
425.45	4933.85
425.64	5118.75
425.83	5041.51
426.01	5238.12
426.20	5060.24
426.39	4964.28
426.58	5090.67
426.77	5167.90
426.96	5111.73
427.15	5149.18
427.33	5205.35
427.52	5266.21
427.71	5336.42
427.90	5238.12
428.09	5188.97
428.28	5259.18
428.46	5465.15
428.65	5151.52
428.84	5514.30
429.03	5495.58
429.22	5259.18
429.40	5500.26
429.59	5455.79
429.78	5383.23
429.97	5277.91
430.16	5472.17
430.34	5715.59
430.53	5769.42
430.72	5628.99
430.91	5643.03
431.10	5584.52
431.28	5790.49
431.47	5886.45
431.66	5982.41
431.85	5834.96
432.03	6026.88
432.22	6015.18
432.41	6104.12
432.60	6010.50
432.79	5961.34
432.97	6040.92
433.16	6078.37
433.35	6069.01
433.54	6108.80
433.72	6024.54
433.91	6097.10
434.10	6310.08
434.28	6087.73
434.47	6274.98
434.66	6171.99
434.85	6368.60
435.03	6293.70
435.22	6274.98
435.41	6246.89
435.59	6459.88
435.78	6544.14
435.97	6527.75
436.16	6363.92
436.34	6415.41
436.53	6548.82
436.72	6640.10
436.90	6544.14
437.09	6644.78
437.28	6483.28
437.46	6656.48
437.65	6747.76
437.84	6801.60
438.02	6675.21
438.21	6581.59
438.40	6722.02
438.58	6963.09
438.77	6916.28
438.96	6897.56
439.14	7173.74
439.33	7176.08
439.52	7232.26
439.70	7389.07
439.89	7239.28
440.08	7466.31
440.26	7433.54
440.45	7440.56
440.63	7578.65
440.82	7676.96
441.01	7241.62
441.19	7777.60
441.38	7775.26
441.57	7655.89
441.75	7789.30
441.94	7831.43
442.12	8065.49
442.31	8205.92
442.50	8018.68
442.68	7983.57
442.87	8021.02
443.05	8276.13
443.24	8128.68
443.43	8095.91
443.61	8173.15
443.80	8524.23
443.98	7894.63
444.17	7786.96
444.35	8182.51
444.54	8224.64
444.73	8269.11
444.91	8322.94
445.10	8463.38
445.28	8252.73
445.47	8290.18
445.65	8407.20
445.84	8297.20
446.02	8491.46
446.21	8613.17
446.39	8524.23
446.58	8531.25
446.77	8568.70
446.95	8175.49
447.14	8362.73
447.32	8634.24
447.51	8369.76
447.69	8528.91
447.88	8571.04
448.06	8454.02
448.25	8650.62
448.43	8526.57
448.62	8720.84
448.80	8580.40
448.99	8720.84
449.17	8875.31
449.36	8713.81
449.54	8734.88
449.73	8837.86
449.91	8982.98
450.10	9170.22
450.28	9055.53
450.46	9015.74
450.65	8877.65
450.83	9053.19
451.02	9217.03
451.20	9092.98
451.39	9022.77
451.57	9057.87
451.76	9298.95
451.94	9273.20
452.13	9537.68
452.31	9406.61
452.49	9104.68
452.68	9474.49
452.86	9282.56
453.05	9394.91
453.23	9607.90
453.42	9577.47
453.60	9469.81
453.78	9621.94
453.97	9273.20
454.15	9371.50
454.34	9418.32
454.52	9696.84
454.70	9558.75
454.89	9853.66
455.07	9760.03
455.26	9806.84
455.44	9937.91
455.62	9909.83
455.81	9940.26
455.99	9905.15
456.17	10040.90
456.36	10045.58
456.54	10001.11
456.73	10211.76
456.91	10441.13
457.09	10228.14
457.28	10691.57
457.46	10389.64
457.64	10714.97
457.83	10569.86
458.01	10626.03
458.19	10628.37
458.38	10469.22
458.56	10686.89
458.74	10827.32
458.93	10637.73
459.11	10768.80
459.29	10546.45
459.48	10787.53
459.66	10724.33
459.84	10963.07
460.03	11215.85
460.21	10942.00
460.39	10897.53
460.57	11103.50
460.76	11197.12
460.94	11040.31
461.12	11435.86
461.31	11276.70
461.49	11328.19
461.67	11185.42
461.85	11606.72
462.04	11009.88
462.22	11447.56
462.40	11660.55
462.59	11442.88
462.77	11679.27
462.95	11620.76
463.13	11630.12
463.32	11293.08
463.50	11641.82
463.68	11740.13
463.86	11948.43
464.05	11414.79
464.23	11742.47
464.41	12095.89
464.59	11726.08
464.78	12196.53
464.96	12116.95
465.14	11878.22
465.32	12152.06
465.50	12030.35
465.69	12079.50
465.87	11927.37
466.05	12177.81
466.23	12138.02
466.41	12315.90
466.60	12538.25
466.78	12217.60
466.96	12264.41
467.14	12273.77
467.32	12362.71
467.51	12524.21
467.69	12088.87
467.87	12397.82
468.05	12781.67
468.23	12411.86
468.41	12545.27
468.60	12620.17
468.78	12835.50
468.96	12669.32
469.14	12943.16
469.32	13107.00
469.50	13001.68
469.69	12800.39
469.87	13254.45
470.05	12910.40
470.23	12872.95
470.41	13509.57
470.59	13139.77
470.77	13200.62
470.95	13327.01
471.14	13586.81
471.32	13310.63
471.50	13561.06
471.68	13593.83
471.86	13657.03
472.04	13612.56
472.22	13982.36
472.40	13858.31
472.58	13790.44
472.77	13797.46
472.95	14246.84
473.13	14885.81
473.31	14132.15
473.49	14284.29
473.67	14045.55
473.85	14520.68
474.03	14834.32
474.21	14677.50
474.39	14745.38
474.57	14834.32
474.75	14745.38
474.93	15026.24
475.12	14878.79
475.30	15257.95
475.48	15002.83
475.66	15463.92
475.84	15023.90
476.02	15627.76
476.20	15527.11
476.38	15707.34
476.56	15913.30
476.74	15950.75
476.92	16035.01
477.10	15807.98
477.28	16114.59
477.46	16248.00
477.64	16353.32
477.82	16549.93
478.00	16819.09
478.18	17036.76
478.36	16844.84
478.54	17254.43
478.72	17415.93
478.90	17434.65
479.08	17507.21
479.26	17715.51
479.44	17764.67
479.62	17774.03
479.80	18335.76
479.98	17996.38
480.16	18305.33
480.34	18352.14
480.52	18532.36
480.70	18675.13
480.88	18338.10
481.06	18452.78
481.24	18766.42
481.41	19138.56
481.59	19290.70
481.77	19679.22
481.95	19896.89
482.13	19723.69
482.31	19964.77
482.49	20135.63
482.67	20786.30
482.85	20549.90
483.03	20732.47
483.21	20510.11
483.39	21385.47
483.57	20840.13
483.74	21443.99
483.92	21652.30
484.10	21429.94
484.28	21621.87
484.46	21998.70
484.64	22209.34
484.82	22050.19
485.00	22441.06
485.18	22923.21
485.35	22787.46
485.53	22934.91
485.71	23211.09
485.89	23545.79
486.07	23508.34
486.25	23388.97
486.43	23831.33
486.61	24166.03
486.78	24245.61
486.96	24402.43
487.14	24659.88
487.32	25156.08
487.50	25013.31
487.68	24973.52
487.85	25305.87
488.03	25476.73
488.21	26052.50
488.39	25832.49
488.57	26368.48
488.75	26089.95
488.92	26663.38
489.10	26733.60
489.28	26810.84
489.46	27023.83
489.64	27630.02
489.81	27917.91
489.99	27676.83
490.17	27505.98
490.35	28151.96
490.53	28346.23
490.70	28465.60
490.88	28154.30
491.06	29097.54
491.24	28748.80
491.41	29102.22
491.59	29556.28
491.77	29296.49
491.95	29516.50
492.13	29858.21
492.30	29958.86
492.48	30319.30
492.66	30588.46
492.84	30031.41
493.01	30827.20
493.19	30789.75
493.37	31274.24
493.54	31405.31
493.72	31688.51
493.90	31505.95
494.08	31842.99
494.25	32149.60
494.43	31667.45
494.61	32098.11
494.79	32657.49
494.96	32444.51
495.14	32940.70
495.32	33088.15
495.49	33312.84
495.67	33518.81
495.85	33783.29
496.02	33687.33
496.20	34319.28
496.38	33804.36
496.55	33991.60
496.73	35199.32
496.91	34345.02
497.09	34934.84
497.26	34794.40
497.44	35267.19
497.62	35278.89
497.79	35878.07
497.97	35400.60
498.14	36032.55
498.32	36182.34
498.50	36280.64
498.67	36727.69
498.85	36865.78
499.03	36645.77
499.20	36423.42
499.38	37261.33
499.56	36933.65
499.73	37226.22
499.91	37329.20
500.08	38031.36
500.26	37385.38
500.44	37708.37
500.61	37563.26
500.79	37624.11
500.97	38040.73
501.14	38691.40
501.32	38848.21
501.49	38770.97
501.67	39360.79
501.84	39028.43
502.02	38967.58
502.20	39187.59
502.37	38878.64
502.55	39515.26
502.72	39512.92
502.90	39707.19
503.07	39501.22
503.25	40002.10
503.43	39957.63
503.60	40444.46
503.78	40437.44
503.95	40540.42
504.13	40727.66
504.30	41268.33
504.48	40584.89
504.65	40973.42
504.83	41155.98
505.01	41429.82
505.18	41493.02
505.36	41841.76
505.53	41804.31
505.71	41834.74
505.88	41249.60
506.06	41633.45
506.23	42045.38
506.41	41918.99
506.58	42391.78
506.76	42616.47
506.93	42368.38
507.11	42562.64
507.28	42560.30
507.46	42981.60
507.63	42796.70
507.81	43391.19
507.98	42864.57
508.16	43316.29
508.33	43372.47
508.50	43627.59
508.68	44069.95
508.85	44425.71
509.03	44128.46
509.20	44002.07
509.38	44430.39
509.55	44364.85
509.73	44776.79
509.90	45008.50
510.08	44734.66
510.25	44392.94
510.42	44947.65
510.60	45013.18
510.77	45329.16
510.95	45808.96
511.12	45127.87
511.30	45481.29
511.47	45642.79
511.64	45635.77
511.82	45965.78
511.99	45607.68
512.17	46429.21
512.34	46087.49
512.51	46471.34
512.69	46277.07
512.86	46176.43
513.04	46674.96
513.21	46445.59
513.38	46787.31
513.56	46939.44
513.73	46913.70
513.90	47187.54
514.08	47159.45
514.25	46810.71
514.43	47496.49
514.60	47290.52
514.77	47367.76
514.95	47789.06
515.12	47878.00
515.29	47583.09
515.47	48385.89
515.64	48259.51
515.81	48385.89
515.99	48566.12
516.16	48444.41
516.33	48657.40
516.51	48989.75
516.68	48341.42
516.85	48570.80
517.03	49059.97
517.20	48776.76
517.37	48608.25
517.54	48727.61
517.72	49434.45
517.89	49333.81
518.06	49490.63
518.24	49516.37
518.41	49392.33
518.58	49544.46
518.75	49455.52
518.93	49698.94
519.10	49659.15
519.27	49701.28
519.45	49984.48
519.62	50089.80
519.79	50000.86
519.96	49862.77
520.14	50408.12
520.31	49989.16
520.48	50232.58
520.65	50892.61
520.83	51011.98
521.00	50705.37
521.17	50450.25
521.34	50752.18
521.52	51220.28
521.69	50997.93
521.86	51178.15
522.03	51473.06
522.20	51363.06
522.38	51407.53
522.55	51388.80
522.72	51428.59
522.89	51676.69
523.07	51793.71
523.24	51269.43
523.41	52037.13
523.58	51683.71
523.75	52009.04
523.92	51976.28
524.10	52116.71
524.27	52083.94
524.44	52130.75
524.61	52289.91
524.78	52388.21
524.96	52591.84
525.13	52332.04
525.30	52631.63
525.47	52708.86
525.64	52575.45
525.81	52680.78
525.98	52631.63
526.16	52849.30
526.33	52956.96
526.50	53286.98
526.67	52959.30
526.84	53144.20
527.01	53010.79
527.18	53153.57
527.36	52938.24
527.53	53146.54
527.70	53392.30
527.87	53579.54
528.04	52952.28
528.21	53401.66
528.38	53670.82
528.55	53492.94
528.72	53380.60
528.89	53399.32
529.07	53738.70
529.24	53687.21
529.41	54094.46
529.58	53677.85
529.75	53778.49
529.92	54071.06
530.09	53944.67
530.26	53846.36
530.43	54089.78
530.60	53904.88
530.77	53752.74
530.94	54382.35
531.11	53942.33
531.28	54223.19
531.46	54356.60
531.63	54272.34
531.80	54506.40
531.97	54632.78
532.14	54539.16
532.31	54695.98
532.48	54546.18
532.65	54644.49
532.82	54836.41
532.99	55070.46
533.16	54726.41
533.33	54827.05
533.50	54941.74
533.67	54712.36
533.84	54911.31
534.01	55016.63
534.18	54754.49
534.35	55491.76
534.52	55140.68
534.69	55318.56
534.86	55271.75
535.03	55203.88
535.20	55370.05
535.37	55484.74
535.54	55463.67
535.71	55318.56
535.88	55653.26
536.05	55777.31
536.22	55728.16
536.38	55606.45
536.55	55891.99
536.72	55611.13
536.89	55753.90
537.06	55718.79
537.23	55842.84
537.40	55653.26
537.57	55945.83
537.74	55866.25
537.91	56004.34
538.08	55894.33
538.25	55751.56
538.42	55817.10
538.59	56154.13
538.75	56151.79
538.92	56074.55
539.09	56196.26
539.26	56189.24
539.43	56226.69
539.60	56172.86
539.77	56554.36
539.94	56741.61
540.11	56556.70
540.28	56467.76
540.44	56505.21
540.61	56514.58
540.78	56676.07
540.95	56732.25
541.12	56547.34
541.29	56699.48
541.46	56617.56
541.62	56556.70
541.79	56816.50
541.96	56530.96
542.13	56837.57
542.30	56755.65
542.47	57038.86
542.63	56992.04
542.80	57088.01
542.97	57186.31
543.14	57368.87
543.31	57347.81
543.48	57350.15
543.64	57511.64
543.81	57478.88
543.98	57378.23
544.15	57394.62
544.32	57556.11
544.48	57539.73
544.65	57256.53
544.82	57654.42
544.99	57270.57
545.16	57420.36
545.32	57394.62
545.49	57729.31
545.66	57689.52
545.83	57532.71
546.00	57897.83
546.16	57645.05
546.33	57694.21
546.50	57649.74
546.67	57925.92
546.83	57577.18
547.00	57963.37
547.17	57745.70
547.34	57914.22
547.50	58040.60
547.67	58164.65
547.84	58064.01
548.00	58244.23
548.17	58213.80
548.34	58138.91
548.51	58356.58
548.67	58518.07
548.84	58162.31
549.01	58232.53
549.18	58045.29
549.34	58286.36
549.51	58262.96
549.68	58485.31
549.84	58410.41
550.01	58501.69
550.18	58377.64
550.34	58482.97
550.51	58518.07
550.68	58354.24
550.84	58319.13
551.01	58637.44
551.18	58534.46
551.34	58681.91
551.51	58637.44
551.68	58726.38
551.84	58670.21
552.01	58635.10
552.18	58728.72
552.34	58571.91
552.51	58637.44
552.68	58749.79
552.84	58749.79
553.01	58960.44
553.18	58915.96
553.34	59004.91
553.51	58930.01
553.67	59128.95
553.84	59105.55
554.01	59079.80
554.17	59004.91
554.34	59044.69
554.51	59070.44
554.67	59126.61
554.84	59007.25
555.00	59030.65
555.17	59086.82
555.33	59105.55
555.50	58953.41
555.67	59180.45
555.83	59096.19
556.00	59355.99
556.16	59442.59
556.33	59440.24
556.50	59484.72
556.66	59325.56
556.83	59236.62
556.99	59482.37
557.16	59543.23
557.32	59557.27
557.49	59723.45
557.65	59491.74
557.82	59566.63
557.98	59171.08
558.15	59449.61
558.32	59852.18
558.48	59480.03
558.65	59475.35
558.81	59676.64
558.98	59646.21
559.14	59667.28
559.31	59587.70
559.47	59728.13
559.64	59950.48
559.80	59875.58
559.97	59833.46
560.13	59758.56
560.30	59744.51
560.46	59819.41
560.63	59784.30
560.79	59854.52
560.96	59903.67
561.12	59814.73
561.29	60034.74
561.45	59859.20
561.61	59943.46
561.78	59800.69
561.94	59702.38
562.11	59917.71
562.27	59976.23
562.44	60011.34
562.60	60130.70
562.77	60156.45
562.93	59800.69
563.10	60364.76
563.26	59927.08
563.42	60390.50
563.59	60135.38
563.75	60142.41
563.92	60219.64
564.08	60076.87
564.24	60264.11
564.41	60261.77
564.57	60238.37
564.74	60217.30
564.90	60313.26
565.07	60126.02
565.23	60294.54
565.39	60142.41
565.56	60303.90
565.72	60186.88
565.88	60425.61
566.05	59992.61
566.21	60200.92
566.38	60189.22
566.54	60418.59
566.70	60413.91
566.87	60463.06
567.03	60303.90
567.19	60725.20
567.36	60463.06
567.52	60353.05
567.68	60729.88
567.85	60526.25
568.01	60535.62
568.17	60331.99
568.34	60451.36
568.50	60554.34
568.66	60346.03
568.83	60512.21
568.99	60374.12
569.15	60640.94
569.32	60303.90
569.48	60486.46
569.64	60615.19
569.81	60575.40
569.97	60500.51
570.13	60559.02
570.30	60416.25
570.46	60603.49
570.62	60589.45
570.78	60582.43
570.95	60640.94
571.11	60835.20
571.27	60601.15
571.43	60444.33
571.60	60949.89
571.76	60622.22
571.92	60645.62
572.09	60563.70
572.25	60500.51
572.41	60425.61
572.57	60662.00
572.74	60790.73
572.90	60743.92
573.06	60645.62
573.22	60662.00
573.38	60687.75
573.55	60755.63
573.71	60886.70
573.87	60839.89
574.03	60636.26
574.20	60720.52
574.36	60636.26
574.52	60676.05
574.68	60722.86
574.84	61024.79
575.01	60910.10
575.17	60746.26
575.33	60718.18
575.49	60638.60
575.65	60734.56
575.82	60938.19
575.98	60942.87
576.14	61118.41
576.30	60980.32
576.46	60783.71
576.62	60779.03
576.79	60601.15
576.95	60727.54
577.11	60921.80
577.27	61034.15
577.43	60968.61
577.59	60729.88
577.75	60722.86
577.92	60764.99
578.08	60713.50
578.24	60757.97
578.40	61013.08
578.56	60945.21
578.72	61015.43
578.88	61277.57
579.04	61085.64
579.21	60966.27
579.37	60874.99
579.53	61235.44
579.69	60617.53
579.85	60764.99
580.01	61057.56
580.17	60795.42
580.33	60942.87
580.49	61001.38
580.65	61071.60
580.82	61052.87
580.98	60884.36
581.14	60914.78
581.30	61296.29
581.46	60860.95
581.62	61087.98
581.78	60767.33
581.94	61190.97
582.10	61062.24
582.26	61017.77
582.42	61106.71
582.58	61193.31
582.74	60816.48
582.90	61001.38
583.06	60954.57
583.22	60774.35
583.38	61095.00
583.54	61078.62
583.70	61282.25
583.86	61216.71
584.02	60767.33
584.18	61104.37
584.34	61020.11
584.50	60942.87
584.66	60769.67
584.82	60959.25
584.98	61403.95
585.14	61024.79
585.30	60884.36
585.46	61020.11
585.62	61272.88
585.78	61221.39
585.94	60912.44
586.10	61141.81
586.26	61141.81
586.42	61167.56
586.58	61123.09
586.74	61090.32
586.90	61015.43
587.06	61109.05
587.22	61256.50
587.38	61244.80
587.54	61209.69
587.70	61268.20
587.86	61085.64
588.02	60952.23
588.18	61272.88
588.34	61200.33
588.49	61029.47
