SpectraSuite Data File
++++++++++++++++++++++++++++++++++++
Date: Fri Oct 25 11:22:53 EDT 2013
User: price-jones
Dark Spectrum Present: No
Reference Spectrum Present: No
Number of Sampled Component Spectra: 1
Spectrometers: USB2+H05261
Integration Time (usec): 100000 (USB2+H05261)
Spectra Averaged: 1 (USB2+H05261)
Boxcar Smoothing: 0 (USB2+H05261)
Correct for Electrical Dark: No (USB2+H05261)
Strobe/Lamp Enabled: No (USB2+H05261)
Correct for Detector Non-linearity: No (USB2+H05261)
Correct for Stray Light: No (USB2+H05261)
Number of Pixels in Processed Spectrum: 2048
>>>>>Begin Processed Spectral Data<<<<<
365.73	224.69
365.92	224.69
366.12	224.69
366.32	119.37
366.52	107.66
366.72	98.30
366.91	135.75
367.11	156.82
367.31	95.96
367.51	79.58
367.70	124.05
367.90	124.05
368.10	110.01
368.30	65.54
368.49	131.07
368.69	119.37
368.89	138.09
369.09	140.43
369.28	173.20
369.48	201.29
369.68	205.97
369.87	215.33
370.07	191.92
370.27	299.59
370.47	311.29
370.66	550.03
370.86	617.90
371.06	641.31
371.25	751.31
371.45	657.69
371.65	716.20
371.84	634.29
372.04	608.54
372.24	634.29
372.44	645.99
372.63	737.27
372.83	737.27
373.03	788.76
373.22	816.85
373.42	786.42
373.62	791.10
373.81	840.25
374.01	858.98
374.21	765.36
374.40	711.52
374.60	812.17
374.79	774.72
374.99	861.32
375.19	866.00
375.38	821.53
375.58	746.63
375.78	933.87
375.97	835.57
376.17	933.87
376.37	873.02
376.56	887.06
376.76	889.40
376.95	844.93
377.15	858.98
377.35	868.34
377.54	919.83
377.74	884.72
377.93	866.00
378.13	964.30
378.33	957.28
378.52	908.13
378.72	933.87
378.91	980.68
379.11	931.53
379.31	978.34
379.50	966.64
379.70	973.66
379.89	966.64
380.09	912.81
380.28	1018.13
380.48	999.41
380.68	950.26
380.87	933.87
381.07	910.47
381.26	1090.69
381.46	1008.77
381.65	1046.22
381.85	1050.90
382.04	1029.84
382.24	1118.78
382.43	1050.90
382.63	1107.07
382.83	1013.45
383.02	1102.39
383.22	1160.91
383.41	1146.86
383.61	1165.59
383.80	1146.86
384.00	1118.78
384.19	1137.50
384.39	1111.75
384.58	1188.99
384.78	1057.92
384.97	1167.93
385.17	1125.80
385.36	1203.04
385.56	1090.69
385.75	1095.37
385.95	1214.74
386.14	1212.40
386.34	1160.91
386.53	1149.20
386.72	1137.50
386.92	1315.38
387.11	1247.51
387.31	1263.89
387.50	1217.08
387.70	1172.61
387.89	1181.97
388.09	1277.93
388.28	1242.82
388.48	1247.51
388.67	1387.94
388.86	1364.53
389.06	1348.15
389.25	1409.00
389.45	1214.74
389.64	1287.29
389.84	1401.98
390.03	1350.49
390.22	1406.66
390.42	1373.89
390.61	1369.21
390.81	1357.51
391.00	1411.34
391.19	1380.92
391.39	1439.43
391.58	1416.02
391.78	1444.11
391.97	1451.13
392.16	1458.15
392.36	1600.93
392.55	1547.09
392.75	1554.12
392.94	1519.01
393.13	1511.99
393.33	1526.03
393.52	1626.67
393.71	1593.90
393.91	1589.22
394.10	1605.61
394.29	1633.69
394.49	1682.85
394.68	1631.35
394.88	1603.27
395.07	1647.74
395.26	1720.29
395.46	1720.29
395.65	1659.44
395.84	1694.55
396.04	1732.00
396.23	1757.74
396.42	1736.68
396.62	1802.21
396.81	1827.96
397.00	1753.06
397.19	1879.45
397.39	1706.25
397.58	1785.83
397.77	1809.23
397.97	1872.43
398.16	1816.26
398.35	1954.35
398.55	1823.28
398.74	1851.36
398.93	1912.22
399.12	1874.77
399.32	1994.14
399.51	1884.13
399.70	2031.58
399.90	1933.28
400.09	2050.31
400.28	2001.16
400.47	1949.67
400.67	2012.86
400.86	2134.57
401.05	2045.63
401.24	2183.72
401.44	2122.87
401.63	2186.06
401.82	2223.51
402.01	2150.95
402.21	2186.06
402.40	2169.68
402.59	2073.71
402.78	2202.44
402.97	2272.66
403.17	2305.43
403.36	2338.20
403.55	2253.94
403.74	2270.32
403.93	2340.54
404.13	2289.04
404.32	2373.30
404.51	2356.92
404.70	2478.63
404.89	2406.07
405.09	2513.74
405.28	2565.23
405.47	2436.50
405.66	2495.01
405.85	2492.67
406.05	2532.46
406.24	2502.03
406.43	2553.52
406.62	2626.08
406.81	2693.96
407.00	2576.93
407.20	2607.36
407.39	2583.95
407.58	2808.64
407.77	2764.17
407.96	2801.62
408.15	2839.07
408.34	2700.98
408.54	2792.26
408.73	2719.70
408.92	2855.45
409.11	2843.75
409.30	2888.22
409.49	2981.84
409.68	2867.16
409.87	2869.50
410.07	2979.50
410.26	3091.85
410.45	3059.08
410.64	3035.67
410.83	3063.76
411.02	3035.67
411.21	3201.85
411.40	3276.75
411.59	3211.22
411.78	3307.18
411.98	3243.98
412.17	3309.52
412.36	3281.43
412.55	3466.33
412.74	3386.76
412.93	3461.65
413.12	3356.33
413.31	3541.23
413.50	3499.10
413.69	3449.95
413.88	3599.74
414.07	3681.66
414.26	3691.02
414.45	3723.79
414.64	3721.45
414.83	3819.75
415.02	3805.71
415.22	3824.44
415.41	3871.25
415.60	3913.38
415.79	3906.35
415.98	3974.23
416.17	3939.12
416.36	3927.42
416.55	3934.44
416.74	4224.67
416.93	4210.62
417.12	4273.82
417.31	4372.12
417.50	4217.65
417.69	4292.54
417.88	4372.12
418.07	4180.20
418.26	4435.32
418.45	4360.42
418.64	4477.44
418.83	4535.96
419.02	4477.44
419.21	4580.43
419.39	4524.26
419.58	4472.76
419.77	4400.21
419.96	4528.94
420.15	4887.04
420.34	4627.24
420.53	4650.64
420.72	4664.69
420.91	4692.77
421.10	4739.58
421.29	4802.78
421.48	4620.22
421.67	4842.57
421.86	4720.86
422.05	4711.50
422.24	4774.69
422.43	4978.32
422.61	4882.36
422.80	4938.53
422.99	4947.89
423.18	4903.42
423.37	5085.98
423.56	5036.83
423.75	4919.81
423.94	4830.87
424.13	4655.33
424.32	4870.65
424.50	5102.37
424.69	5043.85
424.88	4987.68
425.07	4954.91
425.26	4922.15
425.45	5027.47
425.64	5137.48
425.83	5069.60
426.01	5076.62
426.20	5078.96
426.39	4992.36
426.58	5114.07
426.77	4990.02
426.96	5111.73
427.15	5210.03
427.33	5242.80
427.52	5022.79
427.71	5259.18
427.90	5228.76
428.09	5399.62
428.28	5509.62
428.46	5446.43
428.65	5254.50
428.84	5643.03
429.03	5678.14
429.22	5334.08
429.40	5589.20
429.59	5518.98
429.78	5362.17
429.97	5097.69
430.16	5661.76
430.34	5631.33
430.53	5888.79
430.72	5731.97
430.91	5652.39
431.10	5530.69
431.28	5783.46
431.47	5837.30
431.66	5776.44
431.85	5774.10
432.03	5926.24
432.22	5998.79
432.41	5956.66
432.60	6038.58
432.79	6076.03
432.97	6064.33
433.16	6080.71
433.35	6085.39
433.54	6190.72
433.72	6277.32
433.91	6207.10
434.10	6277.32
434.28	6115.82
434.47	6284.34
434.66	6310.08
434.85	6272.64
435.03	6258.59
435.22	6286.68
435.41	6576.91
435.59	6551.16
435.78	6476.26
435.97	6665.85
436.16	6539.46
436.34	6406.05
436.53	6644.78
436.72	6696.27
436.90	6546.48
437.09	7054.37
437.28	6396.68
437.46	6705.63
437.65	6630.74
437.84	6803.94
438.02	6698.61
438.21	6862.45
438.40	6731.38
438.58	7119.91
438.77	6981.82
438.96	7213.53
439.14	7171.40
439.33	7279.07
439.52	7035.65
439.70	7274.38
439.89	7269.70
440.08	7185.44
440.26	7485.03
440.45	7609.08
440.63	7660.57
440.82	7653.55
441.01	7478.01
441.19	7810.37
441.38	7691.00
441.57	7742.49
441.75	7918.03
441.94	8009.31
442.12	8152.09
442.31	7903.99
442.50	7967.18
442.68	7955.48
442.87	8053.78
443.05	8088.89
443.24	8271.45
443.43	8135.70
443.61	8215.28
443.80	8372.10
443.98	8093.57
444.17	7878.24
444.35	8011.65
444.54	8435.29
444.73	8379.12
444.91	8336.99
445.10	8409.54
445.28	8400.18
445.47	8294.86
445.65	8386.14
445.84	8454.02
446.02	8716.16
446.21	8416.57
446.39	8351.03
446.58	8573.38
446.77	8344.01
446.95	8465.72
447.14	8510.19
447.32	8725.52
447.51	8507.85
447.69	8582.74
447.88	8711.47
448.06	8498.49
448.25	8468.06
448.43	8805.10
448.62	8737.22
448.80	8697.43
448.99	8659.98
449.17	9029.79
449.36	8847.22
449.54	8938.51
449.73	9092.98
449.91	9259.16
450.10	9144.47
450.28	9146.81
450.46	9046.17
450.65	8968.93
450.83	9373.85
451.02	9064.89
451.20	9179.58
451.39	9202.99
451.57	9039.15
451.76	9118.73
451.94	9172.56
452.13	9378.53
452.31	9315.33
452.49	9219.37
452.68	9350.44
452.86	9364.48
453.05	9357.46
453.23	9607.90
453.42	9462.79
453.60	9530.66
453.78	9540.02
453.97	9467.47
454.15	9572.79
454.34	9586.83
454.52	10118.14
454.70	9554.07
454.89	9743.65
455.07	9806.84
455.26	9926.21
455.44	9966.00
455.62	9844.29
455.81	9977.70
455.99	10202.40
456.17	10043.24
456.36	9900.47
456.54	10296.02
456.73	10387.30
456.91	10523.05
457.09	10523.05
457.28	10537.09
457.46	10593.26
457.64	10532.41
457.83	10548.79
458.01	10314.74
458.19	10593.26
458.38	10621.35
458.56	10700.93
458.74	11061.37
458.93	10981.79
459.11	10789.87
459.29	10731.36
459.48	10815.62
459.66	10918.60
459.84	10934.98
460.03	11019.24
460.21	11159.67
460.39	11094.14
460.57	11143.29
460.76	11201.80
460.94	11302.45
461.12	11257.98
461.31	11447.56
461.49	11346.92
461.67	11103.50
461.85	11627.78
462.04	11269.68
462.22	12163.76
462.40	11618.42
462.59	11585.65
462.77	11655.87
462.95	11843.11
463.13	11721.40
463.32	11524.80
463.50	11714.38
463.68	11896.94
463.86	11735.45
464.05	11655.87
464.23	11889.92
464.41	12126.32
464.59	11899.28
464.78	12140.36
464.96	12163.76
465.14	11840.77
465.32	12056.10
465.50	12388.46
465.69	12400.16
465.87	12067.80
466.05	12318.24
466.23	12198.87
466.41	12159.08
466.60	12573.36
466.78	12198.87
466.96	12095.89
467.14	12444.63
467.32	12517.18
467.51	12641.23
467.69	12259.73
467.87	12503.14
468.05	12561.66
468.23	12514.84
468.41	12617.83
468.60	12631.87
468.78	12943.16
468.96	12596.76
469.14	12957.21
469.32	13238.07
469.50	12671.66
469.69	13088.28
469.87	13118.70
470.05	13322.33
470.23	13296.58
470.41	13008.70
470.59	13303.60
470.77	13074.23
470.95	13291.90
471.14	13776.39
471.32	13146.79
471.50	13633.62
471.68	13748.31
471.86	13563.40
472.04	13909.80
472.22	14349.82
472.40	13830.23
472.58	13982.36
472.77	14052.58
472.95	14485.58
473.13	14775.80
473.31	14230.46
473.49	14267.91
473.67	14181.31
473.85	14401.32
474.03	14860.06
474.21	14693.88
474.39	15140.93
474.57	14970.07
474.75	14963.04
474.93	14745.38
475.12	15152.63
475.30	15260.29
475.48	15293.06
475.66	15206.46
475.84	15459.24
476.02	15688.61
476.20	15293.06
476.38	15964.79
476.56	16156.72
476.74	16042.03
476.92	16121.61
477.10	15981.18
477.28	16369.71
477.46	16418.86
477.64	16273.74
477.82	16460.99
478.00	17238.05
478.18	17135.06
478.36	17277.83
478.54	17256.77
478.72	17308.26
478.90	17654.66
479.08	17612.53
479.26	17635.94
479.44	17598.49
479.62	18015.10
479.80	18422.36
479.98	18317.03
480.16	19143.24
480.34	18576.83
480.52	18827.27
480.70	18780.46
480.88	18541.72
481.06	19117.50
481.24	19208.78
481.41	19260.27
481.59	19365.59
481.77	19524.75
481.95	19690.93
482.13	19887.53
482.31	19814.98
482.49	20702.04
482.67	20580.33
482.85	20884.60
483.03	20540.54
483.21	20765.23
483.39	20898.64
483.57	21364.41
483.74	21170.15
483.92	21584.42
484.10	21486.12
484.28	22015.08
484.46	22089.98
484.64	22658.73
484.82	21998.70
485.00	22637.66
485.18	23070.66
485.35	23356.21
485.53	23229.82
485.71	23178.33
485.89	23721.33
486.07	23363.23
486.25	23791.55
486.43	23805.59
486.61	24133.26
486.78	24364.98
486.96	24367.32
487.14	24446.90
487.32	24716.06
487.50	24996.92
487.68	25371.41
487.85	25921.43
488.03	26150.81
488.21	25898.03
488.39	26001.01
488.57	26340.39
488.75	26497.20
488.92	26937.23
489.10	27040.21
489.28	26946.59
489.46	27702.58
489.64	27101.06
489.81	27798.54
489.99	27414.69
490.17	27843.01
490.35	28266.65
490.53	28577.94
490.70	28657.52
490.88	28903.28
491.06	29383.09
491.24	29146.69
491.41	29298.83
491.59	29743.53
491.77	29500.11
491.95	29799.70
492.13	29881.62
492.30	30295.89
492.48	30450.37
492.66	30331.00
492.84	30518.25
493.01	30925.50
493.19	31108.06
493.37	31264.88
493.54	31391.26
493.72	31718.94
493.90	31569.15
494.08	32095.77
494.25	32308.76
494.43	32446.85
494.61	32355.57
494.79	32809.63
494.96	32856.44
495.14	32732.39
495.32	33624.14
495.49	33504.77
495.67	33317.53
495.85	33811.38
496.02	33785.63
496.20	34150.76
496.38	34684.40
496.55	34494.82
496.73	35150.17
496.91	34801.43
497.09	34806.11
497.26	35409.96
497.44	35367.84
497.62	35590.19
497.79	36350.86
497.97	35903.82
498.14	36051.27
498.32	36495.97
498.50	36247.88
498.67	36795.56
498.85	36561.51
499.03	37352.61
499.20	37385.38
499.38	36978.12
499.56	37371.33
499.73	37301.12
499.91	38134.35
500.08	38096.90
500.26	37584.32
500.44	38312.23
500.61	38031.36
500.79	38038.39
500.97	38543.94
501.14	39096.31
501.32	38869.28
501.49	38934.81
501.67	39206.31
501.84	39299.94
502.02	39126.74
502.20	39519.95
502.37	39868.69
502.55	39824.22
502.72	39669.74
502.90	40275.94
503.07	39817.19
503.25	40121.46
503.43	40430.41
503.60	40566.16
503.78	40147.21
503.95	40854.05
504.13	40568.51
504.30	40989.80
504.48	40713.62
504.65	41310.46
504.83	41448.55
505.01	41588.98
505.18	41923.68
505.36	41724.73
505.53	41752.82
505.71	41811.33
505.88	42246.67
506.06	41860.48
506.23	42429.23
506.41	42295.82
506.58	42426.89
506.76	42188.16
506.93	42768.61
507.11	42911.38
507.28	43051.81
507.46	43215.65
507.63	42944.15
507.81	43386.51
507.98	43412.26
508.16	43328.00
508.33	43330.34
508.50	43892.07
508.68	43847.60
508.85	43786.74
509.03	43915.47
509.20	44311.02
509.38	44664.44
509.55	44900.84
509.73	44917.22
509.90	44886.79
510.08	44685.51
510.25	45153.62
510.42	45151.27
510.60	45514.06
510.77	45268.30
510.95	45911.95
511.12	45572.57
511.30	45907.27
511.47	45727.05
511.64	46131.96
511.82	45989.19
511.99	46038.34
512.17	46171.75
512.34	45949.40
512.51	46775.61
512.69	46515.81
512.86	46557.94
513.04	47129.03
513.21	46923.06
513.38	46852.84
513.56	47253.08
513.73	46855.18
513.90	47430.96
514.08	47501.17
514.25	47728.20
514.43	47711.82
514.60	47681.39
514.77	47707.14
514.95	48090.99
515.12	48252.48
515.29	47878.00
515.47	48226.74
515.64	48367.17
515.81	48339.08
515.99	48413.98
516.16	49064.65
516.33	48612.93
516.51	49235.51
516.68	49013.16
516.85	48800.17
517.03	48959.33
517.20	49195.72
517.37	49254.23
517.54	49141.89
517.72	49357.22
517.89	49137.21
518.06	49104.44
518.24	49558.50
518.41	49518.71
518.58	49815.96
518.75	49418.07
518.93	49954.05
519.10	49619.36
519.27	49712.98
519.45	50003.20
519.62	50471.31
519.79	50157.68
519.96	50312.16
520.14	50452.59
520.31	50401.10
520.48	50672.60
520.65	50644.51
520.83	51035.38
521.00	51274.12
521.17	51079.85
521.34	51002.61
521.52	51009.64
521.69	51360.72
521.86	51285.82
522.03	51363.06
522.20	51552.64
522.38	51601.79
522.55	51573.70
522.72	51936.49
522.89	51550.30
523.07	51868.61
523.24	51866.27
523.41	51973.94
523.58	51889.68
523.75	52100.32
523.92	52154.16
524.10	52381.19
524.27	52334.38
524.44	52142.45
524.61	52411.62
524.78	52629.29
524.96	52729.93
525.13	52479.49
525.30	52666.73
525.47	52758.02
525.64	52694.82
525.81	53027.18
525.98	52949.94
526.16	52774.40
526.33	52896.11
526.50	53373.58
526.67	53141.86
526.84	53240.17
527.01	53031.86
527.18	53073.99
527.36	53050.58
527.53	53298.68
527.70	53815.94
527.87	53399.32
528.04	53263.57
528.21	53858.07
528.38	53750.40
528.55	53656.78
528.72	53624.01
528.89	53731.68
529.07	53708.27
529.24	53593.59
529.41	53963.39
529.58	53883.81
529.75	54010.20
529.92	53895.52
530.09	54169.36
530.26	54251.28
530.43	54244.26
530.60	54148.29
530.77	54148.29
530.94	54251.28
531.11	54045.31
531.28	54691.30
531.46	54585.97
531.63	54312.13
531.80	54504.06
531.97	54429.16
532.14	54756.83
532.31	54724.07
532.48	54906.63
532.65	54843.43
532.82	54883.22
532.99	55035.36
533.16	54955.78
533.33	55157.06
533.50	55037.70
533.67	55241.32
533.84	54782.58
534.01	55054.08
534.18	55194.51
534.35	55538.57
534.52	55154.72
534.69	55421.55
534.86	55407.50
535.03	55290.48
535.20	55728.16
535.37	55552.62
535.54	55629.85
535.71	55683.69
535.88	55758.58
536.05	55845.18
536.22	55770.28
536.38	55948.17
536.55	55959.87
536.72	55845.18
536.89	55786.67
537.06	55842.84
537.23	55997.32
537.40	55931.78
537.57	55838.16
537.74	56231.37
537.91	56243.07
538.08	56016.04
538.25	56123.71
538.42	56140.09
538.59	56573.09
538.75	56156.47
538.92	56203.28
539.09	56800.12
539.26	56449.04
539.43	56392.87
539.60	56430.32
539.77	56512.23
539.94	56535.64
540.11	56720.54
540.28	56713.52
540.44	56708.84
540.61	56875.02
540.78	56371.80
540.95	56601.18
541.12	56741.61
541.29	56626.92
541.46	56832.89
541.62	57041.20
541.79	56889.06
541.96	56413.93
542.13	56825.87
542.30	56980.34
542.47	57340.78
542.63	57359.51
542.80	57127.80
542.97	57198.01
543.14	57186.31
543.31	57418.02
543.48	57441.43
543.64	57785.49
543.81	57586.54
543.98	57340.78
544.15	57546.75
544.32	57567.82
544.48	57984.43
544.65	57558.45
544.82	57638.03
544.99	57467.17
545.16	57820.59
545.32	57439.09
545.49	57886.13
545.66	58038.26
545.83	57785.49
546.00	57930.60
546.16	58064.01
546.33	57652.08
546.50	57478.88
546.67	58007.84
546.83	57464.83
547.00	58094.44
547.17	57743.36
547.34	57982.09
547.50	58045.29
547.67	58447.86
547.84	58071.03
548.00	58323.81
548.17	58429.13
548.34	58197.42
548.51	58492.33
548.67	58475.94
548.84	58363.60
549.01	58010.18
549.18	58384.66
549.34	58592.97
549.51	58548.50
549.68	58653.82
549.84	58677.23
550.01	58677.23
550.18	58599.99
550.34	58754.47
550.51	58702.98
550.68	58827.02
550.84	58370.62
551.01	58997.88
551.18	58773.19
551.34	58775.53
551.51	58698.30
551.68	58742.77
551.84	58775.53
552.01	58810.64
552.18	59086.82
552.34	58897.24
552.51	59007.25
552.68	58824.68
552.84	58805.96
553.01	59341.94
553.18	59187.47
553.34	59220.23
553.51	59014.27
553.67	58913.62
553.84	59213.21
554.01	59302.15
554.17	59164.06
554.34	59150.02
554.51	59208.53
554.67	59297.47
554.84	59231.94
555.00	59089.16
555.17	59260.02
555.33	59072.78
555.50	59192.15
555.67	59187.47
555.83	59306.83
556.00	59327.90
556.16	59744.51
556.33	59540.89
556.50	59468.33
556.66	59611.10
556.83	59334.92
556.99	59618.13
557.16	59597.06
557.32	59597.06
557.49	59831.11
557.65	59587.70
557.82	59676.64
557.98	59505.78
558.15	59690.68
558.32	59777.28
558.48	59444.93
558.65	59646.21
558.81	59821.75
558.98	59828.77
559.14	59901.33
559.31	59852.18
559.47	59922.40
559.64	59847.50
559.80	59870.90
559.97	59962.18
560.13	59704.73
560.30	59903.67
560.46	59973.89
560.63	59913.03
560.79	59943.46
560.96	60149.43
561.12	60046.44
561.29	60065.17
561.45	59870.90
561.61	60046.44
561.78	60135.38
561.94	59891.97
562.11	59868.56
562.27	60144.75
562.44	60140.07
562.60	60154.11
562.77	60301.56
562.93	60259.43
563.10	60250.07
563.26	59906.01
563.42	60404.55
563.59	60207.94
563.75	60233.69
563.92	60315.61
564.08	60179.85
564.24	60374.12
564.41	60392.84
564.57	60331.99
564.74	60175.17
564.90	60566.04
565.07	60474.76
565.23	60095.60
565.39	60292.20
565.56	60331.99
565.72	60346.03
565.88	60500.51
566.05	60200.92
566.21	60292.20
566.38	60603.49
566.54	60472.42
566.70	60720.52
566.87	60437.31
567.03	60315.61
567.19	60638.60
567.36	60526.25
567.52	60568.38
567.68	60591.79
567.85	60537.96
568.01	60542.64
568.17	60404.55
568.34	60570.72
568.50	60446.68
568.66	60554.34
568.83	60580.09
568.99	60371.78
569.15	60697.11
569.32	60615.19
569.48	60662.00
569.64	60575.40
569.81	60636.26
569.97	60554.34
570.13	60755.63
570.30	60577.75
570.46	60750.94
570.62	60750.94
570.78	60666.69
570.95	60549.66
571.11	60996.70
571.27	60657.32
571.43	60706.47
571.60	60985.00
571.76	60678.39
571.92	60769.67
572.09	60879.67
572.25	60835.20
572.41	60692.43
572.57	60643.28
572.74	61106.71
572.90	60837.54
573.06	60722.86
573.22	60793.07
573.38	60844.57
573.55	60692.43
573.71	61144.16
573.87	60863.29
574.03	60640.94
574.20	60912.44
574.36	60870.31
574.52	60970.96
574.68	60781.37
574.84	61008.40
575.01	60996.70
575.17	60910.10
575.33	60870.31
575.49	60970.96
575.65	61043.51
575.82	60980.32
575.98	61148.84
576.14	61137.13
576.30	60999.04
576.46	60935.85
576.62	60961.59
576.79	60973.30
576.95	60921.80
577.11	61055.21
577.27	60977.98
577.43	61111.39
577.59	60924.14
577.75	60942.87
577.92	60860.95
578.08	60992.02
578.24	61139.47
578.40	61116.07
578.56	61003.72
578.72	61111.39
578.88	61366.51
579.04	61212.03
579.21	61055.21
579.37	61237.78
579.53	61062.24
579.69	61022.45
579.85	61130.11
580.01	61247.14
580.17	60963.93
580.33	61221.39
580.49	61090.32
580.65	61141.81
580.82	61038.83
580.98	60851.59
581.14	60821.16
581.30	61279.91
581.46	60952.23
581.62	61275.22
581.78	61064.58
581.94	61183.94
582.10	61118.41
582.26	61078.62
582.42	61097.34
582.58	61254.16
582.74	61048.19
582.90	61221.39
583.06	61003.72
583.22	61045.85
583.38	61162.88
583.54	61275.22
583.70	61066.92
583.86	61167.56
584.02	61008.40
584.18	61174.58
584.34	61272.88
584.50	61315.01
584.66	60935.85
584.82	60900.74
584.98	61146.50
585.14	61291.61
585.30	61083.30
585.46	61319.70
585.62	61277.57
585.78	61315.01
585.94	60982.66
586.10	61261.18
586.26	61366.51
586.42	61331.40
586.58	61284.59
586.74	61197.99
586.90	61102.03
587.06	61048.19
587.22	61403.95
587.38	61429.70
587.54	61352.46
587.70	61544.39
587.86	61202.67
588.02	61284.59
588.18	61359.48
588.34	61319.70
588.49	61116.07
