SpectraSuite Data File
++++++++++++++++++++++++++++++++++++
Date: Fri Oct 25 11:34:16 EDT 2013
User: price-jones
Dark Spectrum Present: No
Reference Spectrum Present: No
Number of Sampled Component Spectra: 1
Spectrometers: USB2+H05261
Integration Time (usec): 100000 (USB2+H05261)
Spectra Averaged: 1 (USB2+H05261)
Boxcar Smoothing: 0 (USB2+H05261)
Correct for Electrical Dark: No (USB2+H05261)
Strobe/Lamp Enabled: No (USB2+H05261)
Correct for Detector Non-linearity: No (USB2+H05261)
Correct for Stray Light: No (USB2+H05261)
Number of Pixels in Processed Spectrum: 2048
>>>>>Begin Processed Spectral Data<<<<<
365.73	318.31
365.92	318.31
366.12	318.31
366.32	182.56
366.52	175.54
366.72	231.71
366.91	187.24
367.11	187.24
367.31	166.18
367.51	182.56
367.70	163.84
367.90	175.54
368.10	175.54
368.30	135.75
368.49	175.54
368.69	208.31
368.89	245.76
369.09	252.78
369.28	196.60
369.48	245.76
369.68	236.39
369.87	264.48
370.07	182.56
370.27	287.89
370.47	287.89
370.66	397.89
370.86	484.49
371.06	592.16
371.25	521.94
371.45	535.98
371.65	573.43
371.84	503.22
372.04	592.16
372.24	545.34
372.44	521.94
372.63	636.63
372.83	657.69
373.03	599.18
373.22	622.58
373.42	599.18
373.62	620.24
373.81	557.05
374.01	655.35
374.21	592.16
374.40	622.58
374.60	706.84
374.79	610.88
374.99	660.03
375.19	617.90
375.38	615.56
375.58	582.79
375.78	678.76
375.97	706.84
376.17	627.26
376.37	667.05
376.56	713.86
376.76	638.97
376.95	706.84
377.15	702.16
377.35	737.27
377.54	688.12
377.74	676.41
377.93	688.12
378.13	650.67
378.33	737.27
378.52	685.78
378.72	725.57
378.91	758.33
379.11	706.84
379.31	697.48
379.50	690.46
379.70	744.29
379.89	727.91
380.09	688.12
380.28	702.16
380.48	753.65
380.68	709.18
380.87	711.52
381.07	734.93
381.26	784.08
381.46	720.88
381.65	678.76
381.85	713.86
382.04	858.98
382.24	730.25
382.43	746.63
382.63	753.65
382.83	821.53
383.02	866.00
383.22	800.46
383.41	748.97
383.61	772.38
383.80	856.64
384.00	802.80
384.19	802.80
384.39	814.51
384.58	807.48
384.78	772.38
384.97	819.19
385.17	877.70
385.36	779.40
385.56	933.87
385.75	877.70
385.95	821.53
386.14	889.40
386.34	863.66
386.53	833.23
386.72	847.27
386.92	856.64
387.11	880.04
387.31	849.61
387.50	828.55
387.70	854.30
387.89	835.57
388.09	844.93
388.28	929.19
388.48	954.94
388.67	889.40
388.86	840.25
389.06	968.98
389.25	1001.75
389.45	917.49
389.64	915.15
389.84	896.43
390.03	919.83
390.22	931.53
390.42	966.64
390.61	961.96
390.81	1025.15
391.00	947.92
391.19	985.37
391.39	973.66
391.58	931.53
391.78	987.71
391.97	1001.75
392.16	959.62
392.36	1034.52
392.55	915.15
392.75	978.34
392.94	1097.71
393.13	1067.28
393.33	1036.86
393.52	990.05
393.71	1151.54
393.91	1006.43
394.10	1055.58
394.29	1060.26
394.49	1100.05
394.68	1135.16
394.88	1071.97
395.07	1149.20
395.26	1198.35
395.46	1210.06
395.65	1135.16
395.84	1144.52
396.04	1210.06
396.23	1188.99
396.42	1165.59
396.62	1235.80
396.81	1200.69
397.00	1210.06
397.19	1226.44
397.39	1277.93
397.58	1247.51
397.77	1235.80
397.97	1256.87
398.16	1123.46
398.35	1280.27
398.55	1217.08
398.74	1245.16
398.93	1289.64
399.12	1306.02
399.32	1221.76
399.51	1313.04
399.70	1270.91
399.90	1252.19
400.09	1324.74
400.28	1315.38
400.47	1371.55
400.67	1411.34
400.86	1352.83
401.05	1385.60
401.24	1364.53
401.44	1418.36
401.63	1458.15
401.82	1434.75
402.01	1380.92
402.21	1427.73
402.40	1472.20
402.59	1540.07
402.78	1533.05
402.97	1507.30
403.17	1444.11
403.36	1451.13
403.55	1479.22
403.74	1549.43
403.93	1511.99
404.13	1586.88
404.32	1502.62
404.51	1603.27
404.70	1605.61
404.89	1540.07
405.09	1643.06
405.28	1533.05
405.47	1558.80
405.66	1708.59
405.85	1631.35
406.05	1633.69
406.24	1703.91
406.43	1682.85
406.62	1682.85
406.81	1753.06
407.00	1736.68
407.20	1802.21
407.39	1778.81
407.58	1783.49
407.77	1834.98
407.96	1837.32
408.15	1849.02
408.34	1837.32
408.54	1830.30
408.73	1930.94
408.92	1851.36
409.11	1982.43
409.30	1902.86
409.49	1961.37
409.68	1987.11
409.87	1839.66
410.07	1891.15
410.26	1921.58
410.45	1973.07
410.64	2040.95
410.83	2010.52
411.02	2054.99
411.21	2085.42
411.40	2113.50
411.59	2080.74
411.78	2190.74
411.98	2148.61
412.17	2172.02
412.36	2200.10
412.55	2263.30
412.74	2298.41
412.93	2349.90
413.12	2167.34
413.31	2270.32
413.50	2277.34
413.69	2345.22
413.88	2324.15
414.07	2415.43
414.26	2487.99
414.45	2377.98
414.64	2441.18
414.83	2396.71
415.02	2520.76
415.22	2607.36
415.41	2509.05
415.60	2605.02
415.79	2530.12
415.98	2691.62
416.17	2567.57
416.36	2633.10
416.55	2628.42
416.74	2766.51
416.93	2733.75
417.12	2832.05
417.31	2881.20
417.50	2726.72
417.69	2942.05
417.88	2923.33
418.07	2906.95
418.26	2949.08
418.45	2836.73
418.64	3068.44
418.83	2932.69
419.02	2949.08
419.21	3073.12
419.39	2984.18
419.58	3026.31
419.77	2923.33
419.96	3012.27
420.15	2984.18
420.34	3136.32
420.53	3096.53
420.72	3148.02
420.91	3246.32
421.10	3162.06
421.29	3300.16
421.48	3105.89
421.67	3192.49
421.86	3148.02
422.05	3190.15
422.24	3187.81
422.43	3206.53
422.61	3225.26
422.80	3173.77
422.99	3251.00
423.18	3304.84
423.37	3363.35
423.56	3311.86
423.75	3288.45
423.94	3173.77
424.13	3267.39
424.32	3229.94
424.50	3368.03
424.69	3321.22
424.88	3440.59
425.07	3346.97
425.26	3330.58
425.45	3342.28
425.64	3229.94
425.83	3283.77
426.01	3471.01
426.20	3337.60
426.39	3382.07
426.58	3433.57
426.77	3330.58
426.96	3468.67
427.15	3515.48
427.33	3442.93
427.52	3527.19
427.71	3543.57
427.90	3459.31
428.09	3513.14
428.28	3602.08
428.46	3574.00
428.65	3541.23
428.84	3674.64
429.03	3588.04
429.22	3623.15
429.40	3616.13
429.59	3712.09
429.78	3520.17
429.97	3494.42
430.16	3538.89
430.34	3735.50
430.53	3873.59
430.72	3866.56
430.91	3789.33
431.10	3754.22
431.28	3918.06
431.47	3939.12
431.66	3815.07
431.85	3852.52
432.03	3936.78
432.22	3943.80
432.41	3943.80
432.60	3864.22
432.79	3840.82
432.97	4011.68
433.16	3999.98
433.35	3988.27
433.54	3925.08
433.72	4042.11
433.91	4170.83
434.10	4187.22
434.28	4039.76
434.47	4088.92
434.66	4100.62
434.85	4112.32
435.03	4182.54
435.22	4105.30
435.41	4311.27
435.59	4278.50
435.78	4255.09
435.97	4386.16
436.16	4428.29
436.34	4304.25
436.53	4339.35
436.72	4369.78
436.90	4329.99
437.09	4245.73
437.28	4290.20
437.46	4400.21
437.65	4447.02
437.84	4493.83
438.02	4493.83
438.21	4524.26
438.40	4571.07
438.58	4557.02
438.77	4748.95
438.96	4571.07
439.14	4760.65
439.33	4795.76
439.52	4805.12
439.70	4758.31
439.89	4739.58
440.08	4922.15
440.26	4936.19
440.45	5013.43
440.63	4990.02
440.82	5018.11
441.01	5151.52
441.19	5013.43
441.38	5116.41
441.57	5078.96
441.75	5130.45
441.94	5320.04
442.12	5135.14
442.31	5226.42
442.50	5404.30
442.68	5186.63
442.87	5317.70
443.05	5320.04
443.24	5432.38
443.43	5474.51
443.61	5434.72
443.80	5373.87
443.98	5345.78
444.17	5247.48
444.35	5287.27
444.54	5556.43
444.73	5516.64
444.91	5561.11
445.10	5472.17
445.28	5467.49
445.47	5432.38
445.65	5357.49
445.84	5526.00
446.02	5462.81
446.21	5523.66
446.39	5416.00
446.58	5523.66
446.77	5558.77
446.95	5430.04
447.14	5315.36
447.32	5652.39
447.51	5607.92
447.69	5675.80
447.88	5526.00
448.06	5673.46
448.25	5605.58
448.43	5598.56
448.62	5628.99
448.80	5607.92
448.99	5811.55
449.17	5776.44
449.36	5645.37
449.54	5870.06
449.73	5895.81
449.91	5982.41
450.10	5783.46
450.28	5921.56
450.46	5975.39
450.65	6043.26
450.83	5998.79
451.02	6080.71
451.20	5930.92
451.39	5905.17
451.57	6001.13
451.76	5973.05
451.94	6104.12
452.13	6120.50
452.31	6188.38
452.49	5912.19
452.68	6193.06
452.86	6101.78
453.05	6162.63
453.23	6050.28
453.42	6113.48
453.60	6179.01
453.78	6286.68
453.97	6251.57
454.15	6270.30
454.34	6195.40
454.52	6305.40
454.70	6331.15
454.89	6333.49
455.07	6448.18
455.26	6420.09
455.44	6401.37
455.62	6607.33
455.81	6548.82
455.99	6670.53
456.17	6539.46
456.36	6520.73
456.54	6551.16
456.73	6733.72
456.91	6860.11
457.09	6911.60
457.28	6806.28
457.46	6892.88
457.64	6918.62
457.83	6815.64
458.01	6944.37
458.19	7073.10
458.38	6867.13
458.56	7030.97
458.74	6956.07
458.93	6988.84
459.11	6979.48
459.29	6991.18
459.48	7112.89
459.66	7108.21
459.84	7037.99
460.03	7232.26
460.21	7054.37
460.39	7234.60
460.57	7222.89
460.76	7279.07
460.94	7295.45
461.12	7283.75
461.31	7232.26
461.49	7370.35
461.67	7194.81
461.85	7562.27
462.04	7365.67
462.22	7990.59
462.40	7524.82
462.59	7461.63
462.77	7412.48
462.95	7534.18
463.13	7555.25
463.32	7552.91
463.50	7604.40
463.68	7562.27
463.86	7639.51
464.05	7566.95
464.23	7599.72
464.41	7686.32
464.59	7613.76
464.78	7906.33
464.96	7892.29
465.14	7627.81
465.32	7948.46
465.50	7868.88
465.69	7885.26
465.87	7789.30
466.05	7728.45
466.23	7962.50
466.41	7822.07
466.60	8133.36
466.78	7857.18
466.96	7908.67
467.14	7983.57
467.32	7838.45
467.51	8124.00
467.69	7985.91
467.87	8004.63
468.05	7971.86
468.23	8131.02
468.41	8053.78
468.60	8191.88
468.78	8205.92
468.96	8210.60
469.14	8362.73
469.32	8446.99
469.50	8079.53
469.69	8147.40
469.87	8367.42
470.05	8451.67
470.23	8662.32
470.41	8461.04
470.59	8456.36
470.77	8571.04
470.95	8383.80
471.14	8641.26
471.32	8407.20
471.50	8814.46
471.68	8830.84
471.86	8758.28
472.04	8793.39
472.22	8877.65
472.40	8877.65
472.58	8997.02
472.77	8868.29
472.95	9202.99
473.13	9462.79
473.31	9151.49
473.49	9102.34
473.67	9160.86
473.85	9085.96
474.03	9469.81
474.21	9525.98
474.39	9397.25
474.57	9404.27
474.75	9521.30
474.93	9680.46
475.12	9535.34
475.30	9633.64
475.48	9764.72
475.66	9806.84
475.84	9706.20
476.02	10012.81
476.20	9841.95
476.38	10066.64
476.56	10244.52
476.74	10303.04
476.92	10036.22
477.10	10214.10
477.28	10469.22
477.46	10312.40
477.64	10410.70
477.82	10565.18
478.00	10888.17
478.18	10778.17
478.36	10665.82
478.54	10991.16
478.72	10750.08
478.90	11040.31
479.08	11255.64
479.26	11276.70
479.44	11138.61
479.62	11386.71
479.80	11538.84
479.98	11590.33
480.16	11868.86
480.34	11520.12
480.52	11927.37
480.70	11873.54
480.88	11690.98
481.06	11943.75
481.24	12123.98
481.41	12250.36
481.59	12400.16
481.77	12411.86
481.95	12421.22
482.13	12666.98
482.31	12730.17
482.49	12938.48
482.67	12901.03
482.85	13022.74
483.03	13011.04
483.21	13163.17
483.39	13277.86
483.57	13275.52
483.74	13521.27
483.92	13614.90
484.10	13432.33
484.28	13844.27
484.46	13867.67
484.64	14307.69
484.82	13884.06
485.00	14113.43
485.18	14408.34
485.35	14321.74
485.53	14508.98
485.71	14829.63
485.89	15019.22
486.07	14628.35
486.25	14871.76
486.43	14902.19
486.61	15279.02
486.78	15124.54
486.96	15279.02
487.14	15503.71
487.32	15435.83
487.50	15777.55
487.68	15847.77
487.85	16217.57
488.03	16341.62
488.21	16350.98
488.39	16348.64
488.57	16561.63
488.75	16430.56
488.92	17036.76
489.10	16889.31
489.28	16851.86
489.46	17144.42
489.64	17060.16
489.81	17532.95
489.99	17397.20
490.17	17453.37
490.35	17872.33
490.53	17687.43
490.70	17930.84
490.88	17809.14
491.06	18223.41
491.24	18218.73
491.41	18438.74
491.59	18333.42
491.77	18511.30
491.95	18782.80
492.13	18663.43
492.30	19089.41
492.48	18972.38
492.66	18993.45
492.84	19323.46
493.01	19531.77
493.19	19487.30
493.37	19381.98
493.54	19590.28
493.72	19660.50
493.90	20058.39
494.08	20053.71
494.25	20114.56
494.43	20379.04
494.61	20460.96
494.79	20540.54
494.96	20533.52
495.14	20882.26
495.32	21085.89
495.49	21085.89
495.67	21055.46
495.85	21259.09
496.02	21511.86
496.20	21757.62
496.38	21474.42
496.55	21507.18
496.73	22141.47
496.91	21979.97
497.09	22167.21
497.26	22223.39
497.44	22094.66
497.62	22230.41
497.79	22429.35
497.97	22614.26
498.14	22731.28
498.32	22984.06
498.50	22724.26
498.67	23316.42
498.85	23075.34
499.03	22696.17
499.20	23360.89
499.38	23520.04
499.56	23545.79
499.73	23845.38
499.91	23686.22
500.08	24009.22
500.26	23517.70
500.44	23847.72
500.61	24107.52
500.79	23718.99
500.97	24166.03
501.14	24435.19
501.32	24449.24
501.49	24196.46
501.67	24393.06
501.84	24671.59
502.02	24458.60
502.20	24694.99
502.37	24903.30
502.55	24638.82
502.72	24917.34
502.90	25118.63
503.07	25025.01
503.25	25266.08
503.43	25223.95
503.60	25338.64
503.78	25614.82
503.95	25481.41
504.13	26012.71
504.30	25912.07
504.48	25811.43
504.65	26064.21
504.83	25928.45
505.01	26169.53
505.18	26096.97
505.36	26316.98
505.53	25919.09
505.71	26478.48
505.88	26600.19
506.06	26492.52
506.23	26869.35
506.41	26349.75
506.58	26867.01
506.76	26864.67
506.93	26913.82
507.11	26487.84
507.28	27068.30
507.46	27309.37
507.63	27180.64
507.81	27459.16
507.98	27356.18
508.16	27597.26
508.33	27405.33
508.50	27810.25
508.68	27906.21
508.85	28400.06
509.03	28175.37
509.20	28051.32
509.38	28533.47
509.55	28432.83
509.73	28341.55
509.90	28538.15
510.08	28243.24
510.25	28512.41
510.42	28706.67
510.60	29024.98
510.77	28945.41
510.95	29298.83
511.12	28875.19
511.30	28891.57
511.47	29036.69
511.64	29329.25
511.82	29605.44
511.99	29331.59
512.17	29448.62
512.34	29170.10
512.51	29855.87
512.69	30010.35
512.86	29876.94
513.04	30277.17
513.21	29933.11
513.38	30190.57
513.56	30265.47
513.73	30082.91
513.90	30064.18
514.08	30078.22
514.25	30331.00
514.43	30342.70
514.60	30567.40
514.77	30637.61
514.95	30686.76
515.12	30302.92
515.29	30881.03
515.47	30625.91
515.64	31175.94
515.81	31143.17
515.99	31051.89
516.16	31178.28
516.33	31288.28
516.51	31548.08
516.68	31683.83
516.85	31232.11
517.03	31679.15
517.20	31683.83
517.37	31658.09
517.54	31412.33
517.72	31920.23
517.89	31723.62
518.06	31847.67
518.24	31852.35
518.41	32130.87
518.58	32107.47
518.75	31962.36
518.93	32385.99
519.10	32353.23
519.27	32446.85
519.45	32100.45
519.62	32039.59
519.79	32465.57
519.96	32481.95
520.14	32917.29
520.31	32383.65
520.48	32463.23
520.65	32837.72
520.83	33357.32
521.00	33591.37
521.17	33326.89
521.34	32999.21
521.52	33558.60
521.69	33120.92
521.86	33369.02
522.03	33612.43
522.20	33596.05
522.38	33797.34
522.55	34073.52
522.72	33750.52
522.89	33942.45
523.07	34089.90
523.24	33851.17
523.41	34146.08
523.58	34110.97
523.75	34440.98
523.92	34232.68
524.10	34445.66
524.27	34752.27
524.44	34728.87
524.61	34499.50
524.78	34462.05
524.96	35122.08
525.13	34665.67
525.30	35119.74
525.47	34796.74
525.64	34572.05
525.81	35136.12
525.98	34838.87
526.16	34560.35
526.33	34738.23
526.50	35126.76
526.67	34925.47
526.84	35367.84
527.01	34714.83
527.18	35564.44
527.36	35688.49
527.53	35452.09
527.70	35941.27
527.87	36259.58
528.04	35796.15
528.21	35756.36
528.38	35388.90
528.55	35903.82
528.72	35943.61
528.89	36154.26
529.07	35819.56
529.24	35562.10
529.41	36414.05
529.58	36327.45
529.75	35854.67
529.92	36493.63
530.09	36205.75
530.26	36617.68
530.43	36381.29
530.60	35983.40
530.77	36442.14
530.94	36383.63
531.11	36350.86
531.28	36723.01
531.46	37125.58
531.63	36650.45
531.80	37186.43
531.97	37251.97
532.14	36790.88
532.31	36744.07
532.48	37429.85
532.65	37900.29
532.82	37338.57
532.99	37088.13
533.16	37153.66
533.33	37518.79
533.50	37408.78
533.67	37413.46
533.84	37453.25
534.01	37324.52
534.18	37865.19
534.35	37738.80
534.52	38117.96
534.69	38066.47
534.86	38045.41
535.03	38146.05
535.20	38398.83
535.37	37961.15
535.54	38019.66
535.71	38085.20
535.88	38075.84
536.05	38546.28
536.22	38712.46
536.38	38295.85
536.55	38349.68
536.72	38092.22
536.89	38080.52
537.06	38745.23
537.23	38810.76
537.40	38244.35
537.57	38216.27
537.74	38391.81
537.91	39096.31
538.08	38429.26
538.25	38677.35
538.42	38483.09
538.59	39168.87
538.75	38916.09
538.92	38843.53
539.09	39332.70
539.26	39229.72
539.43	39014.39
539.60	39580.80
539.77	39503.56
539.94	39583.14
540.11	39632.29
540.28	39496.54
540.44	39562.08
540.61	39421.64
540.78	39466.11
540.95	39473.13
541.12	39253.12
541.29	39690.80
541.46	39817.19
541.62	39576.12
541.79	39728.25
541.96	39309.30
542.13	39042.48
542.30	40034.86
542.47	40205.72
542.63	40407.01
542.80	40559.14
542.97	40297.00
543.14	40488.93
543.31	40542.76
543.48	40664.47
543.64	40968.74
543.81	40748.73
543.98	40896.18
544.15	40692.55
544.32	40634.04
544.48	41181.73
544.65	40753.41
544.82	40823.62
544.99	40924.27
545.16	41015.55
545.32	40760.43
545.49	41191.09
545.66	41794.95
545.83	41207.47
546.00	41460.25
546.16	41214.49
546.33	40788.52
546.50	40828.30
546.67	41542.17
546.83	40634.04
547.00	41354.93
547.17	41055.34
547.34	41055.34
547.50	41713.03
547.67	41528.13
547.84	41280.03
548.00	41570.25
548.17	42054.75
548.34	41563.23
548.51	41851.12
548.67	41996.23
548.84	42106.24
549.01	41724.73
549.18	41572.60
549.34	41940.06
549.51	42106.24
549.68	41996.23
549.84	42288.80
550.01	42054.75
550.18	41881.55
550.34	41759.84
550.51	42108.58
550.68	42433.91
550.84	42309.86
551.01	42555.62
551.18	42199.86
551.34	42061.77
551.51	42204.54
551.68	42129.64
551.84	42426.89
552.01	42548.60
552.18	42422.21
552.34	42351.99
552.51	42527.53
552.68	41935.38
552.84	42548.60
553.01	43086.92
553.18	42494.77
553.34	42817.76
553.51	42375.40
553.67	42333.27
553.84	43182.88
554.01	43005.00
554.17	42913.72
554.34	43356.08
554.51	43037.77
554.67	43213.31
554.84	43494.18
555.00	43281.19
555.17	42955.85
555.33	43306.93
555.50	43051.81
555.67	43243.74
555.83	43620.56
556.00	42906.70
556.16	43646.31
556.33	43503.54
556.50	43491.83
556.66	43103.31
556.83	43283.53
556.99	43819.51
557.16	43695.46
557.32	43487.15
557.49	43896.75
557.65	43093.94
557.82	43650.99
557.98	43643.97
558.15	43569.07
558.32	44018.46
558.48	43585.46
558.65	43988.03
558.81	43660.35
558.98	43782.06
559.14	43805.47
559.31	44023.14
559.47	44088.67
559.64	44013.77
559.80	43817.17
559.97	44301.66
560.13	43667.37
560.30	43768.02
560.46	44114.42
560.63	43856.96
560.79	44463.16
560.96	44430.39
561.12	44041.86
561.29	44421.03
561.45	44584.86
561.61	43922.49
561.78	44261.87
561.94	44451.45
562.11	44222.08
562.27	44250.17
562.44	44903.18
562.60	44629.34
562.77	44650.40
562.93	44458.48
563.10	44589.55
563.26	44432.73
563.42	44935.95
563.59	44334.43
563.75	44210.38
563.92	44416.35
564.08	44879.77
564.24	44722.96
564.41	44804.88
564.57	44741.68
564.74	44425.71
564.90	44521.67
565.07	44491.24
565.23	44477.20
565.39	44804.88
565.56	45003.82
565.72	44580.18
565.88	44683.17
566.05	44732.32
566.21	44982.76
566.38	44524.01
566.54	45036.59
566.70	45116.17
566.87	45230.85
567.03	44524.01
567.19	44786.15
567.36	44371.88
567.52	44828.28
567.68	44903.18
567.85	44844.66
568.01	45258.94
568.17	44500.61
568.34	45027.23
568.50	45158.30
568.66	44973.39
568.83	44641.04
568.99	45010.84
569.15	45148.93
569.32	44987.44
569.48	44985.10
569.64	45319.79
569.81	45064.67
569.97	45219.15
570.13	45106.80
570.30	44662.10
570.46	44954.67
570.62	45467.25
570.78	44877.43
570.95	45223.83
571.11	45514.06
571.27	45427.46
571.43	44928.92
571.60	45879.18
571.76	45249.58
571.92	45020.20
572.09	45308.09
572.25	45701.30
572.41	44636.36
572.57	45132.55
572.74	45661.51
572.90	45301.07
573.06	45352.56
573.22	45343.20
573.38	45411.07
573.55	45406.39
573.71	45612.36
573.87	45755.13
574.03	45202.77
574.20	45649.81
574.36	45509.38
574.52	45553.85
574.68	45645.13
574.84	45715.34
575.01	45560.87
575.17	45785.56
575.33	45780.88
575.49	45390.01
575.65	45443.84
575.82	45418.10
575.98	45427.46
576.14	45684.92
576.30	45141.91
576.46	45666.19
576.62	45661.51
576.79	45315.11
576.95	45099.78
577.11	45371.28
577.27	45624.06
577.43	45689.60
577.59	45588.95
577.75	45434.48
577.92	45619.38
578.08	45921.31
578.24	45921.31
578.40	46012.59
578.56	45820.67
578.72	46160.05
578.88	45815.99
579.04	45998.55
579.21	45645.13
579.37	45687.26
579.53	45745.77
579.69	45511.72
579.85	45588.95
580.01	45656.83
580.17	45158.30
580.33	45787.90
580.49	45876.84
580.65	45764.49
580.82	45500.01
580.98	45427.46
581.14	45542.14
581.30	45598.32
581.46	45853.44
581.62	45504.70
581.78	45373.63
581.94	46087.49
582.10	45928.33
582.26	45656.83
582.42	46181.11
582.58	45514.06
582.74	45851.09
582.90	45619.38
583.06	45635.77
583.22	45778.54
583.38	45764.49
583.54	45991.53
583.70	45977.48
583.86	45844.07
584.02	45633.42
584.18	45937.69
584.34	46391.76
584.50	46171.75
584.66	46433.89
584.82	45823.01
584.98	46436.23
585.14	46436.23
585.30	45897.91
585.46	45916.63
585.62	45841.73
585.78	45790.24
585.94	45790.24
586.10	45729.39
586.26	45656.83
586.42	45787.90
586.58	45996.21
586.74	46012.59
586.90	45956.42
587.06	46068.76
587.22	46286.43
587.38	45914.29
587.54	46347.29
587.70	46148.34
587.86	46000.89
588.02	46464.32
588.18	46050.04
588.34	46110.89
588.49	46012.59
588.65	45766.84
588.81	45846.41
588.97	46082.81
589.13	46263.03
589.29	46059.40
589.45	46267.71
589.61	46347.29
589.77	46380.06
589.93	46270.05
590.08	46307.50
