SpectraSuite Data File
++++++++++++++++++++++++++++++++++++
Date: Fri Oct 25 11:33:23 EDT 2013
User: price-jones
Dark Spectrum Present: No
Reference Spectrum Present: No
Number of Sampled Component Spectra: 1
Spectrometers: USB2+H05261
Integration Time (usec): 100000 (USB2+H05261)
Spectra Averaged: 1 (USB2+H05261)
Boxcar Smoothing: 0 (USB2+H05261)
Correct for Electrical Dark: No (USB2+H05261)
Strobe/Lamp Enabled: No (USB2+H05261)
Correct for Detector Non-linearity: No (USB2+H05261)
Correct for Stray Light: No (USB2+H05261)
Number of Pixels in Processed Spectrum: 2048
>>>>>Begin Processed Spectral Data<<<<<
365.73	264.48
365.92	264.48
366.12	264.48
366.32	257.46
366.52	238.73
366.72	142.77
366.91	126.39
367.11	236.39
367.31	182.56
367.51	189.58
367.70	145.11
367.90	180.22
368.10	170.86
368.30	191.92
368.49	177.88
368.69	194.26
368.89	203.63
369.09	224.69
369.28	215.33
369.48	231.71
369.68	234.05
369.87	234.05
370.07	168.52
370.27	259.80
370.47	301.93
370.66	507.90
370.86	538.32
371.06	561.73
371.25	533.64
371.45	566.41
371.65	547.69
371.84	531.30
372.04	533.64
372.24	550.03
372.44	557.05
372.63	608.54
372.83	545.34
373.03	608.54
373.22	575.77
373.42	608.54
373.62	692.80
373.81	592.16
374.01	699.82
374.21	634.29
374.40	634.29
374.60	587.47
374.79	587.47
374.99	702.16
375.19	617.90
375.38	622.58
375.58	671.73
375.78	697.48
375.97	716.20
376.17	699.82
376.37	636.63
376.56	678.76
376.76	683.44
376.95	732.59
377.15	688.12
377.35	690.46
377.54	760.67
377.74	669.39
377.93	636.63
378.13	748.97
378.33	674.07
378.52	709.18
378.72	793.44
378.91	732.59
379.11	702.16
379.31	706.84
379.50	678.76
379.70	763.01
379.89	861.32
380.09	758.33
380.28	706.84
380.48	739.61
380.68	774.72
380.87	791.10
381.07	774.72
381.26	763.01
381.46	765.36
381.65	800.46
381.85	809.83
382.04	744.29
382.24	798.12
382.43	793.44
382.63	720.88
382.83	739.61
383.02	779.40
383.22	770.04
383.41	781.74
383.61	798.12
383.80	851.96
384.00	777.06
384.19	772.38
384.39	784.08
384.58	903.45
384.78	819.19
384.97	763.01
385.17	809.83
385.36	784.08
385.56	823.87
385.75	894.08
385.95	777.06
386.14	917.49
386.34	908.13
386.53	863.66
386.72	887.06
386.92	915.15
387.11	1001.75
387.31	889.40
387.50	922.17
387.70	924.51
387.89	903.45
388.09	809.83
388.28	952.60
388.48	873.02
388.67	964.30
388.86	844.93
389.06	931.53
389.25	837.91
389.45	952.60
389.64	976.00
389.84	1011.11
390.03	957.28
390.22	910.47
390.42	1032.18
390.61	926.85
390.81	990.05
391.00	997.07
391.19	1013.45
391.39	1015.79
391.58	997.07
391.78	980.68
391.97	1071.97
392.16	1034.52
392.36	1090.69
392.55	1020.47
392.75	1090.69
392.94	1090.69
393.13	1107.07
393.33	1048.56
393.52	1088.35
393.71	1130.48
393.91	1043.88
394.10	1043.88
394.29	1146.86
394.49	1053.24
394.68	1104.73
394.88	1111.75
395.07	1273.25
395.26	1135.16
395.46	1153.88
395.65	1186.65
395.84	1224.10
396.04	1170.27
396.23	1130.48
396.42	1165.59
396.62	1284.95
396.81	1275.59
397.00	1247.51
397.19	1177.29
397.39	1156.22
397.58	1245.16
397.77	1221.76
397.97	1226.44
398.16	1163.25
398.35	1247.51
398.55	1198.35
398.74	1259.21
398.93	1362.19
399.12	1306.02
399.32	1355.17
399.51	1322.40
399.70	1427.73
399.90	1338.79
400.09	1350.49
400.28	1425.39
400.47	1282.61
400.67	1416.02
400.86	1418.36
401.05	1362.19
401.24	1345.81
401.44	1413.68
401.63	1474.54
401.82	1561.14
402.01	1533.05
402.21	1439.43
402.40	1458.15
402.59	1544.75
402.78	1413.68
402.97	1516.67
403.17	1551.78
403.36	1617.31
403.55	1556.46
403.74	1596.25
403.93	1647.74
404.13	1652.42
404.32	1598.59
404.51	1727.32
404.70	1582.20
404.89	1636.03
405.09	1661.78
405.28	1729.66
405.47	1591.56
405.66	1638.38
405.85	1750.72
406.05	1741.36
406.24	1715.61
406.43	1682.85
406.62	1783.49
406.81	1834.98
407.00	1797.53
407.20	1827.96
407.39	1736.68
407.58	1830.30
407.77	1944.99
407.96	1884.13
408.15	1898.17
408.34	1870.09
408.54	1874.77
408.73	1874.77
408.92	1968.39
409.11	1825.62
409.30	1966.05
409.49	1998.82
409.68	2003.50
409.87	2064.35
410.07	2071.37
410.26	2099.46
410.45	2033.93
410.64	2165.00
410.83	2078.40
411.02	1935.62
411.21	2228.19
411.40	2209.47
411.59	2321.81
411.78	2207.13
411.98	2289.04
412.17	2279.68
412.36	2300.75
412.55	2389.69
412.74	2349.90
412.93	2363.94
413.12	2232.87
413.31	2410.75
413.50	2406.07
413.69	2452.88
413.88	2539.48
414.07	2455.22
414.26	2476.29
414.45	2572.25
414.64	2574.59
414.83	2567.57
415.02	2642.46
415.22	2616.72
415.41	2644.81
415.60	2696.30
415.79	2619.06
415.98	2733.75
416.17	2857.79
416.36	2637.78
416.55	2771.19
416.74	2780.56
416.93	2750.13
417.12	2944.39
417.31	2810.98
417.50	2904.60
417.69	2977.16
417.88	3033.33
418.07	2979.50
418.26	2953.76
418.45	2970.14
418.64	3082.49
418.83	3002.91
419.02	3084.83
419.21	3232.28
419.39	3117.59
419.58	3117.59
419.77	3138.66
419.96	3178.45
420.15	3187.81
420.34	3159.72
420.53	3258.03
420.72	3276.75
420.91	3370.37
421.10	3325.90
421.29	3339.94
421.48	3286.11
421.67	3309.52
421.86	3368.03
422.05	3393.78
422.24	3328.24
422.43	3229.94
422.61	3375.05
422.80	3426.54
422.99	3452.29
423.18	3435.91
423.37	3473.36
423.56	3503.78
423.75	3496.76
423.94	3353.99
424.13	3112.91
424.32	3328.24
424.50	3459.31
424.69	3557.61
424.88	3630.17
425.07	3428.88
425.26	3454.63
425.45	3435.91
425.64	3466.33
425.83	3545.91
426.01	3503.78
426.20	3461.65
426.39	3536.55
426.58	3452.29
426.77	3520.17
426.96	3585.70
427.15	3529.53
427.33	3510.80
427.52	3541.23
427.71	3599.74
427.90	3667.62
428.09	3716.77
428.28	3595.06
428.46	3735.50
428.65	3667.62
428.84	3768.26
429.03	3812.73
429.22	3803.37
429.40	3763.58
429.59	3747.20
429.78	3592.72
429.97	3665.28
430.16	3775.28
430.34	3941.46
430.53	3885.29
430.72	4011.68
430.91	3861.88
431.10	3901.67
431.28	3995.29
431.47	3936.78
431.66	4065.51
431.85	3850.18
432.03	4002.32
432.22	4065.51
432.41	4070.19
432.60	4081.89
432.79	4133.39
432.97	4217.65
433.16	4161.47
433.35	4196.58
433.54	4128.70
433.72	4177.86
433.91	4086.58
434.10	4175.52
434.28	4210.62
434.47	4437.66
434.66	4388.50
434.85	4231.69
435.03	4306.59
435.22	4456.38
435.41	4383.82
435.59	4255.09
435.78	4372.12
435.97	4365.10
436.16	4582.77
436.34	4470.42
436.53	4444.68
436.72	4596.81
436.90	4435.32
437.09	4587.45
437.28	4528.94
437.46	4561.70
437.65	4765.33
437.84	4758.31
438.02	4615.54
438.21	4732.56
438.40	4652.98
438.58	4744.27
438.77	4915.12
438.96	4823.84
439.14	4877.68
439.33	4826.18
439.52	4936.19
439.70	4887.04
439.89	5036.83
440.08	5008.75
440.26	5217.05
440.45	4952.57
440.63	5181.95
440.82	5210.03
441.01	5083.64
441.19	4987.68
441.38	5320.04
441.57	5296.63
441.75	5338.76
441.94	5439.40
442.12	5511.96
442.31	5394.93
442.50	5392.59
442.68	5401.96
442.87	5385.57
443.05	5549.41
443.24	5643.03
443.43	5645.37
443.61	5645.37
443.80	5614.95
443.98	5408.98
444.17	5500.26
444.35	5680.48
444.54	5734.31
444.73	5729.63
444.91	5638.35
445.10	5746.02
445.28	5603.24
445.47	5633.67
445.65	5825.59
445.84	5657.07
446.02	5858.36
446.21	5713.25
446.39	5895.81
446.58	5783.46
446.77	5797.51
446.95	5523.66
447.14	5771.76
447.32	5792.83
447.51	5778.78
447.69	5750.70
447.88	5813.89
448.06	5984.75
448.25	5982.41
448.43	5860.70
448.62	5610.26
448.80	5774.10
448.99	6076.03
449.17	5977.73
449.36	5710.91
449.54	6015.18
449.73	5954.32
449.91	6207.10
450.10	6113.48
450.28	6139.23
450.46	6153.27
450.65	6087.73
450.83	6274.98
451.02	5956.66
451.20	6282.00
451.39	6277.32
451.57	6235.19
451.76	6083.05
451.94	6174.33
452.13	6349.87
452.31	6356.90
452.49	6274.98
452.68	6195.40
452.86	6296.04
453.05	6438.81
453.23	6296.04
453.42	6352.21
453.60	6272.64
453.78	6803.94
453.97	6466.90
454.15	6473.92
454.34	6354.55
454.52	6511.37
454.70	6532.44
454.89	6525.41
455.07	6637.76
455.26	6761.81
455.44	6747.76
455.62	6693.93
455.81	6855.43
455.99	6729.04
456.17	6904.58
456.36	6839.05
456.54	6927.99
456.73	6965.43
456.91	7028.63
457.09	7199.49
457.28	7187.79
457.46	7047.35
457.64	7187.79
457.83	6986.50
458.01	6932.67
458.19	7248.64
458.38	7115.23
458.56	7023.95
458.74	7131.61
458.93	7103.53
459.11	7227.57
459.29	7265.02
459.48	7307.15
459.66	7255.66
459.84	7375.03
460.03	7494.40
460.21	7417.16
460.39	7557.59
460.57	7368.01
460.76	7576.31
460.94	7452.27
461.12	7618.44
461.31	7733.13
461.49	7543.55
461.67	7470.99
461.85	7679.30
462.04	7592.70
462.22	8177.83
462.40	7976.55
462.59	7733.13
462.77	7829.09
462.95	8044.42
463.13	7744.83
463.32	7847.82
463.50	7847.82
463.68	8105.28
463.86	7981.23
464.05	7918.03
464.23	7948.46
464.41	8016.33
464.59	7822.07
464.78	8215.28
464.96	7981.23
465.14	8018.68
465.32	8173.15
465.50	8161.45
465.69	8234.00
465.87	8161.45
466.05	8121.66
466.23	8348.69
466.41	8435.29
466.60	8500.83
466.78	8156.77
466.96	8351.03
467.14	8196.56
467.32	8360.39
467.51	8542.96
467.69	8149.75
467.87	8304.22
468.05	8580.40
468.23	8425.93
468.41	8468.06
468.60	8479.76
468.78	8528.91
468.96	8535.93
469.14	8372.10
469.32	8596.79
469.50	8617.85
469.69	8610.83
469.87	8762.97
470.05	8863.61
470.23	8910.42
470.41	8889.35
470.59	8938.51
470.77	8889.35
470.95	8982.98
471.14	9041.49
471.32	8997.02
471.50	9160.86
471.68	9240.44
471.86	9179.58
472.04	9228.73
472.22	9619.60
472.40	9151.49
472.58	9432.36
472.77	9392.57
472.95	9465.13
473.13	9563.43
473.31	9303.63
473.49	9448.74
473.67	9528.32
473.85	9586.83
474.03	9760.03
474.21	9757.69
474.39	10012.81
474.57	9750.67
474.75	9767.06
474.93	10127.50
475.12	10115.80
475.30	10080.69
475.48	10045.58
475.66	10253.89
475.84	9956.64
476.02	10260.91
476.20	10160.27
476.38	10410.70
476.56	10391.98
476.74	10766.46
476.92	10581.56
477.10	10565.18
477.28	10626.03
477.46	10757.10
477.64	10689.23
477.82	11211.17
478.00	11363.30
478.18	11229.89
478.36	11297.77
478.54	11463.94
478.72	11634.80
478.90	11669.91
479.08	11555.22
479.26	11754.17
479.44	11808.00
479.62	11946.09
479.80	12074.82
479.98	12119.29
480.16	12301.86
480.34	12039.72
480.52	12411.86
480.70	12397.82
480.88	12400.16
481.06	12475.06
481.24	12442.29
481.41	12919.76
481.59	12896.35
481.77	12861.24
481.95	12936.14
482.13	13111.68
482.31	13099.98
482.49	13483.83
482.67	13570.43
482.85	13582.13
483.03	13687.45
483.21	13855.97
483.39	13778.73
483.57	13785.76
483.74	13748.31
483.92	13846.61
484.10	13919.17
484.28	14537.07
484.46	14764.10
484.64	14815.59
484.82	14590.90
485.00	14689.20
485.18	14934.96
485.35	15295.40
485.53	15101.14
485.71	15197.10
485.89	15805.64
486.07	15452.22
486.25	15611.37
486.43	15786.91
486.61	15775.21
486.78	15887.56
486.96	16224.59
487.14	16355.66
487.32	16245.66
487.50	16126.29
487.68	16472.69
487.85	16798.02
488.03	16800.37
488.21	17137.40
488.39	16999.31
488.57	17252.09
488.75	17287.20
488.92	17699.13
489.10	17673.39
489.28	17605.51
489.46	17626.57
489.64	17930.84
489.81	18190.64
489.99	18263.20
490.17	18588.53
490.35	18583.85
490.53	18600.24
490.70	19094.09
490.88	18916.21
491.06	19122.18
491.24	19232.18
491.41	19229.84
491.59	19536.45
491.77	19435.81
491.95	19648.80
492.13	19822.00
492.30	19719.01
492.48	19522.41
492.66	19836.04
492.84	20170.74
493.01	20418.83
493.19	20173.08
493.37	20517.14
493.54	20713.74
493.72	20847.15
493.90	20833.11
494.08	20835.45
494.25	21128.02
494.43	21060.14
494.61	21273.13
494.79	21680.38
494.96	21404.20
495.14	21488.46
495.32	21504.84
495.49	21881.67
495.67	21891.03
495.85	22022.10
496.02	22518.29
496.20	22295.94
496.38	22532.34
496.55	22958.31
496.73	22885.76
496.91	22932.57
497.09	22918.53
497.26	23236.84
497.44	23126.83
497.62	23316.42
497.79	23522.38
497.97	23775.16
498.14	23828.99
498.32	23709.63
498.50	23597.28
498.67	23814.95
498.85	24159.01
499.03	24297.10
499.20	24360.30
499.38	24629.46
499.56	24463.28
499.73	24858.83
499.91	24725.42
500.08	25202.89
500.26	24854.15
500.44	24973.52
500.61	25010.96
500.79	25001.60
500.97	25408.86
501.14	25919.09
501.32	25460.35
501.49	25827.81
501.67	25692.06
501.84	25942.50
502.02	26029.10
502.20	25926.11
502.37	26237.41
502.55	25982.29
502.72	26054.84
502.90	26216.34
503.07	26307.62
503.25	26672.74
503.43	26001.01
503.60	26651.68
503.78	26298.26
503.95	26822.54
504.13	27035.53
504.30	26806.16
504.48	26892.76
504.65	27035.53
504.83	27201.71
505.01	26939.57
505.18	27285.97
505.36	27541.08
505.53	27398.31
505.71	27590.24
505.88	27903.87
506.06	27379.59
506.23	28060.68
506.41	27847.69
506.58	27903.87
506.76	27852.38
506.93	28093.45
507.11	28357.93
507.28	28240.90
507.46	28716.03
507.63	28346.23
507.81	28694.97
507.98	28521.77
508.16	28568.58
508.33	28669.22
508.50	29130.31
508.68	28826.04
508.85	29202.86
509.03	29219.25
509.20	29465.00
509.38	29905.02
509.55	29624.16
509.73	29572.67
509.90	29823.11
510.08	29909.71
510.25	30012.69
510.42	29839.49
510.60	29909.71
510.77	30209.29
510.95	30349.73
511.12	30101.63
511.30	30389.52
511.47	30590.80
511.64	30232.70
511.82	30705.49
511.99	30476.12
512.17	30352.07
512.34	30672.72
512.51	31241.47
512.69	31220.41
512.86	31068.27
513.04	31063.59
513.21	31489.57
513.38	31290.62
513.56	31344.45
513.73	31061.25
513.90	31625.32
514.08	31365.52
514.25	31887.46
514.43	31971.72
514.60	32032.57
514.77	31749.37
514.95	31948.31
515.12	31821.92
515.29	31814.90
515.47	32102.79
515.64	32236.20
515.81	32149.60
515.99	32355.57
516.16	32676.22
516.33	32446.85
516.51	32741.75
516.68	32587.28
516.85	32704.31
517.03	32716.01
517.20	33102.20
517.37	32982.83
517.54	33453.28
517.72	33235.61
517.89	33102.20
518.06	33006.23
518.24	33013.26
518.41	33160.71
518.58	33144.33
518.75	33507.11
518.93	34017.35
519.10	33668.61
519.27	33972.88
519.45	33771.59
519.62	34167.14
519.79	34012.66
519.96	33717.76
520.14	34244.38
520.31	34047.77
520.48	34171.82
520.65	34518.22
520.83	34869.30
521.00	34871.64
521.17	34651.63
521.34	34469.07
521.52	34806.11
521.69	34569.71
521.86	34916.11
522.03	35225.06
522.20	35297.62
522.38	35665.08
522.55	35529.33
522.72	35166.55
522.89	35838.28
523.07	36196.38
523.24	35491.88
523.41	35470.82
523.58	35566.78
523.75	35702.53
523.92	35625.29
524.10	35681.47
524.27	36046.59
524.44	36055.95
524.61	36149.57
524.78	36212.77
524.96	36266.60
525.13	36723.01
525.30	36126.17
525.47	36219.79
525.64	36231.49
525.81	36542.78
525.98	36879.82
526.16	36367.24
526.33	36760.45
526.50	36954.72
526.67	36685.56
526.84	36917.27
527.01	36985.15
527.18	37141.96
527.36	37144.30
527.53	37151.32
527.70	37394.74
527.87	37745.82
528.04	37207.50
528.21	37429.85
528.38	37366.65
528.55	37670.92
528.72	37420.48
528.89	37249.63
529.07	37390.06
529.24	37605.39
529.41	37956.47
529.58	37560.92
529.75	37951.79
529.92	37860.51
530.09	38127.33
530.26	37874.55
530.43	37930.72
530.60	37834.76
530.77	37968.17
530.94	38281.80
531.11	38082.86
531.28	38330.95
531.46	38497.13
531.63	38792.04
531.80	38124.99
531.97	38829.49
532.14	38513.52
532.31	38604.80
532.48	38665.65
532.65	38953.54
532.82	38721.82
532.99	38576.71
533.16	38852.89
533.33	38841.19
533.50	39253.12
533.67	39096.31
533.84	39131.42
534.01	38939.49
534.18	39421.64
534.35	39643.99
534.52	39473.13
534.69	39826.56
534.86	39594.84
535.03	39416.96
535.20	39625.27
535.37	39838.26
535.54	39732.93
535.71	39871.03
535.88	39789.11
536.05	40306.37
536.22	40191.68
536.38	40062.95
536.55	39901.45
536.72	39864.00
536.89	40208.06
537.06	40158.91
537.23	40701.92
537.40	40287.64
537.57	40158.91
537.74	40177.64
537.91	40528.72
538.08	40659.79
538.25	40201.04
538.42	40439.78
538.59	41177.04
538.75	40575.53
538.92	41083.42
539.09	41010.87
539.26	41003.85
539.43	40884.48
539.60	41141.94
539.77	41125.55
539.94	41092.79
540.11	41088.10
540.28	40975.76
540.44	40760.43
540.61	41254.28
540.78	41287.05
540.95	41116.19
541.12	41151.30
541.29	41383.01
541.46	41230.88
541.62	41546.85
541.79	41610.04
541.96	41017.89
542.13	41315.14
542.30	41078.74
542.47	41572.60
542.63	41720.05
542.80	41713.03
542.97	42150.71
543.14	42328.59
543.31	42160.07
543.48	42312.20
543.64	42370.72
543.81	42419.87
543.98	42157.73
544.15	42157.73
544.32	42670.31
544.48	43033.09
544.65	42581.37
544.82	42597.75
544.99	42382.42
545.16	42969.90
545.32	42873.93
545.49	42979.26
545.66	43054.15
545.83	42932.45
546.00	43000.32
546.16	42078.15
546.33	42904.36
546.50	42843.51
546.67	43154.80
546.83	42719.46
547.00	42747.54
547.17	43239.06
547.34	43281.19
547.50	43407.58
547.67	43597.16
547.84	43257.78
548.00	42909.04
548.17	43608.86
548.34	43452.05
548.51	43639.29
548.67	43643.97
548.84	43503.54
549.01	43695.46
549.18	43796.10
549.34	43639.29
549.51	44009.09
549.68	44053.56
549.84	43847.60
550.01	43917.81
550.18	43276.51
550.34	43959.94
550.51	44371.88
550.68	44376.56
550.84	43871.00
551.01	44098.03
551.18	43871.00
551.34	44334.43
551.51	44502.95
551.68	44226.76
551.84	44495.92
552.01	43934.20
552.18	44449.11
552.34	44395.28
552.51	44491.24
552.68	44364.85
552.84	44217.40
553.01	44069.95
553.18	44233.78
553.34	44484.22
553.51	44121.44
553.67	44566.14
553.84	44645.72
554.01	44924.24
554.17	44507.63
554.34	44748.70
554.51	44584.86
554.67	45010.84
554.84	44755.72
555.00	44718.28
555.17	44868.07
555.33	45134.89
555.50	44608.27
555.67	45001.48
555.83	45165.32
556.00	44591.89
556.16	45663.85
556.33	45141.91
556.50	44835.30
556.66	45420.44
556.83	45200.43
556.99	45406.39
557.16	45254.26
557.32	45549.17
557.49	45675.55
557.65	45418.10
557.82	45450.86
557.98	45628.74
558.15	45364.26
558.32	45755.13
558.48	45375.97
558.65	45808.96
558.81	45333.84
558.98	45399.37
559.14	45687.26
559.31	45563.21
559.47	45787.90
559.64	45897.91
559.80	45731.73
559.97	46153.02
560.13	45710.66
560.30	45425.12
560.46	46279.41
560.63	45951.74
560.79	46169.41
560.96	46541.55
561.12	46621.13
561.29	46251.33
561.45	46342.61
561.61	46209.20
561.78	46328.56
561.94	45736.41
562.11	46003.23
562.27	46183.45
562.44	46036.00
562.60	46361.33
562.77	46059.40
562.93	45771.52
563.10	46351.97
563.26	46419.84
563.42	46555.60
563.59	46377.72
563.75	46241.96
563.92	46405.80
564.08	46267.71
564.24	46103.87
564.41	46389.42
564.57	46354.31
564.74	46536.87
564.90	46576.66
565.07	46141.32
565.23	46424.53
565.39	46225.58
565.56	46527.51
565.72	46497.08
565.88	46782.63
566.05	46302.82
566.21	46532.19
566.38	46124.94
566.54	46504.10
566.70	46656.24
566.87	46553.26
567.03	46328.56
567.19	46660.92
567.36	46586.02
567.52	46443.25
567.68	47437.98
567.85	46454.95
568.01	47232.01
568.17	46789.65
568.34	46686.67
568.50	46679.64
568.66	46557.94
568.83	46784.97
568.99	46546.23
569.15	46824.76
569.32	47103.28
569.48	46693.69
569.64	46625.81
569.81	47023.70
569.97	46937.10
570.13	46955.83
570.30	46644.54
570.46	46990.94
570.62	46799.01
570.78	46892.63
570.95	46686.67
571.11	47227.33
571.27	46862.21
571.43	46944.12
571.60	46990.94
571.76	46845.82
571.92	46873.91
572.09	47129.03
572.25	47208.61
572.41	47290.52
572.57	47112.64
572.74	47622.88
572.90	47227.33
573.06	46976.89
573.22	47199.24
573.38	47210.95
573.55	47440.32
573.71	47615.86
573.87	47571.39
574.03	47157.11
574.20	47040.09
574.36	47344.36
574.52	47327.97
574.68	47447.34
574.84	47288.18
575.01	47313.93
575.17	47716.50
575.33	47110.30
575.49	46684.33
575.65	47482.45
575.82	47536.28
575.98	47257.76
576.14	47540.96
576.30	47585.43
576.46	47606.50
576.62	47374.78
576.79	47208.61
576.95	47129.03
577.11	47402.87
577.27	47634.58
577.43	47400.53
577.59	47386.49
577.75	47019.02
577.92	47337.33
578.08	47512.88
578.24	47332.65
578.40	47777.36
578.56	47583.09
578.72	47250.74
578.88	47351.38
579.04	46941.78
579.21	47264.78
579.37	47501.17
579.53	47494.15
579.69	47540.96
579.85	47391.17
580.01	47318.61
580.17	47196.90
580.33	47562.03
580.49	47700.12
580.65	46976.89
580.82	47578.41
580.98	47234.35
581.14	46859.87
581.30	47721.18
581.46	47564.37
581.62	47353.72
581.78	47299.89
581.94	47409.89
582.10	47632.24
582.26	47931.83
582.42	47590.11
582.58	47735.23
582.74	47594.79
582.90	47356.06
583.06	47676.71
583.22	47412.23
583.38	47742.25
583.54	47873.32
583.70	47742.25
583.86	47992.68
584.02	47386.49
584.18	47508.19
584.34	47817.14
584.50	47873.32
584.66	47980.98
584.82	47964.60
584.98	48114.39
585.14	47770.33
585.30	47435.64
585.46	47859.27
585.62	47463.72
585.78	48109.71
585.94	47496.49
586.10	47578.41
586.26	47580.75
586.42	47840.55
586.58	47821.83
586.74	47482.45
586.90	47547.98
587.06	47391.17
587.22	47934.17
587.38	47547.98
587.54	48112.05
587.70	47892.04
587.86	47760.97
588.02	47772.67
588.18	47597.13
588.34	47915.45
588.49	47938.85
588.65	47931.83
588.81	47983.32
588.97	48154.18
589.13	47868.64
589.29	47849.91
589.45	48329.72
589.61	47718.84
589.77	47903.74
589.93	47791.40
