SpectraSuite Data File
++++++++++++++++++++++++++++++++++++
Date: Fri Oct 25 11:26:34 EDT 2013
User: price-jones
Dark Spectrum Present: No
Reference Spectrum Present: No
Number of Sampled Component Spectra: 1
Spectrometers: USB2+H05261
Integration Time (usec): 100000 (USB2+H05261)
Spectra Averaged: 1 (USB2+H05261)
Boxcar Smoothing: 0 (USB2+H05261)
Correct for Electrical Dark: No (USB2+H05261)
Strobe/Lamp Enabled: No (USB2+H05261)
Correct for Detector Non-linearity: No (USB2+H05261)
Correct for Stray Light: No (USB2+H05261)
Number of Pixels in Processed Spectrum: 2048
>>>>>Begin Processed Spectral Data<<<<<
365.73	252.78
365.92	252.78
366.12	252.78
366.32	201.29
366.52	189.58
366.72	159.16
366.91	110.01
367.11	175.54
367.31	191.92
367.51	149.79
367.70	100.64
367.90	152.13
368.10	100.64
368.30	156.82
368.49	140.43
368.69	152.13
368.89	161.50
369.09	145.11
369.28	117.03
369.48	210.65
369.68	177.88
369.87	222.35
370.07	189.58
370.27	248.10
370.47	292.57
370.66	662.37
370.86	678.76
371.06	615.56
371.25	697.48
371.45	617.90
371.65	697.48
371.84	688.12
372.04	667.05
372.24	620.24
372.44	739.61
372.63	713.86
372.83	798.12
373.03	678.76
373.22	781.74
373.42	751.31
373.62	741.95
373.81	791.10
374.01	805.14
374.21	842.59
374.40	863.66
374.60	877.70
374.79	830.89
374.99	894.08
375.19	826.21
375.38	870.68
375.58	854.30
375.78	905.79
375.97	858.98
376.17	882.38
376.37	826.21
376.56	882.38
376.76	858.98
376.95	887.06
377.15	912.81
377.35	933.87
377.54	889.40
377.74	919.83
377.93	905.79
378.13	889.40
378.33	884.72
378.52	959.62
378.72	945.58
378.91	1015.79
379.11	966.64
379.31	847.27
379.50	940.90
379.70	933.87
379.89	978.34
380.09	1041.54
380.28	959.62
380.48	1027.50
380.68	968.98
380.87	1006.43
381.07	1004.09
381.26	1013.45
381.46	1095.37
381.65	971.32
381.85	1060.26
382.04	1123.46
382.24	1090.69
382.43	1123.46
382.63	1036.86
382.83	1062.60
383.02	1128.14
383.22	1196.01
383.41	1172.61
383.61	1081.33
383.80	1174.95
384.00	1050.90
384.19	1139.84
384.39	1172.61
384.58	1123.46
384.78	1207.72
384.97	1088.35
385.17	1100.05
385.36	1100.05
385.56	1156.22
385.75	1181.97
385.95	1174.95
386.14	1151.54
386.34	1203.04
386.53	1205.38
386.72	1221.76
386.92	1231.12
387.11	1156.22
387.31	1219.42
387.50	1210.06
387.70	1200.69
387.89	1280.27
388.09	1261.55
388.28	1259.21
388.48	1390.28
388.67	1362.19
388.86	1352.83
389.06	1378.58
389.25	1371.55
389.45	1334.11
389.64	1341.13
389.84	1423.05
390.03	1427.73
390.22	1369.21
390.42	1355.17
390.61	1366.87
390.81	1376.24
391.00	1420.71
391.19	1413.68
391.39	1448.79
391.58	1446.45
391.78	1399.64
391.97	1460.49
392.16	1519.01
392.36	1582.20
392.55	1596.25
392.75	1467.52
392.94	1474.54
393.13	1593.90
393.33	1526.03
393.52	1554.12
393.71	1624.33
393.91	1657.10
394.10	1528.37
394.29	1621.99
394.49	1537.73
394.68	1673.48
394.88	1661.78
395.07	1687.53
395.26	1666.46
395.46	1703.91
395.65	1757.74
395.84	1753.06
396.04	1853.70
396.23	1673.48
396.42	1685.19
396.62	1771.79
396.81	1682.85
397.00	1771.79
397.19	1795.19
397.39	1797.53
397.58	1839.66
397.77	1722.63
397.97	1856.04
398.16	1914.56
398.35	1982.43
398.55	1785.83
398.74	1839.66
398.93	1989.46
399.12	1961.37
399.32	1919.24
399.51	1919.24
399.70	2047.97
399.90	1952.01
400.09	2150.95
400.28	2139.25
400.47	2108.82
400.67	2059.67
400.86	2059.67
401.05	2062.01
401.24	2092.44
401.44	2090.10
401.63	2136.91
401.82	2258.62
402.01	2172.02
402.21	2209.47
402.40	2122.87
402.59	2122.87
402.78	2141.59
402.97	2291.38
403.17	2279.68
403.36	2356.92
403.55	2251.60
403.74	2239.89
403.93	2387.35
404.13	2340.54
404.32	2434.16
404.51	2424.80
404.70	2406.07
404.89	2307.77
405.09	2483.31
405.28	2413.09
405.47	2516.08
405.66	2534.80
405.85	2487.99
406.05	2532.46
406.24	2417.77
406.43	2621.40
406.62	2626.08
406.81	2696.30
407.00	2656.51
407.20	2612.04
407.39	2588.63
407.58	2644.81
407.77	2731.41
407.96	2689.28
408.15	2759.49
408.34	2752.47
408.54	2778.22
408.73	2853.11
408.92	2815.66
409.11	2911.63
409.30	2930.35
409.49	2876.52
409.68	2928.01
409.87	2998.23
410.07	2979.50
410.26	2970.14
410.45	2988.86
410.64	3056.74
410.83	3000.57
411.02	3066.10
411.21	3119.93
411.40	3098.87
411.59	3150.36
411.78	3138.66
411.98	3166.74
412.17	3311.86
412.36	3318.88
412.55	3346.97
412.74	3293.13
412.93	3405.48
413.12	3318.88
413.31	3590.38
413.50	3447.61
413.69	3475.70
413.88	3625.49
414.07	3559.95
414.26	3552.93
414.45	3660.60
414.64	3702.73
414.83	3632.51
415.02	3768.26
415.22	3962.53
415.41	3845.50
415.60	3878.27
415.79	3878.27
415.98	3967.21
416.17	4004.66
416.36	4028.06
416.55	4196.58
416.74	4088.92
416.93	3992.95
417.12	4135.73
417.31	4081.89
417.50	4194.24
417.69	4531.28
417.88	4390.84
418.07	4283.18
418.26	4297.22
418.45	4203.60
418.64	4428.29
418.83	4540.64
419.02	4348.72
419.21	4463.40
419.39	4526.60
419.58	4554.68
419.77	4606.17
419.96	4503.19
420.15	4671.71
420.34	4580.43
420.53	4615.54
420.72	4650.64
420.91	4706.82
421.10	4681.07
421.29	4760.65
421.48	4667.03
421.67	4734.90
421.86	4772.35
422.05	4772.35
422.24	4802.78
422.43	4741.93
422.61	4875.34
422.80	4777.03
422.99	4847.25
423.18	5018.11
423.37	5027.47
423.56	4908.10
423.75	4947.89
423.94	4840.23
424.13	4589.79
424.32	4833.21
424.50	4966.62
424.69	5104.71
424.88	5156.20
425.07	4983.00
425.26	4999.38
425.45	5149.18
425.64	5020.45
425.83	4926.83
426.01	5076.62
426.20	4915.12
426.39	4994.70
426.58	5067.26
426.77	5179.61
426.96	5011.09
427.15	5198.33
427.33	5245.14
427.52	5273.23
427.71	5263.86
427.90	5146.84
428.09	5420.68
428.28	5451.11
428.46	5371.53
428.65	5455.79
428.84	5544.73
429.03	5565.79
429.22	5317.70
429.40	5399.62
429.59	5488.56
429.78	5266.21
429.97	5266.21
430.16	5666.44
430.34	5692.18
430.53	5713.25
430.72	5607.92
430.91	5703.89
431.10	5682.82
431.28	5785.80
431.47	5837.30
431.66	5874.74
431.85	5636.01
432.03	5792.83
432.22	6059.65
432.41	5935.60
432.60	5954.32
432.79	5898.15
432.97	6099.44
433.16	6066.67
433.35	5956.66
433.54	6113.48
433.72	6307.74
433.91	6230.51
434.10	6188.38
434.28	5994.11
434.47	6071.35
434.66	6310.08
434.85	6359.24
435.03	6415.41
435.22	6354.55
435.41	6483.28
435.59	6356.90
435.78	6422.43
435.97	6579.25
436.16	6565.20
436.34	6408.39
436.53	6471.58
436.72	6722.02
436.90	6408.39
437.09	6752.45
437.28	6471.58
437.46	6420.09
437.65	6478.60
437.84	6792.23
438.02	6766.49
438.21	6892.88
438.40	6806.28
438.58	6897.56
438.77	6988.84
438.96	6757.13
439.14	7035.65
439.33	7087.14
439.52	7342.26
439.70	7208.85
439.89	7119.91
440.08	7442.90
440.26	7506.10
440.45	7410.14
440.63	7405.46
440.82	7496.74
441.01	7398.43
441.19	7695.68
441.38	7742.49
441.57	7716.75
441.75	7836.11
441.94	7803.35
442.12	7927.39
442.31	8147.40
442.50	8219.96
442.68	7889.95
442.87	7929.74
443.05	8187.19
443.24	8133.36
443.43	8004.63
443.61	8093.57
443.80	8512.53
443.98	8063.15
444.17	7784.62
444.35	8346.35
444.54	8456.36
444.73	8407.20
444.91	8432.95
445.10	8243.37
445.28	8224.64
445.47	8187.19
445.65	8236.35
445.84	8491.46
446.02	8671.68
446.21	8308.90
446.39	8369.76
446.58	8557.00
446.77	8573.38
446.95	8379.12
447.14	8475.08
447.32	8582.74
447.51	8407.20
447.69	8329.97
447.88	8554.66
448.06	8535.93
448.25	8381.46
448.43	8486.78
448.62	8491.46
448.80	8334.65
448.99	8814.46
449.17	8882.33
449.36	8791.05
449.54	8786.37
449.73	8882.33
449.91	9139.79
450.10	9006.38
450.28	9179.58
450.46	9076.60
450.65	9266.18
450.83	9128.09
451.02	9109.36
451.20	8985.32
451.39	9174.90
451.57	9137.45
451.76	9233.41
451.94	9221.71
452.13	9275.54
452.31	9357.46
452.49	9198.31
452.68	9411.29
452.86	9301.29
453.05	9273.20
453.23	9481.51
453.42	9324.69
453.60	9284.91
453.78	9621.94
453.97	9420.66
454.15	9493.21
454.34	9554.07
454.52	9664.07
454.70	9753.01
454.89	9858.34
455.07	9860.68
455.26	9951.96
455.44	9832.59
455.62	9877.06
455.81	9888.76
455.99	9928.55
456.17	10104.09
456.36	10118.14
456.54	10134.52
456.73	10321.76
456.91	10186.01
457.09	10195.37
457.28	10506.66
457.46	10476.24
457.64	10492.62
457.83	10516.03
458.01	10324.10
458.19	10619.01
458.38	10516.03
458.56	10668.16
458.74	10906.90
458.93	10581.56
459.11	10867.11
459.29	10719.65
459.48	10920.94
459.66	10740.72
459.84	10904.56
460.03	11321.17
460.21	10942.00
460.39	10820.30
460.57	11021.58
460.76	11173.72
460.94	11318.83
461.12	11318.83
461.31	11218.19
461.49	11283.72
461.67	11363.30
461.85	11534.16
462.04	11501.39
462.22	11386.71
462.40	11580.97
462.59	11578.63
462.77	11520.12
462.95	11599.70
463.13	11719.06
463.32	11548.20
463.50	11798.64
463.68	12006.95
463.86	11878.22
464.05	11681.61
464.23	11599.70
464.41	11941.41
464.59	11606.72
464.78	12177.81
464.96	12056.10
465.14	11815.02
465.32	12184.83
465.50	12037.38
465.69	12119.29
465.87	12311.22
466.05	12109.93
466.23	12285.47
466.41	12248.02
466.60	12610.81
466.78	12248.02
466.96	12411.86
467.14	12248.02
467.32	12442.29
467.51	12610.81
467.69	12175.47
467.87	12559.31
468.05	12404.84
468.23	12599.10
468.41	12507.82
468.60	12498.46
468.78	13032.10
468.96	12767.62
469.14	12784.01
469.32	13125.72
469.50	12716.13
469.69	13102.32
469.87	13067.21
470.05	13104.66
470.23	13357.44
470.41	13018.06
470.59	13532.98
470.77	13181.90
470.95	13383.18
471.14	13582.13
471.32	13109.34
471.50	13532.98
471.68	13565.74
471.86	13687.45
472.04	13703.84
472.22	13921.51
472.40	13568.09
472.58	13692.13
472.77	14115.77
472.95	14183.65
473.13	14801.55
473.31	14155.56
473.49	14171.94
473.67	14408.34
473.85	14445.79
474.03	14572.18
474.21	14623.67
474.39	14738.35
474.57	14782.82
474.75	14808.57
474.93	14932.62
475.12	14799.21
475.30	15103.48
475.48	14913.89
475.66	15124.54
475.84	14946.66
476.02	15480.30
476.20	15449.88
476.38	15597.33
476.56	15974.16
476.74	16098.20
476.92	15838.41
477.10	15969.48
477.28	16051.39
477.46	15964.79
477.64	16032.67
477.82	16603.76
478.00	16627.17
478.18	16854.20
478.36	16966.54
478.54	17109.32
478.72	17137.40
478.90	17144.42
479.08	17427.63
479.26	17577.42
479.44	17865.31
479.62	17905.10
479.80	18059.57
479.98	18125.11
480.16	18670.45
480.34	18579.17
480.52	18527.68
480.70	18654.07
480.88	18513.64
481.06	18728.97
481.24	18588.53
481.41	19019.19
481.59	19227.50
481.77	19211.12
481.95	19777.53
482.13	19704.97
482.31	19487.30
482.49	20435.22
482.67	20416.49
482.85	20470.33
483.03	20577.99
483.21	20865.88
483.39	20868.22
483.57	20868.22
483.74	21277.81
483.92	21493.14
484.10	21010.99
484.28	21495.48
484.46	21736.56
484.64	22155.51
484.82	22129.77
485.00	22398.93
485.18	23023.85
485.35	22785.12
485.53	22735.96
485.71	22883.42
485.89	23662.82
486.07	22967.68
486.25	23318.76
486.43	23543.45
486.61	23733.03
486.78	24247.95
486.96	24292.42
487.14	24308.80
487.32	24671.59
487.50	24842.45
487.68	25003.94
487.85	25535.24
488.03	25408.86
488.21	25965.90
488.39	25921.43
488.57	25961.22
488.75	26235.06
488.92	26576.78
489.10	26796.79
489.28	26726.58
489.46	27225.11
489.64	26794.45
489.81	27957.70
489.99	27400.65
490.17	28006.85
490.35	27756.41
490.53	28414.10
490.70	28350.91
490.88	28379.00
491.06	28673.90
491.24	28489.00
491.41	29181.80
491.59	29298.83
491.77	29383.09
491.95	29668.63
492.13	30045.46
492.30	30118.01
492.48	30185.89
492.66	30384.83
492.84	30288.87
493.01	30824.86
493.19	30452.71
493.37	31037.84
493.54	31321.05
493.72	31201.68
493.90	31412.33
494.08	31690.85
494.25	31992.78
494.43	32086.40
494.61	32100.45
494.79	32439.82
494.96	32283.01
495.14	32919.63
495.32	33612.43
495.49	33179.43
495.67	32830.69
495.85	33783.29
496.02	33380.72
496.20	34256.08
496.38	34192.89
496.55	34169.48
496.73	35000.37
496.91	34773.34
497.09	34855.26
497.26	35171.23
497.44	34955.90
497.62	35433.37
497.79	35810.20
497.97	35653.38
498.14	36123.83
498.32	36353.20
498.50	36325.11
498.67	36673.85
498.85	36048.93
499.03	36418.74
499.20	36346.18
499.38	37050.68
499.56	37099.83
499.73	37406.44
499.91	37752.84
500.08	37750.50
500.26	37266.01
500.44	37500.06
500.61	38054.77
500.79	37706.03
500.97	38546.28
501.14	38497.13
501.32	38572.03
501.49	38494.79
501.67	38333.29
501.84	38981.62
502.02	38850.55
502.20	39316.32
502.37	39501.22
502.55	39292.91
502.72	39672.08
502.90	39292.91
503.07	39339.72
503.25	39861.66
503.43	40175.30
503.60	40282.96
503.78	40304.02
503.95	40074.65
504.13	40187.00
504.30	40975.76
504.48	40362.54
504.65	40811.92
504.83	41095.13
505.01	41125.55
505.18	41443.87
505.36	41703.67
505.53	40980.44
505.71	41766.86
505.88	41813.67
506.06	41666.22
506.23	41600.68
506.41	42052.41
506.58	42064.11
506.76	42239.65
506.93	42162.41
507.11	42616.47
507.28	42789.67
507.46	42679.67
507.63	42967.55
507.81	42920.74
507.98	43203.95
508.16	43159.48
508.33	43007.34
508.50	43122.03
508.68	43482.47
508.85	43702.48
509.03	43985.69
509.20	44030.16
509.38	44568.48
509.55	44563.80
509.73	44467.84
509.90	44596.57
510.08	44708.91
510.25	44678.49
510.42	45010.84
510.60	44854.03
510.77	45284.68
510.95	45434.48
511.12	45153.62
511.30	45275.32
511.47	46026.63
511.64	44933.60
511.82	45490.65
511.99	45745.77
512.17	45717.68
512.34	46171.75
512.51	46363.67
512.69	46263.03
512.86	46319.20
513.04	46759.22
513.21	46417.50
513.38	47091.58
513.56	47063.49
513.73	46972.21
513.90	47246.05
514.08	47100.94
514.25	47435.64
514.43	47269.46
514.60	47599.47
514.77	47402.87
514.95	47803.10
515.12	47697.78
515.29	47491.81
515.47	48423.34
515.64	48149.50
515.81	48030.13
515.99	48037.16
516.16	48446.75
516.33	48671.44
516.51	48741.66
516.68	48341.42
516.85	48624.63
517.03	48982.73
517.20	48968.69
517.37	48910.17
517.54	48893.79
517.72	49095.08
517.89	49340.83
518.06	49038.90
518.24	49502.33
518.41	49034.22
518.58	49408.71
518.75	49605.31
518.93	49504.67
519.10	49680.21
519.27	49514.03
519.45	49492.97
519.62	50031.29
519.79	50178.75
519.96	49975.12
520.14	50286.41
520.31	50213.85
520.48	50197.47
520.65	50028.95
520.83	50415.14
521.00	50665.58
521.17	50410.46
521.34	50651.53
521.52	50824.73
521.69	50876.22
521.86	51091.55
522.03	51222.62
522.20	51260.07
522.38	51489.45
522.55	51285.82
522.72	51395.82
522.89	51119.64
523.07	51732.86
523.24	51414.55
523.41	51608.81
523.58	51650.94
523.75	51971.60
523.92	52011.38
524.10	51892.02
524.27	52013.73
524.44	52207.99
524.61	51997.34
524.78	52013.73
524.96	52158.84
525.13	52261.82
525.30	52530.98
525.47	52505.24
525.64	52317.99
525.81	52580.13
525.98	52690.14
526.16	52542.69
526.33	52589.50
526.50	52781.42
526.67	53034.20
526.84	52734.61
527.01	52650.35
527.18	52891.43
527.36	53214.42
527.53	53083.35
527.70	53432.09
527.87	53226.12
528.04	53179.31
528.21	53244.85
528.38	53436.77
528.55	53626.35
528.72	53319.74
528.89	53647.42
529.07	53661.46
529.24	53254.21
529.41	53752.74
529.58	53825.30
529.75	53731.68
529.92	53595.93
530.09	53778.49
530.26	54012.54
530.43	54234.89
530.60	53844.02
530.77	54087.44
530.94	54213.83
531.11	53773.81
531.28	54073.40
531.46	54178.72
531.63	54298.09
531.80	54260.64
531.97	54415.11
532.14	54546.18
532.31	54340.22
532.48	54600.02
532.65	54656.19
532.82	54590.66
532.99	54843.43
533.16	54815.35
533.33	54866.84
533.50	55000.25
533.67	54686.62
533.84	54782.58
534.01	54719.38
534.18	55206.22
534.35	55187.49
534.52	55002.59
534.69	55121.96
534.86	55491.76
535.03	55255.37
535.20	55337.29
535.37	55192.17
535.54	55590.06
535.71	55189.83
535.88	55206.22
536.05	55536.23
536.22	55927.10
536.38	55721.13
536.55	55419.20
536.72	55669.64
536.89	55480.06
537.06	55590.06
537.23	55880.29
537.40	55543.25
537.57	55796.03
537.74	55739.86
537.91	56030.08
538.08	55948.17
538.25	55899.01
538.42	56072.21
538.59	56090.94
538.75	55812.41
538.92	56081.58
539.09	56168.18
539.26	56009.02
539.43	56090.94
539.60	56376.48
539.77	56107.32
539.94	56514.58
540.11	56371.80
540.28	56250.09
540.44	56584.79
540.61	56467.76
540.78	56299.25
540.95	56418.61
541.12	56479.47
541.29	56423.29
541.46	56526.28
541.62	56526.28
541.79	56601.18
541.96	56420.95
542.13	56699.48
542.30	56725.22
542.47	56863.32
542.63	57102.05
542.80	56942.89
542.97	57387.60
543.14	57141.84
543.31	57127.80
543.48	57223.76
543.64	57535.05
543.81	57317.38
543.98	57425.04
544.15	57528.03
544.32	57516.32
544.48	57558.45
544.65	57467.17
544.82	57425.04
544.99	57240.14
545.16	57481.22
545.32	57439.09
545.49	57729.31
545.66	57811.23
545.83	57698.89
546.00	57736.34
546.16	57504.62
546.33	57462.49
546.50	57511.64
546.67	57705.91
546.83	57574.84
547.00	58052.31
547.17	57712.93
547.34	57886.13
547.50	58190.40
547.67	58178.70
547.84	58024.22
548.00	58195.08
548.17	58185.72
548.34	58021.88
548.51	58349.56
548.67	58351.90
548.84	58251.25
549.01	58052.31
549.18	58127.20
549.34	58120.18
549.51	58468.92
549.68	58553.18
549.84	58590.63
550.01	58567.23
550.18	58157.63
550.34	58482.97
550.51	58543.82
550.68	58492.33
550.84	58082.73
551.01	58480.63
551.18	58113.16
551.34	58492.33
551.51	58504.03
551.68	58599.99
551.84	58534.46
552.01	58494.67
552.18	58686.59
552.34	58649.14
552.51	58670.21
552.68	58513.39
552.84	58824.68
553.01	58941.71
553.18	58714.68
553.34	59135.98
553.51	58812.98
553.67	58904.26
553.84	58986.18
554.01	59014.27
554.17	58866.81
554.34	58911.28
554.51	59175.76
554.67	59143.00
554.84	59011.93
555.00	59112.57
555.17	59014.27
555.33	58941.71
555.50	58852.77
555.67	59044.69
555.83	59114.91
556.00	59250.66
556.16	59330.24
556.33	59178.10
556.50	59175.76
556.66	59304.49
556.83	59327.90
556.99	59318.54
557.16	59318.54
557.32	59627.49
557.49	59664.94
557.65	59295.13
557.82	59372.37
557.98	59508.12
558.15	59512.80
558.32	59381.73
558.48	59379.39
558.65	59377.05
558.81	59641.53
558.98	59503.44
559.14	59360.67
559.31	59676.64
559.47	59622.81
559.64	59697.70
559.80	59613.44
559.97	59608.76
560.13	59618.13
560.30	59641.53
560.46	59875.58
560.63	59840.48
560.79	59695.36
560.96	59796.01
561.12	59849.84
561.29	59812.39
561.45	59931.76
561.61	59915.37
561.78	59669.62
561.94	59990.27
562.11	59964.52
562.27	59812.39
562.44	60011.34
562.60	60200.92
562.77	60177.51
562.93	59803.03
563.10	60170.49
563.26	59760.90
563.42	60292.20
563.59	59994.95
563.75	60020.70
563.92	60083.89
564.08	60076.87
564.24	60367.10
564.41	60214.96
564.57	60093.25
564.74	60212.62
564.90	60280.50
565.07	60175.17
565.23	60177.51
565.39	60030.06
565.56	60446.68
565.72	60198.58
565.88	60273.48
566.05	60046.44
566.21	60086.23
566.38	60280.50
566.54	60514.55
566.70	60505.19
566.87	60254.75
567.03	60149.43
567.19	60456.04
567.36	60238.37
567.52	60301.56
567.68	60526.25
567.85	60392.84
568.01	60535.62
568.17	60278.16
568.34	60451.36
568.50	60439.65
568.66	60238.37
568.83	60392.84
568.99	60467.74
569.15	60430.29
569.32	60610.51
569.48	60378.80
569.64	60458.38
569.81	60463.06
569.97	60430.29
570.13	60406.89
570.30	60388.16
570.46	60392.84
570.62	60465.40
570.78	60427.95
570.95	60409.23
571.11	60577.75
571.27	60687.75
571.43	60486.46
571.60	60706.47
571.76	60584.77
571.92	60746.26
572.09	60526.25
572.25	60603.49
572.41	60563.70
572.57	60540.30
572.74	60898.40
572.90	60437.31
573.06	60544.98
573.22	60617.53
573.38	60776.69
573.55	60715.84
573.71	60807.12
573.87	60910.10
574.03	60575.40
574.20	60905.42
574.36	60722.86
574.52	60842.23
574.68	60720.52
574.84	60650.30
575.01	60860.95
575.17	60626.90
575.33	60704.13
575.49	60540.30
575.65	60788.39
575.82	60870.31
575.98	60807.12
576.14	61010.74
576.30	60828.18
576.46	60692.43
576.62	60645.62
576.79	60619.88
576.95	60589.45
577.11	60961.59
577.27	60835.20
577.43	60933.51
577.59	60680.73
577.75	60652.64
577.92	60570.72
578.08	60598.81
578.24	60757.97
578.40	60879.67
578.56	60898.40
578.72	60945.21
578.88	60994.36
579.04	61066.92
579.21	60835.20
579.37	61104.37
579.53	61052.87
579.69	60556.68
579.85	60692.43
580.01	60816.48
580.17	60846.91
580.33	60987.34
580.49	60837.54
580.65	60783.71
580.82	60804.78
580.98	60889.04
581.14	60800.10
581.30	61202.67
581.46	60879.67
581.62	60992.02
581.78	60781.37
581.94	60896.06
582.10	61031.81
582.26	61097.34
582.42	60931.17
582.58	60999.04
582.74	60690.09
582.90	61006.06
583.06	60910.10
583.22	60823.50
583.38	61017.77
583.54	60945.21
583.70	60889.04
583.86	61020.11
584.02	60879.67
584.18	61022.45
584.34	61015.43
584.50	61130.11
584.66	60959.25
584.82	60685.41
584.98	61043.51
585.14	61090.32
585.30	60790.73
585.46	60952.23
585.62	61038.83
585.78	61113.73
585.94	60811.80
586.10	61031.81
586.26	61085.64
586.42	61043.51
586.58	61097.34
586.74	61001.38
586.90	61104.37
587.06	61226.07
587.22	61073.94
587.38	60912.44
587.54	61120.75
587.70	61207.35
587.86	61144.16
588.02	61109.05
588.18	61214.37
588.34	60863.29
