SpectraSuite Data File
++++++++++++++++++++++++++++++++++++
Date: Fri Oct 25 11:23:39 EDT 2013
User: price-jones
Dark Spectrum Present: No
Reference Spectrum Present: No
Number of Sampled Component Spectra: 1
Spectrometers: USB2+H05261
Integration Time (usec): 100000 (USB2+H05261)
Spectra Averaged: 1 (USB2+H05261)
Boxcar Smoothing: 0 (USB2+H05261)
Correct for Electrical Dark: No (USB2+H05261)
Strobe/Lamp Enabled: No (USB2+H05261)
Correct for Detector Non-linearity: No (USB2+H05261)
Correct for Stray Light: No (USB2+H05261)
Number of Pixels in Processed Spectrum: 2048
>>>>>Begin Processed Spectral Data<<<<<
365.73	203.63
365.92	203.63
366.12	203.63
366.32	227.03
366.52	102.98
366.72	189.58
366.91	102.98
367.11	117.03
367.31	91.28
367.51	117.03
367.70	126.39
367.90	142.77
368.10	166.18
368.30	166.18
368.49	159.16
368.69	227.03
368.89	159.16
369.09	135.75
369.28	161.50
369.48	177.88
369.68	119.37
369.87	149.79
370.07	126.39
370.27	297.25
370.47	308.95
370.66	514.92
370.86	594.50
371.06	678.76
371.25	645.99
371.45	624.92
371.65	678.76
371.84	650.67
372.04	645.99
372.24	702.16
372.44	763.01
372.63	737.27
372.83	685.78
373.03	755.99
373.22	791.10
373.42	692.80
373.62	805.14
373.81	751.31
374.01	807.48
374.21	835.57
374.40	826.21
374.60	802.80
374.79	793.44
374.99	842.59
375.19	809.83
375.38	849.61
375.58	823.87
375.78	891.74
375.97	915.15
376.17	826.21
376.37	793.44
376.56	849.61
376.76	875.36
376.95	863.66
377.15	950.26
377.35	882.38
377.54	964.30
377.74	950.26
377.93	917.49
378.13	908.13
378.33	842.59
378.52	947.92
378.72	924.51
378.91	1048.56
379.11	980.68
379.31	943.24
379.50	926.85
379.70	926.85
379.89	1048.56
380.09	999.41
380.28	976.00
380.48	882.38
380.68	912.81
380.87	943.24
381.07	999.41
381.26	1114.10
381.46	952.60
381.65	1032.18
381.85	1076.65
382.04	1057.92
382.24	1086.01
382.43	1025.15
382.63	1118.78
382.83	1200.69
383.02	1235.80
383.22	1158.57
383.41	1090.69
383.61	1116.44
383.80	1093.03
384.00	1135.16
384.19	1146.86
384.39	1139.84
384.58	1160.91
384.78	1102.39
384.97	1181.97
385.17	1191.33
385.36	1104.73
385.56	1090.69
385.75	1067.28
385.95	1200.69
386.14	1273.25
386.34	1184.31
386.53	1128.14
386.72	1172.61
386.92	1245.16
387.11	1331.76
387.31	1308.36
387.50	1203.04
387.70	1210.06
387.89	1296.66
388.09	1308.36
388.28	1324.74
388.48	1338.79
388.67	1317.72
388.86	1327.08
389.06	1315.38
389.25	1345.81
389.45	1385.60
389.64	1277.93
389.84	1357.51
390.03	1406.66
390.22	1322.40
390.42	1437.09
390.61	1416.02
390.81	1397.30
391.00	1441.77
391.19	1448.79
391.39	1502.62
391.58	1474.54
391.78	1453.47
391.97	1479.22
392.16	1425.39
392.36	1479.22
392.55	1479.22
392.75	1547.09
392.94	1554.12
393.13	1451.13
393.33	1401.98
393.52	1554.12
393.71	1593.90
393.91	1526.03
394.10	1507.30
394.29	1629.01
394.49	1605.61
394.68	1645.40
394.88	1612.63
395.07	1596.25
395.26	1607.95
395.46	1696.89
395.65	1699.23
395.84	1692.21
396.04	1832.64
396.23	1685.19
396.42	1760.08
396.62	1732.00
396.81	1809.23
397.00	1774.13
397.19	1762.42
397.39	1816.26
397.58	1846.68
397.77	1858.39
397.97	1809.23
398.16	1933.28
398.35	1900.52
398.55	1844.34
398.74	1893.49
398.93	1959.03
399.12	1806.89
399.32	1884.13
399.51	1865.41
399.70	1970.73
399.90	1952.01
400.09	2008.18
400.28	2036.27
400.47	1930.94
400.67	2085.42
400.86	2099.46
401.05	2139.25
401.24	2083.08
401.44	2069.03
401.63	2132.23
401.82	2195.42
402.01	2176.70
402.21	2160.31
402.40	2188.40
402.59	2235.21
402.78	2186.06
402.97	2246.91
403.17	2209.47
403.36	2345.22
403.55	2260.96
403.74	2406.07
403.93	2368.62
404.13	2361.60
404.32	2307.77
404.51	2445.86
404.70	2326.49
404.89	2356.92
405.09	2583.95
405.28	2478.63
405.47	2459.90
405.66	2593.31
405.85	2523.10
406.05	2565.23
406.24	2534.80
406.43	2518.42
406.62	2602.68
406.81	2771.19
407.00	2696.30
407.20	2579.27
407.39	2614.38
407.58	2668.21
407.77	2796.94
407.96	2708.00
408.15	2789.92
408.34	2801.62
408.54	2820.35
408.73	2860.13
408.92	2829.71
409.11	2834.39
409.30	2918.65
409.49	2815.66
409.68	2855.45
409.87	2806.30
410.07	2881.20
410.26	3000.57
410.45	3014.61
410.64	3035.67
410.83	3183.13
411.02	3061.42
411.21	3176.11
411.40	3061.42
411.59	3126.96
411.78	3197.17
411.98	3218.24
412.17	3246.32
412.36	3267.39
412.55	3229.94
412.74	3314.20
412.93	3421.86
413.12	3339.94
413.31	3625.49
413.50	3410.16
413.69	3466.33
413.88	3613.79
414.07	3510.80
414.26	3513.14
414.45	3751.88
414.64	3578.68
414.83	3744.86
415.02	3686.34
415.22	3866.56
415.41	3817.41
415.60	3824.44
415.79	3999.98
415.98	4154.45
416.17	4109.98
416.36	3983.59
416.55	3955.51
416.74	4098.28
416.93	3974.23
417.12	4105.30
417.31	4215.30
417.50	4030.40
417.69	4383.82
417.88	4215.30
418.07	4280.84
418.26	4369.78
418.45	4421.27
418.64	4557.02
418.83	4367.44
419.02	4484.47
419.21	4475.10
419.39	4442.34
419.58	4533.62
419.77	4472.76
419.96	4444.68
420.15	4643.62
420.34	4589.79
420.53	4652.98
420.72	4566.39
420.91	4540.64
421.10	4755.97
421.29	4709.16
421.48	4657.67
421.67	4784.06
421.86	4702.14
422.05	4821.50
422.24	4849.59
422.43	4985.34
422.61	4795.76
422.80	4964.28
422.99	4919.81
423.18	4929.17
423.37	4947.89
423.56	4898.74
423.75	4945.55
423.94	4821.50
424.13	4760.65
424.32	4912.78
424.50	4954.91
424.69	5156.20
424.88	5032.15
425.07	4952.57
425.26	4957.25
425.45	4919.81
425.64	4954.91
425.83	4992.36
426.01	5102.37
426.20	4983.00
426.39	5083.64
426.58	5050.88
426.77	5022.79
426.96	5130.45
427.15	5177.26
427.33	5107.05
427.52	5198.33
427.71	5240.46
427.90	5238.12
428.09	5338.76
428.28	5383.23
428.46	5245.14
428.65	5322.38
428.84	5423.02
429.03	5526.00
429.22	5397.28
429.40	5479.19
429.59	5385.57
429.78	5357.49
429.97	5338.76
430.16	5401.96
430.34	5671.12
430.53	5631.33
430.72	5755.38
430.91	5717.93
431.10	5458.13
431.28	5902.83
431.47	5790.49
431.66	5926.24
431.85	5757.72
432.03	5863.04
432.22	5774.10
432.41	5954.32
432.60	5788.14
432.79	5895.81
432.97	5900.49
433.16	5973.05
433.35	6094.76
433.54	6019.86
433.72	6099.44
433.91	6043.26
434.10	6099.44
434.28	6139.23
434.47	6237.53
434.66	6263.27
434.85	6296.04
435.03	6300.72
435.22	6272.64
435.41	6705.63
435.59	6368.60
435.78	6445.84
435.97	6527.75
436.16	6384.98
436.34	6579.25
436.53	6516.05
436.72	6609.67
436.90	6539.46
437.09	6506.69
437.28	6380.30
437.46	6607.33
437.65	6771.17
437.84	6733.72
438.02	6630.74
438.21	6853.09
438.40	6780.53
438.58	6949.05
438.77	6949.05
438.96	6874.15
439.14	7297.79
439.33	7143.32
439.52	7258.00
439.70	7234.60
439.89	7276.73
440.08	7557.59
440.26	7428.86
440.45	7307.15
440.63	7468.65
440.82	7723.77
441.01	7288.43
441.19	7494.40
441.38	7674.62
441.57	7929.74
441.75	7826.75
441.94	7864.20
442.12	7763.56
442.31	8128.68
442.50	7946.12
442.68	7918.03
442.87	7999.95
443.05	8088.89
443.24	8329.97
443.43	8086.55
443.61	8032.72
443.80	8531.25
443.98	7892.29
444.17	8004.63
444.35	8191.88
444.54	8252.73
444.73	8587.43
444.91	8224.64
445.10	8388.48
445.28	8369.76
445.47	8290.18
445.65	8456.36
445.84	8620.19
446.02	8458.70
446.21	8404.86
446.39	8493.80
446.58	8454.02
446.77	8564.02
446.95	8297.20
447.14	8280.82
447.32	8657.64
447.51	8540.61
447.69	8425.93
447.88	8418.91
448.06	8461.04
448.25	8306.56
448.43	8711.47
448.62	8470.40
448.80	8636.58
448.99	8652.96
449.17	8606.15
449.36	8557.00
449.54	8858.93
449.73	8889.35
449.91	9027.45
450.10	8840.20
450.28	9188.94
450.46	9076.60
450.65	9050.85
450.83	8894.04
451.02	9078.94
451.20	9104.68
451.39	9156.18
451.57	9125.75
451.76	9114.05
451.94	9142.13
452.13	9280.22
452.31	9184.26
452.49	9256.82
452.68	9427.68
452.86	9298.95
453.05	9371.50
453.23	9633.64
453.42	9217.03
453.60	9549.39
453.78	9488.53
453.97	9338.74
454.15	9479.17
454.34	9430.02
454.52	9743.65
454.70	9673.43
454.89	9902.81
455.07	9893.44
455.26	9764.72
455.44	10052.60
455.62	10097.07
455.81	9727.27
455.99	9949.62
456.17	10183.67
456.36	9886.42
456.54	10188.35
456.73	10160.27
456.91	10445.81
457.09	10462.19
457.28	10490.28
457.46	10319.42
457.64	10619.01
457.83	10445.81
458.01	10560.50
458.19	10553.48
458.38	10644.76
458.56	10635.39
458.74	10607.31
458.93	10607.31
459.11	10857.75
459.29	10686.89
459.48	10778.17
459.66	10813.28
459.84	10820.30
460.03	11124.57
460.21	10864.77
460.39	10984.13
460.57	10965.41
460.76	11119.89
460.94	11356.28
461.12	11138.61
461.31	11384.37
461.49	11206.48
461.67	11300.11
461.85	11412.45
462.04	11349.26
462.22	11510.75
462.40	11683.95
462.59	11485.01
462.77	11232.23
462.95	11768.21
463.13	11541.18
463.32	11824.39
463.50	11768.21
463.68	11859.49
463.86	11885.24
464.05	11517.78
464.23	11578.63
464.41	12039.72
464.59	11735.45
464.78	12037.38
464.96	12149.72
465.14	11913.33
465.32	12184.83
465.50	12201.21
465.69	12119.29
465.87	12163.76
466.05	12166.10
466.23	12224.62
466.41	12224.62
466.60	12538.25
466.78	12215.26
466.96	12397.82
467.14	12159.08
467.32	12329.94
467.51	12484.42
467.69	12100.57
467.87	12659.96
468.05	12835.50
468.23	12418.88
468.41	12428.24
468.60	12514.84
468.78	12865.92
468.96	12641.23
469.14	12784.01
469.32	12889.33
469.50	12631.87
469.69	13036.78
469.87	13298.92
470.05	13036.78
470.23	13282.54
470.41	13062.53
470.59	13558.72
470.77	13380.84
470.95	13233.39
471.14	13703.84
471.32	13366.80
471.50	13748.31
471.68	13619.58
471.86	13762.35
472.04	13654.69
472.22	14207.05
472.40	13692.13
472.58	13720.22
472.77	14129.81
472.95	14097.05
473.13	14710.27
473.31	14083.00
473.49	14097.05
473.67	14120.45
473.85	14235.14
474.03	14611.96
474.21	14623.67
474.39	14920.92
474.57	14853.04
474.75	15009.86
474.93	15094.11
475.12	14839.00
475.30	15250.93
475.48	14977.09
475.66	15183.06
475.84	15234.55
476.02	15391.36
476.20	15215.82
476.38	15805.64
476.56	15953.09
476.74	16018.63
476.92	15990.54
477.10	15878.19
477.28	16123.95
477.46	16248.00
477.64	16561.63
477.82	16549.93
478.00	16989.95
478.18	16783.98
478.36	16901.01
478.54	17153.79
478.72	17256.77
478.90	17575.08
479.08	17652.32
479.26	17247.41
479.44	17827.86
479.62	17912.12
479.80	17958.93
479.98	18197.67
480.16	18640.03
480.34	18394.27
480.52	18537.04
480.70	18752.37
480.88	18473.85
481.06	18895.14
481.24	19087.07
481.41	19161.97
481.59	19578.58
481.77	19346.87
481.95	19676.88
482.13	19676.88
482.31	19868.81
482.49	20355.64
482.67	20070.09
482.85	20594.37
483.03	20690.34
483.21	20540.54
483.39	21083.55
483.57	20746.51
483.74	21263.77
483.92	21373.77
484.10	21252.06
484.28	21596.12
484.46	21963.59
484.64	22394.25
484.82	22293.60
485.00	22448.08
485.18	22560.42
485.35	23089.38
485.53	22490.21
485.71	23227.48
485.89	23653.45
486.07	23400.68
486.25	23520.04
486.43	23510.68
486.61	23899.21
486.78	24182.42
486.96	24343.91
487.14	24498.39
487.32	24716.06
487.50	24774.57
487.68	24994.58
487.85	24971.18
488.03	25495.46
488.21	25766.96
488.39	26008.03
488.57	26160.17
488.75	26162.51
488.92	26436.35
489.10	26780.41
489.28	27087.02
489.46	27168.94
489.64	27218.09
489.81	27938.97
489.99	27625.34
490.17	27840.67
490.35	28020.89
490.53	28587.30
490.70	28463.25
490.88	28135.58
491.06	28624.75
491.24	28896.25
491.41	29069.45
491.59	29273.08
491.77	29268.40
491.95	29212.23
492.13	29773.95
492.30	30143.76
492.48	29893.32
492.66	30075.88
492.84	30574.42
493.01	30483.14
493.19	30766.34
493.37	31246.15
493.54	31129.12
493.72	31393.61
493.90	31248.49
494.08	31770.43
494.25	32177.68
494.43	32074.70
494.61	32671.54
494.79	32669.20
494.96	32524.08
495.14	32711.33
495.32	33074.11
495.49	33776.27
495.67	33427.53
495.85	33464.98
496.02	34073.52
496.20	34204.59
496.38	34227.99
496.55	34143.74
496.73	34843.56
496.91	35145.48
497.09	34834.19
497.26	34953.56
497.44	35063.57
497.62	35335.07
497.79	36282.98
497.97	35587.85
498.14	35974.03
498.32	36247.88
498.50	36318.09
498.67	36694.92
498.85	36219.79
499.03	36598.96
499.20	37116.22
499.38	37186.43
499.56	37378.36
499.73	37095.15
499.91	37202.82
500.08	37881.57
500.26	37244.94
500.44	37537.51
500.61	38234.99
500.79	37916.68
500.97	38361.38
501.14	38717.14
501.32	38653.95
501.49	38806.08
501.67	38993.32
501.84	39210.99
502.02	38995.67
502.20	38909.07
502.37	39374.83
502.55	39386.54
502.72	39508.24
502.90	39779.74
503.07	39590.16
503.25	39721.23
503.43	39688.46
503.60	40098.06
503.78	40367.22
503.95	40266.58
504.13	40807.24
504.30	40800.22
504.48	40165.93
504.65	40582.55
504.83	41071.72
505.01	41158.32
505.18	41022.57
505.36	41596.00
505.53	41237.90
505.71	41102.15
505.88	41989.21
506.06	41523.44
506.23	41750.48
506.41	41965.81
506.58	42150.71
506.76	41933.04
506.93	42700.73
507.11	42440.93
507.28	42705.41
507.46	42672.65
507.63	42644.56
507.81	43299.91
507.98	42799.04
508.16	43276.51
508.33	43395.87
508.50	43255.44
508.68	43854.62
508.85	43981.01
509.03	44034.84
509.20	44133.14
509.38	44114.42
509.55	44201.02
509.73	44594.23
509.90	44854.03
510.08	44842.32
510.25	44531.03
510.42	44921.90
510.60	44964.03
510.77	45319.79
510.95	45537.46
511.12	44959.35
511.30	44879.77
511.47	45612.36
511.64	45399.37
511.82	45911.95
511.99	45584.27
512.17	45986.85
512.34	45907.27
512.51	46525.17
512.69	46036.00
512.86	46548.57
513.04	46506.44
513.21	46307.50
513.38	46911.36
513.56	46574.32
513.73	46899.65
513.90	47035.41
514.08	46864.55
514.25	47374.78
514.43	47501.17
514.60	47714.16
514.77	47665.01
514.95	47508.19
515.12	47697.78
515.29	47786.72
515.47	48339.08
515.64	48062.90
515.81	47817.14
515.99	48055.88
516.16	48409.30
516.33	48463.13
516.51	48762.72
516.68	48746.34
516.85	48861.02
517.03	48952.30
517.20	49167.63
517.37	48959.33
517.54	48928.90
517.72	48978.05
517.89	49179.34
518.06	49675.53
518.24	49324.45
518.41	49382.96
518.58	49441.48
518.75	49572.55
518.93	49640.42
519.10	49345.51
519.27	49722.34
519.45	49677.87
519.62	49911.92
519.79	50171.72
519.96	49963.42
520.14	50113.21
520.31	49949.37
520.48	50457.27
520.65	50265.34
520.83	50789.62
521.00	50651.53
521.17	50525.14
521.34	50815.37
521.52	50646.85
521.69	50843.46
521.86	50930.06
522.03	51330.29
522.20	51318.59
522.38	51618.17
522.55	51325.61
522.72	51299.86
522.89	51246.03
523.07	51447.32
523.24	51791.37
523.41	51952.87
523.58	51613.49
523.75	52086.28
523.92	51966.91
524.10	52037.13
524.27	52182.24
524.44	52034.79
524.61	52165.86
524.78	52327.36
524.96	52126.07
525.13	52348.42
525.30	52456.09
525.47	52549.71
525.64	52460.77
525.81	52584.82
525.98	52699.50
526.16	52802.49
526.33	52582.48
526.50	52893.77
526.67	52877.38
526.84	52893.77
527.01	52935.90
527.18	52673.76
527.36	52910.15
527.53	53006.11
527.70	53380.60
527.87	53579.54
528.04	53326.77
528.21	53279.96
528.38	53310.38
528.55	53499.97
528.72	53298.68
528.89	53687.21
529.07	53212.08
529.24	53673.16
529.41	53965.73
529.58	53750.40
529.75	53743.38
529.92	53659.12
530.09	54071.06
530.26	53881.47
530.43	54040.63
530.60	53921.26
530.77	53729.34
530.94	54108.50
531.11	54206.81
531.28	54337.88
531.46	54148.29
531.63	54045.31
531.80	54277.02
531.97	54354.26
532.14	54450.22
532.31	54473.63
532.48	54686.62
532.65	54829.39
532.82	54515.76
532.99	54621.08
533.16	54555.55
533.33	54836.41
533.50	55164.09
533.67	54815.35
533.84	54958.12
534.01	55049.40
534.18	54834.07
534.35	55388.78
534.52	55334.95
534.69	55311.54
534.86	55138.34
535.03	55112.59
535.20	55515.17
535.37	55210.90
535.54	55302.18
535.71	55262.39
535.88	55618.15
536.05	55508.14
536.22	55475.38
536.38	55702.41
536.55	55690.71
536.72	55693.05
536.89	55779.65
537.06	55564.32
537.23	55772.63
537.40	55615.81
537.57	55550.27
537.74	55697.73
537.91	55899.01
538.08	56020.72
538.25	55648.58
538.42	55990.30
538.59	56172.86
538.75	55910.72
538.92	56002.00
539.09	56259.46
539.26	56053.49
539.43	56147.11
539.60	56219.67
539.77	56491.17
539.94	56397.55
540.11	56671.39
540.28	56601.18
540.44	56500.53
540.61	56612.88
540.78	56233.71
540.95	56481.81
541.12	56395.21
541.29	56472.45
541.46	56516.92
541.62	56704.16
541.79	56655.01
541.96	56371.80
542.13	56673.73
542.30	56619.90
542.47	56860.97
542.63	57034.17
542.80	57151.20
542.97	56985.02
543.14	57153.54
543.31	57237.80
543.48	57251.84
543.64	57623.99
543.81	57284.61
543.98	57235.46
544.15	57322.06
544.32	57476.54
544.48	57631.01
544.65	57481.22
544.82	57375.89
544.99	57415.68
545.16	57513.98
545.32	57284.61
545.49	57574.84
545.66	57790.17
545.83	57787.83
546.00	57764.42
546.16	57722.29
546.33	57710.59
546.50	57574.84
546.67	57602.92
546.83	57460.15
547.00	57677.82
547.17	57549.09
547.34	57923.58
547.50	58021.88
547.67	58021.88
547.84	58003.16
548.00	58059.33
548.17	58309.77
548.34	58054.65
548.51	58021.88
548.67	58232.53
548.84	57984.43
549.01	58150.61
549.18	58248.91
549.34	58244.23
549.51	58438.50
549.68	58450.20
549.84	58408.07
550.01	58394.03
550.18	58412.75
550.34	58513.39
550.51	58548.50
550.68	58291.04
550.84	58319.13
551.01	58475.94
551.18	58597.65
551.34	58431.47
551.51	58445.52
551.68	58890.22
551.84	58588.29
552.01	58599.99
552.18	58770.85
552.34	58763.83
552.51	58862.13
552.68	58569.57
552.84	58705.32
553.01	59054.06
553.18	58908.94
553.34	58951.07
553.51	58649.14
553.67	58808.30
553.84	59061.08
554.01	59089.16
554.17	59042.35
554.34	59093.85
554.51	59065.76
554.67	59114.91
554.84	58974.48
555.00	59075.12
555.17	59054.06
555.33	58934.69
555.50	59224.92
555.67	59154.70
555.83	59077.46
556.00	58993.20
556.16	59585.36
556.33	59358.33
556.50	59437.90
556.66	59564.29
556.83	59166.40
556.99	59295.13
557.16	59379.39
557.32	59519.82
557.49	59622.81
557.65	59592.38
557.82	59402.80
557.98	59281.09
558.15	59426.20
558.32	59550.25
558.48	59248.32
558.65	59664.94
558.81	59498.76
558.98	59615.79
559.14	59753.88
559.31	59721.11
559.47	59370.03
559.64	59765.58
559.80	59716.43
559.97	59646.21
560.13	59592.38
560.30	59660.26
560.46	59634.51
560.63	59711.75
560.79	59929.42
560.96	59779.62
561.12	59873.24
561.29	59903.67
561.45	59772.60
561.61	59671.96
561.78	59896.65
561.94	59842.82
562.11	59824.09
562.27	60135.38
562.44	59859.20
562.60	60182.19
562.77	59971.55
562.93	59835.80
563.10	60074.53
563.26	60013.68
563.42	60203.26
563.59	60013.68
563.75	59994.95
563.92	60107.30
564.08	59934.10
564.24	60317.95
564.41	60224.32
564.57	60191.56
564.74	60144.75
564.90	60123.68
565.07	60219.64
565.23	60114.32
565.39	60041.76
565.56	60193.90
565.72	60257.09
565.88	60144.75
566.05	59980.91
566.21	60175.17
566.38	60184.54
566.54	60278.16
566.70	60133.04
566.87	60502.85
567.03	60243.05
567.19	60477.10
567.36	60292.20
567.52	60224.32
567.68	60636.26
567.85	60509.87
568.01	60528.59
568.17	60488.80
568.34	60622.22
568.50	60282.84
568.66	60348.37
568.83	60430.29
568.99	60252.41
569.15	60584.77
569.32	60404.55
569.48	60652.64
569.64	60699.45
569.81	60346.03
569.97	60280.50
570.13	60699.45
570.30	60327.31
570.46	60544.98
570.62	60416.25
570.78	60374.12
570.95	60460.72
571.11	60687.75
571.27	60526.25
571.43	60509.87
571.60	60474.76
571.76	60594.13
571.92	60479.44
572.09	60509.87
572.25	60725.20
572.41	60526.25
572.57	60643.28
572.74	60884.36
572.90	60577.75
573.06	60825.84
573.22	60673.71
573.38	60603.49
573.55	60769.67
573.71	60877.33
573.87	60860.95
574.03	60580.09
574.20	60626.90
574.36	60540.30
574.52	60678.39
574.68	60837.54
574.84	60725.20
575.01	60645.62
575.17	60591.79
575.33	60694.77
575.49	60638.60
575.65	60938.19
575.82	60793.07
575.98	60956.91
576.14	60823.50
576.30	60729.88
576.46	60626.90
576.62	60790.73
576.79	60690.09
576.95	60526.25
577.11	60896.06
577.27	60750.94
577.43	60874.99
577.59	60666.69
577.75	60772.01
577.92	60439.65
578.08	60706.47
578.24	60556.68
578.40	60968.61
578.56	60938.19
578.72	60928.83
578.88	60828.18
579.04	60949.89
579.21	60837.54
579.37	60917.12
579.53	60961.59
579.69	60748.60
579.85	60839.89
580.01	60839.89
580.17	60732.22
580.33	60725.20
580.49	60910.10
580.65	60933.51
580.82	60889.04
580.98	60931.17
581.14	60917.12
581.30	61111.39
581.46	60870.31
581.62	60973.30
581.78	60924.14
581.94	60952.23
582.10	60935.85
582.26	60966.27
582.42	61076.28
582.58	61137.13
582.74	60973.30
582.90	60942.87
583.06	61001.38
583.22	60776.69
583.38	60842.23
583.54	61183.94
583.70	61102.03
583.86	61066.92
584.02	60874.99
584.18	61148.84
584.34	60938.19
584.50	61017.77
584.66	60914.78
584.82	60844.57
584.98	61139.47
585.14	60952.23
585.30	61020.11
585.46	61097.34
585.62	61144.16
585.78	61048.19
585.94	61071.60
586.10	61207.35
586.26	60956.91
586.42	61078.62
586.58	61134.79
586.74	61223.73
586.90	60877.33
587.06	60851.59
587.22	61073.94
587.38	60959.25
587.54	61282.25
587.70	61300.97
587.86	61055.21
588.02	61083.30
588.18	61111.39
588.34	61003.72
588.49	61099.68
