SpectraSuite Data File
++++++++++++++++++++++++++++++++++++
Date: Fri Oct 25 11:26:01 EDT 2013
User: price-jones
Dark Spectrum Present: No
Reference Spectrum Present: No
Number of Sampled Component Spectra: 1
Spectrometers: USB2+H05261
Integration Time (usec): 100000 (USB2+H05261)
Spectra Averaged: 1 (USB2+H05261)
Boxcar Smoothing: 0 (USB2+H05261)
Correct for Electrical Dark: No (USB2+H05261)
Strobe/Lamp Enabled: No (USB2+H05261)
Correct for Detector Non-linearity: No (USB2+H05261)
Correct for Stray Light: No (USB2+H05261)
Number of Pixels in Processed Spectrum: 2048
>>>>>Begin Processed Spectral Data<<<<<
365.73	241.08
365.92	241.08
366.12	241.08
366.32	140.43
366.52	93.62
366.72	159.16
366.91	107.66
367.11	168.52
367.31	231.71
367.51	142.77
367.70	124.05
367.90	152.13
368.10	133.41
368.30	86.60
368.49	86.60
368.69	184.90
368.89	227.03
369.09	93.62
369.28	166.18
369.48	133.41
369.68	212.99
369.87	238.73
370.07	236.39
370.27	224.69
370.47	351.08
370.66	554.71
370.86	671.73
371.06	596.84
371.25	791.10
371.45	638.97
371.65	734.93
371.84	671.73
372.04	638.97
372.24	697.48
372.44	816.85
372.63	716.20
372.83	774.72
373.03	758.33
373.22	826.21
373.42	732.59
373.62	755.99
373.81	805.14
374.01	816.85
374.21	819.19
374.40	800.46
374.60	835.57
374.79	849.61
374.99	849.61
375.19	887.06
375.38	849.61
375.58	840.25
375.78	903.45
375.97	844.93
376.17	887.06
376.37	856.64
376.56	786.42
376.76	968.98
376.95	903.45
377.15	931.53
377.35	877.70
377.54	898.77
377.74	870.68
377.93	931.53
378.13	889.40
378.33	908.13
378.52	833.23
378.72	933.87
378.91	926.85
379.11	987.71
379.31	959.62
379.50	961.96
379.70	987.71
379.89	1081.33
380.09	898.77
380.28	891.74
380.48	1008.77
380.68	1001.75
380.87	952.60
381.07	1036.86
381.26	936.21
381.46	983.02
381.65	1041.54
381.85	978.34
382.04	1055.58
382.24	1060.26
382.43	1020.47
382.63	1032.18
382.83	1135.16
383.02	997.07
383.22	1132.82
383.41	1167.93
383.61	1160.91
383.80	1198.35
384.00	1064.94
384.19	1198.35
384.39	1151.54
384.58	1149.20
384.78	1125.80
384.97	1156.22
385.17	1188.99
385.36	1156.22
385.56	1205.38
385.75	1186.65
385.95	1224.10
386.14	1179.63
386.34	1301.34
386.53	1191.33
386.72	1177.29
386.92	1181.97
387.11	1179.63
387.31	1200.69
387.50	1261.55
387.70	1231.12
387.89	1359.85
388.09	1378.58
388.28	1217.08
388.48	1259.21
388.67	1233.46
388.86	1301.34
389.06	1247.51
389.25	1362.19
389.45	1444.11
389.64	1268.57
389.84	1366.87
390.03	1455.81
390.22	1341.13
390.42	1315.38
390.61	1409.00
390.81	1401.98
391.00	1373.89
391.19	1528.37
391.39	1401.98
391.58	1474.54
391.78	1497.94
391.97	1474.54
392.16	1488.58
392.36	1519.01
392.55	1519.01
392.75	1556.46
392.94	1633.69
393.13	1483.90
393.33	1413.68
393.52	1614.97
393.71	1633.69
393.91	1577.52
394.10	1617.31
394.29	1715.61
394.49	1650.08
394.68	1659.44
394.88	1694.55
395.07	1689.87
395.26	1668.80
395.46	1668.80
395.65	1713.27
395.84	1720.29
396.04	1757.74
396.23	1696.89
396.42	1790.51
396.62	1739.02
396.81	1673.48
397.00	1666.46
397.19	1834.98
397.39	1898.17
397.58	1816.26
397.77	1830.30
397.97	1806.89
398.16	1905.20
398.35	1806.89
398.55	1839.66
398.74	1898.17
398.93	1870.09
399.12	1937.96
399.32	1877.11
399.51	1930.94
399.70	1977.75
399.90	1907.54
400.09	2057.33
400.28	1987.11
400.47	2043.29
400.67	2153.29
400.86	2054.99
401.05	2005.84
401.24	2083.08
401.44	2214.15
401.63	2085.42
401.82	2033.93
402.01	2148.61
402.21	2204.78
402.40	2195.42
402.59	2197.76
402.78	2134.57
402.97	2267.98
403.17	2181.38
403.36	2197.76
403.55	2366.28
403.74	2340.54
403.93	2202.44
404.13	2326.49
404.32	2314.79
404.51	2354.58
404.70	2424.80
404.89	2382.67
405.09	2424.80
405.28	2396.71
405.47	2392.03
405.66	2459.90
405.85	2558.21
406.05	2518.42
406.24	2448.20
406.43	2607.36
406.62	2605.02
406.81	2719.70
407.00	2565.23
407.20	2588.63
407.39	2696.30
407.58	2724.38
407.77	2752.47
407.96	2813.32
408.15	2778.22
408.34	2717.36
408.54	2726.72
408.73	2764.17
408.92	2843.75
409.11	2874.18
409.30	2902.26
409.49	2899.92
409.68	2995.89
409.87	2935.03
410.07	3045.04
410.26	2960.78
410.45	3056.74
410.64	2967.80
410.83	2998.23
411.02	3023.97
411.21	3157.38
411.40	3185.47
411.59	3211.22
411.78	3171.43
411.98	3239.30
412.17	3307.18
412.36	3318.88
412.55	3297.81
412.74	3405.48
412.93	3361.01
413.12	3295.47
413.31	3513.14
413.50	3517.83
413.69	3471.01
413.88	3503.78
414.07	3698.05
414.26	3534.21
414.45	3595.06
414.64	3695.71
414.83	3606.77
415.02	3555.27
415.22	3885.29
415.41	3819.75
415.60	3875.93
415.79	3803.37
415.98	3866.56
416.17	3925.08
416.36	3976.57
416.55	4025.72
416.74	4091.26
416.93	3988.27
417.12	4079.55
417.31	4154.45
417.50	4236.37
417.69	4437.66
417.88	4292.54
418.07	4248.07
418.26	4271.48
418.45	4334.67
418.64	4610.86
418.83	4489.15
419.02	4358.08
419.21	4482.13
419.39	4437.66
419.58	4421.27
419.77	4477.44
419.96	4475.10
420.15	4568.73
420.34	4587.45
420.53	4807.46
420.72	4697.46
420.91	4582.77
421.10	4739.58
421.29	4805.12
421.48	4606.17
421.67	4641.28
421.86	4772.35
422.05	4805.12
422.24	4795.76
422.43	4788.74
422.61	4849.59
422.80	4847.25
422.99	4975.98
423.18	4947.89
423.37	4882.36
423.56	5046.20
423.75	4812.14
423.94	4704.48
424.13	4624.90
424.32	4641.28
424.50	4943.21
424.69	5067.26
424.88	5046.20
425.07	5022.79
425.26	4940.87
425.45	4908.10
425.64	5011.09
425.83	4985.34
426.01	5231.10
426.20	5053.22
426.39	5034.49
426.58	5025.13
426.77	5118.75
426.96	5029.81
427.15	5186.63
427.33	5123.43
427.52	5231.10
427.71	5249.82
427.90	5102.37
428.09	5359.83
428.28	5476.85
428.46	5303.65
428.65	5289.61
428.84	5455.79
429.03	5416.00
429.22	5359.83
429.40	5455.79
429.59	5551.75
429.78	5165.56
429.97	5263.86
430.16	5472.17
430.34	5764.74
430.53	5795.17
430.72	5607.92
430.91	5767.08
431.10	5631.33
431.28	5947.30
431.47	5678.14
431.66	5823.25
431.85	5764.74
432.03	5872.40
432.22	5921.56
432.41	5919.21
432.60	5921.56
432.79	5989.43
432.97	6073.69
433.16	6090.07
433.35	6108.80
433.54	6040.92
433.72	6221.14
433.91	6099.44
434.10	6097.10
434.28	6012.84
434.47	6216.46
434.66	6340.51
434.85	6230.51
435.03	6403.71
435.22	6263.27
435.41	6483.28
435.59	6356.90
435.78	6490.31
435.97	6382.64
436.16	6506.69
436.34	6513.71
436.53	6492.65
436.72	6604.99
436.90	6551.16
437.09	6616.69
437.28	6593.29
437.46	6698.61
437.65	6771.17
437.84	6761.81
438.02	6663.51
438.21	6633.08
438.40	6684.57
438.58	6986.50
438.77	6953.73
438.96	6813.30
439.14	7117.57
439.33	7052.03
439.52	7054.37
439.70	7075.44
439.89	7152.68
440.08	7241.62
440.26	7531.84
440.45	7311.83
440.63	7288.43
440.82	7651.21
441.01	7487.37
441.19	7641.85
441.38	7667.60
441.57	7641.85
441.75	7857.18
441.94	7847.82
442.12	7850.16
442.31	8006.97
442.50	8030.38
442.68	7836.11
442.87	8140.38
443.05	8173.15
443.24	8086.55
443.43	8329.97
443.61	8278.47
443.80	8432.95
443.98	8035.06
444.17	7857.18
444.35	8112.30
444.54	8379.12
444.73	8299.54
444.91	8313.58
445.10	8292.52
445.28	8294.86
445.47	8168.47
445.65	8180.17
445.84	8554.66
446.02	8372.10
446.21	8421.25
446.39	8325.29
446.58	8575.72
446.77	8418.91
446.95	8215.28
447.14	8348.69
447.32	8659.98
447.51	8491.46
447.69	8446.99
447.88	8641.26
448.06	8458.70
448.25	8706.79
448.43	8613.17
448.62	8276.13
448.80	8470.40
448.99	8575.72
449.17	8622.53
449.36	8585.08
449.54	8964.25
449.73	9036.81
449.91	8980.64
450.10	8898.72
450.28	8975.95
450.46	9100.00
450.65	9256.82
450.83	9036.81
451.02	9144.47
451.20	9109.36
451.39	9207.67
451.57	9046.17
451.76	9039.15
451.94	9221.71
452.13	9329.38
452.31	9312.99
452.49	9320.01
452.68	9465.13
452.86	9483.85
453.05	9408.95
453.23	9488.53
453.42	9310.65
453.60	9397.25
453.78	9357.46
453.97	9479.17
454.15	9582.15
454.34	9570.45
454.52	9507.26
454.70	9774.08
454.89	9675.77
455.07	9682.80
455.26	9706.20
455.44	9804.50
455.62	9717.90
455.81	9841.95
455.99	10017.49
456.17	10146.22
456.36	10101.75
456.54	10092.39
456.73	10017.49
456.91	10534.75
457.09	10424.75
457.28	10609.65
457.46	10312.40
457.64	10576.88
457.83	10614.33
458.01	10537.09
458.19	10752.42
458.38	10429.43
458.56	10595.61
458.74	10637.73
458.93	10635.39
459.11	10616.67
459.29	10530.07
459.48	10729.02
459.66	10871.79
459.84	10918.60
460.03	10942.00
460.21	11028.60
460.39	10972.43
460.57	11005.20
460.76	11194.78
460.94	11028.60
461.12	11222.87
461.31	11047.33
461.49	11026.26
461.67	11311.81
461.85	11445.22
462.04	11206.48
462.22	11634.80
462.40	11517.78
462.59	11543.52
462.77	11414.79
462.95	11669.91
463.13	11489.69
463.32	11520.12
463.50	11864.18
463.68	11606.72
463.86	11927.37
464.05	11786.94
464.23	11683.95
464.41	11803.32
464.59	11566.93
464.78	12222.28
464.96	12091.21
465.14	11843.11
465.32	12042.06
465.50	12109.93
465.69	12077.16
465.87	12358.03
466.05	12163.76
466.23	12081.85
466.41	12318.24
466.60	12552.29
466.78	12133.34
466.96	12243.34
467.14	12259.73
467.32	12397.82
467.51	12453.99
467.69	12175.47
467.87	12599.10
468.05	12580.38
468.23	12266.75
468.41	12496.12
468.60	12341.64
468.78	12706.77
468.96	12613.15
469.14	12556.97
469.32	12851.88
469.50	12526.55
469.69	12854.22
469.87	13062.53
470.05	13165.51
470.23	12985.29
470.41	13062.53
470.59	13535.32
470.77	13483.83
470.95	13233.39
471.14	13334.03
471.32	13289.56
471.50	13685.11
471.68	13465.10
471.86	13692.13
472.04	13706.18
472.22	13841.93
472.40	13497.87
472.58	13846.61
472.77	13926.19
472.95	14185.99
473.13	14579.20
473.31	14298.33
473.49	14155.56
473.67	13919.17
473.85	14300.67
474.03	14452.81
474.21	14750.06
474.39	14567.49
474.57	14541.75
474.75	14661.12
474.93	15089.43
475.12	14906.87
475.30	15138.58
475.48	14906.87
475.66	15084.75
475.84	15222.84
476.02	15281.36
476.20	15215.82
476.38	15463.92
476.56	15974.16
476.74	15688.61
476.92	15791.59
477.10	15948.41
477.28	16084.16
477.46	15920.32
477.64	16236.30
477.82	16360.34
478.00	16978.25
478.18	16865.90
478.36	16940.80
478.54	16968.88
478.72	16985.27
478.90	17366.78
479.08	17834.88
479.26	17607.85
479.44	17554.02
479.62	17872.33
479.80	18024.47
479.98	18092.34
480.16	18600.24
480.34	18174.26
480.52	18740.67
480.70	18696.20
480.88	18314.69
481.06	18733.65
481.24	18743.01
481.41	18855.36
481.59	19197.07
481.77	19651.14
481.95	19503.68
482.13	19847.74
482.31	19838.38
482.49	20013.92
482.67	19601.99
482.85	20510.11
483.03	20526.50
483.21	20814.38
483.39	20851.83
483.57	20767.57
483.74	21069.50
483.92	21263.77
484.10	21451.01
484.28	21722.51
484.46	21977.63
484.64	22132.11
484.82	21804.43
485.00	22338.07
485.18	22775.75
485.35	22984.06
485.53	22757.03
485.71	23012.15
485.89	23529.41
486.07	23307.05
486.25	23700.26
486.43	23508.34
486.61	23775.16
486.78	24027.94
486.96	24030.28
487.14	24624.78
487.32	24584.99
487.50	24826.06
487.68	24652.86
487.85	25350.34
488.03	25420.56
488.21	25776.32
488.39	25535.24
488.57	25954.20
488.75	25816.11
488.92	26614.23
489.10	26541.68
489.28	26635.30
489.46	27332.78
489.64	26920.84
489.81	27604.28
489.99	27737.69
490.17	27679.18
490.35	28222.18
490.53	28591.98
490.70	28407.08
490.88	28287.71
491.06	28753.48
491.24	28753.48
491.41	29081.16
491.59	29113.92
491.77	29163.08
491.95	29663.95
492.13	29373.72
492.30	29731.83
492.48	30008.01
492.66	29919.07
492.84	30387.18
493.01	30705.49
493.19	30492.50
493.37	31030.82
493.54	30967.63
493.72	31784.48
493.90	31344.45
494.08	32072.36
494.25	31929.59
494.43	31922.57
494.61	32343.86
494.79	32393.01
494.96	32393.01
495.14	32863.46
495.32	32931.34
495.49	33167.73
495.67	33343.27
495.85	33429.87
496.02	33916.70
496.20	34010.32
496.38	33900.32
496.55	33902.66
496.73	34712.49
496.91	34323.96
497.09	34848.24
497.26	34616.52
497.44	34698.44
497.62	35260.17
497.79	35934.24
497.97	35473.16
498.14	35695.51
498.32	36081.70
498.50	35665.08
498.67	36432.78
498.85	36130.85
499.03	36910.25
499.20	36816.63
499.38	36870.46
499.56	37221.54
499.73	37289.42
499.91	37368.99
500.08	37584.32
500.26	37607.73
500.44	37331.54
500.61	37696.67
500.79	37687.31
500.97	38305.21
501.14	38469.04
501.32	38651.61
501.49	38546.28
501.67	38611.82
501.84	38920.77
502.02	38836.51
502.20	38979.28
502.37	38841.19
502.55	39189.93
502.72	39353.77
502.90	39393.56
503.07	39782.09
503.25	39388.88
503.43	39812.51
503.60	39807.83
503.78	40325.09
503.95	40025.50
504.13	40477.22
504.30	40940.65
504.48	40350.84
504.65	40364.88
504.83	40744.05
505.01	40996.82
505.18	41165.34
505.36	41591.32
505.53	41127.89
505.71	41605.36
505.88	41347.90
506.06	41511.74
506.23	41839.42
506.41	41738.77
506.58	41984.53
506.76	41834.74
506.93	42497.11
507.11	42181.13
507.28	42593.07
507.46	42518.17
507.63	42906.70
507.81	42946.49
507.98	42822.44
508.16	43159.48
508.33	43632.27
508.50	43393.53
508.68	43742.27
508.85	43700.14
509.03	43419.28
509.20	43852.28
509.38	44278.25
509.55	44219.74
509.73	44025.48
509.90	44755.72
510.08	44678.49
510.25	44697.21
510.42	44825.94
510.60	45347.88
510.77	45221.49
510.95	45202.77
511.12	44704.23
511.30	45160.64
511.47	45303.41
511.64	45542.14
511.82	46092.17
511.99	45312.77
512.17	45668.53
512.34	45750.45
512.51	46520.49
512.69	46469.00
512.86	46562.62
513.04	46485.38
513.21	46738.16
513.38	46813.05
513.56	46883.27
513.73	46986.25
513.90	46892.63
514.08	47040.09
514.25	47054.13
514.43	47250.74
514.60	47430.96
514.77	47028.38
514.95	47643.94
515.12	47372.44
515.29	47445.00
515.47	47718.84
515.64	47936.51
515.81	47646.29
515.99	47817.14
516.16	48051.20
516.33	48098.01
516.51	48746.34
516.68	48538.03
516.85	48261.85
517.03	48849.32
517.20	48783.79
517.37	48498.24
517.54	48790.81
517.72	49174.66
517.89	48947.62
518.06	49366.58
518.24	49544.46
518.41	49102.10
518.58	49272.96
518.75	49179.34
518.93	50010.23
519.10	49202.74
519.27	49586.59
519.45	49399.35
519.62	49921.29
519.79	49851.07
519.96	50040.65
520.14	50394.07
520.31	50143.64
520.48	50539.19
520.65	50216.19
520.83	50412.80
521.00	50583.66
521.17	50230.24
521.34	50595.36
521.52	50569.61
521.69	50855.16
521.86	50967.51
522.03	50967.51
522.20	51222.62
522.38	51269.43
522.55	51208.58
522.72	51136.02
522.89	51489.45
523.07	51452.00
523.24	51566.68
523.41	51906.06
523.58	51583.07
523.75	51772.65
523.92	51929.47
524.10	52069.90
524.27	51990.32
524.44	51859.25
524.61	52168.20
524.78	51999.68
524.96	52083.94
525.13	52343.74
525.30	52271.18
525.47	52734.61
525.64	52545.03
525.81	52442.04
525.98	52458.43
526.16	52568.43
526.33	52790.78
526.50	52718.23
526.67	52699.50
526.84	52858.66
527.01	52879.72
527.18	52846.96
527.36	52437.36
527.53	52994.41
527.70	53148.88
527.87	53303.36
528.04	53212.08
528.21	53303.36
528.38	53441.45
528.55	53366.55
528.72	53350.17
528.89	53392.30
529.07	53584.22
529.24	53462.52
529.41	53932.96
529.58	53605.29
529.75	53380.60
529.92	53766.79
530.09	53680.19
530.26	53923.60
530.43	53804.24
530.60	53481.24
530.77	53647.42
530.94	54244.26
531.11	54040.63
531.28	53890.83
531.46	54457.24
531.63	54312.13
531.80	54195.10
531.97	54010.20
532.14	54176.38
532.31	54288.73
532.48	54333.20
532.65	54726.41
532.82	54482.99
532.99	54480.65
533.16	54501.71
533.33	54759.17
533.50	54841.09
533.67	54822.37
533.84	54431.50
534.01	54845.77
534.18	54784.92
534.35	55311.54
534.52	54953.44
534.69	54937.05
534.86	55030.68
535.03	55000.25
535.20	54901.95
535.37	55433.25
535.54	55255.37
535.71	55372.39
535.88	55449.63
536.05	55377.08
536.22	55711.77
536.38	55669.64
536.55	55519.85
536.72	55583.04
536.89	55423.89
537.06	55842.84
537.23	55798.37
537.40	55363.03
537.57	55877.95
537.74	55774.97
537.91	55910.72
538.08	55821.78
538.25	55622.83
538.42	55889.65
538.59	56030.08
538.75	55910.72
538.92	56074.55
539.09	56002.00
539.26	56020.72
539.43	56177.54
539.60	56273.50
539.77	56067.53
539.94	56432.66
540.11	56310.95
540.28	56257.12
540.44	56367.12
540.61	56453.72
540.78	56425.64
540.95	56360.10
541.12	56629.26
541.29	56622.24
541.46	56381.16
541.62	56722.88
541.79	56704.16
541.96	56355.42
542.13	56781.40
542.30	56493.51
542.47	56875.02
542.63	56863.32
542.80	56711.18
542.97	57118.43
543.14	57181.63
543.31	56968.64
543.48	57153.54
543.64	57411.00
543.81	57460.15
543.98	57354.83
544.15	57429.72
544.32	57425.04
544.48	57677.82
544.65	57162.90
544.82	57305.68
544.99	57090.35
545.16	57888.47
545.32	57380.57
545.49	57825.28
545.66	57546.75
545.83	57476.54
546.00	57490.58
546.16	57528.03
546.33	57558.45
546.50	57448.45
546.67	57825.28
546.83	57406.32
547.00	57808.89
547.17	57623.99
547.34	57836.98
547.50	57769.10
547.67	57961.03
547.84	57916.56
548.00	57930.60
548.17	58092.10
548.34	58213.80
548.51	58117.84
548.67	58188.06
548.84	57968.05
549.01	58005.50
549.18	58099.12
549.34	58019.54
549.51	58394.03
549.68	58230.19
549.84	58450.20
550.01	58415.09
550.18	58115.50
550.34	58408.07
550.51	58307.43
550.68	58305.09
550.84	58010.18
551.01	58562.54
551.18	58443.18
551.34	58471.26
551.51	58511.05
551.68	58766.17
551.84	58560.20
552.01	58333.17
552.18	58653.82
552.34	58464.24
552.51	58726.38
552.68	58541.48
552.84	58492.33
553.01	58880.86
553.18	58754.47
553.34	58845.75
553.51	58763.83
553.67	58738.08
553.84	59002.56
554.01	59011.93
554.17	59037.67
554.34	59091.51
554.51	59023.63
554.67	58913.62
554.84	58962.78
555.00	58869.15
555.17	59016.61
555.33	58925.33
555.50	58756.81
555.67	58932.35
555.83	58988.52
556.00	59049.38
556.16	59400.46
556.33	59164.06
556.50	59313.86
556.66	59206.19
556.83	58972.14
556.99	59580.68
557.16	59405.14
557.32	59494.08
557.49	59449.61
557.65	59337.26
557.82	59428.54
557.98	59487.06
558.15	59374.71
558.32	59568.97
558.48	59166.40
558.65	59498.76
558.81	59606.42
558.98	59482.37
559.14	59299.81
559.31	59601.74
559.47	59646.21
559.64	59676.64
559.80	59711.75
559.97	59704.73
560.13	59536.21
560.30	59580.68
560.46	59657.91
560.63	59664.94
560.79	59625.15
560.96	59814.73
561.12	59751.54
561.29	59849.84
561.45	59910.69
561.61	59819.41
561.78	59875.58
561.94	59554.93
562.11	59779.62
562.27	59693.02
562.44	59856.86
562.60	59971.55
562.77	60114.32
562.93	59987.93
563.10	59917.71
563.26	59711.75
563.42	59994.95
563.59	60055.81
563.75	60041.76
563.92	59746.86
564.08	59973.89
564.24	59980.91
564.41	60079.21
564.57	60135.38
564.74	60090.91
564.90	60203.26
565.07	60018.36
565.23	60224.32
565.39	60097.94
565.56	60140.07
565.72	59901.33
565.88	60172.83
566.05	59983.25
566.21	60072.19
566.38	60158.79
566.54	60191.56
566.70	60397.52
566.87	60371.78
567.03	60322.63
567.19	60254.75
567.36	60090.91
567.52	60310.92
567.68	60547.32
567.85	60376.46
568.01	60486.46
568.17	60198.58
568.34	60463.06
568.50	60399.86
568.66	60378.80
568.83	60369.44
568.99	60367.10
569.15	60427.95
569.32	60308.58
569.48	60184.54
569.64	60708.82
569.81	60498.17
569.97	60353.05
570.13	60427.95
570.30	60418.59
570.46	60561.36
570.62	60453.70
570.78	60463.06
570.95	60596.47
571.11	60638.60
571.27	60526.25
571.43	60601.15
571.60	60617.53
571.76	60439.65
571.92	60610.51
572.09	60601.15
572.25	60477.10
572.41	60449.02
572.57	60500.51
572.74	61031.81
572.90	60446.68
573.06	60540.30
573.22	60369.44
573.38	60465.40
573.55	60706.47
573.71	60708.82
573.87	60704.13
574.03	60390.50
574.20	60547.32
574.36	60743.92
574.52	60718.18
574.68	60615.19
574.84	60671.37
575.01	60568.38
575.17	60666.69
575.33	60554.34
575.49	60493.49
575.65	60697.11
575.82	60697.11
575.98	60755.63
576.14	60818.82
576.30	60830.52
576.46	60673.71
576.62	60650.30
576.79	60853.93
576.95	60638.60
577.11	60722.86
577.27	60657.32
577.43	60945.21
577.59	60671.37
577.75	60776.69
577.92	60549.66
578.08	60811.80
578.24	60912.44
578.40	61031.81
578.56	60842.23
578.72	60647.96
578.88	61031.81
579.04	60842.23
579.21	60790.73
579.37	60963.93
579.53	60931.17
579.69	60783.71
579.85	60694.77
580.01	60711.16
580.17	60729.88
580.33	60921.80
580.49	60790.73
580.65	60818.82
580.82	60776.69
580.98	60788.39
581.14	60713.50
581.30	61017.77
581.46	60821.16
581.62	60725.20
581.78	60629.24
581.94	60830.52
582.10	60856.27
582.26	60858.61
582.42	60736.90
582.58	60910.10
582.74	60753.29
582.90	61001.38
583.06	60652.64
583.22	60732.22
583.38	60741.58
583.54	60954.57
583.70	60896.06
583.86	60867.97
584.02	60757.97
584.18	60900.74
584.34	60769.67
584.50	60996.70
584.66	60963.93
584.82	60947.55
584.98	61190.97
585.14	60949.89
585.30	60980.32
585.46	60966.27
585.62	60926.49
585.78	61052.87
585.94	60708.82
586.10	60917.12
586.26	60867.97
586.42	61024.79
586.58	61055.21
586.74	60872.65
586.90	61013.08
587.06	60907.76
587.22	61310.33
587.38	60910.10
587.54	61216.71
587.70	61249.48
587.86	61144.16
588.02	60963.93
588.18	61277.57
588.34	61123.09
588.49	61010.74
