SpectraSuite Data File
++++++++++++++++++++++++++++++++++++
Date: Fri Oct 25 11:26:19 EDT 2013
User: price-jones
Dark Spectrum Present: No
Reference Spectrum Present: No
Number of Sampled Component Spectra: 1
Spectrometers: USB2+H05261
Integration Time (usec): 100000 (USB2+H05261)
Spectra Averaged: 1 (USB2+H05261)
Boxcar Smoothing: 0 (USB2+H05261)
Correct for Electrical Dark: No (USB2+H05261)
Strobe/Lamp Enabled: No (USB2+H05261)
Correct for Detector Non-linearity: No (USB2+H05261)
Correct for Stray Light: No (USB2+H05261)
Number of Pixels in Processed Spectrum: 2048
>>>>>Begin Processed Spectral Data<<<<<
365.73	252.78
365.92	252.78
366.12	252.78
366.32	234.05
366.52	100.64
366.72	220.01
366.91	184.90
367.11	149.79
367.31	142.77
367.51	121.71
367.70	88.94
367.90	140.43
368.10	121.71
368.30	196.60
368.49	128.73
368.69	201.29
368.89	194.26
369.09	161.50
369.28	210.65
369.48	168.52
369.68	124.05
369.87	163.84
370.07	297.25
370.27	248.10
370.47	353.42
370.66	550.03
370.86	664.71
371.06	655.35
371.25	669.39
371.45	734.93
371.65	645.99
371.84	664.71
372.04	725.57
372.24	706.84
372.44	716.20
372.63	723.23
372.83	746.63
373.03	727.91
373.22	732.59
373.42	755.99
373.62	814.51
373.81	828.55
374.01	858.98
374.21	758.33
374.40	842.59
374.60	819.19
374.79	816.85
374.99	847.27
375.19	786.42
375.38	819.19
375.58	819.19
375.78	861.32
375.97	795.78
376.17	840.25
376.37	856.64
376.56	858.98
376.76	877.70
376.95	741.95
377.15	926.85
377.35	903.45
377.54	873.02
377.74	901.11
377.93	901.11
378.13	954.94
378.33	915.15
378.52	947.92
378.72	929.19
378.91	943.24
379.11	985.37
379.31	929.19
379.50	887.06
379.70	968.98
379.89	999.41
380.09	1022.81
380.28	1011.11
380.48	1055.58
380.68	898.77
380.87	994.73
381.07	1029.84
381.26	1011.11
381.46	1004.09
381.65	1036.86
381.85	1076.65
382.04	1046.22
382.24	1034.52
382.43	1071.97
382.63	1088.35
382.83	1149.20
383.02	1104.73
383.22	1116.44
383.41	1074.31
383.61	1142.18
383.80	1074.31
384.00	1149.20
384.19	1090.69
384.39	1177.29
384.58	1172.61
384.78	1163.25
384.97	1207.72
385.17	1104.73
385.36	1191.33
385.56	1149.20
385.75	1137.50
385.95	1181.97
386.14	1217.08
386.34	1270.91
386.53	1313.04
386.72	1219.42
386.92	1224.10
387.11	1135.16
387.31	1118.78
387.50	1266.23
387.70	1224.10
387.89	1266.23
388.09	1296.66
388.28	1203.04
388.48	1284.95
388.67	1263.89
388.86	1226.44
389.06	1299.00
389.25	1315.38
389.45	1282.61
389.64	1301.34
389.84	1376.24
390.03	1432.41
390.22	1329.42
390.42	1355.17
390.61	1348.15
390.81	1371.55
391.00	1394.96
391.19	1420.71
391.39	1425.39
391.58	1444.11
391.78	1425.39
391.97	1362.19
392.16	1451.13
392.36	1547.09
392.55	1556.46
392.75	1577.52
392.94	1490.92
393.13	1612.63
393.33	1614.97
393.52	1533.05
393.71	1584.54
393.91	1556.46
394.10	1680.50
394.29	1682.85
394.49	1621.99
394.68	1563.48
394.88	1633.69
395.07	1706.25
395.26	1685.19
395.46	1671.14
395.65	1703.91
395.84	1727.32
396.04	1722.63
396.23	1732.00
396.42	1785.83
396.62	1778.81
396.81	1844.34
397.00	1811.57
397.19	1804.55
397.39	1734.34
397.58	1792.85
397.77	1839.66
397.97	1930.94
398.16	1739.02
398.35	1884.13
398.55	1952.01
398.74	1905.20
398.93	1966.05
399.12	1994.14
399.32	1839.66
399.51	1914.56
399.70	2022.22
399.90	2005.84
400.09	1916.90
400.28	1996.48
400.47	2064.35
400.67	2087.76
400.86	1991.80
401.05	2125.21
401.24	2122.87
401.44	2167.34
401.63	2218.83
401.82	2265.64
402.01	2101.80
402.21	2232.87
402.40	2239.89
402.59	2150.95
402.78	2155.63
402.97	2218.83
403.17	2237.55
403.36	2319.47
403.55	2307.77
403.74	2396.71
403.93	2314.79
404.13	2319.47
404.32	2385.01
404.51	2429.48
404.70	2377.98
404.89	2373.30
405.09	2462.24
405.28	2452.88
405.47	2450.54
405.66	2560.55
405.85	2495.01
406.05	2473.95
406.24	2420.11
406.43	2562.89
406.62	2623.74
406.81	2558.21
407.00	2623.74
407.20	2595.65
407.39	2693.96
407.58	2686.94
407.77	2787.58
407.96	2827.37
408.15	2733.75
408.34	2644.81
408.54	2822.69
408.73	2745.45
408.92	2808.64
409.11	2899.92
409.30	2906.95
409.49	2909.29
409.68	2906.95
409.87	2937.37
410.07	2920.99
410.26	2977.16
410.45	2979.50
410.64	3098.87
410.83	3169.09
411.02	3075.46
411.21	3187.81
411.40	3054.40
411.59	3229.94
411.78	3152.70
411.98	3192.49
412.17	3267.39
412.36	3213.56
412.55	3302.50
412.74	3330.58
412.93	3337.60
413.12	3382.07
413.31	3461.65
413.50	3545.91
413.69	3478.04
413.88	3651.24
414.07	3648.90
414.26	3714.43
414.45	3609.11
414.64	3702.73
414.83	3721.45
415.02	3786.99
415.22	3843.16
415.41	3861.88
415.60	3847.84
415.79	3758.90
415.98	3873.59
416.17	4049.13
416.36	3936.78
416.55	3868.91
416.74	4084.23
416.93	3974.23
417.12	4109.98
417.31	4032.74
417.50	4081.89
417.69	4248.07
417.88	4133.39
418.07	4149.77
418.26	4159.13
418.45	4243.39
418.64	4524.26
418.83	4318.29
419.02	4397.87
419.21	4355.74
419.39	4636.60
419.58	4491.49
419.77	4360.42
419.96	4655.33
420.15	4667.03
420.34	4638.94
420.53	4674.05
420.72	4720.86
420.91	4660.01
421.10	4706.82
421.29	4821.50
421.48	4645.96
421.67	4753.63
421.86	4795.76
422.05	4830.87
422.24	4739.58
422.43	4858.95
422.61	4889.38
422.80	4961.94
422.99	4788.74
423.18	4952.57
423.37	5132.79
423.56	4828.53
423.75	4887.04
423.94	4795.76
424.13	4489.15
424.32	4615.54
424.50	4987.68
424.69	5006.41
424.88	5231.10
425.07	5034.49
425.26	4823.84
425.45	4847.25
425.64	4875.34
425.83	5107.05
426.01	5069.60
426.20	5151.52
426.39	5156.20
426.58	4983.00
426.77	5132.79
426.96	5027.47
427.15	5055.56
427.33	5275.57
427.52	5123.43
427.71	5287.27
427.90	5305.99
428.09	5308.34
428.28	5401.96
428.46	5238.12
428.65	5149.18
428.84	5420.68
429.03	5591.54
429.22	5408.98
429.40	5528.35
429.59	5572.82
429.78	5444.09
429.97	5226.42
430.16	5348.12
430.34	5643.03
430.53	5673.46
430.72	5722.61
430.91	5692.18
431.10	5682.82
431.28	5827.93
431.47	5802.19
431.66	5923.90
431.85	5743.67
432.03	5898.15
432.22	5870.06
432.41	5867.72
432.60	5806.87
432.79	5909.85
432.97	6029.22
433.16	5928.58
433.35	5935.60
433.54	6064.33
433.72	6019.86
433.91	5982.41
434.10	6083.05
434.28	6057.31
434.47	6195.40
434.66	6321.79
434.85	6202.42
435.03	6265.61
435.22	6136.88
435.41	6502.01
435.59	6485.62
435.78	6230.51
435.97	6546.48
436.16	6415.41
436.34	6450.52
436.53	6396.68
436.72	6518.39
436.90	6492.65
437.09	6820.32
437.28	6354.55
437.46	6509.03
437.65	6600.31
437.84	6635.42
438.02	6743.08
438.21	6792.23
438.40	6778.19
438.58	7091.82
438.77	7061.40
438.96	6909.26
439.14	7073.10
439.33	7075.44
439.52	7105.87
439.70	7248.64
439.89	7206.51
440.08	7155.02
440.26	7351.62
440.45	7199.49
440.63	7314.17
440.82	7522.48
441.01	7358.64
441.19	7541.21
441.38	7658.23
441.57	7758.88
441.75	7822.07
441.94	7880.58
442.12	7988.25
442.31	8049.10
442.50	7978.89
442.68	7878.24
442.87	8121.66
443.05	8161.45
443.24	8252.73
443.43	7992.93
443.61	8091.23
443.80	8561.68
443.98	8105.28
444.17	7730.79
444.35	8355.71
444.54	8411.89
444.73	8262.09
444.91	8259.75
445.10	8351.03
445.28	8332.31
445.47	8285.50
445.65	8196.56
445.84	8402.52
446.02	8287.84
446.21	8470.40
446.39	8098.25
446.58	8344.01
446.77	8332.31
446.95	8168.47
447.14	8407.20
447.32	8566.36
447.51	8461.04
447.69	8175.49
447.88	8402.52
448.06	8552.32
448.25	8547.64
448.43	8549.98
448.62	8533.59
448.80	8451.67
448.99	8519.55
449.17	8725.52
449.36	8568.70
449.54	8875.31
449.73	8915.10
449.91	9008.72
450.10	8901.06
450.28	8936.17
450.46	8821.48
450.65	8922.12
450.83	9027.45
451.02	9095.32
451.20	9055.53
451.39	9118.73
451.57	9146.81
451.76	8959.57
451.94	9287.25
452.13	9305.97
452.31	9291.93
452.49	9116.39
452.68	9282.56
452.86	9245.12
453.05	9308.31
453.23	9479.17
453.42	9312.99
453.60	9357.46
453.78	9533.00
453.97	9200.65
454.15	9413.63
454.34	9497.89
454.52	9638.33
454.70	9610.24
454.89	9692.16
455.07	9792.80
455.26	9820.89
455.44	9844.29
455.62	9727.27
455.81	10026.86
455.99	9865.36
456.17	10047.92
456.36	10001.11
456.54	9863.02
456.73	10169.63
456.91	10260.91
457.09	10780.51
457.28	10356.87
457.46	10146.22
457.64	10429.43
457.83	10581.56
458.01	10300.70
458.19	10523.05
458.38	10476.24
458.56	10731.36
458.74	10530.07
458.93	10682.20
459.11	10977.11
459.29	10654.12
459.48	10836.68
459.66	10693.91
459.84	10780.51
460.03	10991.16
460.21	10979.45
460.39	10906.90
460.57	10829.66
460.76	11145.63
460.94	11014.56
461.12	11019.24
461.31	11117.54
461.49	11396.07
461.67	11194.78
461.85	11449.90
462.04	11274.36
462.22	11798.64
462.40	11606.72
462.59	11370.32
462.77	11365.64
462.95	11669.91
463.13	11473.31
463.32	11578.63
463.50	11803.32
463.68	11796.30
463.86	11707.36
464.05	11456.92
464.23	11592.67
464.41	11899.28
464.59	11499.05
464.78	12079.50
464.96	12072.48
465.14	11873.54
465.32	12166.10
465.50	11985.88
465.69	12121.63
465.87	12297.17
466.05	12016.31
466.23	12343.99
466.41	12107.59
466.60	12189.51
466.78	12208.23
466.96	12379.09
467.14	12231.64
467.32	12498.46
467.51	12638.89
467.69	12135.68
467.87	12372.07
468.05	12292.49
468.23	12322.92
468.41	12444.63
468.60	12645.91
468.78	12594.42
468.96	12430.59
469.14	12980.61
469.32	12863.58
469.50	12533.57
469.69	13151.47
469.87	13060.19
470.05	13083.59
470.23	13121.04
470.41	13156.15
470.59	13184.24
470.77	12987.63
470.95	13163.17
471.14	13305.95
471.32	13036.78
471.50	13437.02
471.68	13671.07
471.86	13802.14
472.04	13563.40
472.22	14157.90
472.40	13741.29
472.58	13832.57
472.77	13834.91
472.95	14162.58
473.13	14335.78
473.31	14160.24
473.49	13806.82
473.67	13884.06
473.85	14167.26
474.03	14569.83
474.21	14663.46
474.39	14984.11
474.57	14497.28
474.75	14806.23
474.93	14771.12
475.12	14586.22
475.30	15140.93
475.48	15035.60
475.66	15145.61
475.84	15169.01
476.02	15592.65
476.20	15379.66
476.38	15484.98
476.56	15747.12
476.74	16079.48
476.92	15885.22
477.10	15475.62
477.28	16133.31
477.46	16016.29
477.64	16540.57
477.82	16477.37
478.00	17118.68
478.18	16725.47
478.36	16638.87
478.54	17046.12
478.72	17329.33
478.90	17060.16
479.08	17626.57
479.26	17528.27
479.44	17628.92
479.62	17570.40
479.80	18026.81
479.98	17982.34
480.16	18787.48
480.34	17982.34
480.52	18487.89
480.70	18579.17
480.88	18150.85
481.06	18675.13
481.24	18853.02
481.41	18787.48
481.59	19164.31
481.77	19225.16
481.95	19424.11
482.13	19370.27
482.31	19517.73
482.49	20262.02
482.67	20095.84
482.85	20290.10
483.03	20365.00
483.21	20460.96
483.39	20896.30
483.57	20847.15
483.74	21177.17
483.92	21516.54
484.10	21027.37
484.28	21493.14
484.46	21778.68
484.64	22230.41
484.82	21855.92
485.00	22670.43
485.18	22651.70
485.35	22970.02
485.53	22787.46
485.71	22820.22
485.89	23257.90
486.07	23225.14
486.25	23058.96
486.43	23346.84
486.61	23906.23
486.78	23960.06
486.96	24184.76
487.14	24411.79
487.32	24418.81
487.50	24332.21
487.68	24746.48
487.85	24830.74
488.03	25355.02
488.21	25483.75
488.39	25411.20
488.57	25785.68
488.75	25996.33
488.92	26422.31
489.10	26707.85
489.28	26635.30
489.46	26569.76
489.64	26745.30
489.81	27267.24
489.99	27342.14
490.17	27569.17
490.35	27566.83
490.53	28037.28
490.70	28374.31
490.88	28208.14
491.06	28797.95
491.24	28514.75
491.41	29184.14
491.59	29060.09
491.77	29163.08
491.95	29558.63
492.13	29369.04
492.30	29802.04
492.48	29614.80
492.66	29930.77
492.84	30118.01
493.01	30602.50
493.19	30321.64
493.37	30841.24
493.54	30855.28
493.72	31278.92
493.90	31337.43
494.08	31756.39
494.25	32030.23
494.43	31807.88
494.61	32063.00
494.79	32404.72
494.96	32292.37
495.14	32395.35
495.32	32882.19
495.49	32655.15
495.67	33214.54
495.85	33434.55
496.02	33818.40
496.20	33832.44
496.38	34284.17
496.55	33624.14
496.73	34932.50
496.91	34511.20
497.09	34780.36
497.26	34902.07
497.44	35026.12
497.62	35140.80
497.79	35688.49
497.97	35321.02
498.14	35732.96
498.32	35974.03
498.50	36018.50
498.67	36624.70
498.85	36503.00
499.03	36624.70
499.20	36673.85
499.38	36884.50
499.56	36875.14
499.73	37144.30
499.91	37001.53
500.08	37521.13
500.26	37448.57
500.44	37928.38
500.61	37509.43
500.79	37481.34
500.97	37479.00
501.14	38260.74
501.32	38141.37
501.49	38515.86
501.67	38190.52
501.84	38740.55
502.02	38740.55
502.20	38810.76
502.37	39068.22
502.55	38785.02
502.72	39356.11
502.90	39475.48
503.07	39119.71
503.25	39468.45
503.43	39175.89
503.60	39395.90
503.78	40076.99
503.95	40411.69
504.13	40411.69
504.30	39962.31
504.48	40055.93
504.65	40804.90
504.83	40645.74
505.01	41081.08
505.18	40744.05
505.36	41141.94
505.53	41240.24
505.71	41626.43
505.88	41537.49
506.06	41516.42
506.23	41851.12
506.41	41706.01
506.58	41694.30
506.76	41888.57
506.93	42445.62
507.11	42281.78
507.28	42309.86
507.46	42536.90
507.63	42829.46
507.81	42986.28
507.98	42780.31
508.16	42857.55
508.33	43473.11
508.50	43145.44
508.68	43459.07
508.85	43990.37
509.03	43402.89
509.20	43789.08
509.38	43997.39
509.55	44435.07
509.73	44088.67
509.90	44664.44
510.08	44189.31
510.25	44655.08
510.42	44802.53
510.60	44737.00
510.77	44919.56
510.95	44912.54
511.12	44856.37
511.30	45095.10
511.47	45052.97
511.64	45160.64
511.82	45647.47
511.99	45595.98
512.17	46124.94
512.34	45830.03
512.51	45954.08
512.69	46169.41
512.86	45729.39
513.04	46382.40
513.21	46028.98
513.38	46506.44
513.56	46274.73
513.73	46637.51
513.90	46740.50
514.08	46850.50
514.25	47456.70
514.43	47344.36
514.60	47550.32
514.77	47037.75
514.95	47777.36
515.12	47288.18
515.29	47477.77
515.47	47632.24
515.64	48102.69
515.81	47655.65
515.99	47730.54
516.16	47971.62
516.33	48051.20
516.51	48381.21
516.68	48224.40
516.85	48325.04
517.03	48360.15
517.20	48790.81
517.37	48549.73
517.54	48598.88
517.72	48229.08
517.89	48261.85
518.06	49146.57
518.24	49450.84
518.41	49357.22
518.58	49247.21
518.75	49340.83
518.93	49546.80
519.10	48966.35
519.27	49347.86
519.45	49584.25
519.62	49471.90
519.79	49869.79
519.96	50050.02
520.14	49996.18
520.31	50047.68
520.48	50246.62
520.65	50075.76
520.83	50164.70
521.00	50323.86
521.17	50237.26
521.34	50487.70
521.52	50705.37
521.69	50705.37
521.86	50885.59
522.03	50969.85
522.20	51047.08
522.38	51320.93
522.55	51372.42
522.72	51091.55
522.89	51199.22
523.07	51367.74
523.24	51274.12
523.41	51494.13
523.58	51447.32
523.75	51461.36
523.92	51723.50
524.10	51866.27
524.27	51962.23
524.44	52009.04
524.61	52004.36
524.78	51952.87
524.96	51995.00
525.13	52027.77
525.30	52348.42
525.47	52631.63
525.64	51772.65
525.81	52533.32
525.98	52521.62
526.16	52589.50
526.33	52523.96
526.50	52767.38
526.67	52416.30
526.84	52697.16
527.01	52664.39
527.18	52809.51
527.36	52580.13
527.53	52868.02
527.70	53141.86
527.87	53343.15
528.04	53043.56
528.21	53371.24
528.38	53066.97
528.55	53347.83
528.72	53382.94
528.89	53427.41
529.07	53200.38
529.24	53312.72
529.41	53553.80
529.58	53460.18
529.75	53345.49
529.92	53497.62
530.09	53944.67
530.26	53829.98
530.43	53942.33
530.60	53441.45
530.77	53841.68
530.94	54052.33
531.11	54005.52
531.28	53928.28
531.46	54188.08
531.63	53970.41
531.80	53954.03
531.97	54349.58
532.14	54614.06
532.31	54270.00
532.48	54487.67
532.65	54780.24
532.82	54258.30
532.99	54267.66
533.16	54358.94
533.33	54660.87
533.50	54768.54
533.67	54719.38
533.84	54461.93
534.01	54686.62
534.18	54590.66
534.35	54820.03
534.52	54925.35
534.69	55107.91
534.86	55414.52
535.03	54955.78
535.20	55075.15
535.37	55164.09
535.54	55339.63
535.71	55395.80
535.88	55480.06
536.05	55283.45
536.22	55496.44
536.38	55585.38
536.55	55346.65
536.72	55351.33
536.89	55299.84
537.06	55625.17
537.23	55786.67
537.40	55498.78
537.57	55501.12
537.74	55721.13
537.91	55784.33
538.08	55744.54
538.25	55597.09
538.42	55625.17
538.59	56179.88
538.75	55615.81
538.92	55739.86
539.09	55997.32
539.26	56072.21
539.43	55976.25
539.60	56154.13
539.77	56051.15
539.94	56327.33
540.11	56161.15
540.28	55908.38
540.44	56404.57
540.61	56273.50
540.78	56575.43
540.95	56346.06
541.12	56069.87
541.29	56430.32
541.46	56435.00
541.62	56540.32
541.79	56509.89
541.96	55994.98
542.13	56655.01
542.30	56460.74
542.47	56781.40
542.63	56704.16
542.80	56676.07
542.97	57144.18
543.14	57076.30
543.31	56940.55
543.48	57027.15
543.64	57448.45
543.81	57338.44
543.98	57223.76
544.15	57104.39
544.32	57261.21
544.48	57399.30
544.65	57155.88
544.82	57329.08
544.99	57216.74
545.16	57476.54
545.32	57202.69
545.49	57647.39
545.66	57666.12
545.83	57499.94
546.00	57476.54
546.16	57483.56
546.33	57532.71
546.50	57198.01
546.67	57621.65
546.83	57467.17
547.00	57778.46
547.17	57584.20
547.34	57743.36
547.50	57708.25
547.67	58052.31
547.84	58021.88
548.00	57982.09
548.17	58045.29
548.34	57963.37
548.51	58295.72
548.67	58265.30
548.84	57965.71
549.01	58056.99
549.18	58047.63
549.34	58319.13
549.51	58103.80
549.68	58379.98
549.84	58269.98
550.01	58363.60
550.18	58071.03
550.34	58372.96
550.51	58541.48
550.68	58452.54
550.84	58244.23
551.01	58368.28
551.18	58443.18
551.34	58368.28
551.51	58401.05
551.68	58436.16
551.84	58426.79
552.01	58419.77
552.18	58532.12
552.34	58288.70
552.51	58625.74
552.68	58464.24
552.84	58426.79
553.01	58585.95
553.18	58681.91
553.34	58848.09
553.51	58597.65
553.67	58780.21
553.84	58866.81
554.01	58766.17
554.17	58922.99
554.34	58827.02
554.51	58986.18
554.67	58852.77
554.84	58791.92
555.00	58791.92
555.17	58885.54
555.33	58834.05
555.50	58834.05
555.67	58993.20
555.83	58658.51
556.00	59091.51
556.16	59234.28
556.33	58948.73
556.50	59107.89
556.66	59217.89
556.83	58972.14
556.99	59358.33
557.16	59353.65
557.32	59414.50
557.49	59391.09
557.65	59168.74
557.82	59180.45
557.98	59271.73
558.15	59224.92
558.32	59372.37
558.48	59454.29
558.65	59386.41
558.81	59440.24
558.98	59526.84
559.14	59391.09
559.31	59524.50
559.47	59608.76
559.64	59484.72
559.80	59566.63
559.97	59746.86
560.13	59519.82
560.30	59571.32
560.46	59793.67
560.63	59730.47
560.79	59667.28
560.96	59767.92
561.12	59559.61
561.29	59470.67
561.45	59683.66
561.61	59805.37
561.78	59578.34
561.94	59587.70
562.11	59648.55
562.27	59852.18
562.44	59882.61
562.60	59863.88
562.77	59803.03
562.93	59791.33
563.10	60191.56
563.26	59849.84
563.42	60067.51
563.59	59772.60
563.75	59676.64
563.92	59955.16
564.08	59934.10
564.24	59859.20
564.41	59884.95
564.57	60133.04
564.74	60001.97
564.90	60182.19
565.07	59920.05
565.23	59962.18
565.39	59955.16
565.56	60292.20
565.72	60189.22
565.88	60119.00
566.05	60037.08
566.21	59922.40
566.38	59999.63
566.54	60161.13
566.70	60257.09
566.87	60217.30
567.03	60093.25
567.19	60243.05
567.36	60135.38
567.52	60193.90
567.68	60378.80
567.85	60257.09
568.01	60392.84
568.17	60111.98
568.34	60320.29
568.50	60315.61
568.66	60221.98
568.83	60275.82
568.99	60317.95
569.15	60280.50
569.32	60467.74
569.48	60301.56
569.64	60537.96
569.81	60275.82
569.97	60369.44
570.13	60385.82
570.30	60175.17
570.46	60418.59
570.62	60472.42
570.78	60406.89
570.95	60374.12
571.11	60355.39
571.27	60395.18
571.43	60339.01
571.60	60603.49
571.76	60346.03
571.92	60294.54
572.09	60509.87
572.25	60512.21
572.41	60441.99
572.57	60432.63
572.74	60699.45
572.90	60320.29
573.06	60561.36
573.22	60479.44
573.38	60465.40
573.55	60479.44
573.71	60741.58
573.87	60830.52
574.03	60367.10
574.20	60757.97
574.36	60750.94
574.52	60636.26
574.68	60537.96
574.84	60687.75
575.01	60762.65
575.17	60570.72
575.33	60544.98
575.49	60397.52
575.65	60701.79
575.82	60706.47
575.98	60729.88
576.14	60886.70
576.30	60746.26
576.46	60664.35
576.62	60327.31
576.79	60694.77
576.95	60596.47
577.11	60310.92
577.27	60575.40
577.43	60708.82
577.59	60692.43
577.75	60584.77
577.92	60617.53
578.08	60685.41
578.24	60903.08
578.40	60926.49
578.56	60879.67
578.72	60722.86
578.88	60933.51
579.04	60832.86
579.21	60676.05
579.37	60811.80
579.53	60896.06
579.69	60413.91
579.85	60561.36
580.01	60619.88
580.17	60690.09
580.33	60783.71
580.49	60718.18
580.65	60954.57
580.82	60657.32
580.98	60781.37
581.14	60690.09
581.30	60985.00
581.46	60772.01
581.62	60917.12
581.78	60912.44
581.94	60959.25
582.10	60781.37
582.26	60790.73
582.42	60685.41
582.58	60947.55
582.74	60727.54
582.90	60823.50
583.06	60933.51
583.22	60664.35
583.38	60748.60
583.54	60882.02
583.70	60828.18
583.86	60914.78
584.02	60896.06
584.18	60889.04
584.34	60818.82
584.50	60788.39
584.66	60753.29
584.82	60844.57
584.98	61064.58
585.14	61109.05
585.30	60844.57
585.46	60907.76
585.62	60982.66
585.78	61050.53
585.94	60669.03
586.10	61006.06
586.26	60928.83
586.42	61006.06
586.58	60898.40
586.74	60896.06
586.90	60809.46
587.06	60910.10
587.22	60942.87
587.38	60767.33
587.54	61111.39
587.70	61293.95
587.86	60870.31
588.02	60886.70
588.18	60985.00
588.34	61013.08
588.49	60823.50
