SpectraSuite Data File
++++++++++++++++++++++++++++++++++++
Date: Fri Oct 25 11:26:12 EDT 2013
User: price-jones
Dark Spectrum Present: No
Reference Spectrum Present: No
Number of Sampled Component Spectra: 1
Spectrometers: USB2+H05261
Integration Time (usec): 100000 (USB2+H05261)
Spectra Averaged: 1 (USB2+H05261)
Boxcar Smoothing: 0 (USB2+H05261)
Correct for Electrical Dark: No (USB2+H05261)
Strobe/Lamp Enabled: No (USB2+H05261)
Correct for Detector Non-linearity: No (USB2+H05261)
Correct for Stray Light: No (USB2+H05261)
Number of Pixels in Processed Spectrum: 2048
>>>>>Begin Processed Spectral Data<<<<<
365.73	189.58
365.92	189.58
366.12	189.58
366.32	147.45
366.52	105.32
366.72	163.84
366.91	107.66
367.11	210.65
367.31	159.16
367.51	81.92
367.70	159.16
367.90	191.92
368.10	133.41
368.30	128.73
368.49	168.52
368.69	215.33
368.89	191.92
369.09	203.63
369.28	135.75
369.48	117.03
369.68	194.26
369.87	198.95
370.07	238.73
370.27	205.97
370.47	332.36
370.66	592.16
370.86	585.13
371.06	617.90
371.25	697.48
371.45	650.67
371.65	725.57
371.84	746.63
372.04	685.78
372.24	690.46
372.44	741.95
372.63	692.80
372.83	786.42
373.03	753.65
373.22	777.06
373.42	753.65
373.62	828.55
373.81	807.48
374.01	788.76
374.21	842.59
374.40	777.06
374.60	856.64
374.79	828.55
374.99	875.36
375.19	905.79
375.38	837.91
375.58	922.17
375.78	896.43
375.97	854.30
376.17	910.47
376.37	786.42
376.56	875.36
376.76	866.00
376.95	847.27
377.15	849.61
377.35	870.68
377.54	924.51
377.74	905.79
377.93	959.62
378.13	987.71
378.33	912.81
378.52	889.40
378.72	917.49
378.91	964.30
379.11	922.17
379.31	924.51
379.50	985.37
379.70	1018.13
379.89	954.94
380.09	912.81
380.28	924.51
380.48	957.28
380.68	1036.86
380.87	1018.13
381.07	971.32
381.26	1022.81
381.46	1034.52
381.65	997.07
381.85	1041.54
382.04	1032.18
382.24	1057.92
382.43	1116.44
382.63	1076.65
382.83	1055.58
383.02	1067.28
383.22	1088.35
383.41	1067.28
383.61	1163.25
383.80	1132.82
384.00	1153.88
384.19	1116.44
384.39	1090.69
384.58	1193.67
384.78	1167.93
384.97	1200.69
385.17	1167.93
385.36	1111.75
385.56	1221.76
385.75	1139.84
385.95	1242.82
386.14	1249.85
386.34	1181.97
386.53	1306.02
386.72	1224.10
386.92	1284.95
387.11	1214.74
387.31	1315.38
387.50	1235.80
387.70	1174.95
387.89	1191.33
388.09	1212.40
388.28	1203.04
388.48	1205.38
388.67	1245.16
388.86	1259.21
389.06	1301.34
389.25	1392.62
389.45	1378.58
389.64	1282.61
389.84	1399.64
390.03	1308.36
390.22	1455.81
390.42	1331.76
390.61	1376.24
390.81	1413.68
391.00	1392.62
391.19	1430.07
391.39	1451.13
391.58	1561.14
391.78	1549.43
391.97	1453.47
392.16	1530.71
392.36	1554.12
392.55	1535.39
392.75	1420.71
392.94	1519.01
393.13	1514.33
393.33	1413.68
393.52	1537.73
393.71	1593.90
393.91	1509.65
394.10	1516.67
394.29	1596.25
394.49	1607.95
394.68	1596.25
394.88	1537.73
395.07	1643.06
395.26	1640.72
395.46	1675.82
395.65	1633.69
395.84	1694.55
396.04	1760.08
396.23	1703.91
396.42	1818.60
396.62	1806.89
396.81	1825.62
397.00	1764.76
397.19	1830.30
397.39	1867.75
397.58	1797.53
397.77	1891.15
397.97	1823.28
398.16	1788.17
398.35	1926.26
398.55	1916.90
398.74	1970.73
398.93	1905.20
399.12	1867.75
399.32	1872.43
399.51	1914.56
399.70	2005.84
399.90	1942.64
400.09	2031.58
400.28	2076.06
400.47	2026.90
400.67	2106.48
400.86	2094.78
401.05	2136.91
401.24	2186.06
401.44	2183.72
401.63	2183.72
401.82	2162.66
402.01	2101.80
402.21	2197.76
402.40	2218.83
402.59	2165.00
402.78	2172.02
402.97	2207.13
403.17	2256.28
403.36	2256.28
403.55	2277.34
403.74	2265.64
403.93	2401.39
404.13	2415.43
404.32	2265.64
404.51	2363.94
404.70	2480.97
404.89	2429.48
405.09	2487.99
405.28	2417.77
405.47	2361.60
405.66	2443.52
405.85	2567.57
406.05	2593.31
406.24	2471.61
406.43	2459.90
406.62	2602.68
406.81	2626.08
407.00	2672.89
407.20	2553.52
407.39	2635.44
407.58	2668.21
407.77	2672.89
407.96	2656.51
408.15	2878.86
408.34	2759.49
408.54	2740.77
408.73	2768.85
408.92	2825.03
409.11	2829.71
409.30	2995.89
409.49	2813.32
409.68	2951.42
409.87	2909.29
410.07	3014.61
410.26	2853.11
410.45	2906.95
410.64	3042.70
410.83	3096.53
411.02	2958.44
411.21	3225.26
411.40	3052.06
411.59	3290.79
411.78	3131.64
411.98	3180.79
412.17	3351.65
412.36	3363.35
412.55	3398.46
412.74	3358.67
412.93	3419.52
413.12	3449.95
413.31	3492.08
413.50	3447.61
413.69	3461.65
413.88	3492.08
414.07	3632.51
414.26	3552.93
414.45	3562.30
414.64	3662.94
414.83	3669.96
415.02	3765.92
415.22	3777.62
415.41	3777.62
415.60	3794.01
415.79	3974.23
415.98	3847.84
416.17	3955.51
416.36	3889.97
416.55	3920.40
416.74	4142.75
416.93	4154.45
417.12	4189.56
417.31	4126.36
417.50	4037.42
417.69	4313.61
417.88	4243.39
418.07	4292.54
418.26	4386.16
418.45	4430.63
418.64	4599.15
418.83	4449.36
419.02	4362.76
419.21	4402.55
419.39	4547.66
419.58	4512.55
419.77	4404.89
419.96	4458.72
420.15	4678.73
420.34	4425.95
420.53	4475.10
420.72	4608.51
420.91	4837.89
421.10	4695.11
421.29	4964.28
421.48	4669.37
421.67	4727.88
421.86	4758.31
422.05	4865.97
422.24	4861.29
422.43	4884.70
422.61	4849.59
422.80	4809.80
422.99	5067.26
423.18	4912.78
423.37	5057.90
423.56	4975.98
423.75	4894.06
423.94	4842.57
424.13	4641.28
424.32	4751.29
424.50	5001.72
424.69	5027.47
424.88	5214.71
425.07	5254.50
425.26	4915.12
425.45	4896.40
425.64	4961.94
425.83	4767.67
426.01	5090.67
426.20	5001.72
426.39	5188.97
426.58	5060.24
426.77	5022.79
426.96	5308.34
427.15	5128.11
427.33	5193.65
427.52	5193.65
427.71	5329.40
427.90	5238.12
428.09	5252.16
428.28	5334.08
428.46	5291.95
428.65	5406.64
428.84	5516.64
429.03	5284.93
429.22	5359.83
429.40	5392.59
429.59	5427.70
429.78	5313.02
429.97	5247.48
430.16	5458.13
430.34	5518.98
430.53	5582.18
430.72	5680.48
430.91	5652.39
431.10	5610.26
431.28	5811.55
431.47	5722.61
431.66	5731.97
431.85	5717.93
432.03	5975.39
432.22	5980.07
432.41	5987.09
432.60	5830.27
432.79	5879.43
432.97	5980.07
433.16	5989.43
433.35	5982.41
433.54	5837.30
433.72	6038.58
433.91	6099.44
434.10	6153.27
434.28	6094.76
434.47	6139.23
434.66	6284.34
434.85	6345.19
435.03	6303.06
435.22	6176.67
435.41	6504.35
435.59	6331.15
435.78	6485.62
435.97	6558.18
436.16	6380.30
436.34	6317.11
436.53	6359.24
436.72	6661.16
436.90	6263.27
437.09	6623.72
437.28	6480.94
437.46	6572.22
437.65	6654.14
437.84	6729.04
438.02	6691.59
438.21	6715.00
438.40	6534.78
438.58	6885.86
438.77	6995.86
438.96	6878.83
439.14	7023.95
439.33	7194.81
439.52	7122.25
439.70	7087.14
439.89	7293.11
440.08	7431.20
440.26	7400.77
440.45	7321.20
440.63	7522.48
440.82	7606.74
441.01	7480.35
441.19	7634.83
441.38	7733.13
441.57	7801.01
441.75	7791.64
441.94	7892.29
442.12	7838.45
442.31	7962.50
442.50	7861.86
442.68	7992.93
442.87	8119.32
443.05	8095.91
443.24	8126.34
443.43	7990.59
443.61	8135.70
443.80	8243.37
443.98	8018.68
444.17	7826.75
444.35	8121.66
444.54	8294.86
444.73	8177.83
444.91	8294.86
445.10	8269.11
445.28	8287.84
445.47	8091.23
445.65	8283.16
445.84	8238.69
446.02	8613.17
446.21	8517.21
446.39	8507.85
446.58	8690.41
446.77	8388.48
446.95	8280.82
447.14	8517.21
447.32	8557.00
447.51	8376.78
447.69	8280.82
447.88	8645.94
448.06	8432.95
448.25	8437.63
448.43	8376.78
448.62	8456.36
448.80	8578.06
448.99	8559.34
449.17	8713.81
449.36	8538.27
449.54	8826.16
449.73	8851.91
449.91	9057.87
450.10	8908.08
450.28	8994.68
450.46	8992.34
450.65	9006.38
450.83	8919.78
451.02	9029.79
451.20	9305.97
451.39	9184.26
451.57	9245.12
451.76	9092.98
451.94	9064.89
452.13	9181.92
452.31	9303.63
452.49	9207.67
452.68	9343.42
452.86	9259.16
453.05	9308.31
453.23	9397.25
453.42	9233.41
453.60	9418.32
453.78	9600.88
453.97	9472.15
454.15	9380.87
454.34	9385.55
454.52	9736.63
454.70	9729.61
454.89	9612.58
455.07	9762.37
455.26	9806.84
455.44	9977.70
455.62	9823.23
455.81	9888.76
455.99	9788.12
456.17	10068.98
456.36	10017.49
456.54	10120.48
456.73	10228.14
456.91	10298.36
457.09	10310.06
457.28	10455.17
457.46	10303.04
457.64	10448.15
457.83	10516.03
458.01	10319.42
458.19	10399.00
458.38	10342.83
458.56	10473.90
458.74	10714.97
458.93	10668.16
459.11	10487.94
459.29	10878.81
459.48	10796.89
459.66	10714.97
459.84	10925.62
460.03	11000.52
460.21	11016.90
460.39	10846.04
460.57	10913.92
460.76	11180.74
460.94	11082.44
461.12	11122.23
461.31	11016.90
461.49	11286.06
461.67	10977.11
461.85	11545.86
462.04	11117.54
462.22	11651.19
462.40	11534.16
462.59	11496.71
462.77	11360.96
462.95	11559.91
463.13	11562.25
463.32	11557.57
463.50	11543.52
463.68	11655.87
463.86	11599.70
464.05	11824.39
464.23	11913.33
464.41	11885.24
464.59	11562.25
464.78	12091.21
464.96	11985.88
465.14	11793.96
465.32	12114.61
465.50	12112.27
465.69	11971.84
465.87	12133.34
466.05	12095.89
466.23	11936.73
466.41	12507.82
466.60	12437.61
466.78	12173.13
466.96	12154.40
467.14	12395.48
467.32	12248.02
467.51	12425.90
467.69	12320.58
467.87	12517.18
468.05	12517.18
468.23	12301.86
468.41	12458.67
468.60	12755.92
468.78	12936.14
468.96	12496.12
469.14	12594.42
469.32	12641.23
469.50	12613.15
469.69	12957.21
469.87	13060.19
470.05	13046.15
470.23	13006.36
470.41	13128.06
470.59	13308.29
470.77	13235.73
470.95	13069.55
471.14	13575.11
471.32	13209.98
471.50	13429.99
471.68	13444.04
471.86	13671.07
472.04	13687.45
472.22	14099.39
472.40	13699.16
472.58	13785.76
472.77	13909.80
472.95	13994.06
473.13	14597.92
473.31	13975.34
473.49	14150.88
473.67	13984.70
473.85	14125.13
474.03	14614.30
474.21	14698.56
474.39	14710.27
474.57	14581.54
474.75	14817.93
474.93	14794.53
475.12	14925.60
475.30	14956.02
475.48	14897.51
475.66	15157.31
475.84	15185.40
476.02	15382.00
476.20	15531.80
476.38	15681.59
476.56	15955.43
476.74	16006.92
476.92	15763.51
477.10	15730.74
477.28	15964.79
477.46	15934.37
477.64	16070.12
477.82	16355.66
478.00	16912.71
478.18	16720.79
478.36	16809.73
478.54	16945.48
478.72	16847.18
478.90	17114.00
479.08	17518.91
479.26	17556.36
479.44	17792.75
479.62	17703.81
479.80	18176.60
479.98	17902.76
480.16	18328.74
480.34	18223.41
480.52	18733.65
480.70	18698.54
480.88	18300.65
481.06	18600.24
481.24	18679.82
481.41	19061.32
481.59	19222.82
481.77	19424.11
481.95	19358.57
482.13	19887.53
482.31	19592.62
482.49	20357.98
482.67	19882.85
482.85	20285.42
483.03	20662.25
483.21	20585.01
483.39	20781.62
483.57	20577.99
483.74	20919.71
483.92	21284.83
484.10	21172.49
484.28	21331.64
484.46	21841.88
484.64	22162.53
484.82	21853.58
485.00	22347.44
485.18	22773.41
485.35	22988.74
485.53	22525.32
485.71	22682.13
485.89	23660.48
486.07	23393.65
486.25	23293.01
486.43	23356.21
486.61	23552.81
486.78	24074.75
486.96	23864.10
487.14	24224.54
487.32	24126.24
487.50	24830.74
487.68	24687.97
487.85	25343.32
488.03	25135.01
488.21	25816.11
488.39	25752.91
488.57	26022.08
488.75	25759.94
488.92	26309.96
489.10	26595.51
489.28	26581.46
489.46	26597.85
489.64	26960.63
489.81	27515.34
489.99	27239.15
490.17	27658.11
490.35	28184.73
490.53	27861.74
490.70	28025.57
490.88	28133.24
491.06	28664.54
491.24	28538.15
491.41	28938.38
491.59	29237.97
491.77	29132.65
491.95	29013.28
492.13	29680.33
492.30	29937.79
492.48	29699.06
492.66	30003.33
492.84	30150.78
493.01	30614.21
493.19	30717.19
493.37	30923.16
493.54	30890.39
493.72	31384.24
493.90	31323.39
494.08	31622.98
494.25	31187.64
494.43	32081.72
494.61	32180.03
494.79	32369.61
494.96	32559.19
495.14	32851.76
495.32	33057.73
495.49	33156.03
495.67	32950.06
495.85	33795.00
496.02	33043.68
496.20	34125.01
496.38	33846.49
496.55	34253.74
496.73	34670.36
496.91	34293.53
497.09	34504.18
497.26	34525.24
497.44	34920.79
497.62	35070.59
497.79	35688.49
497.97	35236.77
498.14	35978.72
498.32	36278.30
498.50	36137.87
498.67	36540.44
498.85	36229.15
499.03	36748.75
499.20	36278.30
499.38	36549.81
499.56	36657.47
499.73	36950.04
499.91	37134.94
500.08	38120.31
500.26	36978.12
500.44	37263.67
500.61	37514.11
500.79	37317.50
500.97	38387.13
501.14	38117.96
501.32	38438.62
501.49	38340.32
501.67	38059.45
501.84	38974.60
502.02	38581.39
502.20	38281.80
502.37	38864.60
502.55	38967.58
502.72	39271.85
502.90	39196.95
503.07	39166.52
503.25	39913.16
503.43	39295.25
503.60	39847.62
503.78	40601.27
503.95	40215.08
504.13	40184.66
504.30	40634.04
504.48	40531.06
504.65	41191.09
504.83	40779.15
505.01	41085.76
505.18	41015.55
505.36	41184.07
505.53	40744.05
505.71	41759.84
505.88	42045.38
506.06	41277.69
506.23	41659.20
506.41	41378.33
506.58	41961.12
506.76	42038.36
506.93	42541.58
507.11	42298.16
507.28	42139.00
507.46	42539.24
507.63	42501.79
507.81	42698.39
507.98	42784.99
508.16	42632.86
508.33	43346.72
508.50	42941.81
508.68	43503.54
508.85	43625.25
509.03	43243.74
509.20	43885.04
509.38	44238.47
509.55	44107.40
509.73	43931.86
509.90	44252.51
510.08	44105.06
510.25	44580.18
510.42	44591.89
510.60	44865.73
510.77	44828.28
510.95	45247.24
511.12	45097.44
511.30	45102.12
511.47	44924.24
511.64	45338.52
511.82	45684.92
511.99	45532.78
512.17	46005.57
512.34	46101.53
512.51	46511.13
512.69	46213.88
512.86	46066.42
513.04	46234.94
513.21	46447.93
513.38	46583.68
513.56	46330.90
513.73	46305.16
513.90	46770.93
514.08	46752.20
514.25	46969.87
514.43	47199.24
514.60	46946.47
514.77	47334.99
514.95	47625.22
515.12	47552.66
515.29	47220.31
515.47	47697.78
515.64	47894.38
515.81	47709.48
515.99	47861.61
516.16	48367.17
516.33	48329.72
516.51	48547.39
516.68	48404.62
516.85	48259.51
517.03	48643.35
517.20	48903.15
517.37	48320.36
517.54	48774.42
517.72	48699.53
517.89	49174.66
518.06	48975.71
518.24	48999.12
518.41	48992.09
518.58	49237.85
518.75	49104.44
518.93	49624.04
519.10	49193.38
519.27	49392.33
519.45	49647.44
519.62	50019.59
519.79	49743.41
519.96	49610.00
520.14	50178.75
520.31	50298.11
520.48	50293.43
520.65	49965.76
520.83	50681.96
521.00	50600.04
521.17	50183.43
521.34	50438.54
521.52	50548.55
521.69	50635.15
521.86	50752.18
522.03	50955.80
522.20	51002.61
522.38	51318.59
522.55	51229.65
522.72	51210.92
522.89	50976.87
523.07	51377.10
523.24	51248.37
523.41	51533.92
523.58	51447.32
523.75	51767.97
523.92	51505.83
524.10	51587.75
524.27	51828.82
524.44	51990.32
524.61	51679.03
524.78	51863.93
524.96	52095.64
525.13	52355.44
525.30	52184.58
525.47	52360.12
525.64	52418.64
525.81	52493.54
525.98	52346.08
526.16	52292.25
526.33	52587.16
526.50	52844.62
526.67	52561.41
526.84	52912.49
527.01	52671.42
527.18	52872.70
527.36	52465.45
527.53	53020.16
527.70	53223.78
527.87	53492.94
528.04	52896.11
528.21	53214.42
528.38	52947.60
528.55	53277.61
528.72	53256.55
528.89	53539.75
529.07	53237.83
529.24	53057.60
529.41	53361.87
529.58	53689.55
529.75	53350.17
529.92	53682.53
530.09	53743.38
530.26	53773.81
530.43	53687.21
530.60	53514.01
530.77	53799.55
530.94	54024.25
531.11	53939.99
531.28	53998.50
531.46	54054.67
531.63	54005.52
531.80	54045.31
531.97	54059.35
532.14	54335.54
532.31	54148.29
532.48	54691.30
532.65	54731.09
532.82	54309.79
532.99	54447.88
533.16	54632.78
533.33	54560.23
533.50	54791.94
533.67	54667.89
533.84	54464.27
534.01	54855.14
534.18	54890.24
534.35	55033.02
534.52	54993.23
534.69	55007.27
534.86	55283.45
535.03	55178.13
535.20	55075.15
535.37	55210.90
535.54	55313.88
535.71	54993.23
535.88	55421.55
536.05	55341.97
536.22	55503.46
536.38	55388.78
536.55	55531.55
536.72	55330.26
536.89	55372.39
537.06	55510.49
537.23	55334.95
537.40	55412.18
537.57	55676.66
537.74	55742.20
537.91	55852.20
538.08	55655.60
538.25	55451.97
538.42	55711.77
538.59	56023.06
538.75	55487.08
538.92	56013.70
539.09	56184.56
539.26	56081.58
539.43	55945.83
539.60	56385.85
539.77	56172.86
539.94	56219.67
540.11	56273.50
540.28	56334.35
540.44	56292.22
540.61	56566.07
540.78	56378.82
540.95	56303.93
541.12	56165.84
541.29	56442.02
541.46	56423.29
541.62	56402.23
541.79	56498.19
541.96	56329.67
542.13	56570.75
542.30	56636.28
542.47	56694.80
542.63	56870.34
542.80	56919.49
542.97	57205.03
543.14	57162.90
543.31	57097.37
543.48	57092.69
543.64	57249.50
543.81	57345.47
543.98	57396.96
544.15	57010.77
544.32	57331.42
544.48	57609.95
544.65	57345.47
544.82	57064.60
544.99	57336.10
545.16	57308.02
545.32	57088.01
545.49	57595.90
545.66	57420.36
545.83	57434.41
546.00	57588.88
546.16	57544.41
546.33	57560.79
546.50	57389.94
546.67	57755.06
546.83	57162.90
547.00	57621.65
547.17	57748.04
547.34	57689.52
547.50	57656.76
547.67	57991.45
547.84	57989.11
548.00	57874.43
548.17	57961.03
548.34	58071.03
548.51	58131.89
548.67	58288.70
548.84	58042.95
549.01	57925.92
549.18	58066.35
549.34	58141.25
549.51	58045.29
549.68	58258.27
549.84	58286.36
550.01	58333.17
550.18	58181.04
550.34	58335.51
550.51	58316.79
550.68	58218.49
550.84	57996.13
551.01	58384.66
551.18	58464.24
551.34	58508.71
551.51	58377.64
551.68	58436.16
551.84	58541.48
552.01	58429.13
552.18	58609.35
552.34	58457.22
552.51	58567.23
552.68	58368.28
552.84	58412.75
553.01	58770.85
553.18	58742.77
553.34	58803.62
553.51	58607.01
553.67	58754.47
553.84	58803.62
554.01	59037.67
554.17	58775.53
554.34	58761.49
554.51	58838.73
554.67	58894.90
554.84	58920.65
555.00	58878.52
555.17	58649.14
555.33	59154.70
555.50	58897.24
555.67	58831.71
555.83	59037.67
556.00	59058.74
556.16	59299.81
556.33	59164.06
556.50	59112.57
556.66	59365.35
556.83	59002.56
556.99	59374.71
557.16	59384.07
557.32	59475.35
557.49	59590.04
557.65	59236.62
557.82	59372.37
557.98	59346.62
558.15	59348.96
558.32	59437.90
558.48	59295.13
558.65	59585.36
558.81	59381.73
558.98	59384.07
559.14	59526.84
559.31	59428.54
559.47	59686.00
559.64	59552.59
559.80	59337.26
559.97	59594.72
560.13	59622.81
560.30	59746.86
560.46	59576.00
560.63	59831.11
560.79	59587.70
560.96	59824.09
561.12	59646.21
561.29	59629.83
561.45	59751.54
561.61	59508.12
561.78	59788.98
561.94	59627.49
562.11	59714.09
562.27	59611.10
562.44	59994.95
562.60	59732.81
562.77	59943.46
562.93	59693.02
563.10	59973.89
563.26	59814.73
563.42	59969.21
563.59	60034.74
563.75	59971.55
563.92	59985.59
564.08	59840.48
564.24	59980.91
564.41	60060.49
564.57	60065.17
564.74	60044.10
564.90	60114.32
565.07	59973.89
565.23	60037.08
565.39	59931.76
565.56	60093.25
565.72	60165.81
565.88	60264.11
566.05	60095.60
566.21	60086.23
566.38	60172.83
566.54	60142.41
566.70	60175.17
566.87	60350.71
567.03	59856.86
567.19	60289.86
567.36	60296.88
567.52	60179.85
567.68	60542.64
567.85	60172.83
568.01	60420.93
568.17	60137.72
568.34	60236.03
568.50	60147.09
568.66	60252.41
568.83	60229.01
568.99	60357.74
569.15	60339.01
569.32	60149.43
569.48	60229.01
569.64	60477.10
569.81	60350.71
569.97	60292.20
570.13	60292.20
570.30	60271.14
570.46	60334.33
570.62	60360.08
570.78	60488.80
570.95	60563.70
571.11	60509.87
571.27	60200.92
571.43	60360.08
571.60	60598.81
571.76	60416.25
571.92	60704.13
572.09	60465.40
572.25	60430.29
572.41	60418.59
572.57	60385.82
572.74	60685.41
572.90	60549.66
573.06	60486.46
573.22	60598.81
573.38	60570.72
573.55	60168.15
573.71	60636.26
573.87	60598.81
574.03	60544.98
574.20	60701.79
574.36	60603.49
574.52	60547.32
574.68	60552.00
574.84	60624.56
575.01	60877.33
575.17	60708.82
575.33	60514.55
575.49	60474.76
575.65	60711.16
575.82	60718.18
575.98	60617.53
576.14	60816.48
576.30	60725.20
576.46	60589.45
576.62	60596.47
576.79	60640.94
576.95	60533.28
577.11	60898.40
577.27	60669.03
577.43	60793.07
577.59	60598.81
577.75	60544.98
577.92	60484.12
578.08	60772.01
578.24	60783.71
578.40	60844.57
578.56	60783.71
578.72	60715.84
578.88	60860.95
579.04	60786.05
579.21	61029.47
579.37	60917.12
579.53	60891.38
579.69	60701.79
579.85	60652.64
580.01	60933.51
580.17	60573.06
580.33	60764.99
580.49	60959.25
580.65	60856.27
580.82	60952.23
580.98	60797.76
581.14	60720.52
581.30	61050.53
581.46	60746.26
581.62	60666.69
581.78	60903.08
581.94	60657.32
582.10	60786.05
582.26	60779.03
582.42	60647.96
582.58	60753.29
582.74	60708.82
582.90	60837.54
583.06	60856.27
583.22	60762.65
583.38	60767.33
583.54	60722.86
583.70	60856.27
583.86	61076.28
584.02	60605.83
584.18	61064.58
584.34	60837.54
584.50	60966.27
584.66	60774.35
584.82	60666.69
584.98	61071.60
585.14	61052.87
585.30	60882.02
585.46	60835.20
585.62	61066.92
585.78	60952.23
585.94	60769.67
586.10	60767.33
586.26	60865.63
586.42	61050.53
586.58	60924.14
586.74	60884.36
586.90	60849.25
587.06	60825.84
587.22	61024.79
587.38	60767.33
587.54	61052.87
587.70	61176.92
587.86	60980.32
588.02	60970.96
588.18	61010.74
588.34	60743.92
588.49	60757.97
