SpectraSuite Data File
++++++++++++++++++++++++++++++++++++
Date: Fri Oct 25 11:33:57 EDT 2013
User: price-jones
Dark Spectrum Present: No
Reference Spectrum Present: No
Number of Sampled Component Spectra: 1
Spectrometers: USB2+H05261
Integration Time (usec): 100000 (USB2+H05261)
Spectra Averaged: 1 (USB2+H05261)
Boxcar Smoothing: 0 (USB2+H05261)
Correct for Electrical Dark: No (USB2+H05261)
Strobe/Lamp Enabled: No (USB2+H05261)
Correct for Detector Non-linearity: No (USB2+H05261)
Correct for Stray Light: No (USB2+H05261)
Number of Pixels in Processed Spectrum: 2048
>>>>>Begin Processed Spectral Data<<<<<
365.73	264.48
365.92	264.48
366.12	264.48
366.32	182.56
366.52	194.26
366.72	196.60
366.91	191.92
367.11	161.50
367.31	191.92
367.51	152.13
367.70	128.73
367.90	222.35
368.10	191.92
368.30	210.65
368.49	191.92
368.69	262.14
368.89	191.92
369.09	201.29
369.28	205.97
369.48	175.54
369.68	210.65
369.87	203.63
370.07	224.69
370.27	283.20
370.47	386.19
370.66	451.72
370.86	425.98
371.06	557.05
371.25	550.03
371.45	547.69
371.65	664.71
371.84	538.32
372.04	538.32
372.24	571.09
372.44	524.28
372.63	510.24
372.83	653.01
373.03	554.71
373.22	566.41
373.42	568.75
373.62	624.92
373.81	599.18
374.01	676.41
374.21	610.88
374.40	620.24
374.60	704.50
374.79	622.58
374.99	664.71
375.19	678.76
375.38	608.54
375.58	662.37
375.78	748.97
375.97	660.03
376.17	741.95
376.37	678.76
376.56	631.94
376.76	662.37
376.95	615.56
377.15	788.76
377.35	627.26
377.54	751.31
377.74	641.31
377.93	683.44
378.13	683.44
378.33	669.39
378.52	727.91
378.72	737.27
378.91	660.03
379.11	676.41
379.31	716.20
379.50	683.44
379.70	713.86
379.89	779.40
380.09	690.46
380.28	685.78
380.48	730.25
380.68	760.67
380.87	709.18
381.07	816.85
381.26	744.29
381.46	781.74
381.65	779.40
381.85	727.91
382.04	716.20
382.24	795.78
382.43	770.04
382.63	812.17
382.83	725.57
383.02	833.23
383.22	849.61
383.41	784.08
383.61	814.51
383.80	814.51
384.00	896.43
384.19	798.12
384.39	786.42
384.58	777.06
384.78	807.48
384.97	793.44
385.17	814.51
385.36	833.23
385.56	826.21
385.75	774.72
385.95	786.42
386.14	858.98
386.34	753.65
386.53	812.17
386.72	847.27
386.92	882.38
387.11	894.08
387.31	957.28
387.50	901.11
387.70	842.59
387.89	901.11
388.09	891.74
388.28	882.38
388.48	875.36
388.67	964.30
388.86	912.81
389.06	929.19
389.25	983.02
389.45	919.83
389.64	1015.79
389.84	990.05
390.03	931.53
390.22	976.00
390.42	1018.13
390.61	945.58
390.81	926.85
391.00	1036.86
391.19	1008.77
391.39	976.00
391.58	992.39
391.78	1015.79
391.97	926.85
392.16	1006.43
392.36	1123.46
392.55	1025.15
392.75	1032.18
392.94	1039.20
393.13	1039.20
393.33	999.41
393.52	1013.45
393.71	1095.37
393.91	1102.39
394.10	1027.50
394.29	1041.54
394.49	1067.28
394.68	1043.88
394.88	1114.10
395.07	1071.97
395.26	1130.48
395.46	1174.95
395.65	1184.31
395.84	1191.33
396.04	1170.27
396.23	1107.07
396.42	1149.20
396.62	1294.32
396.81	1179.63
397.00	1146.86
397.19	1160.91
397.39	1289.64
397.58	1240.48
397.77	1252.19
397.97	1245.16
398.16	1198.35
398.35	1299.00
398.55	1315.38
398.74	1364.53
398.93	1345.81
399.12	1284.95
399.32	1268.57
399.51	1320.06
399.70	1380.92
399.90	1345.81
400.09	1399.64
400.28	1406.66
400.47	1359.85
400.67	1373.89
400.86	1420.71
401.05	1460.49
401.24	1416.02
401.44	1352.83
401.63	1420.71
401.82	1416.02
402.01	1411.34
402.21	1404.32
402.40	1411.34
402.59	1467.52
402.78	1490.92
402.97	1612.63
403.17	1605.61
403.36	1472.20
403.55	1474.54
403.74	1682.85
403.93	1509.65
404.13	1563.48
404.32	1652.42
404.51	1469.86
404.70	1586.88
404.89	1589.22
405.09	1526.03
405.28	1717.95
405.47	1563.48
405.66	1664.12
405.85	1685.19
406.05	1720.29
406.24	1717.95
406.43	1741.36
406.62	1767.10
406.81	1860.73
407.00	1771.79
407.20	1750.72
407.39	1769.44
407.58	1860.73
407.77	1804.55
407.96	1799.87
408.15	1823.28
408.34	1858.39
408.54	1954.35
408.73	1912.22
408.92	1902.86
409.11	2022.22
409.30	1916.90
409.49	1959.03
409.68	2066.69
409.87	2078.40
410.07	2106.48
410.26	2050.31
410.45	1947.33
410.64	1998.82
410.83	2085.42
411.02	2054.99
411.21	2113.50
411.40	2043.29
411.59	2062.01
411.78	2141.59
411.98	2162.66
412.17	2214.15
412.36	2190.74
412.55	2246.91
412.74	2282.02
412.93	2286.70
413.12	2317.13
413.31	2354.58
413.50	2380.32
413.69	2438.84
413.88	2438.84
414.07	2509.05
414.26	2436.50
414.45	2553.52
414.64	2490.33
414.83	2565.23
415.02	2544.16
415.22	2567.57
415.41	2712.68
415.60	2544.16
415.79	2633.10
415.98	2700.98
416.17	2747.79
416.36	2752.47
416.55	2696.30
416.74	2789.92
416.93	2768.85
417.12	2801.62
417.31	2850.77
417.50	2897.58
417.69	2899.92
417.88	2911.63
418.07	2991.20
418.26	2925.67
418.45	2909.29
418.64	3045.04
418.83	3021.63
419.02	3112.91
419.21	3007.59
419.39	3176.11
419.58	3101.21
419.77	3040.36
419.96	3192.49
420.15	3150.36
420.34	3199.51
420.53	3126.96
420.72	3143.34
420.91	3321.22
421.10	3220.58
421.29	3164.40
421.48	3166.74
421.67	3267.39
421.86	3363.35
422.05	3279.09
422.24	3321.22
422.43	3192.49
422.61	3353.99
422.80	3419.52
422.99	3485.06
423.18	3419.52
423.37	3356.33
423.56	3412.50
423.75	3389.10
423.94	3332.92
424.13	3115.25
424.32	3236.96
424.50	3368.03
424.69	3459.31
424.88	3515.48
425.07	3370.37
425.26	3332.92
425.45	3384.41
425.64	3487.40
425.83	3531.87
426.01	3545.91
426.20	3403.14
426.39	3440.59
426.58	3435.91
426.77	3342.28
426.96	3578.68
427.15	3574.00
427.33	3494.42
427.52	3428.88
427.71	3475.70
427.90	3658.26
428.09	3658.26
428.28	3688.68
428.46	3543.57
428.65	3501.44
428.84	3852.52
429.03	3770.60
429.22	3719.11
429.40	3646.55
429.59	3733.15
429.78	3515.48
429.97	3641.87
430.16	3679.32
430.34	3852.52
430.53	3915.72
430.72	3702.73
430.91	3911.04
431.10	3777.62
431.28	3854.86
431.47	3962.53
431.66	3929.76
431.85	3967.21
432.03	3971.89
432.22	3962.53
432.41	4126.36
432.60	3932.10
432.79	4016.36
432.97	4219.99
433.16	4102.96
433.35	4077.21
433.54	4135.73
433.72	4074.87
433.91	4114.66
434.10	4173.18
434.28	4173.18
434.47	4140.41
434.66	4079.55
434.85	4271.48
435.03	4311.27
435.22	4381.48
435.41	4411.91
435.59	4437.66
435.78	4468.08
435.97	4353.40
436.16	4294.88
436.34	4376.80
436.53	4344.03
436.72	4414.25
436.90	4512.55
437.09	4468.08
437.28	4451.70
437.46	4475.10
437.65	4557.02
437.84	4587.45
438.02	4660.01
438.21	4547.66
438.40	4575.75
438.58	4596.81
438.77	4863.63
438.96	4758.31
439.14	4720.86
439.33	4842.57
439.52	4933.85
439.70	4882.36
439.89	4985.34
440.08	4863.63
440.26	4865.97
440.45	4868.31
440.63	5071.94
440.82	5231.10
441.01	5203.01
441.19	5104.71
441.38	5203.01
441.57	5245.14
441.75	5252.16
441.94	5322.38
442.12	5423.02
442.31	5434.72
442.50	5497.92
442.68	5226.42
442.87	5502.60
443.05	5277.91
443.24	5476.85
443.43	5535.37
443.61	5441.75
443.80	5589.20
443.98	5462.81
444.17	5191.31
444.35	5486.22
444.54	5781.12
444.73	5523.66
444.91	5479.19
445.10	5586.86
445.28	5577.50
445.47	5596.22
445.65	5624.31
445.84	5680.48
446.02	5666.44
446.21	5757.72
446.39	5537.71
446.58	5863.04
446.77	5636.01
446.95	5577.50
447.14	5540.05
447.32	5750.70
447.51	5682.82
447.69	5678.14
447.88	5778.78
448.06	5734.31
448.25	5806.87
448.43	5844.32
448.62	5729.63
448.80	5713.25
448.99	5804.53
449.17	5729.63
449.36	5827.93
449.54	5968.37
449.73	6061.99
449.91	5905.17
450.10	6038.58
450.28	6134.54
450.46	6019.86
450.65	5893.47
450.83	5884.11
451.02	6040.92
451.20	6073.69
451.39	6085.39
451.57	6139.23
451.76	6169.65
451.94	6197.74
452.13	6321.79
452.31	6214.12
452.49	6097.10
452.68	6207.10
452.86	6342.85
453.05	6312.42
453.23	6427.11
453.42	6249.23
453.60	6237.53
453.78	6256.25
453.97	6242.21
454.15	6239.87
454.34	6319.45
454.52	6532.44
454.70	6516.05
454.89	6492.65
455.07	6651.80
455.26	6303.06
455.44	6722.02
455.62	6668.19
455.81	6619.04
455.99	6780.53
456.17	6722.02
456.36	6551.16
456.54	6703.29
456.73	6874.15
456.91	6902.24
457.09	6986.50
457.28	7190.13
457.46	6918.62
457.64	7108.21
457.83	6956.07
458.01	6846.07
458.19	7150.34
458.38	6927.99
458.56	7164.38
458.74	7108.21
458.93	7026.29
459.11	7108.21
459.29	7138.63
459.48	7183.10
459.66	7152.68
459.84	7272.04
460.03	7332.90
460.21	7269.70
460.39	7187.79
460.57	7300.13
460.76	7293.11
460.94	7321.20
461.12	7569.29
461.31	7410.14
461.49	7311.83
461.67	7510.78
461.85	7655.89
462.04	7522.48
462.22	7730.79
462.40	7730.79
462.59	7548.23
462.77	7681.64
462.95	7765.90
463.13	7513.12
463.32	7676.96
463.50	7613.76
463.68	7878.24
463.86	7894.63
464.05	7868.88
464.23	7627.81
464.41	7815.05
464.59	7801.01
464.78	7889.95
464.96	7838.45
465.14	7765.90
465.32	7990.59
465.50	7976.55
465.69	8037.40
465.87	7974.21
466.05	8152.09
466.23	8025.70
466.41	8009.31
466.60	8264.43
466.78	8077.19
466.96	8058.46
467.14	8156.77
467.32	7957.82
467.51	8292.52
467.69	7957.82
467.87	8121.66
468.05	8250.39
468.23	8290.18
468.41	8318.26
468.60	8294.86
468.78	8472.74
468.96	8390.82
469.14	8430.61
469.32	8332.31
469.50	8351.03
469.69	8531.25
469.87	8664.66
470.05	8613.17
470.23	8477.42
470.41	8620.19
470.59	8837.86
470.77	8814.46
470.95	8692.75
471.14	8894.04
471.32	8496.14
471.50	8964.25
471.68	8994.68
471.86	9118.73
472.04	9137.45
472.22	8978.30
472.40	9022.77
472.58	8950.21
472.77	9076.60
472.95	9247.46
473.13	9514.28
473.31	9469.81
473.49	9226.39
473.67	9507.26
473.85	9380.87
474.03	9755.35
474.21	9668.75
474.39	9516.62
474.57	9675.77
474.75	9848.97
474.93	9738.97
475.12	9865.36
475.30	10026.86
475.48	9863.02
475.66	10080.69
475.84	9809.19
476.02	10054.94
476.20	10186.01
476.38	10097.07
476.56	10527.73
476.74	10445.81
476.92	10443.47
477.10	10303.04
477.28	10621.35
477.46	10581.56
477.64	10841.36
477.82	10871.79
478.00	11084.78
478.18	10899.87
478.36	11257.98
478.54	11297.77
478.72	11260.32
478.90	11410.11
479.08	11344.58
479.26	11667.57
479.44	11651.19
479.62	11702.68
479.80	11712.04
479.98	11782.26
480.16	12166.10
480.34	11861.84
480.52	12161.42
480.70	12025.67
480.88	11981.20
481.06	12285.47
481.24	12109.93
481.41	12484.42
481.59	12594.42
481.77	12566.34
481.95	12697.41
482.13	13097.64
482.31	12847.20
482.49	13006.36
482.67	13219.35
482.85	13149.13
483.03	13568.09
483.21	13568.09
483.39	13745.97
483.57	13624.26
483.74	13671.07
483.92	13954.27
484.10	13825.54
484.28	14291.31
484.46	14373.23
484.64	14274.93
484.82	14244.50
485.00	14548.77
485.18	14714.95
485.35	14951.34
485.53	14836.66
485.71	14988.79
485.89	15176.03
486.07	15215.82
486.25	15091.77
486.43	15499.03
486.61	15410.09
486.78	15489.67
486.96	15906.28
487.14	15707.34
487.32	16170.76
487.50	16325.24
487.68	16056.08
487.85	16681.00
488.03	16704.40
488.21	16645.89
488.39	16783.98
488.57	17006.33
488.75	16947.82
488.92	17039.10
489.10	17385.50
489.28	17135.06
489.46	17362.09
489.64	17626.57
489.81	18134.47
489.99	17977.65
490.17	18097.02
490.35	18455.12
490.53	18235.11
490.70	18689.18
490.88	18340.44
491.06	18567.47
491.24	18572.15
491.41	18956.00
491.59	18808.54
491.77	18993.45
491.95	18771.10
492.13	19391.34
492.30	19438.15
492.48	19456.87
492.66	19405.38
492.84	19686.25
493.01	19754.12
493.19	20276.06
493.37	19997.54
493.54	20313.51
493.72	20449.26
493.90	20297.13
494.08	20369.68
494.25	20945.45
494.43	20617.78
494.61	20842.47
494.79	20599.05
494.96	20779.28
495.14	21055.46
495.32	21600.80
495.49	21453.35
495.67	21781.03
495.85	21666.34
496.02	21701.45
496.20	22244.45
496.38	22169.55
496.55	22235.09
496.73	22452.76
496.91	22764.05
497.09	22845.97
497.26	22644.68
497.44	22684.47
497.62	23250.88
497.79	23075.34
497.97	22698.52
498.14	23438.12
498.32	23414.72
498.50	23370.25
498.67	23604.30
498.85	23428.76
499.03	24058.37
499.20	24065.39
499.38	23756.44
499.56	24051.34
499.73	24093.47
499.91	24393.06
500.08	24428.17
500.26	24194.12
500.44	24484.34
500.61	24744.14
500.79	24224.54
500.97	24552.22
501.14	24856.49
501.32	25130.33
501.49	25338.64
501.67	25125.65
501.84	25223.95
502.02	25453.33
502.20	25493.12
502.37	25329.28
502.55	25172.46
502.72	25591.42
502.90	25624.18
503.07	25336.30
503.25	25919.09
503.43	25912.07
503.60	25972.92
503.78	25940.16
503.95	25949.52
504.13	26431.67
504.30	26558.06
504.48	26471.46
504.65	26560.40
504.83	26850.63
505.01	26787.43
505.18	26787.43
505.36	27119.79
505.53	27063.61
505.71	27133.83
505.88	27054.25
506.06	26930.20
506.23	27557.47
506.41	27072.98
506.58	27482.57
506.76	27405.33
506.93	27695.56
507.11	27461.51
507.28	27620.66
507.46	27896.85
507.63	28233.88
507.81	28353.25
507.98	28161.33
508.16	28093.45
508.33	28137.92
508.50	28306.44
508.68	28610.71
508.85	28657.52
509.03	28556.88
509.20	28741.78
509.38	28985.19
509.55	29092.86
509.73	29134.99
509.90	29174.78
510.08	29490.75
510.25	29411.17
510.42	29603.10
510.60	29584.37
510.77	29214.57
510.95	30033.75
511.12	29546.92
511.30	29759.91
511.47	30206.95
511.64	29853.53
511.82	30160.14
511.99	29656.93
512.17	29979.92
512.34	30515.90
512.51	30506.54
512.69	30426.96
512.86	30295.89
513.04	30752.30
513.21	30153.12
513.38	30733.57
513.56	30630.59
513.73	30518.25
513.90	30831.88
514.08	30665.70
514.25	31082.31
514.43	31704.90
514.60	31140.83
514.77	30988.69
514.95	31367.86
515.12	31239.13
515.29	31197.00
515.47	31501.27
515.64	31777.45
515.81	31536.38
515.99	32072.36
516.16	32027.89
516.33	31882.78
516.51	32224.50
516.68	32203.43
516.85	32421.10
517.03	32268.97
517.20	32467.91
517.37	32498.34
517.54	32481.95
517.72	32606.00
517.89	32723.03
518.06	32730.05
518.24	32449.19
518.41	32170.66
518.58	32514.72
518.75	32500.68
518.93	32929.00
519.10	33003.89
519.27	33097.52
519.45	33186.46
519.62	32872.82
519.79	33326.89
519.96	33593.71
520.14	33317.53
520.31	33160.71
520.48	33235.61
520.65	33392.42
520.83	33996.28
521.00	34150.76
521.17	33827.76
521.34	33937.77
521.52	33986.92
521.69	34323.96
521.86	34218.63
522.03	34291.19
522.20	34504.18
522.38	34469.07
522.55	34609.50
522.72	35033.14
522.89	34731.21
523.07	35416.99
523.24	34637.59
523.41	34862.28
523.58	34892.71
523.75	35786.79
523.92	34960.58
524.10	35030.80
524.27	34951.22
524.44	35316.34
524.61	35295.28
524.78	35477.84
524.96	35461.46
525.13	35494.22
525.30	36194.04
525.47	35943.61
525.64	35814.88
525.81	35854.67
525.98	35728.28
526.16	35915.52
526.33	35910.84
526.50	36128.51
526.67	35838.28
526.84	36257.24
527.01	36486.61
527.18	36666.83
527.36	36135.53
527.53	36875.14
527.70	36568.53
527.87	36301.71
528.04	36418.74
528.21	36741.73
528.38	36844.71
528.55	36968.76
528.72	36610.66
528.89	36877.48
529.07	36622.36
529.24	36898.55
529.41	37062.38
529.58	37027.28
529.75	36828.33
529.92	36978.12
530.09	36994.51
530.26	37200.47
530.43	37434.53
530.60	37139.62
530.77	37467.30
530.94	37764.54
531.11	37647.52
531.28	37572.62
531.46	37853.48
531.63	37921.36
531.80	37551.56
531.97	38087.54
532.14	37968.17
532.31	37902.64
532.48	37965.83
532.65	38522.88
532.82	37881.57
532.99	38164.78
533.16	38115.62
533.33	38473.73
533.50	38677.35
533.67	38183.50
533.84	38209.25
534.01	38625.86
534.18	38714.80
534.35	38918.43
534.52	38707.78
534.69	39103.33
534.86	38848.21
535.03	38916.09
535.20	39370.15
535.37	38675.01
535.54	39323.34
535.71	38951.20
535.88	38838.85
536.05	38653.95
536.22	39187.59
536.38	39313.98
536.55	39466.11
536.72	39665.06
536.89	39213.34
537.06	39704.85
537.23	39475.48
537.40	39295.25
537.57	39466.11
537.74	39367.81
537.91	39557.39
538.08	39641.65
538.25	39208.65
538.42	39208.65
538.59	39948.26
538.75	39651.02
538.92	39812.51
539.09	39838.26
539.26	40027.84
539.43	39995.07
539.60	40027.84
539.77	40388.28
539.94	40479.57
540.11	40217.43
540.28	39981.03
540.44	40561.48
540.61	40608.29
540.78	40231.47
540.95	40399.99
541.12	40367.22
541.29	40465.52
541.46	40531.06
541.62	40666.81
541.79	41244.92
541.96	40577.87
542.13	40624.68
542.30	40390.62
542.47	40830.65
542.63	40966.40
542.80	41137.26
542.97	41539.83
543.14	41546.85
543.31	41336.20
543.48	41163.00
543.64	41605.36
543.81	41748.14
543.98	41280.03
544.15	41558.55
544.32	41642.81
544.48	41991.55
544.65	41698.98
544.82	42085.17
544.99	41783.24
545.16	41736.43
545.32	41713.03
545.49	42120.28
545.66	42293.48
545.83	42321.57
546.00	42298.16
546.16	42323.91
546.33	42106.24
546.50	41666.22
546.67	42300.50
546.83	42129.64
547.00	42014.96
547.17	42052.41
547.34	42717.12
547.50	42651.58
547.67	42569.66
547.84	42192.84
548.00	42405.83
548.17	42553.28
548.34	43009.68
548.51	43005.00
548.67	42588.39
548.84	42855.21
549.01	43016.71
549.18	42721.80
549.34	42761.59
549.51	43203.95
549.68	43276.51
549.84	43402.89
550.01	43281.19
550.18	42693.71
550.34	43487.15
550.51	43332.68
550.68	43325.66
550.84	42522.85
551.01	43311.61
551.18	43405.23
551.34	43075.22
551.51	43629.93
551.68	43192.25
551.84	43276.51
552.01	43332.68
552.18	43068.20
552.34	43330.34
552.51	43463.75
552.68	43442.68
552.84	43442.68
553.01	43374.81
553.18	43683.76
553.34	44060.58
553.51	43358.42
553.67	43552.69
553.84	44083.99
554.01	43676.74
554.17	43796.10
554.34	44208.04
554.51	43639.29
554.67	44322.72
554.84	44105.06
555.00	44196.34
555.17	43945.90
555.33	44343.79
555.50	44390.60
555.67	43981.01
555.83	43934.20
556.00	44231.44
556.16	45038.93
556.33	44367.20
556.50	44226.76
556.66	44254.85
556.83	44332.09
556.99	44678.49
557.16	44456.14
557.32	44807.22
557.49	44676.15
557.65	44402.30
557.82	44603.59
557.98	44341.45
558.15	44961.69
558.32	44783.81
558.48	44439.75
558.65	44650.40
558.81	44949.99
558.98	44664.44
559.14	44891.48
559.31	45132.55
559.47	44505.29
559.64	44893.82
559.80	45254.26
559.97	45177.02
560.13	44683.17
560.30	44460.82
560.46	45350.22
560.63	45099.78
560.79	45151.27
560.96	45291.71
561.12	45385.33
561.29	45422.78
561.45	45174.68
561.61	45490.65
561.78	45083.40
561.94	45310.43
562.11	45310.43
562.27	45052.97
562.44	45607.68
562.60	45532.78
562.77	45544.48
562.93	45219.15
563.10	45755.13
563.26	45717.68
563.42	45579.59
563.59	45284.68
563.75	45242.56
563.92	45198.09
564.08	45216.81
564.24	45223.83
564.41	45771.52
564.57	45605.34
564.74	46110.89
564.90	45551.51
565.07	45457.88
565.23	45551.51
565.39	45797.26
565.56	45659.17
565.72	45469.59
565.88	45551.51
566.05	45572.57
566.21	46342.61
566.38	45483.63
566.54	45741.09
566.70	45617.04
566.87	45886.20
567.03	45322.13
567.19	45963.44
567.36	45860.46
567.52	45790.24
567.68	45818.33
567.85	46131.96
568.01	46284.09
568.17	45610.02
568.34	45925.99
568.50	45741.09
568.66	45883.86
568.83	45944.72
568.99	45951.74
569.15	45954.08
569.32	45942.38
569.48	45886.20
569.64	46429.21
569.81	45956.42
569.97	46174.09
570.13	46309.84
570.30	46227.92
570.46	46117.92
570.62	45790.24
570.78	46351.97
570.95	46061.74
571.11	46295.80
571.27	45893.22
571.43	46410.48
571.60	45993.87
571.76	46143.66
571.92	46150.68
572.09	45797.26
572.25	46171.75
572.41	45918.97
572.57	46174.09
572.74	46529.85
572.90	46204.52
573.06	46199.83
573.22	46639.86
573.38	46342.61
573.55	46653.90
573.71	46635.17
573.87	46604.75
574.03	46532.19
574.20	46740.50
574.36	45738.75
574.52	46712.41
574.68	46101.53
574.84	46710.07
575.01	46777.95
575.17	46817.74
575.33	46726.46
575.49	46642.20
575.65	46541.55
575.82	46358.99
575.98	46312.18
576.14	46707.73
576.30	46700.71
576.46	46527.51
576.62	46426.87
576.79	46883.27
576.95	46197.49
577.11	46452.61
577.27	46770.93
577.43	46579.00
577.59	46567.30
577.75	46611.77
577.92	46457.29
578.08	46579.00
578.24	46801.35
578.40	46958.17
578.56	46511.13
578.72	46440.91
578.88	46726.46
579.04	46930.08
579.21	46466.66
579.37	46298.14
579.53	46555.60
579.69	46480.70
579.85	46494.74
580.01	46670.28
580.17	46672.62
580.33	47114.98
580.49	46864.55
580.65	46927.74
580.82	46845.82
580.98	46883.27
581.14	46274.73
581.30	46761.56
581.46	46569.64
581.62	46693.69
581.78	46780.29
581.94	47180.52
582.10	46754.54
582.26	47157.11
582.42	46642.20
582.58	46827.10
582.74	46492.40
582.90	46602.41
583.06	46597.73
583.22	46480.70
583.38	46967.53
583.54	47030.72
583.70	46831.78
583.86	46674.96
584.02	46614.11
584.18	47367.76
584.34	46997.96
584.50	46902.00
584.66	46976.89
584.82	46883.27
584.98	47288.18
585.14	47285.84
585.30	46946.47
585.46	47150.09
585.62	46539.21
585.78	46902.00
585.94	46316.86
586.10	46820.08
586.26	46576.66
586.42	46644.54
586.58	46897.31
586.74	46670.28
586.90	46651.56
587.06	46761.56
587.22	47007.32
587.38	47021.36
587.54	47456.70
587.70	47297.55
587.86	46927.74
588.02	47124.35
588.18	47096.26
588.34	46855.18
588.49	46726.46
588.65	46880.93
588.81	46969.87
588.97	46960.51
589.13	47016.68
589.29	47269.46
589.45	47217.97
589.61	47405.21
589.77	47274.14
589.93	46873.91
590.08	47339.68
