SpectraSuite Data File
++++++++++++++++++++++++++++++++++++
Date: Fri Oct 25 11:23:50 EDT 2013
User: price-jones
Dark Spectrum Present: No
Reference Spectrum Present: No
Number of Sampled Component Spectra: 1
Spectrometers: USB2+H05261
Integration Time (usec): 100000 (USB2+H05261)
Spectra Averaged: 1 (USB2+H05261)
Boxcar Smoothing: 0 (USB2+H05261)
Correct for Electrical Dark: No (USB2+H05261)
Strobe/Lamp Enabled: No (USB2+H05261)
Correct for Detector Non-linearity: No (USB2+H05261)
Correct for Stray Light: No (USB2+H05261)
Number of Pixels in Processed Spectrum: 2048
>>>>>Begin Processed Spectral Data<<<<<
365.73	222.35
365.92	222.35
366.12	222.35
366.32	163.84
366.52	117.03
366.72	117.03
366.91	196.60
367.11	128.73
367.31	86.60
367.51	187.24
367.70	135.75
367.90	152.13
368.10	126.39
368.30	131.07
368.49	121.71
368.69	86.60
368.89	166.18
369.09	163.84
369.28	201.29
369.48	154.48
369.68	205.97
369.87	140.43
370.07	187.24
370.27	264.48
370.47	315.97
370.66	641.31
370.86	645.99
371.06	601.52
371.25	571.09
371.45	676.41
371.65	737.27
371.84	748.97
372.04	688.12
372.24	748.97
372.44	737.27
372.63	699.82
372.83	767.70
373.03	744.29
373.22	711.52
373.42	774.72
373.62	777.06
373.81	730.25
374.01	830.89
374.21	837.91
374.40	753.65
374.60	828.55
374.79	821.53
374.99	798.12
375.19	863.66
375.38	837.91
375.58	819.19
375.78	791.10
375.97	891.74
376.17	929.19
376.37	833.23
376.56	854.30
376.76	887.06
376.95	833.23
377.15	851.96
377.35	933.87
377.54	917.49
377.74	821.53
377.93	940.90
378.13	870.68
378.33	870.68
378.52	945.58
378.72	894.08
378.91	915.15
379.11	954.94
379.31	961.96
379.50	938.55
379.70	950.26
379.89	978.34
380.09	938.55
380.28	933.87
380.48	994.73
380.68	943.24
380.87	905.79
381.07	1020.47
381.26	992.39
381.46	1022.81
381.65	964.30
381.85	1093.03
382.04	1053.24
382.24	1130.48
382.43	1083.67
382.63	1111.75
382.83	1090.69
383.02	1095.37
383.22	1076.65
383.41	1055.58
383.61	1053.24
383.80	1132.82
384.00	1041.54
384.19	1139.84
384.39	1107.07
384.58	1205.38
384.78	1153.88
384.97	1125.80
385.17	1118.78
385.36	1083.67
385.56	1057.92
385.75	1032.18
385.95	1107.07
386.14	1203.04
386.34	1214.74
386.53	1158.57
386.72	1212.40
386.92	1184.31
387.11	1287.29
387.31	1217.08
387.50	1299.00
387.70	1259.21
387.89	1224.10
388.09	1221.76
388.28	1313.04
388.48	1322.40
388.67	1266.23
388.86	1329.42
389.06	1345.81
389.25	1252.19
389.45	1268.57
389.64	1308.36
389.84	1385.60
390.03	1425.39
390.22	1437.09
390.42	1277.93
390.61	1369.21
390.81	1341.13
391.00	1350.49
391.19	1453.47
391.39	1390.28
391.58	1373.89
391.78	1334.11
391.97	1521.35
392.16	1467.52
392.36	1507.30
392.55	1474.54
392.75	1556.46
392.94	1511.99
393.13	1535.39
393.33	1544.75
393.52	1565.82
393.71	1638.38
393.91	1661.78
394.10	1659.44
394.29	1561.14
394.49	1612.63
394.68	1664.12
394.88	1647.74
395.07	1659.44
395.26	1617.31
395.46	1640.72
395.65	1598.59
395.84	1753.06
396.04	1809.23
396.23	1746.04
396.42	1778.81
396.62	1785.83
396.81	1715.61
397.00	1799.87
397.19	1757.74
397.39	1844.34
397.58	1799.87
397.77	1792.85
397.97	1921.58
398.16	1755.40
398.35	1846.68
398.55	1755.40
398.74	1928.60
398.93	1954.35
399.12	1963.71
399.32	1956.69
399.51	1884.13
399.70	2064.35
399.90	1935.62
400.09	1895.83
400.28	2026.90
400.47	1961.37
400.67	2083.08
400.86	2172.02
401.05	2153.29
401.24	2129.89
401.44	2197.76
401.63	2092.44
401.82	2146.27
402.01	2146.27
402.21	2232.87
402.40	2160.31
402.59	2188.40
402.78	2282.02
402.97	2270.32
403.17	2282.02
403.36	2275.00
403.55	2331.17
403.74	2450.54
403.93	2279.68
404.13	2314.79
404.32	2396.71
404.51	2331.17
404.70	2424.80
404.89	2387.35
405.09	2399.05
405.28	2466.92
405.47	2537.14
405.66	2574.59
405.85	2431.82
406.05	2605.02
406.24	2548.84
406.43	2637.78
406.62	2612.04
406.81	2722.04
407.00	2579.27
407.20	2544.16
407.39	2586.29
407.58	2780.56
407.77	2789.92
407.96	2670.55
408.15	2698.64
408.34	2785.24
408.54	2794.60
408.73	2794.60
408.92	2895.24
409.11	2768.85
409.30	2876.52
409.49	2890.56
409.68	2979.50
409.87	2946.73
410.07	3063.76
410.26	2944.39
410.45	3091.85
410.64	3136.32
410.83	3110.57
411.02	3185.47
411.21	3129.30
411.40	3112.91
411.59	3166.74
411.78	3243.98
411.98	3269.73
412.17	3267.39
412.36	3321.22
412.55	3473.36
412.74	3384.41
412.93	3339.94
413.12	3384.41
413.31	3520.17
413.50	3499.10
413.69	3541.23
413.88	3562.30
414.07	3695.71
414.26	3616.13
414.45	3714.43
414.64	3686.34
414.83	3770.60
415.02	3646.55
415.22	3999.98
415.41	3847.84
415.60	3880.61
415.79	3882.95
415.98	3962.53
416.17	4016.36
416.36	3936.78
416.55	3964.87
416.74	4163.81
416.93	4009.34
417.12	3967.21
417.31	4227.01
417.50	4231.69
417.69	4311.27
417.88	4301.90
418.07	4285.52
418.26	4304.25
418.45	4355.74
418.64	4652.98
418.83	4409.57
419.02	4486.81
419.21	4517.23
419.39	4500.85
419.58	4575.75
419.77	4608.51
419.96	4671.71
420.15	4500.85
420.34	4699.80
420.53	4798.10
420.72	4692.77
420.91	4791.08
421.10	4812.14
421.29	4746.61
421.48	4629.58
421.67	4667.03
421.86	4720.86
422.05	4674.05
422.24	4847.25
422.43	4975.98
422.61	4908.10
422.80	5085.98
422.99	4875.34
423.18	4980.66
423.37	5107.05
423.56	4887.04
423.75	4847.25
423.94	4856.61
424.13	4793.42
424.32	4833.21
424.50	4945.55
424.69	5125.77
424.88	5015.77
425.07	5076.62
425.26	4884.70
425.45	5172.58
425.64	5055.56
425.83	4994.70
426.01	5107.05
426.20	5067.26
426.39	5200.67
426.58	5076.62
426.77	5022.79
426.96	5242.80
427.15	5273.23
427.33	5240.46
427.52	5219.39
427.71	5280.25
427.90	5231.10
428.09	5200.67
428.28	5401.96
428.46	5408.98
428.65	5394.93
428.84	5380.89
429.03	5467.49
429.22	5380.89
429.40	5444.09
429.59	5439.40
429.78	5387.91
429.97	5254.50
430.16	5558.77
430.34	5614.95
430.53	5710.91
430.72	5490.90
430.91	5523.66
431.10	5610.26
431.28	5818.57
431.47	5781.12
431.66	5783.46
431.85	5813.89
432.03	5994.11
432.22	6033.90
432.41	5982.41
432.60	6073.69
432.79	6022.20
432.97	5982.41
433.16	6080.71
433.35	5963.68
433.54	6118.16
433.72	6282.00
433.91	6129.86
434.10	6321.79
434.28	6115.82
434.47	6129.86
434.66	6176.67
434.85	6363.92
435.03	6366.26
435.22	6328.81
435.41	6647.12
435.59	6523.07
435.78	6282.00
435.97	6328.81
436.16	6291.36
436.34	6537.12
436.53	6567.54
436.72	6715.00
436.90	6574.56
437.09	6745.42
437.28	6408.39
437.46	6492.65
437.65	6691.59
437.84	7000.54
438.02	6686.91
438.21	6850.75
438.40	6855.43
438.58	7108.21
438.77	7021.61
438.96	6813.30
439.14	7035.65
439.33	7286.09
439.52	7180.76
439.70	7279.07
439.89	7375.03
440.08	7379.71
440.26	7433.54
440.45	7283.75
440.63	7449.93
440.82	7712.07
441.01	7531.84
441.19	7810.37
441.38	7838.45
441.57	7967.18
441.75	7833.77
441.94	8131.02
442.12	7983.57
442.31	7985.91
442.50	7999.95
442.68	8035.06
442.87	8028.04
443.05	7962.50
443.24	8320.60
443.43	8077.19
443.61	8346.35
443.80	8566.36
443.98	8128.68
444.17	7840.79
444.35	8198.90
444.54	8489.12
444.73	8189.53
444.91	8458.70
445.10	8496.14
445.28	8334.65
445.47	8423.59
445.65	8381.46
445.84	8725.52
446.02	8489.12
446.21	8456.36
446.39	8421.25
446.58	8561.68
446.77	8418.91
446.95	8313.58
447.14	8559.34
447.32	8585.08
447.51	8498.49
447.69	8589.77
447.88	8617.85
448.06	8552.32
448.25	8491.46
448.43	8482.10
448.62	8706.79
448.80	8376.78
448.99	8931.48
449.17	8875.31
449.36	8667.00
449.54	8894.04
449.73	8992.34
449.91	9071.92
450.10	8919.78
450.28	9191.28
450.46	9011.06
450.65	9046.17
450.83	9191.28
451.02	9142.13
451.20	9357.46
451.39	9266.18
451.57	9158.52
451.76	9217.03
451.94	9186.60
452.13	9324.69
452.31	9252.14
452.49	9228.73
452.68	9404.27
452.86	9423.00
453.05	9364.48
453.23	9518.96
453.42	9298.95
453.60	9514.28
453.78	9504.92
453.97	9504.92
454.15	9394.91
454.34	9446.40
454.52	9596.20
454.70	9652.37
454.89	9881.74
455.07	9832.59
455.26	9877.06
455.44	9886.42
455.62	9727.27
455.81	9827.91
455.99	10047.92
456.17	9919.19
456.36	10024.51
456.54	10361.55
456.73	10153.24
456.91	10574.54
457.09	10541.77
457.28	10520.71
457.46	10391.98
457.64	10394.32
457.83	10778.17
458.01	10406.02
458.19	10609.65
458.38	10757.10
458.56	10661.14
458.74	10846.04
458.93	10658.80
459.11	10726.68
459.29	10703.27
459.48	11075.42
459.66	10810.93
459.84	11002.86
460.03	11133.93
460.21	11091.80
460.39	11133.93
460.57	11105.84
460.76	11143.29
460.94	11253.30
461.12	11129.25
461.31	11225.21
461.49	11119.89
461.67	11367.98
461.85	11646.51
462.04	11531.82
462.22	11489.69
462.40	11503.73
462.59	11606.72
462.77	11543.52
462.95	11700.34
463.13	11700.34
463.32	11815.02
463.50	11791.62
463.68	11976.52
463.86	11880.56
464.05	11623.10
464.23	11854.81
464.41	11824.39
464.59	11957.80
464.78	12255.04
464.96	12032.69
465.14	11742.47
465.32	12112.27
465.50	12145.04
465.69	12229.30
465.87	12219.94
466.05	12194.19
466.23	12208.23
466.41	12229.30
466.60	12365.05
466.78	12109.93
466.96	12362.71
467.14	12585.06
467.32	12468.03
467.51	12400.16
467.69	12109.93
467.87	12423.56
468.05	12423.56
468.23	12580.38
468.41	12556.97
468.60	12578.04
468.78	12608.47
468.96	12671.66
469.14	12793.37
469.32	12929.12
469.50	12535.91
469.69	13130.41
469.87	13078.91
470.05	12957.21
470.23	13102.32
470.41	13097.64
470.59	13373.82
470.77	13310.63
470.95	13397.23
471.14	13593.83
471.32	13202.96
471.50	13755.33
471.68	13617.24
471.86	13858.31
472.04	13582.13
472.22	14120.45
472.40	13802.14
472.58	13989.38
472.77	14026.83
472.95	14511.32
473.13	14651.75
473.31	14113.43
473.49	13989.38
473.67	14026.83
473.85	14185.99
474.03	14857.72
474.21	14682.18
474.39	14640.05
474.57	14761.76
474.75	14752.40
474.93	15229.87
475.12	14972.41
475.30	15211.14
475.48	15208.80
475.66	15234.55
475.84	15529.45
476.02	15232.21
476.20	15389.02
476.38	15791.59
476.56	16107.57
476.74	16088.84
476.92	15817.34
477.10	16074.80
477.28	16161.40
477.46	16343.96
477.64	16627.17
477.82	16868.24
478.00	16744.19
478.18	16828.45
478.36	16989.95
478.54	17504.87
478.72	16917.39
478.90	17820.84
479.08	17528.27
479.26	17874.67
479.44	18045.53
479.62	17989.36
479.80	18169.58
479.98	18307.67
480.16	18595.56
480.34	18457.46
480.52	18679.82
480.70	18764.07
480.88	18523.00
481.06	18775.78
481.24	19129.20
481.41	18925.57
481.59	19459.21
481.77	19562.20
481.95	19803.27
482.13	19826.68
482.31	19627.73
482.49	20383.73
482.67	20580.33
482.85	20863.54
483.03	20854.17
483.21	20844.81
483.39	20982.90
483.57	21034.39
483.74	21209.93
483.92	21385.47
484.10	21357.39
484.28	21518.89
484.46	22277.22
484.64	22260.84
484.82	21968.27
485.00	22616.60
485.18	22799.16
485.35	23269.61
485.53	22696.17
485.71	23239.18
485.89	23601.96
486.07	23644.09
486.25	23356.21
486.43	23943.68
486.61	24079.43
486.78	23936.66
486.96	24247.95
487.14	24713.72
487.32	24603.71
487.50	24842.45
487.68	25315.23
487.85	25153.74
488.03	25493.12
488.21	26066.55
488.39	25921.43
488.57	26106.34
488.75	26129.74
488.92	26328.69
489.10	26562.74
489.28	26710.19
489.46	27395.97
489.64	27239.15
489.81	27660.45
489.99	27730.67
490.17	27821.95
490.35	28189.41
490.53	28339.21
490.70	28613.05
490.88	28280.69
491.06	29165.42
491.24	29050.73
491.41	28968.81
491.59	29326.91
491.77	29383.09
491.95	29792.68
492.13	29968.22
492.30	29699.06
492.48	30096.95
492.66	30157.80
492.84	30389.52
493.01	30838.90
493.19	30822.51
493.37	31180.62
493.54	30874.01
493.72	31461.48
493.90	31630.00
494.08	31878.10
494.25	31920.23
494.43	32313.44
494.61	32573.24
494.79	32385.99
494.96	32826.01
495.14	32898.57
495.32	32929.00
495.49	33069.43
495.67	33235.61
495.85	33729.46
496.02	33933.09
496.20	34167.14
496.38	34244.38
496.55	34209.27
496.73	34684.40
496.91	34885.68
497.09	35295.28
497.26	35037.82
497.44	35311.66
497.62	35089.31
497.79	35583.16
497.97	35665.08
498.14	35775.09
498.32	36180.00
498.50	36411.71
498.67	36952.38
498.85	36517.04
499.03	36893.86
499.20	36779.18
499.38	37343.25
499.56	37170.05
499.73	37102.17
499.91	37205.16
500.08	38045.41
500.26	37366.65
500.44	37474.32
500.61	38000.94
500.79	37813.70
500.97	38717.14
501.14	38817.78
501.32	38986.30
501.49	38614.16
501.67	39002.69
501.84	39611.23
502.02	38909.07
502.20	39487.18
502.37	39405.26
502.55	39274.19
502.72	39941.24
502.90	40105.08
503.07	39814.85
503.25	39548.03
503.43	39765.70
503.60	40187.00
503.78	40350.84
503.95	40627.02
504.13	40758.09
504.30	41123.21
504.48	40615.32
504.65	40889.16
504.83	40975.76
505.01	41497.70
505.18	41551.53
505.36	41738.77
505.53	41251.94
505.71	41865.16
505.88	41790.27
506.06	42007.94
506.23	42162.41
506.41	42223.26
506.58	42075.81
506.76	42174.11
506.93	42572.00
507.11	42504.13
507.28	42604.77
507.46	42693.71
507.63	43185.22
507.81	43421.62
507.98	43068.20
508.16	43566.73
508.33	43459.07
508.50	43590.14
508.68	43772.70
508.85	43894.41
509.03	43735.25
509.20	44275.91
509.38	44659.76
509.55	44935.95
509.73	44584.86
509.90	45010.84
510.08	44776.79
510.25	44767.43
510.42	44774.45
510.60	45298.73
510.77	45502.35
510.95	45752.79
511.12	45155.96
511.30	45284.68
511.47	45523.42
511.64	45956.42
511.82	45738.75
511.99	45666.19
512.17	46031.32
512.34	46068.76
512.51	46398.78
512.69	46637.51
512.86	46595.38
513.04	46539.21
513.21	46700.71
513.38	46616.45
513.56	46756.88
513.73	47224.99
513.90	47150.09
514.08	47491.81
514.25	47356.06
514.43	47419.25
514.60	47459.04
514.77	47590.11
514.95	47381.80
515.12	47800.76
515.29	47690.76
515.47	47894.38
515.64	47976.30
515.81	48142.48
515.99	48257.17
516.16	48746.34
516.33	48385.89
516.51	48301.64
516.68	48573.14
516.85	48488.88
517.03	48893.79
517.20	48877.41
517.37	48987.41
517.54	49251.89
517.72	48800.17
517.89	49256.57
518.06	48933.58
518.24	49701.28
518.41	49350.20
518.58	49579.57
518.75	49565.52
518.93	49858.09
519.10	49738.72
519.27	49991.50
519.45	49785.54
519.62	49888.52
519.79	49895.54
519.96	50344.92
520.14	50438.54
520.31	50396.42
520.48	50326.20
520.65	50639.83
520.83	50829.41
521.00	50597.70
521.17	50941.76
521.34	50873.88
521.52	50838.78
521.69	50976.87
521.86	51224.96
522.03	51110.28
522.20	51615.83
522.38	51559.66
522.55	51533.92
522.72	51566.68
522.89	51580.73
523.07	51868.61
523.24	51770.31
523.41	51730.52
523.58	51894.36
523.75	52191.61
523.92	51955.21
524.10	52196.29
524.27	52126.07
524.44	52142.45
524.61	52353.10
524.78	52353.10
524.96	52147.14
525.13	52648.01
525.30	52336.72
525.47	52783.76
525.64	52442.04
525.81	52734.61
525.98	52828.23
526.16	52645.67
526.33	52818.87
526.50	52849.30
526.67	53017.82
526.84	53022.50
527.01	53244.85
527.18	53008.45
527.36	53015.47
527.53	53160.59
527.70	53420.39
527.87	53357.19
528.04	53261.23
528.21	53755.08
528.38	53371.24
528.55	53607.63
528.72	53432.09
528.89	53574.86
529.07	53837.00
529.24	53684.87
529.41	53694.23
529.58	53588.91
529.75	53708.27
529.92	53844.02
530.09	54197.44
530.26	54223.19
530.43	53844.02
530.60	53778.49
530.77	54181.06
530.94	54129.57
531.11	54471.29
531.28	54115.53
531.46	54326.17
531.63	54571.93
531.80	54333.20
531.97	54372.99
532.14	54639.81
532.31	54810.67
532.48	54574.27
532.65	54934.71
532.82	54578.95
532.99	54848.11
533.16	54677.25
533.33	54990.89
533.50	55238.98
533.67	55016.63
533.84	54810.67
534.01	54873.86
534.18	55091.53
534.35	55442.61
534.52	55334.95
534.69	55208.56
534.86	55440.27
535.03	54993.23
535.20	55501.12
535.37	55482.40
535.54	55505.80
535.71	55501.12
535.88	55503.46
536.05	55693.05
536.22	55873.27
536.38	55793.69
536.55	55751.56
536.72	55814.76
536.89	55716.45
537.06	55873.27
537.23	55856.88
537.40	55793.69
537.57	55772.63
537.74	55812.41
537.91	56289.88
538.08	56149.45
538.25	55735.18
538.42	55945.83
538.59	56324.99
538.75	56102.64
538.92	56062.85
539.09	56437.34
539.26	56126.05
539.43	56144.77
539.60	56217.33
539.77	56130.73
539.94	56481.81
540.11	56371.80
540.28	56399.89
540.44	56570.75
540.61	56577.77
540.78	56477.13
540.95	56449.04
541.12	56378.82
541.29	56678.41
541.46	56786.08
541.62	56640.96
541.79	56739.27
541.96	56589.47
542.13	56652.67
542.30	56896.08
542.47	56893.74
542.63	56935.87
542.80	56966.30
542.97	57104.39
543.14	57207.37
543.31	57471.85
543.48	57265.89
543.64	57609.95
543.81	57616.97
543.98	57382.91
544.15	57614.63
544.32	57502.28
544.48	57764.42
544.65	57542.07
544.82	57471.85
544.99	57268.23
545.16	57525.69
545.32	57502.28
545.49	57748.04
545.66	57841.66
545.83	57759.74
546.00	57869.75
546.16	57701.23
546.33	57598.24
546.50	57476.54
546.67	57745.70
546.83	57598.24
547.00	57928.26
547.17	57813.57
547.34	57836.98
547.50	58120.18
547.67	58131.89
547.84	58284.02
548.00	58351.90
548.17	58396.37
548.34	58199.76
548.51	58368.28
548.67	58150.61
548.84	58356.58
549.01	58351.90
549.18	58497.01
549.34	58277.00
549.51	58342.53
549.68	58527.44
549.84	58646.80
550.01	58541.48
550.18	58534.46
550.34	58494.67
550.51	58791.92
550.68	58536.80
550.84	58410.41
551.01	58567.23
551.18	58546.16
551.34	58616.38
551.51	58756.81
551.68	58607.01
551.84	58590.63
552.01	58677.23
552.18	58834.05
552.34	58588.29
552.51	58979.16
552.68	58794.26
552.84	58684.25
553.01	59194.49
553.18	59021.29
553.34	59089.16
553.51	58700.64
553.67	58873.84
553.84	58906.60
554.01	59114.91
554.17	58995.54
554.34	59206.19
554.51	59098.53
554.67	59103.21
554.84	58960.44
555.00	59100.87
555.17	59011.93
555.33	59196.83
555.50	58932.35
555.67	59138.32
555.83	59049.38
556.00	59238.96
556.16	59400.46
556.33	59414.50
556.50	59180.45
556.66	59587.70
556.83	59199.17
556.99	59458.97
557.16	59590.04
557.32	59559.61
557.49	59678.98
557.65	59463.65
557.82	59606.42
557.98	59475.35
558.15	59620.47
558.32	59407.48
558.48	59557.27
558.65	59358.33
558.81	59583.02
558.98	59709.41
559.14	60004.31
559.31	59664.94
559.47	59718.77
559.64	59854.52
559.80	59922.40
559.97	59952.82
560.13	59732.81
560.30	59812.39
560.46	59810.05
560.63	59770.26
560.79	59784.30
560.96	59943.46
561.12	59814.73
561.29	59920.05
561.45	59950.48
561.61	60114.32
561.78	59807.71
561.94	60221.98
562.11	59938.78
562.27	59973.89
562.44	60039.42
562.60	60163.47
562.77	60065.17
562.93	59774.94
563.10	60090.91
563.26	60020.70
563.42	60292.20
563.59	60032.40
563.75	60229.01
563.92	60030.06
564.08	60257.09
564.24	60397.52
564.41	60126.02
564.57	60135.38
564.74	60320.29
564.90	60154.11
565.07	60261.77
565.23	60137.72
565.39	60409.23
565.56	60406.89
565.72	60364.76
565.88	60210.28
566.05	59936.44
566.21	60317.95
566.38	60193.90
566.54	60254.75
566.70	60603.49
566.87	60556.68
567.03	60217.30
567.19	60587.11
567.36	60451.36
567.52	60491.15
567.68	60591.79
567.85	60598.81
568.01	60594.13
568.17	60460.72
568.34	60516.89
568.50	60425.61
568.66	60219.64
568.83	60477.10
568.99	60388.16
569.15	60378.80
569.32	60500.51
569.48	60685.41
569.64	60842.23
569.81	60645.62
569.97	60303.90
570.13	60481.78
570.30	60519.23
570.46	60603.49
570.62	60615.19
570.78	60594.13
570.95	60500.51
571.11	60505.19
571.27	60647.96
571.43	60650.30
571.60	60636.26
571.76	60591.79
571.92	60718.18
572.09	60739.24
572.25	60535.62
572.41	60608.17
572.57	60736.90
572.74	60821.16
572.90	60706.47
573.06	60837.54
573.22	60729.88
573.38	60825.84
573.55	60608.17
573.71	60863.29
573.87	60577.75
574.03	60692.43
574.20	60893.72
574.36	60610.51
574.52	60701.79
574.68	60851.59
574.84	60853.93
575.01	60720.52
575.17	60905.42
575.33	60748.60
575.49	60739.24
575.65	60891.38
575.82	60893.72
575.98	60931.17
576.14	61031.81
576.30	60970.96
576.46	60961.59
576.62	60818.82
576.79	60708.82
576.95	60867.97
577.11	60910.10
577.27	60816.48
577.43	60942.87
577.59	60711.16
577.75	60832.86
577.92	60617.53
578.08	60860.95
578.24	60970.96
578.40	60926.49
578.56	61015.43
578.72	60917.12
578.88	61226.07
579.04	61134.79
579.21	60882.02
579.37	61151.18
579.53	61066.92
579.69	60800.10
579.85	60935.85
580.01	60898.40
580.17	60917.12
580.33	60992.02
580.49	60970.96
580.65	60966.27
580.82	60882.02
580.98	60736.90
581.14	60760.31
581.30	60903.08
581.46	60947.55
581.62	61130.11
581.78	61076.28
581.94	61141.81
582.10	60891.38
582.26	60882.02
582.42	60804.78
582.58	61076.28
582.74	61024.79
582.90	60844.57
583.06	61179.26
583.22	61001.38
583.38	60968.61
583.54	61174.58
583.70	61013.08
583.86	61242.46
584.02	61010.74
584.18	61027.13
584.34	61050.53
584.50	61059.90
584.66	60788.39
584.82	60973.30
584.98	61155.86
585.14	61092.66
585.30	60992.02
585.46	61013.08
585.62	61205.01
585.78	61326.72
585.94	60921.80
586.10	61104.37
586.26	61223.73
586.42	61120.75
586.58	61216.71
586.74	61062.24
586.90	61043.51
587.06	61104.37
587.22	61244.80
587.38	61153.52
587.54	61275.22
587.70	61345.44
587.86	61095.00
588.02	61062.24
588.18	61176.92
588.34	61069.26
588.49	61048.19
