SpectraSuite Data File
++++++++++++++++++++++++++++++++++++
Date: Fri Oct 25 11:23:42 EDT 2013
User: price-jones
Dark Spectrum Present: No
Reference Spectrum Present: No
Number of Sampled Component Spectra: 1
Spectrometers: USB2+H05261
Integration Time (usec): 100000 (USB2+H05261)
Spectra Averaged: 1 (USB2+H05261)
Boxcar Smoothing: 0 (USB2+H05261)
Correct for Electrical Dark: No (USB2+H05261)
Strobe/Lamp Enabled: No (USB2+H05261)
Correct for Detector Non-linearity: No (USB2+H05261)
Correct for Stray Light: No (USB2+H05261)
Number of Pixels in Processed Spectrum: 2048
>>>>>Begin Processed Spectral Data<<<<<
365.73	297.25
365.92	297.25
366.12	297.25
366.32	84.26
366.52	170.86
366.72	201.29
366.91	154.48
367.11	210.65
367.31	119.37
367.51	154.48
367.70	98.30
367.90	175.54
368.10	133.41
368.30	133.41
368.49	126.39
368.69	131.07
368.89	128.73
369.09	166.18
369.28	156.82
369.48	128.73
369.68	140.43
369.87	168.52
370.07	238.73
370.27	241.08
370.47	290.23
370.66	594.50
370.86	662.37
371.06	641.31
371.25	674.07
371.45	615.56
371.65	676.41
371.84	636.63
372.04	699.82
372.24	660.03
372.44	653.01
372.63	713.86
372.83	709.18
373.03	819.19
373.22	753.65
373.42	805.14
373.62	821.53
373.81	795.78
374.01	788.76
374.21	786.42
374.40	866.00
374.60	816.85
374.79	800.46
374.99	847.27
375.19	814.51
375.38	748.97
375.58	840.25
375.78	889.40
375.97	940.90
376.17	926.85
376.37	903.45
376.56	915.15
376.76	849.61
376.95	830.89
377.15	950.26
377.35	910.47
377.54	866.00
377.74	940.90
377.93	908.13
378.13	908.13
378.33	947.92
378.52	980.68
378.72	901.11
378.91	910.47
379.11	992.39
379.31	959.62
379.50	1039.20
379.70	938.55
379.89	933.87
380.09	990.05
380.28	898.77
380.48	973.66
380.68	997.07
380.87	992.39
381.07	1011.11
381.26	1060.26
381.46	980.68
381.65	983.02
381.85	1057.92
382.04	1039.20
382.24	1093.03
382.43	1064.94
382.63	1132.82
382.83	1081.33
383.02	1174.95
383.22	1055.58
383.41	1076.65
383.61	1184.31
383.80	1200.69
384.00	1116.44
384.19	1144.52
384.39	1142.18
384.58	1076.65
384.78	1219.42
384.97	1184.31
385.17	1165.59
385.36	1107.07
385.56	1130.48
385.75	1125.80
385.95	1256.87
386.14	1207.72
386.34	1172.61
386.53	1242.82
386.72	1181.97
386.92	1212.40
387.11	1226.44
387.31	1217.08
387.50	1268.57
387.70	1196.01
387.89	1249.85
388.09	1308.36
388.28	1369.21
388.48	1317.72
388.67	1245.16
388.86	1301.34
389.06	1301.34
389.25	1315.38
389.45	1301.34
389.64	1291.98
389.84	1444.11
390.03	1378.58
390.22	1331.76
390.42	1242.82
390.61	1327.08
390.81	1451.13
391.00	1385.60
391.19	1416.02
391.39	1397.30
391.58	1469.86
391.78	1504.96
391.97	1519.01
392.16	1509.65
392.36	1437.09
392.55	1357.51
392.75	1509.65
392.94	1528.37
393.13	1476.88
393.33	1504.96
393.52	1558.80
393.71	1526.03
393.91	1645.40
394.10	1659.44
394.29	1671.14
394.49	1547.09
394.68	1678.16
394.88	1696.89
395.07	1547.09
395.26	1621.99
395.46	1633.69
395.65	1713.27
395.84	1776.47
396.04	1769.44
396.23	1732.00
396.42	1776.47
396.62	1858.39
396.81	1743.70
397.00	1692.21
397.19	1809.23
397.39	1792.85
397.58	1886.47
397.77	1891.15
397.97	1820.94
398.16	1757.74
398.35	1771.79
398.55	1809.23
398.74	1905.20
398.93	1959.03
399.12	1879.45
399.32	1898.17
399.51	1994.14
399.70	1954.35
399.90	1963.71
400.09	2113.50
400.28	2038.61
400.47	2054.99
400.67	2122.87
400.86	2120.53
401.05	2026.90
401.24	2150.95
401.44	2057.33
401.63	2207.13
401.82	2204.78
402.01	2146.27
402.21	2076.06
402.40	2122.87
402.59	2256.28
402.78	2176.70
402.97	2291.38
403.17	2223.51
403.36	2300.75
403.55	2270.32
403.74	2342.88
403.93	2242.23
404.13	2368.62
404.32	2286.70
404.51	2347.56
404.70	2548.84
404.89	2225.85
405.09	2490.33
405.28	2392.03
405.47	2478.63
405.66	2420.11
405.85	2523.10
406.05	2551.18
406.24	2480.97
406.43	2516.08
406.62	2572.25
406.81	2686.94
407.00	2537.14
407.20	2455.22
407.39	2612.04
407.58	2810.98
407.77	2719.70
407.96	2649.49
408.15	2803.96
408.34	2691.62
408.54	2874.18
408.73	2867.16
408.92	2855.45
409.11	2843.75
409.30	2986.52
409.49	2960.78
409.68	2920.99
409.87	3019.29
410.07	2988.86
410.26	2993.55
410.45	3019.29
410.64	3091.85
410.83	3045.04
411.02	3089.51
411.21	3098.87
411.40	3141.00
411.59	3091.85
411.78	3131.64
411.98	3176.11
412.17	3370.37
412.36	3318.88
412.55	3461.65
412.74	3466.33
412.93	3445.27
413.12	3445.27
413.31	3581.02
413.50	3426.54
413.69	3438.25
413.88	3576.34
414.07	3660.60
414.26	3604.42
414.45	3721.45
414.64	3700.39
414.83	3744.86
415.02	3660.60
415.22	3875.93
415.41	3758.90
415.60	3859.54
415.79	3854.86
415.98	3896.99
416.17	3880.61
416.36	4121.68
416.55	4025.72
416.74	4105.30
416.93	3934.44
417.12	4093.60
417.31	4142.75
417.50	4191.90
417.69	4376.80
417.88	4308.93
418.07	4180.20
418.26	4339.35
418.45	4367.44
418.64	4447.02
418.83	4535.96
419.02	4512.55
419.21	4542.98
419.39	4716.18
419.58	4454.04
419.77	4440.00
419.96	4503.19
420.15	4514.89
420.34	4617.88
420.53	4603.83
420.72	4610.86
420.91	4709.16
421.10	4755.97
421.29	4833.21
421.48	4660.01
421.67	4765.33
421.86	4725.54
422.05	4854.27
422.24	4777.03
422.43	4898.74
422.61	4760.65
422.80	4910.44
422.99	4938.53
423.18	4952.57
423.37	5055.56
423.56	5032.15
423.75	4873.00
423.94	4936.19
424.13	4580.43
424.32	4652.98
424.50	5060.24
424.69	4983.00
424.88	4992.36
425.07	4828.53
425.26	5004.07
425.45	4887.04
425.64	5081.30
425.83	5001.72
426.01	4959.60
426.20	5116.41
426.39	5046.20
426.58	5078.96
426.77	5104.71
426.96	5261.52
427.15	5221.74
427.33	5280.25
427.52	5228.76
427.71	5280.25
427.90	5324.72
428.09	5336.42
428.28	5317.70
428.46	5401.96
428.65	5378.55
428.84	5628.99
429.03	5495.58
429.22	5263.86
429.40	5432.38
429.59	5373.87
429.78	5320.04
429.97	5247.48
430.16	5547.07
430.34	5626.65
430.53	5872.40
430.72	5453.45
430.91	5472.17
431.10	5600.90
431.28	5673.46
431.47	5874.74
431.66	5846.66
431.85	5799.85
432.03	6038.58
432.22	5991.77
432.41	5898.15
432.60	5753.04
432.79	5935.60
432.97	5947.30
433.16	5912.19
433.35	5921.56
433.54	6024.54
433.72	6312.42
433.91	5987.09
434.10	6328.81
434.28	5951.98
434.47	6277.32
434.66	6218.80
434.85	6202.42
435.03	6406.05
435.22	6249.23
435.41	6434.13
435.59	6242.21
435.78	6431.79
435.97	6448.18
436.16	6321.79
436.34	6476.26
436.53	6494.99
436.72	6640.10
436.90	6462.22
437.09	6539.46
437.28	6574.56
437.46	6609.67
437.65	6511.37
437.84	6813.30
438.02	6815.64
438.21	6752.45
438.40	6661.16
438.58	6951.39
438.77	7021.61
438.96	6979.48
439.14	7218.21
439.33	7269.70
439.52	7075.44
439.70	7152.68
439.89	7314.17
440.08	7265.02
440.26	7360.98
440.45	7389.07
440.63	7480.35
440.82	7665.25
441.01	7400.77
441.19	7527.16
441.38	7770.58
441.57	7653.55
441.75	7737.81
441.94	8070.17
442.12	7747.17
442.31	8006.97
442.50	8044.42
442.68	8161.45
442.87	8002.29
443.05	7981.23
443.24	8292.52
443.43	8142.72
443.61	8222.30
443.80	8458.70
443.98	7913.35
444.17	8063.15
444.35	8049.10
444.54	8369.76
444.73	8294.86
444.91	8430.61
445.10	8226.98
445.28	8255.07
445.47	8322.94
445.65	8463.38
445.84	8437.63
446.02	8620.19
446.21	8231.66
446.39	8400.18
446.58	8461.04
446.77	8521.89
446.95	8348.69
447.14	8435.29
447.32	8690.41
447.51	8589.77
447.69	8557.00
447.88	8409.54
448.06	8418.91
448.25	8744.24
448.43	8631.90
448.62	8636.58
448.80	8624.87
448.99	8533.59
449.17	8664.66
449.36	8695.09
449.54	8849.57
449.73	8847.22
449.91	8823.82
450.10	8891.70
450.28	9259.16
450.46	9149.15
450.65	9039.15
450.83	8971.27
451.02	9195.96
451.20	9179.58
451.39	9270.86
451.57	8966.59
451.76	8945.53
451.94	9266.18
452.13	9322.35
452.31	9198.31
452.49	9259.16
452.68	9195.96
452.86	9441.72
453.05	9434.70
453.23	9556.41
453.42	9420.66
453.60	9577.47
453.78	9699.18
453.97	9467.47
454.15	9437.04
454.34	9633.64
454.52	9729.61
454.70	9635.99
454.89	9774.08
455.07	9888.76
455.26	9856.00
455.44	9951.96
455.62	9935.57
455.81	9907.49
455.99	10001.11
456.17	10148.56
456.36	10169.63
456.54	10251.55
456.73	10202.40
456.91	10455.17
457.09	10380.28
457.28	10523.05
457.46	10363.89
457.64	10626.03
457.83	10623.69
458.01	10202.40
458.19	10953.71
458.38	10600.29
458.56	10630.71
458.74	10633.05
458.93	10853.06
459.11	10700.93
459.29	10824.98
459.48	10672.84
459.66	10654.12
459.84	10979.45
460.03	11110.52
460.21	10970.09
460.39	10878.81
460.57	10963.07
460.76	11096.48
460.94	11337.56
461.12	11194.78
461.31	11234.57
461.49	11049.67
461.67	11248.61
461.85	11421.81
462.04	11253.30
462.22	11480.33
462.40	11723.74
462.59	11829.07
462.77	11559.91
462.95	11880.56
463.13	11735.45
463.32	11609.06
463.50	11662.89
463.68	11611.40
463.86	12004.61
464.05	11550.54
464.23	11754.17
464.41	11737.79
464.59	11726.08
464.78	12208.23
464.96	11885.24
465.14	11819.71
465.32	12175.47
465.50	11978.86
465.69	12100.57
465.87	12023.33
466.05	12046.74
466.23	12009.29
466.41	12175.47
466.60	12519.53
466.78	12273.77
466.96	12383.77
467.14	12252.70
467.32	12468.03
467.51	12774.64
467.69	12301.86
467.87	12477.40
468.05	12772.30
468.23	12472.71
468.41	12695.07
468.60	12709.11
468.78	12669.32
468.96	12690.38
469.14	12821.45
469.32	13088.28
469.50	12589.74
469.69	13046.15
469.87	13156.15
470.05	13069.55
470.23	13233.39
470.41	13123.38
470.59	13397.23
470.77	12978.27
470.95	13362.12
471.14	13596.17
471.32	13039.12
471.50	13570.43
471.68	13631.28
471.86	13790.44
472.04	13785.76
472.22	13947.25
472.40	13778.73
472.58	13858.31
472.77	14157.90
472.95	14017.47
473.13	14480.89
473.31	13933.21
473.49	14143.86
473.67	14207.05
473.85	14319.40
474.03	14448.13
474.21	14368.55
474.39	14555.79
474.57	14656.43
474.75	14911.55
474.93	15115.18
475.12	14927.94
475.30	15234.55
475.48	15014.54
475.66	15066.03
475.84	14904.53
476.02	15524.77
476.20	15559.88
476.38	15728.40
476.56	16056.08
476.74	16067.78
476.92	15700.31
477.10	15730.74
477.28	16184.80
477.46	16210.55
477.64	16439.92
477.82	16458.65
478.00	17083.57
478.18	16830.79
478.36	17121.02
478.54	17050.80
478.72	17125.70
478.90	17451.03
479.08	17635.94
479.26	17619.55
479.44	17848.93
479.62	18118.09
479.80	17795.09
479.98	18342.78
480.16	18789.82
480.34	18443.42
480.52	18637.69
480.70	18466.83
480.88	18427.04
481.06	18492.57
481.24	18810.89
481.41	18972.38
481.59	19342.19
481.77	19747.10
481.95	19236.86
482.13	19714.33
482.31	19754.12
482.49	20475.01
482.67	20163.72
482.85	20517.14
483.03	20439.90
483.21	20819.07
483.39	21139.72
483.57	20671.61
483.74	21245.04
483.92	21443.99
484.10	20968.86
484.28	21598.46
484.46	22164.87
484.64	22473.82
484.82	22099.34
485.00	22679.79
485.18	23126.83
485.35	23002.78
485.53	22972.36
485.71	22993.42
485.89	23587.92
486.07	23087.04
486.25	23665.16
486.43	23665.16
486.61	23644.09
486.78	24123.90
486.96	24299.44
487.14	24732.44
487.32	25003.94
487.50	24872.87
487.68	25277.79
487.85	25703.76
488.03	25818.45
488.21	25769.30
488.39	25612.48
488.57	26316.98
488.75	26277.19
488.92	26462.10
489.10	26698.49
489.28	26948.93
489.46	27433.42
489.64	26969.99
489.81	28030.26
489.99	27496.61
490.17	27950.68
490.35	28098.13
490.53	28325.16
490.70	28374.31
490.88	28472.62
491.06	28809.65
491.24	28601.35
491.41	29553.94
491.59	29310.53
491.77	29675.65
491.95	29209.89
492.13	29797.36
492.30	29841.83
492.48	30232.70
492.66	30560.37
492.84	30700.81
493.01	30689.10
493.19	30794.43
493.37	31138.49
493.54	31417.01
493.72	31835.97
493.90	31370.20
494.08	31931.93
494.25	31985.76
494.43	31824.26
494.61	32704.31
494.79	32720.69
494.96	32739.41
495.14	32779.20
495.32	33432.21
495.49	33191.14
495.67	33408.81
495.85	33579.67
496.02	33645.20
496.20	33804.36
496.38	33928.41
496.55	34230.33
496.73	35232.08
496.91	34457.37
497.09	35204.00
497.26	35061.22
497.44	34759.30
497.62	35199.32
497.79	35995.10
497.97	35529.33
498.14	35967.01
498.32	36037.23
498.50	36297.03
498.67	36725.35
498.85	36744.07
499.03	36985.15
499.20	36779.18
499.38	36563.85
499.56	37266.01
499.73	36893.86
499.91	37301.12
500.08	37677.94
500.26	37486.02
500.44	37521.13
500.61	38031.36
500.79	38230.31
500.97	38000.94
501.14	38541.60
501.32	38569.69
501.49	38576.71
501.67	38756.93
501.84	39234.40
502.02	38752.25
502.20	38976.94
502.37	39222.70
502.55	39388.88
502.72	39529.31
502.90	39524.63
503.07	39409.94
503.25	39887.41
503.43	40116.78
503.60	40130.83
503.78	40467.86
503.95	40425.73
504.13	40751.07
504.30	40835.33
504.48	40973.42
504.65	40481.91
504.83	40818.94
505.01	41202.79
505.18	41265.99
505.36	41558.55
505.53	41146.62
505.71	41233.22
505.88	41530.47
506.06	41408.76
506.23	42284.12
506.41	42110.92
506.58	41801.97
506.76	42286.46
506.93	42789.67
507.11	42878.61
507.28	42934.79
507.46	42646.90
507.63	43042.45
507.81	43494.18
507.98	42820.10
508.16	42845.85
508.33	43487.15
508.50	43557.37
508.68	43540.99
508.85	44055.90
509.03	43833.55
509.20	44247.83
509.38	44069.95
509.55	44406.98
509.73	44844.66
509.90	44744.02
510.08	44313.36
510.25	44877.43
510.42	44828.28
510.60	45715.34
510.77	45485.97
510.95	45954.08
511.12	44980.42
511.30	45476.61
511.47	45406.39
511.64	45701.30
511.82	46209.20
511.99	45656.83
512.17	46021.95
512.34	45815.99
512.51	46609.43
512.69	46384.74
512.86	46698.37
513.04	46789.65
513.21	46714.75
513.38	46911.36
513.56	47026.04
513.73	46705.39
513.90	47243.71
514.08	47496.49
514.25	47515.22
514.43	47264.78
514.60	47674.37
514.77	47131.37
514.95	47639.26
515.12	47543.30
515.29	47770.33
515.47	48350.79
515.64	48060.56
515.81	48142.48
515.99	48311.00
516.16	48652.72
516.33	48545.05
516.51	48786.13
516.68	48275.89
516.85	48746.34
517.03	49059.97
517.20	48842.30
517.37	49088.06
517.54	49078.69
517.72	49301.04
517.89	49420.41
518.06	49734.04
518.24	49420.41
518.41	48978.05
518.58	49705.96
518.75	49483.61
518.93	49731.70
519.10	49097.42
519.27	49588.93
519.45	49710.64
519.62	50000.86
519.79	50080.44
519.96	50115.55
520.14	50239.60
520.31	50263.00
520.48	50342.58
520.65	50578.98
520.83	50782.60
521.00	50740.47
521.17	50555.57
521.34	50817.71
521.52	50944.10
521.69	51000.27
521.86	51297.52
522.03	51229.65
522.20	51288.16
522.38	51440.29
522.55	51487.10
522.72	51440.29
522.89	51695.41
523.07	51697.75
523.24	51522.21
523.41	51753.93
523.58	51283.48
523.75	52105.01
523.92	51910.74
524.10	52172.88
524.27	52060.54
524.44	52079.26
524.61	52226.71
524.78	52079.26
524.96	52556.73
525.13	52486.51
525.30	52428.00
525.47	52636.31
525.64	52624.60
525.81	52622.26
525.98	53127.82
526.16	52683.12
526.33	52886.74
526.50	52956.96
526.67	52891.43
526.84	52835.25
527.01	53090.37
527.18	53146.54
527.36	52938.24
527.53	53169.95
527.70	53198.04
527.87	53411.02
528.04	53165.27
528.21	53600.61
528.38	53460.18
528.55	53731.68
528.72	53656.78
528.89	53439.11
529.07	53481.24
529.24	53408.68
529.41	53731.68
529.58	53605.29
529.75	53762.11
529.92	53979.78
530.09	54085.10
530.26	53731.68
530.43	53925.94
530.60	53954.03
530.77	53956.37
530.94	54232.55
531.11	53968.07
531.28	54213.83
531.46	54515.76
531.63	54471.29
531.80	54230.21
531.97	54351.92
532.14	54461.93
532.31	54674.91
532.48	54667.89
532.65	54878.54
532.82	55007.27
532.99	54623.42
533.16	54660.87
533.33	54672.57
533.50	54946.42
533.67	54803.64
533.84	54836.41
534.01	55133.66
534.18	54958.12
534.35	55384.10
534.52	55021.31
534.69	55320.90
534.86	55381.76
535.03	55030.68
535.20	55341.97
535.37	55573.68
535.54	55463.67
535.71	55147.70
535.88	55536.23
536.05	55393.46
536.22	55746.88
536.38	55681.34
536.55	55475.38
536.72	55669.64
536.89	55828.80
537.06	55842.84
537.23	55873.27
537.40	55716.45
537.57	55891.99
537.74	55826.46
537.91	56289.88
538.08	55997.32
538.25	55966.89
538.42	56030.08
538.59	56245.41
538.75	56287.54
538.92	56238.39
539.09	56336.69
539.26	56168.18
539.43	56154.13
539.60	56292.22
539.77	56168.18
539.94	56720.54
540.11	56289.88
540.28	56458.40
540.44	56355.42
540.61	56601.18
540.78	56294.56
540.95	56339.04
541.12	56294.56
541.29	56442.02
541.46	56530.96
541.62	56769.69
541.79	56626.92
541.96	56575.43
542.13	56416.27
542.30	56736.93
542.47	56966.30
542.63	56928.85
542.80	56793.10
542.97	56982.68
543.14	57326.74
543.31	57200.35
543.48	57219.08
543.64	57546.75
543.81	57481.22
543.98	57406.32
544.15	57364.19
544.32	57509.30
544.48	57616.97
544.65	57378.23
544.82	57373.55
544.99	57420.36
545.16	57717.61
545.32	57418.02
545.49	57822.93
545.66	57799.53
545.83	57918.90
546.00	57776.12
546.16	57949.32
546.33	57544.41
546.50	57628.67
546.67	57883.79
546.83	57602.92
547.00	57867.40
547.17	57755.06
547.34	58073.37
547.50	58010.18
547.67	58003.16
547.84	57984.43
548.00	58049.97
548.17	58389.34
548.34	58244.23
548.51	58239.55
548.67	58321.47
548.84	58169.33
549.01	58124.86
549.18	58220.83
549.34	58141.25
549.51	58176.36
549.68	58436.16
549.84	58316.79
550.01	58749.79
550.18	58225.51
550.34	58698.30
550.51	58525.10
550.68	58660.85
550.84	58401.05
551.01	58637.44
551.18	58536.80
551.34	58571.91
551.51	58557.86
551.68	58607.01
551.84	58691.27
552.01	58501.69
552.18	58763.83
552.34	58784.90
552.51	58599.99
552.68	58375.30
552.84	58642.12
553.01	58946.39
553.18	58794.26
553.34	59075.12
553.51	58876.18
553.67	58812.98
553.84	59056.40
554.01	59128.95
554.17	58915.96
554.34	59075.12
554.51	58939.37
554.67	59182.79
554.84	59082.14
555.00	59035.33
555.17	58925.33
555.33	59016.61
555.50	58915.96
555.67	59084.48
555.83	59049.38
556.00	59185.13
556.16	59473.01
556.33	59255.34
556.50	59355.99
556.66	59320.88
556.83	59274.07
556.99	59604.08
557.16	59489.40
557.32	59643.87
557.49	59547.91
557.65	59391.09
557.82	59290.45
557.98	59407.48
558.15	59557.27
558.32	59529.19
558.48	59358.33
558.65	59430.88
558.81	59533.87
558.98	59573.66
559.14	59625.15
559.31	59887.29
559.47	59749.20
559.64	59856.86
559.80	59718.77
559.97	59819.41
560.13	59786.64
560.30	59929.42
560.46	59831.11
560.63	59906.01
560.79	59742.17
560.96	59917.71
561.12	60018.36
561.29	60041.76
561.45	59952.82
561.61	59913.03
561.78	59962.18
561.94	59683.66
562.11	59817.07
562.27	59856.86
562.44	60245.39
562.60	60247.73
562.77	60004.31
562.93	59814.73
563.10	60119.00
563.26	59976.23
563.42	60102.62
563.59	60203.26
563.75	60006.65
563.92	60348.37
564.08	60104.96
564.24	60154.11
564.41	60355.39
564.57	60149.43
564.74	60037.08
564.90	60114.32
565.07	60245.39
565.23	60069.85
565.39	60207.94
565.56	60210.28
565.72	60329.65
565.88	60292.20
566.05	60198.58
566.21	60123.68
566.38	60296.88
566.54	60385.82
566.70	60491.15
566.87	60500.51
567.03	60409.23
567.19	60521.57
567.36	60500.51
567.52	60465.40
567.68	60533.28
567.85	60317.95
568.01	60556.68
568.17	60320.29
568.34	60549.66
568.50	60561.36
568.66	60348.37
568.83	60540.30
568.99	60339.01
569.15	60446.68
569.32	60322.63
569.48	60388.16
569.64	60535.62
569.81	60615.19
569.97	60334.33
570.13	60573.06
570.30	60285.18
570.46	60519.23
570.62	60678.39
570.78	60371.78
570.95	60549.66
571.11	60559.02
571.27	60481.78
571.43	60425.61
571.60	60603.49
571.76	60687.75
571.92	60587.11
572.09	60486.46
572.25	60631.58
572.41	60673.71
572.57	60521.57
572.74	60959.25
572.90	60671.37
573.06	60626.90
573.22	60739.24
573.38	60683.07
573.55	60676.05
573.71	60968.61
573.87	60645.62
574.03	60474.76
574.20	60769.67
574.36	60549.66
574.52	60694.77
574.68	60931.17
574.84	60973.30
575.01	60626.90
575.17	60797.76
575.33	60931.17
575.49	60729.88
575.65	60654.98
575.82	60790.73
575.98	60863.29
576.14	60903.08
576.30	60963.93
576.46	60917.12
576.62	60718.18
576.79	60790.73
576.95	60867.97
577.11	60907.76
577.27	60917.12
577.43	60907.76
577.59	60624.56
577.75	60919.46
577.92	60692.43
578.08	60793.07
578.24	60954.57
578.40	61057.56
578.56	61179.26
578.72	60980.32
578.88	60996.70
579.04	61193.31
579.21	60865.63
579.37	61043.51
579.53	60882.02
579.69	60793.07
579.85	60779.03
580.01	60832.86
580.17	60907.76
580.33	61066.92
580.49	60912.44
580.65	60931.17
580.82	60933.51
580.98	60994.36
581.14	60793.07
581.30	61087.98
581.46	60921.80
581.62	61116.07
581.78	60977.98
581.94	61006.06
582.10	60905.42
582.26	60905.42
582.42	60867.97
582.58	60949.89
582.74	60917.12
582.90	60956.91
583.06	61022.45
583.22	60968.61
583.38	60975.64
583.54	60982.66
583.70	60996.70
583.86	61062.24
584.02	60977.98
584.18	61134.79
584.34	60884.36
584.50	60900.74
584.66	60779.03
584.82	60926.49
584.98	61277.57
585.14	60994.36
585.30	60952.23
585.46	61134.79
585.62	61045.85
585.78	61329.06
585.94	60802.44
586.10	60774.35
586.26	61188.63
586.42	61092.66
586.58	61219.05
586.74	61078.62
586.90	61097.34
587.06	61008.40
587.22	61106.71
587.38	61190.97
587.54	61095.00
587.70	61132.45
587.86	61148.84
588.02	61219.05
588.18	60952.23
588.34	61010.74
588.49	61059.90
