SpectraSuite Data File
++++++++++++++++++++++++++++++++++++
Date: Fri Oct 25 11:26:14 EDT 2013
User: price-jones
Dark Spectrum Present: No
Reference Spectrum Present: No
Number of Sampled Component Spectra: 1
Spectrometers: USB2+H05261
Integration Time (usec): 100000 (USB2+H05261)
Spectra Averaged: 1 (USB2+H05261)
Boxcar Smoothing: 0 (USB2+H05261)
Correct for Electrical Dark: No (USB2+H05261)
Strobe/Lamp Enabled: No (USB2+H05261)
Correct for Detector Non-linearity: No (USB2+H05261)
Correct for Stray Light: No (USB2+H05261)
Number of Pixels in Processed Spectrum: 2048
>>>>>Begin Processed Spectral Data<<<<<
365.73	259.80
365.92	259.80
366.12	259.80
366.32	126.39
366.52	77.24
366.72	224.69
366.91	161.50
367.11	180.22
367.31	154.48
367.51	168.52
367.70	138.09
367.90	70.22
368.10	79.58
368.30	175.54
368.49	121.71
368.69	135.75
368.89	128.73
369.09	156.82
369.28	128.73
369.48	126.39
369.68	189.58
369.87	182.56
370.07	271.50
370.27	290.23
370.47	383.85
370.66	578.11
370.86	545.34
371.06	718.54
371.25	723.23
371.45	723.23
371.65	676.41
371.84	688.12
372.04	706.84
372.24	720.88
372.44	779.40
372.63	697.48
372.83	816.85
373.03	727.91
373.22	748.97
373.42	763.01
373.62	725.57
373.81	777.06
374.01	830.89
374.21	882.38
374.40	908.13
374.60	807.48
374.79	739.61
374.99	898.77
375.19	828.55
375.38	880.04
375.58	866.00
375.78	858.98
375.97	912.81
376.17	856.64
376.37	880.04
376.56	889.40
376.76	828.55
376.95	922.17
377.15	868.34
377.35	971.32
377.54	938.55
377.74	826.21
377.93	936.21
378.13	851.96
378.33	926.85
378.52	901.11
378.72	983.02
378.91	917.49
379.11	961.96
379.31	851.96
379.50	933.87
379.70	887.06
379.89	1062.60
380.09	973.66
380.28	950.26
380.48	931.53
380.68	943.24
380.87	933.87
381.07	999.41
381.26	1013.45
381.46	1029.84
381.65	997.07
381.85	1107.07
382.04	1156.22
382.24	1083.67
382.43	1057.92
382.63	1020.47
382.83	1027.50
383.02	1060.26
383.22	1104.73
383.41	1102.39
383.61	1022.81
383.80	1170.27
384.00	1144.52
384.19	1057.92
384.39	1137.50
384.58	1149.20
384.78	1144.52
384.97	1177.29
385.17	1128.14
385.36	1132.82
385.56	1207.72
385.75	1184.31
385.95	1125.80
386.14	1275.59
386.34	1174.95
386.53	1228.78
386.72	1128.14
386.92	1266.23
387.11	1231.12
387.31	1249.85
387.50	1294.32
387.70	1294.32
387.89	1310.70
388.09	1261.55
388.28	1366.87
388.48	1296.66
388.67	1296.66
388.86	1322.40
389.06	1401.98
389.25	1275.59
389.45	1413.68
389.64	1341.13
389.84	1294.32
390.03	1320.06
390.22	1437.09
390.42	1376.24
390.61	1324.74
390.81	1313.04
391.00	1451.13
391.19	1481.56
391.39	1437.09
391.58	1383.26
391.78	1357.51
391.97	1486.24
392.16	1488.58
392.36	1507.30
392.55	1495.60
392.75	1467.52
392.94	1521.35
393.13	1521.35
393.33	1476.88
393.52	1610.29
393.71	1603.27
393.91	1612.63
394.10	1636.03
394.29	1633.69
394.49	1603.27
394.68	1678.16
394.88	1687.53
395.07	1673.48
395.26	1596.25
395.46	1689.87
395.65	1708.59
395.84	1715.61
396.04	1720.29
396.23	1739.02
396.42	1776.47
396.62	1736.68
396.81	1853.70
397.00	1879.45
397.19	1795.19
397.39	1799.87
397.58	1792.85
397.77	1769.44
397.97	1811.57
398.16	1895.83
398.35	1872.43
398.55	1837.32
398.74	1959.03
398.93	2033.93
399.12	1982.43
399.32	1888.81
399.51	1818.60
399.70	2078.40
399.90	1858.39
400.09	2031.58
400.28	2008.18
400.47	2012.86
400.67	2062.01
400.86	2076.06
401.05	2054.99
401.24	2026.90
401.44	2132.23
401.63	2239.89
401.82	2188.40
402.01	2162.66
402.21	2202.44
402.40	2122.87
402.59	2221.17
402.78	2155.63
402.97	2303.09
403.17	2267.98
403.36	2197.76
403.55	2277.34
403.74	2331.17
403.93	2352.24
404.13	2335.85
404.32	2354.58
404.51	2429.48
404.70	2366.28
404.89	2333.51
405.09	2509.05
405.28	2427.14
405.47	2476.29
405.66	2466.92
405.85	2546.50
406.05	2457.56
406.24	2588.63
406.43	2586.29
406.62	2532.46
406.81	2658.85
407.00	2509.05
407.20	2614.38
407.39	2539.48
407.58	2717.36
407.77	2710.34
407.96	2637.78
408.15	2717.36
408.34	2729.06
408.54	2874.18
408.73	2827.37
408.92	2836.73
409.11	3023.97
409.30	2883.54
409.49	2815.66
409.68	2794.60
409.87	2958.44
410.07	2995.89
410.26	2958.44
410.45	2995.89
410.64	3035.67
410.83	3028.65
411.02	3105.89
411.21	3194.83
411.40	3087.17
411.59	3206.53
411.78	3234.62
411.98	3183.13
412.17	3117.59
412.36	3201.85
412.55	3351.65
412.74	3419.52
412.93	3211.22
413.12	3421.86
413.31	3454.63
413.50	3494.42
413.69	3496.76
413.88	3389.10
414.07	3606.77
414.26	3578.68
414.45	3611.45
414.64	3653.58
414.83	3904.01
415.02	3857.20
415.22	3838.48
415.41	3854.86
415.60	3960.19
415.79	3927.42
415.98	3927.42
416.17	3927.42
416.36	3939.12
416.55	4051.47
416.74	4145.09
416.93	4086.58
417.12	3997.64
417.31	4175.52
417.50	4196.58
417.69	4241.05
417.88	4273.82
418.07	4201.26
418.26	4327.65
418.45	4229.35
418.64	4472.76
418.83	4348.72
419.02	4358.08
419.21	4505.53
419.39	4463.40
419.58	4545.32
419.77	4411.91
419.96	4545.32
420.15	4662.35
420.34	4442.34
420.53	4662.35
420.72	4545.32
420.91	4685.75
421.10	4748.95
421.29	4784.06
421.48	4610.86
421.67	4786.40
421.86	4795.76
422.05	4755.97
422.24	4732.56
422.43	4840.23
422.61	4945.55
422.80	4917.47
422.99	4933.85
423.18	4990.02
423.37	4983.00
423.56	4889.38
423.75	5025.13
423.94	4896.40
424.13	4554.68
424.32	4723.20
424.50	4858.95
424.69	5057.90
424.88	5011.09
425.07	5039.17
425.26	4922.15
425.45	5011.09
425.64	4990.02
425.83	4975.98
426.01	5008.75
426.20	4933.85
426.39	4968.96
426.58	4987.68
426.77	5097.69
426.96	4994.70
427.15	5186.63
427.33	5221.74
427.52	5064.92
427.71	5245.14
427.90	5156.20
428.09	5294.29
428.28	5322.38
428.46	5284.93
428.65	5338.76
428.84	5523.66
429.03	5528.35
429.22	5277.91
429.40	5439.40
429.59	5586.86
429.78	5210.03
429.97	5294.29
430.16	5614.95
430.34	5584.52
430.53	5713.25
430.72	5748.36
430.91	5654.73
431.10	5568.13
431.28	5638.35
431.47	5813.89
431.66	5863.04
431.85	5853.68
432.03	5790.49
432.22	5963.68
432.41	5898.15
432.60	5820.91
432.79	5851.34
432.97	5893.47
433.16	5870.06
433.35	6029.22
433.54	6066.67
433.72	6050.28
433.91	6080.71
434.10	6207.10
434.28	6099.44
434.47	6164.97
434.66	6235.19
434.85	6293.70
435.03	6263.27
435.22	6279.66
435.41	6382.64
435.59	6523.07
435.78	6345.19
435.97	6424.77
436.16	6307.74
436.34	6352.21
436.53	6331.15
436.72	6626.06
436.90	6480.94
437.09	6539.46
437.28	6555.84
437.46	6635.42
437.65	6588.61
437.84	6794.58
438.02	6565.20
438.21	6806.28
438.40	6668.19
438.58	6878.83
438.77	7103.53
438.96	6892.88
439.14	6972.46
439.33	7091.82
439.52	7236.94
439.70	7094.16
439.89	7403.11
440.08	7302.47
440.26	7241.62
440.45	7192.47
440.63	7267.36
440.82	7461.63
441.01	7466.31
441.19	7424.18
441.38	7573.97
441.57	7611.42
441.75	7763.56
441.94	7957.82
442.12	7971.86
442.31	8049.10
442.50	8194.22
442.68	7838.45
442.87	7964.84
443.05	7988.25
443.24	8276.13
443.43	8194.22
443.61	8037.40
443.80	8386.14
443.98	8028.04
444.17	7758.88
444.35	8276.13
444.54	8351.03
444.73	8414.23
444.91	8360.39
445.10	8355.71
445.28	8252.73
445.47	8322.94
445.65	8264.43
445.84	8308.90
446.02	8184.85
446.21	8484.44
446.39	8414.23
446.58	8376.78
446.77	8533.59
446.95	8203.58
447.14	8542.96
447.32	8496.14
447.51	8393.16
447.69	8578.06
447.88	8599.13
448.06	8561.68
448.25	8545.30
448.43	8482.10
448.62	8486.78
448.80	8383.80
448.99	8620.19
449.17	8732.54
449.36	8648.28
449.54	8709.13
449.73	8847.22
449.91	8954.89
450.10	8898.72
450.28	9104.68
450.46	9027.45
450.65	9135.11
450.83	8994.68
451.02	9109.36
451.20	9207.67
451.39	9043.83
451.57	9060.21
451.76	8961.91
451.94	9184.26
452.13	9423.00
452.31	9088.30
452.49	9107.02
452.68	9329.38
452.86	9132.77
453.05	9277.88
453.23	9533.00
453.42	9390.23
453.60	9191.28
453.78	9469.81
453.97	9451.08
454.15	9575.13
454.34	9324.69
454.52	9767.06
454.70	9500.23
454.89	9654.71
455.07	9785.78
455.26	9795.14
455.44	9977.70
455.62	9907.49
455.81	9846.63
455.99	9940.26
456.17	10024.51
456.36	9947.28
456.54	10218.78
456.73	10094.73
456.91	10527.73
457.09	10450.49
457.28	10537.09
457.46	10186.01
457.64	10626.03
457.83	10527.73
458.01	10209.42
458.19	10656.46
458.38	10539.43
458.56	10560.50
458.74	10499.64
458.93	10787.53
459.11	10581.56
459.29	10710.29
459.48	10658.80
459.66	10733.70
459.84	10822.64
460.03	10916.26
460.21	10885.83
460.39	10918.60
460.57	10998.18
460.76	11016.90
460.94	11089.46
461.12	11157.33
461.31	11157.33
461.49	10934.98
461.67	11040.31
461.85	11431.18
462.04	10892.85
462.22	11690.98
462.40	11466.28
462.59	11494.37
462.77	11290.74
462.95	11658.21
463.13	11609.06
463.32	11496.71
463.50	11868.86
463.68	11775.24
463.86	11810.34
464.05	11641.82
464.23	11639.48
464.41	11803.32
464.59	11566.93
464.78	11983.54
464.96	11868.86
465.14	11826.73
465.32	11896.94
465.50	12093.55
465.69	12231.64
465.87	12020.99
466.05	12025.67
466.23	12271.43
466.41	12042.06
466.60	12435.27
466.78	12112.27
466.96	12257.39
467.14	12191.85
467.32	12409.52
467.51	12453.99
467.69	11784.60
467.87	12051.42
468.05	12421.22
468.23	12058.44
468.41	12184.83
468.60	12500.80
468.78	12666.98
468.96	12430.59
469.14	12786.35
469.32	12954.87
469.50	12390.80
469.69	12755.92
469.87	13029.76
470.05	13111.68
470.23	13261.48
470.41	13092.96
470.59	13329.35
470.77	13191.26
470.95	13114.02
471.14	13458.08
471.32	13036.78
471.50	13467.44
471.68	13511.91
471.86	13479.15
472.04	13422.97
472.22	13942.57
472.40	13549.36
472.58	13638.30
472.77	13980.02
472.95	13956.61
473.13	14455.15
473.31	14054.92
473.49	14244.50
473.67	14307.69
473.85	14033.85
474.03	14738.35
474.21	14487.92
474.39	14555.79
474.57	14700.90
474.75	14731.33
474.93	15049.64
475.12	14810.91
475.30	14927.94
475.48	15108.16
475.66	15164.33
475.84	15129.22
476.02	15204.12
476.20	15190.08
476.38	15660.52
476.56	15730.74
476.74	15840.75
476.92	15857.13
477.10	15515.41
477.28	16336.94
477.46	15894.58
477.64	16388.43
477.82	16322.90
478.00	16865.90
478.18	16517.16
478.36	16762.92
478.54	17252.09
478.72	17055.48
478.90	17511.89
479.08	17554.02
479.26	17399.54
479.44	17645.30
479.62	17647.64
479.80	17715.51
479.98	18068.94
480.16	18691.52
480.34	18113.41
480.52	18860.04
480.70	18504.28
480.88	18258.52
481.06	18560.45
481.24	18754.71
481.41	18951.32
481.59	19145.58
481.77	19255.59
481.95	19606.67
482.13	19887.53
482.31	19601.99
482.49	20123.93
482.67	20243.29
482.85	20329.89
483.03	20577.99
483.21	20636.50
483.39	20596.71
483.57	20767.57
483.74	21116.31
483.92	21256.75
484.10	21151.42
484.28	21692.08
484.46	21818.47
484.64	22199.98
484.82	21759.96
485.00	22361.48
485.18	22827.24
485.35	23002.78
485.53	22792.14
485.71	23124.49
485.89	23470.89
486.07	23019.17
486.25	23077.68
486.43	23428.76
486.61	23601.96
486.78	23899.21
486.96	24065.39
487.14	24645.84
487.32	24617.75
487.50	24837.76
487.68	24917.34
487.85	25284.81
488.03	25493.12
488.21	25706.10
488.39	25469.71
488.57	25727.17
488.75	26043.14
488.92	26003.35
489.10	26597.85
489.28	26469.12
489.46	26932.54
489.64	27096.38
489.81	27625.34
489.99	27335.12
490.17	27438.10
490.35	27924.93
490.53	27920.25
490.70	28224.52
490.88	28018.55
491.06	28629.43
491.24	28547.51
491.41	28865.83
491.59	29024.98
491.77	28973.49
491.95	29399.47
492.13	29935.45
492.30	29823.11
492.48	29961.20
492.66	29694.38
492.84	30333.34
493.01	30476.12
493.19	30267.81
493.37	31035.50
493.54	31227.43
493.72	31143.17
493.90	31365.52
494.08	31688.51
494.25	32189.39
494.43	32020.87
494.61	32327.48
494.79	32222.16
494.96	32018.53
495.14	32535.79
495.32	33118.58
495.49	32652.81
495.67	33277.74
495.85	33570.30
496.02	33558.60
496.20	33310.50
496.38	33603.07
496.55	34003.30
496.73	34471.41
496.91	34155.44
497.09	34668.02
497.26	34696.10
497.44	34684.40
497.62	35236.77
497.79	35473.16
497.97	35255.49
498.14	35833.60
498.32	35721.26
498.50	35723.60
498.67	36353.20
498.85	36325.11
499.03	36493.63
499.20	36463.21
499.38	36505.34
499.56	36903.23
499.73	37043.66
499.91	37163.03
500.08	37287.07
500.26	37460.27
500.44	37441.55
500.61	37535.17
500.79	37809.01
500.97	38124.99
501.14	38494.79
501.32	38244.35
501.49	38490.11
501.67	38567.35
501.84	38667.99
502.02	38803.74
502.20	38806.08
502.37	38806.08
502.55	38969.92
502.72	39487.18
502.90	39590.16
503.07	39248.44
503.25	39538.67
503.43	39119.71
503.60	39620.59
503.78	40179.98
503.95	39772.72
504.13	40086.36
504.30	40301.68
504.48	40449.14
504.65	40645.74
504.83	40842.35
505.01	41273.01
505.18	41038.95
505.36	41198.11
505.53	40910.22
505.71	41769.20
505.88	41478.97
506.06	41013.21
506.23	41666.22
506.41	41558.55
506.58	41619.41
506.76	41778.56
506.93	42431.57
507.11	41603.02
507.28	42344.97
507.46	42401.14
507.63	42784.99
507.81	42937.13
507.98	42820.10
508.16	42649.24
508.33	43285.87
508.50	43613.54
508.68	43414.60
508.85	43594.82
509.03	43342.04
509.20	43606.52
509.38	43990.37
509.55	43948.24
509.73	44542.74
509.90	44622.31
510.08	44348.47
510.25	44320.38
510.42	44505.29
510.60	44577.84
510.77	44776.79
510.95	45476.61
511.12	44680.83
511.30	44652.74
511.47	44896.16
511.64	45394.69
511.82	45759.81
511.99	45436.82
512.17	45883.86
512.34	45748.11
512.51	46192.81
512.69	46293.46
512.86	45925.99
513.04	46539.21
513.21	46433.89
513.38	46445.59
513.56	46644.54
513.73	46602.41
513.90	47201.58
514.08	46138.98
514.25	46986.25
514.43	47014.34
514.60	47269.46
514.77	47138.39
514.95	47531.60
515.12	47426.28
515.29	47346.70
515.47	47283.50
515.64	47749.27
515.81	47667.35
515.99	47559.69
516.16	48186.95
516.33	48240.78
516.51	48182.27
516.68	48392.92
516.85	48123.75
517.03	48921.88
517.20	48610.59
517.37	48652.72
517.54	48603.56
517.72	48811.87
517.89	49134.87
518.06	49385.30
518.24	49165.29
518.41	48594.20
518.58	49034.22
518.75	49345.51
518.93	49380.62
519.10	48940.60
519.27	49504.67
519.45	49799.58
519.62	49727.02
519.79	49738.72
519.96	50059.38
520.14	49785.54
520.31	49783.19
520.48	49888.52
520.65	50293.43
520.83	50522.80
521.00	50525.14
521.17	50155.34
521.34	50525.14
521.52	51056.45
521.69	50787.28
521.86	50857.50
522.03	50901.97
522.20	51316.25
522.38	51246.03
522.55	50962.82
522.72	51054.11
522.89	51157.09
523.07	51526.89
523.24	51398.16
523.41	51695.41
523.58	51384.12
523.75	51323.27
523.92	51515.19
524.10	51887.34
524.27	51920.10
524.44	51571.36
524.61	52107.35
524.78	52205.65
524.96	52004.36
525.13	52168.20
525.30	52114.37
525.47	51966.91
525.64	52172.88
525.81	52374.17
525.98	52617.58
526.16	52193.95
526.33	52713.55
526.50	52853.98
526.67	52577.79
526.84	52963.98
527.01	52818.87
527.18	52416.30
527.36	52685.46
527.53	53024.84
527.70	53237.83
527.87	53132.50
528.04	53195.70
528.21	53146.54
528.38	53162.93
528.55	53326.77
528.72	53099.73
528.89	53195.70
529.07	52924.19
529.24	53158.25
529.41	53776.15
529.58	53399.32
529.75	53483.58
529.92	53724.66
530.09	53584.22
530.26	53888.49
530.43	53914.24
530.60	53628.69
530.77	53738.70
530.94	53982.12
531.11	54115.53
531.28	54157.66
531.46	53956.37
531.63	54384.69
531.80	54122.55
531.97	54141.27
532.14	54080.42
532.31	54218.51
532.48	54230.21
532.65	54576.61
532.82	54431.50
532.99	54459.58
533.16	54604.70
533.33	54630.44
533.50	54878.54
533.67	55037.70
533.84	54677.25
534.01	54850.45
534.18	54667.89
534.35	54719.38
534.52	54951.10
534.69	55051.74
534.86	55220.26
535.03	54899.61
535.20	55220.26
535.37	55161.75
535.54	55356.01
535.71	55199.19
535.88	55264.73
536.05	55103.23
536.22	55281.11
536.38	55634.53
536.55	55285.79
536.72	55386.44
536.89	55189.83
537.06	55440.27
537.23	55620.49
537.40	55606.45
537.57	55599.43
537.74	55454.31
537.91	55742.20
538.08	56104.98
538.25	55774.97
538.42	55863.91
538.59	55957.53
538.75	55693.05
538.92	55819.44
539.09	56193.92
539.26	56051.15
539.43	55938.80
539.60	56037.11
539.77	56027.74
539.94	56395.21
540.11	56212.65
540.28	56191.58
540.44	56322.65
540.61	56420.95
540.78	56353.08
540.95	56193.92
541.12	56472.45
541.29	56306.27
541.46	56324.99
541.62	56355.42
541.79	56399.89
541.96	56172.86
542.13	56545.00
542.30	56446.70
542.47	56814.16
542.63	56610.54
542.80	56842.25
542.97	57031.83
543.14	56996.73
543.31	57006.09
543.48	57134.82
543.64	57401.64
543.81	57167.58
543.98	57188.65
544.15	57223.76
544.32	57329.08
544.48	57518.67
544.65	57097.37
544.82	57151.20
544.99	57162.90
545.16	57223.76
545.32	57277.59
545.49	57506.96
545.66	57474.20
545.83	57726.97
546.00	57815.91
546.16	57427.38
546.33	57338.44
546.50	57427.38
546.67	57691.86
546.83	57521.01
547.00	57701.23
547.17	57513.98
547.34	57738.68
547.50	57932.94
547.67	57935.28
547.84	57858.04
548.00	58059.33
548.17	58003.16
548.34	57991.45
548.51	58115.50
548.67	58106.14
548.84	57996.13
549.01	57883.79
549.18	57963.37
549.34	58159.97
549.51	58073.37
549.68	58473.60
549.84	58237.21
550.01	58300.40
550.18	58103.80
550.34	58213.80
550.51	58368.28
550.68	58277.00
550.84	58127.20
551.01	58321.47
551.18	58237.21
551.34	58508.71
551.51	58403.39
551.68	58415.09
551.84	58473.60
552.01	58415.09
552.18	58543.82
552.34	58394.03
552.51	58611.70
552.68	58288.70
552.84	58578.93
553.01	58768.51
553.18	58660.85
553.34	58653.82
553.51	58639.78
553.67	58791.92
553.84	58808.30
554.01	58946.39
554.17	58822.34
554.34	58782.55
554.51	58796.60
554.67	58941.71
554.84	58710.00
555.00	58941.71
555.17	58824.68
555.33	58901.92
555.50	58646.80
555.67	58763.83
555.83	58897.24
556.00	58960.44
556.16	59091.51
556.33	59075.12
556.50	59180.45
556.66	59157.04
556.83	58927.67
556.99	59288.11
557.16	59444.93
557.32	59398.12
557.49	59173.42
557.65	59110.23
557.82	59381.73
557.98	59210.87
558.15	59421.52
558.32	59374.71
558.48	59281.09
558.65	59229.60
558.81	59309.18
558.98	59355.99
559.14	59379.39
559.31	59547.91
559.47	59543.23
559.64	59398.12
559.80	59599.40
559.97	59545.57
560.13	59512.80
560.30	59442.59
560.46	59571.32
560.63	59566.63
560.79	59641.53
560.96	59767.92
561.12	59756.22
561.29	59501.10
561.45	59517.48
561.61	59648.55
561.78	59875.58
561.94	59625.15
562.11	59749.20
562.27	59835.80
562.44	59796.01
562.60	59854.52
562.77	59824.09
562.93	59606.42
563.10	60041.76
563.26	59913.03
563.42	60154.11
563.59	59786.64
563.75	59730.47
563.92	60058.15
564.08	59810.05
564.24	60107.30
564.41	60009.00
564.57	60100.28
564.74	60048.78
564.90	60079.21
565.07	60025.38
565.23	59931.76
565.39	60001.97
565.56	60144.75
565.72	59957.50
565.88	59987.93
566.05	60229.01
566.21	60093.25
566.38	60144.75
566.54	59915.37
566.70	60154.11
566.87	60296.88
567.03	60044.10
567.19	60315.61
567.36	60207.94
567.52	60179.85
567.68	60362.42
567.85	60252.41
568.01	60411.57
568.17	60062.83
568.34	60308.58
568.50	60170.49
568.66	60140.07
568.83	60411.57
568.99	60357.74
569.15	60362.42
569.32	60355.39
569.48	60245.39
569.64	60533.28
569.81	60601.15
569.97	60205.60
570.13	60367.10
570.30	60306.24
570.46	60236.03
570.62	60336.67
570.78	60449.02
570.95	60364.76
571.11	60404.55
571.27	60233.69
571.43	60240.71
571.60	60615.19
571.76	60598.81
571.92	60388.16
572.09	60612.85
572.25	60273.48
572.41	60416.25
572.57	60449.02
572.74	60617.53
572.90	60395.18
573.06	60493.49
573.22	60530.93
573.38	60537.96
573.55	60413.91
573.71	60753.29
573.87	60699.45
574.03	60491.15
574.20	60441.99
574.36	60523.91
574.52	60638.60
574.68	60601.15
574.84	60671.37
575.01	60846.91
575.17	60636.26
575.33	60500.51
575.49	60540.30
575.65	60633.92
575.82	60753.29
575.98	60584.77
576.14	60928.83
576.30	60591.79
576.46	60659.66
576.62	60587.11
576.79	60664.35
576.95	60500.51
577.11	60432.63
577.27	60935.85
577.43	60949.89
577.59	60678.39
577.75	60626.90
577.92	60409.23
578.08	60718.18
578.24	60760.31
578.40	60846.91
578.56	60949.89
578.72	60832.86
578.88	60757.97
579.04	60835.20
579.21	60786.05
579.37	60919.46
579.53	60926.49
579.69	60484.12
579.85	60666.69
580.01	60404.55
580.17	60521.57
580.33	60746.26
580.49	60779.03
580.65	60910.10
580.82	60849.25
580.98	60701.79
581.14	60764.99
581.30	61221.39
581.46	60889.04
581.62	60954.57
581.78	60608.17
581.94	60807.12
582.10	60708.82
582.26	60858.61
582.42	60729.88
582.58	60860.95
582.74	60715.84
582.90	60821.16
583.06	60814.14
583.22	60694.77
583.38	60683.07
583.54	60697.11
583.70	60900.74
583.86	60961.59
584.02	60633.92
584.18	60994.36
584.34	60985.00
584.50	60814.14
584.66	60746.26
584.82	60643.28
584.98	60914.78
585.14	60743.92
585.30	60816.48
585.46	60919.46
585.62	60874.99
585.78	61153.52
585.94	60893.72
586.10	61078.62
586.26	60956.91
586.42	60874.99
586.58	61043.51
586.74	60884.36
586.90	60821.16
587.06	61003.72
587.22	61010.74
587.38	60844.57
587.54	61057.56
587.70	61064.58
587.86	60926.49
588.02	61034.15
588.18	61071.60
588.34	60699.45
588.49	61020.11
