SpectraSuite Data File
++++++++++++++++++++++++++++++++++++
Date: Fri Oct 25 11:24:02 EDT 2013
User: price-jones
Dark Spectrum Present: No
Reference Spectrum Present: No
Number of Sampled Component Spectra: 1
Spectrometers: USB2+H05261
Integration Time (usec): 100000 (USB2+H05261)
Spectra Averaged: 1 (USB2+H05261)
Boxcar Smoothing: 0 (USB2+H05261)
Correct for Electrical Dark: No (USB2+H05261)
Strobe/Lamp Enabled: No (USB2+H05261)
Correct for Detector Non-linearity: No (USB2+H05261)
Correct for Stray Light: No (USB2+H05261)
Number of Pixels in Processed Spectrum: 2048
>>>>>Begin Processed Spectral Data<<<<<
365.73	248.10
365.92	248.10
366.12	248.10
366.32	95.96
366.52	121.71
366.72	138.09
366.91	175.54
367.11	135.75
367.31	112.35
367.51	142.77
367.70	175.54
367.90	154.48
368.10	149.79
368.30	128.73
368.49	124.05
368.69	177.88
368.89	70.22
369.09	60.85
369.28	175.54
369.48	170.86
369.68	102.98
369.87	126.39
370.07	236.39
370.27	264.48
370.47	318.31
370.66	601.52
370.86	648.33
371.06	723.23
371.25	681.10
371.45	629.60
371.65	732.59
371.84	573.43
372.04	622.58
372.24	753.65
372.44	763.01
372.63	805.14
372.83	709.18
373.03	786.42
373.22	786.42
373.42	744.29
373.62	737.27
373.81	819.19
374.01	837.91
374.21	882.38
374.40	830.89
374.60	795.78
374.79	847.27
374.99	765.36
375.19	798.12
375.38	844.93
375.58	877.70
375.78	919.83
375.97	805.14
376.17	837.91
376.37	842.59
376.56	851.96
376.76	882.38
376.95	912.81
377.15	870.68
377.35	884.72
377.54	973.66
377.74	884.72
377.93	875.36
378.13	936.21
378.33	966.64
378.52	978.34
378.72	898.77
378.91	1004.09
379.11	924.51
379.31	973.66
379.50	952.60
379.70	940.90
379.89	957.28
380.09	943.24
380.28	961.96
380.48	912.81
380.68	994.73
380.87	896.43
381.07	936.21
381.26	992.39
381.46	1086.01
381.65	1008.77
381.85	1013.45
382.04	1013.45
382.24	1067.28
382.43	1013.45
382.63	1032.18
382.83	1097.71
383.02	1057.92
383.22	1057.92
383.41	1043.88
383.61	1001.75
383.80	1078.99
384.00	1057.92
384.19	1109.41
384.39	1078.99
384.58	1097.71
384.78	1149.20
384.97	1151.54
385.17	1156.22
385.36	1188.99
385.56	1210.06
385.75	1177.29
385.95	1165.59
386.14	1172.61
386.34	1191.33
386.53	1153.88
386.72	1165.59
386.92	1308.36
387.11	1259.21
387.31	1287.29
387.50	1275.59
387.70	1179.63
387.89	1198.35
388.09	1308.36
388.28	1277.93
388.48	1287.29
388.67	1390.28
388.86	1296.66
389.06	1317.72
389.25	1359.85
389.45	1338.79
389.64	1378.58
389.84	1315.38
390.03	1394.96
390.22	1453.47
390.42	1488.58
390.61	1359.85
390.81	1404.32
391.00	1404.32
391.19	1493.26
391.39	1488.58
391.58	1504.96
391.78	1376.24
391.97	1521.35
392.16	1528.37
392.36	1472.20
392.55	1523.69
392.75	1591.56
392.94	1497.94
393.13	1399.64
393.33	1514.33
393.52	1427.73
393.71	1619.65
393.91	1645.40
394.10	1526.03
394.29	1673.48
394.49	1626.67
394.68	1584.54
394.88	1650.08
395.07	1785.83
395.26	1755.40
395.46	1746.04
395.65	1685.19
395.84	1673.48
396.04	1783.49
396.23	1720.29
396.42	1776.47
396.62	1788.17
396.81	1778.81
397.00	1713.27
397.19	1844.34
397.39	1743.70
397.58	1851.36
397.77	1867.75
397.97	1865.41
398.16	1898.17
398.35	1886.47
398.55	1792.85
398.74	1956.69
398.93	1947.33
399.12	1891.15
399.32	1877.11
399.51	1937.96
399.70	1984.77
399.90	1933.28
400.09	1907.54
400.28	2162.66
400.47	2052.65
400.67	2115.84
400.86	2179.04
401.05	2122.87
401.24	2066.69
401.44	2146.27
401.63	2115.84
401.82	2141.59
402.01	2092.44
402.21	2223.51
402.40	2279.68
402.59	2162.66
402.78	2176.70
402.97	2275.00
403.17	2340.54
403.36	2249.25
403.55	2326.49
403.74	2415.43
403.93	2448.20
404.13	2427.14
404.32	2356.92
404.51	2413.09
404.70	2370.96
404.89	2420.11
405.09	2462.24
405.28	2537.14
405.47	2574.59
405.66	2483.31
405.85	2352.24
406.05	2527.78
406.24	2553.52
406.43	2572.25
406.62	2619.06
406.81	2633.10
407.00	2495.01
407.20	2698.64
407.39	2761.83
407.58	2670.55
407.77	2682.25
407.96	2850.77
408.15	2785.24
408.34	2848.43
408.54	2935.03
408.73	2766.51
408.92	2834.39
409.11	2860.13
409.30	2829.71
409.49	2839.07
409.68	2766.51
409.87	2935.03
410.07	2998.23
410.26	3075.46
410.45	3052.06
410.64	3108.23
410.83	2991.20
411.02	3112.91
411.21	3204.19
411.40	3073.12
411.59	3096.53
411.78	3089.51
411.98	3148.02
412.17	3293.13
412.36	3396.12
412.55	3356.33
412.74	3478.04
412.93	3393.78
413.12	3421.86
413.31	3597.40
413.50	3435.91
413.69	3541.23
413.88	3646.55
414.07	3602.08
414.26	3648.90
414.45	3695.71
414.64	3630.17
414.83	3761.24
415.02	3702.73
415.22	3889.97
415.41	3882.95
415.60	3871.25
415.79	4021.04
415.98	3922.74
416.17	3999.98
416.36	3971.89
416.55	4070.19
416.74	4063.17
416.93	4044.45
417.12	4100.62
417.31	4259.78
417.50	4255.09
417.69	4355.74
417.88	4177.86
418.07	4215.30
418.26	4416.59
418.45	4287.86
418.64	4416.59
418.83	4278.50
419.02	4463.40
419.21	4510.21
419.39	4477.44
419.58	4557.02
419.77	4503.19
419.96	4507.87
420.15	4690.43
420.34	4629.58
420.53	4704.48
420.72	4711.50
420.91	4643.62
421.10	4695.11
421.29	4788.74
421.48	4634.26
421.67	4748.95
421.86	4840.23
422.05	4751.29
422.24	4926.83
422.43	4755.97
422.61	4870.65
422.80	5041.51
422.99	4905.76
423.18	5039.17
423.37	5039.17
423.56	4964.28
423.75	5041.51
423.94	4875.34
424.13	4442.34
424.32	4833.21
424.50	4926.83
424.69	5207.69
424.88	5149.18
425.07	5015.77
425.26	4971.30
425.45	4877.68
425.64	4947.89
425.83	4891.72
426.01	5046.20
426.20	4983.00
426.39	4980.66
426.58	4973.64
426.77	5006.41
426.96	5078.96
427.15	5184.29
427.33	5195.99
427.52	5193.65
427.71	5434.72
427.90	5188.97
428.09	5411.32
428.28	5364.51
428.46	5366.85
428.65	5397.28
428.84	5556.43
429.03	5551.75
429.22	5263.86
429.40	5603.24
429.59	5591.54
429.78	5413.66
429.97	5352.81
430.16	5298.97
430.34	5778.78
430.53	5664.10
430.72	5675.80
430.91	5722.61
431.10	5563.45
431.28	5729.63
431.47	5795.17
431.66	5865.38
431.85	5713.25
432.03	5994.11
432.22	6122.84
432.41	6033.90
432.60	5982.41
432.79	5982.41
432.97	6092.41
433.16	6186.04
433.35	6031.56
433.54	6069.01
433.72	6122.84
433.91	6111.14
434.10	6188.38
434.28	6249.23
434.47	6143.91
434.66	6310.08
434.85	6296.04
435.03	6338.17
435.22	6291.36
435.41	6422.43
435.59	6303.06
435.78	6654.14
435.97	6420.09
436.16	6574.56
436.34	6389.66
436.53	6562.86
436.72	6544.14
436.90	6619.04
437.09	6576.91
437.28	6389.66
437.46	6555.84
437.65	6574.56
437.84	6825.00
438.02	6729.04
438.21	6885.86
438.40	6539.46
438.58	6909.26
438.77	7016.93
438.96	6937.35
439.14	7344.60
439.33	7295.45
439.52	7255.66
439.70	7194.81
439.89	7529.50
440.08	7414.82
440.26	7368.01
440.45	7370.35
440.63	7541.21
440.82	7499.08
441.01	7475.67
441.19	7913.35
441.38	7693.34
441.57	7892.29
441.75	7976.55
441.94	7850.16
442.12	7831.43
442.31	8273.79
442.50	8145.06
442.68	8042.08
442.87	8013.99
443.05	8100.59
443.24	8255.07
443.43	8112.30
443.61	8147.40
443.80	8526.57
443.98	8086.55
444.17	7882.92
444.35	8339.33
444.54	8449.33
444.73	8477.42
444.91	8238.69
445.10	8372.10
445.28	8381.46
445.47	8351.03
445.65	8404.86
445.84	8755.94
446.02	8376.78
446.21	8521.89
446.39	8442.31
446.58	8542.96
446.77	8416.57
446.95	8269.11
447.14	8423.59
447.32	8564.02
447.51	8468.06
447.69	8252.73
447.88	8617.85
448.06	8744.24
448.25	8713.81
448.43	8819.14
448.62	8538.27
448.80	8589.77
448.99	8762.97
449.17	8744.24
449.36	8638.92
449.54	8919.78
449.73	9069.58
449.91	8926.80
450.10	8931.48
450.28	9235.75
450.46	9240.44
450.65	9060.21
450.83	9118.73
451.02	8945.53
451.20	9427.68
451.39	9273.20
451.57	9132.77
451.76	9291.93
451.94	9256.82
452.13	9301.29
452.31	9277.88
452.49	9188.94
452.68	9320.01
452.86	9310.65
453.05	9586.83
453.23	9659.39
453.42	9415.98
453.60	9408.95
453.78	9614.92
453.97	9366.82
454.15	9514.28
454.34	9612.58
454.52	9951.96
454.70	9661.73
454.89	9846.63
455.07	9844.29
455.26	10045.58
455.44	10003.45
455.62	9720.24
455.81	9729.61
455.99	10111.11
456.17	10178.99
456.36	9902.81
456.54	10078.35
456.73	10377.94
456.91	10464.54
457.09	10286.65
457.28	10595.61
457.46	10356.87
457.64	10661.14
457.83	10485.60
458.01	10588.58
458.19	10714.97
458.38	10759.44
458.56	10803.91
458.74	10626.03
458.93	10834.34
459.11	10647.10
459.29	10927.96
459.48	10785.19
459.66	10637.73
459.84	10846.04
460.03	11164.36
460.21	11014.56
460.39	11063.71
460.57	11061.37
460.76	11016.90
460.94	11309.47
461.12	11293.08
461.31	11190.10
461.49	11307.13
461.67	11110.52
461.85	11447.56
462.04	11243.93
462.22	11737.79
462.40	11754.17
462.59	11627.78
462.77	11543.52
462.95	11761.19
463.13	11742.47
463.32	11520.12
463.50	11648.85
463.68	11885.24
463.86	11906.31
464.05	11662.89
464.23	11733.11
464.41	12084.19
464.59	11918.01
464.78	12184.83
464.96	12074.82
465.14	11836.09
465.32	12297.17
465.50	12245.68
465.69	12418.88
465.87	12472.71
466.05	12194.19
466.23	12224.62
466.41	12149.72
466.60	12571.02
466.78	12266.75
466.96	12446.97
467.14	12238.66
467.32	12329.94
467.51	12622.51
467.69	12255.04
467.87	12386.12
468.05	12772.30
468.23	12655.28
468.41	12610.81
468.60	12549.95
468.78	12828.48
468.96	12444.63
469.14	12781.67
469.32	12957.21
469.50	12734.85
469.69	12996.99
469.87	13207.64
470.05	13067.21
470.23	13336.37
470.41	13429.99
470.59	13514.25
470.77	13228.71
470.95	13334.03
471.14	13549.36
471.32	13359.78
471.50	13509.57
471.68	13528.30
471.86	13530.64
472.04	13989.38
472.22	14012.79
472.40	13907.46
472.58	13752.99
472.77	13865.33
472.95	13982.36
473.13	14492.60
473.31	14228.12
473.49	14043.21
473.67	14307.69
473.85	14363.87
474.03	14466.85
474.21	14464.51
474.39	14803.89
474.57	14710.27
474.75	14904.53
474.93	15094.11
475.12	15030.92
475.30	15363.28
475.48	15311.78
475.66	15513.07
475.84	15164.33
476.02	15454.56
476.20	15161.99
476.38	15634.78
476.56	16084.16
476.74	16109.91
476.92	15744.78
477.10	15992.88
477.28	16063.10
477.46	16233.96
477.64	16477.37
477.82	16842.50
478.00	17252.09
478.18	16837.81
478.36	17027.40
478.54	17221.66
478.72	17207.62
478.90	17507.21
479.08	17612.53
479.26	17701.47
479.44	17881.69
479.62	17996.38
479.80	18221.07
479.98	18494.91
480.16	18625.98
480.34	18464.49
480.52	18703.22
480.70	18738.33
480.88	18532.36
481.06	18864.72
481.24	18843.65
481.41	19021.53
481.59	19461.55
481.77	19611.35
481.95	19611.35
482.13	19901.58
482.31	19814.98
482.49	20198.82
482.67	20444.58
482.85	20556.93
483.03	20734.81
483.21	20933.75
483.39	21046.10
483.57	20608.42
483.74	21123.33
483.92	21418.24
484.10	21277.81
484.28	21724.85
484.46	22003.38
484.64	22658.73
484.82	21947.20
485.00	22522.98
485.18	22895.12
485.35	23049.60
485.53	23065.98
485.71	23206.41
485.89	23669.84
486.07	23157.26
486.25	23178.33
486.43	23435.78
486.61	24159.01
486.78	24531.15
486.96	24250.29
487.14	24318.17
487.32	24610.73
487.50	24903.30
487.68	25127.99
487.85	25523.54
488.03	25748.23
488.21	26059.52
488.39	26080.59
488.57	26324.01
488.75	26394.22
488.92	26473.80
489.10	26799.13
489.28	26932.54
489.46	27236.81
489.64	27147.87
489.81	28034.94
489.99	27508.32
490.17	27641.73
490.35	27845.35
490.53	28400.06
490.70	28765.18
490.88	28510.07
491.06	28875.19
491.24	29029.66
491.41	28950.09
491.59	29118.60
491.77	29610.12
491.95	29720.12
492.13	29839.49
492.30	30286.53
492.48	30024.39
492.66	30541.65
492.84	30686.76
493.01	30696.13
493.19	30799.11
493.37	31307.01
493.54	31388.92
493.72	31484.89
493.90	31704.90
494.08	31913.20
494.25	32215.13
494.43	31871.07
494.61	32566.21
494.79	32837.72
494.96	32395.35
495.14	33055.39
495.32	33179.43
495.49	32996.87
495.67	33291.78
495.85	33689.67
496.02	34075.86
496.20	34274.80
496.38	33979.90
496.55	34501.84
496.73	34675.04
496.91	34623.54
497.09	34998.03
497.26	35438.05
497.44	35079.95
497.62	35519.97
497.79	35604.23
497.97	35517.63
498.14	35950.63
498.32	36605.98
498.50	36332.14
498.67	36856.42
498.85	36245.54
499.03	36835.35
499.20	36678.54
499.38	37553.90
499.56	37301.12
499.73	37436.87
499.91	37268.35
500.08	37794.97
500.26	37495.38
500.44	37743.48
500.61	38134.35
500.79	38082.86
500.97	38209.25
501.14	38438.62
501.32	38731.18
501.49	38653.95
501.67	38880.98
501.84	38686.71
502.02	39138.44
502.20	39047.16
502.37	39473.13
502.55	39487.18
502.72	39557.39
502.90	39791.45
503.07	39466.11
503.25	40102.74
503.43	39885.07
503.60	40460.84
503.78	40233.81
503.95	40048.91
504.13	40877.46
504.30	40669.15
504.48	40744.05
504.65	40982.78
504.83	41188.75
505.01	41911.97
505.18	41497.70
505.36	41752.82
505.53	41546.85
505.71	42085.17
505.88	41986.87
506.06	41570.25
506.23	42518.17
506.41	41846.44
506.58	42089.85
506.76	42155.39
506.93	42536.90
507.11	42316.89
507.28	42733.50
507.46	42522.85
507.63	43201.61
507.81	43503.54
507.98	42890.32
508.16	43133.73
508.33	43641.63
508.50	43686.10
508.68	43789.08
508.85	44140.16
509.03	44126.12
509.20	43812.49
509.38	44680.83
509.55	44411.67
509.73	44931.26
509.90	44467.84
510.08	44617.63
510.25	44669.12
510.42	45078.72
510.60	45099.78
510.77	45230.85
510.95	45691.94
511.12	45581.93
511.30	45287.03
511.47	45588.95
511.64	45752.79
511.82	46223.24
511.99	46092.17
512.17	46244.30
512.34	46176.43
512.51	46536.87
512.69	46499.42
512.86	46990.94
513.04	46801.35
513.21	46934.76
513.38	46553.26
513.56	47229.67
513.73	47164.14
513.90	47255.42
514.08	46831.78
514.25	46948.81
514.43	47758.63
514.60	47583.09
514.77	47744.59
514.95	48126.10
515.12	47473.09
515.29	47803.10
515.47	48353.13
515.64	48406.96
515.81	48222.06
515.99	48570.80
516.16	48776.76
516.33	48973.37
516.51	48793.15
516.68	48641.01
516.85	48708.89
517.03	48931.24
517.20	49296.36
517.37	49064.65
517.54	48914.86
517.72	49116.14
517.89	49303.38
518.06	49301.04
518.24	49216.78
518.41	49436.80
518.58	49378.28
518.75	49357.22
518.93	49853.41
519.10	49640.42
519.27	49841.71
519.45	49914.26
519.62	50450.25
519.79	49815.96
519.96	49979.80
520.14	50323.86
520.31	50307.47
520.48	50370.67
520.65	50396.42
520.83	50642.17
521.00	50997.93
521.17	50773.24
521.34	51065.81
521.52	51061.13
521.69	51070.49
521.86	51180.49
522.03	51395.82
522.20	51409.87
522.38	51882.66
522.55	51210.92
522.72	51594.77
522.89	51702.43
523.07	51770.31
523.24	51854.57
523.41	51597.11
523.58	51798.40
523.75	52020.75
523.92	51943.51
524.10	52207.99
524.27	52378.85
524.44	51959.89
524.61	52154.16
524.78	52275.87
524.96	52509.92
525.13	52303.95
525.30	52271.18
525.47	52575.45
525.64	52390.55
525.81	52720.57
525.98	52713.55
526.16	52896.11
526.33	52692.48
526.50	53258.89
526.67	53090.37
526.84	52853.98
527.01	52971.00
527.18	53279.96
527.36	53254.21
527.53	53029.52
527.70	53755.08
527.87	53614.65
528.04	53183.99
528.21	53553.80
528.38	53361.87
528.55	53471.88
528.72	53719.98
528.89	53602.95
529.07	53542.10
529.24	53684.87
529.41	53958.71
529.58	53811.26
529.75	54021.90
529.92	53738.70
530.09	53972.75
530.26	53993.82
530.43	54075.74
530.60	53911.90
530.77	53989.14
530.94	54134.25
531.11	54122.55
531.28	54461.93
531.46	54326.17
531.63	54529.80
531.80	54487.67
531.97	54560.23
532.14	54539.16
532.31	54686.62
532.48	54906.63
532.65	54934.71
532.82	54571.93
532.99	54635.13
533.16	54887.90
533.33	55264.73
533.50	54960.46
533.67	54836.41
533.84	54988.55
534.01	54990.89
534.18	54915.99
534.35	55569.00
534.52	55246.00
534.69	55140.68
534.86	55248.35
535.03	55365.37
535.20	55456.65
535.37	55358.35
535.54	55683.69
535.71	55255.37
535.88	55505.80
536.05	55676.66
536.22	55739.86
536.38	55842.84
536.55	55723.47
536.72	55924.76
536.89	55341.97
537.06	55884.97
537.23	55906.04
537.40	55758.58
537.57	55737.52
537.74	55629.85
537.91	56264.14
538.08	56135.41
538.25	55737.52
538.42	55831.14
538.59	56371.80
538.75	55950.51
538.92	56306.27
539.09	56397.55
539.26	56172.86
539.43	56350.74
539.60	56245.41
539.77	56299.25
539.94	56589.47
540.11	56486.49
540.28	56556.70
540.44	56739.27
540.61	56584.79
540.78	56500.53
540.95	56493.51
541.12	56474.79
541.29	56385.85
541.46	56713.52
541.62	56718.20
541.79	56769.69
541.96	56549.68
542.13	56999.07
542.30	56704.16
542.47	56982.68
542.63	57137.16
542.80	57045.88
542.97	57179.29
543.14	57329.08
543.31	57315.04
543.48	57506.96
543.64	57670.80
543.81	57488.24
543.98	57425.04
544.15	57549.09
544.32	57420.36
544.48	57549.09
544.65	57270.57
544.82	57733.99
544.99	57418.02
545.16	57736.34
545.32	57696.55
545.49	57874.43
545.66	57827.62
545.83	57703.57
546.00	57813.57
546.16	57645.05
546.33	57790.17
546.50	57366.53
546.67	57909.53
546.83	57689.52
547.00	57869.75
547.17	57769.10
547.34	57628.67
547.50	57944.64
547.67	58239.55
547.84	58094.44
548.00	58192.74
548.17	58209.12
548.34	58211.46
548.51	58042.95
548.67	58171.67
548.84	58382.32
549.01	58101.46
549.18	58328.49
549.34	58532.12
549.51	58508.71
549.68	58354.24
549.84	58471.26
550.01	58742.77
550.18	58405.73
550.34	58527.44
550.51	58588.29
550.68	58567.23
550.84	58389.34
551.01	58752.13
551.18	58731.06
551.34	58670.21
551.51	58857.45
551.68	58812.98
551.84	58649.14
552.01	58808.30
552.18	58990.86
552.34	58522.76
552.51	58805.96
552.68	58841.07
552.84	58899.58
553.01	59213.21
553.18	59047.04
553.34	58756.81
553.51	58876.18
553.67	58658.51
553.84	58986.18
554.01	59278.75
554.17	58995.54
554.34	59121.93
554.51	59135.98
554.67	59283.43
554.84	58901.92
555.00	59084.48
555.17	59049.38
555.33	59222.58
555.50	58972.14
555.67	59126.61
555.83	59093.85
556.00	59175.76
556.16	59580.68
556.33	59360.67
556.50	59482.37
556.66	59398.12
556.83	59196.83
556.99	59384.07
557.16	59611.10
557.32	59739.83
557.49	59662.60
557.65	59475.35
557.82	59552.59
557.98	59529.19
558.15	59531.53
558.32	59634.51
558.48	59473.01
558.65	59578.34
558.81	59618.13
558.98	59896.65
559.14	59632.17
559.31	59873.24
559.47	59800.69
559.64	59519.82
559.80	59845.16
559.97	59861.54
560.13	59655.57
560.30	59587.70
560.46	59723.45
560.63	59877.93
560.79	59913.03
560.96	60062.83
561.12	59957.50
561.29	59950.48
561.45	59997.29
561.61	59924.74
561.78	60053.47
561.94	59873.24
562.11	59847.50
562.27	59955.16
562.44	60081.55
562.60	60210.28
562.77	59931.76
562.93	59856.86
563.10	60264.11
563.26	60217.30
563.42	60264.11
563.59	60301.56
563.75	60126.02
563.92	60257.09
564.08	60182.19
564.24	60477.10
564.41	60214.96
564.57	60231.35
564.74	60350.71
564.90	60207.94
565.07	60219.64
565.23	60081.55
565.39	60336.67
565.56	60610.51
565.72	60458.38
565.88	60336.67
566.05	60268.79
566.21	60292.20
566.38	60250.07
566.54	60479.44
566.70	60486.46
566.87	60289.86
567.03	60226.66
567.19	60671.37
567.36	60264.11
567.52	60467.74
567.68	60570.72
567.85	60259.43
568.01	60589.45
568.17	60348.37
568.34	60566.04
568.50	60622.22
568.66	60371.78
568.83	60589.45
568.99	60547.32
569.15	60392.84
569.32	60367.10
569.48	60636.26
569.64	60514.55
569.81	60463.06
569.97	60549.66
570.13	60516.89
570.30	60193.90
570.46	60666.69
570.62	60650.30
570.78	60762.65
570.95	60568.38
571.11	60500.51
571.27	60570.72
571.43	60573.06
571.60	60802.44
571.76	60601.15
571.92	60650.30
572.09	60647.96
572.25	60910.10
572.41	60629.24
572.57	60608.17
572.74	60928.83
572.90	60657.32
573.06	60851.59
573.22	60701.79
573.38	60729.88
573.55	60779.03
573.71	60851.59
573.87	60839.89
574.03	60769.67
574.20	60779.03
574.36	60706.47
574.52	61001.38
574.68	60814.14
574.84	61146.50
575.01	60837.54
575.17	61111.39
575.33	60764.99
575.49	60556.68
575.65	60814.14
575.82	60867.97
575.98	60889.04
576.14	61062.24
576.30	60933.51
576.46	60762.65
576.62	60867.97
576.79	60774.35
576.95	60919.46
577.11	60874.99
577.27	60858.61
577.43	60917.12
577.59	60741.58
577.75	60797.76
577.92	60903.08
578.08	60968.61
578.24	60961.59
578.40	61183.94
578.56	61066.92
578.72	60870.31
578.88	61015.43
579.04	61038.83
579.21	61090.32
579.37	61202.67
579.53	61050.53
579.69	60750.94
579.85	60907.76
580.01	60907.76
580.17	60816.48
580.33	60889.04
580.49	60975.64
580.65	61137.13
580.82	61146.50
580.98	60804.78
581.14	60921.80
581.30	61261.18
581.46	60811.80
581.62	61151.18
581.78	60928.83
581.94	61261.18
582.10	61116.07
582.26	60970.96
582.42	60776.69
582.58	61123.09
582.74	60849.25
582.90	61118.41
583.06	61017.77
583.22	60853.93
583.38	60968.61
583.54	60982.66
583.70	60924.14
583.86	61024.79
584.02	61144.16
584.18	61216.71
584.34	61116.07
584.50	61066.92
584.66	61113.73
584.82	60952.23
584.98	61338.42
585.14	61249.48
585.30	60809.46
585.46	60977.98
585.62	61249.48
585.78	61158.20
585.94	60980.32
586.10	61240.12
586.26	61090.32
586.42	61219.05
586.58	61291.61
586.74	61123.09
586.90	61048.19
587.06	61137.13
587.22	61371.19
587.38	61286.93
587.54	61158.20
587.70	61256.50
587.86	61345.44
588.02	60952.23
588.18	61226.07
588.34	61258.84
588.49	61244.80
