SpectraSuite Data File
++++++++++++++++++++++++++++++++++++
Date: Fri Oct 25 11:33:30 EDT 2013
User: price-jones
Dark Spectrum Present: No
Reference Spectrum Present: No
Number of Sampled Component Spectra: 1
Spectrometers: USB2+H05261
Integration Time (usec): 100000 (USB2+H05261)
Spectra Averaged: 1 (USB2+H05261)
Boxcar Smoothing: 0 (USB2+H05261)
Correct for Electrical Dark: No (USB2+H05261)
Strobe/Lamp Enabled: No (USB2+H05261)
Correct for Detector Non-linearity: No (USB2+H05261)
Correct for Stray Light: No (USB2+H05261)
Number of Pixels in Processed Spectrum: 2048
>>>>>Begin Processed Spectral Data<<<<<
365.73	266.82
365.92	266.82
366.12	266.82
366.32	138.09
366.52	180.22
366.72	182.56
366.91	182.56
367.11	184.90
367.31	184.90
367.51	105.32
367.70	187.24
367.90	159.16
368.10	227.03
368.30	191.92
368.49	222.35
368.69	203.63
368.89	156.82
369.09	210.65
369.28	198.95
369.48	210.65
369.68	175.54
369.87	264.48
370.07	222.35
370.27	264.48
370.47	355.76
370.66	409.59
370.86	533.64
371.06	442.36
371.25	538.32
371.45	524.28
371.65	531.30
371.84	526.62
372.04	557.05
372.24	566.41
372.44	507.90
372.63	622.58
372.83	589.82
373.03	601.52
373.22	528.96
373.42	631.94
373.62	613.22
373.81	543.00
374.01	653.01
374.21	655.35
374.40	599.18
374.60	676.41
374.79	655.35
374.99	645.99
375.19	641.31
375.38	699.82
375.58	669.39
375.78	692.80
375.97	713.86
376.17	664.71
376.37	543.00
376.56	667.05
376.76	760.67
376.95	737.27
377.15	709.18
377.35	603.86
377.54	685.78
377.74	716.20
377.93	713.86
378.13	709.18
378.33	674.07
378.52	697.48
378.72	727.91
378.91	763.01
379.11	655.35
379.31	669.39
379.50	699.82
379.70	753.65
379.89	781.74
380.09	725.57
380.28	697.48
380.48	786.42
380.68	711.52
380.87	753.65
381.07	758.33
381.26	730.25
381.46	704.50
381.65	720.88
381.85	753.65
382.04	765.36
382.24	739.61
382.43	767.70
382.63	697.48
382.83	730.25
383.02	791.10
383.22	805.14
383.41	791.10
383.61	842.59
383.80	800.46
384.00	828.55
384.19	786.42
384.39	746.63
384.58	849.61
384.78	875.36
384.97	826.21
385.17	802.80
385.36	809.83
385.56	777.06
385.75	805.14
385.95	873.02
386.14	809.83
386.34	842.59
386.53	922.17
386.72	856.64
386.92	744.29
387.11	819.19
387.31	880.04
387.50	896.43
387.70	842.59
387.89	814.51
388.09	870.68
388.28	915.15
388.48	959.62
388.67	968.98
388.86	844.93
389.06	933.87
389.25	966.64
389.45	947.92
389.64	945.58
389.84	1011.11
390.03	945.58
390.22	973.66
390.42	882.38
390.61	952.60
390.81	1015.79
391.00	922.17
391.19	1013.45
391.39	959.62
391.58	959.62
391.78	901.11
391.97	1046.22
392.16	1022.81
392.36	1074.31
392.55	1025.15
392.75	940.90
392.94	1027.50
393.13	1102.39
393.33	999.41
393.52	1125.80
393.71	1139.84
393.91	1181.97
394.10	1153.88
394.29	1048.56
394.49	1095.37
394.68	1107.07
394.88	1188.99
395.07	1097.71
395.26	1142.18
395.46	1170.27
395.65	1160.91
395.84	1137.50
396.04	1245.16
396.23	1196.01
396.42	1196.01
396.62	1174.95
396.81	1240.48
397.00	1233.46
397.19	1097.71
397.39	1156.22
397.58	1310.70
397.77	1188.99
397.97	1163.25
398.16	1310.70
398.35	1359.85
398.55	1320.06
398.74	1205.38
398.93	1341.13
399.12	1345.81
399.32	1270.91
399.51	1327.08
399.70	1366.87
399.90	1291.98
400.09	1315.38
400.28	1336.45
400.47	1355.17
400.67	1409.00
400.86	1359.85
401.05	1352.83
401.24	1399.64
401.44	1427.73
401.63	1486.24
401.82	1600.93
402.01	1334.11
402.21	1577.52
402.40	1519.01
402.59	1460.49
402.78	1509.65
402.97	1629.01
403.17	1528.37
403.36	1469.86
403.55	1540.07
403.74	1579.86
403.93	1631.35
404.13	1645.40
404.32	1600.93
404.51	1577.52
404.70	1741.36
404.89	1706.25
405.09	1624.33
405.28	1610.29
405.47	1755.40
405.66	1823.28
405.85	1713.27
406.05	1699.23
406.24	1699.23
406.43	1806.89
406.62	1706.25
406.81	1834.98
407.00	1872.43
407.20	1727.32
407.39	1809.23
407.58	1886.47
407.77	1858.39
407.96	1849.02
408.15	1877.11
408.34	1872.43
408.54	1937.96
408.73	1872.43
408.92	1998.82
409.11	2003.50
409.30	1973.07
409.49	1935.62
409.68	2005.84
409.87	2099.46
410.07	2054.99
410.26	2085.42
410.45	2064.35
410.64	2099.46
410.83	2104.14
411.02	2064.35
411.21	2052.65
411.40	2172.02
411.59	2221.17
411.78	2111.16
411.98	2148.61
412.17	2298.41
412.36	2195.42
412.55	2289.04
412.74	2345.22
412.93	2342.88
413.12	2167.34
413.31	2321.81
413.50	2368.62
413.69	2424.80
413.88	2485.65
414.07	2424.80
414.26	2476.29
414.45	2462.24
414.64	2438.84
414.83	2614.38
415.02	2597.99
415.22	2607.36
415.41	2700.98
415.60	2712.68
415.79	2597.99
415.98	2764.17
416.17	2754.81
416.36	2752.47
416.55	2820.35
416.74	2839.07
416.93	2843.75
417.12	2846.09
417.31	2839.07
417.50	2778.22
417.69	2944.39
417.88	2782.90
418.07	2939.71
418.26	2953.76
418.45	3009.93
418.64	3185.47
418.83	3033.33
419.02	3101.21
419.21	3141.00
419.39	3098.87
419.58	3049.72
419.77	3047.38
419.96	3038.02
420.15	3211.22
420.34	3185.47
420.53	3185.47
420.72	3176.11
420.91	3302.50
421.10	3290.79
421.29	3328.24
421.48	3166.74
421.67	3300.16
421.86	3211.22
422.05	3204.19
422.24	3283.77
422.43	3236.96
422.61	3482.72
422.80	3414.84
422.99	3304.84
423.18	3337.60
423.37	3456.97
423.56	3407.82
423.75	3391.44
423.94	3400.80
424.13	3323.56
424.32	3293.13
424.50	3494.42
424.69	3522.51
424.88	3459.31
425.07	3426.54
425.26	3471.01
425.45	3496.76
425.64	3375.05
425.83	3449.95
426.01	3517.83
426.20	3414.84
426.39	3585.70
426.58	3358.67
426.77	3372.71
426.96	3611.45
427.15	3529.53
427.33	3513.14
427.52	3632.51
427.71	3529.53
427.90	3545.91
428.09	3581.02
428.28	3679.32
428.46	3674.64
428.65	3833.80
428.84	3833.80
429.03	3925.08
429.22	3679.32
429.40	3808.05
429.59	3796.35
429.78	3707.41
429.97	3627.83
430.16	3775.28
430.34	3922.74
430.53	3794.01
430.72	3946.14
430.91	3857.20
431.10	3836.14
431.28	3941.46
431.47	4119.34
431.66	4042.11
431.85	3960.19
432.03	4053.81
432.22	4070.19
432.41	4049.13
432.60	4079.55
432.79	4056.15
432.97	4081.89
433.16	4170.83
433.35	4124.02
433.54	4107.64
433.72	4208.28
433.91	4210.62
434.10	4072.53
434.28	4255.09
434.47	4154.45
434.66	4290.20
434.85	4374.46
435.03	4278.50
435.22	4248.07
435.41	4550.00
435.59	4498.51
435.78	4437.66
435.97	4360.42
436.16	4327.65
436.34	4428.29
436.53	4500.85
436.72	4800.44
436.90	4470.42
437.09	4519.57
437.28	4519.57
437.46	4444.68
437.65	4514.89
437.84	4674.05
438.02	4636.60
438.21	4540.64
438.40	4620.22
438.58	4835.55
438.77	4887.04
438.96	4699.80
439.14	4887.04
439.33	4936.19
439.52	4945.55
439.70	4912.78
439.89	4943.21
440.08	4884.70
440.26	5053.22
440.45	4999.38
440.63	5174.92
440.82	5181.95
441.01	4973.64
441.19	5104.71
441.38	5259.18
441.57	5135.14
441.75	5144.50
441.94	5413.66
442.12	5397.28
442.31	5584.52
442.50	5453.45
442.68	5413.66
442.87	5338.76
443.05	5628.99
443.24	5612.60
443.43	5626.65
443.61	5570.48
443.80	5638.35
443.98	5423.02
444.17	5387.91
444.35	5626.65
444.54	5596.22
444.73	5610.26
444.91	5502.60
445.10	5631.33
445.28	5633.67
445.47	5500.26
445.65	5685.16
445.84	5736.65
446.02	5533.03
446.21	5809.21
446.39	5746.02
446.58	5661.76
446.77	5713.25
446.95	5579.84
447.14	5767.08
447.32	5708.57
447.51	5783.46
447.69	5877.09
447.88	5900.49
448.06	5755.38
448.25	5734.31
448.43	5671.12
448.62	5722.61
448.80	5767.08
448.99	6066.67
449.17	6059.65
449.36	5788.14
449.54	6005.81
449.73	6132.20
449.91	5959.00
450.10	5863.04
450.28	5940.28
450.46	6188.38
450.65	6171.99
450.83	6080.71
451.02	6085.39
451.20	6143.91
451.39	6286.68
451.57	6104.12
451.76	6171.99
451.94	6111.14
452.13	6200.08
452.31	6274.98
452.49	6312.42
452.68	6272.64
452.86	6279.66
453.05	6633.08
453.23	6363.92
453.42	6324.13
453.60	6380.30
453.78	6373.28
453.97	6413.07
454.15	6466.90
454.34	6429.45
454.52	6511.37
454.70	6642.44
454.89	6778.19
455.07	6736.06
455.26	6607.33
455.44	6670.53
455.62	6754.79
455.81	6778.19
455.99	6726.70
456.17	6843.73
456.36	6733.72
456.54	6796.92
456.73	6747.76
456.91	6944.37
457.09	7040.33
457.28	7105.87
457.46	6918.62
457.64	7112.89
457.83	7208.85
458.01	7014.59
458.19	7082.46
458.38	7035.65
458.56	7110.55
458.74	7052.03
458.93	7059.06
459.11	7180.76
459.29	7084.80
459.48	7382.05
459.66	7344.60
459.84	7248.64
460.03	7496.74
460.21	7438.22
460.39	7234.60
460.57	7286.09
460.76	7370.35
460.94	7386.73
461.12	7370.35
461.31	7510.78
461.49	7424.18
461.67	7414.82
461.85	7712.07
462.04	7503.76
462.22	8063.15
462.40	7459.29
462.59	7672.28
462.77	7735.47
462.95	7819.73
463.13	7733.13
463.32	7932.08
463.50	7812.71
463.68	7964.84
463.86	8063.15
464.05	7892.29
464.23	7927.39
464.41	7866.54
464.59	7721.43
464.78	7995.27
464.96	7875.90
465.14	7997.61
465.32	8105.28
465.50	8210.60
465.69	8194.22
465.87	8032.72
466.05	8116.98
466.23	8121.66
466.41	8255.07
466.60	8411.89
466.78	8196.56
466.96	8163.79
467.14	8046.76
467.32	8152.09
467.51	8301.88
467.69	8189.53
467.87	8346.35
468.05	8615.51
468.23	8325.29
468.41	8341.67
468.60	8423.59
468.78	8421.25
468.96	8409.54
469.14	8634.24
469.32	8566.36
469.50	8465.72
469.69	8690.41
469.87	8861.27
470.05	8638.92
470.23	8795.73
470.41	8858.93
470.59	8793.39
470.77	8833.18
470.95	8985.32
471.14	9004.04
471.32	8800.41
471.50	9247.46
471.68	9207.67
471.86	8938.51
472.04	9238.09
472.22	9221.71
472.40	9085.96
472.58	9373.85
472.77	9217.03
472.95	9341.08
473.13	9500.23
473.31	9179.58
473.49	9516.62
473.67	9547.05
473.85	9401.93
474.03	9666.41
474.21	9652.37
474.39	9710.88
474.57	9809.19
474.75	9984.73
474.93	9916.85
475.12	9865.36
475.30	10134.52
475.48	10026.86
475.66	10153.24
475.84	9982.38
476.02	10207.08
476.20	10242.18
476.38	10504.32
476.56	10792.21
476.74	10633.05
476.92	10375.59
477.10	10509.01
477.28	10480.92
477.46	10693.91
477.64	10829.66
477.82	11166.70
478.00	11026.26
478.18	11042.65
478.36	11103.50
478.54	11066.05
478.72	11344.58
478.90	11279.04
479.08	11576.29
479.26	11648.85
479.44	11838.43
479.62	11758.85
479.80	11730.76
479.98	12095.89
480.16	12135.68
480.34	12065.46
480.52	12285.47
480.70	12451.65
480.88	12072.48
481.06	12428.24
481.24	12695.07
481.41	12613.15
481.59	12631.87
481.77	12828.48
481.95	12734.85
482.13	13074.23
482.31	12774.64
482.49	13451.06
482.67	13235.73
482.85	13467.44
483.03	13617.24
483.21	13710.86
483.39	13680.43
483.57	13851.29
483.74	13708.52
483.92	14097.05
484.10	13980.02
484.28	14204.71
484.46	14724.31
484.64	14656.43
484.82	14422.38
485.00	14665.80
485.18	14745.38
485.35	14916.23
485.53	14829.63
485.71	15138.58
485.89	15515.41
486.07	15585.63
486.25	15419.45
486.43	15623.08
486.61	15847.77
486.78	15742.44
486.96	15882.88
487.14	16011.60
487.32	16037.35
487.50	16081.82
487.68	16334.60
487.85	16486.73
488.03	16812.07
488.21	17263.79
488.39	16786.32
488.57	17032.08
488.75	17263.79
488.92	17364.43
489.10	17563.38
489.28	17422.95
489.46	17984.68
489.64	17722.54
489.81	18228.09
489.99	18029.15
490.17	18052.55
490.35	18513.64
490.53	18410.65
490.70	18714.92
490.88	18539.38
491.06	18796.84
491.24	18806.20
491.41	19028.56
491.59	19381.98
491.77	19152.60
491.95	19609.01
492.13	19339.85
492.30	19576.24
492.48	19749.44
492.66	19798.59
492.84	19796.25
493.01	20180.10
493.19	20238.61
493.37	20418.83
493.54	20379.04
493.72	20650.55
493.90	20414.15
494.08	20744.17
494.25	21128.02
494.43	21137.38
494.61	21418.24
494.79	21434.63
494.96	21212.28
495.14	21446.33
495.32	22017.42
495.49	21921.46
495.67	21886.35
495.85	22223.39
496.02	22267.86
496.20	22298.28
496.38	22347.44
496.55	22349.78
496.73	22890.44
496.91	22838.95
497.09	22799.16
497.26	23051.94
497.44	23082.36
497.62	23271.95
497.79	23405.36
497.97	23351.52
498.14	23421.74
498.32	23683.88
498.50	23772.82
498.67	24074.75
498.85	24140.29
499.03	24257.31
499.20	24257.31
499.38	24425.83
499.56	24280.72
499.73	24507.75
499.91	24687.97
500.08	24687.97
500.26	24769.89
500.44	24737.12
500.61	24992.24
500.79	24577.97
500.97	25252.04
501.14	25659.29
501.32	25020.33
501.49	25460.35
501.67	25729.51
501.84	25504.82
502.02	25235.66
502.20	25762.28
502.37	25530.56
502.55	25930.80
502.72	25591.42
502.90	25778.66
503.07	25902.71
503.25	26366.13
503.43	26096.97
503.60	26391.88
503.78	26480.82
503.95	26291.24
504.13	26693.81
504.30	26691.47
504.48	26808.50
504.65	27023.83
504.83	26974.67
505.01	27328.10
505.18	27063.61
505.36	27173.62
505.53	27491.93
505.71	27342.14
505.88	27426.40
506.06	27182.98
506.23	27419.38
506.41	27716.62
506.58	27571.51
506.76	27676.83
506.93	28374.31
507.11	27644.07
507.28	28460.91
507.46	28395.38
507.63	28212.82
507.81	28547.51
507.98	28725.39
508.16	28397.72
508.33	28669.22
508.50	28975.83
508.68	28582.62
508.85	29020.30
509.03	29024.98
509.20	29032.00
509.38	29144.35
509.55	29397.13
509.73	29666.29
509.90	29394.79
510.08	29427.56
510.25	29453.30
510.42	29563.31
510.60	29874.60
510.77	29603.10
510.95	30106.31
511.12	29881.62
511.30	30089.93
511.47	29921.41
511.64	29752.89
511.82	30085.25
511.99	30146.10
512.17	30710.17
512.34	30408.24
512.51	30974.65
512.69	30848.26
512.86	30450.37
513.04	30710.17
513.21	30988.69
513.38	31019.12
513.56	30998.06
513.73	31021.46
513.90	31161.89
514.08	30749.96
514.25	31637.02
514.43	31299.98
514.60	31658.09
514.77	31536.38
514.95	32086.40
515.12	31278.92
515.29	31929.59
515.47	32128.53
515.64	32067.68
515.81	32046.62
515.99	32140.24
516.16	32620.05
516.33	32397.70
516.51	32488.98
516.68	32278.33
516.85	32561.53
517.03	32566.21
517.20	32664.52
517.37	32074.70
517.54	32861.12
517.72	32971.13
517.89	32596.64
518.06	33060.07
518.24	33031.98
518.41	33062.41
518.58	32947.72
518.75	32723.03
518.93	33572.64
519.10	33474.34
519.27	33333.91
519.45	33741.16
519.62	33762.23
519.79	33872.23
519.96	33710.74
520.14	33757.55
520.31	33816.06
520.48	34066.50
520.65	34153.10
520.83	34768.66
521.00	34377.79
521.17	34321.62
521.34	34199.91
521.52	34206.93
521.69	34520.56
521.86	34539.29
522.03	34740.57
522.20	35108.04
522.38	35033.14
522.55	35283.58
522.72	35143.14
522.89	35185.27
523.07	35440.39
523.24	34981.65
523.41	35498.91
523.58	35211.02
523.75	35625.29
523.92	35931.90
524.10	35386.56
524.27	35803.17
524.44	35723.60
524.61	35592.53
524.78	35887.43
524.96	36252.56
525.13	36018.50
525.30	35971.69
525.47	35976.37
525.64	35992.76
525.81	36545.12
525.98	36325.11
526.16	36055.95
526.33	36170.64
526.50	36760.45
526.67	36327.45
526.84	36690.24
527.01	36545.12
527.18	36528.74
527.36	37015.57
527.53	36964.08
527.70	37240.26
527.87	37268.35
528.04	36903.23
528.21	36875.14
528.38	37188.77
528.55	37242.60
528.72	37439.21
528.89	37535.17
529.07	36966.42
529.24	36835.35
529.41	37614.75
529.58	37879.23
529.75	37340.91
529.92	37621.77
530.09	37511.77
530.26	37799.65
530.43	37970.51
530.60	37603.05
530.77	37532.83
530.94	38024.34
531.11	37675.60
531.28	38096.90
531.46	38288.82
531.63	38323.93
531.80	37951.79
531.97	38501.81
532.14	38532.24
532.31	38323.93
532.48	38405.85
532.65	38827.15
532.82	38553.30
532.99	38419.89
533.16	38342.66
533.33	39178.23
533.50	38466.70
533.67	38852.89
533.84	38267.76
534.01	38897.36
534.18	38787.36
534.35	39384.19
534.52	39173.55
534.69	39328.02
534.86	39206.31
535.03	39283.55
535.20	39395.90
535.37	39761.02
535.54	39716.55
535.71	39393.56
535.88	39243.76
536.05	39351.43
536.22	39543.35
536.38	39508.24
536.55	39838.26
536.72	39360.79
536.89	39749.32
537.06	39683.78
537.23	39833.58
537.40	39952.94
537.57	39882.73
537.74	40172.96
537.91	40341.47
538.08	40194.02
538.25	39985.71
538.42	40060.61
538.59	40367.22
538.75	40250.19
538.92	40577.87
539.09	40538.08
539.26	40191.68
539.43	40470.20
539.60	40547.44
539.77	40669.15
539.94	40966.40
540.11	40711.28
540.28	40741.71
540.44	40737.02
540.61	40725.32
540.78	40355.52
540.95	40914.90
541.12	41027.25
541.29	40690.21
541.46	41003.85
541.62	40924.27
541.79	41233.22
541.96	40870.43
542.13	41125.55
542.30	41092.79
542.47	41305.77
542.63	41200.45
542.80	41680.26
542.97	41596.00
543.14	41907.29
543.31	41652.17
543.48	41722.39
543.64	42094.53
543.81	42185.82
543.98	41991.55
544.15	42230.29
544.32	42129.64
544.48	42298.16
544.65	41911.97
544.82	42363.70
544.99	41886.23
545.16	42241.99
545.32	42319.23
545.49	42431.57
545.66	43005.00
545.83	42712.44
546.00	42630.52
546.16	42714.78
546.33	42518.17
546.50	42412.85
546.67	42962.87
546.83	42115.60
547.00	42265.39
547.17	42625.84
547.34	42691.37
547.50	42857.55
547.67	43225.01
547.84	42850.53
548.00	42857.55
548.17	43515.24
548.34	43124.37
548.51	43159.48
548.67	43122.03
548.84	43433.32
549.01	43459.07
549.18	42880.95
549.34	43674.40
549.51	43751.63
549.68	43075.22
549.84	43730.57
550.01	43885.04
550.18	43693.12
550.34	43480.13
550.51	43501.20
550.68	43669.72
550.84	43723.55
551.01	43948.24
551.18	43995.05
551.34	43618.22
551.51	43688.44
551.68	43885.04
551.84	44179.95
552.01	43342.04
552.18	43756.32
552.34	44261.87
552.51	44615.29
552.68	44032.50
552.84	44250.17
553.01	44051.22
553.18	44067.61
553.34	44222.08
553.51	43887.39
553.67	44322.72
553.84	44470.18
554.01	44362.51
554.17	44453.79
554.34	44301.66
554.51	44582.52
554.67	44486.56
554.84	44713.59
555.00	44617.63
555.17	44465.50
555.33	44580.18
555.50	44596.57
555.67	44762.75
555.83	44865.73
556.00	44811.90
556.16	45167.66
556.33	44797.85
556.50	44863.39
556.66	44996.80
556.83	44619.97
556.99	45155.96
557.16	45233.19
557.32	45432.14
557.49	45368.94
557.65	44807.22
557.82	45308.09
557.98	44959.35
558.15	45193.40
558.32	45577.25
558.48	45221.49
558.65	45015.52
558.81	45530.44
558.98	45132.55
559.14	45106.80
559.31	45488.31
559.47	45162.98
559.64	45471.93
559.80	45521.08
559.97	45570.23
560.13	45165.32
560.30	45268.30
560.46	45579.59
560.63	45574.91
560.79	45621.72
560.96	45860.46
561.12	45570.23
561.29	45785.56
561.45	45794.92
561.61	45745.77
561.78	45488.31
561.94	45574.91
562.11	45624.06
562.27	45694.28
562.44	45680.24
562.60	45937.69
562.77	45986.85
562.93	45925.99
563.10	46005.57
563.26	45958.76
563.42	46178.77
563.59	45862.80
563.75	45853.44
563.92	46057.06
564.08	45879.18
564.24	46653.90
564.41	45535.12
564.57	46153.02
564.74	46033.66
564.90	45787.90
565.07	46155.36
565.23	45888.54
565.39	46031.32
565.56	46651.56
565.72	46089.83
565.88	46356.65
566.05	45984.51
566.21	46298.14
566.38	46281.75
566.54	45883.86
566.70	46204.52
566.87	46335.59
567.03	46244.30
567.19	46321.54
567.36	46553.26
567.52	46469.00
567.68	46693.69
567.85	46513.47
568.01	46752.20
568.17	46298.14
568.34	46686.67
568.50	46902.00
568.66	46351.97
568.83	46223.24
568.99	46546.23
569.15	46660.92
569.32	46450.27
569.48	46349.63
569.64	46714.75
569.81	46749.86
569.97	46944.12
570.13	46902.00
570.30	46672.62
570.46	46260.69
570.62	46724.11
570.78	46686.67
570.95	46590.70
571.11	46880.93
571.27	46689.01
571.43	46642.20
571.60	46761.56
571.76	46443.25
571.92	46607.09
572.09	46185.79
572.25	46571.98
572.41	46674.96
572.57	47035.41
572.74	47274.14
572.90	47004.98
573.06	46817.74
573.22	46642.20
573.38	47065.83
573.55	46899.65
573.71	47147.75
573.87	46918.38
574.03	47110.30
574.20	47129.03
574.36	47000.30
574.52	47122.01
574.68	47400.53
574.84	46930.08
575.01	47346.70
575.17	47166.48
575.33	47384.15
575.49	46997.96
575.65	47049.45
575.82	46820.08
575.98	46506.44
576.14	47255.42
576.30	47569.05
576.46	47079.88
576.62	46520.49
576.79	47213.29
576.95	46887.95
577.11	47082.22
577.27	47126.69
577.43	46721.77
577.59	47187.54
577.75	46850.50
577.92	46925.40
578.08	46880.93
578.24	46988.60
578.40	47304.57
578.56	47463.72
578.72	46995.62
578.88	47337.33
579.04	47180.52
579.21	46934.76
579.37	47255.42
579.53	47306.91
579.69	47129.03
579.85	47129.03
580.01	47145.41
580.17	46747.52
580.33	47393.51
580.49	47330.31
580.65	47388.83
580.82	46855.18
580.98	47091.58
581.14	46976.89
581.30	47239.03
581.46	47075.19
581.62	47360.74
581.78	46986.25
581.94	47096.26
582.10	47290.52
582.26	47512.88
582.42	47758.63
582.58	47313.93
582.74	46962.85
582.90	47260.10
583.06	47599.47
583.22	47274.14
583.38	47430.96
583.54	47634.58
583.70	47299.89
583.86	47461.38
584.02	47519.90
584.18	47690.76
584.34	47608.84
584.50	47826.51
584.66	47552.66
584.82	47428.62
584.98	47899.06
585.14	47377.12
585.30	47239.03
585.46	47260.10
585.62	47512.88
585.78	47695.44
585.94	46990.94
586.10	47070.51
586.26	47215.63
586.42	47550.32
586.58	47555.00
586.74	47555.00
586.90	47370.10
587.06	47437.98
587.22	47571.39
587.38	47070.51
587.54	47751.61
587.70	47803.10
587.86	47718.84
588.02	47449.68
588.18	47583.09
588.34	47386.49
588.49	47585.43
588.65	47505.85
588.81	47377.12
588.97	47360.74
589.13	47547.98
589.29	47529.26
589.45	47487.13
589.61	47931.83
589.77	47842.89
589.93	47847.57
590.08	47634.58
