SpectraSuite Data File
++++++++++++++++++++++++++++++++++++
Date: Fri Oct 25 11:34:22 EDT 2013
User: price-jones
Dark Spectrum Present: No
Reference Spectrum Present: No
Number of Sampled Component Spectra: 1
Spectrometers: USB2+H05261
Integration Time (usec): 100000 (USB2+H05261)
Spectra Averaged: 1 (USB2+H05261)
Boxcar Smoothing: 0 (USB2+H05261)
Correct for Electrical Dark: No (USB2+H05261)
Strobe/Lamp Enabled: No (USB2+H05261)
Correct for Detector Non-linearity: No (USB2+H05261)
Correct for Stray Light: No (USB2+H05261)
Number of Pixels in Processed Spectrum: 2048
>>>>>Begin Processed Spectral Data<<<<<
365.73	299.59
365.92	299.59
366.12	299.59
366.32	234.05
366.52	154.48
366.72	166.18
366.91	241.08
367.11	152.13
367.31	220.01
367.51	161.50
367.70	135.75
367.90	170.86
368.10	105.32
368.30	81.92
368.49	217.67
368.69	208.31
368.89	117.03
369.09	142.77
369.28	189.58
369.48	250.44
369.68	250.44
369.87	266.82
370.07	294.91
370.27	287.89
370.47	358.10
370.66	465.77
370.86	519.60
371.06	531.30
371.25	589.82
371.45	566.41
371.65	566.41
371.84	489.17
372.04	531.30
372.24	601.52
372.44	587.47
372.63	596.84
372.83	627.26
373.03	608.54
373.22	608.54
373.42	592.16
373.62	641.31
373.81	615.56
374.01	592.16
374.21	631.94
374.40	627.26
374.60	615.56
374.79	624.92
374.99	622.58
375.19	622.58
375.38	594.50
375.58	615.56
375.78	631.94
375.97	697.48
376.17	660.03
376.37	671.73
376.56	692.80
376.76	596.84
376.95	660.03
377.15	671.73
377.35	730.25
377.54	681.10
377.74	669.39
377.93	674.07
378.13	664.71
378.33	723.23
378.52	716.20
378.72	636.63
378.91	657.69
379.11	772.38
379.31	788.76
379.50	657.69
379.70	660.03
379.89	777.06
380.09	692.80
380.28	727.91
380.48	662.37
380.68	720.88
380.87	702.16
381.07	741.95
381.26	781.74
381.46	748.97
381.65	828.55
381.85	737.27
382.04	760.67
382.24	746.63
382.43	774.72
382.63	770.04
382.83	795.78
383.02	753.65
383.22	854.30
383.41	774.72
383.61	730.25
383.80	807.48
384.00	926.85
384.19	765.36
384.39	784.08
384.58	711.52
384.78	866.00
384.97	807.48
385.17	847.27
385.36	837.91
385.56	781.74
385.75	896.43
385.95	858.98
386.14	802.80
386.34	842.59
386.53	795.78
386.72	809.83
386.92	884.72
387.11	863.66
387.31	791.10
387.50	819.19
387.70	873.02
387.89	868.34
388.09	802.80
388.28	938.55
388.48	819.19
388.67	854.30
388.86	929.19
389.06	875.36
389.25	901.11
389.45	903.45
389.64	950.26
389.84	940.90
390.03	924.51
390.22	954.94
390.42	936.21
390.61	929.19
390.81	973.66
391.00	1004.09
391.19	992.39
391.39	1015.79
391.58	980.68
391.78	1015.79
391.97	980.68
392.16	961.96
392.36	1060.26
392.55	1029.84
392.75	1053.24
392.94	1064.94
393.13	1046.22
393.33	1011.11
393.52	1015.79
393.71	1004.09
393.91	1104.73
394.10	1020.47
394.29	1104.73
394.49	1095.37
394.68	1078.99
394.88	1022.81
395.07	1146.86
395.26	1013.45
395.46	1200.69
395.65	1123.46
395.84	1128.14
396.04	1151.54
396.23	1224.10
396.42	1114.10
396.62	1221.76
396.81	1212.40
397.00	1188.99
397.19	1118.78
397.39	1167.93
397.58	1191.33
397.77	1277.93
397.97	1186.65
398.16	1217.08
398.35	1210.06
398.55	1142.18
398.74	1287.29
398.93	1224.10
399.12	1256.87
399.32	1350.49
399.51	1303.68
399.70	1406.66
399.90	1409.00
400.09	1320.06
400.28	1308.36
400.47	1256.87
400.67	1397.30
400.86	1317.72
401.05	1409.00
401.24	1390.28
401.44	1383.26
401.63	1376.24
401.82	1345.81
402.01	1458.15
402.21	1465.18
402.40	1416.02
402.59	1488.58
402.78	1380.92
402.97	1474.54
403.17	1540.07
403.36	1411.34
403.55	1446.45
403.74	1558.80
403.93	1554.12
404.13	1479.22
404.32	1624.33
404.51	1540.07
404.70	1584.54
404.89	1558.80
405.09	1696.89
405.28	1638.38
405.47	1570.50
405.66	1624.33
405.85	1589.22
406.05	1687.53
406.24	1755.40
406.43	1736.68
406.62	1701.57
406.81	1732.00
407.00	1736.68
407.20	1788.17
407.39	1743.70
407.58	1816.26
407.77	1884.13
407.96	1795.19
408.15	1736.68
408.34	1795.19
408.54	1886.47
408.73	1919.24
408.92	1839.66
409.11	1823.28
409.30	1966.05
409.49	1921.58
409.68	1893.49
409.87	1912.22
410.07	1898.17
410.26	1952.01
410.45	1940.30
410.64	2029.24
410.83	2024.56
411.02	2113.50
411.21	1970.73
411.40	2169.68
411.59	2120.53
411.78	2204.78
411.98	2141.59
412.17	2183.72
412.36	2218.83
412.55	2218.83
412.74	2204.78
412.93	2289.04
413.12	2188.40
413.31	2331.17
413.50	2275.00
413.69	2256.28
413.88	2377.98
414.07	2450.54
414.26	2434.16
414.45	2448.20
414.64	2502.03
414.83	2513.74
415.02	2406.07
415.22	2469.27
415.41	2502.03
415.60	2586.29
415.79	2551.18
415.98	2665.87
416.17	2672.89
416.36	2597.99
416.55	2616.72
416.74	2700.98
416.93	2708.00
417.12	2789.92
417.31	2743.11
417.50	2705.66
417.69	2726.72
417.88	2906.95
418.07	2799.28
418.26	2841.41
418.45	2869.50
418.64	3035.67
418.83	2972.48
419.02	2920.99
419.21	3014.61
419.39	3094.19
419.58	2904.60
419.77	3047.38
419.96	3012.27
420.15	2965.46
420.34	3016.95
420.53	3021.63
420.72	3061.42
420.91	3047.38
421.10	3070.78
421.29	3117.59
421.48	3192.49
421.67	3302.50
421.86	3155.04
422.05	3227.60
422.24	3155.04
422.43	3187.81
422.61	3215.90
422.80	3351.65
422.99	3335.26
423.18	3335.26
423.37	3328.24
423.56	3346.97
423.75	3150.36
423.94	3185.47
424.13	3023.97
424.32	3164.40
424.50	3171.43
424.69	3330.58
424.88	3405.48
425.07	3398.46
425.26	3316.54
425.45	3304.84
425.64	3290.79
425.83	3276.75
426.01	3405.48
426.20	3361.01
426.39	3407.82
426.58	3363.35
426.77	3211.22
426.96	3353.99
427.15	3440.59
427.33	3431.23
427.52	3358.67
427.71	3531.87
427.90	3494.42
428.09	3538.89
428.28	3566.98
428.46	3578.68
428.65	3576.34
428.84	3669.96
429.03	3723.79
429.22	3482.72
429.40	3637.19
429.59	3674.64
429.78	3492.08
429.97	3501.44
430.16	3812.73
430.34	3686.34
430.53	3758.90
430.72	3726.13
430.91	3763.58
431.10	3733.15
431.28	3798.69
431.47	3667.62
431.66	3784.65
431.85	3737.84
432.03	4018.70
432.22	4049.13
432.41	4011.68
432.60	3791.67
432.79	3861.88
432.97	3925.08
433.16	3950.82
433.35	3859.54
433.54	4105.30
433.72	4086.58
433.91	4102.96
434.10	4126.36
434.28	4070.19
434.47	4021.04
434.66	4168.49
434.85	4170.83
435.03	4126.36
435.22	4025.72
435.41	4131.05
435.59	4170.83
435.78	4271.48
435.97	4243.39
436.16	4341.69
436.34	4236.37
436.53	4245.73
436.72	4355.74
436.90	4203.60
437.09	4346.37
437.28	4257.43
437.46	4402.55
437.65	4325.31
437.84	4411.91
438.02	4414.25
438.21	4491.49
438.40	4273.82
438.58	4521.92
438.77	4695.11
438.96	4620.22
439.14	4718.52
439.33	4727.88
439.52	4772.35
439.70	4669.37
439.89	4947.89
440.08	4898.74
440.26	4732.56
440.45	4851.93
440.63	4863.63
440.82	4966.62
441.01	4933.85
441.19	4844.91
441.38	5203.01
441.57	5015.77
441.75	5039.17
441.94	5053.22
442.12	5245.14
442.31	5289.61
442.50	5121.09
442.68	5294.29
442.87	5263.86
443.05	5317.70
443.24	5373.87
443.43	5348.12
443.61	5455.79
443.80	5675.80
443.98	5317.70
444.17	5144.50
444.35	5369.19
444.54	5160.88
444.73	5294.29
444.91	5486.22
445.10	5453.45
445.28	5345.78
445.47	5369.19
445.65	5401.96
445.84	5411.32
446.02	5474.51
446.21	5397.28
446.39	5596.22
446.58	5535.37
446.77	5689.84
446.95	5362.17
447.14	5558.77
447.32	5748.36
447.51	5533.03
447.69	5572.82
447.88	5504.94
448.06	5572.82
448.25	5769.42
448.43	5652.39
448.62	5586.86
448.80	5451.11
448.99	5631.33
449.17	5830.27
449.36	5586.86
449.54	5944.96
449.73	5689.84
449.91	5870.06
450.10	5820.91
450.28	5830.27
450.46	5849.00
450.65	5820.91
450.83	5872.40
451.02	5989.43
451.20	6054.97
451.39	5830.27
451.57	6057.31
451.76	5898.15
451.94	5837.30
452.13	6190.72
452.31	6064.33
452.49	5926.24
452.68	6008.16
452.86	6010.50
453.05	6160.29
453.23	6153.27
453.42	6008.16
453.60	6104.12
453.78	6242.21
453.97	6064.33
454.15	6108.80
454.34	6167.31
454.52	6244.55
454.70	6274.98
454.89	6363.92
455.07	6417.75
455.26	6420.09
455.44	6387.32
455.62	6389.66
455.81	6356.90
455.99	6448.18
456.17	6480.94
456.36	6520.73
456.54	6534.78
456.73	6663.51
456.91	6731.38
457.09	6815.64
457.28	6815.64
457.46	6663.51
457.64	6848.41
457.83	6813.30
458.01	6946.71
458.19	7105.87
458.38	6733.72
458.56	6918.62
458.74	6832.02
458.93	6897.56
459.11	6939.69
459.29	6937.35
459.48	6942.03
459.66	7082.46
459.84	7140.97
460.03	7255.66
460.21	7169.06
460.39	7033.31
460.57	7073.10
460.76	7084.80
460.94	7405.46
461.12	7199.49
461.31	7288.43
461.49	6965.43
461.67	7225.23
461.85	7403.11
462.04	7262.68
462.22	7627.81
462.40	7513.12
462.59	7421.84
462.77	7412.48
462.95	7499.08
463.13	7494.40
463.32	7634.83
463.50	7758.88
463.68	7641.85
463.86	7662.91
464.05	7609.08
464.23	7487.37
464.41	7592.70
464.59	7400.77
464.78	7850.16
464.96	7602.06
465.14	7611.42
465.32	7681.64
465.50	7875.90
465.69	8025.70
465.87	7812.71
466.05	7728.45
466.23	7716.75
466.41	7906.33
466.60	8142.72
466.78	7896.97
466.96	7719.09
467.14	7906.33
467.32	8060.80
467.51	8011.65
467.69	7983.57
467.87	8112.30
468.05	8116.98
468.23	8028.04
468.41	7911.01
468.60	8128.68
468.78	8067.83
468.96	8170.81
469.14	8315.92
469.32	8372.10
469.50	8243.37
469.69	8322.94
469.87	8336.99
470.05	8313.58
470.23	8259.75
470.41	8526.57
470.59	8554.66
470.77	8535.93
470.95	8617.85
471.14	8709.13
471.32	8526.57
471.50	8706.79
471.68	8608.49
471.86	8940.85
472.04	8919.78
472.22	8950.21
472.40	8655.30
472.58	8615.51
472.77	8837.86
472.95	8994.68
473.13	9420.66
473.31	8975.95
473.49	8788.71
473.67	8837.86
473.85	9062.55
474.03	9294.27
474.21	9329.38
474.39	9282.56
474.57	9528.32
474.75	9556.41
474.93	9738.97
475.12	9415.98
475.30	9614.92
475.48	9867.70
475.66	9858.34
475.84	9720.24
476.02	9806.84
476.20	9893.44
476.38	9860.68
476.56	9963.66
476.74	10134.52
476.92	10169.63
477.10	10267.93
477.28	10279.63
477.46	10319.42
477.64	10611.99
477.82	10530.07
478.00	10750.08
478.18	10764.12
478.36	10803.91
478.54	11019.24
478.72	10824.98
478.90	10876.47
479.08	11199.46
479.26	11206.48
479.44	11253.30
479.62	11279.04
479.80	11543.52
479.98	11590.33
480.16	11971.84
480.34	11730.76
480.52	11992.90
480.70	11927.37
480.88	11793.96
481.06	11850.13
481.24	12013.97
481.41	12074.82
481.59	12393.14
481.77	12236.32
481.95	12465.69
482.13	12521.87
482.31	12528.89
482.49	12854.22
482.67	12727.83
482.85	13015.72
483.03	13027.42
483.21	13259.13
483.39	13525.96
483.57	13060.19
483.74	13596.17
483.92	13275.52
484.10	13481.49
484.28	13659.37
484.46	13888.74
484.64	14207.05
484.82	14001.08
485.00	14001.08
485.18	14139.18
485.35	14803.89
485.53	14424.72
485.71	14232.80
485.89	14743.03
486.07	14885.81
486.25	14941.98
486.43	14789.85
486.61	15051.99
486.78	15260.29
486.96	15332.85
487.14	15618.39
487.32	15468.60
487.50	15737.76
487.68	15882.88
487.85	16023.31
488.03	16149.70
488.21	16636.53
488.39	16294.81
488.57	16395.45
488.75	16428.22
488.92	16772.28
489.10	16800.37
489.28	16945.48
489.46	17181.87
489.64	16898.67
489.81	17074.21
489.99	17561.04
490.17	17633.60
490.35	17898.08
490.53	17689.77
490.70	18057.23
490.88	17886.37
491.06	18195.32
491.24	18221.07
491.41	18129.79
491.59	18412.99
491.77	18441.08
491.95	18707.90
492.13	18710.24
492.30	19051.96
492.48	18972.38
492.66	18918.55
492.84	18899.83
493.01	19569.22
493.19	19442.83
493.37	19325.80
493.54	19545.81
493.72	19716.67
493.90	19747.10
494.08	20067.75
494.25	19843.06
494.43	19882.85
494.61	20601.40
494.79	20617.78
494.96	20692.68
495.14	20692.68
495.32	20926.73
495.49	20917.37
495.67	21022.69
495.85	20982.90
496.02	21336.32
496.20	21418.24
496.38	21610.17
496.55	21659.32
496.73	21799.75
496.91	21713.15
497.09	21626.55
497.26	22270.20
497.44	21853.58
497.62	22017.42
497.79	22487.87
497.97	22192.96
498.14	22579.15
498.32	22974.70
498.50	22712.56
498.67	22941.93
498.85	22513.61
499.03	23480.25
499.20	23094.07
499.38	23489.62
499.56	23461.53
499.73	23480.25
499.91	23573.88
500.08	23927.30
500.26	23517.70
500.44	23590.26
500.61	23850.06
500.79	23730.69
500.97	24011.56
501.14	24161.35
501.32	24407.11
501.49	24313.48
501.67	24201.14
501.84	24709.04
502.02	24599.03
502.20	24582.65
502.37	24376.68
502.55	24556.90
502.72	25151.40
502.90	24800.32
503.07	25017.99
503.25	25369.07
503.43	25078.84
503.60	25432.26
503.78	25123.31
503.95	25406.52
504.13	25493.12
504.30	25603.12
504.48	25088.20
504.65	25958.88
504.83	25694.40
505.01	26089.95
505.18	25710.78
505.36	26331.03
505.53	25979.95
505.71	26073.57
505.88	26401.24
506.06	26265.49
506.23	26204.64
506.41	26424.65
506.58	26410.60
506.76	26780.41
506.93	26965.31
507.11	26862.33
507.28	27168.94
507.46	27227.45
507.63	27075.32
507.81	26979.36
507.98	26878.71
508.16	27316.39
508.33	27487.25
508.50	27646.41
508.68	27442.78
508.85	27573.85
509.03	27793.86
509.20	27948.34
509.38	28034.94
509.55	28458.57
509.73	28088.77
509.90	28170.69
510.08	28180.05
510.25	28215.16
510.42	28477.30
510.60	28535.81
510.77	28856.46
510.95	28713.69
511.12	28720.71
511.30	28669.22
511.47	29193.50
511.64	28931.36
511.82	28992.22
511.99	29221.59
512.17	29228.61
512.34	29020.30
512.51	29383.09
512.69	29633.52
512.86	29755.23
513.04	29699.06
513.21	29729.48
513.38	29961.20
513.56	29848.85
513.73	29907.37
513.90	29752.89
514.08	29996.31
514.25	30553.35
514.43	30520.59
514.60	30567.40
514.77	30080.56
514.95	30572.08
515.12	30401.22
515.29	30448.03
515.47	30654.00
515.64	30817.83
515.81	30820.17
515.99	30609.53
516.16	31054.23
516.33	30639.95
516.51	31248.49
516.68	31089.34
516.85	31346.79
517.03	31154.87
517.20	31763.41
517.37	31543.40
517.54	31424.03
517.72	31754.05
517.89	31548.08
518.06	32208.11
518.24	31882.78
518.41	31585.53
518.58	31758.73
518.75	31482.55
518.93	32084.06
519.10	32329.82
519.27	32194.07
519.45	32287.69
519.62	32601.32
519.79	32449.19
519.96	32474.93
520.14	32566.21
520.31	32194.07
520.48	32584.94
520.65	33013.26
520.83	33326.89
521.00	33020.28
521.17	32842.40
521.34	32620.05
521.52	33095.18
521.69	33376.04
521.86	33558.60
522.03	33537.54
522.20	33317.53
522.38	33766.91
522.55	34146.08
522.72	33773.93
522.89	33640.52
523.07	33907.34
523.24	33986.92
523.41	33935.43
523.58	33500.09
523.75	34012.66
523.92	33954.15
524.10	34597.80
524.27	34443.32
524.44	34298.21
524.61	34672.70
524.78	34419.92
524.96	34646.95
525.13	34532.26
525.30	34691.42
525.47	34866.96
525.64	34909.09
525.81	35182.93
525.98	34857.60
526.16	35101.01
526.33	34892.71
526.50	35196.98
526.67	35222.72
526.84	34728.87
527.01	35346.77
527.18	35058.88
527.36	35384.22
527.53	35697.85
527.70	36238.51
527.87	35599.55
528.04	35243.79
528.21	35349.11
528.38	35534.01
528.55	35632.32
528.72	35931.90
528.89	35917.86
529.07	35768.07
529.24	35496.56
529.41	36100.42
529.58	35878.07
529.75	35915.52
529.92	36048.93
530.09	36196.38
530.26	36151.91
530.43	36107.44
530.60	36364.90
530.77	36149.57
530.94	36528.74
531.11	36271.28
531.28	36343.84
531.46	36680.88
531.63	36879.82
531.80	36456.18
531.97	36840.03
532.14	36484.27
532.31	36622.36
532.48	36912.59
532.65	37148.98
532.82	36758.11
532.99	37156.00
533.16	36987.49
533.33	37001.53
533.50	37537.51
533.67	37144.30
533.84	36964.08
534.01	36870.46
534.18	37336.23
534.35	37748.16
534.52	37570.28
534.69	37897.95
534.86	37792.63
535.03	37666.24
535.20	38024.34
535.37	37801.99
535.54	38171.80
535.71	37984.55
535.88	38031.36
536.05	37844.12
536.22	38103.92
536.38	38253.72
536.55	38113.28
536.72	38213.93
536.89	38197.54
537.06	38136.69
537.23	38335.63
537.40	37771.57
537.57	38335.63
537.74	38064.13
537.91	38569.69
538.08	38513.52
538.25	38389.47
538.42	38447.98
538.59	39021.41
538.75	38838.85
538.92	38911.41
539.09	39452.07
539.26	39234.40
539.43	39335.04
539.60	39021.41
539.77	38529.90
539.94	39412.28
540.11	39321.00
540.28	39849.96
540.44	39058.86
540.61	39016.73
540.78	38841.19
540.95	39363.13
541.12	38955.88
541.29	39388.88
541.46	39435.69
541.62	39681.44
541.79	39721.23
541.96	39508.24
542.13	39402.92
542.30	39751.66
542.47	39861.66
542.63	39681.44
542.80	40292.32
542.97	40268.92
543.14	40992.14
543.31	39838.26
543.48	40051.25
543.64	40526.38
543.81	40224.45
543.98	40278.28
544.15	40362.54
544.32	40715.96
544.48	40741.71
544.65	40395.31
544.82	41123.21
544.99	40346.15
545.16	40715.96
545.32	40533.40
545.49	40978.10
545.66	41013.21
545.83	41247.26
546.00	40519.35
546.16	40706.60
546.33	41170.02
546.50	40769.79
546.67	41116.19
546.83	40945.33
547.00	40989.80
547.17	41067.04
547.34	41055.34
547.50	41567.91
547.67	41415.78
547.84	41263.64
548.00	41724.73
548.17	41544.51
548.34	41303.43
548.51	41874.52
548.67	41867.50
548.84	41603.02
549.01	41413.44
549.18	41551.53
549.34	41649.83
549.51	41631.11
549.68	41439.18
549.84	41666.22
550.01	42071.13
550.18	41319.82
550.34	41890.91
550.51	42476.04
550.68	41958.78
550.84	41514.08
551.01	42183.48
551.18	42010.28
551.34	42190.50
551.51	42157.73
551.68	41888.57
551.84	42223.26
552.01	41923.68
552.18	42656.26
552.34	41907.29
552.51	42267.73
552.68	42099.22
552.84	42164.75
553.01	43023.73
553.18	42288.80
553.34	42609.45
553.51	42162.41
553.67	42019.64
553.84	42546.26
554.01	42656.26
554.17	42410.51
554.34	42684.35
554.51	42529.87
554.67	43091.60
554.84	42918.40
555.00	42951.17
555.17	42244.33
555.33	42829.46
555.50	42909.04
555.67	43178.20
555.83	43433.32
556.00	43379.49
556.16	43452.05
556.33	43608.86
556.50	43510.56
556.66	43363.11
556.83	42705.41
556.99	43770.36
557.16	43533.96
557.32	43283.53
557.49	43370.13
557.65	42625.84
557.82	42948.83
557.98	43311.61
558.15	43519.92
558.32	43653.33
558.48	43402.89
558.65	43365.45
558.81	43342.04
558.98	43648.65
559.14	43674.40
559.31	43377.15
559.47	43379.49
559.64	43833.55
559.80	43749.29
559.97	43653.33
560.13	43934.20
560.30	43721.21
560.46	43913.13
560.63	44034.84
560.79	44388.26
560.96	43805.47
561.12	44240.81
561.29	44091.01
561.45	43915.47
561.61	43842.92
561.78	44296.98
561.94	43978.67
562.11	43784.40
562.27	43700.14
562.44	43800.79
562.60	44360.17
562.77	44442.09
562.93	44140.16
563.10	44568.48
563.26	43566.73
563.42	44456.14
563.59	44369.54
563.75	44009.09
563.92	44130.80
564.08	43999.73
564.24	44531.03
564.41	43863.98
564.57	44376.56
564.74	44100.37
564.90	44313.36
565.07	44250.17
565.23	44481.88
565.39	44542.74
565.56	44573.16
565.72	44296.98
565.88	44446.77
566.05	44718.28
566.21	44430.39
566.38	44289.96
566.54	44797.85
566.70	44353.15
566.87	44081.65
567.03	44355.49
567.19	44409.32
567.36	44231.44
567.52	44875.09
567.68	44861.05
567.85	44954.67
568.01	44987.44
568.17	44341.45
568.34	44907.86
568.50	44978.07
568.66	44156.55
568.83	44734.66
568.99	44966.37
569.15	44835.30
569.32	44531.03
569.48	44924.24
569.64	44961.69
569.81	44734.66
569.97	45006.16
570.13	45352.56
570.30	44374.22
570.46	44823.60
570.62	44889.13
570.78	45141.91
570.95	45064.67
571.11	45153.62
571.27	45008.50
571.43	44828.28
571.60	45193.40
571.76	44931.26
571.92	44854.03
572.09	44734.66
572.25	44851.69
572.41	44603.59
572.57	44666.78
572.74	45368.94
572.90	45207.45
573.06	45467.25
573.22	45155.96
573.38	45598.32
573.55	45024.89
573.71	45937.69
573.87	45371.28
574.03	45088.08
574.20	45708.32
574.36	45132.55
574.52	45338.52
574.68	45165.32
574.84	45123.19
575.01	45373.63
575.17	45535.12
575.33	45532.78
575.49	44861.05
575.65	45514.06
575.82	45359.58
575.98	45490.65
576.14	45778.54
576.30	45818.33
576.46	45324.47
576.62	44942.97
576.79	45272.98
576.95	44933.60
577.11	45038.93
577.27	45244.90
577.43	45162.98
577.59	45628.74
577.75	45366.60
577.92	45181.70
578.08	45078.72
578.24	45308.09
578.40	45645.13
578.56	45530.44
578.72	45577.25
578.88	45902.59
579.04	45460.23
579.21	45305.75
579.37	45474.27
579.53	45514.06
579.69	45326.81
579.85	45235.53
580.01	45345.54
580.17	45294.05
580.33	45500.01
580.49	45338.52
580.65	45982.16
580.82	45476.61
580.98	45347.88
581.14	45006.16
581.30	45593.64
581.46	45352.56
581.62	45048.29
581.78	45338.52
581.94	45598.32
582.10	45801.94
582.26	45507.04
582.42	45790.24
582.58	45907.27
582.74	45813.65
582.90	45724.71
583.06	45837.05
583.22	45298.73
583.38	45497.67
583.54	45638.11
583.70	45036.59
583.86	45937.69
584.02	45514.06
584.18	46036.00
584.34	45794.92
584.50	45563.21
584.66	45832.37
584.82	45900.25
584.98	45698.96
585.14	45703.64
585.30	45137.23
585.46	45797.26
585.62	45682.58
585.78	45427.46
585.94	45359.58
586.10	45647.47
586.26	45181.70
586.42	45331.50
586.58	45834.71
586.74	45366.60
586.90	45500.01
587.06	45666.19
587.22	46012.59
587.38	45670.87
587.54	45881.52
587.70	46162.39
587.86	46134.30
588.02	45942.38
588.18	45804.28
588.34	45572.57
588.49	46050.04
588.65	45713.00
588.81	45595.98
588.97	45724.71
589.13	45439.16
589.29	45574.91
589.45	45998.55
589.61	45776.20
589.77	46141.32
589.93	46410.48
590.08	45963.44
