SpectraSuite Data File
++++++++++++++++++++++++++++++++++++
Date: Fri Oct 25 11:23:25 EDT 2013
User: price-jones
Dark Spectrum Present: No
Reference Spectrum Present: No
Number of Sampled Component Spectra: 1
Spectrometers: USB2+H05261
Integration Time (usec): 100000 (USB2+H05261)
Spectra Averaged: 1 (USB2+H05261)
Boxcar Smoothing: 0 (USB2+H05261)
Correct for Electrical Dark: No (USB2+H05261)
Strobe/Lamp Enabled: No (USB2+H05261)
Correct for Detector Non-linearity: No (USB2+H05261)
Correct for Stray Light: No (USB2+H05261)
Number of Pixels in Processed Spectrum: 2048
>>>>>Begin Processed Spectral Data<<<<<
365.73	294.91
365.92	294.91
366.12	294.91
366.32	119.37
366.52	95.96
366.72	191.92
366.91	110.01
367.11	105.32
367.31	51.49
367.51	88.94
367.70	25.75
367.90	112.35
368.10	128.73
368.30	110.01
368.49	119.37
368.69	194.26
368.89	166.18
369.09	135.75
369.28	184.90
369.48	170.86
369.68	177.88
369.87	184.90
370.07	266.82
370.27	198.95
370.47	266.82
370.66	620.24
370.86	645.99
371.06	657.69
371.25	662.37
371.45	681.10
371.65	674.07
371.84	716.20
372.04	720.88
372.24	704.50
372.44	683.44
372.63	690.46
372.83	730.25
373.03	809.83
373.22	681.10
373.42	793.44
373.62	755.99
373.81	753.65
374.01	760.67
374.21	809.83
374.40	894.08
374.60	744.29
374.79	774.72
374.99	763.01
375.19	863.66
375.38	791.10
375.58	844.93
375.78	847.27
375.97	802.80
376.17	901.11
376.37	924.51
376.56	828.55
376.76	819.19
376.95	833.23
377.15	978.34
377.35	891.74
377.54	903.45
377.74	833.23
377.93	938.55
378.13	896.43
378.33	905.79
378.52	868.34
378.72	943.24
378.91	868.34
379.11	903.45
379.31	866.00
379.50	987.71
379.70	915.15
379.89	999.41
380.09	919.83
380.28	964.30
380.48	866.00
380.68	933.87
380.87	1109.41
381.07	980.68
381.26	964.30
381.46	1083.67
381.65	1036.86
381.85	1053.24
382.04	1046.22
382.24	1011.11
382.43	1071.97
382.63	1046.22
382.83	1025.15
383.02	1139.84
383.22	1123.46
383.41	1036.86
383.61	1146.86
383.80	1137.50
384.00	1111.75
384.19	1107.07
384.39	1179.63
384.58	1137.50
384.78	1146.86
384.97	1153.88
385.17	1146.86
385.36	1128.14
385.56	1100.05
385.75	1196.01
385.95	1174.95
386.14	1149.20
386.34	1135.16
386.53	1144.52
386.72	1221.76
386.92	1247.51
387.11	1226.44
387.31	1196.01
387.50	1310.70
387.70	1188.99
387.89	1287.29
388.09	1310.70
388.28	1268.57
388.48	1299.00
388.67	1238.14
388.86	1303.68
389.06	1310.70
389.25	1352.83
389.45	1306.02
389.64	1308.36
389.84	1362.19
390.03	1369.21
390.22	1387.94
390.42	1366.87
390.61	1329.42
390.81	1411.34
391.00	1476.88
391.19	1420.71
391.39	1465.18
391.58	1516.67
391.78	1472.20
391.97	1416.02
392.16	1448.79
392.36	1509.65
392.55	1519.01
392.75	1551.78
392.94	1441.77
393.13	1462.83
393.33	1479.22
393.52	1563.48
393.71	1671.14
393.91	1629.01
394.10	1589.22
394.29	1614.97
394.49	1558.80
394.68	1610.29
394.88	1572.84
395.07	1736.68
395.26	1612.63
395.46	1652.42
395.65	1717.95
395.84	1724.97
396.04	1860.73
396.23	1703.91
396.42	1650.08
396.62	1746.04
396.81	1785.83
397.00	1792.85
397.19	1790.51
397.39	1856.04
397.58	1858.39
397.77	1748.38
397.97	1804.55
398.16	1912.22
398.35	1783.49
398.55	1823.28
398.74	1961.37
398.93	1947.33
399.12	1973.07
399.32	1902.86
399.51	1888.81
399.70	1987.11
399.90	1907.54
400.09	1921.58
400.28	2087.76
400.47	2057.33
400.67	2118.18
400.86	2038.61
401.05	2064.35
401.24	2087.76
401.44	2132.23
401.63	2118.18
401.82	2160.31
402.01	2150.95
402.21	2174.36
402.40	2258.62
402.59	2172.02
402.78	2148.61
402.97	2244.57
403.17	2340.54
403.36	2253.94
403.55	2216.49
403.74	2267.98
403.93	2370.96
404.13	2406.07
404.32	2321.81
404.51	2363.94
404.70	2427.14
404.89	2431.82
405.09	2342.88
405.28	2445.86
405.47	2492.67
405.66	2399.05
405.85	2537.14
406.05	2410.75
406.24	2492.67
406.43	2527.78
406.62	2602.68
406.81	2581.61
407.00	2605.02
407.20	2658.85
407.39	2583.95
407.58	2616.72
407.77	2818.00
407.96	2773.53
408.15	2785.24
408.34	2799.28
408.54	2888.22
408.73	2892.90
408.92	2881.20
409.11	2745.45
409.30	2937.37
409.49	3009.93
409.68	2876.52
409.87	2988.86
410.07	3007.59
410.26	3028.65
410.45	3040.36
410.64	3054.40
410.83	3213.56
411.02	3054.40
411.21	3241.64
411.40	3087.17
411.59	3227.60
411.78	3133.98
411.98	3197.17
412.17	3187.81
412.36	3180.79
412.55	3274.41
412.74	3358.67
412.93	3459.31
413.12	3485.06
413.31	3613.79
413.50	3583.36
413.69	3391.44
413.88	3623.15
414.07	3679.32
414.26	3651.24
414.45	3712.09
414.64	3679.32
414.83	3653.58
415.02	3815.07
415.22	3768.26
415.41	3784.65
415.60	3885.29
415.79	3922.74
415.98	3866.56
416.17	3894.65
416.36	4051.47
416.55	4088.92
416.74	4084.23
416.93	4163.81
417.12	4166.15
417.31	4128.70
417.50	4325.31
417.69	4264.46
417.88	4299.56
418.07	4243.39
418.26	4250.41
418.45	4346.37
418.64	4498.51
418.83	4334.67
419.02	4362.76
419.21	4472.76
419.39	4409.57
419.58	4500.85
419.77	4491.49
419.96	4528.94
420.15	4559.36
420.34	4753.63
420.53	4645.96
420.72	4751.29
420.91	4685.75
421.10	4849.59
421.29	4978.32
421.48	4709.16
421.67	4873.00
421.86	4929.17
422.05	4774.69
422.24	4819.16
422.43	4720.86
422.61	4830.87
422.80	4973.64
422.99	4908.10
423.18	4990.02
423.37	4980.66
423.56	4947.89
423.75	4910.44
423.94	4868.31
424.13	4629.58
424.32	4723.20
424.50	5015.77
424.69	5130.45
424.88	5104.71
425.07	4973.64
425.26	4933.85
425.45	4835.55
425.64	5001.72
425.83	5060.24
426.01	5025.13
426.20	5027.47
426.39	5170.24
426.58	5088.32
426.77	5210.03
426.96	5071.94
427.15	5146.84
427.33	5291.95
427.52	5214.71
427.71	5301.31
427.90	5331.74
428.09	5301.31
428.28	5327.06
428.46	5247.48
428.65	5432.38
428.84	5593.88
429.03	5600.90
429.22	5593.88
429.40	5523.66
429.59	5572.82
429.78	5263.86
429.97	5331.74
430.16	5561.11
430.34	5430.04
430.53	5621.97
430.72	5593.88
430.91	5558.77
431.10	5659.42
431.28	5860.70
431.47	5893.47
431.66	5921.56
431.85	5830.27
432.03	5853.68
432.22	5956.66
432.41	5797.51
432.60	5818.57
432.79	5785.80
432.97	5970.71
433.16	6108.80
433.35	6024.54
433.54	5998.79
433.72	6317.11
433.91	6225.82
434.10	6256.25
434.28	6003.47
434.47	6274.98
434.66	6303.06
434.85	6176.67
435.03	6146.25
435.22	6244.55
435.41	6457.54
435.59	6347.53
435.78	6476.26
435.97	6654.14
436.16	6326.47
436.34	6527.75
436.53	6511.37
436.72	6726.70
436.90	6396.68
437.09	6686.91
437.28	6593.29
437.46	6745.42
437.65	6703.29
437.84	6759.47
438.02	6787.55
438.21	6722.02
438.40	6717.34
438.58	7061.40
438.77	7075.44
438.96	6956.07
439.14	7269.70
439.33	7197.15
439.52	7279.07
439.70	7178.42
439.89	7325.88
440.08	7339.92
440.26	7236.94
440.45	7332.90
440.63	7541.21
440.82	7548.23
441.01	7527.16
441.19	7644.19
441.38	7707.38
441.57	7602.06
441.75	7644.19
441.94	8023.36
442.12	8131.02
442.31	8046.76
442.50	8095.91
442.68	7981.23
442.87	7911.01
443.05	7882.92
443.24	8088.89
443.43	8379.12
443.61	8060.80
443.80	8332.31
443.98	7978.89
444.17	8039.74
444.35	8355.71
444.54	8318.26
444.73	8344.01
444.91	8360.39
445.10	8393.16
445.28	8280.82
445.47	8159.11
445.65	8491.46
445.84	8252.73
446.02	8421.25
446.21	8461.04
446.39	8510.19
446.58	8479.76
446.77	8690.41
446.95	8486.78
447.14	8423.59
447.32	8561.68
447.51	8507.85
447.69	8397.84
447.88	8669.34
448.06	8423.59
448.25	8510.19
448.43	8603.81
448.62	8589.77
448.80	8681.05
448.99	8674.03
449.17	8837.86
449.36	8676.37
449.54	8823.82
449.73	8868.29
449.91	9158.52
450.10	8938.51
450.28	9207.67
450.46	9006.38
450.65	9163.20
450.83	8968.93
451.02	8992.34
451.20	9303.63
451.39	9242.78
451.57	9118.73
451.76	9022.77
451.94	9200.65
452.13	9415.98
452.31	9247.46
452.49	9022.77
452.68	9434.70
452.86	9188.94
453.05	9495.55
453.23	9446.40
453.42	9448.74
453.60	9444.06
453.78	9554.07
453.97	9324.69
454.15	9664.07
454.34	9399.59
454.52	9755.35
454.70	9703.86
454.89	9565.77
455.07	9816.21
455.26	9795.14
455.44	9734.29
455.62	9998.77
455.81	9966.00
455.99	10076.01
456.17	10071.33
456.36	10197.71
456.54	10036.22
456.73	10160.27
456.91	10438.79
457.09	10356.87
457.28	10546.45
457.46	10399.00
457.64	10565.18
457.83	10504.32
458.01	10604.97
458.19	10839.02
458.38	10604.97
458.56	10696.25
458.74	10586.24
458.93	10677.52
459.11	10773.49
459.29	10927.96
459.48	10834.34
459.66	10789.87
459.84	10897.53
460.03	11159.67
460.21	10916.26
460.39	11192.44
460.57	11173.72
460.76	11304.79
460.94	11176.06
461.12	11059.03
461.31	11035.63
461.49	11124.57
461.67	11211.17
461.85	11295.43
462.04	11426.50
462.22	11522.46
462.40	11644.17
462.59	11646.51
462.77	11353.94
462.95	11665.23
463.13	11520.12
463.32	11672.25
463.50	11878.22
463.68	11705.02
463.86	11751.83
464.05	11623.10
464.23	11756.51
464.41	11974.18
464.59	11616.08
464.78	12285.47
464.96	11803.32
465.14	12140.36
465.32	12456.33
465.50	11960.14
465.69	12051.42
465.87	12189.51
466.05	11957.80
466.23	12327.60
466.41	12358.03
466.60	12645.91
466.78	12180.15
466.96	12383.77
467.14	12372.07
467.32	12430.59
467.51	12636.55
467.69	12182.49
467.87	12617.83
468.05	12910.40
468.23	12573.36
468.41	12304.20
468.60	12596.76
468.78	12795.71
468.96	12732.51
469.14	12868.27
469.32	13057.85
469.50	12650.60
469.69	13057.85
469.87	12961.89
470.05	13008.70
470.23	13092.96
470.41	13205.30
470.59	13165.51
470.77	13224.03
470.95	13235.73
471.14	13671.07
471.32	12985.29
471.50	13673.41
471.68	13582.13
471.86	13612.56
472.04	13727.24
472.22	14085.34
472.40	13554.04
472.58	14012.79
472.77	14115.77
472.95	14031.51
473.13	14677.50
473.31	14176.62
473.49	14155.56
473.67	14176.62
473.85	14434.08
474.03	14719.63
474.21	14654.09
474.39	14771.12
474.57	14618.99
474.75	14902.19
474.93	15047.30
475.12	15044.96
475.30	15176.03
475.48	15236.89
475.66	15421.79
475.84	15150.29
476.02	15349.23
476.20	15316.47
476.38	15527.11
476.56	16037.35
476.74	15960.11
476.92	15875.85
477.10	15936.71
477.28	16156.72
477.46	16051.39
477.64	16491.41
477.82	16554.61
478.00	16922.07
478.18	16978.25
478.36	17064.85
478.54	17268.47
478.72	17057.82
478.90	17682.75
479.08	17659.34
479.26	17654.66
479.44	17778.71
479.62	18099.36
479.80	18143.83
479.98	18216.39
480.16	18967.70
480.34	18462.15
480.52	18441.08
480.70	18438.74
480.88	18750.03
481.06	18754.71
481.24	18925.57
481.41	18977.06
481.59	19201.76
481.77	19157.28
481.95	19510.71
482.13	19800.93
482.31	19768.16
482.49	20519.48
482.67	20154.35
482.85	20606.08
483.03	20662.25
483.21	20851.83
483.39	20957.16
483.57	21102.27
483.74	21223.98
483.92	21376.11
484.10	21291.85
484.28	21441.65
484.46	22279.56
484.64	22518.29
484.82	21820.81
485.00	22480.85
485.18	23115.13
485.35	22986.40
485.53	22792.14
485.71	23388.97
485.89	23789.20
486.07	23208.75
486.25	23620.69
486.43	23498.98
486.61	23578.56
486.78	24226.89
486.96	24329.87
487.14	24629.46
487.32	25081.18
487.50	25081.18
487.68	24905.64
487.85	25207.57
488.03	25649.93
488.21	25851.22
488.39	25799.73
488.57	26242.09
488.75	26206.98
488.92	26375.50
489.10	26410.60
489.28	26977.01
489.46	27204.05
489.64	27084.68
489.81	27592.58
489.99	27800.88
490.17	27608.96
490.35	28311.12
490.53	28236.22
490.70	28699.65
490.88	28184.73
491.06	28926.68
491.24	28961.79
491.41	29401.81
491.59	29441.60
491.77	29263.72
491.95	29816.08
492.13	29649.91
492.30	29766.93
492.48	30277.17
492.66	30541.65
492.84	30256.11
493.01	30834.22
493.19	30888.05
493.37	31119.76
493.54	31487.23
493.72	31716.60
493.90	31615.96
494.08	31957.67
494.25	31786.82
494.43	31828.95
494.61	32514.72
494.79	32512.38
494.96	32601.32
495.14	32568.55
495.32	33467.32
495.49	32971.13
495.67	33181.77
495.85	33366.68
496.02	33750.52
496.20	34298.21
496.38	34117.99
496.55	34068.84
496.73	34986.33
496.91	34560.35
497.09	34972.28
497.26	34998.03
497.44	34883.34
497.62	35452.09
497.79	35721.26
497.97	35571.46
498.14	36032.55
498.32	36484.27
498.50	36388.31
498.67	36840.03
498.85	36357.88
499.03	36865.78
499.20	36877.48
499.38	36919.61
499.56	37163.03
499.73	37359.63
499.91	37469.64
500.08	37825.40
500.26	37624.11
500.44	38174.14
500.61	37963.49
500.79	37872.21
500.97	38478.41
501.14	38532.24
501.32	38192.86
501.49	38965.24
501.67	39173.55
501.84	39112.69
502.02	38361.38
502.20	39047.16
502.37	39522.29
502.55	39386.54
502.72	39292.91
502.90	39557.39
503.07	39761.02
503.25	39950.60
503.43	39899.11
503.60	40231.47
503.78	40046.57
503.95	40598.93
504.13	40395.31
504.30	40790.86
504.48	40306.37
504.65	40395.31
504.83	41153.64
505.01	41078.74
505.18	41251.94
505.36	41820.69
505.53	41116.19
505.71	41701.32
505.88	41996.23
506.06	41663.88
506.23	41750.48
506.41	42052.41
506.58	41837.08
506.76	42682.01
506.93	42808.40
507.11	42813.08
507.28	42595.41
507.46	42939.47
507.63	43037.77
507.81	43213.31
507.98	42946.49
508.16	42958.19
508.33	43775.04
508.50	43569.07
508.68	43463.75
508.85	43950.58
509.03	43681.42
509.20	44203.36
509.38	44666.78
509.55	44596.57
509.73	44526.35
509.90	44659.76
510.08	44783.81
510.25	44591.89
510.42	45193.40
510.60	45382.99
510.77	45392.35
510.95	45586.61
511.12	45347.88
511.30	45151.27
511.47	45462.57
511.64	45542.14
511.82	46164.73
511.99	46050.04
512.17	46225.58
512.34	45886.20
512.51	46340.27
512.69	46672.62
512.86	46527.51
513.04	46883.27
513.21	46478.36
513.38	47110.30
513.56	47140.73
513.73	47035.41
513.90	47145.41
514.08	46890.29
514.25	47112.64
514.43	47391.17
514.60	47517.56
514.77	47344.36
514.95	47590.11
515.12	47580.75
515.29	47840.55
515.47	47847.57
515.64	48177.59
515.81	48210.35
515.99	48322.70
516.16	48502.92
516.33	48577.82
516.51	48683.14
516.68	48540.37
516.85	48629.31
517.03	49221.47
517.20	48741.66
517.37	48961.67
517.54	49230.83
517.72	49158.27
517.89	49205.08
518.06	49359.56
518.24	49399.35
518.41	49226.15
518.58	49432.11
518.75	49375.94
518.93	49535.10
519.10	49614.68
519.27	50145.98
519.45	49787.88
519.62	49687.23
519.79	49949.37
519.96	49991.50
520.14	50155.34
520.31	50101.51
520.48	50227.90
520.65	50475.99
520.83	50700.68
521.00	50941.76
521.17	50241.94
521.34	50600.04
521.52	50773.24
521.69	50859.84
521.86	51337.31
522.03	51119.64
522.20	51470.72
522.38	51440.29
522.55	51526.89
522.72	51484.76
522.89	51107.94
523.07	51718.82
523.24	51522.21
523.41	51821.80
523.58	51608.81
523.75	52046.49
523.92	51714.14
524.10	52088.62
524.27	51999.68
524.44	52322.68
524.61	52273.52
524.78	52774.40
524.96	52268.84
525.13	52442.04
525.30	52556.73
525.47	52650.35
525.64	52463.11
525.81	52690.14
525.98	53050.58
526.16	52793.12
526.33	52662.05
526.50	52933.56
526.67	52952.28
526.84	53172.29
527.01	53064.63
527.18	53102.07
527.36	52949.94
527.53	52975.69
527.70	53380.60
527.87	53499.97
528.04	53116.12
528.21	53340.81
528.38	53446.13
528.55	53787.85
528.72	53523.37
528.89	53712.95
529.07	53595.93
529.24	53488.26
529.41	53897.86
529.58	53722.32
529.75	53460.18
529.92	53900.20
530.09	53663.80
530.26	54031.27
530.43	54272.34
530.60	53764.45
530.77	54061.69
530.94	54129.57
531.11	54040.63
531.28	54387.03
531.46	54499.37
531.63	54597.68
531.80	54298.09
531.97	54672.57
532.14	54485.33
532.31	54674.91
532.48	54436.18
532.65	54733.43
532.82	54555.55
532.99	54815.35
533.16	54869.18
533.33	54719.38
533.50	55021.31
533.67	55058.76
533.84	54740.45
534.01	55091.53
534.18	54944.08
534.35	55531.55
534.52	55372.39
534.69	55484.74
534.86	55370.05
535.03	55353.67
535.20	55327.92
535.37	55304.52
535.54	55304.52
535.71	55196.85
535.88	55480.06
536.05	55620.49
536.22	55683.69
536.38	55753.90
536.55	55594.74
536.72	55409.84
536.89	55662.62
537.06	55501.12
537.23	55751.56
537.40	55793.69
537.57	55833.48
537.74	55877.95
537.91	56104.98
538.08	55833.48
538.25	55842.84
538.42	56069.87
538.59	56128.39
538.75	55997.32
538.92	56198.60
539.09	56435.00
539.26	56275.84
539.43	56030.08
539.60	56341.38
539.77	56425.64
539.94	56484.15
540.11	56615.22
540.28	56348.40
540.44	56449.04
540.61	56678.41
540.78	56484.15
540.95	56615.22
541.12	56514.58
541.29	56582.45
541.46	56371.80
541.62	56729.90
541.79	56790.76
541.96	56591.81
542.13	56500.53
542.30	56701.82
542.47	56952.26
542.63	57006.09
542.80	56891.40
542.97	57155.88
543.14	57228.44
543.31	57352.49
543.48	57310.36
543.64	57396.96
543.81	57347.81
543.98	57111.41
544.15	57326.74
544.32	57586.54
544.48	57689.52
544.65	57474.20
544.82	57577.18
544.99	57279.93
545.16	57485.90
545.32	57509.30
545.49	57979.75
545.66	57851.02
545.83	57848.68
546.00	57750.38
546.16	57635.69
546.33	57813.57
546.50	57626.33
546.67	57858.04
546.83	57460.15
547.00	57865.06
547.17	57813.57
547.34	57979.75
547.50	57942.30
547.67	58078.05
547.84	58059.33
548.00	58293.38
548.17	58328.49
548.34	58326.15
548.51	58405.73
548.67	58286.36
548.84	58045.29
549.01	58195.08
549.18	58071.03
549.34	58337.85
549.51	58286.36
549.68	58482.97
549.84	58424.45
550.01	58422.11
550.18	58361.26
550.34	58499.35
550.51	58513.39
550.68	58520.41
550.84	58237.21
551.01	58873.84
551.18	58464.24
551.34	58665.53
551.51	58590.63
551.68	58763.83
551.84	58684.25
552.01	58464.24
552.18	58653.82
552.34	58578.93
552.51	58695.95
552.68	58770.85
552.84	58766.17
553.01	59072.78
553.18	58871.49
553.34	58981.50
553.51	58841.07
553.67	58878.52
553.84	58965.12
554.01	59011.93
554.17	59105.55
554.34	59051.72
554.51	59089.16
554.67	59110.23
554.84	59164.06
555.00	59089.16
555.17	58997.88
555.33	58983.84
555.50	59112.57
555.67	59185.13
555.83	58997.88
556.00	59313.86
556.16	59877.93
556.33	59409.82
556.50	59210.87
556.66	59473.01
556.83	59323.22
556.99	59480.03
557.16	59309.18
557.32	59487.06
557.49	59707.07
557.65	59409.82
557.82	59444.93
557.98	59435.56
558.15	59749.20
558.32	59533.87
558.48	59585.36
558.65	59512.80
558.81	59585.36
558.98	59774.94
559.14	59662.60
559.31	59524.50
559.47	59735.15
559.64	59671.96
559.80	59653.23
559.97	59833.46
560.13	59653.23
560.30	59868.56
560.46	59772.60
560.63	59821.75
560.79	59700.04
560.96	59908.35
561.12	59760.90
561.29	59796.01
561.45	60020.70
561.61	59952.82
561.78	60053.47
561.94	59845.16
562.11	59955.16
562.27	59842.82
562.44	60130.70
562.60	60149.43
562.77	60065.17
562.93	60018.36
563.10	60163.47
563.26	60062.83
563.42	60109.64
563.59	60142.41
563.75	60009.00
563.92	59976.23
564.08	60030.06
564.24	60193.90
564.41	60140.07
564.57	60097.94
564.74	60142.41
564.90	60322.63
565.07	60067.51
565.23	60308.58
565.39	60165.81
565.56	60523.91
565.72	60170.49
565.88	60252.41
566.05	60149.43
566.21	60231.35
566.38	60362.42
566.54	60502.85
566.70	60502.85
566.87	60512.21
567.03	60331.99
567.19	60512.21
567.36	60465.40
567.52	60137.72
567.68	60568.38
567.85	60509.87
568.01	60310.92
568.17	60430.29
568.34	60399.86
568.50	60406.89
568.66	60289.86
568.83	60395.18
568.99	60303.90
569.15	60547.32
569.32	60306.24
569.48	60430.29
569.64	60519.23
569.81	60650.30
569.97	60413.91
570.13	60463.06
570.30	60170.49
570.46	60563.70
570.62	60430.29
570.78	60411.57
570.95	60673.71
571.11	60666.69
571.27	60680.73
571.43	60512.21
571.60	60762.65
571.76	60711.16
571.92	60636.26
572.09	60694.77
572.25	60629.24
572.41	60718.18
572.57	60629.24
572.74	60823.50
572.90	60610.51
573.06	60631.58
573.22	60643.28
573.38	60669.03
573.55	60640.94
573.71	60996.70
573.87	60713.50
574.03	60629.24
574.20	60706.47
574.36	60645.62
574.52	60807.12
574.68	60715.84
574.84	60781.37
575.01	60727.54
575.17	60566.04
575.33	60659.66
575.49	60631.58
575.65	60874.99
575.82	60968.61
575.98	60949.89
576.14	61071.60
576.30	61020.11
576.46	60860.95
576.62	60835.20
576.79	60933.51
576.95	60584.77
577.11	60795.42
577.27	60903.08
577.43	60987.34
577.59	60896.06
577.75	60949.89
577.92	60821.16
578.08	60938.19
578.24	60905.42
578.40	60970.96
578.56	61172.24
578.72	60926.49
578.88	61125.43
579.04	61092.66
579.21	60846.91
579.37	61160.54
579.53	61268.20
579.69	60718.18
579.85	60924.14
580.01	60963.93
580.17	60992.02
580.33	60940.53
580.49	61179.26
580.65	60825.84
580.82	60905.42
580.98	60982.66
581.14	60823.50
581.30	61169.90
581.46	60823.50
581.62	61029.47
581.78	60935.85
581.94	61106.71
582.10	61132.45
582.26	61219.05
582.42	60851.59
582.58	61052.87
582.74	60982.66
582.90	61062.24
583.06	61076.28
583.22	61066.92
583.38	61010.74
583.54	61181.60
583.70	61132.45
583.86	61036.49
584.02	61087.98
584.18	61181.60
584.34	61104.37
584.50	60992.02
584.66	60947.55
584.82	60919.46
584.98	61303.31
585.14	61066.92
585.30	60921.80
585.46	60952.23
585.62	60942.87
585.78	61354.80
585.94	60882.02
586.10	61193.31
586.26	61095.00
586.42	61116.07
586.58	61221.39
586.74	61315.01
586.90	61078.62
587.06	61059.90
587.22	61207.35
587.38	61300.97
587.54	61326.72
587.70	61352.46
587.86	61268.20
588.02	61167.56
588.18	61453.11
588.34	60980.32
588.49	61034.15
