SpectraSuite Data File
++++++++++++++++++++++++++++++++++++
Date: Fri Oct 25 11:22:40 EDT 2013
User: price-jones
Dark Spectrum Present: No
Reference Spectrum Present: No
Number of Sampled Component Spectra: 1
Spectrometers: USB2+H05261
Integration Time (usec): 100000 (USB2+H05261)
Spectra Averaged: 1 (USB2+H05261)
Boxcar Smoothing: 0 (USB2+H05261)
Correct for Electrical Dark: No (USB2+H05261)
Strobe/Lamp Enabled: No (USB2+H05261)
Correct for Detector Non-linearity: No (USB2+H05261)
Correct for Stray Light: No (USB2+H05261)
Number of Pixels in Processed Spectrum: 2048
>>>>>Begin Processed Spectral Data<<<<<
365.73	205.97
365.92	205.97
366.12	205.97
366.32	124.05
366.52	65.54
366.72	159.16
366.91	114.69
367.11	133.41
367.31	159.16
367.51	98.30
367.70	145.11
367.90	91.28
368.10	117.03
368.30	93.62
368.49	100.64
368.69	159.16
368.89	128.73
369.09	124.05
369.28	154.48
369.48	184.90
369.68	163.84
369.87	140.43
370.07	147.45
370.27	234.05
370.47	365.12
370.66	550.03
370.86	603.86
371.06	599.18
371.25	702.16
371.45	645.99
371.65	702.16
371.84	674.07
372.04	655.35
372.24	678.76
372.44	653.01
372.63	758.33
372.83	777.06
373.03	751.31
373.22	758.33
373.42	786.42
373.62	795.78
373.81	851.96
374.01	777.06
374.21	760.67
374.40	770.04
374.60	805.14
374.79	795.78
374.99	814.51
375.19	849.61
375.38	802.80
375.58	870.68
375.78	814.51
375.97	800.46
376.17	922.17
376.37	882.38
376.56	919.83
376.76	884.72
376.95	873.02
377.15	870.68
377.35	919.83
377.54	919.83
377.74	833.23
377.93	915.15
378.13	931.53
378.33	929.19
378.52	961.96
378.72	891.74
378.91	922.17
379.11	866.00
379.31	943.24
379.50	854.30
379.70	950.26
379.89	1062.60
380.09	985.37
380.28	1036.86
380.48	999.41
380.68	910.47
380.87	1008.77
381.07	971.32
381.26	1062.60
381.46	1008.77
381.65	1050.90
381.85	1039.20
382.04	1053.24
382.24	1050.90
382.43	1034.52
382.63	978.34
382.83	1107.07
383.02	1116.44
383.22	1060.26
383.41	1055.58
383.61	1163.25
383.80	1130.48
384.00	1179.63
384.19	1146.86
384.39	1156.22
384.58	1083.67
384.78	1071.97
384.97	1088.35
385.17	1172.61
385.36	1057.92
385.56	1179.63
385.75	1125.80
385.95	1179.63
386.14	1233.46
386.34	1132.82
386.53	1280.27
386.72	1193.67
386.92	1247.51
387.11	1348.15
387.31	1221.76
387.50	1245.16
387.70	1242.82
387.89	1235.80
388.09	1282.61
388.28	1275.59
388.48	1320.06
388.67	1376.24
388.86	1320.06
389.06	1270.91
389.25	1364.53
389.45	1270.91
389.64	1245.16
389.84	1373.89
390.03	1409.00
390.22	1334.11
390.42	1385.60
390.61	1355.17
390.81	1451.13
391.00	1434.75
391.19	1500.28
391.39	1427.73
391.58	1416.02
391.78	1469.86
391.97	1500.28
392.16	1467.52
392.36	1584.54
392.55	1504.96
392.75	1528.37
392.94	1511.99
393.13	1488.58
393.33	1497.94
393.52	1589.22
393.71	1584.54
393.91	1657.10
394.10	1593.90
394.29	1596.25
394.49	1561.14
394.68	1633.69
394.88	1575.18
395.07	1661.78
395.26	1493.26
395.46	1743.70
395.65	1668.80
395.84	1673.48
396.04	1816.26
396.23	1736.68
396.42	1678.16
396.62	1806.89
396.81	1802.21
397.00	1846.68
397.19	1781.15
397.39	1849.02
397.58	1837.32
397.77	1933.28
397.97	1846.68
398.16	1736.68
398.35	1870.09
398.55	1879.45
398.74	1888.81
398.93	1975.41
399.12	1884.13
399.32	1975.41
399.51	1914.56
399.70	2045.63
399.90	1980.09
400.09	2022.22
400.28	1998.82
400.47	2022.22
400.67	2036.27
400.86	2169.68
401.05	1975.41
401.24	2076.06
401.44	2169.68
401.63	2202.44
401.82	2235.21
402.01	2104.14
402.21	2176.70
402.40	2319.47
402.59	2249.25
402.78	2200.10
402.97	2265.64
403.17	2277.34
403.36	2251.60
403.55	2279.68
403.74	2401.39
403.93	2286.70
404.13	2275.00
404.32	2342.88
404.51	2324.15
404.70	2420.11
404.89	2361.60
405.09	2473.95
405.28	2413.09
405.47	2539.48
405.66	2452.88
405.85	2551.18
406.05	2520.76
406.24	2518.42
406.43	2616.72
406.62	2633.10
406.81	2651.83
407.00	2565.23
407.20	2572.25
407.39	2663.53
407.58	2626.08
407.77	2675.23
407.96	2733.75
408.15	2775.88
408.34	2661.19
408.54	2689.28
408.73	2761.83
408.92	2897.58
409.11	2818.00
409.30	2892.90
409.49	2974.82
409.68	2909.29
409.87	3007.59
410.07	2909.29
410.26	2923.33
410.45	2986.52
410.64	2998.23
410.83	3159.72
411.02	3180.79
411.21	3243.98
411.40	3192.49
411.59	3248.66
411.78	3145.68
411.98	3274.41
412.17	3368.03
412.36	3323.56
412.55	3290.79
412.74	3349.31
412.93	3389.10
413.12	3452.29
413.31	3613.79
413.50	3496.76
413.69	3396.12
413.88	3515.48
414.07	3527.19
414.26	3672.30
414.45	3695.71
414.64	3475.70
414.83	3775.28
415.02	3700.39
415.22	3824.44
415.41	3854.86
415.60	3915.72
415.79	3995.29
415.98	3964.87
416.17	3946.14
416.36	4060.83
416.55	3815.07
416.74	4046.79
416.93	4250.41
417.12	4030.40
417.31	4138.07
417.50	4255.09
417.69	4374.46
417.88	4353.40
418.07	4290.20
418.26	4414.25
418.45	4365.10
418.64	4428.29
418.83	4447.02
419.02	4545.32
419.21	4489.15
419.39	4479.79
419.58	4430.63
419.77	4454.04
419.96	4411.91
420.15	4692.77
420.34	4596.81
420.53	4596.81
420.72	4821.50
420.91	4798.10
421.10	4718.52
421.29	4863.63
421.48	4786.40
421.67	4732.56
421.86	4784.06
422.05	4856.61
422.24	4912.78
422.43	4812.14
422.61	4933.85
422.80	4915.12
422.99	4889.38
423.18	5022.79
423.37	5018.11
423.56	5034.49
423.75	4873.00
423.94	4943.21
424.13	4629.58
424.32	4784.06
424.50	4983.00
424.69	5144.50
424.88	5064.92
425.07	5008.75
425.26	5121.09
425.45	5029.81
425.64	5123.43
425.83	4964.28
426.01	5114.07
426.20	5048.54
426.39	5137.48
426.58	5118.75
426.77	4964.28
426.96	5200.67
427.15	5212.37
427.33	5380.89
427.52	5235.78
427.71	5355.15
427.90	5219.39
428.09	5383.23
428.28	5406.64
428.46	5401.96
428.65	5420.68
428.84	5441.75
429.03	5586.86
429.22	5303.65
429.40	5521.32
429.59	5652.39
429.78	5364.51
429.97	5310.68
430.16	5570.48
430.34	5675.80
430.53	5731.97
430.72	5661.76
430.91	5645.37
431.10	5748.36
431.28	5767.08
431.47	5692.18
431.66	5846.66
431.85	5888.79
432.03	5982.41
432.22	5973.05
432.41	5902.83
432.60	5900.49
432.79	5914.53
432.97	5987.09
433.16	6127.52
433.35	5959.00
433.54	6097.10
433.72	6307.74
433.91	6246.89
434.10	6237.53
434.28	6125.18
434.47	6181.35
434.66	6085.39
434.85	6143.91
435.03	6396.68
435.22	6366.26
435.41	6527.75
435.59	6548.82
435.78	6471.58
435.97	6513.71
436.16	6403.71
436.34	6384.98
436.53	6471.58
436.72	6754.79
436.90	6511.37
437.09	6569.88
437.28	6619.04
437.46	6754.79
437.65	6672.87
437.84	6881.18
438.02	6558.18
438.21	6871.81
438.40	6679.89
438.58	7084.80
438.77	7115.23
438.96	7007.56
439.14	7279.07
439.33	6972.46
439.52	7199.49
439.70	7201.83
439.89	7304.81
440.08	7337.58
440.26	7644.19
440.45	7461.63
440.63	7559.93
440.82	7681.64
441.01	7510.78
441.19	7681.64
441.38	7873.56
441.57	7707.38
441.75	7669.94
441.94	7925.05
442.12	7967.18
442.31	8042.08
442.50	8159.11
442.68	8226.98
442.87	7939.10
443.05	8336.99
443.24	8234.00
443.43	8313.58
443.61	8390.82
443.80	8652.96
443.98	8149.75
444.17	7960.16
444.35	8245.71
444.54	8423.59
444.73	8313.58
444.91	8416.57
445.10	8365.07
445.28	8276.13
445.47	8346.35
445.65	8250.39
445.84	8608.49
446.02	8458.70
446.21	8428.27
446.39	8147.40
446.58	8709.13
446.77	8755.94
446.95	8402.52
447.14	8461.04
447.32	8479.76
447.51	8711.47
447.69	8636.58
447.88	8758.28
448.06	8587.43
448.25	8454.02
448.43	8557.00
448.62	8596.79
448.80	8739.56
448.99	8634.24
449.17	8954.89
449.36	8734.88
449.54	8854.25
449.73	9205.33
449.91	9158.52
450.10	9123.41
450.28	9043.83
450.46	8994.68
450.65	9085.96
450.83	9111.71
451.02	9226.39
451.20	9460.45
451.39	9373.85
451.57	9352.78
451.76	9083.62
451.94	9217.03
452.13	9214.69
452.31	9343.42
452.49	9427.68
452.68	9317.67
452.86	9399.59
453.05	9366.82
453.23	9444.06
453.42	9490.87
453.60	9481.51
453.78	9692.16
453.97	9593.86
454.15	9481.51
454.34	9558.75
454.52	9717.90
454.70	9748.33
454.89	9788.12
455.07	9844.29
455.26	9940.26
455.44	10003.45
455.62	9998.77
455.81	9956.64
455.99	10113.45
456.17	10092.39
456.36	10171.97
456.54	10193.03
456.73	10471.56
456.91	10593.26
457.09	10492.62
457.28	10640.08
457.46	10466.88
457.64	10703.27
457.83	10459.85
458.01	10445.81
458.19	10668.16
458.38	10611.99
458.56	10548.79
458.74	10759.44
458.93	10958.39
459.11	10815.62
459.29	10860.09
459.48	10684.55
459.66	10860.09
459.84	11052.01
460.03	11138.61
460.21	11290.74
460.39	10956.05
460.57	11028.60
460.76	11307.13
460.94	11199.46
461.12	11255.64
461.31	11227.55
461.49	11330.53
461.67	11101.16
461.85	11536.50
462.04	11365.64
462.22	11683.95
462.40	11861.84
462.59	11637.14
462.77	11627.78
462.95	11548.20
463.13	11831.41
463.32	11749.49
463.50	11978.86
463.68	11798.64
463.86	12039.72
464.05	11690.98
464.23	11901.62
464.41	12226.96
464.59	11800.98
464.78	12126.32
464.96	11953.12
465.14	11927.37
465.32	12264.41
465.50	12266.75
465.69	12407.18
465.87	12145.04
466.05	12222.28
466.23	12395.48
466.41	12400.16
466.60	12468.03
466.78	12292.49
466.96	12521.87
467.14	12442.29
467.32	12500.80
467.51	12526.55
467.69	12163.76
467.87	12503.14
468.05	12549.95
468.23	12652.94
468.41	12685.70
468.60	12685.70
468.78	12886.99
468.96	12559.31
469.14	12875.29
469.32	12903.37
469.50	12662.30
469.69	13029.76
469.87	13523.62
470.05	13137.43
470.23	13348.08
470.41	13394.89
470.59	13474.46
470.77	13352.76
470.95	13362.12
471.14	13678.09
471.32	13331.69
471.50	13666.39
471.68	13556.38
471.86	13984.70
472.04	13767.03
472.22	14143.86
472.40	13792.78
472.58	13642.98
472.77	14368.55
472.95	14377.91
473.13	14523.02
473.31	14209.39
473.49	14267.91
473.67	14295.99
473.85	14471.53
474.03	14801.55
474.21	14745.38
474.39	14761.76
474.57	14682.18
474.75	15112.84
474.93	15040.28
475.12	14925.60
475.30	15164.33
475.48	15091.77
475.66	15239.23
475.84	15080.07
476.02	15330.51
476.20	15260.29
476.38	15719.04
476.56	16109.91
476.74	16376.73
476.92	16224.59
477.10	15920.32
477.28	16276.09
477.46	16161.40
477.64	16510.14
477.82	16430.56
478.00	17156.13
478.18	16879.94
478.36	16723.13
478.54	17163.15
478.72	17111.66
478.90	17710.83
479.08	17853.61
479.26	17970.63
479.44	17893.40
479.62	18040.85
479.80	18190.64
479.98	18384.91
480.16	18871.74
480.34	18513.64
480.52	19042.60
480.70	18518.32
480.88	18721.95
481.06	18424.70
481.24	18827.27
481.41	19185.37
481.59	19295.38
481.77	19470.92
481.95	19747.10
482.13	19700.29
482.31	19932.00
482.49	20489.05
482.67	20491.39
482.85	21032.05
483.03	20505.43
483.21	21053.12
483.39	20980.56
483.57	21132.70
483.74	21193.55
483.92	21617.19
484.10	21462.71
484.28	21598.46
484.46	22181.26
484.64	22621.28
484.82	22436.38
485.00	22391.91
485.18	22841.29
485.35	23232.16
485.53	23147.90
485.71	23136.20
485.89	23843.04
486.07	23667.50
486.25	23541.11
486.43	24154.33
486.61	23946.02
486.78	24498.39
486.96	24332.21
487.14	24959.47
487.32	24629.46
487.50	24790.95
487.68	25289.49
487.85	25783.34
488.03	25504.82
488.21	25930.80
488.39	26036.12
488.57	26246.77
488.75	26497.20
488.92	26677.43
489.10	27243.84
489.28	27030.85
489.46	27599.60
489.64	27082.34
489.81	27798.54
489.99	27910.89
490.17	27887.48
490.35	28711.35
490.53	28603.69
490.70	28531.13
490.88	28683.27
491.06	29249.67
491.24	29104.56
491.41	29359.68
491.59	29083.50
491.77	29560.97
491.95	29710.76
492.13	29862.90
492.30	29942.47
492.48	30202.27
492.66	30658.68
492.84	30548.67
493.01	30738.26
493.19	30672.72
493.37	31044.87
493.54	31527.02
493.72	31592.55
493.90	31651.06
494.08	32343.86
494.25	32236.20
494.43	32561.53
494.61	32547.49
494.79	32507.70
494.96	32535.79
495.14	32851.76
495.32	33612.43
495.49	33457.96
495.67	33453.28
495.85	33851.17
496.02	33797.34
496.20	34590.78
496.38	34656.31
496.55	34646.95
496.73	35482.52
496.91	34778.02
497.09	34965.26
497.26	35065.91
497.44	35215.70
497.62	35288.26
497.79	36322.77
497.97	35803.17
498.14	36460.87
498.32	36463.21
498.50	36308.73
498.67	37001.53
498.85	36821.31
499.03	37029.62
499.20	37535.17
499.38	37186.43
499.56	37759.86
499.73	37816.04
499.91	37504.74
500.08	37570.28
500.26	38005.62
500.44	38181.16
500.61	37928.38
500.79	38204.56
500.97	38216.27
501.14	39077.58
501.32	39208.65
501.49	38780.34
501.67	39196.95
501.84	39854.64
502.02	39218.02
502.20	39236.74
502.37	39519.95
502.55	39482.50
502.72	39990.39
502.90	40203.38
503.07	39725.91
503.25	39927.20
503.43	39959.97
503.60	39983.37
503.78	40430.41
503.95	40655.11
504.13	40954.69
504.30	40875.12
504.48	40835.33
504.65	41155.98
504.83	41064.70
505.01	41511.74
505.18	41406.42
505.36	41904.95
505.53	41874.52
505.71	42419.87
505.88	41752.82
506.06	41731.75
506.23	42569.66
506.41	42302.84
506.58	42192.84
506.76	42609.45
506.93	42930.11
507.11	42443.27
507.28	42918.40
507.46	42789.67
507.63	43400.55
507.81	43320.98
507.98	43445.02
508.16	43779.72
508.33	43739.93
508.50	43763.34
508.68	43756.32
508.85	44341.45
509.03	44053.56
509.20	44332.09
509.38	44744.02
509.55	45010.84
509.73	44903.18
509.90	44603.59
510.08	44800.19
510.25	44793.17
510.42	44870.41
510.60	45504.70
510.77	45378.31
510.95	45909.61
511.12	45558.53
511.30	45710.66
511.47	45989.19
511.64	46330.90
511.82	46078.13
511.99	45825.35
512.17	46106.21
512.34	46263.03
512.51	46555.60
512.69	46469.00
512.86	46356.65
513.04	46728.80
513.21	46810.71
513.38	47098.60
513.56	47136.05
513.73	46960.51
513.90	47784.38
514.08	47370.10
514.25	47896.72
514.43	47800.76
514.60	47576.07
514.77	47901.40
514.95	47592.45
515.12	47938.85
515.29	47962.26
515.47	48027.79
515.64	48669.10
515.81	48222.06
515.99	48666.76
516.16	48725.27
516.33	48435.05
516.51	49303.38
516.68	48772.08
516.85	48467.81
517.03	49272.96
517.20	49399.35
517.37	49240.19
517.54	49308.07
517.72	49401.69
517.89	49432.11
518.06	49226.15
518.24	49499.99
518.41	49897.88
518.58	49794.90
518.75	49724.68
518.93	49748.09
519.10	49797.24
519.27	49858.09
519.45	50199.81
519.62	50602.38
519.79	50461.95
519.96	49797.24
520.14	50597.70
520.31	50431.52
520.48	50810.69
520.65	50340.24
520.83	50639.83
521.00	51187.52
521.17	50681.96
521.34	51110.28
521.52	51131.34
521.69	51381.78
521.86	51433.27
522.03	51262.41
522.20	51800.74
522.38	51554.98
522.55	51629.88
522.72	51810.10
522.89	51505.83
523.07	51985.64
523.24	52032.45
523.41	52287.57
523.58	51625.20
523.75	52254.80
523.92	52119.05
524.10	52243.10
524.27	52402.25
524.44	52561.41
524.61	52435.02
524.78	52301.61
524.96	52596.52
525.13	52617.58
525.30	52900.79
525.47	53027.18
525.64	52779.08
525.81	52868.02
525.98	53319.74
526.16	52851.64
526.33	52959.30
526.50	53249.53
526.67	53148.88
526.84	53272.93
527.01	52853.98
527.18	53270.59
527.36	53090.37
527.53	53303.36
527.70	53759.76
527.87	53722.32
528.04	53392.30
528.21	53579.54
528.38	53563.16
528.55	53593.59
528.72	53591.25
528.89	53724.66
529.07	53731.68
529.24	53628.69
529.41	53876.79
529.58	54302.77
529.75	54000.84
529.92	53860.41
530.09	53951.69
530.26	54073.40
530.43	54293.41
530.60	54134.25
530.77	53907.22
530.94	54394.05
531.11	54450.22
531.28	54162.34
531.46	54485.33
531.63	54541.50
531.80	54550.87
531.97	54813.01
532.14	54644.49
532.31	54593.00
532.48	54871.52
532.65	54988.55
532.82	54789.60
532.99	55049.40
533.16	54845.77
533.33	55058.76
533.50	55208.56
533.67	55119.62
533.84	54948.76
534.01	55283.45
534.18	55143.02
534.35	55550.27
534.52	55370.05
534.69	55482.40
534.86	55578.36
535.03	55304.52
535.20	55517.51
535.37	55597.09
535.54	55473.04
535.71	55625.17
535.88	55697.73
536.05	55877.95
536.22	55826.46
536.38	55936.46
536.55	55812.41
536.72	55763.26
536.89	55774.97
537.06	55976.25
537.23	55742.20
537.40	55704.75
537.57	55973.91
537.74	56030.08
537.91	56292.22
538.08	56296.91
538.25	55952.85
538.42	56324.99
538.59	56498.19
538.75	56196.26
538.92	56271.16
539.09	56451.38
539.26	56343.72
539.43	56282.86
539.60	56324.99
539.77	56470.11
539.94	56729.90
540.11	56500.53
540.28	56633.94
540.44	56629.26
540.61	56594.15
540.78	56643.30
540.95	56736.93
541.12	56811.82
541.29	56596.49
541.46	56811.82
541.62	56865.66
541.79	56931.19
541.96	56666.71
542.13	56687.78
542.30	56910.13
542.47	57195.67
542.63	56900.76
542.80	57090.35
542.97	57104.39
543.14	57462.49
543.31	57570.16
543.48	57413.34
543.64	57525.69
543.81	57427.38
543.98	57731.65
544.15	57612.29
544.32	57832.30
544.48	57755.06
544.65	57525.69
544.82	57771.44
544.99	57535.05
545.16	57588.88
545.32	57605.26
545.49	57956.35
545.66	57986.77
545.83	57918.90
546.00	57893.15
546.16	57797.19
546.33	57874.43
546.50	57841.66
546.67	57954.00
546.83	57883.79
547.00	57909.53
547.17	58085.07
547.34	57808.89
547.50	58251.25
547.67	58286.36
547.84	58078.05
548.00	58543.82
548.17	58585.95
548.34	58387.00
548.51	58562.54
548.67	58595.31
548.84	58286.36
549.01	58590.63
549.18	58475.94
549.34	58370.62
549.51	58440.84
549.68	58466.58
549.84	58623.40
550.01	58607.01
550.18	58534.46
550.34	58756.81
550.51	58585.95
550.68	58695.95
550.84	58614.04
551.01	58885.54
551.18	58812.98
551.34	58768.51
551.51	58770.85
551.68	58897.24
551.84	58588.29
552.01	58571.91
552.18	58948.73
552.34	58756.81
552.51	58969.80
552.68	58824.68
552.84	58983.84
553.01	59037.67
553.18	59025.97
553.34	59133.63
553.51	59030.65
553.67	58906.60
553.84	59004.91
554.01	58997.88
554.17	59124.27
554.34	59121.93
554.51	59264.70
554.67	59372.37
554.84	59182.79
555.00	59241.30
555.17	59269.39
555.33	59292.79
555.50	59117.25
555.67	59255.34
555.83	59061.08
556.00	59334.92
556.16	59622.81
556.33	59522.16
556.50	59629.83
556.66	59636.85
556.83	59405.14
556.99	59608.76
557.16	59545.57
557.32	59650.89
557.49	59880.27
557.65	59465.99
557.82	59721.11
557.98	59381.73
558.15	59512.80
558.32	59917.71
558.48	59683.66
558.65	59704.73
558.81	59784.30
558.98	59707.07
559.14	59798.35
559.31	59980.91
559.47	59749.20
559.64	59901.33
559.80	59938.78
559.97	60151.77
560.13	59791.33
560.30	59646.21
560.46	59896.65
560.63	59819.41
560.79	59814.73
560.96	60140.07
561.12	59924.74
561.29	59966.87
561.45	60210.28
561.61	59948.14
561.78	60044.10
561.94	59852.18
562.11	59999.63
562.27	60210.28
562.44	59983.25
562.60	60324.97
562.77	60324.97
562.93	60001.97
563.10	60264.11
563.26	60210.28
563.42	60308.58
563.59	60163.47
563.75	60231.35
563.92	60341.35
564.08	59938.78
564.24	60479.44
564.41	60495.83
564.57	60371.78
564.74	60437.31
564.90	60289.86
565.07	60317.95
565.23	60315.61
565.39	60460.72
565.56	60418.59
565.72	60233.69
565.88	60465.40
566.05	60434.97
566.21	60350.71
566.38	60589.45
566.54	60413.91
566.70	60411.57
566.87	60685.41
567.03	60463.06
567.19	60718.18
567.36	60467.74
567.52	60589.45
567.68	60713.50
567.85	60622.22
568.01	60544.98
568.17	60678.39
568.34	60638.60
568.50	60404.55
568.66	60477.10
568.83	60549.66
568.99	60540.30
569.15	60552.00
569.32	60643.28
569.48	60493.49
569.64	60762.65
569.81	60823.50
569.97	60537.96
570.13	60662.00
570.30	60640.94
570.46	60619.88
570.62	60704.13
570.78	60561.36
570.95	60552.00
571.11	60970.96
571.27	60818.82
571.43	60720.52
571.60	60999.04
571.76	60725.20
571.92	60886.70
572.09	60842.23
572.25	60940.53
572.41	60662.00
572.57	60842.23
572.74	61120.75
572.90	60720.52
573.06	60816.48
573.22	60928.83
573.38	60849.25
573.55	60776.69
573.71	61111.39
573.87	60886.70
574.03	60692.43
574.20	60837.54
574.36	60736.90
574.52	60996.70
574.68	61080.96
574.84	60921.80
575.01	60963.93
575.17	60942.87
575.33	60966.27
575.49	60977.98
575.65	60968.61
575.82	61017.77
575.98	60793.07
576.14	61087.98
576.30	61029.47
576.46	61017.77
576.62	60910.10
576.79	60783.71
576.95	60734.56
577.11	60968.61
577.27	61034.15
577.43	61020.11
577.59	61116.07
577.75	60863.29
577.92	60851.59
578.08	61076.28
578.24	61240.12
578.40	61085.64
578.56	61169.90
578.72	61015.43
578.88	60928.83
579.04	61455.45
579.21	60977.98
579.37	61141.81
579.53	61315.01
579.69	61132.45
579.85	61066.92
580.01	61104.37
580.17	60980.32
580.33	61228.41
580.49	61270.54
580.65	61125.43
580.82	61031.81
580.98	60977.98
581.14	61006.06
581.30	61197.99
581.46	61162.88
581.62	61247.14
581.78	60914.78
581.94	61200.33
582.10	60999.04
582.26	61151.18
582.42	61102.03
582.58	61095.00
582.74	61146.50
582.90	61048.19
583.06	61263.52
583.22	61006.06
583.38	60987.34
583.54	61312.67
583.70	61064.58
583.86	61352.46
584.02	61141.81
584.18	61284.59
584.34	60982.66
584.50	61200.33
584.66	61099.68
584.82	60917.12
584.98	61270.54
585.14	61242.46
585.30	61104.37
585.46	61249.48
585.62	61197.99
585.78	61504.60
585.94	61099.68
586.10	61221.39
586.26	61293.95
586.42	61251.82
586.58	61120.75
586.74	61366.51
586.90	60996.70
587.06	61146.50
587.22	61293.95
587.38	61319.70
587.54	61219.05
587.70	61495.24
587.86	61373.53
588.02	61244.80
588.18	61385.23
588.34	61284.59
588.49	61214.37
