SpectraSuite Data File
++++++++++++++++++++++++++++++++++++
Date: Fri Oct 25 11:25:28 EDT 2013
User: price-jones
Dark Spectrum Present: No
Reference Spectrum Present: No
Number of Sampled Component Spectra: 1
Spectrometers: USB2+H05261
Integration Time (usec): 100000 (USB2+H05261)
Spectra Averaged: 1 (USB2+H05261)
Boxcar Smoothing: 0 (USB2+H05261)
Correct for Electrical Dark: No (USB2+H05261)
Strobe/Lamp Enabled: No (USB2+H05261)
Correct for Detector Non-linearity: No (USB2+H05261)
Correct for Stray Light: No (USB2+H05261)
Number of Pixels in Processed Spectrum: 2048
>>>>>Begin Processed Spectral Data<<<<<
365.73	266.82
365.92	266.82
366.12	266.82
366.32	196.60
366.52	191.92
366.72	154.48
366.91	161.50
367.11	119.37
367.31	95.96
367.51	147.45
367.70	145.11
367.90	117.03
368.10	44.47
368.30	135.75
368.49	161.50
368.69	198.95
368.89	170.86
369.09	142.77
369.28	166.18
369.48	161.50
369.68	215.33
369.87	245.76
370.07	184.90
370.27	196.60
370.47	318.31
370.66	587.47
370.86	573.43
371.06	634.29
371.25	711.52
371.45	676.41
371.65	650.67
371.84	688.12
372.04	645.99
372.24	746.63
372.44	758.33
372.63	699.82
372.83	709.18
373.03	734.93
373.22	706.84
373.42	823.87
373.62	863.66
373.81	763.01
374.01	819.19
374.21	830.89
374.40	737.27
374.60	861.32
374.79	793.44
374.99	873.02
375.19	936.21
375.38	854.30
375.58	751.31
375.78	861.32
375.97	809.83
376.17	889.40
376.37	912.81
376.56	819.19
376.76	884.72
376.95	887.06
377.15	835.57
377.35	938.55
377.54	910.47
377.74	887.06
377.93	938.55
378.13	971.32
378.33	922.17
378.52	959.62
378.72	891.74
378.91	985.37
379.11	880.04
379.31	835.57
379.50	959.62
379.70	1018.13
379.89	1001.75
380.09	999.41
380.28	1071.97
380.48	1053.24
380.68	926.85
380.87	957.28
381.07	1029.84
381.26	973.66
381.46	1025.15
381.65	1060.26
381.85	976.00
382.04	1006.43
382.24	994.73
382.43	990.05
382.63	1025.15
382.83	1114.10
383.02	1062.60
383.22	1156.22
383.41	1053.24
383.61	1121.12
383.80	1121.12
384.00	1146.86
384.19	1088.35
384.39	1217.08
384.58	1205.38
384.78	1172.61
384.97	1123.46
385.17	1158.57
385.36	1137.50
385.56	1177.29
385.75	1130.48
385.95	1205.38
386.14	1193.67
386.34	1231.12
386.53	1259.21
386.72	1137.50
386.92	1210.06
387.11	1266.23
387.31	1263.89
387.50	1210.06
387.70	1303.68
387.89	1320.06
388.09	1196.01
388.28	1327.08
388.48	1345.81
388.67	1345.81
388.86	1320.06
389.06	1254.53
389.25	1352.83
389.45	1263.89
389.64	1303.68
389.84	1338.79
390.03	1336.45
390.22	1392.62
390.42	1380.92
390.61	1378.58
390.81	1355.17
391.00	1341.13
391.19	1448.79
391.39	1476.88
391.58	1401.98
391.78	1535.39
391.97	1451.13
392.16	1465.18
392.36	1624.33
392.55	1537.73
392.75	1446.45
392.94	1495.60
393.13	1570.50
393.33	1451.13
393.52	1537.73
393.71	1621.99
393.91	1619.65
394.10	1643.06
394.29	1638.38
394.49	1558.80
394.68	1579.86
394.88	1600.93
395.07	1650.08
395.26	1675.82
395.46	1626.67
395.65	1750.72
395.84	1748.38
396.04	1722.63
396.23	1664.12
396.42	1706.25
396.62	1753.06
396.81	1816.26
397.00	1790.51
397.19	1858.39
397.39	1792.85
397.58	1767.10
397.77	1739.02
397.97	1907.54
398.16	1919.24
398.35	1907.54
398.55	1769.44
398.74	1858.39
398.93	1898.17
399.12	1874.77
399.32	1902.86
399.51	1980.09
399.70	2040.95
399.90	2008.18
400.09	1996.48
400.28	2064.35
400.47	1973.07
400.67	2113.50
400.86	2251.60
401.05	2008.18
401.24	2214.15
401.44	2078.40
401.63	2136.91
401.82	2129.89
402.01	2122.87
402.21	2097.12
402.40	2204.78
402.59	2186.06
402.78	2122.87
402.97	2237.55
403.17	2183.72
403.36	2298.41
403.55	2298.41
403.74	2338.20
403.93	2251.60
404.13	2340.54
404.32	2373.30
404.51	2373.30
404.70	2335.85
404.89	2377.98
405.09	2387.35
405.28	2410.75
405.47	2499.69
405.66	2537.14
405.85	2572.25
406.05	2544.16
406.24	2544.16
406.43	2579.27
406.62	2656.51
406.81	2647.15
407.00	2616.72
407.20	2509.05
407.39	2623.74
407.58	2679.91
407.77	2693.96
407.96	2787.58
408.15	2764.17
408.34	2745.45
408.54	2691.62
408.73	2813.32
408.92	2818.00
409.11	2789.92
409.30	2841.41
409.49	2789.92
409.68	2862.48
409.87	2944.39
410.07	3023.97
410.26	3080.14
410.45	2920.99
410.64	3049.72
410.83	3157.38
411.02	3155.04
411.21	3197.17
411.40	3073.12
411.59	3101.21
411.78	3297.81
411.98	3033.33
412.17	3255.69
412.36	3201.85
412.55	3267.39
412.74	3330.58
412.93	3447.61
413.12	3276.75
413.31	3478.04
413.50	3492.08
413.69	3407.82
413.88	3466.33
414.07	3630.17
414.26	3674.64
414.45	3627.83
414.64	3669.96
414.83	3751.88
415.02	3791.67
415.22	3786.99
415.41	3812.73
415.60	3779.97
415.79	3922.74
415.98	4025.72
416.17	3990.61
416.36	3929.76
416.55	3978.91
416.74	4077.21
416.93	3957.85
417.12	4004.66
417.31	4243.39
417.50	4126.36
417.69	4252.75
417.88	4271.48
418.07	4266.80
418.26	4252.75
418.45	4210.62
418.64	4456.38
418.83	4360.42
419.02	4461.06
419.21	4428.29
419.39	4489.15
419.58	4376.80
419.77	4358.08
419.96	4519.57
420.15	4699.80
420.34	4610.86
420.53	4498.51
420.72	4571.07
420.91	4720.86
421.10	4767.67
421.29	4758.31
421.48	4634.26
421.67	4662.35
421.86	4594.47
422.05	4760.65
422.24	4667.03
422.43	4802.78
422.61	4711.50
422.80	4884.70
422.99	4760.65
423.18	4957.25
423.37	5163.22
423.56	4798.10
423.75	4837.89
423.94	4793.42
424.13	4503.19
424.32	4685.75
424.50	4964.28
424.69	5090.67
424.88	4870.65
425.07	4896.40
425.26	4961.94
425.45	4905.76
425.64	4854.27
425.83	4861.29
426.01	5088.32
426.20	5107.05
426.39	5048.54
426.58	5130.45
426.77	4957.25
426.96	5132.79
427.15	4971.30
427.33	5132.79
427.52	5107.05
427.71	5177.26
427.90	5137.48
428.09	5493.24
428.28	5254.50
428.46	5345.78
428.65	5345.78
428.84	5411.32
429.03	5535.37
429.22	5359.83
429.40	5441.75
429.59	5341.10
429.78	5385.57
429.97	5151.52
430.16	5390.25
430.34	5554.09
430.53	5652.39
430.72	5636.01
430.91	5624.31
431.10	5568.13
431.28	5689.84
431.47	5844.32
431.66	5666.44
431.85	5659.42
432.03	5769.42
432.22	6022.20
432.41	5841.98
432.60	5968.37
432.79	5956.66
432.97	5792.83
433.16	5968.37
433.35	5724.95
433.54	6019.86
433.72	5942.62
433.91	5877.09
434.10	6094.76
434.28	6008.16
434.47	6338.17
434.66	6267.95
434.85	6193.06
435.03	6286.68
435.22	6258.59
435.41	6511.37
435.59	6415.41
435.78	6232.85
435.97	6410.73
436.16	6370.94
436.34	6490.31
436.53	6485.62
436.72	6593.29
436.90	6487.96
437.09	6764.15
437.28	6413.07
437.46	6466.90
437.65	6530.09
437.84	6785.21
438.02	6642.44
438.21	6733.72
438.40	6399.02
438.58	7014.59
438.77	6979.48
438.96	6963.09
439.14	7126.93
439.33	7049.69
439.52	7080.12
439.70	7253.32
439.89	7391.41
440.08	7126.93
440.26	7349.28
440.45	7346.94
440.63	7297.79
440.82	7470.99
441.01	7295.45
441.19	7428.86
441.38	7803.35
441.57	7625.47
441.75	7756.54
441.94	8063.15
442.12	7747.17
442.31	7903.99
442.50	8093.57
442.68	7896.97
442.87	8028.04
443.05	8016.33
443.24	8224.64
443.43	8070.17
443.61	8210.60
443.80	8465.72
443.98	7960.16
444.17	7658.23
444.35	8294.86
444.54	8334.65
444.73	8313.58
444.91	8238.69
445.10	8278.47
445.28	8138.04
445.47	8294.86
445.65	8360.39
445.84	8414.23
446.02	8585.08
446.21	8367.42
446.39	8229.32
446.58	8351.03
446.77	8393.16
446.95	8161.45
447.14	8329.97
447.32	8409.54
447.51	8236.35
447.69	8418.91
447.88	8571.04
448.06	8418.91
448.25	8241.03
448.43	8500.83
448.62	8444.65
448.80	8510.19
448.99	8674.03
449.17	8709.13
449.36	8582.74
449.54	8631.90
449.73	8709.13
449.91	9060.21
450.10	8964.25
450.28	9062.55
450.46	9043.83
450.65	8835.52
450.83	8931.48
451.02	9170.22
451.20	9139.79
451.39	9116.39
451.57	8978.30
451.76	9067.24
451.94	9221.71
452.13	9128.09
452.31	9320.01
452.49	9097.66
452.68	9062.55
452.86	9247.46
453.05	9441.72
453.23	9430.02
453.42	9369.16
453.60	9156.18
453.78	9610.24
453.97	9355.12
454.15	9418.32
454.34	9530.66
454.52	9437.04
454.70	9504.92
454.89	9654.71
455.07	9694.50
455.26	9788.12
455.44	9949.62
455.62	9802.16
455.81	9933.23
455.99	10146.22
456.17	9626.62
456.36	9966.00
456.54	10132.18
456.73	10267.93
456.91	10375.59
457.09	10415.38
457.28	10509.01
457.46	10094.73
457.64	10506.66
457.83	10469.22
458.01	10544.11
458.19	10616.67
458.38	10417.72
458.56	10684.55
458.74	10654.12
458.93	10705.61
459.11	10656.46
459.29	10824.98
459.48	10539.43
459.66	10705.61
459.84	10775.83
460.03	11028.60
460.21	10768.80
460.39	10724.33
460.57	11030.94
460.76	11026.26
460.94	11026.26
461.12	11225.21
461.31	10972.43
461.49	11084.78
461.67	11246.27
461.85	11288.40
462.04	11124.57
462.22	11758.85
462.40	11583.31
462.59	11454.58
462.77	11386.71
462.95	11569.27
463.13	11576.29
463.32	11620.76
463.50	11559.91
463.68	11796.30
463.86	11702.68
464.05	11492.03
464.23	11667.57
464.41	11751.83
464.59	11562.25
464.78	12039.72
464.96	11950.78
465.14	11695.66
465.32	11784.60
465.50	12074.82
465.69	12074.82
465.87	11871.20
466.05	11932.05
466.23	11936.73
466.41	12072.48
466.60	12215.26
466.78	12053.76
466.96	12313.56
467.14	11967.16
467.32	12262.07
467.51	12486.76
467.69	12131.00
467.87	12243.34
468.05	12451.65
468.23	12257.39
468.41	12308.88
468.60	12580.38
468.78	12720.81
468.96	12638.89
469.14	12844.86
469.32	12987.63
469.50	12458.67
469.69	12674.00
469.87	12915.08
470.05	12947.84
470.23	12929.12
470.41	13186.58
470.59	13205.30
470.77	13022.74
470.95	13252.11
471.14	13614.90
471.32	13022.74
471.50	13603.19
471.68	13570.43
471.86	13788.10
472.04	13495.53
472.22	13898.10
472.40	13659.37
472.58	13678.09
472.77	13881.72
472.95	14108.75
473.13	14420.04
473.31	13645.32
473.49	14024.49
473.67	13954.27
473.85	14274.93
474.03	14384.93
474.21	14553.45
474.39	14494.94
474.57	14335.78
474.75	14569.83
474.93	14850.70
475.12	15005.17
475.30	14654.09
475.48	14874.10
475.66	15122.20
475.84	14977.09
476.02	15082.41
476.20	15260.29
476.38	15475.62
476.56	15957.77
476.74	15892.24
476.92	15583.29
477.10	15630.10
477.28	15995.22
477.46	15939.05
477.64	16285.45
477.82	16582.70
478.00	16695.04
478.18	16451.63
478.36	16739.51
478.54	17029.74
478.72	16952.50
478.90	16971.22
479.08	17432.31
479.26	17680.41
479.44	17614.87
479.62	17767.01
479.80	17984.68
479.98	18073.62
480.16	18490.23
480.34	18068.94
480.52	18764.07
480.70	18246.82
480.88	17942.55
481.06	18567.47
481.24	18867.06
481.41	18927.91
481.59	19047.28
481.77	19286.01
481.95	19449.85
482.13	19587.94
482.31	19569.22
482.49	19976.47
482.67	19917.96
482.85	20231.59
483.03	20402.45
483.21	20425.86
483.39	20774.60
483.57	20620.12
483.74	20903.32
483.92	21474.42
484.10	20924.39
484.28	21546.97
484.46	21783.37
484.64	22263.18
484.82	21949.54
485.00	22270.20
485.18	22642.34
485.35	22995.76
485.53	22644.68
485.71	23042.57
485.89	23510.68
486.07	23278.97
486.25	23201.73
486.43	23709.63
486.61	23335.14
486.78	23641.75
486.96	24072.41
487.14	24725.42
487.32	24357.96
487.50	24503.07
487.68	24961.81
487.85	24900.96
488.03	25504.82
488.21	25560.99
488.39	25619.50
488.57	25788.02
488.75	26054.84
488.92	26094.63
489.10	26698.49
489.28	26817.86
489.46	26752.32
489.64	27040.21
489.81	27367.88
489.99	27335.12
490.17	27503.64
490.35	27955.36
490.53	27896.85
490.70	28453.89
490.88	28107.49
491.06	28720.71
491.24	28456.23
491.41	28706.67
491.59	29050.73
491.77	29366.70
491.95	29504.79
492.13	29668.63
492.30	29663.95
492.48	29879.28
492.66	30000.99
492.84	30405.90
493.01	30277.17
493.19	30251.42
493.37	30595.48
493.54	30691.44
493.72	31402.97
493.90	31321.05
494.08	31285.94
494.25	31718.94
494.43	31899.16
494.61	31770.43
494.79	32362.59
494.96	31857.03
495.14	32552.17
495.32	32940.70
495.49	32940.70
495.67	33048.36
495.85	33081.13
496.02	33614.77
496.20	33804.36
496.38	33804.36
496.55	33720.10
496.73	34504.18
496.91	34075.86
497.09	34094.58
497.26	34572.05
497.44	34522.90
497.62	35243.79
497.79	35894.46
497.97	35255.49
498.14	35627.63
498.32	35880.41
498.50	36006.80
498.67	36491.29
498.85	35880.41
499.03	36395.33
499.20	36456.18
499.38	36495.97
499.56	36954.72
499.73	36898.55
499.91	36919.61
500.08	37404.10
500.26	37165.37
500.44	37376.01
500.61	37834.76
500.79	36774.50
500.97	37659.22
501.14	38370.74
501.32	38078.18
501.49	38075.84
501.67	38553.30
501.84	38356.70
502.02	38649.27
502.20	38494.79
502.37	38768.63
502.55	39187.59
502.72	38944.17
502.90	39103.33
503.07	39079.92
503.25	39531.65
503.43	39482.50
503.60	39629.95
503.78	39962.31
503.95	40030.18
504.13	40437.44
504.30	40512.33
504.48	39983.37
504.65	40697.24
504.83	40989.80
505.01	40919.59
505.18	41139.60
505.36	41265.99
505.53	40861.07
505.71	41104.49
505.88	41734.09
506.06	41401.74
506.23	41661.54
506.41	41617.07
506.58	41689.62
506.76	41727.07
506.93	42139.00
507.11	42309.86
507.28	42113.26
507.46	42368.38
507.63	42199.86
507.81	42958.19
507.98	42574.34
508.16	43115.01
508.33	42717.12
508.50	43079.90
508.68	42965.21
508.85	43742.27
509.03	43470.77
509.20	43763.34
509.38	43988.03
509.55	43793.76
509.73	44268.89
509.90	44460.82
510.08	44252.51
510.25	44306.34
510.42	44570.82
510.60	44737.00
510.77	45130.21
510.95	45212.13
511.12	45195.74
511.30	44804.88
511.47	44554.44
511.64	45240.21
511.82	45801.94
511.99	45577.25
512.17	45532.78
512.34	45670.87
512.51	46291.12
512.69	46092.17
512.86	46106.21
513.04	46644.54
513.21	46218.56
513.38	46485.38
513.56	46735.82
513.73	46803.69
513.90	46794.33
514.08	46836.46
514.25	46756.88
514.43	46782.63
514.60	47054.13
514.77	47107.96
514.95	47660.33
515.12	46960.51
515.29	47068.17
515.47	47538.62
515.64	47632.24
515.81	47569.05
515.99	47868.64
516.16	47985.66
516.33	48055.88
516.51	48439.73
516.68	48186.95
516.85	48069.92
517.03	48734.63
517.20	48793.15
517.37	48706.55
517.54	48652.72
517.72	48821.23
517.89	48725.27
518.06	48629.31
518.24	48727.61
518.41	48666.76
518.58	49109.12
518.75	48755.70
518.93	49474.24
519.10	49083.37
519.27	50129.59
519.45	49485.95
519.62	49769.15
519.79	50057.04
519.96	49518.71
520.14	49968.10
520.31	49909.58
520.48	49860.43
520.65	49790.22
520.83	50188.11
521.00	50520.46
521.17	50209.17
521.34	50773.24
521.52	50522.80
521.69	50494.72
521.86	51035.38
522.03	50876.22
522.20	51110.28
522.38	51002.61
522.55	50883.25
522.72	51033.04
522.89	50988.57
523.07	51166.45
523.24	51332.63
523.41	51604.13
523.58	50995.59
523.75	51510.51
523.92	51597.11
524.10	51522.21
524.27	52097.98
524.44	51772.65
524.61	51622.86
524.78	51807.76
524.96	51913.08
525.13	52053.51
525.30	52135.43
525.47	52198.63
525.64	51847.55
525.81	52313.31
525.98	52453.75
526.16	52479.49
526.33	52533.32
526.50	52495.88
526.67	52285.23
526.84	52575.45
527.01	52748.65
527.18	52362.46
527.36	52662.05
527.53	52530.98
527.70	53230.80
527.87	53212.08
528.04	52905.47
528.21	53160.59
528.38	53322.08
528.55	53013.13
528.72	53113.78
528.89	53207.40
529.07	52924.19
529.24	53214.42
529.41	53624.01
529.58	53312.72
529.75	53301.02
529.92	53616.99
530.09	53549.12
530.26	54157.66
530.43	53860.41
530.60	53794.87
530.77	53696.57
530.94	53888.49
531.11	53909.56
531.28	53923.60
531.46	53844.02
531.63	53932.96
531.80	53937.65
531.97	54176.38
532.14	54330.86
532.31	54232.55
532.48	54178.72
532.65	54433.84
532.82	54511.08
532.99	54277.02
533.16	54384.69
533.33	54497.03
533.50	54625.76
533.67	54721.72
533.84	54445.54
534.01	54688.96
534.18	54534.48
534.35	55178.13
534.52	54707.68
534.69	54958.12
534.86	55068.12
535.03	54873.86
535.20	55051.74
535.37	55360.69
535.54	55337.29
535.71	55131.32
535.88	55110.25
536.05	55374.73
536.22	55473.04
536.38	55552.62
536.55	55283.45
536.72	55564.32
536.89	55138.34
537.06	55440.27
537.23	55625.17
537.40	55339.63
537.57	55557.30
537.74	55643.90
537.91	55657.94
538.08	55969.23
538.25	55388.78
538.42	55819.44
538.59	55739.86
538.75	55487.08
538.92	55721.13
539.09	55737.52
539.26	55833.48
539.43	56046.47
539.60	56051.15
539.77	56123.71
539.94	56465.42
540.11	55915.40
540.28	56109.66
540.44	56172.86
540.61	56161.15
540.78	56324.99
540.95	56357.76
541.12	56151.79
541.29	56207.97
541.46	56395.21
541.62	56233.71
541.79	56505.21
541.96	56233.71
542.13	56313.29
542.30	56292.22
542.47	56652.67
542.63	56753.31
542.80	56732.25
542.97	56921.83
543.14	57181.63
543.31	56980.34
543.48	57034.17
543.64	57186.31
543.81	57268.23
543.98	57207.37
544.15	57183.97
544.32	57172.27
544.48	57329.08
544.65	57099.71
544.82	57176.95
544.99	56956.94
545.16	57556.11
545.32	57279.93
545.49	57474.20
545.66	57616.97
545.83	57212.06
546.00	57670.80
546.16	57513.98
546.33	57364.19
546.50	57333.76
546.67	57364.19
546.83	57195.67
547.00	57729.31
547.17	57408.66
547.34	57654.42
547.50	57743.36
547.67	57958.69
547.84	57848.68
548.00	58024.22
548.17	57935.28
548.34	57909.53
548.51	58061.67
548.67	57846.34
548.84	58052.31
549.01	57738.68
549.18	58024.22
549.34	57991.45
549.51	58155.29
549.68	58234.87
549.84	58143.59
550.01	58241.89
550.18	57923.58
550.34	58293.38
550.51	58468.92
550.68	58145.93
550.84	58082.73
551.01	58438.50
551.18	58246.57
551.34	58354.24
551.51	58227.85
551.68	58356.58
551.84	58272.32
552.01	58258.27
552.18	58417.43
552.34	58459.56
552.51	58611.70
552.68	58218.49
552.84	58543.82
553.01	58637.44
553.18	58777.87
553.34	58810.64
553.51	58471.26
553.67	58604.67
553.84	59037.67
554.01	58862.13
554.17	58768.51
554.34	58927.67
554.51	58960.44
554.67	59000.22
554.84	58695.95
555.00	58897.24
555.17	58646.80
555.33	58766.17
555.50	58827.02
555.67	58845.75
555.83	58885.54
556.00	59068.10
556.16	59309.18
556.33	59030.65
556.50	59077.46
556.66	59000.22
556.83	58876.18
556.99	59168.74
557.16	59304.49
557.32	59388.75
557.49	59346.62
557.65	59175.76
557.82	59180.45
557.98	59341.94
558.15	59243.64
558.32	59346.62
558.48	58969.80
558.65	59231.94
558.81	59473.01
558.98	59330.24
559.14	59337.26
559.31	59428.54
559.47	59547.91
559.64	59451.95
559.80	59526.84
559.97	59709.41
560.13	59482.37
560.30	59482.37
560.46	59374.71
560.63	59643.87
560.79	59643.87
560.96	59707.07
561.12	59662.60
561.29	59662.60
561.45	59786.64
561.61	59604.08
561.78	59714.09
561.94	59690.68
562.11	59779.62
562.27	59695.36
562.44	59805.37
562.60	59831.11
562.77	59849.84
562.93	59615.79
563.10	59915.37
563.26	59753.88
563.42	59980.91
563.59	59760.90
563.75	59964.52
563.92	60013.68
564.08	59840.48
564.24	59903.67
564.41	59955.16
564.57	59976.23
564.74	59924.74
564.90	59915.37
565.07	59770.26
565.23	60065.17
565.39	60058.15
565.56	60210.28
565.72	59924.74
565.88	60030.06
566.05	59920.05
566.21	60053.47
566.38	60048.78
566.54	60016.02
566.70	60212.62
566.87	60172.83
567.03	59931.76
567.19	60128.36
567.36	60086.23
567.52	60221.98
567.68	60308.58
567.85	60289.86
568.01	60214.96
568.17	60107.30
568.34	60418.59
568.50	60200.92
568.66	60058.15
568.83	60350.71
568.99	60086.23
569.15	60229.01
569.32	60111.98
569.48	60210.28
569.64	60250.07
569.81	60182.19
569.97	60289.86
570.13	60486.46
570.30	60051.12
570.46	60324.97
570.62	60376.46
570.78	60175.17
570.95	60217.30
571.11	60264.11
571.27	60226.66
571.43	60432.63
571.60	60453.70
571.76	60399.86
571.92	60467.74
572.09	60385.82
572.25	60486.46
572.41	60348.37
572.57	60252.41
572.74	60673.71
572.90	60427.95
573.06	60505.19
573.22	60502.85
573.38	60610.51
573.55	60626.90
573.71	60678.39
573.87	60432.63
574.03	60313.26
574.20	60463.06
574.36	60360.08
574.52	60697.11
574.68	60594.13
574.84	60654.98
575.01	60643.28
575.17	60523.91
575.33	60535.62
575.49	60491.15
575.65	60626.90
575.82	60647.96
575.98	60472.42
576.14	60945.21
576.30	60715.84
576.46	60645.62
576.62	60526.25
576.79	60870.31
576.95	60299.22
577.11	60631.58
577.27	60669.03
577.43	60631.58
577.59	60523.91
577.75	60463.06
577.92	60556.68
578.08	60610.51
578.24	60713.50
578.40	60828.18
578.56	60851.59
578.72	60615.19
578.88	60828.18
579.04	60924.14
579.21	60690.09
579.37	60818.82
579.53	60975.64
579.69	60519.23
579.85	60566.04
580.01	60767.33
580.17	60669.03
580.33	60739.24
580.49	60671.37
580.65	60877.33
580.82	60921.80
580.98	60781.37
581.14	60750.94
581.30	60874.99
581.46	60678.39
581.62	60757.97
581.78	60601.15
581.94	60643.28
582.10	60622.22
582.26	60795.42
582.42	60608.17
582.58	60732.22
582.74	60645.62
582.90	60896.06
583.06	60797.76
583.22	60463.06
583.38	61001.38
583.54	60790.73
583.70	60914.78
583.86	61017.77
584.02	60746.26
584.18	60821.16
584.34	60788.39
584.50	60715.84
584.66	60809.46
584.82	60507.53
584.98	61055.21
585.14	60884.36
585.30	60779.03
585.46	60783.71
585.62	60676.05
585.78	61010.74
585.94	60715.84
586.10	60764.99
586.26	60825.84
586.42	60772.01
586.58	61179.26
586.74	60945.21
586.90	60804.78
587.06	60889.04
587.22	60910.10
587.38	60928.83
587.54	60853.93
587.70	61137.13
587.86	60762.65
588.02	60884.36
588.18	60963.93
588.34	60975.64
588.49	60996.70
