SpectraSuite Data File
++++++++++++++++++++++++++++++++++++
Date: Fri Oct 25 10:43:38 EDT 2013
User: price-jones
Dark Spectrum Present: No
Reference Spectrum Present: No
Number of Sampled Component Spectra: 1
Spectrometers: USB2+H05261
Integration Time (usec): 100000 (USB2+H05261)
Spectra Averaged: 1 (USB2+H05261)
Boxcar Smoothing: 0 (USB2+H05261)
Correct for Electrical Dark: No (USB2+H05261)
Strobe/Lamp Enabled: No (USB2+H05261)
Correct for Detector Non-linearity: No (USB2+H05261)
Correct for Stray Light: No (USB2+H05261)
Number of Pixels in Processed Spectrum: 2048
>>>>>Begin Processed Spectral Data<<<<<
365.73	154.48
365.92	154.48
366.12	154.48
366.32	65.54
366.52	23.41
366.72	37.45
366.91	79.58
367.11	0.00
367.31	16.38
367.51	21.06
367.70	46.81
367.90	0.00
368.10	0.00
368.30	58.51
368.49	21.06
368.69	0.00
368.89	88.94
369.09	18.72
369.28	0.00
369.48	58.51
369.68	67.88
369.87	131.07
370.07	117.03
370.27	126.39
370.47	180.22
370.66	440.02
370.86	315.97
371.06	416.62
371.25	470.45
371.45	411.93
371.65	411.93
371.84	423.64
372.04	465.77
372.24	484.49
372.44	491.51
372.63	489.17
372.83	524.28
373.03	435.34
373.22	482.15
373.42	543.00
373.62	547.69
373.81	561.73
374.01	575.77
374.21	592.16
374.40	519.60
374.60	627.26
374.79	578.11
374.99	627.26
375.19	589.82
375.38	615.56
375.58	638.97
375.78	582.79
375.97	667.05
376.17	688.12
376.37	606.20
376.56	575.77
376.76	645.99
376.95	638.97
377.15	676.41
377.35	634.29
377.54	568.75
377.74	589.82
377.93	634.29
378.13	648.33
378.33	643.65
378.52	699.82
378.72	634.29
378.91	617.90
379.11	674.07
379.31	631.94
379.50	709.18
379.70	648.33
379.89	723.23
380.09	758.33
380.28	681.10
380.48	739.61
380.68	608.54
380.87	645.99
381.07	739.61
381.26	692.80
381.46	774.72
381.65	711.52
381.85	662.37
382.04	671.73
382.24	758.33
382.43	688.12
382.63	671.73
382.83	730.25
383.02	704.50
383.22	683.44
383.41	741.95
383.61	765.36
383.80	781.74
384.00	798.12
384.19	814.51
384.39	891.74
384.58	695.14
384.78	812.17
384.97	823.87
385.17	823.87
385.36	821.53
385.56	807.48
385.75	809.83
385.95	912.81
386.14	858.98
386.34	910.47
386.53	875.36
386.72	816.85
386.92	826.21
387.11	861.32
387.31	882.38
387.50	910.47
387.70	812.17
387.89	884.72
388.09	882.38
388.28	873.02
388.48	873.02
388.67	1001.75
388.86	896.43
389.06	973.66
389.25	1029.84
389.45	1032.18
389.64	945.58
389.84	1071.97
390.03	1027.50
390.22	1029.84
390.42	971.32
390.61	1069.62
390.81	1050.90
391.00	1062.60
391.19	1071.97
391.39	1022.81
391.58	1067.28
391.78	1100.05
391.97	1039.20
392.16	961.96
392.36	1050.90
392.55	992.39
392.75	1015.79
392.94	1015.79
393.13	1001.75
393.33	1043.88
393.52	1095.37
393.71	1123.46
393.91	1151.54
394.10	1191.33
394.29	1174.95
394.49	1128.14
394.68	1203.04
394.88	1203.04
395.07	1266.23
395.26	1263.89
395.46	1277.93
395.65	1282.61
395.84	1205.38
396.04	1238.14
396.23	1231.12
396.42	1198.35
396.62	1111.75
396.81	1198.35
397.00	1287.29
397.19	1291.98
397.39	1341.13
397.58	1437.09
397.77	1324.74
397.97	1455.81
398.16	1441.77
398.35	1535.39
398.55	1427.73
398.74	1526.03
398.93	1598.59
399.12	1504.96
399.32	1509.65
399.51	1483.90
399.70	1598.59
399.90	1586.88
400.09	1547.09
400.28	1689.87
400.47	1584.54
400.67	1612.63
400.86	1664.12
401.05	1614.97
401.24	1657.10
401.44	1823.28
401.63	1659.44
401.82	1734.34
402.01	1696.89
402.21	1858.39
402.40	1832.64
402.59	1727.32
402.78	1769.44
402.97	1755.40
403.17	1851.36
403.36	1916.90
403.55	1987.11
403.74	1949.67
403.93	2038.61
404.13	1823.28
404.32	1921.58
404.51	1788.17
404.70	2005.84
404.89	1935.62
405.09	2031.58
405.28	1994.14
405.47	1940.30
405.66	1980.09
405.85	2069.03
406.05	1928.60
406.24	2031.58
406.43	2040.95
406.62	2062.01
406.81	2300.75
407.00	2176.70
407.20	2017.54
407.39	2038.61
407.58	2228.19
407.77	2186.06
407.96	2176.70
408.15	2286.70
408.34	2363.94
408.54	2356.92
408.73	2354.58
408.92	2267.98
409.11	2246.91
409.30	2298.41
409.49	2246.91
409.68	2335.85
409.87	2188.40
410.07	2422.45
410.26	2443.52
410.45	2396.71
410.64	2473.95
410.83	2480.97
411.02	2499.69
411.21	2607.36
411.40	2651.83
411.59	2537.14
411.78	2583.95
411.98	2541.82
412.17	2775.88
412.36	2658.85
412.55	2815.66
412.74	2698.64
412.93	2705.66
413.12	2745.45
413.31	2925.67
413.50	2928.01
413.69	2911.63
413.88	3002.91
414.07	2862.48
414.26	3005.25
414.45	2925.67
414.64	3068.44
414.83	3101.21
415.02	3056.74
415.22	3176.11
415.41	3038.02
415.60	3103.55
415.79	3330.58
415.98	3272.07
416.17	3295.47
416.36	3293.13
416.55	3258.03
416.74	3183.13
416.93	3279.09
417.12	3258.03
417.31	3405.48
417.50	3353.99
417.69	3602.08
417.88	3410.16
418.07	3555.27
418.26	3386.76
418.45	3389.10
418.64	3637.19
418.83	3522.51
419.02	3517.83
419.21	3639.53
419.39	3536.55
419.58	3588.04
419.77	3592.72
419.96	3623.15
420.15	3796.35
420.34	3775.28
420.53	3733.15
420.72	4009.34
420.91	3936.78
421.10	3880.61
421.29	3941.46
421.48	3794.01
421.67	3852.52
421.86	3817.41
422.05	3934.44
422.24	3810.39
422.43	3840.82
422.61	3817.41
422.80	3847.84
422.99	4035.08
423.18	3854.86
423.37	3934.44
423.56	4067.85
423.75	3922.74
423.94	3971.89
424.13	3796.35
424.32	3810.39
424.50	3999.98
424.69	3985.93
424.88	4095.94
425.07	3747.20
425.26	3899.33
425.45	3887.63
425.64	4084.23
425.83	3904.01
426.01	4046.79
426.20	4016.36
426.39	4117.00
426.58	4018.70
426.77	4126.36
426.96	4030.40
427.15	4107.64
427.33	4112.32
427.52	4156.79
427.71	4210.62
427.90	4088.92
428.09	4198.92
428.28	4086.58
428.46	4318.29
428.65	4217.65
428.84	4250.41
429.03	4182.54
429.22	4184.88
429.40	4255.09
429.59	4117.00
429.78	4046.79
429.97	3969.55
430.16	4011.68
430.34	4121.68
430.53	4234.03
430.72	4224.67
430.91	4224.67
431.10	4409.57
431.28	4578.09
431.47	4760.65
431.66	4770.01
431.85	4498.51
432.03	4648.30
432.22	4800.44
432.41	4608.51
432.60	4795.76
432.79	4772.35
432.97	4915.12
433.16	4744.27
433.35	4685.75
433.54	4702.14
433.72	4664.69
433.91	4674.05
434.10	4734.90
434.28	4762.99
434.47	4887.04
434.66	4898.74
434.85	4908.10
435.03	5144.50
435.22	5069.60
435.41	5273.23
435.59	5238.12
435.78	5158.54
435.97	5144.50
436.16	5221.74
436.34	5121.09
436.53	5188.97
436.72	5280.25
436.90	5121.09
437.09	5165.56
437.28	5231.10
437.46	5322.38
437.65	5121.09
437.84	5387.91
438.02	5177.26
438.21	5298.97
438.40	5390.25
438.58	5322.38
438.77	5507.28
438.96	5547.07
439.14	5689.84
439.33	5575.16
439.52	5652.39
439.70	5614.95
439.89	5699.20
440.08	5640.69
440.26	5914.53
440.45	5879.43
440.63	5874.74
440.82	6186.04
441.01	5944.96
441.19	6040.92
441.38	6164.97
441.57	6242.21
441.75	6148.59
441.94	6478.60
442.12	6370.94
442.31	6506.69
442.50	6363.92
442.68	6394.34
442.87	6375.62
443.05	6502.01
443.24	6661.16
443.43	6441.15
443.61	6492.65
443.80	6555.84
443.98	6480.94
444.17	6436.47
444.35	6619.04
444.54	6504.35
444.73	6719.68
444.91	6569.88
445.10	6436.47
445.28	6368.60
445.47	6424.77
445.65	6588.61
445.84	6612.01
446.02	6761.81
446.21	6560.52
446.39	6588.61
446.58	6715.00
446.77	6813.30
446.95	6775.85
447.14	6815.64
447.32	6740.74
447.51	6953.73
447.69	6707.98
447.88	6707.98
448.06	6764.15
448.25	6785.21
448.43	6998.20
448.62	6881.18
448.80	6825.00
448.99	6937.35
449.17	7084.80
449.36	6920.96
449.54	7068.42
449.73	7040.33
449.91	7138.63
450.10	7314.17
450.28	7208.85
450.46	7297.79
450.65	7234.60
450.83	7201.83
451.02	7314.17
451.20	7325.88
451.39	7239.28
451.57	7255.66
451.76	7098.84
451.94	7286.09
452.13	7403.11
452.31	7314.17
452.49	7150.34
452.68	7145.66
452.86	7269.70
453.05	7328.22
453.23	7265.02
453.42	7447.58
453.60	7463.97
453.78	7662.91
453.97	7403.11
454.15	7529.50
454.34	7461.63
454.52	7515.46
454.70	7552.91
454.89	7606.74
455.07	7845.48
455.26	7676.96
455.44	7829.09
455.62	7728.45
455.81	7878.24
455.99	7985.91
456.17	7971.86
456.36	7976.55
456.54	7854.84
456.73	7899.31
456.91	8051.44
457.09	8116.98
457.28	8374.44
457.46	8086.55
457.64	8168.47
457.83	8135.70
458.01	8002.29
458.19	8194.22
458.38	8248.05
458.56	8262.09
458.74	8203.58
458.93	8290.18
459.11	8430.61
459.29	8264.43
459.48	8449.33
459.66	8425.93
459.84	8379.12
460.03	8610.83
460.21	8596.79
460.39	8678.71
460.57	8603.81
460.76	8451.67
460.94	8622.53
461.12	8540.61
461.31	8748.92
461.49	8702.11
461.67	8727.86
461.85	8947.87
462.04	8727.86
462.22	9460.45
462.40	8943.19
462.59	8912.76
462.77	9018.08
462.95	9186.60
463.13	8868.29
463.32	8760.63
463.50	9121.07
463.68	9057.87
463.86	9032.13
464.05	8887.01
464.23	8943.19
464.41	9142.13
464.59	8985.32
464.78	9252.14
464.96	9153.84
465.14	9053.19
465.32	9310.65
465.50	9551.73
465.69	9525.98
465.87	9256.82
466.05	9268.52
466.23	9441.72
466.41	9252.14
466.60	9364.48
466.78	9441.72
466.96	9376.19
467.14	9472.15
467.32	9525.98
467.51	9495.55
467.69	9308.31
467.87	9556.41
468.05	9551.73
468.23	9371.50
468.41	9582.15
468.60	9589.17
468.78	9804.50
468.96	9537.68
469.14	9909.83
469.32	9874.72
469.50	9638.33
469.69	9963.66
469.87	9987.07
470.05	10015.15
470.23	10012.81
470.41	9973.02
470.59	10040.90
470.77	9727.27
470.95	9771.74
471.14	10347.51
471.32	10291.34
471.50	10333.47
471.68	10408.36
471.86	10394.32
472.04	10483.26
472.22	10665.82
472.40	10361.55
472.58	10270.27
472.77	10588.58
472.95	10604.97
473.13	11098.82
473.31	10698.59
473.49	10607.31
473.67	10588.58
473.85	10836.68
474.03	11014.56
474.21	10970.09
474.39	11145.63
474.57	11323.51
474.75	11197.12
474.93	11255.64
475.12	11197.12
475.30	11279.04
475.48	11229.89
475.66	11480.33
475.84	11440.54
476.02	11613.74
476.20	11389.05
476.38	11735.45
476.56	11908.65
476.74	11875.88
476.92	11779.92
477.10	11690.98
477.28	12248.02
477.46	12453.99
477.64	12411.86
477.82	12465.69
478.00	12524.21
478.18	12697.41
478.36	12847.20
478.54	12891.67
478.72	12989.97
478.90	13064.87
479.08	13298.92
479.26	13247.43
479.44	13341.05
479.62	13528.30
479.80	13315.31
479.98	13401.91
480.16	13937.89
480.34	13563.40
480.52	13893.42
480.70	13809.16
480.88	13832.57
481.06	13841.93
481.24	14171.94
481.41	14321.74
481.59	14740.69
481.77	14647.07
481.95	14347.48
482.13	14630.69
482.31	14949.00
482.49	15157.31
482.67	14918.57
482.85	15222.84
483.03	15496.69
483.21	15407.75
483.39	15714.36
483.57	15529.45
483.74	15541.16
483.92	15538.82
484.10	15683.93
484.28	15978.84
484.46	15999.90
484.64	16556.95
484.82	15995.22
485.00	16372.05
485.18	16388.43
485.35	16725.47
485.53	16245.66
485.71	16201.19
485.89	16409.50
486.07	16528.86
486.25	16575.67
486.43	17090.59
486.61	17099.95
486.78	17415.93
486.96	17589.13
487.14	17867.65
487.32	17748.28
487.50	18026.81
487.68	18349.80
487.85	18614.28
488.03	18780.46
488.21	18995.79
488.39	18553.43
488.57	18480.87
488.75	18815.57
488.92	19435.81
489.10	19431.13
489.28	19599.65
489.46	19978.81
489.64	20266.70
489.81	20423.51
489.99	20372.02
490.17	20013.92
490.35	20622.46
490.53	20510.11
490.70	20444.58
490.88	20676.29
491.06	21233.34
491.24	20685.65
491.41	21069.50
491.59	20746.51
491.77	21153.76
491.95	21046.10
492.13	21401.86
492.30	21633.57
492.48	22211.68
492.66	22115.72
492.84	21853.58
493.01	22164.87
493.19	22401.27
493.37	22408.29
493.54	22590.85
493.72	22670.43
493.90	22822.56
494.08	23274.29
494.25	23236.84
494.43	23372.59
494.61	23454.51
494.79	23758.78
494.96	23653.45
495.14	23843.04
495.32	23765.80
495.49	24261.99
495.67	24112.20
495.85	24329.87
496.02	24552.22
496.20	24404.77
496.38	24432.85
496.55	24510.09
496.73	25123.31
496.91	25144.38
497.09	25120.97
497.26	25490.77
497.44	25355.02
497.62	25392.47
497.79	25659.29
497.97	25394.81
498.14	25596.10
498.32	25717.81
498.50	26047.82
498.67	26370.82
498.85	26274.85
499.03	26452.73
499.20	26286.56
499.38	26871.69
499.56	26618.91
499.73	26499.55
499.91	26742.96
500.08	27215.75
500.26	26705.51
500.44	26988.72
500.61	26862.33
500.79	26895.10
500.97	26841.26
501.14	27566.83
501.32	27491.93
501.49	27255.54
501.67	27021.48
501.84	27360.86
502.02	27468.53
502.20	28037.28
502.37	28327.50
502.55	27873.44
502.72	27948.34
502.90	28315.80
503.07	28135.58
503.25	28194.09
503.43	28276.01
503.60	28500.70
503.78	28325.16
503.95	28362.61
504.13	28599.01
504.30	28917.32
504.48	28858.81
504.65	29060.09
504.83	28919.66
505.01	29525.86
505.18	29694.38
505.36	29591.39
505.53	29902.68
505.71	30349.73
505.88	29642.88
506.06	29607.78
506.23	30094.61
506.41	29689.70
506.58	30050.14
506.76	30188.23
506.93	30445.69
507.11	30026.73
507.28	30256.11
507.46	30143.76
507.63	30216.32
507.81	30506.54
507.98	30274.83
508.16	30459.73
508.33	30859.96
508.50	30801.45
508.68	31309.35
508.85	31573.83
509.03	31433.39
509.20	31398.29
509.38	31814.90
509.55	31807.88
509.73	31360.84
509.90	31728.30
510.08	31665.11
510.25	31892.14
510.42	31995.12
510.60	31873.42
510.77	32182.37
510.95	32149.60
511.12	31976.40
511.30	32474.93
511.47	32542.81
511.64	32671.54
511.82	32650.47
511.99	32938.36
512.17	32442.17
512.34	32393.01
512.51	33010.92
512.69	33017.94
512.86	33071.77
513.04	33163.05
513.21	33001.55
513.38	32847.08
513.56	33181.77
513.73	33144.33
513.90	33268.37
514.08	33233.27
514.25	33722.44
514.43	33577.33
514.60	33684.99
514.77	33539.88
514.95	33696.69
515.12	33687.33
515.29	33734.14
515.47	34169.48
515.64	34176.50
515.81	34281.83
515.99	34452.69
516.16	33970.54
516.33	33806.70
516.51	33666.27
516.68	33647.54
516.85	33397.10
517.03	33844.15
517.20	34288.85
517.37	34527.58
517.54	34548.65
517.72	34190.55
517.89	34022.03
518.06	34202.25
518.24	34281.83
518.41	34677.38
518.58	34813.13
518.75	34838.87
518.93	35201.66
519.10	34983.99
519.27	35030.80
519.45	35517.63
519.62	35489.54
519.79	35625.29
519.96	35337.41
520.14	35512.95
520.31	35398.26
520.48	35723.60
520.65	35639.34
520.83	36194.04
521.00	36332.14
521.17	36121.49
521.34	36400.01
521.52	36315.75
521.69	36184.68
521.86	36821.31
522.03	36950.04
522.20	36643.43
522.38	36641.09
522.55	36835.35
522.72	36603.64
522.89	36893.86
523.07	37291.76
523.24	36699.60
523.41	37436.87
523.58	37139.62
523.75	37799.65
523.92	37174.73
524.10	37390.06
524.27	37184.09
524.44	37572.62
524.61	37670.92
524.78	37879.23
524.96	37998.60
525.13	37813.70
525.30	37701.35
525.47	37954.13
525.64	37544.53
525.81	37654.54
525.98	38234.99
526.16	37787.95
526.33	37691.99
526.50	37785.61
526.67	37230.90
526.84	37673.26
527.01	37715.39
527.18	37956.47
527.36	38246.69
527.53	38352.02
527.70	39028.43
527.87	38696.08
528.04	38611.82
528.21	38630.54
528.38	39009.71
528.55	39140.78
528.72	38696.08
528.89	39047.16
529.07	39175.89
529.24	39150.14
529.41	39161.84
529.58	38822.47
529.75	39049.50
529.92	39210.99
530.09	39484.84
530.26	39419.30
530.43	39550.37
530.60	39440.37
530.77	39351.43
530.94	40254.87
531.11	39571.44
531.28	40020.82
531.46	39910.82
531.63	40100.40
531.80	39543.35
531.97	39529.31
532.14	39693.15
532.31	39416.96
532.48	39349.09
532.65	40048.91
532.82	39538.67
532.99	39849.96
533.16	39814.85
533.33	40205.72
533.50	40275.94
533.67	40205.72
533.84	40004.44
534.01	40603.61
534.18	40388.28
534.35	40376.58
534.52	40465.52
534.69	40348.50
534.86	40875.12
535.03	40701.92
535.20	40961.72
535.37	41090.44
535.54	41265.99
535.71	40795.54
535.88	41055.34
536.05	41045.97
536.22	41001.50
536.38	41092.79
536.55	40744.05
536.72	40947.67
536.89	40650.42
537.06	40900.86
537.23	41607.70
537.40	41586.64
537.57	41689.62
537.74	41619.41
537.91	41689.62
538.08	41567.91
538.25	41137.26
538.42	41553.87
538.59	41324.50
538.75	41457.91
538.92	41706.01
539.09	41748.14
539.26	41738.77
539.43	41380.67
539.60	41879.21
539.77	41383.01
539.94	41553.87
540.11	42014.96
540.28	41572.60
540.44	41853.46
540.61	41823.03
540.78	42122.62
540.95	41698.98
541.12	41649.83
541.29	42174.11
541.46	42220.92
541.62	42122.62
541.79	42464.34
541.96	42080.49
542.13	42094.53
542.30	42045.38
542.47	42312.20
542.63	42190.50
542.80	42731.16
542.97	43150.12
543.14	42810.74
543.31	42590.73
543.48	43229.69
543.64	43229.69
543.81	43143.09
543.98	43302.25
544.15	42763.93
544.32	43452.05
544.48	43531.62
544.65	43175.86
544.82	43236.72
544.99	43304.59
545.16	42855.21
545.32	43124.37
545.49	43634.61
545.66	43449.70
545.83	43676.74
546.00	43407.58
546.16	43278.85
546.33	43248.42
546.50	43384.17
546.67	43264.80
546.83	43154.80
547.00	43634.61
547.17	43590.14
547.34	43409.92
547.50	43594.82
547.67	43840.57
547.84	43648.65
548.00	43819.51
548.17	43831.21
548.34	44102.71
548.51	44065.27
548.67	44226.76
548.84	43913.13
549.01	43941.22
549.18	43903.77
549.34	44196.34
549.51	44261.87
549.68	44339.11
549.84	44163.57
550.01	44402.30
550.18	43952.92
550.34	44041.86
550.51	44212.72
550.68	43997.39
550.84	44091.01
551.01	44402.30
551.18	44140.16
551.34	44046.54
551.51	44561.46
551.68	44397.62
551.84	44231.44
552.01	44477.20
552.18	44430.39
552.34	44170.59
552.51	44453.79
552.68	44275.91
552.84	44837.64
553.01	44957.01
553.18	44444.43
553.34	44947.65
553.51	44552.10
553.67	45034.25
553.84	45132.55
554.01	44996.80
554.17	44856.37
554.34	45254.26
554.51	45237.87
554.67	45045.95
554.84	45083.40
555.00	44783.81
555.17	44933.60
555.33	45188.72
555.50	45167.66
555.67	44659.76
555.83	45198.09
556.00	44713.59
556.16	45731.73
556.33	45022.54
556.50	45076.38
556.66	45099.78
556.83	45291.71
556.99	45235.53
557.16	45099.78
557.32	45076.38
557.49	45345.54
557.65	45048.29
557.82	45326.81
557.98	45682.58
558.15	45237.87
558.32	45184.04
558.48	45308.09
558.65	45280.00
558.81	45549.17
558.98	44942.97
559.14	45254.26
559.31	44751.04
559.47	45516.40
559.64	45420.44
559.80	45188.72
559.97	45830.03
560.13	45357.24
560.30	45722.37
560.46	45457.88
560.63	45509.38
560.79	45677.90
560.96	46007.91
561.12	45525.76
561.29	45565.55
561.45	45382.99
561.61	45088.08
561.78	45783.22
561.94	45621.72
562.11	45743.43
562.27	45684.92
562.44	45574.91
562.60	46279.41
562.77	45804.28
562.93	45584.27
563.10	46092.17
563.26	45839.39
563.42	45654.49
563.59	45727.05
563.75	45610.02
563.92	46014.93
564.08	45844.07
564.24	46284.09
564.41	45696.62
564.57	45823.01
564.74	46040.68
564.90	46094.51
565.07	45867.48
565.23	45500.01
565.39	45935.35
565.56	45556.19
565.72	45717.68
565.88	45347.88
566.05	45914.29
566.21	45886.20
566.38	45722.37
566.54	45729.39
566.70	46211.54
566.87	46347.29
567.03	45907.27
567.19	46469.00
567.36	46192.81
567.52	46131.96
567.68	45731.73
567.85	45778.54
568.01	46146.00
568.17	46017.27
568.34	46368.35
568.50	46068.76
568.66	46169.41
568.83	45890.88
568.99	46148.34
569.15	46284.09
569.32	45954.08
569.48	45794.92
569.64	46071.10
569.81	46560.28
569.97	45783.22
570.13	46164.73
570.30	45698.96
570.46	45530.44
570.62	45680.24
570.78	46298.14
570.95	46195.15
571.11	46457.29
571.27	45893.22
571.43	46160.05
571.60	46225.58
571.76	45830.03
571.92	46050.04
572.09	46253.67
572.25	45649.81
572.41	45998.55
572.57	46134.30
572.74	46579.00
572.90	46349.63
573.06	46141.32
573.22	46328.56
573.38	46117.92
573.55	46169.41
573.71	47047.11
573.87	46223.24
574.03	45860.46
574.20	46300.48
574.36	45738.75
574.52	46497.08
574.68	46623.47
574.84	46298.14
575.01	46440.91
575.17	46080.47
575.33	46260.69
575.49	45745.77
575.65	46450.27
575.82	46148.34
575.98	45916.63
576.14	46260.69
576.30	46258.35
576.46	46469.00
576.62	46043.02
576.79	46031.32
576.95	45928.33
577.11	46225.58
577.27	46052.38
577.43	46302.82
577.59	45972.80
577.75	46178.77
577.92	45914.29
578.08	45944.72
578.24	45855.78
578.40	46298.14
578.56	46099.19
578.72	46429.21
578.88	46836.46
579.04	46579.00
579.21	45921.31
579.37	46555.60
579.53	46064.08
579.69	45982.16
579.85	46349.63
580.01	46335.59
580.17	46270.05
580.33	46160.05
580.49	46358.99
580.65	46164.73
580.82	46412.82
580.98	46066.42
581.14	46094.51
581.30	46181.11
581.46	46138.98
581.62	46230.26
581.78	46155.36
581.94	46960.51
582.10	46738.16
582.26	46555.60
582.42	46642.20
582.58	45954.08
582.74	46541.55
582.90	46588.36
583.06	46424.53
583.22	46714.75
583.38	46302.82
583.54	47004.98
583.70	46806.03
583.86	46536.87
584.02	46358.99
584.18	46902.00
584.34	46590.70
584.50	46167.07
584.66	46323.88
584.82	46415.16
584.98	46843.48
585.14	46646.88
585.30	46136.64
585.46	46263.03
585.62	46036.00
585.78	46265.37
585.94	45904.93
586.10	46553.26
586.26	46127.28
586.42	46728.80
586.58	46810.71
586.74	46366.01
586.90	46813.05
587.06	46293.46
587.22	46384.74
587.38	46267.71
587.54	46447.93
587.70	46721.77
587.86	46288.77
588.02	46394.10
588.18	46714.75
588.34	46085.15
588.49	46007.91
588.65	45741.09
588.81	45886.20
588.97	46197.49
589.13	45593.64
589.29	45907.27
589.45	46288.77
589.61	45977.48
589.77	46436.23
589.93	46298.14
