SpectraSuite Data File
++++++++++++++++++++++++++++++++++++
Date: Fri Oct 25 10:48:14 EDT 2013
User: price-jones
Dark Spectrum Present: No
Reference Spectrum Present: No
Number of Sampled Component Spectra: 1
Spectrometers: USB2+H05261
Integration Time (usec): 100000 (USB2+H05261)
Spectra Averaged: 1 (USB2+H05261)
Boxcar Smoothing: 0 (USB2+H05261)
Correct for Electrical Dark: No (USB2+H05261)
Strobe/Lamp Enabled: No (USB2+H05261)
Correct for Detector Non-linearity: No (USB2+H05261)
Correct for Stray Light: No (USB2+H05261)
Number of Pixels in Processed Spectrum: 2048
>>>>>Begin Processed Spectral Data<<<<<
365.73	184.90
365.92	184.90
366.12	184.90
366.32	119.37
366.52	84.26
366.72	39.79
366.91	0.00
367.11	77.24
367.31	79.58
367.51	63.19
367.70	0.00
367.90	9.36
368.10	100.64
368.30	138.09
368.49	161.50
368.69	30.43
368.89	25.75
369.09	32.77
369.28	121.71
369.48	110.01
369.68	65.54
369.87	138.09
370.07	128.73
370.27	95.96
370.47	191.92
370.66	397.89
370.86	372.15
371.06	447.04
371.25	500.87
371.45	418.96
371.65	468.11
371.84	496.19
372.04	498.53
372.24	463.43
372.44	442.36
372.63	484.49
372.83	510.24
373.03	475.13
373.22	500.87
373.42	512.58
373.62	531.30
373.81	524.28
374.01	517.26
374.21	547.69
374.40	615.56
374.60	578.11
374.79	545.34
374.99	533.64
375.19	580.45
375.38	641.31
375.58	571.09
375.78	615.56
375.97	585.13
376.17	660.03
376.37	620.24
376.56	608.54
376.76	566.41
376.95	596.84
377.15	606.20
377.35	531.30
377.54	657.69
377.74	664.71
377.93	575.77
378.13	575.77
378.33	662.37
378.52	716.20
378.72	674.07
378.91	624.92
379.11	571.09
379.31	692.80
379.50	613.22
379.70	706.84
379.89	725.57
380.09	615.56
380.28	702.16
380.48	765.36
380.68	615.56
380.87	674.07
381.07	676.41
381.26	685.78
381.46	688.12
381.65	711.52
381.85	641.31
382.04	664.71
382.24	667.05
382.43	603.86
382.63	653.01
382.83	739.61
383.02	709.18
383.22	683.44
383.41	669.39
383.61	784.08
383.80	739.61
384.00	732.59
384.19	720.88
384.39	716.20
384.58	802.80
384.78	830.89
384.97	814.51
385.17	812.17
385.36	767.70
385.56	716.20
385.75	800.46
385.95	833.23
386.14	706.84
386.34	772.38
386.53	784.08
386.72	880.04
386.92	784.08
387.11	802.80
387.31	847.27
387.50	830.89
387.70	877.70
387.89	793.44
388.09	688.12
388.28	851.96
388.48	854.30
388.67	903.45
388.86	980.68
389.06	814.51
389.25	840.25
389.45	917.49
389.64	926.85
389.84	978.34
390.03	976.00
390.22	926.85
390.42	926.85
390.61	884.72
390.81	901.11
391.00	1053.24
391.19	1015.79
391.39	954.94
391.58	1090.69
391.78	1062.60
391.97	1027.50
392.16	961.96
392.36	992.39
392.55	983.02
392.75	964.30
392.94	1015.79
393.13	994.73
393.33	966.64
393.52	957.28
393.71	1039.20
393.91	1034.52
394.10	983.02
394.29	1067.28
394.49	1104.73
394.68	1137.50
394.88	1123.46
395.07	1240.48
395.26	1097.71
395.46	1036.86
395.65	1048.56
395.84	1170.27
396.04	1174.95
396.23	1177.29
396.42	1128.14
396.62	1057.92
396.81	1076.65
397.00	1224.10
397.19	1242.82
397.39	1261.55
397.58	1301.34
397.77	1245.16
397.97	1259.21
398.16	1296.66
398.35	1352.83
398.55	1427.73
398.74	1345.81
398.93	1394.96
399.12	1432.41
399.32	1287.29
399.51	1439.43
399.70	1345.81
399.90	1383.26
400.09	1476.88
400.28	1385.60
400.47	1467.52
400.67	1504.96
400.86	1474.54
401.05	1472.20
401.24	1453.47
401.44	1483.90
401.63	1516.67
401.82	1488.58
402.01	1427.73
402.21	1685.19
402.40	1523.69
402.59	1617.31
402.78	1572.84
402.97	1619.65
403.17	1619.65
403.36	1694.55
403.55	1785.83
403.74	1680.50
403.93	1736.68
404.13	1802.21
404.32	1650.08
404.51	1785.83
404.70	1708.59
404.89	1680.50
405.09	1816.26
405.28	1769.44
405.47	1797.53
405.66	1823.28
405.85	1872.43
406.05	1685.19
406.24	1806.89
406.43	1905.20
406.62	1944.99
406.81	1881.79
407.00	1919.24
407.20	1944.99
407.39	1930.94
407.58	1907.54
407.77	1982.43
407.96	2127.55
408.15	2118.18
408.34	1933.28
408.54	2071.37
408.73	2087.76
408.92	2059.67
409.11	2071.37
409.30	2143.93
409.49	2071.37
409.68	2052.65
409.87	2045.63
410.07	2118.18
410.26	2052.65
410.45	2200.10
410.64	2146.27
410.83	2221.17
411.02	2267.98
411.21	2331.17
411.40	2387.35
411.59	2314.79
411.78	2370.96
411.98	2457.56
412.17	2436.50
412.36	2502.03
412.55	2382.67
412.74	2523.10
412.93	2464.58
413.12	2469.27
413.31	2616.72
413.50	2548.84
413.69	2541.82
413.88	2607.36
414.07	2640.12
414.26	2569.91
414.45	2665.87
414.64	2665.87
414.83	2768.85
415.02	2836.73
415.22	2738.43
415.41	2719.70
415.60	2925.67
415.79	2911.63
415.98	2920.99
416.17	2960.78
416.36	2939.71
416.55	2953.76
416.74	2935.03
416.93	2960.78
417.12	3126.96
417.31	3089.51
417.50	3192.49
417.69	3178.45
417.88	3227.60
418.07	3084.83
418.26	3162.06
418.45	3208.87
418.64	3281.43
418.83	3351.65
419.02	3288.45
419.21	3274.41
419.39	3206.53
419.58	3262.71
419.77	3307.18
419.96	3330.58
420.15	3197.17
420.34	3251.00
420.53	3375.05
420.72	3478.04
420.91	3576.34
421.10	3466.33
421.29	3590.38
421.48	3559.95
421.67	3534.21
421.86	3433.57
422.05	3541.23
422.24	3555.27
422.43	3613.79
422.61	3506.12
422.80	3529.53
422.99	3639.53
423.18	3777.62
423.37	3604.42
423.56	3578.68
423.75	3688.68
423.94	3616.13
424.13	3314.20
424.32	3487.40
424.50	3620.81
424.69	3763.58
424.88	3695.71
425.07	3524.85
425.26	3581.02
425.45	3721.45
425.64	3576.34
425.83	3693.37
426.01	3726.13
426.20	3562.30
426.39	3688.68
426.58	3698.05
426.77	3552.93
426.96	3585.70
427.15	3742.52
427.33	3709.75
427.52	3758.90
427.71	3747.20
427.90	3684.00
428.09	3955.51
428.28	3847.84
428.46	3857.20
428.65	3817.41
428.84	4032.74
429.03	3960.19
429.22	3871.25
429.40	3868.91
429.59	3691.02
429.78	3651.24
429.97	3681.66
430.16	3932.10
430.34	3941.46
430.53	3826.78
430.72	3941.46
430.91	3843.16
431.10	4014.02
431.28	4152.11
431.47	4112.32
431.66	4304.25
431.85	4021.04
432.03	4250.41
432.22	4367.44
432.41	4215.30
432.60	4283.18
432.79	4428.29
432.97	4344.03
433.16	4294.88
433.35	4353.40
433.54	4313.61
433.72	4301.90
433.91	4280.84
434.10	4344.03
434.28	4367.44
434.47	4404.89
434.66	4407.23
434.85	4496.17
435.03	4531.28
435.22	4526.60
435.41	4746.61
435.59	4664.69
435.78	4819.16
435.97	4695.11
436.16	4690.43
436.34	4709.16
436.53	4711.50
436.72	4777.03
436.90	4795.76
437.09	4711.50
437.28	4535.96
437.46	4643.62
437.65	4683.41
437.84	4765.33
438.02	4791.08
438.21	4788.74
438.40	4734.90
438.58	5039.17
438.77	5057.90
438.96	5071.94
439.14	5088.32
439.33	5074.28
439.52	5268.55
439.70	5100.03
439.89	5146.84
440.08	5184.29
440.26	5275.57
440.45	5385.57
440.63	5387.91
440.82	5322.38
441.01	5392.59
441.19	5385.57
441.38	5558.77
441.57	5621.97
441.75	5572.82
441.94	5755.38
442.12	5781.12
442.31	5645.37
442.50	5778.78
442.68	5809.21
442.87	5778.78
443.05	5753.04
443.24	6031.56
443.43	5912.19
443.61	6047.94
443.80	6061.99
443.98	5895.81
444.17	5818.57
444.35	5902.83
444.54	6038.58
444.73	5947.30
444.91	5977.73
445.10	5926.24
445.28	5909.85
445.47	5996.45
445.65	6005.81
445.84	6043.26
446.02	6080.71
446.21	6033.90
446.39	5930.92
446.58	6162.63
446.77	6066.67
446.95	6036.24
447.14	6129.86
447.32	6167.31
447.51	6038.58
447.69	6045.60
447.88	6204.76
448.06	6228.17
448.25	6223.48
448.43	6274.98
448.62	6017.52
448.80	6040.92
448.99	6375.62
449.17	6324.13
449.36	6244.55
449.54	6387.32
449.73	6483.28
449.91	6586.27
450.10	6478.60
450.28	6471.58
450.46	6541.80
450.65	6530.09
450.83	6546.48
451.02	6469.24
451.20	6717.34
451.39	6647.12
451.57	6619.04
451.76	6492.65
451.94	6581.59
452.13	6696.27
452.31	6670.53
452.49	6672.87
452.68	6623.72
452.86	6572.22
453.05	6789.89
453.23	6715.00
453.42	6717.34
453.60	6787.55
453.78	6853.09
453.97	6871.81
454.15	6801.60
454.34	6803.94
454.52	7021.61
454.70	6993.52
454.89	6935.01
455.07	6972.46
455.26	6923.30
455.44	7075.44
455.62	7129.27
455.81	7073.10
455.99	7143.32
456.17	7236.94
456.36	7258.00
456.54	7276.73
456.73	7300.13
456.91	7531.84
457.09	7253.32
457.28	7478.01
457.46	7363.33
457.64	7559.93
457.83	7433.54
458.01	7473.33
458.19	7662.91
458.38	7311.83
458.56	7501.42
458.74	7485.03
458.93	7557.59
459.11	7698.02
459.29	7665.25
459.48	7831.43
459.66	7686.32
459.84	7695.68
460.03	7824.41
460.21	7775.26
460.39	7758.88
460.57	7702.70
460.76	7861.86
460.94	8009.31
461.12	7932.08
461.31	8072.51
461.49	7913.35
461.67	7894.63
461.85	8114.64
462.04	7927.39
462.22	8498.49
462.40	8182.51
462.59	8124.00
462.77	8212.94
462.95	8287.84
463.13	8149.75
463.32	8133.36
463.50	8290.18
463.68	8287.84
463.86	8325.29
464.05	8219.96
464.23	8152.09
464.41	8145.06
464.59	8226.98
464.78	8491.46
464.96	8301.88
465.14	8344.01
465.32	8332.31
465.50	8404.86
465.69	8655.30
465.87	8388.48
466.05	8451.67
466.23	8685.73
466.41	8552.32
466.60	8716.16
466.78	8617.85
466.96	8477.42
467.14	8617.85
467.32	8667.00
467.51	8631.90
467.69	8486.78
467.87	8744.24
468.05	8762.97
468.23	8711.47
468.41	8772.33
468.60	8879.99
468.78	8933.82
468.96	8723.18
469.14	8950.21
469.32	9074.26
469.50	8681.05
469.69	8889.35
469.87	9125.75
470.05	9207.67
470.23	9104.68
470.41	9085.96
470.59	9027.45
470.77	9071.92
470.95	9156.18
471.14	9444.06
471.32	9291.93
471.50	9305.97
471.68	9336.40
471.86	9437.04
472.04	9671.09
472.22	9675.77
472.40	9767.06
472.58	9327.03
472.77	9666.41
472.95	9694.50
473.13	9987.07
473.31	9671.09
473.49	9708.54
473.67	9741.31
473.85	9998.77
474.03	10197.71
474.21	10033.88
474.39	10188.35
474.57	10200.05
474.75	10298.36
474.93	10244.52
475.12	10335.81
475.30	10326.44
475.48	10281.97
475.66	10307.72
475.84	10487.94
476.02	10717.31
476.20	10466.88
476.38	10738.38
476.56	11129.25
476.74	10850.72
476.92	11002.86
477.10	11129.25
477.28	11103.50
477.46	11082.44
477.64	11503.73
477.82	11150.31
478.00	11559.91
478.18	11698.00
478.36	11580.97
478.54	11749.49
478.72	12079.50
478.90	11887.58
479.08	12025.67
479.26	12135.68
479.44	12081.85
479.62	12236.32
479.80	12322.92
479.98	12484.42
480.16	12446.97
480.34	12362.71
480.52	12833.16
480.70	12610.81
480.88	12601.44
481.06	12620.17
481.24	12765.28
481.41	13111.68
481.59	13441.70
481.77	13172.54
481.95	13282.54
482.13	13291.90
482.31	13315.31
482.49	13949.59
482.67	13722.56
482.85	13947.25
483.03	14349.82
483.21	14083.00
483.39	14370.89
483.57	14422.38
483.74	14267.91
483.92	14569.83
484.10	14429.40
484.28	14565.15
484.46	14721.97
484.64	15344.55
484.82	14998.15
485.00	15236.89
485.18	15208.80
485.35	15372.64
485.53	15241.57
485.71	15077.73
485.89	15695.63
486.07	15515.41
486.25	15777.55
486.43	15917.98
486.61	15864.15
486.78	16063.10
486.96	16285.45
487.14	16484.39
487.32	16657.59
487.50	16746.53
487.68	16779.30
487.85	17132.72
488.03	16975.91
488.21	17156.13
488.39	17249.75
488.57	17359.75
488.75	17727.22
488.92	17671.04
489.10	18104.04
489.28	18192.98
489.46	18293.63
489.64	18185.96
489.81	18656.41
489.99	18651.73
490.17	18853.02
490.35	19030.90
490.53	18623.64
490.70	19143.24
490.88	18953.66
491.06	19566.88
491.24	19332.82
491.41	19426.45
491.59	19356.23
491.77	19496.66
491.95	19571.56
492.13	19824.34
492.30	20325.21
492.48	20159.03
492.66	20460.96
492.84	20563.95
493.01	20744.17
493.19	20552.24
493.37	21111.63
493.54	20924.39
493.72	20819.07
493.90	21036.74
494.08	21568.04
494.25	21680.38
494.43	21626.55
494.61	21717.83
494.79	21902.73
494.96	21986.99
495.14	21607.83
495.32	22132.11
495.49	22141.47
495.67	22300.62
495.85	22487.87
496.02	22632.98
496.20	22852.99
496.38	22991.08
496.55	22885.76
496.73	23168.96
496.91	23161.94
497.09	23374.93
497.26	23466.21
497.44	23232.16
497.62	23571.54
497.79	24004.53
497.97	23597.28
498.14	23899.21
498.32	23695.58
498.50	24020.92
498.67	24297.10
498.85	24460.94
499.03	24629.46
499.20	24287.74
499.38	24758.19
499.56	24709.04
499.73	24657.54
499.91	24837.76
500.08	24933.73
500.26	24762.87
500.44	25228.63
500.61	25106.93
500.79	25139.69
500.97	25090.54
501.14	25879.30
501.32	25818.45
501.49	25586.74
501.67	25607.80
501.84	25909.73
502.02	25937.82
502.20	26225.70
502.37	25998.67
502.55	26115.70
502.72	26129.74
502.90	26216.34
503.07	26857.65
503.25	26703.17
503.43	26377.84
503.60	26586.15
503.78	26513.59
503.95	26553.38
504.13	26867.01
504.30	26927.86
504.48	27157.24
504.65	26974.67
504.83	27180.64
505.01	27421.72
505.18	27604.28
505.36	27716.62
505.53	27360.86
505.71	27548.11
505.88	27662.79
506.06	27770.46
506.23	28175.37
506.41	28013.87
506.58	27957.70
506.76	28538.15
506.93	28072.39
507.11	28278.35
507.28	28060.68
507.46	28121.54
507.63	28327.50
507.81	28622.41
507.98	28636.45
508.16	28463.25
508.33	28896.25
508.50	29184.14
508.68	28884.55
508.85	29242.65
509.03	29116.26
509.20	29336.27
509.38	29355.00
509.55	29071.79
509.73	29584.37
509.90	29317.55
510.08	29652.25
510.25	29736.51
510.42	29483.73
510.60	29762.25
510.77	30230.36
510.95	30263.13
511.12	30024.39
511.30	30089.93
511.47	30733.57
511.64	30422.28
511.82	30714.85
511.99	30604.84
512.17	30555.69
512.34	30443.35
512.51	30656.34
512.69	30775.70
512.86	30721.87
513.04	31243.81
513.21	30988.69
513.38	31269.56
513.56	31260.20
513.73	31175.94
513.90	31386.58
514.08	31351.48
514.25	31218.07
514.43	31515.31
514.60	31566.81
514.77	31531.70
514.95	31702.56
515.12	31796.18
515.29	31828.95
515.47	32294.71
515.64	32250.24
515.81	32278.33
515.99	32126.19
516.16	32034.91
516.33	32006.83
516.51	32229.18
516.68	31768.09
516.85	32032.57
517.03	32297.05
517.20	32189.39
517.37	32336.84
517.54	32781.54
517.72	32694.94
517.89	32818.99
518.06	32826.01
518.24	32446.85
518.41	32575.58
518.58	32905.59
518.75	33214.54
518.93	33146.67
519.10	32898.57
519.27	33652.22
519.45	33254.33
519.62	33273.06
519.79	33116.24
519.96	33823.08
520.14	33823.08
520.31	33699.03
520.48	33799.68
520.65	33722.44
520.83	34319.28
521.00	34485.45
521.17	34050.11
521.34	34492.47
521.52	34476.09
521.69	34352.04
521.86	34836.53
522.03	34604.82
522.20	34162.46
522.38	34789.72
522.55	34583.76
522.72	34789.72
522.89	34700.78
523.07	34698.44
523.24	34792.06
523.41	34752.27
523.58	34951.22
523.75	35117.40
523.92	35154.85
524.10	35264.85
524.27	35405.28
524.44	34944.20
524.61	35480.18
524.78	35250.81
524.96	35697.85
525.13	35955.31
525.30	36285.33
525.47	36282.98
525.64	36210.43
525.81	35948.29
525.98	35997.44
526.16	35784.45
526.33	35857.01
526.50	36542.78
526.67	35807.86
526.84	35770.41
527.01	35927.22
527.18	36194.04
527.36	36491.29
527.53	36250.22
527.70	36847.05
527.87	36711.30
528.04	36659.81
528.21	36685.56
528.38	36559.17
528.55	37151.32
528.72	37017.91
528.89	37270.69
529.07	36811.95
529.24	36844.71
529.41	37090.47
529.58	36940.68
529.75	36662.15
529.92	37376.01
530.09	37413.46
530.26	37500.06
530.43	37326.86
530.60	37387.72
530.77	37579.64
530.94	37787.95
531.11	37797.31
531.28	37759.86
531.46	37392.40
531.63	38162.43
531.80	37305.80
531.97	37670.92
532.14	37944.76
532.31	37418.14
532.48	37846.46
532.65	38040.73
532.82	38078.18
532.99	38110.94
533.16	38143.71
533.33	37919.02
533.50	38340.32
533.67	38120.31
533.84	37897.95
534.01	38281.80
534.18	38527.56
534.35	38721.82
534.52	38305.21
534.69	38586.07
534.86	38660.97
535.03	38862.26
535.20	38932.47
535.37	38918.43
535.54	39084.61
535.71	38773.31
535.88	39009.71
536.05	39056.52
536.22	38941.83
536.38	39161.84
536.55	39079.92
536.72	38967.58
536.89	38328.61
537.06	38738.21
537.23	39512.92
537.40	39208.65
537.57	39126.74
537.74	39363.13
537.91	39840.60
538.08	39480.16
538.25	39096.31
538.42	39138.44
538.59	39374.83
538.75	39419.30
538.92	39564.42
539.09	40086.36
539.26	39138.44
539.43	40341.47
539.60	39662.72
539.77	39695.49
539.94	40259.55
540.11	40095.72
540.28	40147.21
540.44	39721.23
540.61	40009.12
540.78	40081.67
540.95	39620.59
541.12	39775.06
541.29	39992.73
541.46	39693.15
541.62	40245.51
541.79	40039.54
541.96	39721.23
542.13	40039.54
542.30	40217.43
542.47	40381.26
542.63	40189.34
542.80	40545.10
542.97	40694.89
543.14	40748.73
543.31	40577.87
543.48	41558.55
543.64	41256.62
543.81	41497.70
543.98	40947.67
544.15	40718.30
544.32	41130.23
544.48	41464.93
544.65	41675.58
544.82	41270.67
544.99	41186.41
545.16	41050.66
545.32	40994.48
545.49	41633.45
545.66	41858.14
545.83	41294.07
546.00	42031.34
546.16	41469.61
546.33	41399.40
546.50	41827.71
546.67	41703.67
546.83	41209.81
547.00	41677.92
547.17	41656.85
547.34	41968.15
547.50	41986.87
547.67	42351.99
547.84	41982.19
548.00	42244.33
548.17	42504.13
548.34	41612.38
548.51	42501.79
548.67	42499.45
548.84	42328.59
549.01	41944.74
549.18	42405.83
549.34	42012.62
549.51	42717.12
549.68	42302.84
549.84	42469.02
550.01	42635.20
550.18	42143.69
550.34	42164.75
550.51	42389.44
550.68	42466.68
550.84	42433.91
551.01	42616.47
551.18	42480.72
551.34	42829.46
551.51	42665.63
551.68	42806.06
551.84	42967.55
552.01	42202.20
552.18	43140.75
552.34	42930.11
552.51	43145.44
552.68	42691.37
552.84	43250.76
553.01	43107.99
553.18	42937.13
553.34	42665.63
553.51	42534.56
553.67	42969.90
553.84	43292.89
554.01	43496.52
554.17	43253.10
554.34	43166.50
554.51	43175.86
554.67	43379.49
554.84	43360.76
555.00	42822.44
555.17	42990.96
555.33	43243.74
555.50	43309.27
555.67	43278.85
555.83	43522.26
556.00	43454.39
556.16	43945.90
556.33	43473.11
556.50	43578.43
556.66	43643.97
556.83	43339.70
556.99	43976.33
557.16	43716.53
557.32	43445.02
557.49	43634.61
557.65	43468.43
557.82	43208.63
557.98	43777.38
558.15	43856.96
558.32	43786.74
558.48	43461.41
558.65	43903.77
558.81	43655.67
558.98	43971.64
559.14	43859.30
559.31	44032.50
559.47	43440.34
559.64	43899.09
559.80	44079.31
559.97	43800.79
560.13	43976.33
560.30	43695.46
560.46	44154.21
560.63	44332.09
560.79	43854.62
560.96	44353.15
561.12	44020.80
561.29	44002.07
561.45	44041.86
561.61	44058.24
561.78	44184.63
561.94	44023.14
562.11	43817.17
562.27	43894.41
562.44	43948.24
562.60	44091.01
562.77	44252.51
562.93	44217.40
563.10	44509.97
563.26	44116.76
563.42	44062.93
563.59	43959.94
563.75	44264.21
563.92	44741.68
564.08	44048.88
564.24	44800.19
564.41	44502.95
564.57	44561.46
564.74	44509.97
564.90	44381.24
565.07	44069.95
565.23	44259.53
565.39	44446.77
565.56	44804.88
565.72	44320.38
565.88	44790.83
566.05	44479.54
566.21	44467.84
566.38	44020.80
566.54	44547.42
566.70	44591.89
566.87	44762.75
567.03	44648.06
567.19	44800.19
567.36	44978.07
567.52	44392.94
567.68	44671.46
567.85	44437.41
568.01	44573.16
568.17	44779.13
568.34	44802.53
568.50	44240.81
568.66	44465.50
568.83	44701.89
568.99	44229.10
569.15	44690.19
569.32	44907.86
569.48	44542.74
569.64	44741.68
569.81	44711.25
569.97	44364.85
570.13	44673.81
570.30	44673.81
570.46	44219.74
570.62	44385.92
570.78	44673.81
570.95	44573.16
571.11	44884.45
571.27	44561.46
571.43	44603.59
571.60	45085.74
571.76	44832.96
571.92	44531.03
572.09	44828.28
572.25	44734.66
572.41	44849.35
572.57	45272.98
572.74	45354.90
572.90	45272.98
573.06	44645.72
573.22	45212.13
573.38	45097.44
573.55	44697.21
573.71	44868.07
573.87	44671.46
574.03	44502.95
574.20	44835.30
574.36	45027.23
574.52	44947.65
574.68	45022.54
574.84	45045.95
575.01	44479.54
575.17	44423.37
575.33	44748.70
575.49	45029.57
575.65	44994.46
575.82	45336.18
575.98	44781.47
576.14	45205.11
576.30	44940.63
576.46	44788.49
576.62	44748.70
576.79	44535.71
576.95	44610.61
577.11	44713.59
577.27	45118.51
577.43	45186.38
577.59	44856.37
577.75	44865.73
577.92	44528.69
578.08	44528.69
578.24	44748.70
578.40	44821.26
578.56	45022.54
578.72	45336.18
578.88	45078.72
579.04	44842.32
579.21	44886.79
579.37	45137.23
579.53	44863.39
579.69	44678.49
579.85	44889.13
580.01	45195.74
580.17	45031.91
580.33	45635.77
580.49	44722.96
580.65	45155.96
580.82	45368.94
580.98	44924.24
581.14	44542.74
581.30	45263.62
581.46	44924.24
581.62	45277.66
581.78	45184.04
581.94	45174.68
582.10	45352.56
582.26	45282.34
582.42	45324.47
582.58	45209.79
582.74	45249.58
582.90	45090.42
583.06	45397.03
583.22	45427.46
583.38	45741.09
583.54	45579.59
583.70	45258.94
583.86	45139.57
584.02	44928.92
584.18	45294.05
584.34	45303.41
584.50	45261.28
584.66	45336.18
584.82	44891.48
584.98	45535.12
585.14	45193.40
585.30	45420.44
585.46	45385.33
585.62	45186.38
585.78	44772.11
585.94	44811.90
586.10	44914.88
586.26	45067.02
586.42	44933.60
586.58	45715.34
586.74	45635.77
586.90	45006.16
587.06	44978.07
587.22	45104.46
587.38	44800.19
587.54	45221.49
587.70	45593.64
587.86	45247.24
588.02	45649.81
588.18	45525.76
588.34	45387.67
588.49	45200.43
588.65	44947.65
588.81	44753.38
588.97	45174.68
589.13	45099.78
589.29	44882.11
589.45	45188.72
589.61	45085.74
589.77	45392.35
589.93	45411.07
590.08	45441.50
590.24	45081.06
