SpectraSuite Data File
++++++++++++++++++++++++++++++++++++
Date: Fri Oct 25 10:47:05 EDT 2013
User: price-jones
Dark Spectrum Present: No
Reference Spectrum Present: No
Number of Sampled Component Spectra: 1
Spectrometers: USB2+H05261
Integration Time (usec): 100000 (USB2+H05261)
Spectra Averaged: 1 (USB2+H05261)
Boxcar Smoothing: 0 (USB2+H05261)
Correct for Electrical Dark: No (USB2+H05261)
Strobe/Lamp Enabled: No (USB2+H05261)
Correct for Detector Non-linearity: No (USB2+H05261)
Correct for Stray Light: No (USB2+H05261)
Number of Pixels in Processed Spectrum: 2048
>>>>>Begin Processed Spectral Data<<<<<
365.73	124.05
365.92	124.05
366.12	124.05
366.32	46.81
366.52	9.36
366.72	77.24
366.91	42.13
367.11	51.49
367.31	0.00
367.51	0.00
367.70	2.34
367.90	16.38
368.10	65.54
368.30	2.34
368.49	0.00
368.69	93.62
368.89	53.83
369.09	44.47
369.28	142.77
369.48	30.43
369.68	30.43
369.87	37.45
370.07	46.81
370.27	102.98
370.47	245.76
370.66	339.38
370.86	463.43
371.06	447.04
371.25	477.47
371.45	468.11
371.65	442.36
371.84	407.25
372.04	414.27
372.24	519.60
372.44	514.92
372.63	500.87
372.83	531.30
373.03	528.96
373.22	524.28
373.42	554.71
373.62	482.15
373.81	568.75
374.01	540.66
374.21	573.43
374.40	505.56
374.60	608.54
374.79	606.20
374.99	653.01
375.19	526.62
375.38	578.11
375.58	573.43
375.78	627.26
375.97	557.05
376.17	667.05
376.37	533.64
376.56	601.52
376.76	617.90
376.95	475.13
377.15	599.18
377.35	608.54
377.54	608.54
377.74	617.90
377.93	657.69
378.13	648.33
378.33	667.05
378.52	636.63
378.72	674.07
378.91	662.37
379.11	664.71
379.31	690.46
379.50	660.03
379.70	603.86
379.89	678.76
380.09	650.67
380.28	638.97
380.48	627.26
380.68	685.78
380.87	716.20
381.07	706.84
381.26	662.37
381.46	617.90
381.65	709.18
381.85	615.56
382.04	709.18
382.24	608.54
382.43	702.16
382.63	753.65
382.83	741.95
383.02	723.23
383.22	709.18
383.41	676.41
383.61	732.59
383.80	711.52
384.00	795.78
384.19	748.97
384.39	709.18
384.58	826.21
384.78	784.08
384.97	774.72
385.17	744.29
385.36	788.76
385.56	795.78
385.75	751.31
385.95	800.46
386.14	737.27
386.34	763.01
386.53	812.17
386.72	692.80
386.92	823.87
387.11	819.19
387.31	814.51
387.50	793.44
387.70	840.25
387.89	795.78
388.09	896.43
388.28	851.96
388.48	774.72
388.67	896.43
388.86	877.70
389.06	896.43
389.25	931.53
389.45	826.21
389.64	957.28
389.84	919.83
390.03	976.00
390.22	999.41
390.42	1032.18
390.61	880.04
390.81	903.45
391.00	978.34
391.19	943.24
391.39	938.55
391.58	931.53
391.78	1029.84
391.97	933.87
392.16	968.98
392.36	983.02
392.55	978.34
392.75	1022.81
392.94	968.98
393.13	898.77
393.33	997.07
393.52	983.02
393.71	1088.35
393.91	1048.56
394.10	929.19
394.29	1132.82
394.49	1020.47
394.68	1067.28
394.88	1078.99
395.07	1125.80
395.26	1081.33
395.46	1214.74
395.65	1174.95
395.84	1090.69
396.04	1238.14
396.23	1039.20
396.42	1149.20
396.62	1156.22
396.81	1153.88
397.00	1139.84
397.19	1172.61
397.39	1193.67
397.58	1270.91
397.77	1205.38
397.97	1378.58
398.16	1343.47
398.35	1341.13
398.55	1291.98
398.74	1362.19
398.93	1387.94
399.12	1350.49
399.32	1322.40
399.51	1341.13
399.70	1474.54
399.90	1453.47
400.09	1322.40
400.28	1392.62
400.47	1411.34
400.67	1528.37
400.86	1509.65
401.05	1366.87
401.24	1451.13
401.44	1589.22
401.63	1451.13
401.82	1537.73
402.01	1572.84
402.21	1540.07
402.40	1547.09
402.59	1561.14
402.78	1640.72
402.97	1629.01
403.17	1699.23
403.36	1678.16
403.55	1631.35
403.74	1633.69
403.93	1661.78
404.13	1708.59
404.32	1703.91
404.51	1771.79
404.70	1668.80
404.89	1813.92
405.09	1685.19
405.28	1792.85
405.47	1860.73
405.66	1846.68
405.85	1785.83
406.05	1757.74
406.24	1839.66
406.43	1865.41
406.62	1909.88
406.81	1881.79
407.00	1820.94
407.20	1816.26
407.39	1839.66
407.58	1921.58
407.77	1975.41
407.96	1987.11
408.15	2001.16
408.34	1994.14
408.54	2092.44
408.73	2090.10
408.92	2069.03
409.11	2045.63
409.30	2071.37
409.49	2083.08
409.68	2057.33
409.87	2190.74
410.07	2113.50
410.26	2129.89
410.45	2111.16
410.64	2179.04
410.83	2172.02
411.02	2277.34
411.21	2223.51
411.40	2394.37
411.59	2277.34
411.78	2363.94
411.98	2356.92
412.17	2347.56
412.36	2506.71
412.55	2443.52
412.74	2513.74
412.93	2502.03
413.12	2408.41
413.31	2579.27
413.50	2502.03
413.69	2597.99
413.88	2605.02
414.07	2623.74
414.26	2651.83
414.45	2551.18
414.64	2745.45
414.83	2738.43
415.02	2792.26
415.22	2820.35
415.41	2782.90
415.60	2658.85
415.79	2918.65
415.98	2944.39
416.17	2967.80
416.36	2815.66
416.55	2883.54
416.74	2946.73
416.93	2913.97
417.12	2949.08
417.31	2988.86
417.50	2988.86
417.69	3173.77
417.88	3272.07
418.07	3126.96
418.26	3021.63
418.45	3138.66
418.64	3269.73
418.83	3258.03
419.02	3199.51
419.21	3232.28
419.39	3166.74
419.58	3269.73
419.77	3358.67
419.96	3346.97
420.15	3349.31
420.34	3260.37
420.53	3363.35
420.72	3368.03
420.91	3318.88
421.10	3492.08
421.29	3508.46
421.48	3440.59
421.67	3459.31
421.86	3468.67
422.05	3463.99
422.24	3449.95
422.43	3459.31
422.61	3581.02
422.80	3447.61
422.99	3489.74
423.18	3592.72
423.37	3667.62
423.56	3578.68
423.75	3492.08
423.94	3534.21
424.13	3396.12
424.32	3391.44
424.50	3653.58
424.69	3510.80
424.88	3590.38
425.07	3581.02
425.26	3503.78
425.45	3534.21
425.64	3552.93
425.83	3623.15
426.01	3669.96
426.20	3705.07
426.39	3597.40
426.58	3595.06
426.77	3613.79
426.96	3588.04
427.15	3555.27
427.33	3655.92
427.52	3735.50
427.71	3845.50
427.90	3873.59
428.09	3728.47
428.28	3861.88
428.46	3857.20
428.65	3854.86
428.84	3936.78
429.03	3817.41
429.22	3782.31
429.40	3861.88
429.59	3915.72
429.78	3700.39
429.97	3637.19
430.16	3873.59
430.34	3810.39
430.53	3995.29
430.72	3770.60
430.91	3868.91
431.10	3976.57
431.28	4088.92
431.47	4182.54
431.66	4278.50
431.85	4072.53
432.03	4156.79
432.22	4255.09
432.41	4337.01
432.60	4208.28
432.79	4234.03
432.97	4512.55
433.16	4170.83
433.35	4262.12
433.54	4355.74
433.72	4418.93
433.91	4287.86
434.10	4334.67
434.28	4337.01
434.47	4205.94
434.66	4688.09
434.85	4482.13
435.03	4409.57
435.22	4573.41
435.41	4683.41
435.59	4491.49
435.78	4550.00
435.97	4500.85
436.16	4603.83
436.34	4709.16
436.53	4681.07
436.72	4760.65
436.90	4678.73
437.09	4788.74
437.28	4587.45
437.46	4751.29
437.65	4695.11
437.84	4699.80
438.02	4770.01
438.21	4720.86
438.40	4767.67
438.58	4847.25
438.77	4943.21
438.96	5057.90
439.14	5055.56
439.33	5074.28
439.52	4964.28
439.70	5132.79
439.89	5167.90
440.08	5048.54
440.26	5221.74
440.45	5214.71
440.63	5327.06
440.82	5451.11
441.01	5472.17
441.19	5514.30
441.38	5561.11
441.57	5514.30
441.75	5654.73
441.94	5715.59
442.12	5884.11
442.31	5738.99
442.50	5921.56
442.68	5832.62
442.87	5799.85
443.05	5715.59
443.24	5837.30
443.43	5912.19
443.61	5888.79
443.80	5954.32
443.98	5827.93
444.17	5708.57
444.35	5991.77
444.54	6029.22
444.73	5895.81
444.91	5996.45
445.10	5790.49
445.28	5858.36
445.47	5879.43
445.65	5839.64
445.84	5982.41
446.02	6001.13
446.21	5942.62
446.39	5914.53
446.58	6249.23
446.77	6019.86
446.95	5830.27
447.14	6134.54
447.32	5975.39
447.51	6019.86
447.69	6012.84
447.88	6179.01
448.06	6150.93
448.25	6176.67
448.43	6312.42
448.62	6066.67
448.80	6047.94
448.99	6045.60
449.17	6298.38
449.36	6169.65
449.54	6291.36
449.73	6319.45
449.91	6352.21
450.10	6445.84
450.28	6504.35
450.46	6502.01
450.65	6509.03
450.83	6647.12
451.02	6487.96
451.20	6712.66
451.39	6420.09
451.57	6492.65
451.76	6574.56
451.94	6494.99
452.13	6509.03
452.31	6546.48
452.49	6408.39
452.68	6490.31
452.86	6546.48
453.05	6656.48
453.23	6677.55
453.42	6600.31
453.60	6761.81
453.78	6839.05
453.97	6827.34
454.15	6850.75
454.34	6684.57
454.52	6757.13
454.70	6738.40
454.89	6890.54
455.07	6820.32
455.26	6909.26
455.44	7101.19
455.62	6949.05
455.81	7082.46
455.99	7021.61
456.17	7258.00
456.36	7115.23
456.54	6998.20
456.73	7208.85
456.91	7316.51
457.09	7396.09
457.28	7604.40
457.46	7337.58
457.64	7428.86
457.83	7396.09
458.01	7330.56
458.19	7492.05
458.38	7419.50
458.56	7531.84
458.74	7499.08
458.93	7618.44
459.11	7531.84
459.29	7595.04
459.48	7667.60
459.66	7660.57
459.84	7751.85
460.03	7868.88
460.21	7639.51
460.39	7761.22
460.57	7705.04
460.76	7719.09
460.94	7709.72
461.12	7911.01
461.31	7932.08
461.49	7861.86
461.67	7976.55
461.85	8030.38
462.04	7812.71
462.22	8311.24
462.40	8208.26
462.59	8091.23
462.77	8056.12
462.95	8194.22
463.13	8025.70
463.32	8126.34
463.50	8386.14
463.68	8161.45
463.86	8189.53
464.05	8135.70
464.23	8053.78
464.41	8205.92
464.59	8042.08
464.78	8285.50
464.96	8383.80
465.14	8486.78
465.32	8521.89
465.50	8465.72
465.69	8425.93
465.87	8336.99
466.05	8435.29
466.23	8430.61
466.41	8514.87
466.60	8891.70
466.78	8524.23
466.96	8322.94
467.14	8339.33
467.32	8709.13
467.51	8617.85
467.69	8252.73
467.87	8498.49
468.05	8830.84
468.23	8458.70
468.41	8641.26
468.60	8798.07
468.78	8753.60
468.96	8767.65
469.14	8760.63
469.32	9128.09
469.50	8734.88
469.69	9008.72
469.87	8919.78
470.05	8938.51
470.23	9048.51
470.41	8971.27
470.59	9233.41
470.77	9153.84
470.95	9022.77
471.14	9479.17
471.32	9114.05
471.50	9399.59
471.68	9437.04
471.86	9390.23
472.04	9341.08
472.22	9696.84
472.40	9385.55
472.58	9738.97
472.77	9568.11
472.95	9671.09
473.13	10059.62
473.31	9734.29
473.49	9783.44
473.67	9643.01
473.85	9790.46
474.03	10085.37
474.21	9968.34
474.39	9984.73
474.57	10270.27
474.75	10375.59
474.93	10153.24
475.12	10279.63
475.30	10403.68
475.48	10328.78
475.66	10544.11
475.84	10424.75
476.02	10469.22
476.20	10246.87
476.38	10759.44
476.56	10839.02
476.74	10850.72
476.92	10843.70
477.10	10869.45
477.28	11183.08
477.46	11215.85
477.64	11260.32
477.82	11405.43
478.00	11286.06
478.18	11356.28
478.36	11641.82
478.54	11829.07
478.72	11676.93
478.90	11808.00
479.08	12287.81
479.26	12142.70
479.44	12177.81
479.62	12421.22
479.80	12198.87
479.98	12524.21
480.16	12641.23
480.34	12437.61
480.52	12769.96
480.70	12908.05
480.88	12549.95
481.06	12746.56
481.24	12664.64
481.41	13128.06
481.59	13097.64
481.77	13092.96
481.95	13441.70
482.13	13177.22
482.31	13387.86
482.49	13954.27
482.67	13607.87
482.85	13839.59
483.03	14211.73
483.21	14225.78
483.39	14244.50
483.57	13930.87
483.74	14218.75
483.92	14478.55
484.10	14221.10
484.28	14567.49
484.46	14841.34
484.64	14916.23
484.82	14773.46
485.00	15030.92
485.18	15089.43
485.35	15384.34
485.53	15424.13
485.71	14902.19
485.89	15534.14
486.07	15623.08
486.25	15520.09
486.43	15723.72
486.61	15967.13
486.78	15857.13
486.96	15957.77
487.14	16442.26
487.32	16428.22
487.50	16748.87
487.68	16830.79
487.85	17081.23
488.03	17020.38
488.21	17415.93
488.39	17160.81
488.57	17504.87
488.75	17451.03
488.92	17734.24
489.10	17575.08
489.28	17830.20
489.46	18436.40
489.64	18111.07
489.81	18415.34
489.99	18487.89
490.17	18719.60
490.35	18885.78
490.53	18864.72
490.70	19131.54
490.88	18998.13
491.06	19119.84
491.24	19349.21
491.41	19201.76
491.59	19183.03
491.77	19316.44
491.95	19557.52
492.13	19676.88
492.30	20030.30
492.48	20332.23
492.66	20545.22
492.84	20470.33
493.01	20601.40
493.19	20442.24
493.37	20613.10
493.54	20624.80
493.72	20744.17
493.90	21200.57
494.08	21188.87
494.25	21355.05
494.43	21333.98
494.61	21511.86
494.79	21605.49
494.96	21673.36
495.14	21607.83
495.32	21954.22
495.49	21986.99
495.67	22218.71
495.85	22380.20
496.02	22537.02
496.20	22572.13
496.38	22499.57
496.55	22642.34
496.73	23103.43
496.91	22710.22
497.09	23449.83
497.26	23379.61
497.44	23257.90
497.62	23564.51
497.79	23800.91
497.97	23339.82
498.14	23410.04
498.32	23618.35
498.50	23953.04
498.67	24489.03
498.85	24215.18
499.03	24617.75
499.20	24336.89
499.38	24369.66
499.56	24348.59
499.73	24671.59
499.91	24751.17
500.08	24954.79
500.26	24662.22
500.44	25001.60
500.61	24929.05
500.79	25336.30
500.97	25104.59
501.14	25483.75
501.32	26015.05
501.49	25647.59
501.67	25385.45
501.84	25823.13
502.02	25846.54
502.20	26260.81
502.37	26162.51
502.55	26288.90
502.72	25919.09
502.90	26359.11
503.07	26235.06
503.25	26422.31
503.43	26478.48
503.60	26443.37
503.78	26515.93
503.95	26649.34
504.13	26948.93
504.30	26998.08
504.48	26852.97
504.65	26735.94
504.83	27463.85
505.01	27449.80
505.18	27374.91
505.36	27915.57
505.53	27477.89
505.71	27875.78
505.88	27735.35
506.06	27637.05
506.23	27651.09
506.41	27704.92
506.58	28032.60
506.76	27810.25
506.93	28327.50
507.11	28226.86
507.28	28240.90
507.46	28210.48
507.63	27946.00
507.81	28472.62
507.98	28343.89
508.16	28397.72
508.33	28332.18
508.50	28554.54
508.68	28692.63
508.85	29085.84
509.03	29240.31
509.20	29146.69
509.38	29439.26
509.55	29530.54
509.73	29336.27
509.90	29577.35
510.08	29366.70
510.25	29195.84
510.42	29750.55
510.60	29848.85
510.77	29818.42
510.95	30192.91
511.12	29895.66
511.30	30022.05
511.47	30375.47
511.64	30326.32
511.82	30588.46
511.99	30295.89
512.17	30745.28
512.34	30686.76
512.51	30998.06
512.69	30850.60
512.86	30668.04
513.04	31012.10
513.21	30668.04
513.38	30864.64
513.56	31365.52
513.73	30895.07
513.90	30810.81
514.08	30991.03
514.25	31831.29
514.43	31292.96
514.60	31168.91
514.77	31637.02
514.95	31522.34
515.12	31449.78
515.29	31700.22
515.47	32170.66
515.64	31983.42
515.81	31903.84
515.99	31667.45
516.16	32385.99
516.33	32112.15
516.51	31707.24
516.68	31655.75
516.85	31484.89
517.03	32070.02
517.20	32208.11
517.37	32257.26
517.54	32648.13
517.72	32474.93
517.89	32215.13
518.06	32765.16
518.24	32708.99
518.41	32535.79
518.58	32793.25
518.75	32664.52
518.93	33069.43
519.10	33102.20
519.27	33324.55
519.45	33523.49
519.62	33209.86
519.79	33621.80
519.96	33600.73
520.14	33720.10
520.31	33427.53
520.48	33881.60
520.65	33713.08
520.83	33790.31
521.00	34106.29
521.17	33804.36
521.34	33722.44
521.52	34703.12
521.69	34417.58
521.86	34342.68
522.03	34099.26
522.20	34288.85
522.38	34356.72
522.55	33916.70
522.72	34642.27
522.89	34455.03
523.07	34824.83
523.24	34803.77
523.41	34803.77
523.58	34782.70
523.75	35435.71
523.92	35033.14
524.10	35360.81
524.27	35615.93
524.44	35192.30
524.61	35447.41
524.78	35569.12
524.96	35639.34
525.13	35625.29
525.30	35817.22
525.47	36091.06
525.64	35569.12
525.81	35840.62
525.98	36023.19
526.16	35793.81
526.33	35440.39
526.50	35639.34
526.67	35917.86
526.84	35992.76
527.01	36088.72
527.18	36102.76
527.36	36266.60
527.53	36603.64
527.70	36856.42
527.87	36723.01
528.04	36114.47
528.21	36561.51
528.38	36449.16
528.55	36561.51
528.72	36868.12
528.89	36978.12
529.07	36804.92
529.24	36788.54
529.41	36718.32
529.58	36727.69
529.75	36613.00
529.92	36975.78
530.09	37345.59
530.26	37223.88
530.43	37322.18
530.60	36676.19
530.77	37537.51
530.94	37493.04
531.11	37479.00
531.28	37521.13
531.46	37645.18
531.63	37804.33
531.80	37773.91
531.97	37420.48
532.14	37598.37
532.31	37893.27
532.48	38019.66
532.65	38047.75
532.82	37759.86
532.99	37785.61
533.16	37521.13
533.33	37897.95
533.50	38232.65
533.67	38206.90
533.84	37996.26
534.01	38080.52
534.18	37984.55
534.35	38452.66
534.52	38160.09
534.69	38637.56
534.86	38548.62
535.03	38635.22
535.20	38651.61
535.37	38986.30
535.54	39133.76
535.71	38878.64
535.88	38307.55
536.05	38731.18
536.22	39182.91
536.38	39402.92
536.55	39042.48
536.72	38951.20
536.89	38855.23
537.06	38567.35
537.23	39311.64
537.40	38827.15
537.57	39091.63
537.74	39260.15
537.91	39583.14
538.08	39093.97
538.25	39225.04
538.42	39236.74
538.59	39667.40
538.75	39227.38
538.92	39505.90
539.09	39917.84
539.26	39772.72
539.43	39337.38
539.60	40123.80
539.77	39901.45
539.94	39990.39
540.11	39590.16
540.28	39737.62
540.44	39332.70
540.61	39697.83
540.78	40163.59
540.95	40334.45
541.12	40055.93
541.29	39491.86
541.46	39438.03
541.62	39992.73
541.79	40198.70
541.96	39981.03
542.13	39571.44
542.30	40140.19
542.47	40512.33
542.63	40458.50
542.80	40505.31
542.97	40685.53
543.14	41188.75
543.31	40648.08
543.48	40950.01
543.64	41617.07
543.81	40760.43
543.98	41017.89
544.15	41045.97
544.32	41333.86
544.48	41624.09
544.65	40987.46
544.82	41006.19
544.99	41076.40
545.16	41324.50
545.32	40828.30
545.49	41186.41
545.66	41600.68
545.83	41155.98
546.00	41689.62
546.16	41521.10
546.33	41806.65
546.50	41296.41
546.67	41844.10
546.83	40643.40
547.00	41762.18
547.17	41237.90
547.34	41106.83
547.50	42024.32
547.67	41848.78
547.84	41881.55
548.00	41923.68
548.17	41940.06
548.34	41731.75
548.51	41858.14
548.67	41797.29
548.84	42101.56
549.01	41783.24
549.18	41771.54
549.34	41968.15
549.51	42284.12
549.68	42824.78
549.84	42351.99
550.01	42033.68
550.18	41816.01
550.34	41855.80
550.51	42363.70
550.68	42092.19
550.84	41755.16
551.01	42220.92
551.18	42513.49
551.34	42555.62
551.51	42618.81
551.68	42457.32
551.84	42492.43
552.01	42478.38
552.18	42492.43
552.34	42309.86
552.51	42637.54
552.68	42761.59
552.84	42593.07
553.01	42660.94
553.18	42820.10
553.34	43171.18
553.51	42834.14
553.67	42478.38
553.84	42766.27
554.01	42838.83
554.17	43133.73
554.34	43445.02
554.51	42895.00
554.67	43304.59
554.84	43007.34
555.00	42806.06
555.17	43290.55
555.33	43110.33
555.50	43227.35
555.67	43232.04
555.83	43386.51
556.00	43257.78
556.16	43775.04
556.33	43206.29
556.50	43540.99
556.66	43730.57
556.83	43115.01
556.99	43606.52
557.16	43690.78
557.32	43335.02
557.49	43646.31
557.65	43328.00
557.82	43028.41
557.98	43573.75
558.15	43564.39
558.32	43131.39
558.48	43445.02
558.65	43667.37
558.81	43072.88
558.98	43309.27
559.14	43468.43
559.31	43709.50
559.47	43470.77
559.64	44081.65
559.80	43676.74
559.97	43779.72
560.13	43749.29
560.30	43730.57
560.46	43964.62
560.63	44161.23
560.79	43908.45
560.96	43992.71
561.12	44268.89
561.29	43746.95
561.45	44030.16
561.61	44006.75
561.78	44055.90
561.94	43758.66
562.11	44100.37
562.27	44133.14
562.44	44339.11
562.60	43849.94
562.77	44217.40
562.93	43938.88
563.10	44233.78
563.26	44091.01
563.42	44313.36
563.59	43985.69
563.75	43927.17
563.92	44655.08
564.08	43973.98
564.24	44437.41
564.41	44254.85
564.57	44348.47
564.74	44048.88
564.90	44376.56
565.07	44350.81
565.23	43988.03
565.39	44196.34
565.56	44465.50
565.72	44266.55
565.88	44161.23
566.05	44273.57
566.21	44512.31
566.38	44034.84
566.54	44055.90
566.70	44875.09
566.87	44608.27
567.03	44439.75
567.19	44430.39
567.36	44399.96
567.52	44701.89
567.68	44381.24
567.85	44109.74
568.01	44664.44
568.17	44343.79
568.34	44498.26
568.50	44341.45
568.66	44519.33
568.83	44680.83
568.99	44179.95
569.15	44264.21
569.32	44781.47
569.48	44299.32
569.64	44734.66
569.81	44708.91
569.97	44727.64
570.13	44643.38
570.30	44540.39
570.46	44355.49
570.62	44734.66
570.78	44432.73
570.95	44184.63
571.11	45148.93
571.27	44495.92
571.43	44566.14
571.60	44889.13
571.76	44470.18
571.92	44549.76
572.09	44680.83
572.25	44938.29
572.41	44322.72
572.57	44657.42
572.74	45001.48
572.90	44879.77
573.06	44762.75
573.22	44484.22
573.38	45015.52
573.55	44446.77
573.71	44889.13
573.87	44858.71
574.03	44753.38
574.20	44996.80
574.36	44648.06
574.52	44772.11
574.68	44893.82
574.84	44966.37
575.01	44765.09
575.17	44643.38
575.33	45130.21
575.49	44837.64
575.65	44975.73
575.82	45198.09
575.98	44554.44
576.14	45331.50
576.30	45214.47
576.46	45132.55
576.62	44521.67
576.79	44690.19
576.95	44311.02
577.11	44802.53
577.27	44807.22
577.43	45202.77
577.59	45069.36
577.75	44931.26
577.92	45123.19
578.08	44662.10
578.24	44837.64
578.40	44776.79
578.56	44631.68
578.72	44858.71
578.88	45137.23
579.04	45254.26
579.21	44779.13
579.37	44872.75
579.53	45106.80
579.69	44013.77
579.85	45067.02
580.01	44760.40
580.17	45139.57
580.33	45212.13
580.49	44924.24
580.65	45237.87
580.82	45240.21
580.98	45050.63
581.14	44968.71
581.30	44942.97
581.46	45139.57
581.62	45174.68
581.78	44725.30
581.94	45237.87
582.10	44926.58
582.26	44776.79
582.42	44692.53
582.58	45361.92
582.74	44484.22
582.90	45125.53
583.06	45179.36
583.22	45036.59
583.38	45209.79
583.54	45062.33
583.70	44921.90
583.86	45146.59
584.02	44765.09
584.18	45104.46
584.34	44837.64
584.50	45029.57
584.66	44786.15
584.82	45081.06
584.98	45375.97
585.14	45385.33
585.30	45195.74
585.46	45139.57
585.62	44912.54
585.78	44968.71
585.94	44528.69
586.10	44493.58
586.26	44680.83
586.42	45130.21
586.58	44994.46
586.74	45109.14
586.90	45165.32
587.06	44648.06
587.22	44905.52
587.38	44809.56
587.54	44985.10
587.70	45198.09
587.86	45308.09
588.02	45191.06
588.18	44877.43
588.34	44755.72
588.49	44818.92
588.65	45010.84
588.81	44535.71
588.97	44404.64
589.13	44992.12
589.29	44893.82
589.45	45427.46
589.61	44868.07
589.77	44938.29
589.93	45095.10
590.08	45120.85
590.24	44875.09
