SpectraSuite Data File
++++++++++++++++++++++++++++++++++++
Date: Fri Oct 25 10:43:14 EDT 2013
User: price-jones
Dark Spectrum Present: No
Reference Spectrum Present: No
Number of Sampled Component Spectra: 1
Spectrometers: USB2+H05261
Integration Time (usec): 100000 (USB2+H05261)
Spectra Averaged: 1 (USB2+H05261)
Boxcar Smoothing: 0 (USB2+H05261)
Correct for Electrical Dark: No (USB2+H05261)
Strobe/Lamp Enabled: No (USB2+H05261)
Correct for Detector Non-linearity: No (USB2+H05261)
Correct for Stray Light: No (USB2+H05261)
Number of Pixels in Processed Spectrum: 2048
>>>>>Begin Processed Spectral Data<<<<<
365.73	121.71
365.92	121.71
366.12	121.71
366.32	32.77
366.52	9.36
366.72	98.30
366.91	60.85
367.11	21.06
367.31	7.02
367.51	0.00
367.70	25.75
367.90	23.41
368.10	44.47
368.30	37.45
368.49	0.00
368.69	72.56
368.89	74.90
369.09	23.41
369.28	16.38
369.48	81.92
369.68	14.04
369.87	107.66
370.07	58.51
370.27	67.88
370.47	189.58
370.66	299.59
370.86	421.30
371.06	486.83
371.25	521.94
371.45	416.62
371.65	447.04
371.84	482.15
372.04	507.90
372.24	498.53
372.44	440.02
372.63	472.79
372.83	451.72
373.03	482.15
373.22	505.56
373.42	557.05
373.62	533.64
373.81	517.26
374.01	601.52
374.21	505.56
374.40	442.36
374.60	571.09
374.79	594.50
374.99	638.97
375.19	636.63
375.38	557.05
375.58	650.67
375.78	564.07
375.97	641.31
376.17	667.05
376.37	660.03
376.56	638.97
376.76	596.84
376.95	510.24
377.15	638.97
377.35	571.09
377.54	688.12
377.74	519.60
377.93	648.33
378.13	674.07
378.33	629.60
378.52	683.44
378.72	662.37
378.91	629.60
379.11	699.82
379.31	741.95
379.50	615.56
379.70	648.33
379.89	713.86
380.09	653.01
380.28	671.73
380.48	613.22
380.68	634.29
380.87	683.44
381.07	697.48
381.26	660.03
381.46	561.73
381.65	695.14
381.85	664.71
382.04	746.63
382.24	655.35
382.43	645.99
382.63	685.78
382.83	667.05
383.02	763.01
383.22	795.78
383.41	786.42
383.61	676.41
383.80	755.99
384.00	767.70
384.19	755.99
384.39	746.63
384.58	765.36
384.78	737.27
384.97	774.72
385.17	770.04
385.36	732.59
385.56	746.63
385.75	819.19
385.95	751.31
386.14	858.98
386.34	777.06
386.53	861.32
386.72	737.27
386.92	784.08
387.11	851.96
387.31	809.83
387.50	915.15
387.70	875.36
387.89	887.06
388.09	873.02
388.28	870.68
388.48	910.47
388.67	936.21
388.86	877.70
389.06	947.92
389.25	968.98
389.45	945.58
389.64	980.68
389.84	945.58
390.03	976.00
390.22	1062.60
390.42	994.73
390.61	994.73
390.81	997.07
391.00	1090.69
391.19	1043.88
391.39	1043.88
391.58	1081.33
391.78	1137.50
391.97	1064.94
392.16	985.37
392.36	1029.84
392.55	957.28
392.75	997.07
392.94	959.62
393.13	884.72
393.33	952.60
393.52	1086.01
393.71	1118.78
393.91	1109.41
394.10	1057.92
394.29	1142.18
394.49	1111.75
394.68	1139.84
394.88	1233.46
395.07	1231.12
395.26	1128.14
395.46	1102.39
395.65	1228.78
395.84	1174.95
396.04	1231.12
396.23	1284.95
396.42	1093.03
396.62	1074.31
396.81	1142.18
397.00	1289.64
397.19	1296.66
397.39	1268.57
397.58	1439.43
397.77	1390.28
397.97	1380.92
398.16	1416.02
398.35	1434.75
398.55	1420.71
398.74	1425.39
398.93	1502.62
399.12	1629.01
399.32	1453.47
399.51	1462.83
399.70	1624.33
399.90	1540.07
400.09	1598.59
400.28	1593.90
400.47	1561.14
400.67	1687.53
400.86	1636.03
401.05	1605.61
401.24	1673.48
401.44	1757.74
401.63	1720.29
401.82	1687.53
402.01	1696.89
402.21	1743.70
402.40	1671.14
402.59	1792.85
402.78	1802.21
402.97	1767.10
403.17	1832.64
403.36	1837.32
403.55	1736.68
403.74	1790.51
403.93	1963.71
404.13	1837.32
404.32	1827.96
404.51	1907.54
404.70	1919.24
404.89	1851.36
405.09	1998.82
405.28	1961.37
405.47	1994.14
405.66	2029.24
405.85	1989.46
406.05	2012.86
406.24	1923.92
406.43	1998.82
406.62	2062.01
406.81	2155.63
407.00	2134.57
407.20	2120.53
407.39	2174.36
407.58	2064.35
407.77	2167.34
407.96	2228.19
408.15	2310.11
408.34	2169.68
408.54	2263.30
408.73	2324.15
408.92	2289.04
409.11	2333.51
409.30	2265.64
409.49	2167.34
409.68	2228.19
409.87	2267.98
410.07	2352.24
410.26	2317.13
410.45	2459.90
410.64	2483.31
410.83	2469.27
411.02	2560.55
411.21	2738.43
411.40	2530.12
411.59	2539.48
411.78	2562.89
411.98	2572.25
412.17	2637.78
412.36	2698.64
412.55	2729.06
412.74	2710.34
412.93	2605.02
413.12	2750.13
413.31	2991.20
413.50	2899.92
413.69	2860.13
413.88	2906.95
414.07	2871.84
414.26	2925.67
414.45	3096.53
414.64	2991.20
414.83	3124.62
415.02	2925.67
415.22	3138.66
415.41	3192.49
415.60	3089.51
415.79	3056.74
415.98	3302.50
416.17	3206.53
416.36	3243.98
416.55	3166.74
416.74	3272.07
416.93	3295.47
417.12	3241.64
417.31	3379.73
417.50	3234.62
417.69	3358.67
417.88	3471.01
418.07	3368.03
418.26	3431.23
418.45	3454.63
418.64	3536.55
418.83	3702.73
419.02	3609.11
419.21	3550.59
419.39	3669.96
419.58	3627.83
419.77	3522.51
419.96	3723.79
420.15	3716.77
420.34	3681.66
420.53	3754.22
420.72	3667.62
420.91	3840.82
421.10	3859.54
421.29	3871.25
421.48	3812.73
421.67	3794.01
421.86	3836.14
422.05	3786.99
422.24	3655.92
422.43	3775.28
422.61	3824.44
422.80	3969.55
422.99	3829.12
423.18	3901.67
423.37	3913.38
423.56	3889.97
423.75	4028.06
423.94	3962.53
424.13	3669.96
424.32	3873.59
424.50	4046.79
424.69	3967.21
424.88	4056.15
425.07	3878.27
425.26	3878.27
425.45	3929.76
425.64	3908.69
425.83	3911.04
426.01	3990.61
426.20	4039.76
426.39	4079.55
426.58	3941.46
426.77	4039.76
426.96	3908.69
427.15	4014.02
427.33	4102.96
427.52	4154.45
427.71	3983.59
427.90	4184.88
428.09	4243.39
428.28	4191.90
428.46	4093.60
428.65	4149.77
428.84	4245.73
429.03	4353.40
429.22	4117.00
429.40	4093.60
429.59	4170.83
429.78	3943.80
429.97	3906.35
430.16	3992.95
430.34	4100.62
430.53	4109.98
430.72	4168.49
430.91	4198.92
431.10	4386.16
431.28	4627.24
431.47	4617.88
431.66	4683.41
431.85	4503.19
432.03	4641.28
432.22	4723.20
432.41	4613.20
432.60	4807.46
432.79	4657.67
432.97	4833.21
433.16	4718.52
433.35	4594.47
433.54	4709.16
433.72	4599.15
433.91	4652.98
434.10	4753.63
434.28	4770.01
434.47	4847.25
434.66	4952.57
434.85	4875.34
435.03	4884.70
435.22	4975.98
435.41	4994.70
435.59	5041.51
435.78	4992.36
435.97	5153.86
436.16	5160.88
436.34	5004.07
436.53	5093.01
436.72	5296.63
436.90	5095.35
437.09	5144.50
437.28	5095.35
437.46	5153.86
437.65	5261.52
437.84	5214.71
438.02	4968.96
438.21	5207.69
438.40	5069.60
438.58	5296.63
438.77	5427.70
438.96	5359.83
439.14	5460.47
439.33	5551.75
439.52	5460.47
439.70	5664.10
439.89	5685.16
440.08	5628.99
440.26	5724.95
440.45	5877.09
440.63	5764.74
440.82	5966.03
441.01	5811.55
441.19	5860.70
441.38	6017.52
441.57	6120.50
441.75	6272.64
441.94	6239.87
442.12	6179.01
442.31	6274.98
442.50	6373.28
442.68	6239.87
442.87	6270.30
443.05	6251.57
443.24	6424.77
443.43	6380.30
443.61	6490.31
443.80	6602.65
443.98	6249.23
444.17	6064.33
444.35	6471.58
444.54	6546.48
444.73	6553.50
444.91	6415.41
445.10	6462.22
445.28	6511.37
445.47	6464.56
445.65	6377.96
445.84	6417.75
446.02	6717.34
446.21	6478.60
446.39	6623.72
446.58	6740.74
446.77	6726.70
446.95	6649.46
447.14	6827.34
447.32	6766.49
447.51	6710.32
447.69	6574.56
447.88	6773.51
448.06	6738.40
448.25	6574.56
448.43	6654.14
448.62	6654.14
448.80	6553.50
448.99	6743.08
449.17	6773.51
449.36	6590.95
449.54	7005.22
449.73	7028.63
449.91	7138.63
450.10	7150.34
450.28	7262.68
450.46	7307.15
450.65	7265.02
450.83	7138.63
451.02	7030.97
451.20	7080.12
451.39	7215.87
451.57	7138.63
451.76	7222.89
451.94	7138.63
452.13	7218.21
452.31	7089.48
452.49	7023.95
452.68	7269.70
452.86	7030.97
453.05	7288.43
453.23	7311.83
453.42	7098.84
453.60	7281.41
453.78	7499.08
453.97	7382.05
454.15	7475.67
454.34	7393.75
454.52	7400.77
454.70	7506.10
454.89	7728.45
455.07	7426.52
455.26	7808.03
455.44	7866.54
455.62	7691.00
455.81	7705.04
455.99	7864.20
456.17	7571.63
456.36	7730.79
456.54	7864.20
456.73	7887.61
456.91	8060.80
457.09	8147.40
457.28	8189.53
457.46	7845.48
457.64	8205.92
457.83	8215.28
458.01	8138.04
458.19	8016.33
458.38	8154.43
458.56	8126.34
458.74	8124.00
458.93	8088.89
459.11	8322.94
459.29	8135.70
459.48	8166.13
459.66	8299.54
459.84	8379.12
460.03	8514.87
460.21	8369.76
460.39	8505.51
460.57	8638.92
460.76	8346.35
460.94	8667.00
461.12	8549.98
461.31	8482.10
461.49	8538.27
461.67	8720.84
461.85	8826.16
462.04	8744.24
462.22	9392.57
462.40	8978.30
462.59	8903.40
462.77	8809.78
462.95	8943.19
463.13	8671.68
463.32	8978.30
463.50	8952.55
463.68	8990.00
463.86	8875.31
464.05	8856.59
464.23	8833.18
464.41	9184.26
464.59	8772.33
464.78	9233.41
464.96	9022.77
465.14	8997.02
465.32	9137.45
465.50	9322.35
465.69	9284.91
465.87	9235.75
466.05	9195.96
466.23	9149.15
466.41	9277.88
466.60	9235.75
466.78	8922.12
466.96	9320.01
467.14	9413.63
467.32	9533.00
467.51	9579.81
467.69	8999.36
467.87	9502.58
468.05	9507.26
468.23	9397.25
468.41	9312.99
468.60	9479.17
468.78	9582.15
468.96	9418.32
469.14	9584.49
469.32	9776.42
469.50	9235.75
469.69	9659.39
469.87	9785.78
470.05	9729.61
470.23	9860.68
470.41	9870.04
470.59	9860.68
470.77	9776.42
470.95	9942.60
471.14	10164.95
471.32	9916.85
471.50	10321.76
471.68	10270.27
471.86	10429.43
472.04	10436.45
472.22	10366.23
472.40	10347.51
472.58	10293.68
472.77	10289.00
472.95	10593.26
473.13	11070.73
473.31	10368.57
473.49	10623.69
473.67	10647.10
473.85	10736.04
474.03	10911.58
474.21	10846.04
474.39	11023.92
474.57	10937.32
474.75	11040.31
474.93	11213.51
475.12	10918.60
475.30	11222.87
475.48	11311.81
475.66	11187.76
475.84	11173.72
476.02	11527.14
476.20	11375.00
476.38	11527.14
476.56	11779.92
476.74	11735.45
476.92	11609.06
477.10	11700.34
477.28	12138.02
477.46	11948.43
477.64	12194.19
477.82	12496.12
478.00	12479.74
478.18	12582.72
478.36	12571.02
478.54	12688.04
478.72	12847.20
478.90	12791.03
479.08	12987.63
479.26	13256.79
479.44	12985.29
479.62	13121.04
479.80	13404.25
479.98	13371.48
480.16	13671.07
480.34	13685.11
480.52	13706.18
480.70	13678.09
480.88	13680.43
481.06	14092.37
481.24	13923.85
481.41	14071.30
481.59	14501.96
481.77	14326.42
481.95	14281.95
482.13	14389.61
482.31	14663.46
482.49	14640.05
482.67	14754.74
482.85	14902.19
483.03	15269.66
483.21	15192.42
483.39	15192.42
483.57	15515.41
483.74	15187.74
483.92	15602.01
484.10	15501.37
484.28	16049.05
484.46	15941.39
484.64	16016.29
484.82	15850.11
485.00	16016.29
485.18	16280.77
485.35	16257.36
485.53	16156.72
485.71	15976.50
485.89	16369.71
486.07	16243.32
486.25	16741.85
486.43	16795.68
486.61	16891.65
486.78	17216.98
486.96	17144.42
487.14	17441.67
487.32	17614.87
487.50	17928.50
487.68	17874.67
487.85	18382.57
488.03	18335.76
488.21	18565.13
488.39	18429.38
488.57	18539.38
488.75	18726.63
488.92	19108.13
489.10	19384.32
489.28	19377.30
489.46	19484.96
489.64	19693.27
489.81	20283.08
489.99	20072.43
490.17	20240.95
490.35	20416.49
490.53	20336.91
490.70	20458.62
490.88	20404.79
491.06	20671.61
491.24	20589.69
491.41	20369.68
491.59	20629.48
491.77	20657.57
491.95	20933.75
492.13	21200.57
492.30	21542.29
492.48	21661.66
492.66	21834.86
492.84	21736.56
493.01	21914.44
493.19	22040.82
493.37	22136.79
493.54	22340.41
493.72	22017.42
493.90	22586.17
494.08	22761.71
494.25	22974.70
494.43	22934.91
494.61	23335.14
494.79	23215.77
494.96	23285.99
495.14	23592.60
495.32	23372.59
495.49	23693.24
495.67	23826.65
495.85	24023.26
496.02	24088.79
496.20	24226.89
496.38	24428.17
496.55	24297.10
496.73	24889.26
496.91	24498.39
497.09	24905.64
497.26	25039.05
497.44	25001.60
497.62	25034.37
497.79	25284.81
497.97	24797.98
498.14	25118.63
498.32	25088.20
498.50	25612.48
498.67	25891.01
498.85	25944.84
499.03	26132.08
499.20	25708.44
499.38	26419.97
499.56	26113.36
499.73	26419.97
499.91	26279.54
500.08	26141.44
500.26	26396.56
500.44	26382.52
500.61	26441.03
500.79	26815.52
500.97	26794.45
501.14	27421.72
501.32	26642.32
501.49	26808.50
501.67	27047.23
501.84	27220.43
502.02	27454.48
502.20	27281.28
502.37	27772.80
502.55	27477.89
502.72	27985.79
502.90	27693.22
503.07	27913.23
503.25	28222.18
503.43	28067.70
503.60	28088.77
503.78	27962.38
503.95	28004.51
504.13	28421.13
504.30	28500.70
504.48	28329.84
504.65	28437.51
504.83	28835.40
505.01	29048.39
505.18	28617.73
505.36	29476.71
505.53	29502.45
505.71	29331.59
505.88	29713.10
506.06	29481.39
506.23	29546.92
506.41	29525.86
506.58	29825.45
506.76	29968.22
506.93	29958.86
507.11	29631.18
507.28	30029.07
507.46	29823.11
507.63	30061.84
507.81	30202.27
507.98	30085.25
508.16	30632.93
508.33	30679.74
508.50	30539.31
508.68	30822.51
508.85	30969.97
509.03	30649.32
509.20	30749.96
509.38	30855.28
509.55	31110.40
509.73	31016.78
509.90	31260.20
510.08	31255.51
510.25	31035.50
510.42	31285.94
510.60	31627.66
510.77	31351.48
510.95	31798.52
511.12	31835.97
511.30	31695.53
511.47	32353.23
511.64	32055.98
511.82	32264.28
511.99	31793.84
512.17	32418.76
512.34	32013.85
512.51	32098.11
512.69	32545.15
512.86	32655.15
513.04	32849.42
513.21	32582.60
513.38	32690.26
513.56	33031.98
513.73	32350.88
513.90	33221.56
514.08	32919.63
514.25	32814.31
514.43	33228.59
514.60	33024.96
514.77	33226.24
514.95	33240.29
515.12	33336.25
515.29	33261.35
515.47	33703.71
515.64	34036.07
515.81	33687.33
515.99	33912.02
516.16	33687.33
516.33	33317.53
516.51	33450.94
516.68	33284.76
516.85	33699.03
517.03	33600.73
517.20	33734.14
517.37	34183.52
517.54	34256.08
517.72	34382.47
517.89	33879.25
518.06	33502.43
518.24	33935.43
518.41	34218.63
518.58	34546.31
518.75	34436.30
518.93	34387.15
519.10	34761.64
519.27	34766.32
519.45	34675.04
519.62	35028.46
519.79	35281.24
519.96	34969.94
520.14	35318.68
520.31	35084.63
520.48	35349.11
520.65	34967.60
520.83	36137.87
521.00	35634.66
521.17	35620.61
521.34	35658.06
521.52	36402.35
521.69	35835.94
521.86	36371.92
522.03	36044.25
522.20	36287.67
522.38	36023.19
522.55	36575.55
522.72	36222.13
522.89	36624.70
523.07	36439.80
523.24	36236.17
523.41	36800.24
523.58	36278.30
523.75	37188.77
523.92	37048.34
524.10	36921.95
524.27	37287.07
524.44	36980.46
524.61	37106.85
524.78	37387.72
524.96	37581.98
525.13	37483.68
525.30	37544.53
525.47	37928.38
525.64	37319.84
525.81	37603.05
525.98	37525.81
526.16	37067.06
526.33	37457.93
526.50	37607.73
526.67	36648.11
526.84	37380.70
527.01	37205.16
527.18	37792.63
527.36	37818.38
527.53	37811.35
527.70	38251.38
527.87	38213.93
528.04	37860.51
528.21	38354.36
528.38	38550.96
528.55	38366.06
528.72	38242.01
528.89	38806.08
529.07	38803.74
529.24	38471.39
529.41	38700.76
529.58	38731.18
529.75	38534.58
529.92	38953.54
530.09	38562.67
530.26	39166.52
530.43	38834.17
530.60	38969.92
530.77	39147.80
530.94	39571.44
531.11	38937.15
531.28	39171.21
531.46	39711.87
531.63	39543.35
531.80	39210.99
531.97	39360.79
532.14	39068.22
532.31	38822.47
532.48	39178.23
532.65	39529.31
532.82	39510.58
532.99	39643.99
533.16	39805.49
533.33	39938.90
533.50	39924.86
533.67	39604.20
533.84	39819.53
534.01	39737.62
534.18	40130.83
534.35	40446.80
534.52	40009.12
534.69	40289.98
534.86	40620.00
535.03	39988.05
535.20	40669.15
535.37	40577.87
535.54	40849.37
535.71	40100.40
535.88	40725.32
536.05	40865.75
536.22	40875.12
536.38	40849.37
536.55	40278.28
536.72	40231.47
536.89	40404.67
537.06	40704.26
537.23	40950.01
537.40	40407.01
537.57	40830.65
537.74	41155.98
537.91	41354.93
538.08	41050.66
538.25	40652.76
538.42	41092.79
538.59	41235.56
538.75	40959.38
538.92	40928.95
539.09	41345.56
539.26	41390.03
539.43	41507.06
539.60	41017.89
539.77	40957.03
539.94	41139.60
540.11	41146.62
540.28	41258.96
540.44	41453.23
540.61	41364.29
540.78	41345.56
540.95	41139.60
541.12	41593.66
541.29	41453.23
541.46	41383.01
541.62	41738.77
541.79	41546.85
541.96	41167.68
542.13	41378.33
542.30	41944.74
542.47	41668.56
542.63	41869.84
542.80	41839.42
542.97	42373.06
543.14	42520.51
543.31	42422.21
543.48	42337.95
543.64	42534.56
543.81	42646.90
543.98	42518.17
544.15	42789.67
544.32	42993.30
544.48	42761.59
544.65	42892.66
544.82	42775.63
544.99	42033.68
545.16	42864.57
545.32	42609.45
545.49	43051.81
545.66	43625.25
545.83	42756.91
546.00	43255.44
546.16	42906.70
546.33	42534.56
546.50	42658.60
546.67	42981.60
546.83	42667.97
547.00	42979.26
547.17	42665.63
547.34	43192.25
547.50	43014.37
547.67	43510.56
547.84	42934.79
548.00	43688.44
548.17	43407.58
548.34	43763.34
548.51	43756.32
548.67	43578.43
548.84	43576.09
549.01	43714.19
549.18	43601.84
549.34	43597.16
549.51	43636.95
549.68	43765.68
549.84	43428.64
550.01	43484.81
550.18	43229.69
550.34	43679.08
550.51	43688.44
550.68	43768.02
550.84	43014.37
551.01	43573.75
551.18	43838.23
551.34	43803.13
551.51	43529.28
551.68	44130.80
551.84	44044.20
552.01	43716.53
552.18	43908.45
552.34	43782.06
552.51	43976.33
552.68	43775.04
552.84	44477.20
553.01	44411.67
553.18	44046.54
553.34	44100.37
553.51	44636.36
553.67	44128.46
553.84	44868.07
554.01	44533.37
554.17	44573.16
554.34	44570.82
554.51	44575.50
554.67	44664.44
554.84	44467.84
555.00	44313.36
555.17	44161.23
555.33	44348.47
555.50	44727.64
555.67	44542.74
555.83	44449.11
556.00	44573.16
556.16	44994.46
556.33	44486.56
556.50	44533.37
556.66	44641.04
556.83	44126.12
556.99	44470.18
557.16	45006.16
557.32	44732.32
557.49	44802.53
557.65	44594.23
557.82	45008.50
557.98	44879.77
558.15	44694.87
558.32	45029.57
558.48	44713.59
558.65	44786.15
558.81	44645.72
558.98	44889.13
559.14	44779.13
559.31	44931.26
559.47	44690.19
559.64	44694.87
559.80	44683.17
559.97	44992.12
560.13	44865.73
560.30	45216.81
560.46	44947.65
560.63	45064.67
560.79	45469.59
560.96	45064.67
561.12	45230.85
561.29	45301.07
561.45	45263.62
561.61	45031.91
561.78	45289.37
561.94	45188.72
562.11	45432.14
562.27	45167.66
562.44	45780.88
562.60	45120.85
562.77	45567.89
562.93	45160.64
563.10	45546.82
563.26	44964.03
563.42	45380.65
563.59	44961.69
563.75	45675.55
563.92	45471.93
564.08	45177.02
564.24	45331.50
564.41	45443.84
564.57	45287.03
564.74	45223.83
564.90	44905.52
565.07	45411.07
565.23	44973.39
565.39	45137.23
565.56	45565.55
565.72	44828.28
565.88	45074.04
566.05	45214.47
566.21	45523.42
566.38	45560.87
566.54	44924.24
566.70	45705.98
566.87	45797.26
567.03	45647.47
567.19	46202.18
567.36	45928.33
567.52	45535.12
567.68	45872.16
567.85	45404.05
568.01	45324.47
568.17	45600.66
568.34	45406.39
568.50	45490.65
568.66	45347.88
568.83	45565.55
568.99	45401.71
569.15	45556.19
569.32	45310.43
569.48	45418.10
569.64	45879.18
569.81	45595.98
569.97	45668.53
570.13	45680.24
570.30	45216.81
570.46	45263.62
570.62	45071.70
570.78	45509.38
570.95	44835.30
571.11	45256.60
571.27	45251.92
571.43	45841.73
571.60	45937.69
571.76	45909.61
571.92	45930.67
572.09	45972.80
572.25	45560.87
572.41	45820.67
572.57	45666.19
572.74	46108.55
572.90	45970.46
573.06	46082.81
573.22	45607.68
573.38	45956.42
573.55	45907.27
573.71	46050.04
573.87	46071.10
574.03	45558.53
574.20	45893.22
574.36	45500.01
574.52	45708.32
574.68	45614.70
574.84	45504.70
575.01	45989.19
575.17	45874.50
575.33	45633.42
575.49	45687.26
575.65	45979.82
575.82	45394.69
575.98	45448.52
576.14	46003.23
576.30	45748.11
576.46	45354.90
576.62	45603.00
576.79	45624.06
576.95	45900.25
577.11	45703.64
577.27	45565.55
577.43	45897.91
577.59	45677.90
577.75	45834.71
577.92	45500.01
578.08	45104.46
578.24	45514.06
578.40	45167.66
578.56	45827.69
578.72	45654.49
578.88	46066.42
579.04	46059.40
579.21	46115.58
579.37	45766.84
579.53	45485.97
579.69	45738.75
579.85	45591.30
580.01	45710.66
580.17	45792.58
580.33	45935.35
580.49	45886.20
580.65	45696.62
580.82	45450.86
580.98	45710.66
581.14	45567.89
581.30	45886.20
581.46	46052.38
581.62	46057.06
581.78	45956.42
581.94	46349.63
582.10	46188.13
582.26	45722.37
582.42	45551.51
582.58	45766.84
582.74	45729.39
582.90	45722.37
583.06	45883.86
583.22	45888.54
583.38	45820.67
583.54	46525.17
583.70	45804.28
583.86	45635.77
584.02	45476.61
584.18	45619.38
584.34	45406.39
584.50	45972.80
584.66	45752.79
584.82	45736.41
584.98	46003.23
585.14	45933.01
585.30	45741.09
585.46	45874.50
585.62	45490.65
585.78	45682.58
585.94	45530.44
586.10	45663.85
586.26	45904.93
586.42	45876.84
586.58	46110.89
586.74	45818.33
586.90	45591.30
587.06	46031.32
587.22	45975.14
587.38	46003.23
587.54	46026.63
587.70	45911.95
587.86	45867.48
588.02	45918.97
588.18	46373.03
588.34	45537.46
588.49	45638.11
588.65	45567.89
588.81	45282.34
588.97	45436.82
589.13	45198.09
589.29	45553.85
589.45	45464.91
589.61	45668.53
589.77	46094.51
589.93	46183.45
590.08	45993.87
