SpectraSuite Data File
++++++++++++++++++++++++++++++++++++
Date: Fri Oct 25 11:33:32 EDT 2013
User: price-jones
Dark Spectrum Present: No
Reference Spectrum Present: No
Number of Sampled Component Spectra: 1
Spectrometers: USB2+H05261
Integration Time (usec): 100000 (USB2+H05261)
Spectra Averaged: 1 (USB2+H05261)
Boxcar Smoothing: 0 (USB2+H05261)
Correct for Electrical Dark: No (USB2+H05261)
Strobe/Lamp Enabled: No (USB2+H05261)
Correct for Detector Non-linearity: No (USB2+H05261)
Correct for Stray Light: No (USB2+H05261)
Number of Pixels in Processed Spectrum: 2048
>>>>>Begin Processed Spectral Data<<<<<
365.73	280.86
365.92	280.86
366.12	280.86
366.32	194.26
366.52	145.11
366.72	212.99
366.91	191.92
367.11	224.69
367.31	189.58
367.51	161.50
367.70	222.35
367.90	166.18
368.10	138.09
368.30	135.75
368.49	107.66
368.69	177.88
368.89	159.16
369.09	191.92
369.28	163.84
369.48	194.26
369.68	191.92
369.87	271.50
370.07	180.22
370.27	327.68
370.47	273.84
370.66	484.49
370.86	512.58
371.06	568.75
371.25	587.47
371.45	528.96
371.65	568.75
371.84	589.82
372.04	571.09
372.24	615.56
372.44	594.50
372.63	554.71
372.83	603.86
373.03	622.58
373.22	585.13
373.42	578.11
373.62	624.92
373.81	514.92
374.01	610.88
374.21	589.82
374.40	699.82
374.60	676.41
374.79	580.45
374.99	636.63
375.19	655.35
375.38	676.41
375.58	683.44
375.78	732.59
375.97	627.26
376.17	669.39
376.37	711.52
376.56	713.86
376.76	660.03
376.95	702.16
377.15	744.29
377.35	685.78
377.54	653.01
377.74	627.26
377.93	702.16
378.13	688.12
378.33	720.88
378.52	746.63
378.72	657.69
378.91	746.63
379.11	706.84
379.31	788.76
379.50	713.86
379.70	763.01
379.89	702.16
380.09	718.54
380.28	807.48
380.48	690.46
380.68	732.59
380.87	765.36
381.07	676.41
381.26	758.33
381.46	779.40
381.65	788.76
381.85	730.25
382.04	777.06
382.24	814.51
382.43	793.44
382.63	755.99
382.83	819.19
383.02	807.48
383.22	767.70
383.41	856.64
383.61	840.25
383.80	758.33
384.00	791.10
384.19	819.19
384.39	784.08
384.58	784.08
384.78	844.93
384.97	828.55
385.17	746.63
385.36	713.86
385.56	826.21
385.75	840.25
385.95	779.40
386.14	926.85
386.34	809.83
386.53	791.10
386.72	894.08
386.92	875.36
387.11	903.45
387.31	884.72
387.50	922.17
387.70	880.04
387.89	882.38
388.09	877.70
388.28	896.43
388.48	889.40
388.67	891.74
388.86	889.40
389.06	954.94
389.25	973.66
389.45	957.28
389.64	917.49
389.84	964.30
390.03	940.90
390.22	1018.13
390.42	957.28
390.61	1048.56
390.81	938.55
391.00	1022.81
391.19	971.32
391.39	966.64
391.58	994.73
391.78	997.07
391.97	985.37
392.16	1004.09
392.36	905.79
392.55	1039.20
392.75	1097.71
392.94	976.00
393.13	1100.05
393.33	1018.13
393.52	1111.75
393.71	1128.14
393.91	1078.99
394.10	1163.25
394.29	1104.73
394.49	1128.14
394.68	1144.52
394.88	1170.27
395.07	1116.44
395.26	1118.78
395.46	1137.50
395.65	1221.76
395.84	1137.50
396.04	1284.95
396.23	1196.01
396.42	1102.39
396.62	1125.80
396.81	1212.40
397.00	1254.53
397.19	1226.44
397.39	1205.38
397.58	1261.55
397.77	1235.80
397.97	1247.51
398.16	1247.51
398.35	1259.21
398.55	1313.04
398.74	1313.04
398.93	1334.11
399.12	1308.36
399.32	1299.00
399.51	1301.34
399.70	1331.76
399.90	1320.06
400.09	1289.64
400.28	1406.66
400.47	1362.19
400.67	1394.96
400.86	1409.00
401.05	1397.30
401.24	1313.04
401.44	1451.13
401.63	1472.20
401.82	1460.49
402.01	1441.77
402.21	1465.18
402.40	1460.49
402.59	1453.47
402.78	1490.92
402.97	1511.99
403.17	1600.93
403.36	1596.25
403.55	1657.10
403.74	1474.54
403.93	1563.48
404.13	1636.03
404.32	1565.82
404.51	1680.50
404.70	1593.90
404.89	1481.56
405.09	1717.95
405.28	1722.63
405.47	1685.19
405.66	1734.34
405.85	1788.17
406.05	1685.19
406.24	1666.46
406.43	1692.21
406.62	1785.83
406.81	1774.13
407.00	1717.95
407.20	1811.57
407.39	1856.04
407.58	1774.13
407.77	1891.15
407.96	1863.07
408.15	1809.23
408.34	1858.39
408.54	2001.16
408.73	1926.26
408.92	1933.28
409.11	1923.92
409.30	1959.03
409.49	2026.90
409.68	2094.78
409.87	2165.00
410.07	2050.31
410.26	2165.00
410.45	2106.48
410.64	2083.08
410.83	2101.80
411.02	2106.48
411.21	2218.83
411.40	2218.83
411.59	2228.19
411.78	2284.36
411.98	2169.68
412.17	2286.70
412.36	2303.09
412.55	2328.83
412.74	2324.15
412.93	2387.35
413.12	2202.44
413.31	2436.50
413.50	2399.05
413.69	2345.22
413.88	2466.92
414.07	2445.86
414.26	2523.10
414.45	2595.65
414.64	2476.29
414.83	2626.08
415.02	2583.95
415.22	2743.11
415.41	2738.43
415.60	2665.87
415.79	2750.13
415.98	2672.89
416.17	2740.77
416.36	2740.77
416.55	2825.03
416.74	2867.16
416.93	2806.30
417.12	2745.45
417.31	3012.27
417.50	2785.24
417.69	2988.86
417.88	2967.80
418.07	2970.14
418.26	2916.31
418.45	2899.92
418.64	3204.19
418.83	2991.20
419.02	3045.04
419.21	3073.12
419.39	3136.32
419.58	3084.83
419.77	3056.74
419.96	3122.27
420.15	3150.36
420.34	3281.43
420.53	3176.11
420.72	3227.60
420.91	3225.26
421.10	3171.43
421.29	3267.39
421.48	3267.39
421.67	3227.60
421.86	3426.54
422.05	3281.43
422.24	3316.54
422.43	3384.41
422.61	3506.12
422.80	3407.82
422.99	3405.48
423.18	3344.63
423.37	3492.08
423.56	3400.80
423.75	3447.61
423.94	3309.52
424.13	3103.55
424.32	3314.20
424.50	3435.91
424.69	3468.67
424.88	3475.70
425.07	3431.23
425.26	3246.32
425.45	3391.44
425.64	3368.03
425.83	3482.72
426.01	3384.41
426.20	3517.83
426.39	3520.17
426.58	3365.69
426.77	3611.45
426.96	3545.91
427.15	3522.51
427.33	3501.44
427.52	3552.93
427.71	3676.98
427.90	3576.34
428.09	3494.42
428.28	3620.81
428.46	3693.37
428.65	3719.11
428.84	3754.22
429.03	3655.92
429.22	3726.13
429.40	3843.16
429.59	3812.73
429.78	3576.34
429.97	3733.15
430.16	3660.60
430.34	3976.57
430.53	4046.79
430.72	3847.84
430.91	3976.57
431.10	3941.46
431.28	3873.59
431.47	3997.64
431.66	4039.76
431.85	3896.99
432.03	4234.03
432.22	4081.89
432.41	4184.88
432.60	4053.81
432.79	4035.08
432.97	4051.47
433.16	4241.05
433.35	4028.06
433.54	4131.05
433.72	4212.96
433.91	4032.74
434.10	4042.11
434.28	4177.86
434.47	4241.05
434.66	4308.93
434.85	4381.48
435.03	4269.14
435.22	4224.67
435.41	4645.96
435.59	4390.84
435.78	4217.65
435.97	4400.21
436.16	4386.16
436.34	4414.25
436.53	4407.23
436.72	4561.70
436.90	4479.79
437.09	4484.47
437.28	4524.26
437.46	4629.58
437.65	4451.70
437.84	4531.28
438.02	4671.71
438.21	4638.94
438.40	4531.28
438.58	4868.31
438.77	4835.55
438.96	4770.01
439.14	4772.35
439.33	4910.44
439.52	4968.96
439.70	4842.57
439.89	4908.10
440.08	5153.86
440.26	4943.21
440.45	5149.18
440.63	5032.15
440.82	5060.24
441.01	5004.07
441.19	5102.37
441.38	5263.86
441.57	5327.06
441.75	5301.31
441.94	5416.00
442.12	5296.63
442.31	5453.45
442.50	5518.98
442.68	5427.70
442.87	5427.70
443.05	5458.13
443.24	5584.52
443.43	5610.26
443.61	5612.60
443.80	5771.76
443.98	5547.07
444.17	5350.46
444.35	5617.29
444.54	5748.36
444.73	5734.31
444.91	5706.23
445.10	5713.25
445.28	5603.24
445.47	5554.09
445.65	5713.25
445.84	5652.39
446.02	5633.67
446.21	5750.70
446.39	5750.70
446.58	5846.66
446.77	5806.87
446.95	5600.90
447.14	5781.12
447.32	5767.08
447.51	5727.29
447.69	5699.20
447.88	5717.93
448.06	5731.97
448.25	5930.92
448.43	5736.65
448.62	5797.51
448.80	5877.09
448.99	5839.64
449.17	5879.43
449.36	5888.79
449.54	6022.20
449.73	5949.64
449.91	6047.94
450.10	6036.24
450.28	5959.00
450.46	6136.88
450.65	6232.85
450.83	6150.93
451.02	6139.23
451.20	6389.66
451.39	6076.03
451.57	6069.01
451.76	6167.31
451.94	6204.76
452.13	6317.11
452.31	6347.53
452.49	6310.08
452.68	6305.40
452.86	6452.86
453.05	6380.30
453.23	6541.80
453.42	6487.96
453.60	6312.42
453.78	6492.65
453.97	6263.27
454.15	6541.80
454.34	6331.15
454.52	6349.87
454.70	6424.77
454.89	6513.71
455.07	6553.50
455.26	6539.46
455.44	6715.00
455.62	6658.82
455.81	6649.46
455.99	6715.00
456.17	6857.77
456.36	6787.55
456.54	6771.17
456.73	6960.75
456.91	7026.29
457.09	6785.21
457.28	6972.46
457.46	6965.43
457.64	6991.18
457.83	6977.14
458.01	7040.33
458.19	7293.11
458.38	7119.91
458.56	7283.75
458.74	7145.66
458.93	7255.66
459.11	7126.93
459.29	7332.90
459.48	7428.86
459.66	7206.51
459.84	7377.37
460.03	7529.50
460.21	7349.28
460.39	7478.01
460.57	7438.22
460.76	7604.40
460.94	7353.96
461.12	7522.48
461.31	7719.09
461.49	7660.57
461.67	7489.71
461.85	7581.00
462.04	7456.95
462.22	8088.89
462.40	7705.04
462.59	7749.51
462.77	7693.34
462.95	7894.63
463.13	7747.17
463.32	7819.73
463.50	7840.79
463.68	7850.16
463.86	7878.24
464.05	7936.76
464.23	7906.33
464.41	7906.33
464.59	8025.70
464.78	8053.78
464.96	7918.03
465.14	7878.24
465.32	8063.15
465.50	8184.85
465.69	8182.51
465.87	8079.53
466.05	8072.51
466.23	8119.32
466.41	8210.60
466.60	8236.35
466.78	8231.66
466.96	8152.09
467.14	8105.28
467.32	8514.87
467.51	8336.99
467.69	8121.66
467.87	8334.65
468.05	8404.86
468.23	8285.50
468.41	8339.33
468.60	8362.73
468.78	8592.11
468.96	8589.77
469.14	8709.13
469.32	8779.35
469.50	8367.42
469.69	8849.57
469.87	8610.83
470.05	8657.64
470.23	8924.46
470.41	8678.71
470.59	8933.82
470.77	8725.52
470.95	8830.84
471.14	9039.15
471.32	8828.50
471.50	9067.24
471.68	9071.92
471.86	9149.15
472.04	9083.62
472.22	9331.72
472.40	9020.42
472.58	9219.37
472.77	9280.22
472.95	9268.52
473.13	9844.29
473.31	9411.29
473.49	9338.74
473.67	9390.23
473.85	9633.64
474.03	9774.08
474.21	9867.70
474.39	9717.90
474.57	9785.78
474.75	10003.45
474.93	10087.71
475.12	9916.85
475.30	10066.64
475.48	10031.54
475.66	10038.56
475.84	10157.92
476.02	10202.40
476.20	10312.40
476.38	10506.66
476.56	10712.63
476.74	10597.95
476.92	10644.76
477.10	10532.41
477.28	10555.82
477.46	10628.37
477.64	10822.64
477.82	10785.19
478.00	11243.93
478.18	11131.59
478.36	11386.71
478.54	11339.90
478.72	11503.73
478.90	11536.50
479.08	11770.55
479.26	11721.40
479.44	11580.97
479.62	11847.79
479.80	11800.98
479.98	11906.31
480.16	12437.61
480.34	12372.07
480.52	12322.92
480.70	12233.98
480.88	12243.34
481.06	12442.29
481.24	12613.15
481.41	12538.25
481.59	12798.05
481.77	12779.32
481.95	12854.22
482.13	12964.23
482.31	12842.52
482.49	13207.64
482.67	13336.37
482.85	13369.14
483.03	13621.92
483.21	13692.13
483.39	13701.50
483.57	13589.15
483.74	13877.04
483.92	14340.46
484.10	14068.96
484.28	14422.38
484.46	14359.19
484.64	14693.88
484.82	14270.25
485.00	14572.18
485.18	14963.04
485.35	15199.44
485.53	15133.90
485.71	14920.92
485.89	15569.24
486.07	15267.31
486.25	15389.02
486.43	15655.84
486.61	15632.44
486.78	15943.73
486.96	15955.43
487.14	16063.10
487.32	16166.08
487.50	16475.03
487.68	16259.70
487.85	16294.81
488.03	16795.68
488.21	16959.52
488.39	16898.67
488.57	17123.36
488.75	17394.86
488.92	17518.91
489.10	17298.90
489.28	17664.02
489.46	17996.38
489.64	17792.75
489.81	18043.19
489.99	18328.74
490.17	17942.55
490.35	18682.16
490.53	18506.62
490.70	18583.85
490.88	18640.03
491.06	19073.03
491.24	19028.56
491.41	19197.07
491.59	19435.81
491.77	19222.82
491.95	19344.53
492.13	19424.11
492.30	19868.81
492.48	19901.58
492.66	20009.24
492.84	19871.15
493.01	20435.22
493.19	20130.95
493.37	20332.23
493.54	20402.45
493.72	20793.32
493.90	20774.60
494.08	20886.94
494.25	21294.19
494.43	20737.15
494.61	21322.28
494.79	21387.82
494.96	21467.39
495.14	21333.98
495.32	21902.73
495.49	21855.92
495.67	21860.60
495.85	21881.67
496.02	22171.89
496.20	22326.37
496.38	22403.61
496.55	22382.54
496.73	23002.78
496.91	22836.61
497.09	22735.96
497.26	22789.80
497.44	23110.45
497.62	23051.94
497.79	23623.03
497.97	23178.33
498.14	23484.94
498.32	23880.49
498.50	23590.26
498.67	24091.13
498.85	23967.09
499.03	24372.00
499.20	24367.32
499.38	24114.54
499.56	24264.33
499.73	24474.98
499.91	24648.18
500.08	24985.22
500.26	24744.14
500.44	24865.85
500.61	24613.07
500.79	24840.11
500.97	25212.25
501.14	25563.33
501.32	25385.45
501.49	25387.79
501.67	25542.27
501.84	25589.08
502.02	25289.49
502.20	25804.41
502.37	25963.56
502.55	25900.37
502.72	25949.52
502.90	25738.87
503.07	25961.22
503.25	26499.55
503.43	26167.19
503.60	26625.93
503.78	26546.36
503.95	26111.02
504.13	26677.43
504.30	26771.05
504.48	26841.26
504.65	26988.72
504.83	27206.39
505.01	27115.11
505.18	27089.36
505.36	27379.59
505.53	27246.18
505.71	26867.01
505.88	27786.84
506.06	27304.69
506.23	27573.85
506.41	27763.43
506.58	27852.38
506.76	27648.75
506.93	27831.31
507.11	27943.66
507.28	28329.84
507.46	28219.84
507.63	28259.63
507.81	28393.04
507.98	28493.68
508.16	28112.17
508.33	28601.35
508.50	28701.99
508.68	28683.27
508.85	29385.43
509.03	29048.39
509.20	29174.78
509.38	29558.63
509.55	29270.74
509.73	29116.26
509.90	30115.67
510.08	29626.50
510.25	29371.38
510.42	29745.87
510.60	29708.42
510.77	29874.60
510.95	29951.84
511.12	30148.44
511.30	29963.54
511.47	30136.74
511.64	29940.13
511.82	30724.21
511.99	30422.28
512.17	30415.26
512.34	30356.75
512.51	30906.77
512.69	30733.57
512.86	31058.91
513.04	31021.46
513.21	30988.69
513.38	31157.21
513.56	31112.74
513.73	31094.02
513.90	31175.94
514.08	31157.21
514.25	31466.16
514.43	31498.93
514.60	31358.50
514.77	31292.96
514.95	31789.16
515.12	31936.61
515.29	31648.72
515.47	32652.81
515.64	32378.97
515.81	31707.24
515.99	32151.94
516.16	32505.36
516.33	32292.37
516.51	32346.20
516.68	32245.56
516.85	32655.15
517.03	32746.44
517.20	32734.73
517.37	32966.45
517.54	32762.82
517.72	32982.83
517.89	32636.43
518.06	33102.20
518.24	33125.60
518.41	33137.30
518.58	33394.76
518.75	33294.12
518.93	33703.71
519.10	33237.95
519.27	33567.96
519.45	33656.90
519.62	33825.42
519.79	33935.43
519.96	33549.24
520.14	33724.78
520.31	33909.68
520.48	34183.52
520.65	33818.40
520.83	34405.88
521.00	34408.22
521.17	34354.38
521.34	34464.39
521.52	34504.18
521.69	34532.26
521.86	34717.17
522.03	34742.91
522.20	34749.93
522.38	35051.86
522.55	35061.22
522.72	34799.08
522.89	35187.61
523.07	35335.07
523.24	35557.42
523.41	35311.66
523.58	35044.84
523.75	35646.36
523.92	35255.49
524.10	35452.09
524.27	35681.47
524.44	35782.11
524.61	35608.91
524.78	35739.98
524.96	36285.33
525.13	35805.52
525.30	36191.70
525.47	36472.57
525.64	35824.24
525.81	36760.45
525.98	36219.79
526.16	36477.25
526.33	36453.84
526.50	36580.23
526.67	36397.67
526.84	36596.62
527.01	36503.00
527.18	36669.17
527.36	37228.56
527.53	36760.45
527.70	37759.86
527.87	37411.12
528.04	37331.54
528.21	37612.41
528.38	37015.57
528.55	37537.51
528.72	37350.27
528.89	37397.08
529.07	37034.30
529.24	37053.02
529.41	37633.47
529.58	37600.71
529.75	37673.26
529.92	37560.92
530.09	37923.70
530.26	37827.74
530.43	37699.01
530.60	37656.88
530.77	37673.26
530.94	38302.87
531.11	37804.33
531.28	37937.74
531.46	38366.06
531.63	38277.12
531.80	37951.79
531.97	38171.80
532.14	38581.39
532.31	38553.30
532.48	38951.20
532.65	38897.36
532.82	38831.83
532.99	38405.85
533.16	38878.64
533.33	38796.72
533.50	38726.50
533.67	39295.25
533.84	38328.61
534.01	39388.88
534.18	38878.64
534.35	39159.50
534.52	39248.44
534.69	39578.46
534.86	39529.31
535.03	39262.49
535.20	39377.17
535.37	39414.62
535.54	40116.78
535.71	38913.75
535.88	39569.10
536.05	39524.63
536.22	39660.38
536.38	39943.58
536.55	39452.07
536.72	39831.24
536.89	39901.45
537.06	39660.38
537.23	40397.65
537.40	40226.79
537.57	40091.04
537.74	39922.52
537.91	40168.27
538.08	40243.17
538.25	39454.41
538.42	40348.50
538.59	40685.53
538.75	40437.44
538.92	41092.79
539.09	40870.43
539.26	40177.64
539.43	40821.28
539.60	40580.21
539.77	40669.15
539.94	40961.72
540.11	40840.01
540.28	40933.63
540.44	40968.74
540.61	40811.92
540.78	40772.13
540.95	40837.67
541.12	40442.12
541.29	41048.32
541.46	40933.63
541.62	40973.42
541.79	41514.08
541.96	40804.90
542.13	41158.32
542.30	41191.09
542.47	41303.43
542.63	41743.45
542.80	41928.36
542.97	41949.42
543.14	41476.63
543.31	41736.43
543.48	41984.53
543.64	42316.89
543.81	42185.82
543.98	42136.66
544.15	42160.07
544.32	42183.48
544.48	42375.40
544.65	41989.21
544.82	42499.45
544.99	42047.72
545.16	41998.57
545.32	42691.37
545.49	43131.39
545.66	42426.89
545.83	42955.85
546.00	42672.65
546.16	42347.31
546.33	42211.56
546.50	42525.19
546.67	42689.03
546.83	42632.86
547.00	42817.76
547.17	42562.64
547.34	42799.04
547.50	42941.81
547.67	43138.41
547.84	43133.73
548.00	43332.68
548.17	43665.03
548.34	43253.10
548.51	43627.59
548.67	43468.43
548.84	43199.27
549.01	43222.67
549.18	43122.03
549.34	43728.23
549.51	43480.13
549.68	43487.15
549.84	43667.37
550.01	43721.21
550.18	43709.50
550.34	43812.49
550.51	43934.20
550.68	43943.56
550.84	43388.85
551.01	44100.37
551.18	43789.08
551.34	43512.90
551.51	43775.04
551.68	43805.47
551.84	43522.26
552.01	43634.61
552.18	44278.25
552.34	44119.10
552.51	43522.26
552.68	43847.60
552.84	43620.56
553.01	44177.61
553.18	43978.67
553.34	44144.84
553.51	44163.57
553.67	44189.31
553.84	44243.15
554.01	44215.06
554.17	44360.17
554.34	44603.59
554.51	44596.57
554.67	44659.76
554.84	44381.24
555.00	45050.63
555.17	44786.15
555.33	44856.37
555.50	44575.50
555.67	44973.39
555.83	44444.43
556.00	44783.81
556.16	45158.30
556.33	45488.31
556.50	45216.81
556.66	44814.24
556.83	44835.30
556.99	44849.35
557.16	45265.96
557.32	44863.39
557.49	45755.13
557.65	44964.03
557.82	45198.09
557.98	45287.03
558.15	45106.80
558.32	45127.87
558.48	45303.41
558.65	45095.10
558.81	45336.18
558.98	44842.32
559.14	45481.29
559.31	45282.34
559.47	45425.12
559.64	45766.84
559.80	45731.73
559.97	45654.49
560.13	45612.36
560.30	45577.25
560.46	45886.20
560.63	46073.45
560.79	45703.64
560.96	46171.75
561.12	45736.41
561.29	46101.53
561.45	46014.93
561.61	45373.63
561.78	45633.42
561.94	45455.54
562.11	46225.58
562.27	46003.23
562.44	45689.60
562.60	45921.31
562.77	45696.62
562.93	45647.47
563.10	46209.20
563.26	45944.72
563.42	46335.59
563.59	46251.33
563.75	46279.41
563.92	46113.23
564.08	45752.79
564.24	46452.61
564.41	46225.58
564.57	46433.89
564.74	46248.99
564.90	45916.63
565.07	45890.88
565.23	46089.83
565.39	46167.07
565.56	46164.73
565.72	46366.01
565.88	45872.16
566.05	46157.70
566.21	46284.09
566.38	46330.90
566.54	46487.72
566.70	46522.83
566.87	46127.28
567.03	46298.14
567.19	46845.82
567.36	46377.72
567.52	46799.01
567.68	46607.09
567.85	46513.47
568.01	46590.70
568.17	46260.69
568.34	46452.61
568.50	46672.62
568.66	46277.07
568.83	46319.20
568.99	46108.55
569.15	46749.86
569.32	46431.55
569.48	46988.60
569.64	46904.34
569.81	46710.07
569.97	46738.16
570.13	46920.72
570.30	46328.56
570.46	46834.12
570.62	46761.56
570.78	46784.97
570.95	46623.47
571.11	47168.82
571.27	46883.27
571.43	46993.28
571.60	46979.23
571.76	46717.09
571.92	46412.82
572.09	46628.15
572.25	46880.93
572.41	46588.36
572.57	46946.47
572.74	47646.29
572.90	47063.49
573.06	47007.32
573.22	47140.73
573.38	47054.13
573.55	47028.38
573.71	47175.84
573.87	47014.34
574.03	46780.29
574.20	47327.97
574.36	47054.13
574.52	46969.87
574.68	47222.65
574.84	47199.24
575.01	47253.08
575.17	47334.99
575.33	46897.31
575.49	46937.10
575.65	47302.23
575.82	46878.59
575.98	46995.62
576.14	47199.24
576.30	47161.79
576.46	47320.95
576.62	46813.05
576.79	47491.81
576.95	46405.80
577.11	46909.02
577.27	47028.38
577.43	47264.78
577.59	47037.75
577.75	46869.23
577.92	46693.69
578.08	47030.72
578.24	46941.78
578.40	47487.13
578.56	47168.82
578.72	47295.21
578.88	47742.25
579.04	47100.94
579.21	47248.39
579.37	47250.74
579.53	47320.95
579.69	47196.90
579.85	47241.37
580.01	47435.64
580.17	47377.12
580.33	47683.73
580.49	47318.61
580.65	47229.67
580.82	47578.41
580.98	46810.71
581.14	47196.90
581.30	47686.07
581.46	47110.30
581.62	47243.71
581.78	47007.32
581.94	47482.45
582.10	47320.95
582.26	47606.50
582.42	47470.75
582.58	47068.17
582.74	47730.54
582.90	47152.43
583.06	47704.80
583.22	47129.03
583.38	47384.15
583.54	47594.79
583.70	47569.05
583.86	47063.49
584.02	47040.09
584.18	47899.06
584.34	47377.12
584.50	47894.38
584.66	47398.19
584.82	47313.93
584.98	47613.52
585.14	47452.02
585.30	47407.55
585.46	47096.26
585.62	47468.40
585.78	47632.24
585.94	47367.76
586.10	47405.21
586.26	46920.72
586.42	47440.32
586.58	47756.29
586.74	47346.70
586.90	47817.14
587.06	47402.87
587.22	47388.83
587.38	47157.11
587.54	47629.90
587.70	47725.86
587.86	47800.76
588.02	47454.36
588.18	47604.16
588.34	47571.39
588.49	47889.70
588.65	47777.36
588.81	47435.64
588.97	47643.94
589.13	47576.07
589.29	47557.35
589.45	47749.27
589.61	47587.77
589.77	48088.65
589.93	47484.79
590.08	47913.11
