SpectraSuite Data File
++++++++++++++++++++++++++++++++++++
Date: Fri Oct 25 10:44:12 EDT 2013
User: price-jones
Dark Spectrum Present: No
Reference Spectrum Present: No
Number of Sampled Component Spectra: 1
Spectrometers: USB2+H05261
Integration Time (usec): 100000 (USB2+H05261)
Spectra Averaged: 1 (USB2+H05261)
Boxcar Smoothing: 0 (USB2+H05261)
Correct for Electrical Dark: No (USB2+H05261)
Strobe/Lamp Enabled: No (USB2+H05261)
Correct for Detector Non-linearity: No (USB2+H05261)
Correct for Stray Light: No (USB2+H05261)
Number of Pixels in Processed Spectrum: 2048
>>>>>Begin Processed Spectral Data<<<<<
365.73	124.05
365.92	124.05
366.12	124.05
366.32	16.38
366.52	0.00
366.72	37.45
366.91	49.15
367.11	9.36
367.31	107.66
367.51	44.47
367.70	32.77
367.90	0.00
368.10	32.77
368.30	7.02
368.49	51.49
368.69	98.30
368.89	88.94
369.09	9.36
369.28	58.51
369.48	51.49
369.68	126.39
369.87	11.70
370.07	81.92
370.27	112.35
370.47	191.92
370.66	383.85
370.86	435.34
371.06	465.77
371.25	444.70
371.45	411.93
371.65	552.37
371.84	456.40
372.04	437.68
372.24	500.87
372.44	470.45
372.63	512.58
372.83	493.85
373.03	531.30
373.22	557.05
373.42	514.92
373.62	535.98
373.81	512.58
374.01	571.09
374.21	533.64
374.40	554.71
374.60	634.29
374.79	491.51
374.99	552.37
375.19	477.47
375.38	557.05
375.58	585.13
375.78	519.60
375.97	573.43
376.17	638.97
376.37	580.45
376.56	594.50
376.76	571.09
376.95	606.20
377.15	636.63
377.35	662.37
377.54	645.99
377.74	613.22
377.93	702.16
378.13	674.07
378.33	664.71
378.52	634.29
378.72	648.33
378.91	653.01
379.11	617.90
379.31	645.99
379.50	674.07
379.70	645.99
379.89	711.52
380.09	685.78
380.28	737.27
380.48	681.10
380.68	732.59
380.87	641.31
381.07	755.99
381.26	690.46
381.46	786.42
381.65	697.48
381.85	786.42
382.04	706.84
382.24	699.82
382.43	596.84
382.63	704.50
382.83	730.25
383.02	774.72
383.22	772.38
383.41	699.82
383.61	657.69
383.80	732.59
384.00	711.52
384.19	798.12
384.39	758.33
384.58	828.55
384.78	763.01
384.97	774.72
385.17	774.72
385.36	873.02
385.56	763.01
385.75	763.01
385.95	720.88
386.14	826.21
386.34	863.66
386.53	847.27
386.72	849.61
386.92	833.23
387.11	870.68
387.31	940.90
387.50	873.02
387.70	842.59
387.89	891.74
388.09	929.19
388.28	919.83
388.48	849.61
388.67	915.15
388.86	915.15
389.06	976.00
389.25	898.77
389.45	1020.47
389.64	873.02
389.84	896.43
390.03	933.87
390.22	1011.11
390.42	1055.58
390.61	999.41
390.81	1006.43
391.00	1076.65
391.19	1001.75
391.39	990.05
391.58	1057.92
391.78	1071.97
391.97	987.71
392.16	1069.62
392.36	1027.50
392.55	990.05
392.75	1088.35
392.94	1032.18
393.13	940.90
393.33	985.37
393.52	1022.81
393.71	1125.80
393.91	1188.99
394.10	1088.35
394.29	1210.06
394.49	1165.59
394.68	1179.63
394.88	1163.25
395.07	1284.95
395.26	1196.01
395.46	1203.04
395.65	1259.21
395.84	1132.82
396.04	1177.29
396.23	1163.25
396.42	1158.57
396.62	1111.75
396.81	1179.63
397.00	1303.68
397.19	1207.72
397.39	1308.36
397.58	1320.06
397.77	1324.74
397.97	1383.26
398.16	1392.62
398.35	1458.15
398.55	1432.41
398.74	1413.68
398.93	1502.62
399.12	1455.81
399.32	1469.86
399.51	1490.92
399.70	1575.18
399.90	1542.41
400.09	1526.03
400.28	1495.60
400.47	1668.80
400.67	1575.18
400.86	1577.52
401.05	1636.03
401.24	1643.06
401.44	1710.93
401.63	1771.79
401.82	1799.87
402.01	1664.12
402.21	1746.04
402.40	1703.91
402.59	1692.21
402.78	1809.23
402.97	1727.32
403.17	1722.63
403.36	1870.09
403.55	1795.19
403.74	1877.11
403.93	1928.60
404.13	1834.98
404.32	1877.11
404.51	1893.49
404.70	1900.52
404.89	1884.13
405.09	1942.64
405.28	1905.20
405.47	2001.16
405.66	1921.58
405.85	1954.35
406.05	1830.30
406.24	2015.20
406.43	1968.39
406.62	2083.08
406.81	2097.12
407.00	2106.48
407.20	2085.42
407.39	2094.78
407.58	2108.82
407.77	2080.74
407.96	2143.93
408.15	2141.59
408.34	2174.36
408.54	2237.55
408.73	2246.91
408.92	2356.92
409.11	2289.04
409.30	2377.98
409.49	2286.70
409.68	2258.62
409.87	2265.64
410.07	2352.24
410.26	2303.09
410.45	2431.82
410.64	2431.82
410.83	2462.24
411.02	2450.54
411.21	2541.82
411.40	2499.69
411.59	2605.02
411.78	2525.44
411.98	2623.74
412.17	2696.30
412.36	2750.13
412.55	2719.70
412.74	2836.73
412.93	2668.21
413.12	2640.12
413.31	2789.92
413.50	2820.35
413.69	2871.84
413.88	2909.29
414.07	2855.45
414.26	2810.98
414.45	3042.70
414.64	2967.80
414.83	2993.55
415.02	3021.63
415.22	3066.10
415.41	3215.90
415.60	3255.69
415.79	3070.78
415.98	3126.96
416.17	3358.67
416.36	3302.50
416.55	3204.19
416.74	3302.50
416.93	3225.26
417.12	3206.53
417.31	3286.11
417.50	3325.90
417.69	3353.99
417.88	3435.91
418.07	3337.60
418.26	3349.31
418.45	3332.92
418.64	3529.53
418.83	3623.15
419.02	3461.65
419.21	3606.77
419.39	3559.95
419.58	3548.25
419.77	3473.36
419.96	3529.53
420.15	3728.47
420.34	3761.24
420.53	3719.11
420.72	3770.60
420.91	3791.67
421.10	3749.54
421.29	3810.39
421.48	3747.20
421.67	3728.47
421.86	3714.43
422.05	3882.95
422.24	3850.18
422.43	3815.07
422.61	3845.50
422.80	3789.33
422.99	3995.29
423.18	4021.04
423.37	4025.72
423.56	3868.91
423.75	3859.54
423.94	3845.50
424.13	3691.02
424.32	3653.58
424.50	3992.95
424.69	3974.23
424.88	3871.25
425.07	3868.91
425.26	3850.18
425.45	3892.31
425.64	3875.93
425.83	3899.33
426.01	3922.74
426.20	4044.45
426.39	4049.13
426.58	3854.86
426.77	3964.87
426.96	4042.11
427.15	4025.72
427.33	4065.51
427.52	3988.27
427.71	4095.94
427.90	4163.81
428.09	4231.69
428.28	4142.75
428.46	3936.78
428.65	4163.81
428.84	4161.47
429.03	4308.93
429.22	4142.75
429.40	4126.36
429.59	4152.11
429.78	4046.79
429.97	3817.41
430.16	3978.91
430.34	4046.79
430.53	4084.23
430.72	4114.66
430.91	4238.71
431.10	4423.61
431.28	4430.63
431.47	4648.30
431.66	4535.96
431.85	4519.57
432.03	4603.83
432.22	4610.86
432.41	4533.62
432.60	4699.80
432.79	4566.39
432.97	4814.48
433.16	4823.84
433.35	4622.56
433.54	4580.43
433.72	4685.75
433.91	4535.96
434.10	4688.09
434.28	4704.48
434.47	4821.50
434.66	4903.42
434.85	4880.02
435.03	5006.41
435.22	4926.83
435.41	5104.71
435.59	4980.66
435.78	5008.75
435.97	5095.35
436.16	5172.58
436.34	5132.79
436.53	4971.30
436.72	4999.38
436.90	5069.60
437.09	5205.35
437.28	5083.64
437.46	5221.74
437.65	5114.07
437.84	5245.14
438.02	5022.79
438.21	5291.95
438.40	5100.03
438.58	5324.72
438.77	5296.63
438.96	5305.99
439.14	5518.98
439.33	5696.86
439.52	5540.05
439.70	5500.26
439.89	5703.89
440.08	5507.28
440.26	5530.69
440.45	5806.87
440.63	5839.64
440.82	5935.60
441.01	5886.45
441.19	5991.77
441.38	6202.42
441.57	6115.82
441.75	6146.25
441.94	6195.40
442.12	6338.17
442.31	6298.38
442.50	6338.17
442.68	6216.46
442.87	6370.94
443.05	6244.55
443.24	6506.69
443.43	6504.35
443.61	6417.75
443.80	6541.80
443.98	6333.49
444.17	6181.35
444.35	6424.77
444.54	6572.22
444.73	6520.73
444.91	6525.41
445.10	6434.13
445.28	6403.71
445.47	6291.36
445.65	6289.02
445.84	6537.12
446.02	6553.50
446.21	6546.48
446.39	6544.14
446.58	6558.18
446.77	6569.88
446.95	6548.82
447.14	6705.63
447.32	6696.27
447.51	6757.13
447.69	6635.42
447.88	6642.44
448.06	6860.11
448.25	6602.65
448.43	6729.04
448.62	6876.49
448.80	6733.72
448.99	6745.42
449.17	6871.81
449.36	6773.51
449.54	6967.77
449.73	7169.06
449.91	7040.33
450.10	7166.72
450.28	7262.68
450.46	7180.76
450.65	7155.02
450.83	7368.01
451.02	7084.80
451.20	7194.81
451.39	7068.42
451.57	7194.81
451.76	7089.48
451.94	7192.47
452.13	7162.04
452.31	7108.21
452.49	7094.16
452.68	7117.57
452.86	7241.62
453.05	7330.56
453.23	7304.81
453.42	7342.26
453.60	7243.96
453.78	7314.17
453.97	7529.50
454.15	7363.33
454.34	7229.91
454.52	7515.46
454.70	7431.20
454.89	7428.86
455.07	7459.29
455.26	7517.80
455.44	7730.79
455.62	7667.60
455.81	7522.48
455.99	7709.72
456.17	7941.44
456.36	7854.84
456.54	7950.80
456.73	7922.71
456.91	8065.49
457.09	8102.93
457.28	8145.06
457.46	7864.20
457.64	7927.39
457.83	7934.42
458.01	8107.62
458.19	8264.43
458.38	8140.38
458.56	8278.47
458.74	8140.38
458.93	8339.33
459.11	8336.99
459.29	8241.03
459.48	7985.91
459.66	8159.11
459.84	8285.50
460.03	8575.72
460.21	8446.99
460.39	8592.11
460.57	8212.94
460.76	8339.33
460.94	8601.47
461.12	8664.66
461.31	8613.17
461.49	8741.90
461.67	8652.96
461.85	8760.63
462.04	8692.75
462.22	8898.72
462.40	8786.37
462.59	8737.22
462.77	8931.48
462.95	8734.88
463.13	8929.14
463.32	8645.94
463.50	8697.43
463.68	8978.30
463.86	8954.89
464.05	8823.82
464.23	8929.14
464.41	9132.77
464.59	8746.58
464.78	9135.11
464.96	9139.79
465.14	8929.14
465.32	9153.84
465.50	9060.21
465.69	9263.84
465.87	9149.15
466.05	9163.20
466.23	9142.13
466.41	9259.16
466.60	9458.10
466.78	9219.37
466.96	9268.52
467.14	9296.61
467.32	9404.27
467.51	9540.02
467.69	9078.94
467.87	9444.06
468.05	9591.52
468.23	9266.18
468.41	9420.66
468.60	9554.07
468.78	9408.95
468.96	9476.83
469.14	9563.43
469.32	9762.37
469.50	9500.23
469.69	9741.31
469.87	9776.42
470.05	10043.24
470.23	9846.63
470.41	9717.90
470.59	9720.24
470.77	9717.90
470.95	9713.22
471.14	10050.26
471.32	10113.45
471.50	10108.77
471.68	10312.40
471.86	10539.43
472.04	10342.83
472.22	10593.26
472.40	10321.76
472.58	10284.31
472.77	10457.51
472.95	10572.20
473.13	10764.12
473.31	10429.43
473.49	10394.32
473.67	10600.29
473.85	10710.29
474.03	10712.63
474.21	10920.94
474.39	11066.05
474.57	10927.96
474.75	11187.76
474.93	11220.53
475.12	10986.47
475.30	11187.76
475.48	11442.88
475.66	11321.17
475.84	11112.86
476.02	11475.65
476.20	11623.10
476.38	11508.41
476.56	11782.26
476.74	11513.10
476.92	11728.42
477.10	11681.61
477.28	11770.55
477.46	11957.80
477.64	12109.93
477.82	12196.53
478.00	12514.84
478.18	12571.02
478.36	12404.84
478.54	12709.11
478.72	12678.68
478.90	13022.74
479.08	12886.99
479.26	13322.33
479.44	13186.58
479.62	13160.83
479.80	13324.67
479.98	13448.72
480.16	13516.59
480.34	13387.86
480.52	13654.69
480.70	13427.65
480.88	13612.56
481.06	13884.06
481.24	13645.32
481.41	14033.85
481.59	14501.96
481.77	14443.45
481.95	14431.74
482.13	14548.77
482.31	14380.25
482.49	14941.98
482.67	14719.63
482.85	14766.44
483.03	15049.64
483.21	15377.32
483.39	15475.62
483.57	15131.56
483.74	15456.90
483.92	15566.90
484.10	15625.42
484.28	15679.25
484.46	16198.85
484.64	16365.03
484.82	16067.78
485.00	16226.93
485.18	16266.72
485.35	16521.84
485.53	16093.52
485.71	15889.90
485.89	16652.91
486.07	16358.00
486.25	16566.31
486.43	16809.73
486.61	17067.19
486.78	17305.92
486.96	17472.10
487.14	17586.79
487.32	17413.59
487.50	17820.84
487.68	18073.62
487.85	18349.80
488.03	18263.20
488.21	18455.12
488.39	18361.50
488.57	18644.71
488.75	18635.35
488.92	19094.09
489.10	19414.74
489.28	19323.46
489.46	19733.06
489.64	19527.09
489.81	20049.03
489.99	19845.40
490.17	20086.48
490.35	20416.49
490.53	20004.56
490.70	20460.96
490.88	20198.82
491.06	20695.02
491.24	20840.13
491.41	20266.70
491.59	20634.16
491.77	20688.00
491.95	21184.19
492.13	21296.53
492.30	21383.13
492.48	21687.40
492.66	21535.27
492.84	21900.39
493.01	21876.99
493.19	21844.22
493.37	21951.88
493.54	22192.96
493.72	22796.82
493.90	22445.74
494.08	22668.09
494.25	23117.47
494.43	22855.33
494.61	23370.25
494.79	23374.93
494.96	23470.89
495.14	23594.94
495.32	23709.63
495.49	23868.78
495.67	23840.70
495.85	23929.64
496.02	23927.30
496.20	24437.53
496.38	24687.97
496.55	24599.03
496.73	24680.95
496.91	24514.77
497.09	24847.13
497.26	25212.25
497.44	25109.27
497.62	24926.71
497.79	25481.41
497.97	25172.46
498.14	25476.73
498.32	25652.27
498.50	25811.43
498.67	25816.11
498.85	25996.33
499.03	26064.21
499.20	26647.00
499.38	26340.39
499.56	26361.45
499.73	26281.88
499.91	26384.86
500.08	26405.92
500.26	26272.51
500.44	26431.67
500.61	26705.51
500.79	26239.75
500.97	27229.79
501.14	26869.35
501.32	26944.25
501.49	26764.03
501.67	27056.59
501.84	27220.43
502.02	27527.04
502.20	27323.41
502.37	27623.00
502.55	27623.00
502.72	28107.49
502.90	28027.92
503.07	27468.53
503.25	28105.15
503.43	28041.96
503.60	27992.81
503.78	27985.79
503.95	27950.68
504.13	28327.50
504.30	28519.43
504.48	28460.91
504.65	28744.12
504.83	28886.89
505.01	29181.80
505.18	29167.76
505.36	29895.66
505.53	29013.28
505.71	29146.69
505.88	29502.45
506.06	29146.69
506.23	29357.34
506.41	29984.60
506.58	29909.71
506.76	29640.54
506.93	30202.27
507.11	29937.79
507.28	29935.45
507.46	30075.88
507.63	30005.67
507.81	30003.33
507.98	30115.67
508.16	30345.05
508.33	30504.20
508.50	30595.48
508.68	30792.09
508.85	31063.59
509.03	30892.73
509.20	31117.42
509.38	31105.72
509.55	31058.91
509.73	31119.76
509.90	31229.77
510.08	31414.67
510.25	31278.92
510.42	31150.19
510.60	31882.78
510.77	31922.57
510.95	31732.98
511.12	31789.16
511.30	31740.00
511.47	31786.82
511.64	32346.20
511.82	32378.97
511.99	32126.19
512.17	31908.52
512.34	32519.40
512.51	32437.48
512.69	32828.35
512.86	32720.69
513.04	32870.48
513.21	32699.62
513.38	32903.25
513.56	32879.85
513.73	32620.05
513.90	33216.88
514.08	32776.86
514.25	33151.35
514.43	33273.06
514.60	33432.21
514.77	33343.27
514.95	33392.42
515.12	33331.57
515.29	33642.86
515.47	33921.38
515.64	33949.47
515.81	33783.29
515.99	33589.03
516.16	33844.15
516.33	33694.35
516.51	33586.69
516.68	33539.88
516.85	33085.81
517.03	33392.42
517.20	33762.23
517.37	34204.59
517.54	34361.40
517.72	33893.30
517.89	33947.13
518.06	33869.89
518.24	33893.30
518.41	34064.16
518.58	34878.66
518.75	34710.14
518.93	34773.34
519.10	34859.94
519.27	34962.92
519.45	35115.06
519.62	35236.77
519.79	35110.38
519.96	35564.44
520.14	35683.81
520.31	34824.83
520.48	35824.24
520.65	35388.90
520.83	35723.60
521.00	36060.63
521.17	36011.48
521.34	36048.93
521.52	35938.93
521.69	36573.21
521.86	36191.70
522.03	36128.51
522.20	36446.82
522.38	36140.21
522.55	36446.82
522.72	36540.44
522.89	36081.70
523.07	36505.34
523.24	36788.54
523.41	36556.83
523.58	36486.61
523.75	37095.15
523.92	37067.06
524.10	37095.15
524.27	37226.22
524.44	37235.58
524.61	37109.19
524.78	37053.02
524.96	37343.25
525.13	38033.71
525.30	37743.48
525.47	37982.21
525.64	37638.15
525.81	37663.90
525.98	37706.03
526.16	37371.33
526.33	37191.11
526.50	37593.68
526.67	37015.57
526.84	36889.18
527.01	37591.34
527.18	37600.71
527.36	37804.33
527.53	37970.51
527.70	38667.99
527.87	38588.41
528.04	38380.10
528.21	38305.21
528.38	38625.86
528.55	39136.10
528.72	38972.26
528.89	38813.10
529.07	39129.08
529.24	38281.80
529.41	39274.19
529.58	38431.60
529.75	38705.44
529.92	39112.69
530.09	39154.82
530.26	39377.17
530.43	39358.45
530.60	38600.12
530.77	39178.23
530.94	39985.71
531.11	39611.23
531.28	39264.83
531.46	39482.50
531.63	39559.73
531.80	39037.80
531.97	39566.76
532.14	39313.98
532.31	39037.80
532.48	39498.88
532.65	39498.88
532.82	39545.69
532.99	39969.33
533.16	39269.51
533.33	40006.78
533.50	39880.39
533.67	40477.22
533.84	39896.77
534.01	40076.99
534.18	39931.88
534.35	40790.86
534.52	40154.23
534.69	40591.91
534.86	40526.38
535.03	40598.93
535.20	40388.28
535.37	40961.72
535.54	40788.52
535.71	41013.21
535.88	40617.66
536.05	40231.47
536.22	40631.70
536.38	40868.09
536.55	40687.87
536.72	40800.22
536.89	40837.67
537.06	40634.04
537.23	41371.31
537.40	41212.15
537.57	41029.59
537.74	41017.89
537.91	41261.30
538.08	41172.36
538.25	41043.63
538.42	40886.82
538.59	41214.49
538.75	40886.82
538.92	40886.82
539.09	41464.93
539.26	41607.70
539.43	41532.81
539.60	41446.21
539.77	40978.10
539.94	41303.43
540.11	41617.07
540.28	41495.36
540.44	41645.15
540.61	41132.57
540.78	41099.81
540.95	41230.88
541.12	41483.66
541.29	42139.00
541.46	41401.74
541.62	42150.71
541.79	42279.44
541.96	41883.89
542.13	41956.44
542.30	42199.86
542.47	41916.65
542.63	41897.93
542.80	42061.77
542.97	42525.19
543.14	42766.27
543.31	42590.73
543.48	42974.58
543.64	42698.39
543.81	42960.53
543.98	42829.46
544.15	42632.86
544.32	43005.00
544.48	43267.14
544.65	43030.75
544.82	43203.95
544.99	42630.52
545.16	42674.99
545.32	42672.65
545.49	43533.96
545.66	43416.94
545.83	43203.95
546.00	43239.06
546.16	42997.98
546.33	42960.53
546.50	42904.36
546.67	43360.76
546.83	43201.61
547.00	43517.58
547.17	43498.86
547.34	43246.08
547.50	43208.63
547.67	43335.02
547.84	43405.23
548.00	43604.18
548.17	43739.93
548.34	43449.70
548.51	43711.84
548.67	43922.49
548.84	43955.26
549.01	43775.04
549.18	43487.15
549.34	43796.10
549.51	44058.24
549.68	44292.30
549.84	43878.02
550.01	44304.00
550.18	43693.12
550.34	44266.55
550.51	44137.82
550.68	43997.39
550.84	43768.02
551.01	44458.48
551.18	44112.08
551.34	44318.04
551.51	43936.54
551.68	44526.35
551.84	44254.85
552.01	44133.14
552.18	43945.90
552.34	44194.00
552.51	44165.91
552.68	44282.94
552.84	44430.39
553.01	44638.70
553.18	44353.15
553.34	44261.87
553.51	44456.14
553.67	44416.35
553.84	44942.97
554.01	44753.38
554.17	44648.06
554.34	45195.74
554.51	44924.24
554.67	44711.25
554.84	44648.06
555.00	44751.04
555.17	44390.60
555.33	44839.98
555.50	44528.69
555.67	44748.70
555.83	44926.58
556.00	44442.09
556.16	45125.53
556.33	45043.61
556.50	44657.42
556.66	44762.75
556.83	44687.85
556.99	44928.92
557.16	45116.17
557.32	45050.63
557.49	44872.75
557.65	44657.42
557.82	45167.66
557.98	45120.85
558.15	45270.64
558.32	45305.75
558.48	45235.53
558.65	44980.42
558.81	44830.62
558.98	44952.33
559.14	45167.66
559.31	44966.37
559.47	45287.03
559.64	45350.22
559.80	45251.92
559.97	45357.24
560.13	45350.22
560.30	45057.65
560.46	45645.13
560.63	45256.60
560.79	45326.81
560.96	45661.51
561.12	45338.52
561.29	45425.12
561.45	45558.53
561.61	45404.05
561.78	45549.17
561.94	45490.65
562.11	45294.05
562.27	45310.43
562.44	45432.14
562.60	45743.43
562.77	45830.03
562.93	45378.31
563.10	45677.90
563.26	45600.66
563.42	45713.00
563.59	45413.41
563.75	45612.36
563.92	46096.85
564.08	45724.71
564.24	46045.36
564.41	45778.54
564.57	45862.80
564.74	45628.74
564.90	45659.17
565.07	45874.50
565.23	45497.67
565.39	46010.25
565.56	45921.31
565.72	45659.17
565.88	45904.93
566.05	45581.93
566.21	45815.99
566.38	45645.13
566.54	45715.34
566.70	46019.61
566.87	46162.39
567.03	46045.36
567.19	46122.60
567.36	46171.75
567.52	45663.85
567.68	46050.04
567.85	45556.19
568.01	46354.31
568.17	45654.49
568.34	46007.91
568.50	45570.23
568.66	45785.56
568.83	45937.69
568.99	45830.03
569.15	45839.39
569.32	46089.83
569.48	45521.08
569.64	45921.31
569.81	45954.08
569.97	45916.63
570.13	45958.76
570.30	45518.74
570.46	45804.28
570.62	45698.96
570.78	45422.78
570.95	45815.99
571.11	46209.20
571.27	45851.09
571.43	46073.45
571.60	45724.71
571.76	46010.25
571.92	45991.53
572.09	46071.10
572.25	45867.48
572.41	46078.13
572.57	45787.90
572.74	46450.27
572.90	45961.10
573.06	45982.16
573.22	46082.81
573.38	45752.79
573.55	45701.30
573.71	46045.36
573.87	46024.29
574.03	46124.94
574.20	45801.94
574.36	45720.02
574.52	46113.23
574.68	46216.22
574.84	45977.48
575.01	45951.74
575.17	45930.67
575.33	45827.69
575.49	45879.18
575.65	46244.30
575.82	46131.96
575.98	46113.23
576.14	46344.95
576.30	46501.76
576.46	46033.66
576.62	46232.60
576.79	46110.89
576.95	45991.53
577.11	46059.40
577.27	46464.32
577.43	45907.27
577.59	46047.70
577.75	46000.89
577.92	45593.64
578.08	46087.49
578.24	45621.72
578.40	45954.08
578.56	46323.88
578.72	45911.95
578.88	46459.63
579.04	46506.44
579.21	45989.19
579.37	46164.73
579.53	45928.33
579.69	45895.56
579.85	46361.33
580.01	46167.07
580.17	45993.87
580.33	46204.52
580.49	46321.54
580.65	46649.22
580.82	46059.40
580.98	46195.15
581.14	46007.91
581.30	46216.22
581.46	46419.84
581.62	46464.32
581.78	46312.18
581.94	46267.71
582.10	46188.13
582.26	46288.77
582.42	46014.93
582.58	46138.98
582.74	46328.56
582.90	46593.04
583.06	46602.41
583.22	46555.60
583.38	46646.88
583.54	46405.80
583.70	46424.53
583.86	46248.99
584.02	46494.74
584.18	46115.58
584.34	46131.96
584.50	46199.83
584.66	46370.69
584.82	46012.59
584.98	46731.14
585.14	46469.00
585.30	46176.43
585.46	46328.56
585.62	46398.78
585.78	46124.94
585.94	45925.99
586.10	46433.89
586.26	46216.22
586.42	46382.40
586.58	46354.31
586.74	46216.22
586.90	45944.72
587.06	46204.52
587.22	46337.93
587.38	45799.60
587.54	45935.35
587.70	46560.28
587.86	46330.90
588.02	46513.47
588.18	45862.80
588.34	46031.32
588.49	45825.35
588.65	45184.04
588.81	45778.54
588.97	46024.29
589.13	45993.87
589.29	46075.79
589.45	46286.43
589.61	46298.14
589.77	46586.02
589.93	46211.54
