SpectraSuite Data File
++++++++++++++++++++++++++++++++++++
Date: Fri Oct 25 10:48:23 EDT 2013
User: price-jones
Dark Spectrum Present: No
Reference Spectrum Present: No
Number of Sampled Component Spectra: 1
Spectrometers: USB2+H05261
Integration Time (usec): 100000 (USB2+H05261)
Spectra Averaged: 1 (USB2+H05261)
Boxcar Smoothing: 0 (USB2+H05261)
Correct for Electrical Dark: No (USB2+H05261)
Strobe/Lamp Enabled: No (USB2+H05261)
Correct for Detector Non-linearity: No (USB2+H05261)
Correct for Stray Light: No (USB2+H05261)
Number of Pixels in Processed Spectrum: 2048
>>>>>Begin Processed Spectral Data<<<<<
365.73	135.75
365.92	135.75
366.12	135.75
366.32	114.69
366.52	91.28
366.72	72.56
366.91	35.11
367.11	28.09
367.31	25.75
367.51	23.41
367.70	0.00
367.90	0.00
368.10	56.17
368.30	79.58
368.49	0.00
368.69	60.85
368.89	58.51
369.09	98.30
369.28	70.22
369.48	107.66
369.68	91.28
369.87	133.41
370.07	105.32
370.27	100.64
370.47	290.23
370.66	442.36
370.86	425.98
371.06	449.38
371.25	468.11
371.45	437.68
371.65	463.43
371.84	470.45
372.04	433.00
372.24	505.56
372.44	402.57
372.63	503.22
372.83	519.60
373.03	535.98
373.22	482.15
373.42	526.62
373.62	589.82
373.81	505.56
374.01	472.79
374.21	662.37
374.40	615.56
374.60	631.94
374.79	601.52
374.99	667.05
375.19	638.97
375.38	592.16
375.58	638.97
375.78	641.31
375.97	608.54
376.17	662.37
376.37	613.22
376.56	629.60
376.76	587.47
376.95	601.52
377.15	692.80
377.35	650.67
377.54	702.16
377.74	650.67
377.93	685.78
378.13	699.82
378.33	685.78
378.52	676.41
378.72	716.20
378.91	713.86
379.11	732.59
379.31	592.16
379.50	624.92
379.70	725.57
379.89	739.61
380.09	734.93
380.28	629.60
380.48	681.10
380.68	709.18
380.87	641.31
381.07	704.50
381.26	709.18
381.46	709.18
381.65	685.78
381.85	741.95
382.04	706.84
382.24	720.88
382.43	781.74
382.63	667.05
382.83	713.86
383.02	812.17
383.22	823.87
383.41	706.84
383.61	760.67
383.80	814.51
384.00	781.74
384.19	662.37
384.39	807.48
384.58	781.74
384.78	833.23
384.97	889.40
385.17	791.10
385.36	774.72
385.56	809.83
385.75	758.33
385.95	814.51
386.14	772.38
386.34	842.59
386.53	945.58
386.72	856.64
386.92	894.08
387.11	929.19
387.31	842.59
387.50	833.23
387.70	812.17
387.89	849.61
388.09	938.55
388.28	917.49
388.48	966.64
388.67	952.60
388.86	976.00
389.06	1062.60
389.25	882.38
389.45	1013.45
389.64	952.60
389.84	950.26
390.03	952.60
390.22	1076.65
390.42	1020.47
390.61	1081.33
390.81	905.79
391.00	1064.94
391.19	1013.45
391.39	1041.54
391.58	1118.78
391.78	1001.75
391.97	1128.14
392.16	1006.43
392.36	994.73
392.55	1071.97
392.75	1090.69
392.94	987.71
393.13	1093.03
393.33	1039.20
393.52	1086.01
393.71	1123.46
393.91	1102.39
394.10	1123.46
394.29	1132.82
394.49	1135.16
394.68	1238.14
394.88	1191.33
395.07	1270.91
395.26	1179.63
395.46	1235.80
395.65	1186.65
395.84	1198.35
396.04	1238.14
396.23	1165.59
396.42	1242.82
396.62	1282.61
396.81	1196.01
397.00	1219.42
397.19	1348.15
397.39	1254.53
397.58	1334.11
397.77	1296.66
397.97	1362.19
398.16	1352.83
398.35	1462.83
398.55	1322.40
398.74	1483.90
398.93	1458.15
399.12	1483.90
399.32	1551.78
399.51	1476.88
399.70	1430.07
399.90	1558.80
400.09	1497.94
400.28	1629.01
400.47	1481.56
400.67	1643.06
400.86	1626.67
401.05	1621.99
401.24	1586.88
401.44	1715.61
401.63	1647.74
401.82	1760.08
402.01	1612.63
402.21	1544.75
402.40	1739.02
402.59	1657.10
402.78	1703.91
402.97	1668.80
403.17	1743.70
403.36	1706.25
403.55	1834.98
403.74	1806.89
403.93	1877.11
404.13	1806.89
404.32	1732.00
404.51	1842.00
404.70	1811.57
404.89	1853.70
405.09	1907.54
405.28	1928.60
405.47	1994.14
405.66	1952.01
405.85	1961.37
406.05	1956.69
406.24	1994.14
406.43	1998.82
406.62	1970.73
406.81	2092.44
407.00	2036.27
407.20	1987.11
407.39	2078.40
407.58	2076.06
407.77	2108.82
407.96	2197.76
408.15	2099.46
408.34	2188.40
408.54	2155.63
408.73	2314.79
408.92	2232.87
409.11	2202.44
409.30	2331.17
409.49	2256.28
409.68	2263.30
409.87	2251.60
410.07	2370.96
410.26	2326.49
410.45	2382.67
410.64	2349.90
410.83	2427.14
411.02	2506.71
411.21	2459.90
411.40	2597.99
411.59	2527.78
411.78	2558.21
411.98	2675.23
412.17	2621.40
412.36	2588.63
412.55	2576.93
412.74	2663.53
412.93	2567.57
413.12	2642.46
413.31	2888.22
413.50	2649.49
413.69	2869.50
413.88	2785.24
414.07	2827.37
414.26	2724.38
414.45	2904.60
414.64	2897.58
414.83	2918.65
415.02	3040.36
415.22	3028.65
415.41	2972.48
415.60	3105.89
415.79	3112.91
415.98	3080.14
416.17	3082.49
416.36	3192.49
416.55	3138.66
416.74	3222.92
416.93	3173.77
417.12	3173.77
417.31	3229.94
417.50	3178.45
417.69	3478.04
417.88	3407.82
418.07	3290.79
418.26	3346.97
418.45	3349.31
418.64	3496.76
418.83	3517.83
419.02	3522.51
419.21	3571.66
419.39	3552.93
419.58	3363.35
419.77	3405.48
419.96	3574.00
420.15	3578.68
420.34	3658.26
420.53	3705.07
420.72	3658.26
420.91	3775.28
421.10	3803.37
421.29	3779.97
421.48	3740.18
421.67	3770.60
421.86	3684.00
422.05	3705.07
422.24	3665.28
422.43	3763.58
422.61	3749.54
422.80	3880.61
422.99	3686.34
423.18	3892.31
423.37	3866.56
423.56	3826.78
423.75	3779.97
423.94	3894.65
424.13	3698.05
424.32	3646.55
424.50	3906.35
424.69	3943.80
424.88	3901.67
425.07	3995.29
425.26	3742.52
425.45	3794.01
425.64	3794.01
425.83	3779.97
426.01	3873.59
426.20	3866.56
426.39	3892.31
426.58	3894.65
426.77	3894.65
426.96	4009.34
427.15	3866.56
427.33	4039.76
427.52	3889.97
427.71	3873.59
427.90	4079.55
428.09	4044.45
428.28	4154.45
428.46	4119.34
428.65	4065.51
428.84	4329.99
429.03	4018.70
429.22	4161.47
429.40	4147.43
429.59	4086.58
429.78	3824.44
429.97	3836.14
430.16	3843.16
430.34	4112.32
430.53	4224.67
430.72	4070.19
430.91	4222.33
431.10	4273.82
431.28	4383.82
431.47	4559.36
431.66	4734.90
431.85	4407.23
432.03	4507.87
432.22	4603.83
432.41	4514.89
432.60	4716.18
432.79	4575.75
432.97	4662.35
433.16	4652.98
433.35	4650.64
433.54	4643.62
433.72	4645.96
433.91	4655.33
434.10	4809.80
434.28	4587.45
434.47	4786.40
434.66	4826.18
434.85	4931.51
435.03	4830.87
435.22	4926.83
435.41	5062.58
435.59	5062.58
435.78	5048.54
435.97	5095.35
436.16	5001.72
436.34	5027.47
436.53	4992.36
436.72	5100.03
436.90	5076.62
437.09	5109.39
437.28	5025.13
437.46	5085.98
437.65	5132.79
437.84	5130.45
438.02	4971.30
438.21	5156.20
438.40	4994.70
438.58	5348.12
438.77	5427.70
438.96	5256.84
439.14	5460.47
439.33	5493.24
439.52	5568.13
439.70	5549.41
439.89	5530.69
440.08	5584.52
440.26	5610.26
440.45	5561.11
440.63	5799.85
440.82	5912.19
441.01	5804.53
441.19	5792.83
441.38	5874.74
441.57	5921.56
441.75	6022.20
441.94	6085.39
442.12	6083.05
442.31	6108.80
442.50	6176.67
442.68	6174.33
442.87	6204.76
443.05	6218.80
443.24	6349.87
443.43	6314.77
443.61	6410.73
443.80	6494.99
443.98	6162.63
444.17	6164.97
444.35	6171.99
444.54	6609.67
444.73	6352.21
444.91	6427.11
445.10	6349.87
445.28	6333.49
445.47	6186.04
445.65	6193.06
445.84	6455.20
446.02	6539.46
446.21	6410.73
446.39	6471.58
446.58	6392.00
446.77	6693.93
446.95	6436.47
447.14	6541.80
447.32	6661.16
447.51	6567.54
447.69	6530.09
447.88	6469.24
448.06	6544.14
448.25	6483.28
448.43	6548.82
448.62	6548.82
448.80	6649.46
448.99	6803.94
449.17	6707.98
449.36	6511.37
449.54	6869.47
449.73	6796.92
449.91	6979.48
450.10	6825.00
450.28	6942.03
450.46	6927.99
450.65	7066.08
450.83	7049.69
451.02	6984.16
451.20	7030.97
451.39	6967.77
451.57	6991.18
451.76	7035.65
451.94	7023.95
452.13	7047.35
452.31	7091.82
452.49	6909.26
452.68	7049.69
452.86	7054.37
453.05	7033.31
453.23	7068.42
453.42	7145.66
453.60	7016.93
453.78	7208.85
453.97	7122.25
454.15	7171.40
454.34	7253.32
454.52	7414.82
454.70	7386.73
454.89	7470.99
455.07	7396.09
455.26	7431.20
455.44	7506.10
455.62	7524.82
455.81	7475.67
455.99	7557.59
456.17	7644.19
456.36	7634.83
456.54	7740.15
456.73	7819.73
456.91	7892.29
457.09	7805.69
457.28	8124.00
457.46	7646.53
457.64	7946.12
457.83	8067.83
458.01	7822.07
458.19	7953.14
458.38	8065.49
458.56	8152.09
458.74	8088.89
458.93	8238.69
459.11	8189.53
459.29	8168.47
459.48	8002.29
459.66	8030.38
459.84	8191.88
460.03	8578.06
460.21	8248.05
460.39	8187.19
460.57	8334.65
460.76	8561.68
460.94	8386.14
461.12	8442.31
461.31	8587.43
461.49	8479.76
461.67	8393.16
461.85	8552.32
462.04	8444.65
462.22	9263.84
462.40	8772.33
462.59	8512.53
462.77	8695.09
462.95	8929.14
463.13	8671.68
463.32	8891.70
463.50	8718.50
463.68	8805.10
463.86	8819.14
464.05	8760.63
464.23	8933.82
464.41	8905.74
464.59	8690.41
464.78	8964.25
464.96	8814.46
465.14	8910.42
465.32	9055.53
465.50	8926.80
465.69	9277.88
465.87	9015.74
466.05	9050.85
466.23	9170.22
466.41	9053.19
466.60	9266.18
466.78	9179.58
466.96	9357.46
467.14	9055.53
467.32	9177.24
467.51	9170.22
467.69	9036.81
467.87	9130.43
468.05	9432.36
468.23	9238.09
468.41	9270.86
468.60	9305.97
468.78	9380.87
468.96	9301.29
469.14	9533.00
469.32	9715.56
469.50	9282.56
469.69	9490.87
469.87	9654.71
470.05	9680.46
470.23	9706.20
470.41	9586.83
470.59	9635.99
470.77	9551.73
470.95	9703.86
471.14	10068.98
471.32	9694.50
471.50	9841.95
471.68	9998.77
471.86	10106.43
472.04	10068.98
472.22	10305.38
472.40	10031.54
472.58	10087.71
472.77	10232.82
472.95	10413.04
473.13	10490.28
473.31	10361.55
473.49	10413.04
473.67	10389.64
473.85	10335.81
474.03	10544.11
474.21	10637.73
474.39	10836.68
474.57	10768.80
474.75	10946.69
474.93	10885.83
475.12	10960.73
475.30	11009.88
475.48	11222.87
475.66	10909.24
475.84	10979.45
476.02	11389.05
476.20	11262.66
476.38	11389.05
476.56	11658.21
476.74	11515.44
476.92	11634.80
477.10	11698.00
477.28	11815.02
477.46	11836.09
477.64	11934.39
477.82	12318.24
478.00	12404.84
478.18	12442.29
478.36	12362.71
478.54	12451.65
478.72	12372.07
478.90	12788.69
479.08	13137.43
479.26	12809.75
479.44	13027.42
479.62	12891.67
479.80	12854.22
479.98	13074.23
480.16	13659.37
480.34	13312.97
480.52	13460.42
480.70	13486.17
480.88	13104.66
481.06	13525.96
481.24	13818.52
481.41	13846.61
481.59	14228.12
481.77	13996.40
481.95	14317.06
482.13	14160.24
482.31	14024.49
482.49	14640.05
482.67	14789.85
482.85	14731.33
483.03	15033.26
483.21	14780.48
483.39	15150.29
483.57	15255.61
483.74	15363.28
483.92	15295.40
484.10	15363.28
484.28	15484.98
484.46	15906.28
484.64	15960.11
484.82	16088.84
485.00	16152.04
485.18	16070.12
485.35	16299.49
485.53	15775.21
485.71	15873.51
485.89	16400.13
486.07	16140.33
486.25	16266.72
486.43	16781.64
486.61	16912.71
486.78	16893.99
486.96	17284.86
487.14	17493.16
487.32	17572.74
487.50	17752.96
487.68	17591.47
487.85	18132.13
488.03	18298.31
488.21	17923.82
488.39	18183.62
488.57	18317.03
488.75	18366.18
488.92	18733.65
489.10	19063.66
489.28	19133.88
489.46	19454.53
489.64	19232.18
489.81	19922.64
489.99	19793.91
490.17	20091.16
490.35	20278.40
490.53	20009.24
490.70	20070.09
490.88	19924.98
491.06	20648.21
491.24	20397.77
491.41	20369.68
491.59	20634.16
491.77	20505.43
491.95	20872.90
492.13	21163.12
492.30	21359.73
492.48	21451.01
492.66	21607.83
492.84	21521.23
493.01	22089.98
493.19	21771.66
493.37	21982.31
493.54	22288.92
493.72	22235.09
493.90	21844.22
494.08	22490.21
494.25	22848.31
494.43	22560.42
494.61	23297.69
494.79	23075.34
494.96	23061.30
495.14	23047.26
495.32	23353.87
495.49	23328.12
495.67	23475.57
495.85	23873.46
496.02	24107.52
496.20	23697.92
496.38	24140.29
496.55	24240.93
496.73	24683.29
496.91	24046.66
497.09	24631.80
497.26	24486.68
497.44	24868.19
497.62	24720.74
497.79	24957.13
497.97	24805.00
498.14	25186.50
498.32	25418.22
498.50	25345.66
498.67	25827.81
498.85	25212.25
499.03	25940.16
499.20	25937.82
499.38	25762.28
499.56	25781.00
499.73	26012.71
499.91	26099.31
500.08	26373.16
500.26	26635.30
500.44	26417.63
500.61	26300.60
500.79	26239.75
500.97	26544.02
501.14	26754.66
501.32	26789.77
501.49	27077.66
501.67	27072.98
501.84	26941.91
502.02	27213.41
502.20	27246.18
502.37	27580.87
502.55	27222.77
502.72	27681.52
502.90	27653.43
503.07	27744.71
503.25	27658.11
503.43	27782.16
503.60	27625.34
503.78	27728.33
503.95	28098.13
504.13	28353.25
504.30	28444.53
504.48	28542.83
504.65	28350.91
504.83	28744.12
505.01	28996.90
505.18	28322.82
505.36	28823.70
505.53	29282.44
505.71	29357.34
505.88	29214.57
506.06	29015.62
506.23	29261.38
506.41	29315.21
506.58	29390.11
506.76	29572.67
506.93	29837.15
507.11	29703.74
507.28	30211.64
507.46	30012.69
507.63	29633.52
507.81	29848.85
507.98	29741.19
508.16	29869.92
508.33	30309.94
508.50	30525.27
508.68	30387.18
508.85	31005.08
509.03	30583.78
509.20	30588.46
509.38	31072.95
509.55	30864.64
509.73	30874.01
509.90	30946.56
510.08	31007.42
510.25	31292.96
510.42	31101.04
510.60	31372.54
510.77	31737.66
510.95	31817.24
511.12	31789.16
511.30	31688.51
511.47	32126.19
511.64	32311.10
511.82	32011.51
511.99	31974.06
512.17	31852.35
512.34	32531.11
512.51	32453.87
512.69	32388.33
512.86	32517.06
513.04	32842.40
513.21	32573.24
513.38	32512.38
513.56	32137.90
513.73	32229.18
513.90	32849.42
514.08	32687.92
514.25	32872.82
514.43	32905.59
514.60	32760.48
514.77	32952.40
514.95	33249.65
515.12	33354.97
515.29	33706.05
515.47	33443.91
515.64	34197.57
515.81	33354.97
515.99	33207.52
516.16	33240.29
516.33	33317.53
516.51	33390.08
516.68	33060.07
516.85	32828.35
517.03	33549.24
517.20	33483.70
517.37	33603.07
517.54	34122.67
517.72	34092.24
517.89	33717.76
518.06	33715.42
518.24	33886.28
518.41	34349.70
518.58	34274.80
518.75	34429.28
518.93	34471.41
519.10	34506.52
519.27	34796.74
519.45	34892.71
519.62	34946.54
519.79	35206.34
519.96	35208.68
520.14	35337.41
520.31	35105.70
520.48	35512.95
520.65	35416.99
520.83	35730.62
521.00	35999.78
521.17	35789.13
521.34	35641.68
521.52	35910.84
521.69	35917.86
521.86	36325.11
522.03	36144.89
522.20	35878.07
522.38	36067.66
522.55	36376.61
522.72	36392.99
522.89	36098.08
523.07	36233.83
523.24	36065.31
523.41	36460.87
523.58	36463.21
523.75	37125.58
523.92	36804.92
524.10	37427.51
524.27	36622.36
524.44	36928.97
524.61	36982.80
524.78	37053.02
524.96	37144.30
525.13	37174.73
525.30	37277.71
525.47	37680.28
525.64	37371.33
525.81	37696.67
525.98	37359.63
526.16	36905.57
526.33	36893.86
526.50	37312.82
526.67	36910.25
526.84	37371.33
527.01	37139.62
527.18	37450.91
527.36	38108.60
527.53	37804.33
527.70	38473.73
527.87	38487.77
528.04	37937.74
528.21	38712.46
528.38	38672.67
528.55	38546.28
528.72	38122.65
528.89	38993.32
529.07	38426.92
529.24	38122.65
529.41	38749.91
529.58	38384.79
529.75	38529.90
529.92	38845.87
530.09	38794.38
530.26	38948.85
530.43	39363.13
530.60	39091.63
530.77	38780.34
530.94	39098.65
531.11	39210.99
531.28	39456.75
531.46	39470.79
531.63	39536.33
531.80	39477.82
531.97	39290.57
532.14	39171.21
532.31	38871.62
532.48	39234.40
532.65	39416.96
532.82	39749.32
532.99	39515.26
533.16	39426.32
533.33	39665.06
533.50	40105.08
533.67	39604.20
533.84	39562.08
534.01	39828.90
534.18	39814.85
534.35	40378.92
534.52	40062.95
534.69	40072.31
534.86	40121.46
535.03	40311.05
535.20	40458.50
535.37	40224.45
535.54	40416.37
535.71	40540.42
535.88	40378.92
536.05	40722.98
536.22	40456.16
536.38	40769.79
536.55	40425.73
536.72	40514.67
536.89	40449.14
537.06	40542.76
537.23	40566.16
537.40	40870.43
537.57	40821.28
537.74	41067.04
537.91	41301.09
538.08	40987.46
538.25	41034.27
538.42	41324.50
538.59	41202.79
538.75	41167.68
538.92	41085.76
539.09	41301.09
539.26	41071.72
539.43	41209.81
539.60	41289.39
539.77	40947.67
539.94	41448.55
540.11	41649.83
540.28	41425.14
540.44	40950.01
540.61	41116.19
540.78	41275.35
540.95	41656.85
541.12	41663.88
541.29	41322.16
541.46	41256.62
541.62	41961.12
541.79	42033.68
541.96	41326.84
542.13	41827.71
542.30	41258.96
542.47	42040.70
542.63	42405.83
542.80	41588.98
542.97	42342.63
543.14	42656.26
543.31	42195.18
543.48	42543.92
543.64	43189.91
543.81	42665.63
543.98	42466.68
544.15	42754.57
544.32	42834.14
544.48	42993.30
544.65	42909.04
544.82	42689.03
544.99	42813.08
545.16	42813.08
545.32	42717.12
545.49	42923.08
545.66	43140.75
545.83	43306.93
546.00	43723.55
546.16	43079.90
546.33	43210.97
546.50	42789.67
546.67	43189.91
546.83	43056.50
547.00	43365.45
547.17	42735.84
547.34	42962.87
547.50	43086.92
547.67	43356.08
547.84	43533.96
548.00	43381.83
548.17	43592.48
548.34	43358.42
548.51	43744.61
548.67	44261.87
548.84	43981.01
549.01	43489.49
549.18	43641.63
549.34	43948.24
549.51	43611.20
549.68	43990.37
549.84	43772.70
550.01	43976.33
550.18	43213.31
550.34	43529.28
550.51	44083.99
550.68	43835.89
550.84	43508.22
551.01	43494.18
551.18	44002.07
551.34	43622.90
551.51	43758.66
551.68	44495.92
551.84	44289.96
552.01	43999.73
552.18	43880.36
552.34	43948.24
552.51	44488.90
552.68	44182.29
552.84	44416.35
553.01	44456.14
553.18	44575.50
553.34	44383.58
553.51	44222.08
553.67	44718.28
553.84	44961.69
554.01	44701.89
554.17	44603.59
554.34	44671.46
554.51	44580.18
554.67	44854.03
554.84	44652.74
555.00	44678.49
555.17	44533.37
555.33	44795.51
555.50	44502.95
555.67	44753.38
555.83	44638.70
556.00	44975.73
556.16	45612.36
556.33	45336.18
556.50	44732.32
556.66	44910.20
556.83	44851.69
556.99	44737.00
557.16	45443.84
557.32	44823.60
557.49	45001.48
557.65	44769.77
557.82	44980.42
557.98	44933.60
558.15	45275.32
558.32	45326.81
558.48	45102.12
558.65	45027.23
558.81	45202.77
558.98	44741.68
559.14	44973.39
559.31	45254.26
559.47	45640.45
559.64	45502.35
559.80	45680.24
559.97	45595.98
560.13	45495.33
560.30	45514.06
560.46	45406.39
560.63	45289.37
560.79	45556.19
560.96	45516.40
561.12	45216.81
561.29	45507.04
561.45	45591.30
561.61	45333.84
561.78	45258.94
561.94	45635.77
562.11	45570.23
562.27	45364.26
562.44	45631.08
562.60	45748.11
562.77	45350.22
562.93	46038.34
563.10	45453.20
563.26	45471.93
563.42	46106.21
563.59	45275.32
563.75	45415.76
563.92	45815.99
564.08	45687.26
564.24	45778.54
564.41	45935.35
564.57	45717.68
564.74	45661.51
564.90	45670.87
565.07	45844.07
565.23	45975.14
565.39	45617.04
565.56	45811.31
565.72	45851.09
565.88	45652.15
566.05	45694.28
566.21	46054.72
566.38	46061.74
566.54	45319.79
566.70	45750.45
566.87	46120.26
567.03	45631.08
567.19	46206.86
567.36	45895.56
567.52	45806.62
567.68	46021.95
567.85	46094.51
568.01	45951.74
568.17	45853.44
568.34	45797.26
568.50	45827.69
568.66	45872.16
568.83	46031.32
568.99	46052.38
569.15	45895.56
569.32	46040.68
569.48	45474.27
569.64	45909.61
569.81	45986.85
569.97	46036.00
570.13	45872.16
570.30	45705.98
570.46	45801.94
570.62	45876.84
570.78	45724.71
570.95	45951.74
571.11	46356.65
571.27	45907.27
571.43	45808.96
571.60	45907.27
571.76	45933.01
571.92	45806.62
572.09	46003.23
572.25	45495.33
572.41	45916.63
572.57	46153.02
572.74	46834.12
572.90	46309.84
573.06	46354.31
573.22	46382.40
573.38	45890.88
573.55	46078.13
573.71	46120.26
573.87	45977.48
574.03	45647.47
574.20	46164.73
574.36	46113.23
574.52	46248.99
574.68	46382.40
574.84	46419.84
575.01	46382.40
575.17	46265.37
575.33	45928.33
575.49	45914.29
575.65	46279.41
575.82	46307.50
575.98	46038.34
576.14	46356.65
576.30	46356.65
576.46	46286.43
576.62	46452.61
576.79	46059.40
576.95	45930.67
577.11	45923.65
577.27	46017.27
577.43	46305.16
577.59	46113.23
577.75	45687.26
577.92	45593.64
578.08	45380.65
578.24	45949.40
578.40	46248.99
578.56	45844.07
578.72	45968.12
578.88	46590.70
579.04	46230.26
579.21	46129.62
579.37	45914.29
579.53	46031.32
579.69	46014.93
579.85	46061.74
580.01	46209.20
580.17	46553.26
580.33	46534.53
580.49	45989.19
580.65	46143.66
580.82	45794.92
580.98	46204.52
581.14	46153.02
581.30	46492.40
581.46	46534.53
581.62	46501.76
581.78	46188.13
581.94	46604.75
582.10	46394.10
582.26	46529.85
582.42	46440.91
582.58	46536.87
582.74	46024.29
582.90	46099.19
583.06	46323.88
583.22	46225.58
583.38	46663.26
583.54	46026.63
583.70	46501.76
583.86	46368.35
584.02	45925.99
584.18	46440.91
584.34	45944.72
584.50	46602.41
584.66	46714.75
584.82	46436.23
584.98	46417.50
585.14	46593.04
585.30	46316.86
585.46	46272.39
585.62	46089.83
585.78	46192.81
585.94	45897.91
586.10	46117.92
586.26	46045.36
586.42	46373.03
586.58	46337.93
586.74	46085.15
586.90	46265.37
587.06	46684.33
587.22	46436.23
587.38	46309.84
587.54	46693.69
587.70	46712.41
587.86	46672.62
588.02	45797.26
588.18	46347.29
588.34	46190.47
588.49	46003.23
588.65	45989.19
588.81	45904.93
588.97	46176.43
589.13	45815.99
589.29	45769.18
589.45	46195.15
589.61	46480.70
589.77	46433.89
589.93	46501.76
