SpectraSuite Data File
++++++++++++++++++++++++++++++++++++
Date: Fri Oct 25 10:48:33 EDT 2013
User: price-jones
Dark Spectrum Present: No
Reference Spectrum Present: No
Number of Sampled Component Spectra: 1
Spectrometers: USB2+H05261
Integration Time (usec): 100000 (USB2+H05261)
Spectra Averaged: 1 (USB2+H05261)
Boxcar Smoothing: 0 (USB2+H05261)
Correct for Electrical Dark: No (USB2+H05261)
Strobe/Lamp Enabled: No (USB2+H05261)
Correct for Detector Non-linearity: No (USB2+H05261)
Correct for Stray Light: No (USB2+H05261)
Number of Pixels in Processed Spectrum: 2048
>>>>>Begin Processed Spectral Data<<<<<
365.73	128.73
365.92	128.73
366.12	128.73
366.32	63.19
366.52	107.66
366.72	110.01
366.91	11.70
367.11	18.72
367.31	0.00
367.51	0.00
367.70	84.26
367.90	77.24
368.10	77.24
368.30	63.19
368.49	72.56
368.69	117.03
368.89	79.58
369.09	51.49
369.28	88.94
369.48	74.90
369.68	95.96
369.87	74.90
370.07	100.64
370.27	177.88
370.47	210.65
370.66	472.79
370.86	449.38
371.06	514.92
371.25	512.58
371.45	547.69
371.65	505.56
371.84	496.19
372.04	458.74
372.24	507.90
372.44	573.43
372.63	550.03
372.83	554.71
373.03	566.41
373.22	535.98
373.42	573.43
373.62	575.77
373.81	608.54
374.01	629.60
374.21	667.05
374.40	559.39
374.60	566.41
374.79	643.65
374.99	610.88
375.19	615.56
375.38	674.07
375.58	678.76
375.78	641.31
375.97	603.86
376.17	667.05
376.37	601.52
376.56	802.80
376.76	674.07
376.95	653.01
377.15	725.57
377.35	688.12
377.54	674.07
377.74	706.84
377.93	725.57
378.13	669.39
378.33	720.88
378.52	674.07
378.72	683.44
378.91	699.82
379.11	631.94
379.31	660.03
379.50	765.36
379.70	660.03
379.89	760.67
380.09	692.80
380.28	674.07
380.48	657.69
380.68	800.46
380.87	784.08
381.07	774.72
381.26	770.04
381.46	720.88
381.65	739.61
381.85	793.44
382.04	713.86
382.24	767.70
382.43	702.16
382.63	770.04
382.83	784.08
383.02	758.33
383.22	833.23
383.41	774.72
383.61	793.44
383.80	847.27
384.00	861.32
384.19	807.48
384.39	819.19
384.58	868.34
384.78	866.00
384.97	833.23
385.17	833.23
385.36	826.21
385.56	786.42
385.75	798.12
385.95	812.17
386.14	931.53
386.34	854.30
386.53	880.04
386.72	844.93
386.92	894.08
387.11	931.53
387.31	980.68
387.50	919.83
387.70	894.08
387.89	856.64
388.09	908.13
388.28	905.79
388.48	882.38
388.67	1015.79
388.86	997.07
389.06	1013.45
389.25	1004.09
389.45	1086.01
389.64	997.07
389.84	938.55
390.03	1036.86
390.22	1015.79
390.42	1053.24
390.61	1102.39
390.81	1090.69
391.00	1086.01
391.19	1210.06
391.39	1123.46
391.58	1086.01
391.78	1139.84
391.97	1104.73
392.16	1036.86
392.36	1083.67
392.55	1041.54
392.75	1102.39
392.94	1074.31
393.13	1041.54
393.33	1090.69
393.52	1088.35
393.71	1109.41
393.91	1160.91
394.10	1179.63
394.29	1224.10
394.49	1259.21
394.68	1268.57
394.88	1263.89
395.07	1299.00
395.26	1242.82
395.46	1338.79
395.65	1259.21
395.84	1263.89
396.04	1294.32
396.23	1240.48
396.42	1247.51
396.62	1287.29
396.81	1299.00
397.00	1301.34
397.19	1376.24
397.39	1399.64
397.58	1427.73
397.77	1423.05
397.97	1467.52
398.16	1413.68
398.35	1474.54
398.55	1540.07
398.74	1675.82
398.93	1629.01
399.12	1680.50
399.32	1563.48
399.51	1619.65
399.70	1764.76
399.90	1589.22
400.09	1703.91
400.28	1790.51
400.47	1596.25
400.67	1736.68
400.86	1703.91
401.05	1657.10
401.24	1792.85
401.44	1811.57
401.63	1832.64
401.82	1732.00
402.01	1685.19
402.21	1764.76
402.40	1928.60
402.59	1867.75
402.78	1851.36
402.97	1877.11
403.17	1774.13
403.36	1858.39
403.55	1895.83
403.74	1949.67
403.93	1825.62
404.13	1902.86
404.32	2045.63
404.51	1886.47
404.70	2057.33
404.89	2001.16
405.09	2015.20
405.28	2012.86
405.47	2101.80
405.66	1989.46
405.85	2146.27
406.05	2022.22
406.24	2073.71
406.43	2033.93
406.62	2099.46
406.81	2270.32
407.00	2139.25
407.20	2118.18
407.39	2146.27
407.58	2251.60
407.77	2221.17
407.96	2232.87
408.15	2352.24
408.34	2424.80
408.54	2373.30
408.73	2434.16
408.92	2448.20
409.11	2399.05
409.30	2380.32
409.49	2282.02
409.68	2401.39
409.87	2366.28
410.07	2511.39
410.26	2389.69
410.45	2431.82
410.64	2438.84
410.83	2492.67
411.02	2705.66
411.21	2661.19
411.40	2628.42
411.59	2738.43
411.78	2705.66
411.98	2633.10
412.17	2780.56
412.36	2782.90
412.55	2902.26
412.74	2906.95
412.93	2799.28
413.12	2750.13
413.31	2925.67
413.50	2925.67
413.69	3091.85
413.88	3038.02
414.07	2965.46
414.26	3131.64
414.45	3070.78
414.64	2998.23
414.83	3136.32
415.02	2998.23
415.22	3215.90
415.41	3304.84
415.60	3185.47
415.79	3274.41
415.98	3267.39
416.17	3398.46
416.36	3290.79
416.55	3370.37
416.74	3314.20
416.93	3330.58
417.12	3447.61
417.31	3398.46
417.50	3466.33
417.69	3552.93
417.88	3520.17
418.07	3463.99
418.26	3529.53
418.45	3576.34
418.64	3691.02
418.83	3749.54
419.02	3562.30
419.21	3782.31
419.39	3796.35
419.58	3592.72
419.77	3667.62
419.96	3719.11
420.15	3782.31
420.34	3674.64
420.53	3922.74
420.72	3913.38
420.91	4002.32
421.10	3939.12
421.29	4030.40
421.48	3854.86
421.67	4011.68
421.86	3957.85
422.05	4018.70
422.24	3843.16
422.43	3927.42
422.61	3985.93
422.80	3976.57
422.99	4072.53
423.18	4058.49
423.37	4376.80
423.56	4175.52
423.75	4023.38
423.94	4044.45
424.13	3868.91
424.32	3918.06
424.50	4079.55
424.69	4039.76
424.88	4126.36
425.07	4105.30
425.26	4028.06
425.45	4098.28
425.64	4065.51
425.83	4081.89
426.01	4079.55
426.20	4081.89
426.39	4039.76
426.58	4107.64
426.77	4091.26
426.96	4065.51
427.15	4014.02
427.33	4212.96
427.52	4191.90
427.71	4297.22
427.90	4269.14
428.09	4388.50
428.28	4318.29
428.46	4299.56
428.65	4341.69
428.84	4454.04
429.03	4486.81
429.22	4215.30
429.40	4283.18
429.59	4231.69
429.78	4093.60
429.97	4067.85
430.16	4205.94
430.34	4287.86
430.53	4252.75
430.72	4400.21
430.91	4358.08
431.10	4390.84
431.28	4704.48
431.47	4695.11
431.66	4952.57
431.85	4652.98
432.03	4762.99
432.22	4863.63
432.41	4793.42
432.60	4809.80
432.79	4791.08
432.97	4910.44
433.16	4849.59
433.35	4994.70
433.54	4821.50
433.72	4910.44
433.91	4779.37
434.10	4915.12
434.28	4880.02
434.47	5046.20
434.66	5137.48
434.85	5128.11
435.03	5191.31
435.22	5111.73
435.41	5135.14
435.59	5205.35
435.78	5195.99
435.97	5195.99
436.16	5200.67
436.34	5406.64
436.53	5240.46
436.72	5528.35
436.90	5287.27
437.09	5341.10
437.28	5277.91
437.46	5467.49
437.65	5238.12
437.84	5341.10
438.02	5156.20
438.21	5366.85
438.40	5172.58
438.58	5535.37
438.77	5481.53
438.96	5483.88
439.14	5762.40
439.33	5809.21
439.52	5776.44
439.70	5949.64
439.89	5923.90
440.08	5973.05
440.26	5900.49
440.45	6057.31
440.63	6017.52
440.82	6338.17
441.01	5987.09
441.19	6193.06
441.38	6375.62
441.57	6246.89
441.75	6361.58
441.94	6530.09
442.12	6396.68
442.31	6558.18
442.50	6761.81
442.68	6452.86
442.87	6504.35
443.05	6434.13
443.24	6745.42
443.43	6705.63
443.61	6698.61
443.80	6780.53
443.98	6525.41
444.17	6441.15
444.35	6665.85
444.54	6801.60
444.73	6857.77
444.91	6462.22
445.10	6696.27
445.28	6810.96
445.47	6782.87
445.65	6635.42
445.84	6593.29
446.02	6651.80
446.21	6808.62
446.39	6834.36
446.58	6815.64
446.77	6930.33
446.95	6864.79
447.14	6949.05
447.32	7047.35
447.51	6850.75
447.69	6848.41
447.88	6897.56
448.06	6792.23
448.25	6916.28
448.43	6895.22
448.62	6979.48
448.80	6956.07
448.99	6956.07
449.17	7269.70
449.36	6927.99
449.54	7166.72
449.73	7197.15
449.91	7269.70
450.10	7293.11
450.28	7529.50
450.46	7307.15
450.65	7426.52
450.83	7616.10
451.02	7419.50
451.20	7571.63
451.39	7384.39
451.57	7412.48
451.76	7321.20
451.94	7524.82
452.13	7609.08
452.31	7307.15
452.49	7307.15
452.68	7424.18
452.86	7267.36
453.05	7482.69
453.23	7583.34
453.42	7386.73
453.60	7585.68
453.78	7634.83
453.97	7559.93
454.15	7679.30
454.34	7632.49
454.52	7691.00
454.70	7843.14
454.89	7875.90
455.07	7880.58
455.26	7903.99
455.44	7854.84
455.62	8004.63
455.81	8035.06
455.99	8088.89
456.17	8191.88
456.36	8074.85
456.54	8205.92
456.73	8044.42
456.91	8332.31
457.09	8552.32
457.28	8465.72
457.46	8250.39
457.64	8294.86
457.83	8238.69
458.01	8109.96
458.19	8428.27
458.38	8205.92
458.56	8514.87
458.74	8395.50
458.93	8692.75
459.11	8741.90
459.29	8573.38
459.48	8568.70
459.66	8454.02
459.84	8699.77
460.03	8816.80
460.21	8910.42
460.39	8807.44
460.57	8959.57
460.76	8802.75
460.94	9114.05
461.12	8959.57
461.31	8854.25
461.49	8828.50
461.67	9057.87
461.85	9125.75
462.04	9036.81
462.22	9537.68
462.40	9231.07
462.59	9001.70
462.77	9172.56
462.95	9270.86
463.13	9228.73
463.32	9275.54
463.50	9413.63
463.68	9338.74
463.86	9341.08
464.05	9132.77
464.23	9240.44
464.41	9219.37
464.59	9015.74
464.78	9472.15
464.96	9460.45
465.14	9411.29
465.32	9415.98
465.50	9493.21
465.69	9530.66
465.87	9533.00
466.05	9465.13
466.23	9563.43
466.41	9376.19
466.60	9701.52
466.78	9327.03
466.96	9488.53
467.14	9490.87
467.32	9729.61
467.51	9783.44
467.69	9235.75
467.87	9717.90
468.05	9713.22
468.23	9701.52
468.41	9837.27
468.60	9720.24
468.78	9816.21
468.96	9863.02
469.14	10059.62
469.32	10164.95
469.50	9902.81
469.69	10022.17
469.87	10054.94
470.05	10157.92
470.23	9963.66
470.41	10003.45
470.59	10347.51
470.77	10296.02
470.95	10054.94
471.14	10293.68
471.32	10377.94
471.50	10759.44
471.68	10686.89
471.86	10670.50
472.04	10895.19
472.22	10736.04
472.40	10492.62
472.58	10661.14
472.77	10824.98
472.95	10890.51
473.13	11147.97
473.31	10902.22
473.49	10981.79
473.67	10913.92
473.85	11108.18
474.03	11208.83
474.21	11300.11
474.39	11531.82
474.57	11496.71
474.75	11386.71
474.93	11318.83
475.12	11604.38
475.30	11503.73
475.48	11431.18
475.66	11578.63
475.84	11517.78
476.02	11812.68
476.20	11646.51
476.38	11838.43
476.56	12217.60
476.74	12205.89
476.92	12222.28
477.10	11976.52
477.28	12479.74
477.46	12322.92
477.64	12540.59
477.82	12903.37
478.00	12725.49
478.18	12748.90
478.36	13020.40
478.54	12933.80
478.72	13280.20
478.90	13270.84
479.08	13528.30
479.26	13394.89
479.44	13565.74
479.62	13511.91
479.80	13729.58
479.98	13748.31
480.16	14125.13
480.34	13935.55
480.52	14057.26
480.70	14019.81
480.88	14045.55
481.06	14277.27
481.24	14347.48
481.41	14534.73
481.59	14640.05
481.77	14932.62
481.95	14918.57
482.13	14960.70
482.31	15094.11
482.49	15140.93
482.67	15257.95
482.85	15492.01
483.03	15815.00
483.21	15623.08
483.39	15620.74
483.57	15836.06
483.74	15932.03
483.92	16145.02
484.10	16414.18
484.28	16353.32
484.46	16489.07
484.64	16631.85
484.82	16559.29
485.00	16657.59
485.18	16758.24
485.35	16828.45
485.53	16732.49
485.71	16580.36
485.89	17003.99
486.07	17013.35
486.25	17097.61
486.43	17451.03
486.61	17633.60
486.78	17577.42
486.96	17912.12
487.14	18427.04
487.32	18071.28
487.50	18604.92
487.68	18572.15
487.85	18888.12
488.03	19054.30
488.21	19271.97
488.39	19276.65
488.57	18953.66
488.75	19073.03
488.92	19470.92
489.10	19978.81
489.28	19850.08
489.46	20128.61
489.64	20320.53
489.81	20772.25
489.99	20987.58
490.17	20968.86
490.35	21029.71
490.53	20802.68
490.70	20978.22
490.88	21109.29
491.06	21153.76
491.24	21453.35
491.41	21418.24
491.59	21458.03
491.77	21158.44
491.95	21752.94
492.13	22038.48
492.30	22324.03
492.48	22232.75
492.66	22719.58
492.84	22501.91
493.01	22780.43
493.19	22604.89
493.37	22670.43
493.54	22967.68
493.72	23168.96
493.90	23405.36
494.08	23405.36
494.25	23796.23
494.43	23955.38
494.61	24107.52
494.79	23964.75
494.96	23758.78
495.14	24133.26
495.32	24362.64
495.49	24575.62
495.67	24788.61
495.85	25034.37
496.02	24835.42
496.20	25184.16
496.38	25514.18
496.55	25097.56
496.73	25977.61
496.91	25453.33
497.09	25886.32
497.26	25799.73
497.44	25818.45
497.62	25769.30
497.79	26218.68
497.97	25919.09
498.14	26150.81
498.32	26508.91
498.50	26118.04
498.67	26902.12
498.85	26429.33
499.03	27339.80
499.20	27126.81
499.38	26960.63
499.56	27269.58
499.73	27056.59
499.91	27187.66
500.08	27391.29
500.26	27260.22
500.44	27292.99
500.61	27491.93
500.79	27487.25
500.97	27583.21
501.14	27831.31
501.32	28063.02
501.49	27784.50
501.67	27894.50
501.84	28456.23
502.02	28254.95
502.20	28257.29
502.37	28533.47
502.55	29081.16
502.72	28943.06
502.90	28943.06
503.07	28903.28
503.25	28741.78
503.43	28531.13
503.60	28943.06
503.78	28947.75
503.95	29296.49
504.13	29460.32
504.30	29270.74
504.48	29355.00
504.65	29591.39
504.83	29979.92
505.01	30089.93
505.18	29795.02
505.36	30466.75
505.53	30206.95
505.71	30473.78
505.88	30850.60
506.06	29771.61
506.23	30661.02
506.41	30579.10
506.58	30960.61
506.76	30888.05
506.93	30644.63
507.11	31122.10
507.28	31133.81
507.46	30771.02
507.63	31201.68
507.81	31166.57
507.98	31351.48
508.16	31419.35
508.33	31576.17
508.50	31683.83
508.68	31835.97
508.85	31943.63
509.03	31842.99
509.20	31845.33
509.38	32116.83
509.55	32196.41
509.73	32505.36
509.90	32039.59
510.08	31920.23
510.25	32245.56
510.42	32800.27
510.60	32708.99
510.77	32507.70
510.95	32919.63
511.12	32978.15
511.30	32730.05
511.47	33507.11
511.64	33294.12
511.82	33373.70
511.99	33340.93
512.17	33387.74
512.34	33434.55
512.51	33532.86
512.69	33598.39
512.86	33905.00
513.04	33818.40
513.21	33872.23
513.38	33450.94
513.56	34270.12
513.73	33816.06
513.90	33582.01
514.08	34139.05
514.25	34412.90
514.43	34471.41
514.60	33860.53
514.77	34323.96
514.95	34579.07
515.12	34836.53
515.29	34668.02
515.47	35318.68
515.64	35182.93
515.81	34768.66
515.99	34881.00
516.16	34799.08
516.33	34373.11
516.51	34607.16
516.68	34122.67
516.85	34408.22
517.03	34440.98
517.20	34878.66
517.37	35218.04
517.54	35285.92
517.72	34780.36
517.89	35028.46
518.06	35021.44
518.24	34995.69
518.41	35208.68
518.58	35309.32
518.75	35484.86
518.93	36044.25
519.10	35833.60
519.27	35948.29
519.45	35754.02
519.62	36105.10
519.79	36320.43
519.96	36336.82
520.14	36687.90
520.31	36041.91
520.48	36519.38
520.65	36196.38
520.83	37345.59
521.00	37017.91
521.17	36863.44
521.34	36753.43
521.52	36928.97
521.69	37219.20
521.86	37188.77
522.03	37490.70
522.20	37046.00
522.38	37755.18
522.55	37844.12
522.72	37413.46
522.89	36935.99
523.07	37694.33
523.24	37741.14
523.41	38389.47
523.58	37790.29
523.75	38335.63
523.92	38209.25
524.10	38447.98
524.27	38017.32
524.44	38377.76
524.61	38487.77
524.78	39063.54
524.96	38611.82
525.13	38614.16
525.30	38866.94
525.47	38726.50
525.64	38789.70
525.81	38714.80
525.98	38534.58
526.16	38197.54
526.33	38447.98
526.50	38710.12
526.67	38323.93
526.84	38667.99
527.01	38600.12
527.18	39070.56
527.36	39222.70
527.53	39119.71
527.70	39711.87
527.87	39445.05
528.04	39154.82
528.21	39974.01
528.38	39562.08
528.55	39910.82
528.72	39917.84
528.89	40046.57
529.07	40013.80
529.24	39522.29
529.41	39849.96
529.58	40339.13
529.75	39800.81
529.92	40095.72
530.09	39950.60
530.26	40121.46
530.43	40451.48
530.60	40505.31
530.77	40453.82
530.94	40554.46
531.11	40428.07
531.28	40760.43
531.46	40641.06
531.63	40832.99
531.80	40488.93
531.97	40226.79
532.14	40865.75
532.31	40376.58
532.48	40854.05
532.65	40816.60
532.82	40662.13
532.99	41060.02
533.16	40566.16
533.33	40568.51
533.50	41284.71
533.67	40928.95
533.84	41083.42
534.01	41099.81
534.18	41174.70
534.35	41509.40
534.52	40921.93
534.69	41277.69
534.86	41734.09
535.03	41380.67
535.20	41975.17
535.37	42024.32
535.54	42284.12
535.71	42284.12
535.88	42209.22
536.05	41088.10
536.22	42045.38
536.38	42052.41
536.55	41963.46
536.72	41404.08
536.89	41448.55
537.06	41979.85
537.23	42101.56
537.40	42026.66
537.57	41717.71
537.74	42017.30
537.91	42415.19
538.08	42494.77
538.25	42244.33
538.42	42174.11
538.59	42443.27
538.75	42347.31
538.92	42422.21
539.09	42218.58
539.26	42445.62
539.43	42887.98
539.60	42328.59
539.77	42670.31
539.94	42794.36
540.11	42113.26
540.28	42487.74
540.44	42457.32
540.61	42740.52
540.78	42679.67
540.95	42483.06
541.12	42857.55
541.29	42576.69
541.46	42721.80
541.62	43042.45
541.79	43512.90
541.96	42979.26
542.13	43206.29
542.30	43056.50
542.47	43093.94
542.63	43138.41
542.80	43178.20
542.97	43606.52
543.14	43669.72
543.31	43672.06
543.48	44109.74
543.64	44524.01
543.81	44470.18
543.98	44135.48
544.15	44055.90
544.32	44135.48
544.48	44399.96
544.65	43826.53
544.82	44018.46
544.99	43552.69
545.16	44048.88
545.32	43555.03
545.49	44289.96
545.66	44538.05
545.83	44116.76
546.00	44577.84
546.16	44149.53
546.33	43641.63
546.50	44107.40
546.67	44643.38
546.83	43899.09
547.00	44311.02
547.17	44360.17
547.34	44037.18
547.50	44472.52
547.67	44495.92
547.84	44573.16
548.00	44748.70
548.17	44973.39
548.34	44975.73
548.51	44884.45
548.67	44837.64
548.84	44994.46
549.01	45125.53
549.18	44985.10
549.34	45043.61
549.51	45237.87
549.68	45453.20
549.84	45298.73
550.01	45275.32
550.18	44903.18
550.34	44933.60
550.51	45333.84
550.68	44715.93
550.84	44524.01
551.01	45230.85
551.18	44980.42
551.34	45256.60
551.51	45359.58
551.68	45422.78
551.84	45317.45
552.01	45160.64
552.18	45261.28
552.34	45425.12
552.51	45282.34
552.68	45427.46
552.84	45764.49
553.01	46122.60
553.18	45668.53
553.34	45645.13
553.51	45338.52
553.67	45544.48
553.84	46197.49
554.01	45787.90
554.17	45724.71
554.34	46078.13
554.51	45879.18
554.67	46061.74
554.84	46380.06
555.00	45731.73
555.17	45773.86
555.33	46312.18
555.50	45989.19
555.67	46101.53
555.83	46464.32
556.00	46057.06
556.16	46450.27
556.33	46096.85
556.50	46068.76
556.66	45916.63
556.83	45839.39
556.99	45858.12
557.16	46256.01
557.32	46197.49
557.49	46223.24
557.65	46370.69
557.82	45879.18
557.98	45977.48
558.15	46052.38
558.32	45914.29
558.48	46192.81
558.65	46291.12
558.81	45755.13
558.98	46618.79
559.14	45785.56
559.31	46326.22
559.47	46349.63
559.64	46590.70
559.80	45979.82
559.97	46920.72
560.13	46323.88
560.30	46417.50
560.46	46389.42
560.63	46394.10
560.79	46298.14
560.96	46614.11
561.12	46419.84
561.29	46637.51
561.45	46696.03
561.61	46298.14
561.78	46485.38
561.94	46445.59
562.11	46770.93
562.27	46291.12
562.44	46562.62
562.60	46754.54
562.77	47040.09
562.93	46777.95
563.10	46581.34
563.26	45968.12
563.42	46761.56
563.59	46527.51
563.75	46466.66
563.92	46918.38
564.08	46946.47
564.24	47133.71
564.41	46461.97
564.57	46520.49
564.74	47007.32
564.90	46801.35
565.07	46822.42
565.23	47009.66
565.39	46445.59
565.56	46799.01
565.72	47182.86
565.88	46960.51
566.05	47030.72
566.21	46866.89
566.38	46834.12
566.54	46986.25
566.70	47112.64
566.87	47047.11
567.03	47117.32
567.19	47409.89
567.36	47463.72
567.52	46719.43
567.68	47283.50
567.85	46689.01
568.01	47030.72
568.17	46728.80
568.34	47175.84
568.50	46976.89
568.66	46941.78
568.83	47255.42
568.99	47136.05
569.15	46813.05
569.32	46981.57
569.48	46820.08
569.64	47131.37
569.81	47131.37
569.97	46904.34
570.13	47171.16
570.30	46791.99
570.46	46387.08
570.62	46993.28
570.78	46485.38
570.95	46894.97
571.11	47021.36
571.27	46995.62
571.43	47334.99
571.60	47229.67
571.76	47222.65
571.92	47089.24
572.09	47292.86
572.25	47058.81
572.41	47049.45
572.57	47122.01
572.74	47510.53
572.90	47065.83
573.06	47213.29
573.22	47236.69
573.38	47236.69
573.55	47019.02
573.71	46791.99
573.87	47311.59
574.03	46990.94
574.20	47145.41
574.36	47051.79
574.52	47372.44
574.68	47330.31
574.84	47093.92
575.01	46859.87
575.17	47349.04
575.33	47021.36
575.49	47072.85
575.65	47339.68
575.82	47505.85
575.98	46990.94
576.14	47320.95
576.30	47334.99
576.46	46990.94
576.62	47049.45
576.79	47313.93
576.95	46979.23
577.11	47136.05
577.27	47447.34
577.43	46972.21
577.59	47019.02
577.75	46969.87
577.92	46885.61
578.08	46916.04
578.24	46621.13
578.40	46752.20
578.56	47079.88
578.72	47173.50
578.88	46845.82
579.04	47093.92
579.21	47491.81
579.37	47152.43
579.53	47168.82
579.69	47063.49
579.85	47063.49
580.01	47189.88
580.17	47414.57
580.33	47590.11
580.49	47374.78
580.65	47749.27
580.82	47550.32
580.98	47430.96
581.14	47026.04
581.30	47344.36
581.46	47391.17
581.62	47533.94
581.78	47239.03
581.94	47477.77
582.10	47339.68
582.26	47468.40
582.42	47423.93
582.58	47215.63
582.74	47290.52
582.90	47260.10
583.06	47543.30
583.22	47592.45
583.38	47517.56
583.54	47665.01
583.70	47402.87
583.86	47246.05
584.02	46967.53
584.18	47592.45
584.34	47440.32
584.50	47447.34
584.66	47079.88
584.82	47164.14
584.98	47789.06
585.14	47007.32
585.30	47374.78
585.46	47627.56
585.62	47152.43
585.78	47089.24
585.94	47332.65
586.10	47232.01
586.26	47168.82
586.42	47182.86
586.58	47562.03
586.74	47407.55
586.90	47107.96
587.06	46983.91
587.22	47442.66
587.38	47072.85
587.54	47388.83
587.70	47751.61
587.86	47533.94
588.02	47414.57
588.18	47435.64
588.34	47330.31
588.49	46899.65
588.65	46724.11
588.81	46639.86
588.97	47014.34
589.13	46780.29
589.29	46930.08
589.45	46836.46
589.61	47365.42
589.77	47550.32
