SpectraSuite Data File
++++++++++++++++++++++++++++++++++++
Date: Fri Oct 25 11:33:43 EDT 2013
User: price-jones
Dark Spectrum Present: No
Reference Spectrum Present: No
Number of Sampled Component Spectra: 1
Spectrometers: USB2+H05261
Integration Time (usec): 100000 (USB2+H05261)
Spectra Averaged: 1 (USB2+H05261)
Boxcar Smoothing: 0 (USB2+H05261)
Correct for Electrical Dark: No (USB2+H05261)
Strobe/Lamp Enabled: No (USB2+H05261)
Correct for Detector Non-linearity: No (USB2+H05261)
Correct for Stray Light: No (USB2+H05261)
Number of Pixels in Processed Spectrum: 2048
>>>>>Begin Processed Spectral Data<<<<<
365.73	292.57
365.92	292.57
366.12	292.57
366.32	241.08
366.52	95.96
366.72	154.48
366.91	133.41
367.11	189.58
367.31	121.71
367.51	210.65
367.70	147.45
367.90	182.56
368.10	170.86
368.30	159.16
368.49	196.60
368.69	229.37
368.89	189.58
369.09	191.92
369.28	180.22
369.48	161.50
369.68	212.99
369.87	252.78
370.07	285.55
370.27	311.29
370.47	383.85
370.66	491.51
370.86	531.30
371.06	482.15
371.25	624.92
371.45	533.64
371.65	533.64
371.84	578.11
372.04	585.13
372.24	557.05
372.44	592.16
372.63	615.56
372.83	615.56
373.03	627.26
373.22	547.69
373.42	589.82
373.62	596.84
373.81	685.78
374.01	723.23
374.21	592.16
374.40	645.99
374.60	638.97
374.79	671.73
374.99	615.56
375.19	622.58
375.38	734.93
375.58	653.01
375.78	683.44
375.97	683.44
376.17	690.46
376.37	678.76
376.56	662.37
376.76	685.78
376.95	657.69
377.15	683.44
377.35	655.35
377.54	662.37
377.74	681.10
377.93	753.65
378.13	711.52
378.33	720.88
378.52	774.72
378.72	767.70
378.91	699.82
379.11	676.41
379.31	653.01
379.50	620.24
379.70	695.14
379.89	800.46
380.09	741.95
380.28	711.52
380.48	823.87
380.68	723.23
380.87	777.06
381.07	753.65
381.26	786.42
381.46	718.54
381.65	706.84
381.85	758.33
382.04	753.65
382.24	716.20
382.43	774.72
382.63	737.27
382.83	751.31
383.02	823.87
383.22	861.32
383.41	781.74
383.61	905.79
383.80	866.00
384.00	727.91
384.19	781.74
384.39	781.74
384.58	809.83
384.78	889.40
384.97	828.55
385.17	779.40
385.36	788.76
385.56	858.98
385.75	840.25
385.95	908.13
386.14	870.68
386.34	786.42
386.53	912.81
386.72	858.98
386.92	961.96
387.11	887.06
387.31	973.66
387.50	919.83
387.70	847.27
387.89	866.00
388.09	940.90
388.28	835.57
388.48	894.08
388.67	908.13
388.86	936.21
389.06	985.37
389.25	992.39
389.45	1006.43
389.64	933.87
389.84	990.05
390.03	1015.79
390.22	947.92
390.42	891.74
390.61	1034.52
390.81	985.37
391.00	940.90
391.19	964.30
391.39	968.98
391.58	1025.15
391.78	947.92
391.97	1039.20
392.16	1004.09
392.36	1060.26
392.55	1041.54
392.75	1013.45
392.94	1008.77
393.13	1102.39
393.33	983.02
393.52	1130.48
393.71	1097.71
393.91	1067.28
394.10	1041.54
394.29	1153.88
394.49	1060.26
394.68	1153.88
394.88	1067.28
395.07	1123.46
395.26	1167.93
395.46	1130.48
395.65	1128.14
395.84	1123.46
396.04	1245.16
396.23	1203.04
396.42	1163.25
396.62	1221.76
396.81	1270.91
397.00	1158.57
397.19	1210.06
397.39	1151.54
397.58	1198.35
397.77	1280.27
397.97	1219.42
398.16	1259.21
398.35	1287.29
398.55	1210.06
398.74	1268.57
398.93	1324.74
399.12	1275.59
399.32	1313.04
399.51	1294.32
399.70	1327.08
399.90	1371.55
400.09	1453.47
400.28	1385.60
400.47	1359.85
400.67	1343.47
400.86	1390.28
401.05	1425.39
401.24	1423.05
401.44	1521.35
401.63	1481.56
401.82	1397.30
402.01	1549.43
402.21	1418.36
402.40	1441.77
402.59	1472.20
402.78	1483.90
402.97	1556.46
403.17	1497.94
403.36	1483.90
403.55	1542.41
403.74	1614.97
403.93	1551.78
404.13	1584.54
404.32	1636.03
404.51	1638.38
404.70	1626.67
404.89	1596.25
405.09	1668.80
405.28	1724.97
405.47	1692.21
405.66	1764.76
405.85	1734.34
406.05	1739.02
406.24	1722.63
406.43	1755.40
406.62	1851.36
406.81	1933.28
407.00	1764.76
407.20	1757.74
407.39	1846.68
407.58	1774.13
407.77	1823.28
407.96	1987.11
408.15	1940.30
408.34	1905.20
408.54	1909.88
408.73	1998.82
408.92	1942.64
409.11	1968.39
409.30	2019.88
409.49	2003.50
409.68	2099.46
409.87	1996.48
410.07	2031.58
410.26	2099.46
410.45	2062.01
410.64	2019.88
410.83	2155.63
411.02	2118.18
411.21	2202.44
411.40	2258.62
411.59	2120.53
411.78	2160.31
411.98	2275.00
412.17	2228.19
412.36	2223.51
412.55	2228.19
412.74	2298.41
412.93	2291.38
413.12	2260.96
413.31	2459.90
413.50	2305.43
413.69	2406.07
413.88	2478.63
414.07	2504.37
414.26	2569.91
414.45	2621.40
414.64	2628.42
414.83	2525.44
415.02	2619.06
415.22	2670.55
415.41	2600.34
415.60	2698.64
415.79	2839.07
415.98	2736.09
416.17	2630.76
416.36	2780.56
416.55	2729.06
416.74	2834.39
416.93	2794.60
417.12	2935.03
417.31	2813.32
417.50	2920.99
417.69	2963.12
417.88	3033.33
418.07	2878.86
418.26	3009.93
418.45	3087.17
418.64	3070.78
418.83	3155.04
419.02	3096.53
419.21	3126.96
419.39	3103.55
419.58	3047.38
419.77	3026.31
419.96	3248.66
420.15	3070.78
420.34	3246.32
420.53	3157.38
420.72	3187.81
420.91	3253.34
421.10	3314.20
421.29	3342.28
421.48	3283.77
421.67	3332.92
421.86	3400.80
422.05	3300.16
422.24	3339.94
422.43	3368.03
422.61	3398.46
422.80	3332.92
422.99	3391.44
423.18	3393.78
423.37	3407.82
423.56	3337.60
423.75	3375.05
423.94	3353.99
424.13	3180.79
424.32	3269.73
424.50	3442.93
424.69	3482.72
424.88	3459.31
425.07	3351.65
425.26	3445.27
425.45	3351.65
425.64	3368.03
425.83	3482.72
426.01	3578.68
426.20	3515.48
426.39	3391.44
426.58	3414.84
426.77	3405.48
426.96	3513.14
427.15	3475.70
427.33	3681.66
427.52	3517.83
427.71	3648.90
427.90	3660.60
428.09	3747.20
428.28	3634.85
428.46	3555.27
428.65	3688.68
428.84	3786.99
429.03	3810.39
429.22	3641.87
429.40	3632.51
429.59	3829.12
429.78	3728.47
429.97	3655.92
430.16	3672.30
430.34	3803.37
430.53	3857.20
430.72	3932.10
430.91	3838.48
431.10	3794.01
431.28	3953.16
431.47	3950.82
431.66	4035.08
431.85	3985.93
432.03	4095.94
432.22	4135.73
432.41	4180.20
432.60	4042.11
432.79	4241.05
432.97	4180.20
433.16	3978.91
433.35	4121.68
433.54	4159.13
433.72	4210.62
433.91	4219.99
434.10	4163.81
434.28	4189.56
434.47	4271.48
434.66	4163.81
434.85	4327.65
435.03	4315.95
435.22	4322.97
435.41	4505.53
435.59	4442.34
435.78	4437.66
435.97	4276.16
436.16	4454.04
436.34	4573.41
436.53	4393.19
436.72	4608.51
436.90	4362.76
437.09	4596.81
437.28	4545.32
437.46	4657.67
437.65	4564.04
437.84	4564.04
438.02	4669.37
438.21	4641.28
438.40	4554.68
438.58	4697.46
438.77	4692.77
438.96	4746.61
439.14	4917.47
439.33	4877.68
439.52	4889.38
439.70	4945.55
439.89	4968.96
440.08	5107.05
440.26	4950.23
440.45	4992.36
440.63	5179.61
440.82	5228.76
441.01	5207.69
441.19	5273.23
441.38	5146.84
441.57	5266.21
441.75	5352.81
441.94	5451.11
442.12	5408.98
442.31	5298.97
442.50	5411.32
442.68	5423.02
442.87	5469.83
443.05	5511.96
443.24	5638.35
443.43	5523.66
443.61	5682.82
443.80	5706.23
443.98	5474.51
444.17	5266.21
444.35	5476.85
444.54	5540.05
444.73	5584.52
444.91	5575.16
445.10	5650.05
445.28	5668.78
445.47	5535.37
445.65	5703.89
445.84	5753.04
446.02	5874.74
446.21	5724.95
446.39	5621.97
446.58	5757.72
446.77	5764.74
446.95	5554.09
447.14	5820.91
447.32	5846.66
447.51	5685.16
447.69	5867.72
447.88	5701.54
448.06	5717.93
448.25	5750.70
448.43	5846.66
448.62	5844.32
448.80	5818.57
448.99	5881.77
449.17	6024.54
449.36	5696.86
449.54	5891.13
449.73	6134.54
449.91	5996.45
450.10	6015.18
450.28	6104.12
450.46	6101.78
450.65	5951.98
450.83	6069.01
451.02	6097.10
451.20	6132.20
451.39	6073.69
451.57	6190.72
451.76	6146.25
451.94	6279.66
452.13	6211.78
452.31	6274.98
452.49	6260.93
452.68	6356.90
452.86	6443.49
453.05	6450.52
453.23	6284.34
453.42	6338.17
453.60	6296.04
453.78	6434.13
453.97	6483.28
454.15	6396.68
454.34	6310.08
454.52	6773.51
454.70	6340.51
454.89	6574.56
455.07	6696.27
455.26	6604.99
455.44	6654.14
455.62	6815.64
455.81	6623.72
455.99	6834.36
456.17	6712.66
456.36	6815.64
456.54	6885.86
456.73	6916.28
456.91	7241.62
457.09	6841.39
457.28	7042.67
457.46	6876.49
457.64	7075.44
457.83	7192.47
458.01	7094.16
458.19	7250.98
458.38	7133.95
458.56	7110.55
458.74	7124.59
458.93	7096.50
459.11	7176.08
459.29	7337.58
459.48	7215.87
459.66	7339.92
459.84	7152.68
460.03	7508.44
460.21	7468.65
460.39	7379.71
460.57	7459.29
460.76	7508.44
460.94	7742.49
461.12	7400.77
461.31	7461.63
461.49	7609.08
461.67	7541.21
461.85	7590.36
462.04	7602.06
462.22	8070.17
462.40	7726.11
462.59	7875.90
462.77	7660.57
462.95	7810.37
463.13	7669.94
463.32	7941.44
463.50	8051.44
463.68	8018.68
463.86	7950.80
464.05	7548.23
464.23	7943.78
464.41	7882.92
464.59	7906.33
464.78	7985.91
464.96	8112.30
465.14	7838.45
465.32	8056.12
465.50	8035.06
465.69	8152.09
465.87	8154.43
466.05	8126.34
466.23	8058.46
466.41	8449.33
466.60	8472.74
466.78	8166.13
466.96	8241.03
467.14	8329.97
467.32	8105.28
467.51	8592.11
467.69	8234.00
467.87	8327.63
468.05	8475.08
468.23	8095.91
468.41	8393.16
468.60	8500.83
468.78	8425.93
468.96	8571.04
469.14	8685.73
469.32	8655.30
469.50	8425.93
469.69	8681.05
469.87	8777.01
470.05	8730.20
470.23	8772.33
470.41	8971.27
470.59	8802.75
470.77	8830.84
470.95	8688.07
471.14	8858.93
471.32	8690.41
471.50	9125.75
471.68	8910.42
471.86	8997.02
472.04	9261.50
472.22	9289.59
472.40	8868.29
472.58	9214.69
472.77	9193.62
472.95	9331.72
473.13	9790.46
473.31	9151.49
473.49	9327.03
473.67	9525.98
473.85	9591.52
474.03	9610.24
474.21	9753.01
474.39	9935.57
474.57	9792.80
474.75	9710.88
474.93	10001.11
475.12	10078.35
475.30	9919.19
475.48	10155.58
475.66	10052.60
475.84	9994.09
476.02	10249.21
476.20	10335.81
476.38	10464.54
476.56	10525.39
476.74	10630.71
476.92	10380.28
477.10	10623.69
477.28	10752.42
477.46	10562.84
477.64	10808.59
477.82	10965.41
478.00	11290.74
478.18	11103.50
478.36	11473.31
478.54	11250.96
478.72	11248.61
478.90	11665.23
479.08	11676.93
479.26	11695.66
479.44	11749.49
479.62	11758.85
479.80	11920.35
479.98	11950.78
480.16	12194.19
480.34	11999.93
480.52	12325.26
480.70	12390.80
480.88	12070.14
481.06	12547.61
481.24	12320.58
481.41	12477.40
481.59	12554.63
481.77	12765.28
481.95	12652.94
482.13	13160.83
482.31	12933.80
482.49	13308.29
482.67	13451.06
482.85	13301.26
483.03	13598.51
483.21	13844.27
483.39	13722.56
483.57	14071.30
483.74	13991.72
483.92	13912.14
484.10	13923.85
484.28	14340.46
484.46	14480.89
484.64	14714.95
484.82	14586.22
485.00	14766.44
485.18	15220.50
485.35	15021.56
485.53	14773.46
485.71	15211.14
485.89	15349.23
486.07	15639.46
486.25	15391.36
486.43	15489.67
486.61	15407.75
486.78	15798.62
486.96	15936.71
487.14	16037.35
487.32	16065.44
487.50	16065.44
487.68	16489.07
487.85	16858.88
488.03	16627.17
488.21	16919.73
488.39	16840.15
488.57	17114.00
488.75	17397.20
488.92	17575.08
489.10	17460.40
489.28	17734.24
489.46	17673.39
489.64	17797.43
489.81	18031.49
489.99	18359.16
490.17	18057.23
490.35	18553.43
490.53	18221.07
490.70	18436.40
490.88	18560.45
491.06	19115.16
491.24	19033.24
491.41	19225.16
491.59	19424.11
491.77	19096.43
491.95	19405.38
492.13	19578.58
492.30	19559.86
492.48	19901.58
492.66	19859.45
492.84	19793.91
493.01	20219.89
493.19	20011.58
493.37	20400.11
493.54	20299.47
493.72	20226.91
493.90	20327.55
494.08	21013.33
494.25	21041.42
494.43	21003.97
494.61	21341.00
494.79	21500.16
494.96	21394.84
495.14	21486.12
495.32	21713.15
495.49	21844.22
495.67	21598.46
495.85	22108.70
496.02	22354.46
496.20	22401.27
496.38	22363.82
496.55	22321.69
496.73	23002.78
496.91	22677.45
497.09	22838.95
497.26	22906.82
497.44	22963.00
497.62	22953.63
497.79	23445.15
497.97	23608.98
498.14	23555.15
498.32	23793.89
498.50	23466.21
498.67	23971.77
498.85	23702.61
499.03	23903.89
499.20	24081.77
499.38	24173.05
499.56	24140.29
499.73	24442.21
499.91	24723.08
500.08	24905.64
500.26	24774.57
500.44	24725.42
500.61	25088.20
500.79	24835.42
500.97	25238.00
501.14	25481.41
501.32	25560.99
501.49	25343.32
501.67	25247.36
501.84	25563.33
502.02	25645.25
502.20	25799.73
502.37	25734.19
502.55	25816.11
502.72	25898.03
502.90	26003.35
503.07	25900.37
503.25	26052.50
503.43	26015.05
503.60	26359.11
503.78	26738.28
503.95	26260.81
504.13	26712.53
504.30	27159.58
504.48	26684.45
504.65	26939.57
504.83	27056.59
505.01	27190.00
505.18	26906.80
505.36	27300.01
505.53	27337.46
505.71	27688.54
505.88	27534.06
506.06	27562.15
506.23	28175.37
506.41	27564.49
506.58	27721.30
506.76	28112.17
506.93	28051.32
507.11	27768.12
507.28	28278.35
507.46	28191.75
507.63	28233.88
507.81	28154.30
507.98	28481.98
508.16	28444.53
508.33	29085.84
508.50	28531.13
508.68	29032.00
508.85	29216.91
509.03	29015.62
509.20	28945.41
509.38	29043.71
509.55	29397.13
509.73	29329.25
509.90	29193.50
510.08	29659.27
510.25	29230.95
510.42	29528.20
510.60	29778.64
510.77	29993.97
510.95	30082.91
511.12	30008.01
511.30	29914.39
511.47	30113.33
511.64	30277.17
511.82	30153.12
511.99	30328.66
512.17	30508.88
512.34	30433.99
512.51	30644.63
512.69	30871.67
512.86	30991.03
513.04	30937.20
513.21	31047.21
513.38	31206.36
513.56	31515.31
513.73	30951.24
513.90	31143.17
514.08	31215.72
514.25	31840.65
514.43	31704.90
514.60	31983.42
514.77	31854.69
514.95	31749.37
515.12	31688.51
515.29	31538.72
515.47	31950.65
515.64	32018.53
515.81	31793.84
515.99	32243.22
516.16	32397.70
516.33	32531.11
516.51	32620.05
516.68	32381.31
516.85	32460.89
517.03	32662.18
517.20	32629.41
517.37	32823.67
517.54	33003.89
517.72	33010.92
517.89	33270.72
518.06	33053.05
518.24	33125.60
518.41	32917.29
518.58	32950.06
518.75	33132.62
518.93	33464.98
519.10	33088.15
519.27	33549.24
519.45	33352.63
519.62	33605.41
519.79	33591.37
519.96	33666.27
520.14	33460.30
520.31	33502.43
520.48	33996.28
520.65	34242.04
520.83	34302.89
521.00	34326.30
521.17	34373.11
521.34	34403.53
521.52	34260.76
521.69	34455.03
521.86	35335.07
522.03	34850.58
522.20	34855.26
522.38	35274.21
522.55	35384.22
522.72	34799.08
522.89	35047.18
523.07	35442.73
523.24	35154.85
523.41	35433.37
523.58	35168.89
523.75	35644.02
523.92	35618.27
524.10	35667.42
524.27	35784.45
524.44	35264.85
524.61	35700.19
524.78	35744.66
524.96	35810.20
525.13	35761.05
525.30	36486.61
525.47	36334.48
525.64	36371.92
525.81	36376.61
525.98	36556.83
526.16	36098.08
526.33	35938.93
526.50	36451.50
526.67	36404.69
526.84	36704.28
527.01	36739.39
527.18	36776.84
527.36	36968.76
527.53	36409.37
527.70	37223.88
527.87	37214.52
528.04	37446.23
528.21	36720.66
528.38	37209.84
528.55	37418.14
528.72	37291.76
528.89	37310.48
529.07	37184.09
529.24	36818.97
529.41	37626.45
529.58	37434.53
529.75	37099.83
529.92	37312.82
530.09	37736.46
530.26	37647.52
530.43	37919.02
530.60	37584.32
530.77	37757.52
530.94	38050.09
531.11	37535.17
531.28	38237.33
531.46	37890.93
531.63	38218.61
531.80	38242.01
531.97	38391.81
532.14	38438.62
532.31	38096.90
532.48	38440.96
532.65	38597.77
532.82	38660.97
532.99	39019.07
533.16	38644.59
533.33	38689.06
533.50	38621.18
533.67	38843.53
533.84	38838.85
534.01	38953.54
534.18	38930.13
534.35	39086.95
534.52	38836.51
534.69	39709.53
534.86	39398.24
535.03	39119.71
535.20	39295.25
535.37	39344.41
535.54	39730.59
535.71	39475.48
535.88	39749.32
536.05	39557.39
536.22	39508.24
536.38	39669.74
536.55	39798.47
536.72	39562.08
536.89	39363.13
537.06	40009.12
537.23	40137.85
537.40	39704.85
537.57	39660.38
537.74	39922.52
537.91	40325.09
538.08	40123.80
538.25	40058.27
538.42	39871.03
538.59	40388.28
538.75	40065.29
538.92	40893.84
539.09	40615.32
539.26	40573.19
539.43	40467.86
539.60	41034.27
539.77	40624.68
539.94	41127.89
540.11	40942.99
540.28	40877.46
540.44	40203.38
540.61	40751.07
540.78	40776.81
540.95	40861.07
541.12	40755.75
541.29	40795.54
541.46	41003.85
541.62	41163.00
541.79	41455.57
541.96	40755.75
542.13	40928.95
542.30	41439.18
542.47	41144.28
542.63	41017.89
542.80	41743.45
542.97	41801.97
543.14	41734.09
543.31	41928.36
543.48	41780.90
543.64	42174.11
543.81	42300.50
543.98	41998.57
544.15	42080.49
544.32	42143.69
544.48	42342.63
544.65	42319.23
544.82	42417.53
544.99	41813.67
545.16	42150.71
545.32	42986.28
545.49	42724.14
545.66	42628.18
545.83	42855.21
546.00	42572.00
546.16	42234.97
546.33	42838.83
546.50	42241.99
546.67	43023.73
546.83	42649.24
547.00	42485.40
547.17	42249.01
547.34	42466.68
547.50	43438.00
547.67	43288.21
547.84	42719.46
548.00	42745.20
548.17	43288.21
548.34	43353.74
548.51	43758.66
548.67	42969.90
548.84	43295.23
549.01	43161.82
549.18	43129.05
549.34	43496.52
549.51	43349.06
549.68	43395.87
549.84	43349.06
550.01	43115.01
550.18	43447.36
550.34	43899.09
550.51	44350.81
550.68	43524.60
550.84	43377.15
551.01	43856.96
551.18	43491.83
551.34	43594.82
551.51	43817.17
551.68	43814.83
551.84	43997.39
552.01	43723.55
552.18	43812.49
552.34	43636.95
552.51	43871.00
552.68	43735.25
552.84	44306.34
553.01	44201.02
553.18	44322.72
553.34	44060.58
553.51	43931.86
553.67	44128.46
553.84	44208.04
554.01	44694.87
554.17	44610.61
554.34	44486.56
554.51	44275.91
554.67	44282.94
554.84	44769.77
555.00	44870.41
555.17	44289.96
555.33	44713.59
555.50	44495.92
555.67	44664.44
555.83	44893.82
556.00	45193.40
556.16	45219.15
556.33	45027.23
556.50	44655.08
556.66	45144.25
556.83	45111.49
556.99	45268.30
557.16	44947.65
557.32	45265.96
557.49	45399.37
557.65	45240.21
557.82	45024.89
557.98	45577.25
558.15	44788.49
558.32	45181.70
558.48	45165.32
558.65	44947.65
558.81	45191.06
558.98	45326.81
559.14	45453.20
559.31	45628.74
559.47	45230.85
559.64	45909.61
559.80	45298.73
559.97	45354.90
560.13	45214.47
560.30	45488.31
560.46	45340.86
560.63	45654.49
560.79	45549.17
560.96	45984.51
561.12	45972.80
561.29	45937.69
561.45	45614.70
561.61	45413.41
561.78	45553.85
561.94	45624.06
562.11	45586.61
562.27	45759.81
562.44	45485.97
562.60	46150.68
562.77	45984.51
562.93	45780.88
563.10	46464.32
563.26	46263.03
563.42	46134.30
563.59	45682.58
563.75	45722.37
563.92	46057.06
564.08	45954.08
564.24	46239.62
564.41	45916.63
564.57	46220.90
564.74	46054.72
564.90	46047.70
565.07	46057.06
565.23	46267.71
565.39	46298.14
565.56	46057.06
565.72	46024.29
565.88	46256.01
566.05	46075.79
566.21	46134.30
566.38	45794.92
566.54	46410.48
566.70	46436.23
566.87	46258.35
567.03	46241.96
567.19	46670.28
567.36	46085.15
567.52	46789.65
567.68	46728.80
567.85	46946.47
568.01	46740.50
568.17	46614.11
568.34	46948.81
568.50	46588.36
568.66	46000.89
568.83	46363.67
568.99	46447.93
569.15	46246.65
569.32	46389.42
569.48	46539.21
569.64	46719.43
569.81	46426.87
569.97	46632.83
570.13	46480.70
570.30	46529.85
570.46	46848.16
570.62	46770.93
570.78	46541.55
570.95	46436.23
571.11	46777.95
571.27	46483.04
571.43	46913.70
571.60	46593.04
571.76	46707.73
571.92	46894.97
572.09	46735.82
572.25	46696.03
572.41	46880.93
572.57	46822.42
572.74	47276.48
572.90	46953.49
573.06	46871.57
573.22	46845.82
573.38	47140.73
573.55	46728.80
573.71	46939.44
573.87	47140.73
574.03	47058.81
574.20	46838.80
574.36	46873.91
574.52	46791.99
574.68	47072.85
574.84	47234.35
575.01	47189.88
575.17	47154.77
575.33	47049.45
575.49	46658.58
575.65	46894.97
575.82	47007.32
575.98	46841.14
576.14	47442.66
576.30	47131.37
576.46	46986.25
576.62	47061.15
576.79	47540.96
576.95	46740.50
577.11	46752.20
577.27	47189.88
577.43	47131.37
577.59	47248.39
577.75	46967.53
577.92	47051.79
578.08	47346.70
578.24	47222.65
578.40	47454.36
578.56	46974.55
578.72	47012.00
578.88	47709.48
579.04	47040.09
579.21	47131.37
579.37	47557.35
579.53	47508.19
579.69	47356.06
579.85	47145.41
580.01	47203.92
580.17	47063.49
580.33	47157.11
580.49	47302.23
580.65	47173.50
580.82	47000.30
580.98	46911.36
581.14	47061.15
581.30	46995.62
581.46	47208.61
581.62	46831.78
581.78	47379.46
581.94	47306.91
582.10	47154.77
582.26	47433.30
582.42	47248.39
582.58	47337.33
582.74	47452.02
582.90	47152.43
583.06	47412.23
583.22	47047.11
583.38	47313.93
583.54	47601.82
583.70	47641.60
583.86	47342.02
584.02	47140.73
584.18	47629.90
584.34	47325.63
584.50	47709.48
584.66	47559.69
584.82	47430.96
584.98	47938.85
585.14	47508.19
585.30	47250.74
585.46	47241.37
585.62	47313.93
585.78	47709.48
585.94	46983.91
586.10	47054.13
586.26	46934.76
586.42	47229.67
586.58	47545.64
586.74	47168.82
586.90	47114.98
587.06	47325.63
587.22	48123.75
587.38	47363.08
587.54	47693.10
587.70	47643.94
587.86	47557.35
588.02	47557.35
588.18	47400.53
588.34	47040.09
588.49	47786.72
588.65	47454.36
588.81	47047.11
588.97	47538.62
589.13	47208.61
589.29	47459.04
589.45	47934.17
589.61	47683.73
589.77	47976.30
589.93	47962.26
590.08	48025.45
