SpectraSuite Data File
++++++++++++++++++++++++++++++++++++
Date: Fri Oct 25 11:33:32 EDT 2013
User: price-jones
Dark Spectrum Present: No
Reference Spectrum Present: No
Number of Sampled Component Spectra: 1
Spectrometers: USB2+H05261
Integration Time (usec): 100000 (USB2+H05261)
Spectra Averaged: 1 (USB2+H05261)
Boxcar Smoothing: 0 (USB2+H05261)
Correct for Electrical Dark: No (USB2+H05261)
Strobe/Lamp Enabled: No (USB2+H05261)
Correct for Detector Non-linearity: No (USB2+H05261)
Correct for Stray Light: No (USB2+H05261)
Number of Pixels in Processed Spectrum: 2048
>>>>>Begin Processed Spectral Data<<<<<
365.73	266.82
365.92	266.82
366.12	266.82
366.32	259.80
366.52	215.33
366.72	147.45
366.91	166.18
367.11	128.73
367.31	166.18
367.51	220.01
367.70	77.24
367.90	140.43
368.10	138.09
368.30	191.92
368.49	77.24
368.69	205.97
368.89	180.22
369.09	250.44
369.28	208.31
369.48	194.26
369.68	203.63
369.87	215.33
370.07	306.61
370.27	278.52
370.47	344.06
370.66	533.64
370.86	444.70
371.06	561.73
371.25	582.79
371.45	561.73
371.65	592.16
371.84	557.05
372.04	559.39
372.24	660.03
372.44	561.73
372.63	617.90
372.83	645.99
373.03	587.47
373.22	634.29
373.42	615.56
373.62	601.52
373.81	655.35
374.01	706.84
374.21	662.37
374.40	554.71
374.60	674.07
374.79	620.24
374.99	704.50
375.19	683.44
375.38	725.57
375.58	631.94
375.78	688.12
375.97	727.91
376.17	763.01
376.37	713.86
376.56	716.20
376.76	723.23
376.95	662.37
377.15	664.71
377.35	676.41
377.54	669.39
377.74	720.88
377.93	617.90
378.13	699.82
378.33	770.04
378.52	641.31
378.72	695.14
378.91	755.99
379.11	678.76
379.31	711.52
379.50	685.78
379.70	702.16
379.89	748.97
380.09	688.12
380.28	697.48
380.48	739.61
380.68	702.16
380.87	704.50
381.07	744.29
381.26	786.42
381.46	781.74
381.65	842.59
381.85	746.63
382.04	725.57
382.24	821.53
382.43	819.19
382.63	725.57
382.83	730.25
383.02	774.72
383.22	758.33
383.41	854.30
383.61	770.04
383.80	847.27
384.00	760.67
384.19	777.06
384.39	758.33
384.58	807.48
384.78	814.51
384.97	863.66
385.17	856.64
385.36	835.57
385.56	802.80
385.75	837.91
385.95	880.04
386.14	854.30
386.34	891.74
386.53	854.30
386.72	837.91
386.92	922.17
387.11	896.43
387.31	905.79
387.50	889.40
387.70	929.19
387.89	908.13
388.09	898.77
388.28	887.06
388.48	922.17
388.67	896.43
388.86	980.68
389.06	849.61
389.25	943.24
389.45	898.77
389.64	917.49
389.84	1008.77
390.03	1004.09
390.22	1004.09
390.42	959.62
390.61	1032.18
390.81	1102.39
391.00	1027.50
391.19	1062.60
391.39	954.94
391.58	1025.15
391.78	961.96
391.97	976.00
392.16	943.24
392.36	1095.37
392.55	1062.60
392.75	1036.86
392.94	1025.15
393.13	1057.92
393.33	1036.86
393.52	1064.94
393.71	1032.18
393.91	1104.73
394.10	1109.41
394.29	1093.03
394.49	1086.01
394.68	1076.65
394.88	1128.14
395.07	1107.07
395.26	1165.59
395.46	1060.26
395.65	1156.22
395.84	1100.05
396.04	1355.17
396.23	1186.65
396.42	1198.35
396.62	1188.99
396.81	1266.23
397.00	1193.67
397.19	1303.68
397.39	1217.08
397.58	1205.38
397.77	1238.14
397.97	1191.33
398.16	1287.29
398.35	1299.00
398.55	1277.93
398.74	1245.16
398.93	1350.49
399.12	1263.89
399.32	1303.68
399.51	1348.15
399.70	1437.09
399.90	1277.93
400.09	1486.24
400.28	1376.24
400.47	1387.94
400.67	1490.92
400.86	1416.02
401.05	1392.62
401.24	1490.92
401.44	1495.60
401.63	1458.15
401.82	1467.52
402.01	1483.90
402.21	1441.77
402.40	1530.71
402.59	1544.75
402.78	1458.15
402.97	1519.01
403.17	1600.93
403.36	1526.03
403.55	1523.69
403.74	1589.22
403.93	1643.06
404.13	1535.39
404.32	1593.90
404.51	1603.27
404.70	1797.53
404.89	1605.61
405.09	1654.76
405.28	1753.06
405.47	1713.27
405.66	1687.53
405.85	1788.17
406.05	1703.91
406.24	1687.53
406.43	1891.15
406.62	1699.23
406.81	1781.15
407.00	1781.15
407.20	1748.38
407.39	1661.78
407.58	1755.40
407.77	1844.34
407.96	1844.34
408.15	1884.13
408.34	1849.02
408.54	1912.22
408.73	1898.17
408.92	1858.39
409.11	2001.16
409.30	1898.17
409.49	1874.77
409.68	2094.78
409.87	1923.92
410.07	2029.24
410.26	1982.43
410.45	2054.99
410.64	2029.24
410.83	2047.97
411.02	2033.93
411.21	2188.40
411.40	2242.23
411.59	2183.72
411.78	2188.40
411.98	2127.55
412.17	2179.04
412.36	2256.28
412.55	2303.09
412.74	2333.51
412.93	2373.30
413.12	2356.92
413.31	2490.33
413.50	2333.51
413.69	2424.80
413.88	2415.43
414.07	2373.30
414.26	2541.82
414.45	2576.93
414.64	2520.76
414.83	2614.38
415.02	2609.70
415.22	2705.66
415.41	2738.43
415.60	2752.47
415.79	2616.72
415.98	2766.51
416.17	2832.05
416.36	2803.96
416.55	2736.09
416.74	2764.17
416.93	2789.92
417.12	2813.32
417.31	2857.79
417.50	2867.16
417.69	3087.17
417.88	3061.42
418.07	2913.97
418.26	2841.41
418.45	2984.18
418.64	3047.38
418.83	3021.63
419.02	2984.18
419.21	3098.87
419.39	3035.67
419.58	2949.08
419.77	2988.86
419.96	3187.81
420.15	3145.68
420.34	3119.93
420.53	3045.04
420.72	3262.71
420.91	3246.32
421.10	3262.71
421.29	3302.50
421.48	3171.43
421.67	3316.54
421.86	3440.59
422.05	3321.22
422.24	3248.66
422.43	3218.24
422.61	3372.71
422.80	3393.78
422.99	3396.12
423.18	3382.07
423.37	3461.65
423.56	3428.88
423.75	3396.12
423.94	3290.79
424.13	3187.81
424.32	3356.33
424.50	3384.41
424.69	3426.54
424.88	3574.00
425.07	3536.55
425.26	3424.20
425.45	3342.28
425.64	3342.28
425.83	3379.73
426.01	3534.21
426.20	3433.57
426.39	3534.21
426.58	3471.01
426.77	3461.65
426.96	3398.46
427.15	3538.89
427.33	3527.19
427.52	3583.36
427.71	3648.90
427.90	3623.15
428.09	3705.07
428.28	3616.13
428.46	3733.15
428.65	3646.55
428.84	3740.18
429.03	3838.48
429.22	3705.07
429.40	3798.69
429.59	3684.00
429.78	3714.43
429.97	3676.98
430.16	3794.01
430.34	3786.99
430.53	3932.10
430.72	3939.12
430.91	3861.88
431.10	3847.84
431.28	3974.23
431.47	3934.44
431.66	4067.85
431.85	3927.42
432.03	4002.32
432.22	4109.98
432.41	4135.73
432.60	4074.87
432.79	4131.05
432.97	4105.30
433.16	4084.23
433.35	3950.82
433.54	4189.56
433.72	4152.11
433.91	4159.13
434.10	4250.41
434.28	4196.58
434.47	4168.49
434.66	4217.65
434.85	4341.69
435.03	4344.03
435.22	4257.43
435.41	4365.10
435.59	4418.93
435.78	4447.02
435.97	4304.25
436.16	4355.74
436.34	4418.93
436.53	4486.81
436.72	4564.04
436.90	4400.21
437.09	4512.55
437.28	4510.21
437.46	4561.70
437.65	4519.57
437.84	4617.88
438.02	4608.51
438.21	4596.81
438.40	4645.96
438.58	4704.48
438.77	4837.89
438.96	4622.56
439.14	4856.61
439.33	4887.04
439.52	4875.34
439.70	4702.14
439.89	5043.85
440.08	4912.78
440.26	5093.01
440.45	5048.54
440.63	5048.54
440.82	5076.62
441.01	5165.56
441.19	5153.86
441.38	5195.99
441.57	5139.82
441.75	5336.42
441.94	5432.38
442.12	5369.19
442.31	5563.45
442.50	5465.15
442.68	5371.53
442.87	5298.97
443.05	5427.70
443.24	5584.52
443.43	5542.39
443.61	5584.52
443.80	5746.02
443.98	5493.24
444.17	5345.78
444.35	5434.72
444.54	5748.36
444.73	5600.90
444.91	5715.59
445.10	5537.71
445.28	5776.44
445.47	5685.16
445.65	5596.22
445.84	5668.78
446.02	5795.17
446.21	5734.31
446.39	5738.99
446.58	5769.42
446.77	5685.16
446.95	5600.90
447.14	5736.65
447.32	5834.96
447.51	5717.93
447.69	5729.63
447.88	5603.24
448.06	5827.93
448.25	5743.67
448.43	5830.27
448.62	5650.05
448.80	5802.19
448.99	5891.13
449.17	5839.64
449.36	5893.47
449.54	5930.92
449.73	6015.18
449.91	6078.37
450.10	5961.34
450.28	6111.14
450.46	6022.20
450.65	6207.10
450.83	6125.18
451.02	5909.85
451.20	6141.57
451.39	6195.40
451.57	6312.42
451.76	6106.46
451.94	6024.54
452.13	6139.23
452.31	6359.24
452.49	6267.95
452.68	6448.18
452.86	6366.26
453.05	6340.51
453.23	6394.34
453.42	6413.07
453.60	6361.58
453.78	6530.09
453.97	6392.00
454.15	6403.71
454.34	6293.70
454.52	6546.48
454.70	6473.92
454.89	6483.28
455.07	6626.06
455.26	6668.19
455.44	6691.59
455.62	6609.67
455.81	6616.69
455.99	6703.29
456.17	6881.18
456.36	6738.40
456.54	6778.19
456.73	6700.95
456.91	6981.82
457.09	7035.65
457.28	7054.37
457.46	6920.96
457.64	7059.06
457.83	7063.74
458.01	6965.43
458.19	7199.49
458.38	7215.87
458.56	7103.53
458.74	7028.63
458.93	7187.79
459.11	7272.04
459.29	7267.36
459.48	7276.73
459.66	7250.98
459.84	7272.04
460.03	7566.95
460.21	7447.58
460.39	7339.92
460.57	7349.28
460.76	7452.27
460.94	7346.94
461.12	7566.95
461.31	7382.05
461.49	7552.91
461.67	7501.42
461.85	7604.40
462.04	7578.65
462.22	8081.87
462.40	7817.39
462.59	7700.36
462.77	7630.15
462.95	7836.11
463.13	7822.07
463.32	7723.77
463.50	7939.10
463.68	7920.37
463.86	7981.23
464.05	7859.52
464.23	7747.17
464.41	7735.47
464.59	7936.76
464.78	8056.12
464.96	8039.74
465.14	8056.12
465.32	7939.10
465.50	8294.86
465.69	8212.94
465.87	8234.00
466.05	8152.09
466.23	8056.12
466.41	8109.96
466.60	8351.03
466.78	8219.96
466.96	8119.32
467.14	8091.23
467.32	8425.93
467.51	8381.46
467.69	8226.98
467.87	8166.13
468.05	8383.80
468.23	8219.96
468.41	8325.29
468.60	8454.02
468.78	8379.12
468.96	8578.06
469.14	8599.13
469.32	8716.16
469.50	8662.32
469.69	8545.30
469.87	8903.40
470.05	8676.37
470.23	8725.52
470.41	8730.20
470.59	8821.48
470.77	8774.67
470.95	8767.65
471.14	8823.82
471.32	8692.75
471.50	8922.12
471.68	9078.94
471.86	9146.81
472.04	9256.82
472.22	9444.06
472.40	9268.52
472.58	9397.25
472.77	9397.25
472.95	9467.47
473.13	9750.67
473.31	9373.85
473.49	9722.59
473.67	9502.58
473.85	9568.11
474.03	9928.55
474.21	9731.95
474.39	9755.35
474.57	9881.74
474.75	10012.81
474.93	10001.11
475.12	10064.30
475.30	9916.85
475.48	10078.35
475.66	10143.88
475.84	10127.50
476.02	10321.76
476.20	10237.50
476.38	10455.17
476.56	10384.96
476.74	10635.39
476.92	10569.86
477.10	10633.05
477.28	10775.83
477.46	10640.08
477.64	10857.75
477.82	10911.58
478.00	11293.08
478.18	11059.03
478.36	11157.33
478.54	11410.11
478.72	11330.53
478.90	11384.37
479.08	11758.85
479.26	11716.72
479.44	11674.59
479.62	12002.27
479.80	12016.31
479.98	12018.65
480.16	12191.85
480.34	11957.80
480.52	12437.61
480.70	12248.02
480.88	12402.50
481.06	12245.68
481.24	12374.41
481.41	12559.31
481.59	12655.28
481.77	12809.75
481.95	12629.53
482.13	12952.52
482.31	12954.87
482.49	13446.38
482.67	13240.41
482.85	13809.16
483.03	13444.04
483.21	13757.67
483.39	13642.98
483.57	13767.03
483.74	13884.06
483.92	13846.61
484.10	13844.27
484.28	14321.74
484.46	14623.67
484.64	14616.65
484.82	14396.64
485.00	14684.52
485.18	15068.37
485.35	14970.07
485.53	14902.19
485.71	15201.78
485.89	15414.77
486.07	15447.54
486.25	15400.72
486.43	15543.50
486.61	15845.43
486.78	15822.02
486.96	15915.64
487.14	16166.08
487.32	16196.51
487.50	16100.55
487.68	16285.45
487.85	16739.51
488.03	16772.28
488.21	16879.94
488.39	17008.67
488.57	17139.74
488.75	17156.13
488.92	17294.22
489.10	17502.53
489.28	17539.97
489.46	18001.06
489.64	17781.05
489.81	18380.23
489.99	18012.76
490.17	18469.17
490.35	18560.45
490.53	18541.72
490.70	18480.87
490.88	18532.36
491.06	18988.77
491.24	18857.70
491.41	19248.57
491.59	19168.99
491.77	19220.48
491.95	19445.17
492.13	19644.12
492.30	19719.01
492.48	19854.76
492.66	19887.53
492.84	19796.25
493.01	20037.33
493.19	20037.33
493.37	20262.02
493.54	20493.73
493.72	20645.87
493.90	20648.21
494.08	20709.06
494.25	21385.47
494.43	20996.95
494.61	20971.20
494.79	21270.79
494.96	21153.76
495.14	21329.30
495.32	21668.68
495.49	21635.91
495.67	21642.93
495.85	22111.04
496.02	22092.32
496.20	22218.71
496.38	22265.52
496.55	22223.39
496.73	22937.25
496.91	22572.13
497.09	22714.90
497.26	22864.69
497.44	23002.78
497.62	23147.90
497.79	23428.76
497.97	23271.95
498.14	23714.31
498.32	23616.01
498.50	23714.31
498.67	24229.23
498.85	23803.25
499.03	24175.39
499.20	24182.42
499.38	24182.42
499.56	24180.07
499.73	24559.24
499.91	24364.98
500.08	24868.19
500.26	24608.39
500.44	24683.29
500.61	24680.95
500.79	24947.77
500.97	24865.85
501.14	25427.58
501.32	25467.37
501.49	25427.58
501.67	25256.72
501.84	25469.71
502.02	25663.97
502.20	25706.10
502.37	25935.48
502.55	25937.82
502.72	25851.22
502.90	25888.67
503.07	26038.46
503.25	26089.95
503.43	26061.87
503.60	26153.15
503.78	26291.24
503.95	26286.56
504.13	26576.78
504.30	27037.87
504.48	26553.38
504.65	26574.44
504.83	27014.46
505.01	27225.11
505.18	27260.22
505.36	27082.34
505.53	27187.66
505.71	27278.94
505.88	27351.50
506.06	27096.38
506.23	28002.17
506.41	27536.40
506.58	27552.79
506.76	27463.85
506.93	28173.03
507.11	27878.12
507.28	27796.20
507.46	28198.77
507.63	28416.44
507.81	28507.72
507.98	28554.54
508.16	28526.45
508.33	28645.82
508.50	28678.58
508.68	28676.24
508.85	28980.51
509.03	28692.63
509.20	28999.24
509.38	29607.78
509.55	29486.07
509.73	29324.57
509.90	29223.93
510.08	29582.03
510.25	29495.43
510.42	29694.38
510.60	29649.91
510.77	29780.98
510.95	30134.40
511.12	30302.92
511.30	29823.11
511.47	30354.41
511.64	30071.20
511.82	30534.63
511.99	30572.08
512.17	30448.03
512.34	30492.50
512.51	30663.36
512.69	31014.44
512.86	30962.95
513.04	31101.04
513.21	30710.17
513.38	31295.30
513.56	31180.62
513.73	31079.97
513.90	31054.23
514.08	31091.68
514.25	31316.37
514.43	31711.92
514.60	31793.84
514.77	31674.47
514.95	31714.26
515.12	31564.46
515.29	31597.23
515.47	32130.87
515.64	32140.24
515.81	31744.69
515.99	31929.59
516.16	32407.06
516.33	32629.41
516.51	32540.47
516.68	32311.10
516.85	32402.38
517.03	32781.54
517.20	32683.24
517.37	33015.60
517.54	32992.19
517.72	33036.66
517.89	32723.03
518.06	33476.68
518.24	32959.42
518.41	33130.28
518.58	33179.43
518.75	32940.70
518.93	33172.41
519.10	33453.28
519.27	33392.42
519.45	33467.32
519.62	33518.81
519.79	33977.56
519.96	33677.97
520.14	33907.34
520.31	33813.72
520.48	33937.77
520.65	34188.21
520.83	34314.59
521.00	34621.20
521.17	33982.24
521.34	34258.42
521.52	34263.10
521.69	34356.72
521.86	34857.60
522.03	34876.32
522.20	34885.68
522.38	35283.58
522.55	35150.17
522.72	34948.88
522.89	35260.17
523.07	35402.94
523.24	35718.92
523.41	35489.54
523.58	34974.63
523.75	35297.62
523.92	35536.35
524.10	35536.35
524.27	35873.39
524.44	35702.53
524.61	35658.06
524.78	35969.35
524.96	35950.63
525.13	36084.04
525.30	35992.76
525.47	36304.05
525.64	35908.50
525.81	36514.70
525.98	36793.22
526.16	36182.34
526.33	36346.18
526.50	36369.58
526.67	36446.82
526.84	36278.30
527.01	36472.57
527.18	36947.70
527.36	36563.85
527.53	36652.79
527.70	36992.17
527.87	37289.42
528.04	37137.28
528.21	36994.51
528.38	37123.24
528.55	37647.52
528.72	36849.39
528.89	37291.76
529.07	37357.29
529.24	36987.49
529.41	37897.95
529.58	38127.33
529.75	37017.91
529.92	37357.29
530.09	37390.06
530.26	37390.06
530.43	37546.87
530.60	37324.52
530.77	37631.13
530.94	38150.73
531.11	38148.39
531.28	38134.35
531.46	38150.73
531.63	38139.03
531.80	38328.61
531.97	38658.63
532.14	38225.63
532.31	38160.09
532.48	38469.04
532.65	38675.01
532.82	38494.79
532.99	38618.84
533.16	38770.97
533.33	38576.71
533.50	38480.75
533.67	39164.18
533.84	38717.14
534.01	38745.23
534.18	39058.86
534.35	39484.84
534.52	39206.31
534.69	39194.61
534.86	39508.24
535.03	39161.84
535.20	39440.37
535.37	39229.72
535.54	39711.87
535.71	39232.06
535.88	39594.84
536.05	39438.03
536.22	39948.26
536.38	39538.67
536.55	39618.25
536.72	39758.68
536.89	39613.57
537.06	39887.41
537.23	40271.26
537.40	39618.25
537.57	39632.29
537.74	39835.92
537.91	40187.00
538.08	40203.38
538.25	40423.39
538.42	40402.33
538.59	40818.94
538.75	40210.40
538.92	40481.91
539.09	40556.80
539.26	40357.86
539.43	40339.13
539.60	40872.78
539.77	40959.38
539.94	41060.02
540.11	40631.70
540.28	40807.24
540.44	40678.51
540.61	40587.23
540.78	40666.81
540.95	40814.26
541.12	40935.97
541.29	40849.37
541.46	41123.21
541.62	41158.32
541.79	41022.57
541.96	41265.99
542.13	41029.59
542.30	41163.00
542.47	41581.96
542.63	41439.18
542.80	41610.04
542.97	41724.73
543.14	41904.95
543.31	41579.62
543.48	41888.57
543.64	42286.46
543.81	42410.51
543.98	41937.72
544.15	42225.60
544.32	42375.40
544.48	42263.05
544.65	42419.87
544.82	42127.30
544.99	42094.53
545.16	42658.60
545.32	42176.45
545.49	42534.56
545.66	42660.94
545.83	42466.68
546.00	42424.55
546.16	42593.07
546.33	42134.32
546.50	42452.64
546.67	42988.62
546.83	42602.43
547.00	42740.52
547.17	42581.37
547.34	42878.61
547.50	43143.09
547.67	43423.96
547.84	42937.13
548.00	43206.29
548.17	43716.53
548.34	43517.58
548.51	43461.41
548.67	43288.21
548.84	43330.34
549.01	43185.22
549.18	43913.13
549.34	43152.46
549.51	43498.86
549.68	44250.17
549.84	43688.44
550.01	43412.26
550.18	43398.21
550.34	43669.72
550.51	43365.45
550.68	43550.35
550.84	43489.49
551.01	43948.24
551.18	43545.67
551.34	44004.41
551.51	44072.29
551.68	43583.12
551.84	43873.34
552.01	43599.50
552.18	44252.51
552.34	43739.93
552.51	44484.22
552.68	43817.17
552.84	44065.27
553.01	44577.84
553.18	44067.61
553.34	44135.48
553.51	43625.25
553.67	44172.93
553.84	44598.91
554.01	44435.07
554.17	44605.93
554.34	44411.67
554.51	44320.38
554.67	44612.95
554.84	44603.59
555.00	44961.69
555.17	44257.19
555.33	44919.56
555.50	44645.72
555.67	45090.42
555.83	44662.10
556.00	44886.79
556.16	45158.30
556.33	44528.69
556.50	45127.87
556.66	44879.77
556.83	44978.07
556.99	45490.65
557.16	45364.26
557.32	45516.40
557.49	45125.53
557.65	44797.85
557.82	45382.99
557.98	45350.22
558.15	45038.93
558.32	45478.95
558.48	44926.58
558.65	45200.43
558.81	45202.77
558.98	44985.10
559.14	45247.24
559.31	45230.85
559.47	45455.54
559.64	45191.06
559.80	45757.47
559.97	45436.82
560.13	45078.72
560.30	45464.91
560.46	45806.62
560.63	45640.45
560.79	45617.04
560.96	45918.97
561.12	45977.48
561.29	45579.59
561.45	45488.31
561.61	45911.95
561.78	45619.38
561.94	45511.72
562.11	45514.06
562.27	45790.24
562.44	45560.87
562.60	45827.69
562.77	45322.13
562.93	45366.60
563.10	46160.05
563.26	46274.73
563.42	46277.07
563.59	45834.71
563.75	46131.96
563.92	46248.99
564.08	45682.58
564.24	45911.95
564.41	45993.87
564.57	45783.22
564.74	46522.83
564.90	46263.03
565.07	46096.85
565.23	45921.31
565.39	46146.00
565.56	46237.28
565.72	46391.76
565.88	46520.49
566.05	46024.29
566.21	46284.09
566.38	45890.88
566.54	46518.15
566.70	46384.74
566.87	46401.12
567.03	46241.96
567.19	46469.00
567.36	46246.65
567.52	46148.34
567.68	46628.15
567.85	46539.21
568.01	46356.65
568.17	46195.15
568.34	46857.52
568.50	46618.79
568.66	46256.01
568.83	46553.26
568.99	46298.14
569.15	46639.86
569.32	46593.04
569.48	46490.06
569.64	46843.48
569.81	46522.83
569.97	46440.91
570.13	46583.68
570.30	46326.22
570.46	46607.09
570.62	47260.10
570.78	46698.37
570.95	46550.91
571.11	47054.13
571.27	46878.59
571.43	46876.25
571.60	46431.55
571.76	46614.11
571.92	46824.76
572.09	47000.30
572.25	46417.50
572.41	47042.43
572.57	46749.86
572.74	47145.41
572.90	46557.94
573.06	46852.84
573.22	47140.73
573.38	47007.32
573.55	46897.31
573.71	47075.19
573.87	47267.12
574.03	46728.80
574.20	47672.03
574.36	46918.38
574.52	47276.48
574.68	47150.09
574.84	47292.86
575.01	46871.57
575.17	47140.73
575.33	47201.58
575.49	46728.80
575.65	46794.33
575.82	47056.47
575.98	46927.74
576.14	47311.59
576.30	46733.48
576.46	47281.16
576.62	47037.75
576.79	46590.70
576.95	46754.54
577.11	46827.10
577.27	46834.12
577.43	47077.54
577.59	46906.68
577.75	46983.91
577.92	46429.21
578.08	47136.05
578.24	47295.21
578.40	47227.33
578.56	47033.07
578.72	47126.69
578.88	47187.54
579.04	47105.62
579.21	47143.07
579.37	46878.59
579.53	47524.58
579.69	47110.30
579.85	46824.76
580.01	47760.97
580.17	47241.37
580.33	47398.19
580.49	47065.83
580.65	47437.98
580.82	47161.79
580.98	47370.10
581.14	46904.34
581.30	47344.36
581.46	47264.78
581.62	46869.23
581.78	46934.76
581.94	47257.76
582.10	47208.61
582.26	47367.76
582.42	47562.03
582.58	47175.84
582.74	47409.89
582.90	47180.52
583.06	47241.37
583.22	47304.57
583.38	47454.36
583.54	47386.49
583.70	47157.11
583.86	47398.19
584.02	47180.52
584.18	47547.98
584.34	47564.37
584.50	47999.71
584.66	47594.79
584.82	47543.30
584.98	47732.89
585.14	47456.70
585.30	47552.66
585.46	47639.26
585.62	47210.95
585.78	47672.03
585.94	47250.74
586.10	47058.81
586.26	47334.99
586.42	47309.25
586.58	47669.69
586.74	47241.37
586.90	47271.80
587.06	47632.24
587.22	47260.10
587.38	47047.11
587.54	47732.89
587.70	47831.19
587.86	47508.19
588.02	47721.18
588.18	47210.95
588.34	47976.30
588.49	47182.86
588.65	47374.78
588.81	47482.45
588.97	47742.25
589.13	47669.69
589.29	47449.68
589.45	47672.03
589.61	47849.91
589.77	47964.60
589.93	47889.70
