SpectraSuite Data File
++++++++++++++++++++++++++++++++++++
Date: Fri Oct 25 11:23:46 EDT 2013
User: price-jones
Dark Spectrum Present: No
Reference Spectrum Present: No
Number of Sampled Component Spectra: 1
Spectrometers: USB2+H05261
Integration Time (usec): 100000 (USB2+H05261)
Spectra Averaged: 1 (USB2+H05261)
Boxcar Smoothing: 0 (USB2+H05261)
Correct for Electrical Dark: No (USB2+H05261)
Strobe/Lamp Enabled: No (USB2+H05261)
Correct for Detector Non-linearity: No (USB2+H05261)
Correct for Stray Light: No (USB2+H05261)
Number of Pixels in Processed Spectrum: 2048
>>>>>Begin Processed Spectral Data<<<<<
365.73	287.89
365.92	287.89
366.12	287.89
366.32	187.24
366.52	145.11
366.72	105.32
366.91	133.41
367.11	98.30
367.31	131.07
367.51	138.09
367.70	95.96
367.90	119.37
368.10	105.32
368.30	102.98
368.49	170.86
368.69	180.22
368.89	210.65
369.09	133.41
369.28	210.65
369.48	154.48
369.68	152.13
369.87	182.56
370.07	121.71
370.27	234.05
370.47	222.35
370.66	564.07
370.86	678.76
371.06	678.76
371.25	786.42
371.45	592.16
371.65	669.39
371.84	688.12
372.04	645.99
372.24	671.73
372.44	788.76
372.63	737.27
372.83	716.20
373.03	732.59
373.22	741.95
373.42	751.31
373.62	730.25
373.81	814.51
374.01	819.19
374.21	744.29
374.40	830.89
374.60	847.27
374.79	814.51
374.99	873.02
375.19	875.36
375.38	866.00
375.58	894.08
375.78	814.51
375.97	866.00
376.17	919.83
376.37	880.04
376.56	912.81
376.76	819.19
376.95	884.72
377.15	905.79
377.35	910.47
377.54	922.17
377.74	943.24
377.93	880.04
378.13	957.28
378.33	945.58
378.52	875.36
378.72	964.30
378.91	936.21
379.11	1004.09
379.31	912.81
379.50	861.32
379.70	894.08
379.89	1055.58
380.09	938.55
380.28	987.71
380.48	971.32
380.68	1013.45
380.87	961.96
381.07	952.60
381.26	1020.47
381.46	875.36
381.65	1067.28
381.85	1001.75
382.04	1025.15
382.24	1081.33
382.43	1057.92
382.63	997.07
382.83	1013.45
383.02	1132.82
383.22	1090.69
383.41	1160.91
383.61	1203.04
383.80	1198.35
384.00	1069.62
384.19	1137.50
384.39	1132.82
384.58	1179.63
384.78	1132.82
384.97	1167.93
385.17	1207.72
385.36	1153.88
385.56	1095.37
385.75	1139.84
385.95	1233.46
386.14	1217.08
386.34	1193.67
386.53	1198.35
386.72	1139.84
386.92	1390.28
387.11	1170.27
387.31	1301.34
387.50	1252.19
387.70	1181.97
387.89	1287.29
388.09	1324.74
388.28	1277.93
388.48	1247.51
388.67	1303.68
388.86	1362.19
389.06	1198.35
389.25	1366.87
389.45	1322.40
389.64	1299.00
389.84	1364.53
390.03	1327.08
390.22	1441.77
390.42	1383.26
390.61	1411.34
390.81	1385.60
391.00	1378.58
391.19	1462.83
391.39	1406.66
391.58	1341.13
391.78	1490.92
391.97	1530.71
392.16	1540.07
392.36	1530.71
392.55	1558.80
392.75	1554.12
392.94	1430.07
393.13	1589.22
393.33	1486.24
393.52	1568.16
393.71	1589.22
393.91	1540.07
394.10	1614.97
394.29	1568.16
394.49	1617.31
394.68	1680.50
394.88	1673.48
395.07	1689.87
395.26	1563.48
395.46	1659.44
395.65	1582.20
395.84	1652.42
396.04	1844.34
396.23	1813.92
396.42	1827.96
396.62	1706.25
396.81	1811.57
397.00	1776.47
397.19	1757.74
397.39	1755.40
397.58	1839.66
397.77	1799.87
397.97	1891.15
398.16	1994.14
398.35	1907.54
398.55	1907.54
398.74	1914.56
398.93	1944.99
399.12	1996.48
399.32	1937.96
399.51	2015.20
399.70	1966.05
399.90	1984.77
400.09	2064.35
400.28	2059.67
400.47	2092.44
400.67	2169.68
400.86	2085.42
401.05	2087.76
401.24	2129.89
401.44	2092.44
401.63	2143.93
401.82	2125.21
402.01	2186.06
402.21	2146.27
402.40	2165.00
402.59	2235.21
402.78	2188.40
402.97	2223.51
403.17	2321.81
403.36	2282.02
403.55	2258.62
403.74	2335.85
403.93	2223.51
404.13	2303.09
404.32	2399.05
404.51	2441.18
404.70	2410.75
404.89	2396.71
405.09	2513.74
405.28	2349.90
405.47	2380.32
405.66	2473.95
405.85	2471.61
406.05	2609.70
406.24	2499.69
406.43	2534.80
406.62	2649.49
406.81	2703.32
407.00	2623.74
407.20	2644.81
407.39	2560.55
407.58	2761.83
407.77	2672.89
407.96	2906.95
408.15	2829.71
408.34	2612.04
408.54	2839.07
408.73	2689.28
408.92	2850.77
409.11	2813.32
409.30	2843.75
409.49	2810.98
409.68	2888.22
409.87	2974.82
410.07	3094.19
410.26	2995.89
410.45	2958.44
410.64	3110.57
410.83	3110.57
411.02	3159.72
411.21	3218.24
411.40	3075.46
411.59	3297.81
411.78	3166.74
411.98	3073.12
412.17	3337.60
412.36	3351.65
412.55	3454.63
412.74	3351.65
412.93	3372.71
413.12	3349.31
413.31	3620.81
413.50	3468.67
413.69	3548.25
413.88	3707.41
414.07	3543.57
414.26	3676.98
414.45	3688.68
414.64	3798.69
414.83	3812.73
415.02	3765.92
415.22	3810.39
415.41	3887.63
415.60	3899.33
415.79	3882.95
415.98	3906.35
416.17	4065.51
416.36	4009.34
416.55	4002.32
416.74	4109.98
416.93	4095.94
417.12	4070.19
417.31	4119.34
417.50	4227.01
417.69	4145.09
417.88	4505.53
418.07	4372.12
418.26	4465.74
418.45	4334.67
418.64	4568.73
418.83	4475.10
419.02	4559.36
419.21	4519.57
419.39	4465.74
419.58	4629.58
419.77	4482.13
419.96	4477.44
420.15	4571.07
420.34	4650.64
420.53	4690.43
420.72	4697.46
420.91	4692.77
421.10	4821.50
421.29	4800.44
421.48	4676.39
421.67	4772.35
421.86	4854.27
422.05	4774.69
422.24	4865.97
422.43	4854.27
422.61	5029.81
422.80	4940.87
422.99	4968.96
423.18	5083.64
423.37	5041.51
423.56	4919.81
423.75	4987.68
423.94	4971.30
424.13	4777.03
424.32	4812.14
424.50	5097.69
424.69	5153.86
424.88	5081.30
425.07	5043.85
425.26	5053.22
425.45	5011.09
425.64	4999.38
425.83	4999.38
426.01	5064.92
426.20	5027.47
426.39	5022.79
426.58	4983.00
426.77	5076.62
426.96	5198.33
427.15	5076.62
427.33	5107.05
427.52	5268.55
427.71	5369.19
427.90	5280.25
428.09	5268.55
428.28	5385.57
428.46	5441.75
428.65	5376.21
428.84	5544.73
429.03	5638.35
429.22	5488.56
429.40	5502.60
429.59	5418.34
429.78	5210.03
429.97	5345.78
430.16	5593.88
430.34	5605.58
430.53	5619.63
430.72	5708.57
430.91	5809.21
431.10	5542.39
431.28	5846.66
431.47	5856.02
431.66	5933.26
431.85	5809.21
432.03	5956.66
432.22	6050.28
432.41	5841.98
432.60	6054.97
432.79	6036.24
432.97	5968.37
433.16	6120.50
433.35	5935.60
433.54	6122.84
433.72	6125.18
433.91	6099.44
434.10	6069.01
434.28	6211.78
434.47	6143.91
434.66	6431.79
434.85	6228.17
435.03	6246.89
435.22	6289.02
435.41	6574.56
435.59	6258.59
435.78	6525.41
435.97	6607.33
436.16	6574.56
436.34	6490.31
436.53	6466.90
436.72	6623.72
436.90	6565.20
437.09	6621.38
437.28	6459.88
437.46	6710.32
437.65	6663.51
437.84	6843.73
438.02	6876.49
438.21	6785.21
438.40	6745.42
438.58	6953.73
438.77	6944.37
438.96	7005.22
439.14	7129.27
439.33	7082.46
439.52	7213.53
439.70	7311.83
439.89	7414.82
440.08	7482.69
440.26	7382.05
440.45	7295.45
440.63	7501.42
440.82	7672.28
441.01	7363.33
441.19	7536.52
441.38	7808.03
441.57	7660.57
441.75	7838.45
441.94	8025.70
442.12	8013.99
442.31	8060.80
442.50	8168.47
442.68	8046.76
442.87	8088.89
443.05	8067.83
443.24	8229.32
443.43	8154.43
443.61	8198.90
443.80	8519.55
443.98	8056.12
444.17	7936.76
444.35	8126.34
444.54	8362.73
444.73	8334.65
444.91	8397.84
445.10	8454.02
445.28	8212.94
445.47	8362.73
445.65	8674.03
445.84	8571.04
446.02	8491.46
446.21	8484.44
446.39	8461.04
446.58	8624.87
446.77	8568.70
446.95	8290.18
447.14	8521.89
447.32	8531.25
447.51	8351.03
447.69	8507.85
447.88	8500.83
448.06	8500.83
448.25	8393.16
448.43	8615.51
448.62	8655.30
448.80	8690.41
448.99	8552.32
449.17	8786.37
449.36	8594.45
449.54	8774.67
449.73	8931.48
449.91	9179.58
450.10	9018.08
450.28	9064.89
450.46	9062.55
450.65	9088.30
450.83	9184.26
451.02	9137.45
451.20	9252.14
451.39	9235.75
451.57	9249.80
451.76	8868.29
451.94	9362.14
452.13	9514.28
452.31	9275.54
452.49	9214.69
452.68	9495.55
452.86	9345.76
453.05	9650.03
453.23	9703.86
453.42	9465.13
453.60	9511.94
453.78	9441.72
453.97	9570.45
454.15	9558.75
454.34	9474.49
454.52	9666.41
454.70	9640.67
454.89	9671.09
455.07	9848.97
455.26	9905.15
455.44	10120.48
455.62	9863.02
455.81	10064.30
455.99	10033.88
456.17	10153.24
456.36	10244.52
456.54	10097.07
456.73	10171.97
456.91	10448.15
457.09	10539.43
457.28	10710.29
457.46	10490.28
457.64	10401.34
457.83	10574.54
458.01	10590.92
458.19	10808.59
458.38	10738.38
458.56	10775.83
458.74	10665.82
458.93	10649.44
459.11	10820.30
459.29	10871.79
459.48	10911.58
459.66	10923.28
459.84	11091.80
460.03	11328.19
460.21	10913.92
460.39	11094.14
460.57	11103.50
460.76	11204.14
460.94	11063.71
461.12	11356.28
461.31	11145.63
461.49	11332.87
461.67	11316.49
461.85	11562.25
462.04	11300.11
462.22	11618.42
462.40	11618.42
462.59	11552.88
462.77	11618.42
462.95	11747.15
463.13	11609.06
463.32	11967.16
463.50	12049.08
463.68	11824.39
463.86	11683.95
464.05	11728.42
464.23	11838.43
464.41	11936.73
464.59	11812.68
464.78	12091.21
464.96	11950.78
465.14	12088.87
465.32	11953.12
465.50	12037.38
465.69	12395.48
465.87	12257.39
466.05	12238.66
466.23	12255.04
466.41	12332.28
466.60	12587.40
466.78	12262.07
466.96	12386.12
467.14	12311.22
467.32	12493.78
467.51	12779.32
467.69	12325.26
467.87	12774.64
468.05	12695.07
468.23	12208.23
468.41	12311.22
468.60	12620.17
468.78	12758.26
468.96	12540.59
469.14	12802.73
469.32	13092.96
469.50	12858.90
469.69	13092.96
469.87	13163.17
470.05	13191.26
470.23	13266.16
470.41	13242.75
470.59	13593.83
470.77	13245.09
470.95	13434.68
471.14	13715.54
471.32	13266.16
471.50	13745.97
471.68	13603.19
471.86	13792.78
472.04	13687.45
472.22	14090.02
472.40	13980.02
472.58	13607.87
472.77	13930.87
472.95	14242.16
473.13	14691.54
473.31	13951.93
473.49	14321.74
473.67	14146.20
473.85	14450.47
474.03	14780.48
474.21	14614.30
474.39	14726.65
474.57	14661.12
474.75	14902.19
474.93	14988.79
475.12	14850.70
475.30	14930.28
475.48	15019.22
475.66	15019.22
475.84	15091.77
476.02	15576.27
476.20	15538.82
476.38	15740.10
476.56	16166.08
476.74	16128.63
476.92	15878.19
477.10	15751.81
477.28	16334.60
477.46	16353.32
477.64	16472.69
477.82	16468.01
478.00	17111.66
478.18	16556.95
478.36	16856.54
478.54	17287.20
478.72	17259.11
478.90	17511.89
479.08	17600.83
479.26	18047.87
479.44	17635.94
479.62	17963.61
479.80	18335.76
479.98	18043.19
480.16	18485.55
480.34	18295.97
480.52	18906.85
480.70	18717.26
480.88	18583.85
481.06	18661.09
481.24	18813.23
481.41	19164.31
481.59	19398.36
481.77	19875.83
481.95	19611.35
482.13	19889.87
482.31	19648.80
482.49	20374.36
482.67	20273.72
482.85	20606.08
483.03	20872.90
483.21	20893.96
483.39	21184.19
483.57	21146.74
483.74	21184.19
483.92	21617.19
484.10	21628.89
484.28	22068.91
484.46	22422.33
484.64	22291.26
484.82	22019.76
485.00	22291.26
485.18	22841.29
485.35	22948.95
485.53	22878.74
485.71	23138.54
485.89	23386.63
486.07	23379.61
486.25	23571.54
486.43	23784.52
486.61	23983.47
486.78	24004.53
486.96	24133.26
487.14	24528.81
487.32	24879.89
487.50	24968.84
487.68	25132.67
487.85	25640.57
488.03	25790.36
488.21	25881.64
488.39	25692.06
488.57	26274.85
488.75	26593.17
488.92	26686.79
489.10	26382.52
489.28	26984.04
489.46	27157.24
489.64	27342.14
489.81	27667.47
489.99	27728.33
490.17	27878.12
490.35	28458.57
490.53	28505.38
490.70	28580.28
490.88	28325.16
491.06	28922.00
491.24	28692.63
491.41	29275.42
491.59	29603.10
491.77	29575.01
491.95	29687.36
492.13	30106.31
492.30	30249.08
492.48	30101.63
492.66	30625.91
492.84	30576.76
493.01	31267.22
493.19	30965.29
493.37	30976.99
493.54	31377.22
493.72	31714.26
493.90	31339.77
494.08	32194.07
494.25	32364.93
494.43	32231.52
494.61	32322.80
494.79	32563.87
494.96	32800.27
495.14	32685.58
495.32	33422.85
495.49	33298.80
495.67	33621.80
495.85	33764.57
496.02	34277.15
496.20	34504.18
496.38	34555.67
496.55	34370.77
496.73	34923.13
496.91	34387.15
497.09	34899.73
497.26	35316.34
497.44	35096.33
497.62	35681.47
497.79	36086.38
497.97	35737.64
498.14	36435.12
498.32	36411.71
498.50	36247.88
498.67	36664.49
498.85	36613.00
499.03	36760.45
499.20	36931.31
499.38	37132.60
499.56	37425.17
499.73	37493.04
499.91	37544.53
500.08	38347.34
500.26	37593.68
500.44	37993.92
500.61	38089.88
500.79	37872.21
500.97	38483.09
501.14	38724.16
501.32	38696.08
501.49	38728.84
501.67	39243.76
501.84	38885.66
502.02	39309.30
502.20	39082.27
502.37	39543.35
502.55	39622.93
502.72	40105.08
502.90	39658.04
503.07	39917.84
503.25	39789.11
503.43	40098.06
503.60	40250.19
503.78	40662.13
503.95	40039.54
504.13	40711.28
504.30	40893.84
504.48	40800.22
504.65	41244.92
504.83	41134.92
505.01	41448.55
505.18	41134.92
505.36	41853.46
505.53	41605.36
505.71	41656.85
505.88	42253.69
506.06	41425.14
506.23	42244.33
506.41	42103.90
506.58	42396.46
506.76	42131.98
506.93	42728.82
507.11	42450.30
507.28	42876.27
507.46	42843.51
507.63	42742.86
507.81	43899.09
507.98	42939.47
508.16	43339.70
508.33	43604.18
508.50	43852.28
508.68	44027.82
508.85	43859.30
509.03	44006.75
509.20	44439.75
509.38	44793.17
509.55	44650.40
509.73	45347.88
509.90	44488.90
510.08	44910.20
510.25	44774.45
510.42	45172.34
510.60	44968.71
510.77	45289.37
510.95	45617.04
511.12	45397.03
511.30	45221.49
511.47	45516.40
511.64	45904.93
511.82	45750.45
511.99	45872.16
512.17	46356.65
512.34	46169.41
512.51	46698.37
512.69	46705.39
512.86	46740.50
513.04	46927.74
513.21	46822.42
513.38	47166.48
513.56	47227.33
513.73	46855.18
513.90	47421.59
514.08	47112.64
514.25	47407.55
514.43	47697.78
514.60	47704.80
514.77	47725.86
514.95	47948.21
515.12	47538.62
515.29	47859.27
515.47	48147.16
515.64	47866.30
515.81	47880.34
515.99	48619.95
516.16	48926.56
516.33	48327.38
516.51	48982.73
516.68	48573.14
516.85	49209.76
517.03	49017.84
517.20	49158.27
517.37	49102.10
517.54	49226.15
517.72	48933.58
517.89	49092.74
518.06	49565.52
518.24	49790.22
518.41	49675.53
518.58	49705.96
518.75	49371.26
518.93	50007.89
519.10	49914.26
519.27	49996.18
519.45	50127.25
519.62	49853.41
519.79	50475.99
519.96	50061.72
520.14	50007.89
520.31	50382.37
520.48	50801.33
520.65	50782.60
520.83	51014.32
521.00	51145.39
521.17	50890.27
521.34	51007.29
521.52	51150.07
521.69	51131.34
521.86	51325.61
522.03	51341.99
522.20	51690.73
522.38	51714.14
522.55	51564.34
522.72	51550.30
522.89	51543.28
523.07	51856.91
523.24	51679.03
523.41	51807.76
523.58	51744.56
523.75	52207.99
523.92	52156.50
524.10	52207.99
524.27	52491.19
524.44	52264.16
524.61	52439.70
524.78	52509.92
524.96	52615.24
525.13	52788.44
525.30	52802.49
525.47	52598.86
525.64	52303.95
525.81	52945.26
525.98	52776.74
526.16	52720.57
526.33	52921.85
526.50	53034.20
526.67	52612.90
526.84	52982.71
527.01	53141.86
527.18	53027.18
527.36	53176.97
527.53	53308.04
527.70	53514.01
527.87	53404.00
528.04	53453.15
528.21	53593.59
528.38	53647.42
528.55	53832.32
528.72	53516.35
528.89	53354.85
529.07	53787.85
529.24	53336.13
529.41	53696.57
529.58	53975.09
529.75	53869.77
529.92	53970.41
530.09	53944.67
530.26	54122.55
530.43	54267.66
530.60	54012.54
530.77	54106.16
530.94	54368.30
531.11	54253.62
531.28	54522.78
531.46	54384.69
531.63	54571.93
531.80	54466.61
531.97	54693.64
532.14	54593.00
532.31	54625.76
532.48	54934.71
532.65	54733.43
532.82	54520.44
532.99	54815.35
533.16	54677.25
533.33	55114.94
533.50	55271.75
533.67	55126.64
533.84	54817.69
534.01	54927.69
534.18	54824.71
534.35	55578.36
534.52	55290.48
534.69	55496.44
534.86	55320.90
535.03	55189.83
535.20	55337.29
535.37	55386.44
535.54	55386.44
535.71	55363.03
535.88	55711.77
536.05	55646.24
536.22	55777.31
536.38	55941.14
536.55	55676.66
536.72	55812.41
536.89	55639.22
537.06	55714.11
537.23	55847.52
537.40	55700.07
537.57	55838.16
537.74	56357.76
537.91	56149.45
538.08	55938.80
538.25	55889.65
538.42	56067.53
538.59	56278.18
538.75	56135.41
538.92	56205.62
539.09	56530.96
539.26	56383.51
539.43	56308.61
539.60	56416.27
539.77	56383.51
539.94	56645.65
540.11	56783.74
540.28	56687.78
540.44	56633.94
540.61	56694.80
540.78	56577.77
540.95	56629.26
541.12	56591.81
541.29	56786.08
541.46	56552.02
541.62	56594.15
541.79	56790.76
541.96	56584.79
542.13	56825.87
542.30	56788.42
542.47	57095.03
542.63	57001.41
542.80	57003.75
542.97	57418.02
543.14	57357.17
543.31	57214.40
543.48	57371.21
543.64	57687.18
543.81	57616.97
543.98	57560.79
544.15	57551.43
544.32	57654.42
544.48	57836.98
544.65	57666.12
544.82	57701.23
544.99	57385.25
545.16	57602.92
545.32	57427.38
545.49	57628.67
545.66	57975.07
545.83	57914.22
546.00	57757.40
546.16	57918.90
546.33	57717.61
546.50	57696.55
546.67	57766.76
546.83	57703.57
547.00	57923.58
547.17	58033.58
547.34	57975.07
547.50	58049.97
547.67	58335.51
547.84	58178.70
548.00	58103.80
548.17	58326.15
548.34	58368.28
548.51	58445.52
548.67	58445.52
548.84	58454.88
549.01	58220.83
549.18	58372.96
549.34	58330.83
549.51	58443.18
549.68	58588.29
549.84	58635.10
550.01	58665.53
550.18	58426.79
550.34	58431.47
550.51	58653.82
550.68	58571.91
550.84	58394.03
551.01	58803.62
551.18	58539.14
551.34	58700.64
551.51	58805.96
551.68	58782.55
551.84	58609.35
552.01	58597.65
552.18	58946.39
552.34	58630.42
552.51	58766.17
552.68	58808.30
552.84	58733.40
553.01	58948.73
553.18	59054.06
553.34	58972.14
553.51	58953.41
553.67	59021.29
553.84	59037.67
554.01	59248.32
554.17	59133.63
554.34	59154.70
554.51	59047.04
554.67	59248.32
554.84	59117.25
555.00	59030.65
555.17	59264.70
555.33	59255.34
555.50	59159.38
555.67	59267.05
555.83	59086.82
556.00	59175.76
556.16	59648.55
556.33	59463.65
556.50	59248.32
556.66	59568.97
556.83	59283.43
556.99	59517.48
557.16	59718.77
557.32	59784.30
557.49	59721.11
557.65	59473.01
557.82	59540.89
557.98	59458.97
558.15	59690.68
558.32	59688.34
558.48	59423.86
558.65	59576.00
558.81	59501.10
558.98	59583.02
559.14	59922.40
559.31	59962.18
559.47	60032.40
559.64	59962.18
559.80	59863.88
559.97	59861.54
560.13	59643.87
560.30	59814.73
560.46	59929.42
560.63	59924.74
560.79	59765.58
560.96	60217.30
561.12	60144.75
561.29	59957.50
561.45	59957.50
561.61	59849.84
561.78	59756.22
561.94	59913.03
562.11	59845.16
562.27	59854.52
562.44	60233.69
562.60	60095.60
562.77	60198.58
562.93	59917.71
563.10	60088.57
563.26	60011.34
563.42	60339.01
563.59	60001.97
563.75	60081.55
563.92	60130.70
564.08	60219.64
564.24	60217.30
564.41	60451.36
564.57	60458.38
564.74	60140.07
564.90	60383.48
565.07	60388.16
565.23	60119.00
565.39	60233.69
565.56	60547.32
565.72	60385.82
565.88	60423.27
566.05	60233.69
566.21	60289.86
566.38	60350.71
566.54	60437.31
566.70	60566.04
566.87	60509.87
567.03	60282.84
567.19	60601.15
567.36	60441.99
567.52	60322.63
567.68	60720.52
567.85	60432.63
568.01	60762.65
568.17	60591.79
568.34	60573.06
568.50	60526.25
568.66	60397.52
568.83	60631.58
568.99	60430.29
569.15	60603.49
569.32	60638.60
569.48	60491.15
569.64	60846.91
569.81	60409.23
569.97	60444.33
570.13	60846.91
570.30	60582.43
570.46	60460.72
570.62	60779.03
570.78	60762.65
570.95	60491.15
571.11	60598.81
571.27	60561.36
571.43	60788.39
571.60	60863.29
571.76	60872.65
571.92	60732.22
572.09	60849.25
572.25	60865.63
572.41	60804.78
572.57	60718.18
572.74	60786.05
572.90	60741.58
573.06	60800.10
573.22	60767.33
573.38	60769.67
573.55	60587.11
573.71	60781.37
573.87	60739.24
574.03	60666.69
574.20	60781.37
574.36	60767.33
574.52	60842.23
574.68	60942.87
574.84	60931.17
575.01	60828.18
575.17	60914.78
575.33	60788.39
575.49	60764.99
575.65	61078.62
575.82	60832.86
575.98	60886.70
576.14	61137.13
576.30	61165.22
576.46	60865.63
576.62	60989.68
576.79	60900.74
576.95	60645.62
577.11	60940.53
577.27	60924.14
577.43	60860.95
577.59	60910.10
577.75	60874.99
577.92	60830.52
578.08	61071.60
578.24	60961.59
578.40	61036.49
578.56	61116.07
578.72	61001.38
578.88	61221.39
579.04	61125.43
579.21	61134.79
579.37	61085.64
579.53	61176.92
579.69	60797.76
579.85	60921.80
580.01	60975.64
580.17	60870.31
580.33	61146.50
580.49	61200.33
580.65	61179.26
580.82	61055.21
580.98	61013.08
581.14	60985.00
581.30	61169.90
581.46	60846.91
581.62	61193.31
581.78	60977.98
581.94	61034.15
582.10	61172.24
582.26	61132.45
582.42	61102.03
582.58	61293.95
582.74	61139.47
582.90	61080.96
583.06	61078.62
583.22	61022.45
583.38	61027.13
583.54	61277.57
583.70	61120.75
583.86	61097.34
584.02	61176.92
584.18	61144.16
584.34	61050.53
584.50	61233.10
584.66	61038.83
584.82	60886.70
584.98	61160.54
585.14	61270.54
585.30	60968.61
585.46	61144.16
585.62	61048.19
585.78	61251.82
585.94	61076.28
586.10	61228.41
586.26	61247.14
586.42	61221.39
586.58	61207.35
586.74	61172.24
586.90	61041.17
587.06	61043.51
587.22	61324.38
587.38	61312.67
587.54	61418.00
587.70	61443.74
587.86	61265.86
588.02	61310.33
588.18	61375.87
588.34	61197.99
588.49	61282.25
