SpectraSuite Data File
++++++++++++++++++++++++++++++++++++
Date: Fri Oct 25 11:23:31 EDT 2013
User: price-jones
Dark Spectrum Present: No
Reference Spectrum Present: No
Number of Sampled Component Spectra: 1
Spectrometers: USB2+H05261
Integration Time (usec): 100000 (USB2+H05261)
Spectra Averaged: 1 (USB2+H05261)
Boxcar Smoothing: 0 (USB2+H05261)
Correct for Electrical Dark: No (USB2+H05261)
Strobe/Lamp Enabled: No (USB2+H05261)
Correct for Detector Non-linearity: No (USB2+H05261)
Correct for Stray Light: No (USB2+H05261)
Number of Pixels in Processed Spectrum: 2048
>>>>>Begin Processed Spectral Data<<<<<
365.73	266.82
365.92	266.82
366.12	266.82
366.32	163.84
366.52	145.11
366.72	266.82
366.91	142.77
367.11	147.45
367.31	140.43
367.51	189.58
367.70	142.77
367.90	163.84
368.10	140.43
368.30	149.79
368.49	67.88
368.69	131.07
368.89	198.95
369.09	166.18
369.28	95.96
369.48	177.88
369.68	187.24
369.87	175.54
370.07	166.18
370.27	142.77
370.47	334.70
370.66	564.07
370.86	589.82
371.06	613.22
371.25	683.44
371.45	645.99
371.65	786.42
371.84	641.31
372.04	638.97
372.24	695.14
372.44	692.80
372.63	678.76
372.83	667.05
373.03	716.20
373.22	706.84
373.42	828.55
373.62	805.14
373.81	737.27
374.01	755.99
374.21	697.48
374.40	847.27
374.60	866.00
374.79	802.80
374.99	833.23
375.19	795.78
375.38	854.30
375.58	844.93
375.78	929.19
375.97	784.08
376.17	861.32
376.37	861.32
376.56	816.85
376.76	910.47
376.95	830.89
377.15	924.51
377.35	807.48
377.54	851.96
377.74	910.47
377.93	945.58
378.13	884.72
378.33	924.51
378.52	938.55
378.72	929.19
378.91	894.08
379.11	861.32
379.31	915.15
379.50	924.51
379.70	997.07
379.89	1011.11
380.09	915.15
380.28	954.94
380.48	1081.33
380.68	961.96
380.87	957.28
381.07	912.81
381.26	1001.75
381.46	950.26
381.65	976.00
381.85	1128.14
382.04	1095.37
382.24	1069.62
382.43	1071.97
382.63	1076.65
382.83	1114.10
383.02	1050.90
383.22	1174.95
383.41	1114.10
383.61	1114.10
383.80	1184.31
384.00	1128.14
384.19	1081.33
384.39	1153.88
384.58	1053.24
384.78	1083.67
384.97	1109.41
385.17	1226.44
385.36	1074.31
385.56	1217.08
385.75	1174.95
385.95	1088.35
386.14	1184.31
386.34	1184.31
386.53	1273.25
386.72	1165.59
386.92	1296.66
387.11	1210.06
387.31	1198.35
387.50	1219.42
387.70	1277.93
387.89	1268.57
388.09	1219.42
388.28	1313.04
388.48	1327.08
388.67	1308.36
388.86	1313.04
389.06	1362.19
389.25	1348.15
389.45	1376.24
389.64	1390.28
389.84	1401.98
390.03	1380.92
390.22	1263.89
390.42	1406.66
390.61	1359.85
390.81	1364.53
391.00	1261.55
391.19	1460.49
391.39	1416.02
391.58	1441.77
391.78	1413.68
391.97	1490.92
392.16	1554.12
392.36	1523.69
392.55	1458.15
392.75	1521.35
392.94	1542.41
393.13	1500.28
393.33	1558.80
393.52	1565.82
393.71	1544.75
393.91	1605.61
394.10	1614.97
394.29	1593.90
394.49	1572.84
394.68	1631.35
394.88	1643.06
395.07	1675.82
395.26	1720.29
395.46	1708.59
395.65	1598.59
395.84	1757.74
396.04	1732.00
396.23	1699.23
396.42	1774.13
396.62	1755.40
396.81	1783.49
397.00	1776.47
397.19	1823.28
397.39	1753.06
397.58	1837.32
397.77	1874.77
397.97	1966.05
398.16	1888.81
398.35	1935.62
398.55	1823.28
398.74	1867.75
398.93	1954.35
399.12	1870.09
399.32	1902.86
399.51	1940.30
399.70	2043.29
399.90	1914.56
400.09	1933.28
400.28	1994.14
400.47	2073.71
400.67	2207.13
400.86	2092.44
401.05	2069.03
401.24	2111.16
401.44	2179.04
401.63	2202.44
401.82	2242.23
402.01	2024.56
402.21	2066.69
402.40	2148.61
402.59	2207.13
402.78	2242.23
402.97	2183.72
403.17	2258.62
403.36	2293.72
403.55	2312.45
403.74	2415.43
403.93	2394.37
404.13	2396.71
404.32	2438.84
404.51	2443.52
404.70	2459.90
404.89	2410.75
405.09	2513.74
405.28	2464.58
405.47	2523.10
405.66	2511.39
405.85	2541.82
406.05	2509.05
406.24	2527.78
406.43	2576.93
406.62	2586.29
406.81	2649.49
407.00	2539.48
407.20	2562.89
407.39	2654.17
407.58	2787.58
407.77	2825.03
407.96	2848.43
408.15	2846.09
408.34	2764.17
408.54	2806.30
408.73	2827.37
408.92	2888.22
409.11	2874.18
409.30	2862.48
409.49	2881.20
409.68	2953.76
409.87	2946.73
410.07	3019.29
410.26	3056.74
410.45	2911.63
410.64	3070.78
410.83	2970.14
411.02	3091.85
411.21	3290.79
411.40	3077.80
411.59	3180.79
411.78	3318.88
411.98	3176.11
412.17	3349.31
412.36	3246.32
412.55	3316.54
412.74	3412.50
412.93	3428.88
413.12	3449.95
413.31	3517.83
413.50	3421.86
413.69	3478.04
413.88	3538.89
414.07	3735.50
414.26	3705.07
414.45	3737.84
414.64	3578.68
414.83	3829.12
415.02	3810.39
415.22	3878.27
415.41	3801.03
415.60	3861.88
415.79	3953.16
415.98	4002.32
416.17	3992.95
416.36	4093.60
416.55	3992.95
416.74	4212.96
416.93	3904.01
417.12	4051.47
417.31	4112.32
417.50	4271.48
417.69	4243.39
417.88	4381.48
418.07	4138.07
418.26	4517.23
418.45	4397.87
418.64	4538.30
418.83	4383.82
419.02	4507.87
419.21	4421.27
419.39	4601.49
419.58	4447.02
419.77	4372.12
419.96	4629.58
420.15	4589.79
420.34	4589.79
420.53	4760.65
420.72	4706.82
420.91	4762.99
421.10	4709.16
421.29	4697.46
421.48	4774.69
421.67	4758.31
421.86	4688.09
422.05	4936.19
422.24	4781.71
422.43	4877.68
422.61	4945.55
422.80	4978.32
422.99	4971.30
423.18	4933.85
423.37	4999.38
423.56	4938.53
423.75	4760.65
423.94	4793.42
424.13	4624.90
424.32	4758.31
424.50	4947.89
424.69	5041.51
424.88	4994.70
425.07	4938.53
425.26	4940.87
425.45	5013.43
425.64	5074.28
425.83	4990.02
426.01	5114.07
426.20	5069.60
426.39	5074.28
426.58	4978.32
426.77	5004.07
426.96	5104.71
427.15	5132.79
427.33	5217.05
427.52	5034.49
427.71	5254.50
427.90	5259.18
428.09	5371.53
428.28	5338.76
428.46	5359.83
428.65	5275.57
428.84	5614.95
429.03	5362.17
429.22	5322.38
429.40	5448.77
429.59	5488.56
429.78	5284.93
429.97	5352.81
430.16	5469.83
430.34	5715.59
430.53	5537.71
430.72	5797.51
430.91	5561.11
431.10	5472.17
431.28	5816.23
431.47	5865.38
431.66	5853.68
431.85	5596.22
432.03	5877.09
432.22	6057.31
432.41	5877.09
432.60	5935.60
432.79	5891.13
432.97	5788.14
433.16	5989.43
433.35	5977.73
433.54	6038.58
433.72	6120.50
433.91	6069.01
434.10	6195.40
434.28	6071.35
434.47	6279.66
434.66	6120.50
434.85	6293.70
435.03	6377.96
435.22	6251.57
435.41	6525.41
435.59	6438.81
435.78	6581.59
435.97	6644.78
436.16	6492.65
436.34	6392.00
436.53	6480.94
436.72	6436.47
436.90	6431.79
437.09	6590.95
437.28	6370.94
437.46	6782.87
437.65	6661.16
437.84	6745.42
438.02	6754.79
438.21	6857.77
438.40	6822.66
438.58	7028.63
438.77	6937.35
438.96	6867.13
439.14	7056.72
439.33	7274.38
439.52	7173.74
439.70	7220.55
439.89	7382.05
440.08	7377.37
440.26	7398.43
440.45	7253.32
440.63	7356.30
440.82	7618.44
441.01	7499.08
441.19	7564.61
441.38	7674.62
441.57	7796.32
441.75	7782.28
441.94	8056.12
442.12	8006.97
442.31	8018.68
442.50	7990.59
442.68	7988.25
442.87	8081.87
443.05	8271.45
443.24	8147.40
443.43	8219.96
443.61	8229.32
443.80	8358.05
443.98	8023.36
444.17	7892.29
444.35	8201.24
444.54	8379.12
444.73	8219.96
444.91	8332.31
445.10	8383.80
445.28	8358.05
445.47	8482.10
445.65	8257.41
445.84	8542.96
446.02	8512.53
446.21	8468.06
446.39	8135.70
446.58	8421.25
446.77	8552.32
446.95	8379.12
447.14	8461.04
447.32	8479.76
447.51	8404.86
447.69	8430.61
447.88	8454.02
448.06	8454.02
448.25	8634.24
448.43	8674.03
448.62	8491.46
448.80	8613.17
448.99	8629.56
449.17	8748.92
449.36	8884.67
449.54	8868.29
449.73	9137.45
449.91	9165.54
450.10	8884.67
450.28	9067.24
450.46	8833.18
450.65	8861.27
450.83	9055.53
451.02	9071.92
451.20	9235.75
451.39	9001.70
451.57	9254.48
451.76	9184.26
451.94	9167.88
452.13	9533.00
452.31	9298.95
452.49	9039.15
452.68	9401.93
452.86	9324.69
453.05	9366.82
453.23	9497.89
453.42	9420.66
453.60	9139.79
453.78	9624.28
453.97	9401.93
454.15	9645.35
454.34	9453.42
454.52	9834.93
454.70	9687.48
454.89	9678.12
455.07	9788.12
455.26	9895.78
455.44	10036.22
455.62	10015.15
455.81	10090.05
455.99	9947.28
456.17	10211.76
456.36	10195.37
456.54	10193.03
456.73	10024.51
456.91	10546.45
457.09	10169.63
457.28	10623.69
457.46	10415.38
457.64	10654.12
457.83	10544.11
458.01	10516.03
458.19	10675.18
458.38	10546.45
458.56	10696.25
458.74	10684.55
458.93	10686.89
459.11	10541.77
459.29	10738.38
459.48	10693.91
459.66	10846.04
459.84	10920.94
460.03	11180.74
460.21	11066.05
460.39	11033.29
460.57	11026.26
460.76	11157.33
460.94	11461.60
461.12	11169.04
461.31	11316.49
461.49	11054.35
461.67	11159.67
461.85	11543.52
462.04	11234.57
462.22	11812.68
462.40	11461.60
462.59	11688.64
462.77	11506.07
462.95	11580.97
463.13	11538.84
463.32	11871.20
463.50	11922.69
463.68	11698.00
463.86	11864.18
464.05	11929.71
464.23	11716.72
464.41	11770.55
464.59	11559.91
464.78	12049.08
464.96	12156.74
465.14	11730.76
465.32	12084.19
465.50	12301.86
465.69	12252.70
465.87	12198.87
466.05	12156.74
466.23	12072.48
466.41	12313.56
466.60	12774.64
466.78	12269.09
466.96	12023.33
467.14	12264.41
467.32	12388.46
467.51	12428.24
467.69	12149.72
467.87	12442.29
468.05	12706.77
468.23	12521.87
468.41	12482.08
468.60	12662.30
468.78	12744.22
468.96	12521.87
469.14	12805.07
469.32	13158.49
469.50	12823.80
469.69	13064.87
469.87	13329.35
470.05	13156.15
470.23	13298.92
470.41	13233.39
470.59	13298.92
470.77	13092.96
470.95	13298.92
471.14	13727.24
471.32	13345.73
471.50	13930.87
471.68	13706.18
471.86	13713.20
472.04	13823.20
472.22	13916.83
472.40	13916.83
472.58	14045.55
472.77	13996.40
472.95	14143.86
473.13	14773.46
473.31	13879.38
473.49	14345.14
473.67	14005.77
473.85	14274.93
474.03	14546.43
474.21	14668.14
474.39	14981.77
474.57	14822.61
474.75	14572.18
474.93	14913.89
475.12	14909.21
475.30	14956.02
475.48	15239.23
475.66	15173.69
475.84	15145.61
476.02	15777.55
476.20	15428.81
476.38	15494.35
476.56	16343.96
476.74	16133.31
476.92	16133.31
477.10	15836.06
477.28	16374.39
477.46	16383.75
477.64	16149.70
477.82	16603.76
478.00	16856.54
478.18	16966.54
478.36	16730.15
478.54	17111.66
478.72	17099.95
478.90	17551.68
479.08	17671.04
479.26	17860.63
479.44	17781.05
479.62	17722.54
479.80	18214.05
479.98	18155.54
480.16	18759.39
480.34	18431.72
480.52	18663.43
480.70	19082.39
480.88	18574.49
481.06	18750.03
481.24	19033.24
481.41	19077.71
481.59	19360.91
481.77	19276.65
481.95	19646.46
482.13	19672.20
482.31	19847.74
482.49	20255.00
482.67	20243.29
482.85	20496.07
483.03	20460.96
483.21	20938.43
483.39	20912.69
483.57	20992.26
483.74	21303.56
483.92	21479.10
484.10	21317.60
484.28	21771.66
484.46	21729.53
484.64	22160.19
484.82	21912.10
485.00	22312.33
485.18	22960.66
485.35	22810.86
485.53	22768.73
485.71	23030.87
485.89	23311.74
486.07	23449.83
486.25	23578.56
486.43	23772.82
486.61	24041.98
486.78	23882.83
486.96	24414.13
487.14	24643.50
487.32	24788.61
487.50	24898.62
487.68	25301.19
487.85	25476.73
488.03	25781.00
488.21	25933.14
488.39	25752.91
488.57	26111.02
488.75	26075.91
488.92	26539.33
489.10	26775.73
489.28	26677.43
489.46	27168.94
489.64	27037.87
489.81	27857.06
489.99	27676.83
490.17	27625.34
490.35	28449.21
490.53	28545.17
490.70	28299.42
490.88	27969.40
491.06	28922.00
491.24	28814.34
491.41	29043.71
491.59	29322.23
491.77	29340.96
491.95	29830.13
492.13	29912.05
492.30	29979.92
492.48	30211.64
492.66	30242.06
492.84	30394.20
493.01	30558.03
493.19	30799.11
493.37	31227.43
493.54	31082.31
493.72	31728.30
493.90	31482.55
494.08	31835.97
494.25	32093.43
494.43	31789.16
494.61	32423.44
494.79	32643.45
494.96	32343.86
495.14	32533.45
495.32	33371.36
495.49	33118.58
495.67	33254.33
495.85	33556.26
496.02	34103.95
496.20	34169.48
496.38	33921.38
496.55	34146.08
496.73	34946.54
496.91	34251.40
497.09	35084.63
497.26	35328.05
497.44	34801.43
497.62	35590.19
497.79	35775.09
497.97	35232.08
498.14	36107.44
498.32	36327.45
498.50	36444.48
498.67	36872.80
498.85	36837.69
499.03	36678.54
499.20	36978.12
499.38	37333.89
499.56	37191.11
499.73	37280.05
499.91	37258.99
500.08	37607.73
500.26	37282.39
500.44	37869.87
500.61	38026.68
500.79	37827.74
500.97	38557.99
501.14	38644.59
501.32	38646.93
501.49	38361.38
501.67	38745.23
501.84	39161.84
502.02	38904.38
502.20	39358.45
502.37	39372.49
502.55	39393.56
502.72	39398.24
502.90	39620.59
503.07	39707.19
503.25	40048.91
503.43	40205.72
503.60	40449.14
503.78	40390.62
503.95	40304.02
504.13	40502.97
504.30	40910.22
504.48	40573.19
504.65	40942.99
504.83	41130.23
505.01	41343.22
505.18	41333.86
505.36	41797.29
505.53	41708.35
505.71	41607.70
505.88	42054.75
506.06	41921.34
506.23	41975.17
506.41	42043.04
506.58	42146.03
506.76	42007.94
506.93	42677.33
507.11	42356.67
507.28	42295.82
507.46	42733.50
507.63	42981.60
507.81	43557.37
507.98	42642.22
508.16	43028.41
508.33	43379.49
508.50	43636.95
508.68	43700.14
508.85	44004.41
509.03	43339.70
509.20	44069.95
509.38	44662.10
509.55	44664.44
509.73	44474.86
509.90	44788.49
510.08	44751.04
510.25	44540.39
510.42	44673.81
510.60	45289.37
510.77	45106.80
510.95	45385.33
511.12	45305.75
511.30	45326.81
511.47	45581.93
511.64	45628.74
511.82	46108.55
511.99	45797.26
512.17	45848.75
512.34	46099.19
512.51	46171.75
512.69	46487.72
512.86	46543.89
513.04	46904.34
513.21	46717.09
513.38	47201.58
513.56	47327.97
513.73	46873.91
513.90	47161.79
514.08	47063.49
514.25	47510.53
514.43	47557.35
514.60	47636.92
514.77	47700.12
514.95	47992.68
515.12	48219.72
515.29	47246.05
515.47	48044.18
515.64	48224.40
515.81	48023.11
515.99	48067.58
516.16	48755.70
516.33	48355.47
516.51	48744.00
516.68	48580.16
516.85	48898.47
517.03	48971.03
517.20	49240.19
517.37	48917.20
517.54	49034.22
517.72	49478.92
517.89	49397.01
518.06	49347.86
518.24	49382.96
518.41	48956.99
518.58	49329.13
518.75	49205.08
518.93	49776.17
519.10	49385.30
519.27	49909.58
519.45	49930.65
519.62	50305.13
519.79	50190.45
519.96	50024.27
520.14	50202.15
520.31	50309.82
520.48	50513.44
520.65	50529.83
520.83	50637.49
521.00	51058.79
521.17	50901.97
521.34	50571.96
521.52	50941.76
521.69	50698.34
521.86	50986.23
522.03	51363.06
522.20	51423.91
522.38	51789.03
522.55	51473.06
522.72	51435.61
522.89	51239.01
523.07	51847.55
523.24	51667.33
523.41	51800.74
523.58	51735.20
523.75	51842.87
523.92	52011.38
524.10	51966.91
524.27	52123.73
524.44	52207.99
524.61	52273.52
524.78	52226.71
524.96	52233.74
525.13	52362.46
525.30	52636.31
525.47	52683.12
525.64	52519.28
525.81	52561.41
525.98	52994.41
526.16	52767.38
526.33	52917.17
526.50	53010.79
526.67	53006.11
526.84	53155.91
527.01	53055.26
527.18	53015.47
527.36	52996.75
527.53	53244.85
527.70	53544.44
527.87	53453.15
528.04	53279.96
528.21	53525.71
528.38	53315.06
528.55	53441.45
528.72	53563.16
528.89	53668.48
529.07	53628.69
529.24	53743.38
529.41	53881.47
529.58	53890.83
529.75	53738.70
529.92	53876.79
530.09	53722.32
530.26	53949.35
530.43	54358.94
530.60	53776.15
530.77	54047.65
530.94	54218.51
531.11	54099.14
531.28	54405.75
531.46	54539.16
531.63	54452.56
531.80	54087.44
531.97	54564.91
532.14	54504.06
532.31	54536.82
532.48	54707.68
532.65	54850.45
532.82	54485.33
532.99	54607.04
533.16	54401.07
533.33	54754.49
533.50	55093.87
533.67	55009.61
533.84	54803.64
534.01	55079.83
534.18	54887.90
534.35	55484.74
534.52	55171.11
534.69	55306.86
534.86	55332.60
535.03	55224.94
535.20	55344.31
535.37	55569.00
535.54	55337.29
535.71	55164.09
535.88	55587.72
536.05	55578.36
536.22	55702.41
536.38	55789.01
536.55	55796.03
536.72	55543.25
536.89	55519.85
537.06	55578.36
537.23	55957.53
537.40	55756.24
537.57	55653.26
537.74	55973.91
537.91	56154.13
538.08	55746.88
538.25	56039.45
538.42	56051.15
538.59	56236.05
538.75	56179.88
538.92	56184.56
539.09	56540.32
539.26	56135.41
539.43	56109.66
539.60	56231.37
539.77	56563.73
539.94	56533.30
540.11	56343.72
540.28	56797.78
540.44	56437.34
540.61	56589.47
540.78	56346.06
540.95	56442.02
541.12	56432.66
541.29	56561.39
541.46	56584.79
541.62	56853.95
541.79	56865.66
541.96	56444.36
542.13	56612.88
542.30	56732.25
542.47	56839.91
542.63	57085.67
542.80	56926.51
542.97	57109.07
543.14	57251.84
543.31	57343.12
543.48	57539.73
543.64	57642.71
543.81	57350.15
543.98	57155.88
544.15	57460.15
544.32	57532.71
544.48	57918.90
544.65	57359.51
544.82	57492.92
544.99	57228.44
545.16	57542.07
545.32	57474.20
545.49	57881.45
545.66	58028.90
545.83	57586.54
546.00	57808.89
546.16	57829.96
546.33	57640.37
546.50	57659.10
546.67	57696.55
546.83	57490.58
547.00	57951.66
547.17	57916.56
547.34	58071.03
547.50	58122.52
547.67	58183.38
547.84	58365.94
548.00	58110.82
548.17	58628.08
548.34	58157.63
548.51	58323.81
548.67	58284.02
548.84	58379.98
549.01	58145.93
549.18	58190.40
549.34	58220.83
549.51	58272.32
549.68	58569.57
549.84	58302.74
550.01	58487.65
550.18	58342.53
550.34	58546.16
550.51	58646.80
550.68	58649.14
550.84	58351.90
551.01	58674.89
551.18	58656.17
551.34	58651.48
551.51	58599.99
551.68	58583.61
551.84	58724.04
552.01	58438.50
552.18	58817.66
552.34	58649.14
552.51	58714.68
552.68	58576.59
552.84	58838.73
553.01	58803.62
553.18	58906.60
553.34	58899.58
553.51	59023.63
553.67	58829.37
553.84	58859.79
554.01	58990.86
554.17	59000.22
554.34	59004.91
554.51	59135.98
554.67	59208.53
554.84	59044.69
555.00	59161.72
555.17	59068.10
555.33	59049.38
555.50	58784.90
555.67	59075.12
555.83	59075.12
556.00	59164.06
556.16	59327.90
556.33	59381.73
556.50	59313.86
556.66	59468.33
556.83	59255.34
556.99	59533.87
557.16	59643.87
557.32	59320.88
557.49	59576.00
557.65	59564.29
557.82	59613.44
557.98	59402.80
558.15	59473.01
558.32	59594.72
558.48	59426.20
558.65	59608.76
558.81	59536.21
558.98	59683.66
559.14	59751.54
559.31	59723.45
559.47	59826.43
559.64	59742.17
559.80	59742.17
559.97	59908.35
560.13	59611.10
560.30	59936.44
560.46	59978.57
560.63	59693.02
560.79	59718.77
560.96	59945.80
561.12	60018.36
561.29	59807.71
561.45	60186.88
561.61	59842.82
561.78	59875.58
561.94	59821.75
562.11	59973.89
562.27	59868.56
562.44	59980.91
562.60	60317.95
562.77	60140.07
562.93	59788.98
563.10	60240.71
563.26	59901.33
563.42	60175.17
563.59	60149.43
563.75	60151.77
563.92	60137.72
564.08	60151.77
564.24	60294.54
564.41	60212.62
564.57	60168.15
564.74	60240.71
564.90	60177.51
565.07	60221.98
565.23	60170.49
565.39	60144.75
565.56	60376.46
565.72	60350.71
565.88	60303.90
566.05	60207.94
566.21	60165.81
566.38	60449.02
566.54	60371.78
566.70	60273.48
566.87	60423.27
567.03	60296.88
567.19	60561.36
567.36	60411.57
567.52	60369.44
567.68	60647.96
567.85	60334.33
568.01	60516.89
568.17	60477.10
568.34	60505.19
568.50	60355.39
568.66	60561.36
568.83	60472.42
568.99	60322.63
569.15	60568.38
569.32	60612.85
569.48	60376.46
569.64	60624.56
569.81	60757.97
569.97	60406.89
570.13	60573.06
570.30	60404.55
570.46	60357.74
570.62	60615.19
570.78	60743.92
570.95	60704.13
571.11	60750.94
571.27	60692.43
571.43	60657.32
571.60	60849.25
571.76	60491.15
571.92	60741.58
572.09	60865.63
572.25	60835.20
572.41	60790.73
572.57	60933.51
572.74	60788.39
572.90	60664.35
573.06	60544.98
573.22	60711.16
573.38	60573.06
573.55	60617.53
573.71	60849.25
573.87	60697.11
574.03	60481.78
574.20	60863.29
574.36	60654.98
574.52	60884.36
574.68	60931.17
574.84	60919.46
575.01	60809.46
575.17	60624.56
575.33	60736.90
575.49	60748.60
575.65	60919.46
575.82	60942.87
575.98	60963.93
576.14	60938.19
576.30	60804.78
576.46	60807.12
576.62	60928.83
576.79	60793.07
576.95	60678.39
577.11	60748.60
577.27	60987.34
577.43	60790.73
577.59	60706.47
577.75	60905.42
577.92	60739.24
578.08	60793.07
578.24	60931.17
578.40	61038.83
578.56	61183.94
578.72	60821.16
578.88	61125.43
579.04	61235.44
579.21	61010.74
579.37	61022.45
579.53	61172.24
579.69	60608.17
579.85	60973.30
580.01	60942.87
580.17	60856.27
580.33	60973.30
580.49	61125.43
580.65	61127.77
580.82	60879.67
580.98	60905.42
581.14	60935.85
581.30	61031.81
581.46	60898.40
581.62	60992.02
581.78	61226.07
581.94	60870.31
582.10	61062.24
582.26	61219.05
582.42	60963.93
582.58	61092.66
582.74	60947.55
582.90	61064.58
583.06	61013.08
583.22	61069.26
583.38	61013.08
583.54	61216.71
583.70	60954.57
583.86	61214.37
584.02	61031.81
584.18	61111.39
584.34	60919.46
584.50	61099.68
584.66	61087.98
584.82	60907.76
584.98	61214.37
585.14	61197.99
585.30	60849.25
585.46	61151.18
585.62	61109.05
585.78	61298.63
585.94	60961.59
586.10	61165.22
586.26	61076.28
586.42	61387.57
586.58	61127.77
586.74	61155.86
586.90	61104.37
587.06	60980.32
587.22	61183.94
587.38	60977.98
587.54	61415.66
587.70	61354.80
587.86	60959.25
588.02	61013.08
588.18	61338.42
588.34	61403.95
588.49	61148.84
