SpectraSuite Data File
++++++++++++++++++++++++++++++++++++
Date: Fri Oct 25 11:23:32 EDT 2013
User: price-jones
Dark Spectrum Present: No
Reference Spectrum Present: No
Number of Sampled Component Spectra: 1
Spectrometers: USB2+H05261
Integration Time (usec): 100000 (USB2+H05261)
Spectra Averaged: 1 (USB2+H05261)
Boxcar Smoothing: 0 (USB2+H05261)
Correct for Electrical Dark: No (USB2+H05261)
Strobe/Lamp Enabled: No (USB2+H05261)
Correct for Detector Non-linearity: No (USB2+H05261)
Correct for Stray Light: No (USB2+H05261)
Number of Pixels in Processed Spectrum: 2048
>>>>>Begin Processed Spectral Data<<<<<
365.73	306.61
365.92	306.61
366.12	306.61
366.32	124.05
366.52	133.41
366.72	133.41
366.91	147.45
367.11	110.01
367.31	91.28
367.51	126.39
367.70	112.35
367.90	98.30
368.10	93.62
368.30	159.16
368.49	133.41
368.69	126.39
368.89	182.56
369.09	117.03
369.28	126.39
369.48	203.63
369.68	255.12
369.87	152.13
370.07	156.82
370.27	243.42
370.47	294.91
370.66	547.69
370.86	631.94
371.06	615.56
371.25	716.20
371.45	692.80
371.65	746.63
371.84	655.35
372.04	718.54
372.24	716.20
372.44	706.84
372.63	716.20
372.83	744.29
373.03	692.80
373.22	720.88
373.42	737.27
373.62	723.23
373.81	777.06
374.01	861.32
374.21	837.91
374.40	784.08
374.60	816.85
374.79	837.91
374.99	744.29
375.19	777.06
375.38	863.66
375.58	884.72
375.78	866.00
375.97	821.53
376.17	887.06
376.37	903.45
376.56	992.39
376.76	870.68
376.95	870.68
377.15	898.77
377.35	866.00
377.54	894.08
377.74	945.58
377.93	837.91
378.13	905.79
378.33	912.81
378.52	844.93
378.72	938.55
378.91	915.15
379.11	973.66
379.31	954.94
379.50	947.92
379.70	945.58
379.89	938.55
380.09	933.87
380.28	1004.09
380.48	1008.77
380.68	952.60
380.87	976.00
381.07	1043.88
381.26	1074.31
381.46	1067.28
381.65	1050.90
381.85	1041.54
382.04	1008.77
382.24	1067.28
382.43	1046.22
382.63	1174.95
382.83	1006.43
383.02	1022.81
383.22	1060.26
383.41	1111.75
383.61	1076.65
383.80	1188.99
384.00	964.30
384.19	1116.44
384.39	1158.57
384.58	1128.14
384.78	1128.14
384.97	1090.69
385.17	1078.99
385.36	1221.76
385.56	1177.29
385.75	1198.35
385.95	1252.19
386.14	1226.44
386.34	1203.04
386.53	1196.01
386.72	1137.50
386.92	1151.54
387.11	1235.80
387.31	1320.06
387.50	1198.35
387.70	1228.78
387.89	1268.57
388.09	1324.74
388.28	1306.02
388.48	1240.48
388.67	1343.47
388.86	1345.81
389.06	1313.04
389.25	1366.87
389.45	1355.17
389.64	1299.00
389.84	1371.55
390.03	1394.96
390.22	1392.62
390.42	1437.09
390.61	1404.32
390.81	1390.28
391.00	1439.43
391.19	1474.54
391.39	1399.64
391.58	1481.56
391.78	1341.13
391.97	1483.90
392.16	1373.89
392.36	1465.18
392.55	1495.60
392.75	1521.35
392.94	1607.95
393.13	1514.33
393.33	1446.45
393.52	1460.49
393.71	1561.14
393.91	1535.39
394.10	1603.27
394.29	1547.09
394.49	1603.27
394.68	1614.97
394.88	1568.16
395.07	1558.80
395.26	1563.48
395.46	1631.35
395.65	1722.63
395.84	1699.23
396.04	1710.93
396.23	1701.57
396.42	1706.25
396.62	1813.92
396.81	1837.32
397.00	1823.28
397.19	1778.81
397.39	1734.34
397.58	1816.26
397.77	1816.26
397.97	1912.22
398.16	1820.94
398.35	1797.53
398.55	1923.92
398.74	1877.11
398.93	1811.57
399.12	1909.88
399.32	1947.33
399.51	1914.56
399.70	1984.77
399.90	1919.24
400.09	2054.99
400.28	1954.35
400.47	2050.31
400.67	2071.37
400.86	1989.46
401.05	2129.89
401.24	2085.42
401.44	2263.30
401.63	2090.10
401.82	2125.21
402.01	2146.27
402.21	2209.47
402.40	2104.14
402.59	2211.81
402.78	2277.34
402.97	2312.45
403.17	2244.57
403.36	2284.36
403.55	2296.07
403.74	2317.13
403.93	2317.13
404.13	2375.64
404.32	2422.45
404.51	2366.28
404.70	2445.86
404.89	2275.00
405.09	2363.94
405.28	2450.54
405.47	2502.03
405.66	2497.35
405.85	2490.33
406.05	2466.92
406.24	2698.64
406.43	2555.86
406.62	2663.53
406.81	2562.89
407.00	2544.16
407.20	2537.14
407.39	2612.04
407.58	2733.75
407.77	2708.00
407.96	2675.23
408.15	2806.30
408.34	2782.90
408.54	2796.94
408.73	2820.35
408.92	2801.62
409.11	2888.22
409.30	2862.48
409.49	2902.26
409.68	2827.37
409.87	2935.03
410.07	3094.19
410.26	3021.63
410.45	3089.51
410.64	3007.59
410.83	3063.76
411.02	3136.32
411.21	3173.77
411.40	3094.19
411.59	3169.09
411.78	3316.54
411.98	3243.98
412.17	3361.01
412.36	3382.07
412.55	3421.86
412.74	3361.01
412.93	3564.64
413.12	3342.28
413.31	3461.65
413.50	3576.34
413.69	3555.27
413.88	3599.74
414.07	3644.21
414.26	3674.64
414.45	3761.24
414.64	3779.97
414.83	3705.07
415.02	3803.37
415.22	3810.39
415.41	3812.73
415.60	3850.18
415.79	3906.35
415.98	4058.49
416.17	3925.08
416.36	3836.14
416.55	4030.40
416.74	4093.60
416.93	4063.17
417.12	4063.17
417.31	4152.11
417.50	4304.25
417.69	4325.31
417.88	4299.56
418.07	4269.14
418.26	4227.01
418.45	4287.86
418.64	4489.15
418.83	4416.59
419.02	4477.44
419.21	4496.17
419.39	4662.35
419.58	4414.25
419.77	4606.17
419.96	4610.86
420.15	4615.54
420.34	4655.33
420.53	4655.33
420.72	4720.86
420.91	4650.64
421.10	4655.33
421.29	4819.16
421.48	4678.73
421.67	4720.86
421.86	4734.90
422.05	4873.00
422.24	4737.24
422.43	4875.34
422.61	4898.74
422.80	4901.08
422.99	4959.60
423.18	4842.57
423.37	5128.11
423.56	4770.01
423.75	5055.56
423.94	4992.36
424.13	4608.51
424.32	4833.21
424.50	5004.07
424.69	4959.60
424.88	5036.83
425.07	4957.25
425.26	4959.60
425.45	4875.34
425.64	4973.64
425.83	5050.88
426.01	5006.41
426.20	4940.87
426.39	5090.67
426.58	4994.70
426.77	5111.73
426.96	5287.27
427.15	5018.11
427.33	5193.65
427.52	5217.05
427.71	5158.54
427.90	5226.42
428.09	5329.40
428.28	5263.86
428.46	5416.00
428.65	5270.89
428.84	5561.11
429.03	5558.77
429.22	5142.16
429.40	5472.17
429.59	5411.32
429.78	5289.61
429.97	5165.56
430.16	5556.43
430.34	5631.33
430.53	5664.10
430.72	5710.91
430.91	5771.76
431.10	5575.16
431.28	5748.36
431.47	5715.59
431.66	5827.93
431.85	5760.06
432.03	5984.75
432.22	6127.52
432.41	6050.28
432.60	5933.26
432.79	6101.78
432.97	5963.68
433.16	6003.47
433.35	5977.73
433.54	6230.51
433.72	6050.28
433.91	5813.89
434.10	6064.33
434.28	6090.07
434.47	6176.67
434.66	6228.17
434.85	6277.32
435.03	6403.71
435.22	6230.51
435.41	6504.35
435.59	6403.71
435.78	6387.32
435.97	6431.79
436.16	6469.24
436.34	6551.16
436.53	6471.58
436.72	6457.54
436.90	6476.26
437.09	6661.16
437.28	6506.69
437.46	6579.25
437.65	6590.95
437.84	6878.83
438.02	6888.20
438.21	6944.37
438.40	6686.91
438.58	7096.50
438.77	7133.95
438.96	6939.69
439.14	7094.16
439.33	7220.55
439.52	7372.69
439.70	7176.08
439.89	7461.63
440.08	7328.22
440.26	7414.82
440.45	7337.58
440.63	7538.87
440.82	7595.04
441.01	7438.22
441.19	7571.63
441.38	7531.84
441.57	7728.45
441.75	7978.89
441.94	7838.45
442.12	7955.48
442.31	7974.21
442.50	8180.17
442.68	7852.50
442.87	7824.41
443.05	8234.00
443.24	8138.04
443.43	8238.69
443.61	8173.15
443.80	8451.67
443.98	8084.21
444.17	7840.79
444.35	8250.39
444.54	8498.49
444.73	8454.02
444.91	8280.82
445.10	8381.46
445.28	8301.88
445.47	8320.60
445.65	8241.03
445.84	8444.65
446.02	8507.85
446.21	8435.29
446.39	8461.04
446.58	8421.25
446.77	8428.27
446.95	8124.00
447.14	8414.23
447.32	8542.96
447.51	8568.70
447.69	8531.25
447.88	8547.64
448.06	8535.93
448.25	8421.25
448.43	8531.25
448.62	8463.38
448.80	8411.89
448.99	8788.71
449.17	8748.92
449.36	8685.73
449.54	8933.82
449.73	8945.53
449.91	8990.00
450.10	8879.99
450.28	9053.19
450.46	9123.41
450.65	8830.84
450.83	9310.65
451.02	9210.01
451.20	9170.22
451.39	9151.49
451.57	9151.49
451.76	9043.83
451.94	9100.00
452.13	9320.01
452.31	9174.90
452.49	9107.02
452.68	9404.27
452.86	9383.21
453.05	9495.55
453.23	9507.26
453.42	9453.42
453.60	9336.40
453.78	9535.34
453.97	9528.32
454.15	9540.02
454.34	9490.87
454.52	9561.09
454.70	9804.50
454.89	9853.66
455.07	9652.37
455.26	9944.94
455.44	10068.98
455.62	9996.43
455.81	9853.66
455.99	9888.76
456.17	9977.70
456.36	10164.95
456.54	10160.27
456.73	10193.03
456.91	10438.79
457.09	10434.11
457.28	10537.09
457.46	10370.91
457.64	10548.79
457.83	10441.13
458.01	10729.02
458.19	10778.17
458.38	10635.39
458.56	10736.04
458.74	10609.65
458.93	10768.80
459.11	10824.98
459.29	10883.49
459.48	10778.17
459.66	10796.89
459.84	10743.06
460.03	11297.77
460.21	10850.72
460.39	11016.90
460.57	10635.39
460.76	11147.97
460.94	11178.40
461.12	11108.18
461.31	11180.74
461.49	10998.18
461.67	11077.76
461.85	11534.16
462.04	11351.60
462.22	11878.22
462.40	11590.33
462.59	11456.92
462.77	11449.90
462.95	11569.27
463.13	11616.08
463.32	11580.97
463.50	11550.54
463.68	11873.54
463.86	12051.42
464.05	11992.90
464.23	11761.19
464.41	11997.59
464.59	11660.55
464.78	12018.65
464.96	12194.19
465.14	11819.71
465.32	12133.34
465.50	11953.12
465.69	11985.88
465.87	12205.89
466.05	12299.52
466.23	12224.62
466.41	12224.62
466.60	12650.60
466.78	12278.45
466.96	12147.38
467.14	12276.11
467.32	12573.36
467.51	12365.05
467.69	12299.52
467.87	12624.85
468.05	12631.87
468.23	12299.52
468.41	12325.26
468.60	12428.24
468.78	12755.92
468.96	12519.53
469.14	12776.98
469.32	12924.44
469.50	12851.88
469.69	12985.29
469.87	13092.96
470.05	13146.79
470.23	13233.39
470.41	13195.94
470.59	13399.57
470.77	12996.99
470.95	13383.18
471.14	13584.47
471.32	13228.71
471.50	13528.30
471.68	13530.64
471.86	13479.15
472.04	13862.99
472.22	14008.11
472.40	13797.46
472.58	14054.92
472.77	13916.83
472.95	14277.27
473.13	14764.10
473.31	13998.74
473.49	14384.93
473.67	14295.99
473.85	14195.35
474.03	14871.76
474.21	14593.24
474.39	14806.23
474.57	14607.28
474.75	15084.75
474.93	15236.89
475.12	14956.02
475.30	15044.96
475.48	15119.86
475.66	15068.37
475.84	15276.68
476.02	15227.53
476.20	15325.83
476.38	15925.00
476.56	15915.64
476.74	15859.47
476.92	15922.66
477.10	15829.04
477.28	16311.19
477.46	16245.66
477.64	16320.56
477.82	16681.00
478.00	16964.20
478.18	16676.32
478.36	16961.86
478.54	17008.67
478.72	17497.84
478.90	17497.84
479.08	17575.08
479.26	17818.50
479.44	17809.14
479.62	17792.75
479.80	17577.42
479.98	18284.26
480.16	18429.38
480.34	18394.27
480.52	18663.43
480.70	18738.33
480.88	18513.64
481.06	18703.22
481.24	19026.21
481.41	19157.28
481.59	19389.00
481.77	19267.29
481.95	19934.34
482.13	19686.25
482.31	19585.60
482.49	20552.24
482.67	20198.82
482.85	20631.82
483.03	20566.29
483.21	20755.87
483.39	20893.96
483.57	20982.90
483.74	21188.87
483.92	21366.75
484.10	21458.03
484.28	21972.95
484.46	22143.81
484.64	22181.26
484.82	22108.70
485.00	22689.15
485.18	22878.74
485.35	22963.00
485.53	22860.01
485.71	23089.38
485.89	23510.68
486.07	23491.96
486.25	23690.90
486.43	23585.58
486.61	23901.55
486.78	24372.00
486.96	23985.81
487.14	24568.60
487.32	24795.64
487.50	25170.12
487.68	24805.00
487.85	25490.77
488.03	25614.82
488.21	25844.20
488.39	25748.23
488.57	26192.94
488.75	26345.07
488.92	26593.17
489.10	26506.57
489.28	26735.94
489.46	27077.66
489.64	26934.88
489.81	27522.36
489.99	27674.49
490.17	27646.41
490.35	28030.26
490.53	28421.13
490.70	28196.43
490.88	28376.66
491.06	28858.81
491.24	29017.96
491.41	28828.38
491.59	29113.92
491.77	29448.62
491.95	29724.80
492.13	29764.59
492.30	29860.55
492.48	30092.27
492.66	30211.64
492.84	30567.40
493.01	30600.16
493.19	30756.98
493.37	30787.41
493.54	31442.76
493.72	31342.11
493.90	31648.72
494.08	32194.07
494.25	31894.48
494.43	32339.18
494.61	32713.67
494.79	32622.39
494.96	32404.72
495.14	32650.47
495.32	33076.45
495.49	33127.94
495.67	33221.56
495.85	33790.31
496.02	33572.64
496.20	34274.80
496.38	34277.15
496.55	34300.55
496.73	35054.20
496.91	34684.40
497.09	34501.84
497.26	35021.44
497.44	35101.01
497.62	35639.34
497.79	35737.64
497.97	35295.28
498.14	35992.76
498.32	36350.86
498.50	36343.84
498.67	36905.57
498.85	36404.69
499.03	36863.44
499.20	36715.98
499.38	36889.18
499.56	36886.84
499.73	36912.59
499.91	37209.84
500.08	37509.43
500.26	37488.36
500.44	37614.75
500.61	37937.74
500.79	37827.74
500.97	38080.52
501.14	38911.41
501.32	38705.44
501.49	38642.24
501.67	39037.80
501.84	38918.43
502.02	38471.39
502.20	38799.06
502.37	39281.21
502.55	39040.14
502.72	39728.25
502.90	39908.47
503.07	39405.26
503.25	40041.88
503.43	40062.95
503.60	39887.41
503.78	40362.54
503.95	40399.99
504.13	40392.97
504.30	40535.74
504.48	40233.81
504.65	40823.62
504.83	41113.85
505.01	41392.37
505.18	41418.12
505.36	41483.66
505.53	41216.83
505.71	41832.39
505.88	41476.63
506.06	41478.97
506.23	42557.96
506.41	41631.11
506.58	41848.78
506.76	42225.60
506.93	42703.07
507.11	42529.87
507.28	42974.58
507.46	42487.74
507.63	43283.53
507.81	43035.43
507.98	42595.41
508.16	43356.08
508.33	43742.27
508.50	43356.08
508.68	43412.26
508.85	43536.30
509.03	43873.34
509.20	44114.42
509.38	44238.47
509.55	44608.27
509.73	44535.71
509.90	44601.25
510.08	44545.08
510.25	44917.22
510.42	44762.75
510.60	44727.64
510.77	45373.63
510.95	45411.07
511.12	45347.88
511.30	45324.47
511.47	45588.95
511.64	45853.44
511.82	45675.55
511.99	45928.33
512.17	46089.83
512.34	45923.65
512.51	46574.32
512.69	46522.83
512.86	46279.41
513.04	47372.44
513.21	46497.08
513.38	46794.33
513.56	47168.82
513.73	46951.15
513.90	46639.86
514.08	46674.96
514.25	47566.71
514.43	47611.18
514.60	47800.76
514.77	47580.75
514.95	47812.46
515.12	47604.16
515.29	47973.96
515.47	47601.82
515.64	48399.94
515.81	47711.82
515.99	48095.67
516.16	48357.81
516.33	48210.35
516.51	48781.45
516.68	48413.98
516.85	48587.18
517.03	49038.90
517.20	49165.29
517.37	48818.89
517.54	49027.20
517.72	48933.58
517.89	49001.46
518.06	49308.07
518.24	49296.36
518.41	49329.13
518.58	49408.71
518.75	49186.36
518.93	49244.87
519.10	49544.46
519.27	49673.19
519.45	49668.51
519.62	50120.23
519.79	50094.49
519.96	49549.14
520.14	50396.42
520.31	50354.29
520.48	50609.40
520.65	50211.51
520.83	51009.64
521.00	50759.20
521.17	50635.15
521.34	50880.91
521.52	51093.89
521.69	50939.42
521.86	51227.31
522.03	51159.43
522.20	51447.32
522.38	51562.00
522.55	51716.48
522.72	51887.34
522.89	51377.10
523.07	51922.44
523.24	51494.13
523.41	51676.69
523.58	51440.29
523.75	52046.49
523.92	51995.00
524.10	52069.90
524.27	52364.81
524.44	52069.90
524.61	51955.21
524.78	52296.93
524.96	52058.20
525.13	52523.96
525.30	52530.98
525.47	52664.39
525.64	52413.96
525.81	52502.90
525.98	52992.07
526.16	52856.32
526.33	52919.51
526.50	53162.93
526.67	52921.85
526.84	52989.73
527.01	53251.87
527.18	52879.72
527.36	53352.51
527.53	53331.45
527.70	53624.01
527.87	53441.45
528.04	52989.73
528.21	53441.45
528.38	53324.43
528.55	53661.46
528.72	53408.68
528.89	53478.90
529.07	53499.97
529.24	53684.87
529.41	53771.47
529.58	53696.57
529.75	53551.46
529.92	53822.96
530.09	54024.25
530.26	53858.07
530.43	54195.10
530.60	53813.60
530.77	53741.04
530.94	54478.31
531.11	53736.36
531.28	54433.84
531.46	53977.43
531.63	54340.22
531.80	54349.58
531.97	54288.73
532.14	54754.49
532.31	54445.54
532.48	54738.11
532.65	54691.30
532.82	54433.84
532.99	54796.62
533.16	54658.53
533.33	54862.16
533.50	55016.63
533.67	54866.84
533.84	54759.17
534.01	55196.85
534.18	54990.89
534.35	55028.34
534.52	55152.38
534.69	55377.08
534.86	55480.06
535.03	54958.12
535.20	55154.72
535.37	55351.33
535.54	55510.49
535.71	55323.24
535.88	55440.27
536.05	55433.25
536.22	55468.36
536.38	55805.39
536.55	55599.43
536.72	55559.64
536.89	55489.42
537.06	55580.70
537.23	55669.64
537.40	55671.98
537.57	55891.99
537.74	55798.37
537.91	55945.83
538.08	56041.79
538.25	55772.63
538.42	56032.42
538.59	56133.07
538.75	56161.15
538.92	56044.13
539.09	56245.41
539.26	56023.06
539.43	56030.08
539.60	56205.62
539.77	56250.09
539.94	56598.83
540.11	56624.58
540.28	56453.72
540.44	56512.23
540.61	56367.12
540.78	56509.89
540.95	56463.08
541.12	56736.93
541.29	56533.30
541.46	56687.78
541.62	56750.97
541.79	56629.26
541.96	56357.76
542.13	56690.12
542.30	56713.52
542.47	56949.92
542.63	57006.09
542.80	56975.66
542.97	57205.03
543.14	57111.41
543.31	57429.72
543.48	57219.08
543.64	57621.65
543.81	57219.08
543.98	57474.20
544.15	57289.29
544.32	57588.88
544.48	57726.97
544.65	57392.28
544.82	57563.14
544.99	57181.63
545.16	57408.66
545.32	57371.21
545.49	57771.44
545.66	57733.99
545.83	57818.25
546.00	57759.74
546.16	57689.52
546.33	57638.03
546.50	57565.48
546.67	57862.72
546.83	57394.62
547.00	57680.16
547.17	57738.68
547.34	57778.46
547.50	58136.57
547.67	58302.74
547.84	57989.11
548.00	58012.52
548.17	58225.51
548.34	58085.07
548.51	58284.02
548.67	58234.87
548.84	58255.93
549.01	58337.85
549.18	58064.01
549.34	58300.40
549.51	58344.87
549.68	58429.13
549.84	58305.09
550.01	58527.44
550.18	58482.97
550.34	58649.14
550.51	58698.30
550.68	58585.95
550.84	58206.78
551.01	58684.25
551.18	58370.62
551.34	58520.41
551.51	58639.78
551.68	58878.52
551.84	58639.78
552.01	58522.76
552.18	58801.28
552.34	58611.70
552.51	58740.42
552.68	58628.08
552.84	58672.55
553.01	58948.73
553.18	58796.60
553.34	59110.23
553.51	58873.84
553.67	58780.21
553.84	59098.53
554.01	58955.75
554.17	59028.31
554.34	59049.38
554.51	58852.77
554.67	59260.02
554.84	58927.67
555.00	59126.61
555.17	58979.16
555.33	59325.56
555.50	59105.55
555.67	59037.67
555.83	59040.01
556.00	59325.56
556.16	59552.59
556.33	59444.93
556.50	59440.24
556.66	59494.08
556.83	59210.87
556.99	59358.33
557.16	59655.57
557.32	59440.24
557.49	59793.67
557.65	59384.07
557.82	59309.18
557.98	59475.35
558.15	59430.88
558.32	59545.57
558.48	59531.53
558.65	59405.14
558.81	59447.27
558.98	59611.10
559.14	59465.99
559.31	59725.79
559.47	59791.33
559.64	59746.86
559.80	59997.29
559.97	59945.80
560.13	59810.05
560.30	59803.03
560.46	59704.73
560.63	59770.26
560.79	59786.64
560.96	59849.84
561.12	60130.70
561.29	59929.42
561.45	59994.95
561.61	59746.86
561.78	59831.11
561.94	59838.14
562.11	59835.80
562.27	59948.14
562.44	60030.06
562.60	60086.23
562.77	59934.10
562.93	59856.86
563.10	60111.98
563.26	59922.40
563.42	60069.85
563.59	60207.94
563.75	60086.23
563.92	60140.07
564.08	60062.83
564.24	60210.28
564.41	60339.01
564.57	60280.50
564.74	60137.72
564.90	60144.75
565.07	60123.68
565.23	60238.37
565.39	60210.28
565.56	60285.18
565.72	60310.92
565.88	60186.88
566.05	60193.90
566.21	60315.61
566.38	60355.39
566.54	60409.23
566.70	60519.23
566.87	60432.63
567.03	60107.30
567.19	60662.00
567.36	60353.05
567.52	60411.57
567.68	60687.75
567.85	60360.08
568.01	60617.53
568.17	60207.94
568.34	60481.78
568.50	60273.48
568.66	60364.76
568.83	60355.39
568.99	60427.95
569.15	60397.52
569.32	60556.68
569.48	60418.59
569.64	60542.64
569.81	60420.93
569.97	60418.59
570.13	60643.28
570.30	60453.70
570.46	60383.48
570.62	60570.72
570.78	60547.32
570.95	60477.10
571.11	60505.19
571.27	60568.38
571.43	60807.12
571.60	60807.12
571.76	60654.98
571.92	60587.11
572.09	60750.94
572.25	60587.11
572.41	60523.91
572.57	60774.35
572.74	60734.56
572.90	60769.67
573.06	60699.45
573.22	60896.06
573.38	60659.66
573.55	60439.65
573.71	60914.78
573.87	60750.94
574.03	60718.18
574.20	60767.33
574.36	60528.59
574.52	60783.71
574.68	60779.03
574.84	61071.60
575.01	60823.50
575.17	60828.18
575.33	60580.09
575.49	60647.96
575.65	60959.25
575.82	61001.38
575.98	60914.78
576.14	61071.60
576.30	60884.36
576.46	60580.09
576.62	60753.29
576.79	60753.29
576.95	60743.92
577.11	60832.86
577.27	60933.51
577.43	60750.94
577.59	60748.60
577.75	60839.89
577.92	60596.47
578.08	60776.69
578.24	60898.40
578.40	61048.19
578.56	61052.87
578.72	60893.72
578.88	61254.16
579.04	61090.32
579.21	60741.58
579.37	61214.37
579.53	61139.47
579.69	60786.05
579.85	60893.72
580.01	60898.40
580.17	60788.39
580.33	61083.30
580.49	61069.26
580.65	61080.96
580.82	60783.71
580.98	60797.76
581.14	60776.69
581.30	60907.76
581.46	61024.79
581.62	61207.35
581.78	60856.27
581.94	61085.64
582.10	60956.91
582.26	61064.58
582.42	60877.33
582.58	61024.79
582.74	60935.85
582.90	60865.63
583.06	61038.83
583.22	60736.90
583.38	60858.61
583.54	61022.45
583.70	61080.96
583.86	61001.38
584.02	60989.68
584.18	61193.31
584.34	60977.98
584.50	60980.32
584.66	60919.46
584.82	60673.71
584.98	61048.19
585.14	61010.74
585.30	60954.57
585.46	61029.47
585.62	61095.00
585.78	61116.07
585.94	60790.73
586.10	61256.50
586.26	61125.43
586.42	61120.75
586.58	61179.26
586.74	61064.58
586.90	60914.78
587.06	60954.57
587.22	61258.84
587.38	61055.21
587.54	61291.61
587.70	61347.78
587.86	61097.34
588.02	61202.67
588.18	61242.46
588.34	61116.07
588.49	61116.07
