SpectraSuite Data File
++++++++++++++++++++++++++++++++++++
Date: Fri Oct 25 11:23:25 EDT 2013
User: price-jones
Dark Spectrum Present: No
Reference Spectrum Present: No
Number of Sampled Component Spectra: 1
Spectrometers: USB2+H05261
Integration Time (usec): 100000 (USB2+H05261)
Spectra Averaged: 1 (USB2+H05261)
Boxcar Smoothing: 0 (USB2+H05261)
Correct for Electrical Dark: No (USB2+H05261)
Strobe/Lamp Enabled: No (USB2+H05261)
Correct for Detector Non-linearity: No (USB2+H05261)
Correct for Stray Light: No (USB2+H05261)
Number of Pixels in Processed Spectrum: 2048
>>>>>Begin Processed Spectral Data<<<<<
365.73	210.65
365.92	210.65
366.12	210.65
366.32	110.01
366.52	110.01
366.72	18.72
366.91	131.07
367.11	121.71
367.31	114.69
367.51	145.11
367.70	60.85
367.90	231.71
368.10	131.07
368.30	121.71
368.49	145.11
368.69	121.71
368.89	131.07
369.09	107.66
369.28	110.01
369.48	140.43
369.68	205.97
369.87	189.58
370.07	184.90
370.27	196.60
370.47	315.97
370.66	559.39
370.86	596.84
371.06	547.69
371.25	645.99
371.45	702.16
371.65	723.23
371.84	711.52
372.04	657.69
372.24	716.20
372.44	706.84
372.63	788.76
372.83	805.14
373.03	746.63
373.22	723.23
373.42	809.83
373.62	828.55
373.81	725.57
374.01	807.48
374.21	805.14
374.40	748.97
374.60	802.80
374.79	812.17
374.99	758.33
375.19	826.21
375.38	830.89
375.58	800.46
375.78	814.51
375.97	826.21
376.17	849.61
376.37	828.55
376.56	856.64
376.76	919.83
376.95	823.87
377.15	987.71
377.35	847.27
377.54	887.06
377.74	887.06
377.93	929.19
378.13	1011.11
378.33	858.98
378.52	966.64
378.72	936.21
378.91	915.15
379.11	868.34
379.31	908.13
379.50	931.53
379.70	922.17
379.89	973.66
380.09	978.34
380.28	994.73
380.48	1008.77
380.68	978.34
380.87	997.07
381.07	990.05
381.26	1020.47
381.46	1008.77
381.65	1067.28
381.85	1095.37
382.04	1018.13
382.24	1039.20
382.43	1130.48
382.63	1018.13
382.83	1078.99
383.02	1135.16
383.22	1100.05
383.41	1086.01
383.61	1067.28
383.80	1130.48
384.00	1205.38
384.19	1163.25
384.39	1221.76
384.58	1139.84
384.78	1163.25
384.97	1219.42
385.17	1156.22
385.36	1167.93
385.56	1186.65
385.75	1170.27
385.95	1203.04
386.14	1191.33
386.34	1207.72
386.53	1184.31
386.72	1266.23
386.92	1219.42
387.11	1350.49
387.31	1299.00
387.50	1224.10
387.70	1291.98
387.89	1336.45
388.09	1369.21
388.28	1273.25
388.48	1261.55
388.67	1376.24
388.86	1390.28
389.06	1310.70
389.25	1338.79
389.45	1315.38
389.64	1364.53
389.84	1371.55
390.03	1355.17
390.22	1369.21
390.42	1511.99
390.61	1313.04
390.81	1476.88
391.00	1439.43
391.19	1364.53
391.39	1369.21
391.58	1392.62
391.78	1509.65
391.97	1413.68
392.16	1511.99
392.36	1549.43
392.55	1533.05
392.75	1509.65
392.94	1511.99
393.13	1507.30
393.33	1519.01
393.52	1458.15
393.71	1544.75
393.91	1614.97
394.10	1561.14
394.29	1533.05
394.49	1549.43
394.68	1675.82
394.88	1675.82
395.07	1708.59
395.26	1680.50
395.46	1612.63
395.65	1727.32
395.84	1774.13
396.04	1849.02
396.23	1771.79
396.42	1788.17
396.62	1753.06
396.81	1825.62
397.00	1720.29
397.19	1781.15
397.39	1781.15
397.58	1781.15
397.77	1813.92
397.97	1900.52
398.16	1872.43
398.35	1877.11
398.55	1802.21
398.74	1907.54
398.93	1865.41
399.12	2040.95
399.32	1977.75
399.51	1952.01
399.70	2111.16
399.90	1895.83
400.09	1973.07
400.28	2078.40
400.47	1961.37
400.67	2064.35
400.86	2008.18
401.05	2057.33
401.24	2071.37
401.44	2033.93
401.63	2230.53
401.82	2176.70
402.01	2181.38
402.21	2078.40
402.40	2253.94
402.59	2366.28
402.78	2221.17
402.97	2289.04
403.17	2296.07
403.36	2209.47
403.55	2303.09
403.74	2307.77
403.93	2354.58
404.13	2443.52
404.32	2361.60
404.51	2361.60
404.70	2431.82
404.89	2361.60
405.09	2581.61
405.28	2459.90
405.47	2471.61
405.66	2523.10
405.85	2630.76
406.05	2539.48
406.24	2511.39
406.43	2574.59
406.62	2502.03
406.81	2654.17
407.00	2579.27
407.20	2595.65
407.39	2665.87
407.58	2668.21
407.77	2724.38
407.96	2668.21
408.15	2820.35
408.34	2710.34
408.54	2843.75
408.73	2867.16
408.92	2874.18
409.11	2857.79
409.30	2883.54
409.49	2963.12
409.68	3002.91
409.87	2951.42
410.07	3033.33
410.26	3136.32
410.45	3187.81
410.64	2946.73
410.83	3241.64
411.02	3080.14
411.21	3272.07
411.40	3145.68
411.59	3145.68
411.78	3183.13
411.98	3042.70
412.17	3372.71
412.36	3323.56
412.55	3384.41
412.74	3461.65
412.93	3375.05
413.12	3248.66
413.31	3543.57
413.50	3637.19
413.69	3419.52
413.88	3508.46
414.07	3609.11
414.26	3508.46
414.45	3651.24
414.64	3616.13
414.83	3782.31
415.02	3812.73
415.22	3925.08
415.41	3880.61
415.60	3932.10
415.79	3967.21
415.98	4102.96
416.17	4018.70
416.36	4112.32
416.55	4081.89
416.74	4081.89
416.93	4189.56
417.12	4215.30
417.31	4191.90
417.50	4126.36
417.69	4278.50
417.88	4264.46
418.07	4217.65
418.26	4301.90
418.45	4404.89
418.64	4531.28
418.83	4447.02
419.02	4430.63
419.21	4449.36
419.39	4561.70
419.58	4463.40
419.77	4404.89
419.96	4540.64
420.15	4475.10
420.34	4559.36
420.53	4683.41
420.72	4514.89
420.91	4779.37
421.10	4917.47
421.29	4854.27
421.48	4858.95
421.67	4805.12
421.86	4959.60
422.05	4835.55
422.24	4809.80
422.43	4858.95
422.61	5048.54
422.80	4931.51
422.99	5067.26
423.18	4858.95
423.37	4997.04
423.56	5102.37
423.75	4994.70
423.94	4908.10
424.13	4514.89
424.32	4641.28
424.50	4985.34
424.69	5200.67
424.88	5130.45
425.07	5095.35
425.26	4858.95
425.45	5025.13
425.64	4992.36
425.83	4994.70
426.01	5107.05
426.20	4985.34
426.39	5121.09
426.58	5167.90
426.77	5097.69
426.96	5207.69
427.15	4997.04
427.33	5160.88
427.52	5039.17
427.71	5228.76
427.90	5156.20
428.09	5303.65
428.28	5352.81
428.46	5472.17
428.65	5247.48
428.84	5565.79
429.03	5607.92
429.22	5373.87
429.40	5355.15
429.59	5537.71
429.78	5184.29
429.97	5350.46
430.16	5418.34
430.34	5561.11
430.53	5645.37
430.72	5589.20
430.91	5799.85
431.10	5563.45
431.28	5767.08
431.47	5818.57
431.66	5975.39
431.85	5738.99
432.03	5872.40
432.22	5879.43
432.41	6015.18
432.60	5944.96
432.79	5816.23
432.97	6043.26
433.16	6164.97
433.35	6169.65
433.54	6097.10
433.72	6043.26
433.91	6179.01
434.10	6225.82
434.28	6045.60
434.47	6169.65
434.66	6274.98
434.85	6410.73
435.03	6338.17
435.22	6270.30
435.41	6497.33
435.59	6244.55
435.78	6569.88
435.97	6504.35
436.16	6497.33
436.34	6434.13
436.53	6572.22
436.72	6642.44
436.90	6492.65
437.09	6644.78
437.28	6532.44
437.46	6677.55
437.65	6696.27
437.84	6693.93
438.02	6782.87
438.21	6796.92
438.40	6595.63
438.58	6925.65
438.77	7119.91
438.96	7056.72
439.14	7047.35
439.33	7199.49
439.52	7133.95
439.70	7241.62
439.89	7332.90
440.08	7524.82
440.26	7520.14
440.45	7304.81
440.63	7513.12
440.82	7562.27
441.01	7637.17
441.19	7733.13
441.38	7798.66
441.57	7676.96
441.75	7939.10
441.94	7953.14
442.12	7985.91
442.31	7960.16
442.50	8021.02
442.68	7939.10
442.87	8058.46
443.05	8201.24
443.24	8379.12
443.43	8121.66
443.61	8262.09
443.80	8500.83
443.98	8063.15
444.17	7936.76
444.35	8306.56
444.54	8395.50
444.73	8320.60
444.91	8215.28
445.10	8479.76
445.28	8290.18
445.47	8404.86
445.65	8318.26
445.84	8582.74
446.02	8362.73
446.21	8367.42
446.39	8369.76
446.58	8667.00
446.77	8451.67
446.95	8210.60
447.14	8369.76
447.32	8362.73
447.51	8395.50
447.69	8482.10
447.88	8376.78
448.06	8322.94
448.25	8521.89
448.43	8545.30
448.62	8479.76
448.80	8538.27
448.99	8758.28
449.17	8652.96
449.36	8517.21
449.54	8835.52
449.73	9167.88
449.91	8982.98
450.10	9067.24
450.28	9130.43
450.46	9287.25
450.65	9076.60
450.83	9013.40
451.02	9062.55
451.20	9434.70
451.39	9188.94
451.57	9142.13
451.76	9008.72
451.94	9350.44
452.13	9476.83
452.31	9355.12
452.49	9139.79
452.68	9448.74
452.86	9437.04
453.05	9518.96
453.23	9434.70
453.42	9397.25
453.60	9444.06
453.78	9647.69
453.97	9210.01
454.15	9584.49
454.34	9547.05
454.52	9638.33
454.70	9460.45
454.89	9710.88
455.07	9722.59
455.26	9753.01
455.44	9951.96
455.62	9973.02
455.81	9973.02
455.99	9958.98
456.17	10057.28
456.36	9998.77
456.54	10012.81
456.73	10246.87
456.91	10565.18
457.09	10436.45
457.28	10544.11
457.46	10333.47
457.64	10506.66
457.83	10399.00
458.01	10607.31
458.19	10771.15
458.38	10609.65
458.56	10649.44
458.74	10686.89
458.93	10752.42
459.11	10647.10
459.29	10703.27
459.48	10810.93
459.66	10848.38
459.84	11019.24
460.03	11227.55
460.21	10848.38
460.39	10970.09
460.57	10956.05
460.76	10960.73
460.94	11220.53
461.12	11220.53
461.31	11063.71
461.49	11274.36
461.67	11281.38
461.85	11445.22
462.04	11213.51
462.22	11613.74
462.40	11545.86
462.59	11473.31
462.77	11592.67
462.95	11873.54
463.13	11782.26
463.32	11566.93
463.50	11843.11
463.68	11789.28
463.86	11838.43
464.05	11592.67
464.23	11751.83
464.41	11913.33
464.59	11562.25
464.78	12325.26
464.96	12044.40
465.14	11990.56
465.32	12145.04
465.50	12095.89
465.69	12327.60
465.87	12105.25
466.05	12339.30
466.23	12226.96
466.41	12280.79
466.60	12617.83
466.78	12175.47
466.96	12079.50
467.14	12269.09
467.32	12531.23
467.51	12685.70
467.69	12238.66
467.87	12435.27
468.05	12627.19
468.23	12465.69
468.41	12493.78
468.60	12662.30
468.78	12779.32
468.96	12510.16
469.14	13015.72
469.32	12872.95
469.50	12606.13
469.69	13048.49
469.87	13095.30
470.05	13095.30
470.23	13170.19
470.41	13397.23
470.59	13401.91
470.77	13214.66
470.95	13121.04
471.14	13680.43
471.32	13151.47
471.50	13556.38
471.68	13767.03
471.86	13591.49
472.04	13650.00
472.22	13928.53
472.40	13741.29
472.58	13727.24
472.77	14043.21
472.95	14288.97
473.13	14588.56
473.31	14207.05
473.49	14291.31
473.67	14237.48
473.85	14422.38
474.03	14857.72
474.21	14895.17
474.39	14876.44
474.57	14736.01
474.75	15110.50
474.93	15213.48
475.12	14871.76
475.30	15140.93
475.48	15339.87
475.66	15393.70
475.84	14995.81
476.02	15314.13
476.20	15407.75
476.38	15887.56
476.56	16013.95
476.74	15857.13
476.92	15873.51
477.10	16018.63
477.28	16182.46
477.46	16212.89
477.64	16439.92
477.82	16697.38
478.00	17165.49
478.18	16664.61
478.36	16931.44
478.54	17216.98
478.72	17099.95
478.90	17444.01
479.08	17823.18
479.26	17816.16
479.44	17975.31
479.62	17968.29
479.80	18230.43
479.98	18207.03
480.16	18600.24
480.34	18625.98
480.52	18948.98
480.70	18354.48
480.88	18302.99
481.06	18803.86
481.24	19000.47
481.41	19248.57
481.59	19393.68
481.77	19534.11
481.95	19840.72
482.13	19929.66
482.31	19826.68
482.49	20233.93
482.67	20374.36
482.85	20566.29
483.03	20748.85
483.21	20884.60
483.39	20856.51
483.57	21015.67
483.74	21322.28
483.92	21294.19
484.10	21172.49
484.28	21776.34
484.46	21982.31
484.64	22707.88
484.82	22302.96
485.00	22525.32
485.18	22609.58
485.35	23175.98
485.53	23346.84
485.71	23372.59
485.89	23365.57
486.07	23513.02
486.25	23274.29
486.43	24168.37
486.61	23950.70
486.78	24144.97
486.96	24334.55
487.14	24676.27
487.32	24783.93
487.50	25036.71
487.68	25046.07
487.85	25495.46
488.03	25352.68
488.21	25919.09
488.39	26469.12
488.57	25984.63
488.75	26160.17
488.92	26611.89
489.10	26813.18
489.28	26862.33
489.46	27314.05
489.64	27218.09
489.81	27674.49
489.99	27878.12
490.17	27831.31
490.35	28247.93
490.53	28435.17
490.70	28666.88
490.88	28584.96
491.06	29116.26
491.24	29240.31
491.41	29172.44
491.59	29450.96
491.77	29488.41
491.95	29631.18
492.13	30061.84
492.30	30085.25
492.48	30534.63
492.66	30272.49
492.84	30672.72
493.01	30651.66
493.19	30740.60
493.37	31255.51
493.54	31264.88
493.72	31468.50
493.90	31211.04
494.08	31845.33
494.25	32084.06
494.43	32055.98
494.61	32388.33
494.79	32800.27
494.96	32549.83
495.14	32875.16
495.32	33156.03
495.49	33364.34
495.67	33649.88
495.85	33949.47
496.02	33844.15
496.20	33912.02
496.38	34501.84
496.55	34345.02
496.73	34962.92
496.91	34766.32
497.09	34927.81
497.26	35204.00
497.44	34766.32
497.62	35440.39
497.79	36158.94
497.97	35892.12
498.14	36119.15
498.32	36142.55
498.50	36421.08
498.67	37123.24
498.85	36594.28
499.03	36818.97
499.20	36863.44
499.38	37266.01
499.56	37041.32
499.73	37251.97
499.91	37549.21
500.08	37699.01
500.26	37378.36
500.44	37544.53
500.61	38323.93
500.79	38373.08
500.97	38092.22
501.14	38841.19
501.32	38785.02
501.49	39126.74
501.67	39033.11
501.84	39274.19
502.02	39187.59
502.20	39419.30
502.37	39536.33
502.55	39330.36
502.72	39917.84
502.90	39819.53
503.07	39449.73
503.25	40037.20
503.43	39868.69
503.60	40147.21
503.78	40374.24
503.95	40421.05
504.13	40872.78
504.30	40933.63
504.48	40701.92
504.65	40727.66
504.83	40645.74
505.01	40715.96
505.18	41741.11
505.36	41874.52
505.53	41504.72
505.71	41914.31
505.88	42181.13
506.06	41635.79
506.23	41860.48
506.41	42033.68
506.58	42529.87
506.76	42380.08
506.93	42897.34
507.11	42609.45
507.28	42871.59
507.46	43292.89
507.63	43447.36
507.81	43147.78
507.98	43332.68
508.16	43629.93
508.33	43543.33
508.50	43613.54
508.68	43707.16
508.85	43952.92
509.03	43992.71
509.20	44210.38
509.38	44652.74
509.55	44556.78
509.73	44385.92
509.90	45109.14
510.08	44563.80
510.25	45001.48
510.42	45268.30
510.60	45134.89
510.77	45352.56
510.95	45680.24
511.12	45144.25
511.30	45345.54
511.47	45876.84
511.64	46066.42
511.82	46124.94
511.99	45947.06
512.17	46202.18
512.34	46211.54
512.51	46817.74
512.69	46740.50
512.86	46251.33
513.04	46859.87
513.21	46611.77
513.38	46909.02
513.56	46911.36
513.73	46712.41
513.90	47407.55
514.08	46946.47
514.25	47374.78
514.43	47597.13
514.60	47512.88
514.77	47377.12
514.95	48023.11
515.12	47721.18
515.29	47770.33
515.47	48060.56
515.64	48325.04
515.81	48219.72
515.99	48472.49
516.16	48720.59
516.33	48491.22
516.51	48947.62
516.68	48275.89
516.85	48811.87
517.03	48823.58
517.20	49015.50
517.37	48886.77
517.54	48832.94
517.72	49102.10
517.89	49284.66
518.06	49200.40
518.24	49488.29
518.41	49378.28
518.58	49621.70
518.75	49404.03
518.93	49787.88
519.10	49666.17
519.27	49911.92
519.45	49783.19
519.62	50162.36
519.79	50035.97
519.96	50101.51
520.14	50138.96
520.31	50014.91
520.48	50616.43
520.65	50600.04
520.83	51133.68
521.00	50869.20
521.17	50876.22
521.34	50646.85
521.52	51145.39
521.69	50726.43
521.86	51194.54
522.03	51302.20
522.20	51524.55
522.38	51515.19
522.55	51489.45
522.72	51377.10
522.89	51725.84
523.07	51409.87
523.24	51721.16
523.41	51812.44
523.58	51538.60
523.75	52350.76
523.92	51955.21
524.10	52196.29
524.27	52039.47
524.44	52254.80
524.61	51969.26
524.78	52556.73
524.96	52325.02
525.13	52303.95
525.30	52582.48
525.47	52374.17
525.64	52500.56
525.81	52526.30
525.98	53125.48
526.16	52662.05
526.33	52767.38
526.50	52973.34
526.67	52472.47
526.84	53174.63
527.01	52978.03
527.18	53308.04
527.36	53162.93
527.53	53240.17
527.70	53387.62
527.87	53659.12
528.04	53581.88
528.21	53525.71
528.38	53612.31
528.55	53434.43
528.72	53214.42
528.89	53867.43
529.07	53677.85
529.24	53448.47
529.41	53815.94
529.58	53839.34
529.75	53792.53
529.92	54087.44
530.09	54064.03
530.26	54255.96
530.43	54124.89
530.60	53797.21
530.77	54188.08
530.94	54424.48
531.11	54232.55
531.28	54499.37
531.46	54384.69
531.63	54506.40
531.80	54401.07
531.97	54265.32
532.14	54630.44
532.31	54525.12
532.48	54892.58
532.65	54986.21
532.82	54468.95
532.99	54944.08
533.16	54817.69
533.33	54937.05
533.50	54948.76
533.67	55040.04
533.84	55121.96
534.01	54787.26
534.18	54969.82
534.35	55257.71
534.52	55098.55
534.69	55501.12
534.86	55311.54
535.03	55409.84
535.20	55367.71
535.37	55433.25
535.54	55496.44
535.71	55253.03
535.88	55554.96
536.05	55552.62
536.22	55894.33
536.38	55679.00
536.55	55533.89
536.72	55669.64
536.89	55913.06
537.06	55945.83
537.23	56217.33
537.40	55749.22
537.57	55887.31
537.74	55894.33
537.91	56236.05
538.08	55728.16
538.25	55870.93
538.42	56240.73
538.59	56245.41
538.75	56254.78
538.92	56240.73
539.09	56418.61
539.26	56107.32
539.43	56385.85
539.60	56402.23
539.77	56282.86
539.94	56404.57
540.11	56308.61
540.28	56357.76
540.44	56566.07
540.61	56765.01
540.78	56451.38
540.95	56430.32
541.12	56474.79
541.29	56638.62
541.46	56633.94
541.62	56865.66
541.79	56741.61
541.96	56456.06
542.13	56591.81
542.30	56800.12
542.47	56889.06
542.63	57020.13
542.80	57048.22
542.97	57263.55
543.14	57198.01
543.31	57286.95
543.48	57308.02
543.64	57574.84
543.81	57537.39
543.98	57476.54
544.15	57476.54
544.32	57577.18
544.48	57911.88
544.65	57453.13
544.82	57455.47
544.99	57521.01
545.16	57656.76
545.32	57272.91
545.49	57717.61
545.66	57649.74
545.83	57954.00
546.00	57904.85
546.16	57689.52
546.33	57776.12
546.50	57691.86
546.67	57794.85
546.83	57609.95
547.00	57890.81
547.17	57956.35
547.34	57965.71
547.50	58131.89
547.67	58295.72
547.84	58171.67
548.00	58321.47
548.17	58323.81
548.34	58314.45
548.51	58522.76
548.67	58492.33
548.84	58384.66
549.01	58059.33
549.18	58309.77
549.34	58239.55
549.51	58391.68
549.68	58239.55
549.84	58436.16
550.01	58574.25
550.18	58408.07
550.34	58365.94
550.51	58644.46
550.68	58522.76
550.84	58218.49
551.01	58513.39
551.18	58604.67
551.34	58658.51
551.51	58724.04
551.68	58834.05
551.84	58770.85
552.01	58492.33
552.18	58937.03
552.34	58710.00
552.51	58869.15
552.68	58752.13
552.84	58742.77
553.01	58930.01
553.18	58937.03
553.34	58852.77
553.51	58962.78
553.67	58951.07
553.84	59126.61
554.01	59138.32
554.17	59213.21
554.34	59131.29
554.51	59079.80
554.67	59363.01
554.84	59000.22
555.00	59044.69
555.17	59028.31
555.33	59288.11
555.50	58803.62
555.67	59124.27
555.83	59185.13
556.00	59388.75
556.16	59491.74
556.33	59318.54
556.50	59386.41
556.66	59395.77
556.83	59201.51
556.99	59449.61
557.16	59788.98
557.32	59629.83
557.49	59709.41
557.65	59454.29
557.82	59501.10
557.98	59636.85
558.15	59489.40
558.32	59557.27
558.48	59494.08
558.65	59456.63
558.81	59536.21
558.98	59557.27
559.14	59950.48
559.31	59721.11
559.47	59863.88
559.64	59934.10
559.80	60013.68
559.97	59882.61
560.13	59372.37
560.30	59693.02
560.46	60095.60
560.63	60079.21
560.79	59875.58
560.96	59955.16
561.12	59873.24
561.29	60191.56
561.45	60229.01
561.61	59959.84
561.78	59938.78
561.94	59938.78
562.11	60086.23
562.27	60060.49
562.44	60116.66
562.60	60231.35
562.77	60350.71
562.93	59910.69
563.10	60055.81
563.26	59948.14
563.42	60441.99
563.59	60133.04
563.75	60013.68
563.92	60285.18
564.08	60149.43
564.24	60406.89
564.41	60175.17
564.57	60362.42
564.74	60296.88
564.90	60310.92
565.07	60275.82
565.23	60264.11
565.39	60179.85
565.56	60299.22
565.72	60355.39
565.88	60236.03
566.05	60261.77
566.21	60154.11
566.38	60451.36
566.54	60404.55
566.70	60552.00
566.87	60596.47
567.03	60432.63
567.19	60544.98
567.36	60523.91
567.52	60406.89
567.68	60598.81
567.85	60355.39
568.01	60589.45
568.17	60413.91
568.34	60652.64
568.50	60640.94
568.66	60343.69
568.83	60559.02
568.99	60247.73
569.15	60512.21
569.32	60441.99
569.48	60582.43
569.64	60647.96
569.81	60575.40
569.97	60561.36
570.13	60563.70
570.30	60376.46
570.46	60587.11
570.62	60683.07
570.78	60516.89
570.95	60584.77
571.11	60790.73
571.27	60486.46
571.43	60580.09
571.60	60650.30
571.76	60739.24
571.92	60839.89
572.09	60715.84
572.25	60692.43
572.41	60725.20
572.57	60746.26
572.74	61015.43
572.90	60863.29
573.06	60924.14
573.22	60697.11
573.38	60575.40
573.55	60764.99
573.71	60985.00
573.87	60842.23
574.03	60687.75
574.20	60860.95
574.36	60549.66
574.52	60783.71
574.68	60884.36
574.84	60842.23
575.01	60793.07
575.17	60837.54
575.33	60685.41
575.49	60678.39
575.65	60959.25
575.82	61006.06
575.98	60903.08
576.14	61003.72
576.30	60856.27
576.46	60755.63
576.62	60924.14
576.79	60870.31
576.95	60694.77
577.11	60846.91
577.27	60977.98
577.43	60790.73
577.59	60839.89
577.75	60849.25
577.92	60942.87
578.08	61015.43
578.24	60968.61
578.40	60788.39
578.56	60977.98
578.72	60786.05
578.88	61045.85
579.04	61109.05
579.21	61118.41
579.37	61261.18
579.53	61176.92
579.69	60837.54
579.85	60973.30
580.01	61015.43
580.17	61015.43
580.33	61024.79
580.49	61116.07
580.65	61111.39
580.82	60924.14
580.98	60942.87
581.14	60793.07
581.30	61015.43
581.46	61155.86
581.62	61188.63
581.78	60844.57
581.94	60935.85
582.10	60919.46
582.26	61099.68
582.42	61059.90
582.58	61118.41
582.74	61029.47
582.90	60945.21
583.06	61066.92
583.22	61010.74
583.38	61172.24
583.54	61162.88
583.70	61123.09
583.86	61085.64
584.02	61041.17
584.18	60992.02
584.34	61073.94
584.50	61190.97
584.66	60954.57
584.82	60844.57
584.98	61357.14
585.14	61141.81
585.30	60877.33
585.46	61167.56
585.62	61080.96
585.78	61258.84
585.94	61022.45
586.10	61303.31
586.26	61087.98
586.42	61125.43
586.58	61254.16
586.74	61052.87
586.90	61179.26
587.06	60966.27
587.22	61373.53
587.38	60992.02
587.54	61160.54
587.70	61258.84
587.86	61186.28
588.02	61209.69
588.18	61528.00
588.34	61286.93
588.49	61254.16
