SpectraSuite Data File
++++++++++++++++++++++++++++++++++++
Date: Fri Oct 25 10:43:22 EDT 2013
User: price-jones
Dark Spectrum Present: No
Reference Spectrum Present: No
Number of Sampled Component Spectra: 1
Spectrometers: USB2+H05261
Integration Time (usec): 100000 (USB2+H05261)
Spectra Averaged: 1 (USB2+H05261)
Boxcar Smoothing: 0 (USB2+H05261)
Correct for Electrical Dark: No (USB2+H05261)
Strobe/Lamp Enabled: No (USB2+H05261)
Correct for Detector Non-linearity: No (USB2+H05261)
Correct for Stray Light: No (USB2+H05261)
Number of Pixels in Processed Spectrum: 2048
>>>>>Begin Processed Spectral Data<<<<<
365.73	138.09
365.92	138.09
366.12	138.09
366.32	32.77
366.52	18.72
366.72	4.68
366.91	11.70
367.11	0.00
367.31	0.00
367.51	35.11
367.70	77.24
367.90	7.02
368.10	0.00
368.30	11.70
368.49	65.54
368.69	81.92
368.89	35.11
369.09	51.49
369.28	133.41
369.48	44.47
369.68	32.77
369.87	70.22
370.07	93.62
370.27	128.73
370.47	156.82
370.66	344.06
370.86	433.00
371.06	418.96
371.25	500.87
371.45	440.02
371.65	468.11
371.84	465.77
372.04	505.56
372.24	458.74
372.44	561.73
372.63	500.87
372.83	484.49
373.03	461.09
373.22	491.51
373.42	489.17
373.62	547.69
373.81	571.09
374.01	575.77
374.21	540.66
374.40	503.22
374.60	573.43
374.79	528.96
374.99	622.58
375.19	606.20
375.38	629.60
375.58	645.99
375.78	594.50
375.97	580.45
376.17	671.73
376.37	608.54
376.56	603.86
376.76	655.35
376.95	622.58
377.15	587.47
377.35	613.22
377.54	662.37
377.74	734.93
377.93	608.54
378.13	662.37
378.33	634.29
378.52	688.12
378.72	648.33
378.91	669.39
379.11	561.73
379.31	657.69
379.50	629.60
379.70	610.88
379.89	713.86
380.09	744.29
380.28	699.82
380.48	730.25
380.68	734.93
380.87	702.16
381.07	702.16
381.26	805.14
381.46	704.50
381.65	690.46
381.85	692.80
382.04	692.80
382.24	648.33
382.43	685.78
382.63	718.54
382.83	688.12
383.02	784.08
383.22	702.16
383.41	793.44
383.61	716.20
383.80	819.19
384.00	795.78
384.19	763.01
384.39	770.04
384.58	819.19
384.78	763.01
384.97	833.23
385.17	807.48
385.36	856.64
385.56	784.08
385.75	812.17
385.95	868.34
386.14	847.27
386.34	884.72
386.53	821.53
386.72	858.98
386.92	922.17
387.11	945.58
387.31	922.17
387.50	844.93
387.70	905.79
387.89	894.08
388.09	826.21
388.28	901.11
388.48	844.93
388.67	898.77
388.86	966.64
389.06	880.04
389.25	961.96
389.45	931.53
389.64	959.62
389.84	908.13
390.03	1004.09
390.22	1083.67
390.42	1004.09
390.61	1008.77
390.81	1013.45
391.00	1071.97
391.19	1090.69
391.39	1097.71
391.58	1125.80
391.78	1027.50
391.97	980.68
392.16	1001.75
392.36	1015.79
392.55	1013.45
392.75	961.96
392.94	985.37
393.13	980.68
393.33	922.17
393.52	1076.65
393.71	1071.97
393.91	1100.05
394.10	1104.73
394.29	1184.31
394.49	1254.53
394.68	1254.53
394.88	1275.59
395.07	1299.00
395.26	1177.29
395.46	1160.91
395.65	1273.25
395.84	1207.72
396.04	1242.82
396.23	1212.40
396.42	1100.05
396.62	1200.69
396.81	1097.71
397.00	1231.12
397.19	1214.74
397.39	1299.00
397.58	1430.07
397.77	1327.08
397.97	1425.39
398.16	1317.72
398.35	1460.49
398.55	1500.28
398.74	1514.33
398.93	1366.87
399.12	1476.88
399.32	1502.62
399.51	1523.69
399.70	1586.88
399.90	1544.75
400.09	1708.59
400.28	1654.76
400.47	1584.54
400.67	1668.80
400.86	1724.97
401.05	1685.19
401.24	1685.19
401.44	1811.57
401.63	1682.85
401.82	1797.53
402.01	1692.21
402.21	1792.85
402.40	1797.53
402.59	1785.83
402.78	1750.72
402.97	1823.28
403.17	1891.15
403.36	1842.00
403.55	1895.83
403.74	1804.55
403.93	1825.62
404.13	1863.07
404.32	1914.56
404.51	1809.23
404.70	1858.39
404.89	1827.96
405.09	1926.26
405.28	1944.99
405.47	2057.33
405.66	2005.84
405.85	1977.75
406.05	1952.01
406.24	2045.63
406.43	1991.80
406.62	2001.16
406.81	2139.25
407.00	2015.20
407.20	2101.80
407.39	2153.29
407.58	2069.03
407.77	2062.01
407.96	2085.42
408.15	2246.91
408.34	2209.47
408.54	2204.78
408.73	2359.26
408.92	2298.41
409.11	2326.49
409.30	2420.11
409.49	2310.11
409.68	2352.24
409.87	2307.77
410.07	2296.07
410.26	2377.98
410.45	2429.48
410.64	2401.39
410.83	2476.29
411.02	2530.12
411.21	2633.10
411.40	2464.58
411.59	2602.68
411.78	2612.04
411.98	2602.68
412.17	2661.19
412.36	2696.30
412.55	2670.55
412.74	2722.04
412.93	2789.92
413.12	2717.36
413.31	2937.37
413.50	2846.09
413.69	2876.52
413.88	2876.52
414.07	2843.75
414.26	2963.12
414.45	2984.18
414.64	2965.46
414.83	2963.12
415.02	2963.12
415.22	3176.11
415.41	3173.77
415.60	3131.64
415.79	3246.32
415.98	3260.37
416.17	3302.50
416.36	3190.15
416.55	3159.72
416.74	3346.97
416.93	3325.90
417.12	3337.60
417.31	3351.65
417.50	3356.33
417.69	3627.83
417.88	3400.80
418.07	3487.40
418.26	3552.93
418.45	3482.72
418.64	3712.09
418.83	3520.17
419.02	3581.02
419.21	3632.51
419.39	3676.98
419.58	3588.04
419.77	3513.14
419.96	3637.19
420.15	3747.20
420.34	3812.73
420.53	3885.29
420.72	3946.14
420.91	3904.01
421.10	3871.25
421.29	3803.37
421.48	3763.58
421.67	3840.82
421.86	3838.48
422.05	3969.55
422.24	3693.37
422.43	3705.07
422.61	3948.48
422.80	4028.06
422.99	3960.19
423.18	4070.19
423.37	4037.42
423.56	3892.31
423.75	3960.19
423.94	4016.36
424.13	3695.71
424.32	3747.20
424.50	4007.00
424.69	4145.09
424.88	4018.70
425.07	3974.23
425.26	3831.46
425.45	3864.22
425.64	3997.64
425.83	3939.12
426.01	4021.04
426.20	4030.40
426.39	3995.29
426.58	3978.91
426.77	4016.36
426.96	4025.72
427.15	4037.42
427.33	4119.34
427.52	4072.53
427.71	4095.94
427.90	4107.64
428.09	4051.47
428.28	4109.98
428.46	4100.62
428.65	4145.09
428.84	4266.80
429.03	4255.09
429.22	4070.19
429.40	4105.30
429.59	4198.92
429.78	4095.94
429.97	4044.45
430.16	4191.90
430.34	4163.81
430.53	4161.47
430.72	4262.12
430.91	4215.30
431.10	4327.65
431.28	4428.29
431.47	4594.47
431.66	4870.65
431.85	4393.19
432.03	4542.98
432.22	4760.65
432.41	4650.64
432.60	4793.42
432.79	4802.78
432.97	4858.95
433.16	4772.35
433.35	4702.14
433.54	4634.26
433.72	4638.94
433.91	4571.07
434.10	4844.91
434.28	4788.74
434.47	4936.19
434.66	4924.49
434.85	5055.56
435.03	4943.21
435.22	5076.62
435.41	5032.15
435.59	5067.26
435.78	5228.76
435.97	5034.49
436.16	5235.78
436.34	5165.56
436.53	5179.61
436.72	5226.42
436.90	5114.07
437.09	5188.97
437.28	5177.26
437.46	5205.35
437.65	5149.18
437.84	5090.67
438.02	5151.52
438.21	4992.36
438.40	5228.76
438.58	5191.31
438.77	5462.81
438.96	5462.81
439.14	5643.03
439.33	5790.49
439.52	5507.28
439.70	5650.05
439.89	5708.57
440.08	5720.27
440.26	5776.44
440.45	5813.89
440.63	5933.26
440.82	6019.86
441.01	5923.90
441.19	6160.29
441.38	6061.99
441.57	6174.33
441.75	6026.88
441.94	6270.30
442.12	6375.62
442.31	6277.32
442.50	6282.00
442.68	6181.35
442.87	6427.11
443.05	6396.68
443.24	6520.73
443.43	6471.58
443.61	6478.60
443.80	6726.70
443.98	6272.64
444.17	6319.45
444.35	6595.63
444.54	6569.88
444.73	6373.28
444.91	6534.78
445.10	6443.49
445.28	6471.58
445.47	6438.81
445.65	6249.23
445.84	6485.62
446.02	6752.45
446.21	6445.84
446.39	6630.74
446.58	6743.08
446.77	6771.17
446.95	6792.23
447.14	6654.14
447.32	6899.90
447.51	6757.13
447.69	6766.49
447.88	6775.85
448.06	6792.23
448.25	6768.83
448.43	6684.57
448.62	6843.73
448.80	6960.75
448.99	6888.20
449.17	6768.83
449.36	7049.69
449.54	7136.29
449.73	7014.59
449.91	7260.34
450.10	7164.38
450.28	7302.47
450.46	7215.87
450.65	7248.64
450.83	7250.98
451.02	7393.75
451.20	7356.30
451.39	7281.41
451.57	7239.28
451.76	7098.84
451.94	7368.01
452.13	7342.26
452.31	7272.04
452.49	7002.88
452.68	7169.06
452.86	7105.87
453.05	7211.19
453.23	7529.50
453.42	7279.07
453.60	7236.94
453.78	7456.95
453.97	7335.24
454.15	7506.10
454.34	7503.76
454.52	7559.93
454.70	7702.70
454.89	7637.17
455.07	7435.88
455.26	7754.19
455.44	7667.60
455.62	7854.84
455.81	7976.55
455.99	7688.66
456.17	7801.01
456.36	7903.99
456.54	7864.20
456.73	7915.69
456.91	8159.11
457.09	8189.53
457.28	8266.77
457.46	8161.45
457.64	8086.55
457.83	8182.51
458.01	8133.36
458.19	8374.44
458.38	8170.81
458.56	8208.26
458.74	8238.69
458.93	8341.67
459.11	8362.73
459.29	8360.39
459.48	8449.33
459.66	8334.65
459.84	8505.51
460.03	8622.53
460.21	8676.37
460.39	8388.48
460.57	8397.84
460.76	8540.61
460.94	8851.91
461.12	8603.81
461.31	8695.09
461.49	8697.43
461.67	8723.18
461.85	8896.38
462.04	8617.85
462.22	9270.86
462.40	8858.93
462.59	8924.46
462.77	8837.86
462.95	9085.96
463.13	8765.31
463.32	8774.67
463.50	8936.17
463.68	9268.52
463.86	9043.83
464.05	8997.02
464.23	9217.03
464.41	9116.39
464.59	8971.27
464.78	9254.48
464.96	9167.88
465.14	9156.18
465.32	9200.65
465.50	9451.08
465.69	9408.95
465.87	9392.57
466.05	9226.39
466.23	9146.81
466.41	9327.03
466.60	9671.09
466.78	9345.76
466.96	9455.76
467.14	9181.92
467.32	9310.65
467.51	9387.89
467.69	9430.02
467.87	9495.55
468.05	9563.43
468.23	9483.85
468.41	9640.67
468.60	9643.01
468.78	9408.95
468.96	9600.88
469.14	9703.86
469.32	10001.11
469.50	9722.59
469.69	10071.33
469.87	9827.91
470.05	9841.95
470.23	9968.34
470.41	9888.76
470.59	9806.84
470.77	9687.48
470.95	9825.57
471.14	10101.75
471.32	9989.41
471.50	10230.48
471.68	10256.23
471.86	10630.71
472.04	10478.58
472.22	10686.89
472.40	10253.89
472.58	10441.13
472.77	10656.46
472.95	10450.49
473.13	11103.50
473.31	10441.13
473.49	10705.61
473.67	10619.01
473.85	10869.45
474.03	11042.65
474.21	10899.87
474.39	11035.63
474.57	10944.34
474.75	11269.68
474.93	11138.61
475.12	11250.96
475.30	11108.18
475.48	11454.58
475.66	11314.15
475.84	11246.27
476.02	11314.15
476.20	11449.90
476.38	11583.31
476.56	11899.28
476.74	11861.84
476.92	11817.36
477.10	11667.57
477.28	11918.01
477.46	12016.31
477.64	12248.02
477.82	12503.14
478.00	12652.94
478.18	12688.04
478.36	12760.60
478.54	12674.00
478.72	12776.98
478.90	12968.91
479.08	13064.87
479.26	13102.32
479.44	13160.83
479.62	13158.49
479.80	13427.65
479.98	13249.77
480.16	13825.54
480.34	13635.96
480.52	13902.78
480.70	13752.99
480.88	13720.22
481.06	14015.13
481.24	14012.79
481.41	14101.73
481.59	14326.42
481.77	14576.86
481.95	14429.40
482.13	14806.23
482.31	14738.35
482.49	15033.26
482.67	15117.52
482.85	14686.86
483.03	15309.44
483.21	15131.56
483.39	15482.64
483.57	15307.10
483.74	15716.70
483.92	15669.89
484.10	15742.44
484.28	15880.53
484.46	16006.92
484.64	16395.45
484.82	15812.66
485.00	16074.80
485.18	16325.24
485.35	16533.54
485.53	16180.12
485.71	16365.03
485.89	16453.97
486.07	16713.77
486.25	16582.70
486.43	16886.97
486.61	17060.16
486.78	17221.66
486.96	17366.78
487.14	17568.06
487.32	17818.50
487.50	18043.19
487.68	18054.89
487.85	18616.62
488.03	18541.72
488.21	18492.57
488.39	18670.45
488.57	18698.54
488.75	18960.68
488.92	19241.54
489.10	19484.96
489.28	19559.86
489.46	19613.69
489.64	19831.36
489.81	20350.96
489.99	20400.11
490.17	20077.12
490.35	20355.64
490.53	20297.13
490.70	20547.56
490.88	20521.82
491.06	21078.86
491.24	20882.26
491.41	20865.88
491.59	20912.69
491.77	20966.52
491.95	20809.70
492.13	21174.83
492.30	21940.18
492.48	21769.32
492.66	22111.04
492.84	22089.98
493.01	22019.76
493.19	22092.32
493.37	22494.89
493.54	22221.05
493.72	22352.12
493.90	22808.52
494.08	23215.77
494.25	23264.92
494.43	23293.01
494.61	23679.20
494.79	23590.26
494.96	24079.43
495.14	23861.76
495.32	23971.77
495.49	23620.69
495.67	23908.57
495.85	24456.26
496.02	24409.45
496.20	24584.99
496.38	24601.37
496.55	24781.59
496.73	25027.35
496.91	24765.21
497.09	24753.51
497.26	25221.61
497.44	25303.53
497.62	25422.90
497.79	25312.89
497.97	25149.06
498.14	25326.94
498.32	25535.24
498.50	25802.07
498.67	26246.77
498.85	26555.72
499.03	26438.69
499.20	26459.76
499.38	26497.20
499.56	26520.61
499.73	26513.59
499.91	26469.12
500.08	26544.02
500.26	26609.55
500.44	26792.11
500.61	26735.94
500.79	26569.76
500.97	27138.51
501.14	27178.30
501.32	27543.42
501.49	27080.00
501.67	27119.79
501.84	27651.09
502.02	27498.95
502.20	27775.14
502.37	27688.54
502.55	28051.32
502.72	28208.14
502.90	28554.54
503.07	28065.36
503.25	28409.42
503.43	28311.12
503.60	28109.83
503.78	28732.42
503.95	28636.45
504.13	28355.59
504.30	28400.06
504.48	28711.35
504.65	28837.74
504.83	29064.77
505.01	29446.28
505.18	29481.39
505.36	29642.88
505.53	29673.31
505.71	30127.38
505.88	30071.20
506.06	29570.33
506.23	29890.98
506.41	29495.43
506.58	30164.82
506.76	30188.23
506.93	30068.86
507.11	30052.48
507.28	29563.31
507.46	29605.44
507.63	30000.99
507.81	30281.85
507.98	29895.66
508.16	30291.21
508.33	30787.41
508.50	30684.42
508.68	30986.35
508.85	31098.70
509.03	31232.11
509.20	30958.27
509.38	31386.58
509.55	31232.11
509.73	31030.82
509.90	31803.20
510.08	31590.21
510.25	31459.14
510.42	31740.00
510.60	31751.71
510.77	31974.06
510.95	32114.49
511.12	31978.74
511.30	31962.36
511.47	32561.53
511.64	32631.75
511.82	32488.98
511.99	32435.14
512.17	32582.60
512.34	32840.06
512.51	32556.85
512.69	32811.97
512.86	32814.31
513.04	32872.82
513.21	32982.83
513.38	32811.97
513.56	32849.42
513.73	32870.48
513.90	33120.92
514.08	33118.58
514.25	33256.67
514.43	33251.99
514.60	33476.68
514.77	33450.94
514.95	33584.35
515.12	33247.31
515.29	33703.71
515.47	33579.67
515.64	34164.80
515.81	33724.78
515.99	34080.54
516.16	34005.64
516.33	33521.15
516.51	33649.88
516.68	33266.03
516.85	33198.16
517.03	33654.56
517.20	33858.19
517.37	34029.05
517.54	34492.47
517.72	34139.05
517.89	33862.87
518.06	33984.58
518.24	34314.59
518.41	34206.93
518.58	34976.97
518.75	34712.49
518.93	34951.22
519.10	34955.90
519.27	35372.52
519.45	34991.01
519.62	35281.24
519.79	35644.02
519.96	35756.36
520.14	35641.68
520.31	35512.95
520.48	35119.74
520.65	35491.88
520.83	35845.30
521.00	36116.81
521.17	36093.40
521.34	36341.50
521.52	36208.09
521.69	35927.22
521.86	36549.81
522.03	36634.06
522.20	36336.82
522.38	36603.64
522.55	36680.88
522.72	36446.82
522.89	36676.19
523.07	37319.84
523.24	36481.93
523.41	36879.82
523.58	36875.14
523.75	37343.25
523.92	36814.29
524.10	37479.00
524.27	36992.17
524.44	37476.66
524.61	37486.02
524.78	37670.92
524.96	37160.69
525.13	37792.63
525.30	37493.04
525.47	37797.31
525.64	37509.43
525.81	37270.69
525.98	37579.64
526.16	37724.75
526.33	37071.75
526.50	37715.39
526.67	37289.42
526.84	37249.63
527.01	37467.30
527.18	37806.67
527.36	38480.75
527.53	37589.00
527.70	38527.56
527.87	38328.61
528.04	38010.30
528.21	38801.40
528.38	38422.23
528.55	38822.47
528.72	38810.76
528.89	38782.68
529.07	39070.56
529.24	38651.61
529.41	39257.81
529.58	38714.80
529.75	39009.71
529.92	39157.16
530.09	39470.79
530.26	39234.40
530.43	39267.17
530.60	39201.63
530.77	39264.83
530.94	39484.84
531.11	39309.30
531.28	39290.57
531.46	39615.91
531.63	39524.63
531.80	39487.18
531.97	39346.75
532.14	39407.60
532.31	39236.74
532.48	40013.80
532.65	39557.39
532.82	39735.27
532.99	39751.66
533.16	39817.19
533.33	39798.47
533.50	40577.87
533.67	40343.81
533.84	39580.80
534.01	39983.37
534.18	40332.11
534.35	40399.99
534.52	40009.12
534.69	40577.87
534.86	40575.53
535.03	40275.94
535.20	40811.92
535.37	41151.30
535.54	40741.71
535.71	40898.52
535.88	40865.75
536.05	40158.91
536.22	40884.48
536.38	41074.06
536.55	40641.06
536.72	40573.19
536.89	40517.01
537.06	40933.63
537.23	41113.85
537.40	40678.51
537.57	41148.96
537.74	41240.24
537.91	41486.00
538.08	41134.92
538.25	40886.82
538.42	40914.90
538.59	41680.26
538.75	41003.85
538.92	41486.00
539.09	41605.36
539.26	41663.88
539.43	41333.86
539.60	41301.09
539.77	41113.85
539.94	41205.13
540.11	41069.38
540.28	41537.49
540.44	41268.33
540.61	41284.71
540.78	41493.02
540.95	41647.49
541.12	41525.78
541.29	41689.62
541.46	41930.70
541.62	42176.45
541.79	42066.45
541.96	41544.51
542.13	41972.83
542.30	41918.99
542.47	42199.86
542.63	41928.36
542.80	42408.17
542.97	42637.54
543.14	42782.65
543.31	42288.80
543.48	42504.13
543.64	43103.31
543.81	43157.14
543.98	42557.96
544.15	42651.58
544.32	43206.29
544.48	43566.73
544.65	43040.11
544.82	43068.20
544.99	42806.06
545.16	42916.06
545.32	42876.27
545.49	42988.62
545.66	43838.23
545.83	43292.89
546.00	42887.98
546.16	43042.45
546.33	43063.52
546.50	42918.40
546.67	43658.01
546.83	42988.62
547.00	43210.97
547.17	43150.12
547.34	43599.50
547.50	43702.48
547.67	43810.15
547.84	43367.79
548.00	43459.07
548.17	43714.19
548.34	43878.02
548.51	44416.35
548.67	44030.16
548.84	44039.52
549.01	43648.65
549.18	43938.88
549.34	43636.95
549.51	43749.29
549.68	43892.07
549.84	43999.73
550.01	44381.24
550.18	43957.60
550.34	44013.77
550.51	43585.46
550.68	44060.58
550.84	43636.95
551.01	44219.74
551.18	44168.25
551.34	43688.44
551.51	43910.79
551.68	44435.07
551.84	43976.33
552.01	44168.25
552.18	44397.62
552.34	44205.70
552.51	44556.78
552.68	44079.31
552.84	43934.20
553.01	44554.44
553.18	44460.82
553.34	44184.63
553.51	44374.22
553.67	44271.23
553.84	44903.18
554.01	44931.26
554.17	45085.74
554.34	44839.98
554.51	44779.13
554.67	44493.58
554.84	44437.41
555.00	44531.03
555.17	44732.32
555.33	44755.72
555.50	45118.51
555.67	44694.87
555.83	44484.22
556.00	44666.78
556.16	45319.79
556.33	45074.04
556.50	44994.46
556.66	44774.45
556.83	44381.24
556.99	44889.13
557.16	44751.04
557.32	45291.71
557.49	45137.23
557.65	44645.72
557.82	45205.11
557.98	45020.20
558.15	44767.43
558.32	44914.88
558.48	44486.56
558.65	44903.18
558.81	45034.25
558.98	44856.37
559.14	45029.57
559.31	44891.48
559.47	44816.58
559.64	44954.67
559.80	45038.93
559.97	45415.76
560.13	44818.92
560.30	45015.52
560.46	45385.33
560.63	45476.61
560.79	45291.71
560.96	45413.41
561.12	45546.82
561.29	45219.15
561.45	45532.78
561.61	45310.43
561.78	45390.01
561.94	45214.47
562.11	45481.29
562.27	45626.40
562.44	45471.93
562.60	45565.55
562.77	45525.76
562.93	45069.36
563.10	45645.13
563.26	45282.34
563.42	45652.15
563.59	45748.11
563.75	45553.85
563.92	45675.55
564.08	45698.96
564.24	45668.53
564.41	45617.04
564.57	45495.33
564.74	45900.25
564.90	45567.89
565.07	45785.56
565.23	45549.17
565.39	45404.05
565.56	45593.64
565.72	45670.87
565.88	45471.93
566.05	45542.14
566.21	45188.72
566.38	45502.35
566.54	45502.35
566.70	45984.51
566.87	46155.36
567.03	45815.99
567.19	45970.46
567.36	45975.14
567.52	45713.00
567.68	46050.04
567.85	45546.82
568.01	45904.93
568.17	45818.33
568.34	46026.63
568.50	45567.89
568.66	45858.12
568.83	45769.18
568.99	45975.14
569.15	45614.70
569.32	45556.19
569.48	45820.67
569.64	46087.49
569.81	45846.41
569.97	45710.66
570.13	46003.23
570.30	45460.23
570.46	45474.27
570.62	45415.76
570.78	45177.02
570.95	45052.97
571.11	45909.61
571.27	45787.90
571.43	45851.09
571.60	45687.26
571.76	46265.37
571.92	45940.04
572.09	45848.75
572.25	45897.91
572.41	46241.96
572.57	45738.75
572.74	46298.14
572.90	46190.47
573.06	46305.16
573.22	45951.74
573.38	45986.85
573.55	45530.44
573.71	46096.85
573.87	45989.19
574.03	45710.66
574.20	46033.66
574.36	45741.09
574.52	45890.88
574.68	46181.11
574.84	45956.42
575.01	46031.32
575.17	45731.73
575.33	45979.82
575.49	46007.91
575.65	45764.49
575.82	46277.07
575.98	45933.01
576.14	46267.71
576.30	45764.49
576.46	45710.66
576.62	45766.84
576.79	46433.89
576.95	45680.24
577.11	45818.33
577.27	45881.52
577.43	45928.33
577.59	46031.32
577.75	45879.18
577.92	45900.25
578.08	45806.62
578.24	45736.41
578.40	45680.24
578.56	45846.41
578.72	45979.82
578.88	46618.79
579.04	46209.20
579.21	45808.96
579.37	45785.56
579.53	46202.18
579.69	45979.82
579.85	46319.20
580.01	46127.28
580.17	46085.15
580.33	45993.87
580.49	46019.61
580.65	46288.77
580.82	46057.06
580.98	46328.56
581.14	45937.69
581.30	46459.63
581.46	46012.59
581.62	46050.04
581.78	45588.95
581.94	46206.86
582.10	46410.48
582.26	45869.82
582.42	45823.01
582.58	46209.20
582.74	46082.81
582.90	45900.25
583.06	46328.56
583.22	46424.53
583.38	45963.44
583.54	46237.28
583.70	45975.14
583.86	46480.70
584.02	46260.69
584.18	46478.36
584.34	45841.73
584.50	46024.29
584.66	46082.81
584.82	45846.41
584.98	46096.85
585.14	45736.41
585.30	46108.55
585.46	46052.38
585.62	46274.73
585.78	45591.30
585.94	45998.55
586.10	45944.72
586.26	45834.71
586.42	46347.29
586.58	46791.99
586.74	46085.15
586.90	45844.07
587.06	45778.54
587.22	46218.56
587.38	45904.93
587.54	45787.90
587.70	46253.67
587.86	46096.85
588.02	46155.36
588.18	46412.82
588.34	46314.52
588.49	45825.35
588.65	45371.28
588.81	45385.33
588.97	45647.47
589.13	45558.53
589.29	45785.56
589.45	45652.15
589.61	45872.16
589.77	46075.79
589.93	45975.14
