SpectraSuite Data File
++++++++++++++++++++++++++++++++++++
Date: Fri Oct 25 11:34:43 EDT 2013
User: price-jones
Dark Spectrum Present: No
Reference Spectrum Present: No
Number of Sampled Component Spectra: 1
Spectrometers: USB2+H05261
Integration Time (usec): 100000 (USB2+H05261)
Spectra Averaged: 1 (USB2+H05261)
Boxcar Smoothing: 0 (USB2+H05261)
Correct for Electrical Dark: No (USB2+H05261)
Strobe/Lamp Enabled: No (USB2+H05261)
Correct for Detector Non-linearity: No (USB2+H05261)
Correct for Stray Light: No (USB2+H05261)
Number of Pixels in Processed Spectrum: 2048
>>>>>Begin Processed Spectral Data<<<<<
365.73	308.95
365.92	308.95
366.12	308.95
366.32	201.29
366.52	198.95
366.72	201.29
366.91	168.52
367.11	154.48
367.31	135.75
367.51	236.39
367.70	191.92
367.90	173.20
368.10	173.20
368.30	161.50
368.49	182.56
368.69	271.50
368.89	175.54
369.09	149.79
369.28	189.58
369.48	194.26
369.68	152.13
369.87	341.72
370.07	241.08
370.27	287.89
370.47	358.10
370.66	559.39
370.86	519.60
371.06	547.69
371.25	624.92
371.45	498.53
371.65	547.69
371.84	582.79
372.04	575.77
372.24	496.19
372.44	561.73
372.63	559.39
372.83	608.54
373.03	545.34
373.22	610.88
373.42	557.05
373.62	599.18
373.81	655.35
374.01	650.67
374.21	571.09
374.40	685.78
374.60	582.79
374.79	587.47
374.99	648.33
375.19	596.84
375.38	653.01
375.58	624.92
375.78	650.67
375.97	613.22
376.17	585.13
376.37	711.52
376.56	727.91
376.76	667.05
376.95	667.05
377.15	627.26
377.35	706.84
377.54	671.73
377.74	681.10
377.93	617.90
378.13	636.63
378.33	695.14
378.52	702.16
378.72	573.43
378.91	653.01
379.11	713.86
379.31	774.72
379.50	688.12
379.70	706.84
379.89	720.88
380.09	648.33
380.28	706.84
380.48	692.80
380.68	706.84
380.87	751.31
381.07	692.80
381.26	798.12
381.46	692.80
381.65	723.23
381.85	770.04
382.04	690.46
382.24	765.36
382.43	753.65
382.63	681.10
382.83	725.57
383.02	833.23
383.22	784.08
383.41	739.61
383.61	751.31
383.80	767.70
384.00	823.87
384.19	812.17
384.39	830.89
384.58	779.40
384.78	851.96
384.97	767.70
385.17	800.46
385.36	898.77
385.56	833.23
385.75	779.40
385.95	851.96
386.14	877.70
386.34	807.48
386.53	802.80
386.72	791.10
386.92	833.23
387.11	826.21
387.31	802.80
387.50	833.23
387.70	835.57
387.89	847.27
388.09	854.30
388.28	891.74
388.48	889.40
388.67	837.91
388.86	910.47
389.06	936.21
389.25	905.79
389.45	945.58
389.64	924.51
389.84	917.49
390.03	954.94
390.22	901.11
390.42	922.17
390.61	952.60
390.81	858.98
391.00	936.21
391.19	980.68
391.39	931.53
391.58	997.07
391.78	917.49
391.97	1004.09
392.16	983.02
392.36	1050.90
392.55	1100.05
392.75	938.55
392.94	973.66
393.13	1111.75
393.33	957.28
393.52	954.94
393.71	1100.05
393.91	1102.39
394.10	1020.47
394.29	1011.11
394.49	997.07
394.68	1093.03
394.88	1107.07
395.07	1160.91
395.26	1095.37
395.46	1118.78
395.65	1123.46
395.84	1111.75
396.04	1172.61
396.23	1137.50
396.42	1156.22
396.62	1181.97
396.81	1170.27
397.00	1151.54
397.19	1165.59
397.39	1252.19
397.58	1217.08
397.77	1123.46
397.97	1219.42
398.16	1160.91
398.35	1217.08
398.55	1200.69
398.74	1282.61
398.93	1254.53
399.12	1320.06
399.32	1256.87
399.51	1254.53
399.70	1308.36
399.90	1242.82
400.09	1343.47
400.28	1284.95
400.47	1401.98
400.67	1343.47
400.86	1301.34
401.05	1345.81
401.24	1558.80
401.44	1425.39
401.63	1336.45
401.82	1411.34
402.01	1308.36
402.21	1331.76
402.40	1418.36
402.59	1348.15
402.78	1413.68
402.97	1523.69
403.17	1416.02
403.36	1497.94
403.55	1451.13
403.74	1526.03
403.93	1540.07
404.13	1533.05
404.32	1586.88
404.51	1554.12
404.70	1589.22
404.89	1638.38
405.09	1643.06
405.28	1582.20
405.47	1556.46
405.66	1612.63
405.85	1657.10
406.05	1732.00
406.24	1668.80
406.43	1640.72
406.62	1788.17
406.81	1724.97
407.00	1600.93
407.20	1607.95
407.39	1732.00
407.58	1778.81
407.77	1858.39
407.96	1872.43
408.15	1806.89
408.34	1767.10
408.54	1750.72
408.73	1727.32
408.92	1849.02
409.11	1881.79
409.30	1891.15
409.49	1954.35
409.68	1919.24
409.87	1963.71
410.07	1982.43
410.26	1940.30
410.45	1973.07
410.64	1989.46
410.83	2029.24
411.02	2097.12
411.21	2090.10
411.40	2040.95
411.59	2071.37
411.78	2052.65
411.98	2090.10
412.17	2155.63
412.36	2150.95
412.55	2249.25
412.74	2186.06
412.93	2237.55
413.12	2179.04
413.31	2291.38
413.50	2326.49
413.69	2417.77
413.88	2434.16
414.07	2345.22
414.26	2424.80
414.45	2359.26
414.64	2492.67
414.83	2455.22
415.02	2368.62
415.22	2422.45
415.41	2581.61
415.60	2406.07
415.79	2590.97
415.98	2708.00
416.17	2609.70
416.36	2693.96
416.55	2607.36
416.74	2675.23
416.93	2672.89
417.12	2672.89
417.31	2848.43
417.50	2794.60
417.69	2717.36
417.88	2785.24
418.07	2759.49
418.26	2750.13
418.45	2810.98
418.64	2897.58
418.83	2935.03
419.02	2876.52
419.21	3007.59
419.39	2923.33
419.58	2984.18
419.77	2909.29
419.96	2956.10
420.15	2956.10
420.34	3005.25
420.53	3052.06
420.72	3042.70
420.91	3052.06
421.10	3148.02
421.29	3110.57
421.48	3206.53
421.67	3155.04
421.86	3171.43
422.05	3122.27
422.24	3129.30
422.43	3131.64
422.61	3227.60
422.80	3335.26
422.99	3164.40
423.18	3262.71
423.37	3283.77
423.56	3251.00
423.75	3173.77
423.94	3075.46
424.13	3073.12
424.32	3131.64
424.50	3222.92
424.69	3389.10
424.88	3274.41
425.07	3208.87
425.26	3286.11
425.45	3272.07
425.64	3339.94
425.83	3321.22
426.01	3522.51
426.20	3426.54
426.39	3248.66
426.58	3342.28
426.77	3220.58
426.96	3468.67
427.15	3442.93
427.33	3335.26
427.52	3391.44
427.71	3339.94
427.90	3358.67
428.09	3536.55
428.28	3513.14
428.46	3545.91
428.65	3393.78
428.84	3618.47
429.03	3616.13
429.22	3627.83
429.40	3637.19
429.59	3609.11
429.78	3592.72
429.97	3346.97
430.16	3648.90
430.34	3634.85
430.53	3751.88
430.72	3688.68
430.91	3810.39
431.10	3634.85
431.28	3634.85
431.47	3782.31
431.66	3817.41
431.85	3765.92
432.03	3840.82
432.22	3948.48
432.41	3885.29
432.60	3964.87
432.79	3896.99
432.97	3882.95
433.16	3887.63
433.35	3908.69
433.54	3871.25
433.72	4044.45
433.91	3927.42
434.10	3892.31
434.28	3976.57
434.47	3925.08
434.66	4032.74
434.85	4042.11
435.03	4084.23
435.22	4042.11
435.41	4280.84
435.59	4109.98
435.78	4163.81
435.97	4112.32
436.16	4285.52
436.34	4262.12
436.53	4196.58
436.72	4306.59
436.90	4292.54
437.09	4201.26
437.28	4287.86
437.46	4346.37
437.65	4280.84
437.84	4325.31
438.02	4315.95
438.21	4493.83
438.40	4393.19
438.58	4531.28
438.77	4449.36
438.96	4407.23
439.14	4606.17
439.33	4657.67
439.52	4762.99
439.70	4727.88
439.89	4816.82
440.08	4606.17
440.26	4854.27
440.45	4699.80
440.63	4968.96
440.82	4999.38
441.01	4725.54
441.19	4950.23
441.38	4947.89
441.57	5008.75
441.75	5006.41
441.94	5153.86
442.12	5020.45
442.31	5256.84
442.50	5296.63
442.68	5153.86
442.87	5060.24
443.05	5025.13
443.24	5310.68
443.43	5331.74
443.61	5357.49
443.80	5516.64
443.98	5238.12
444.17	5085.98
444.35	5240.46
444.54	5460.47
444.73	5331.74
444.91	5371.53
445.10	5558.77
445.28	5263.86
445.47	5259.18
445.65	5193.65
445.84	5460.47
446.02	5327.06
446.21	5399.62
446.39	5568.13
446.58	5416.00
446.77	5500.26
446.95	5219.39
447.14	5369.19
447.32	5390.25
447.51	5507.28
447.69	5472.17
447.88	5453.45
448.06	5493.24
448.25	5495.58
448.43	5540.05
448.62	5455.79
448.80	5514.30
448.99	5591.54
449.17	5483.88
449.36	5495.58
449.54	5682.82
449.73	5633.67
449.91	5706.23
450.10	5713.25
450.28	5769.42
450.46	5865.38
450.65	5760.06
450.83	5905.17
451.02	5830.27
451.20	5968.37
451.39	5778.78
451.57	5961.34
451.76	5687.50
451.94	5998.79
452.13	6083.05
452.31	5919.21
452.49	5795.17
452.68	5935.60
452.86	6094.76
453.05	6202.42
453.23	6029.22
453.42	5980.07
453.60	5778.78
453.78	6160.29
453.97	6022.20
454.15	6017.52
454.34	6054.97
454.52	6218.80
454.70	6303.06
454.89	6251.57
455.07	6169.65
455.26	6366.26
455.44	6363.92
455.62	6438.81
455.81	6471.58
455.99	6464.56
456.17	6307.74
456.36	6286.68
456.54	6579.25
456.73	6392.00
456.91	6649.46
457.09	6787.55
457.28	6827.34
457.46	6663.51
457.64	6628.40
457.83	6738.40
458.01	6658.82
458.19	6677.55
458.38	6963.09
458.56	6876.49
458.74	6944.37
458.93	6766.49
459.11	6862.45
459.29	6883.52
459.48	7157.36
459.66	6944.37
459.84	6799.26
460.03	7002.88
460.21	6883.52
460.39	7042.67
460.57	7323.54
460.76	7173.74
460.94	7159.70
461.12	7066.08
461.31	7021.61
461.49	7145.66
461.67	7157.36
461.85	7187.79
462.04	7021.61
462.22	7337.58
462.40	7330.56
462.59	7400.77
462.77	7304.81
462.95	7506.10
463.13	7379.71
463.32	7454.61
463.50	7342.26
463.68	7489.71
463.86	7442.90
464.05	7213.53
464.23	7447.58
464.41	7571.63
464.59	7405.46
464.78	7772.92
464.96	7433.54
465.14	7363.33
465.32	7728.45
465.50	7885.26
465.69	7627.81
465.87	7714.41
466.05	7723.77
466.23	7847.82
466.41	7655.89
466.60	7873.56
466.78	7723.77
466.96	7772.92
467.14	7672.28
467.32	7756.54
467.51	7901.65
467.69	7796.32
467.87	7880.58
468.05	8049.10
468.23	7892.29
468.41	7808.03
468.60	7915.69
468.78	7896.97
468.96	8053.78
469.14	8004.63
469.32	8273.79
469.50	8135.70
469.69	8306.56
469.87	8468.06
470.05	8428.27
470.23	8407.20
470.41	8152.09
470.59	8521.89
470.77	8163.79
470.95	8463.38
471.14	8379.12
471.32	7976.55
471.50	8388.48
471.68	8470.40
471.86	8697.43
472.04	8582.74
472.22	8800.41
472.40	8664.66
472.58	8636.58
472.77	8671.68
472.95	8702.11
473.13	9195.96
473.31	8828.50
473.49	8800.41
473.67	8926.80
473.85	8908.08
474.03	9240.44
474.21	9156.18
474.39	9355.12
474.57	9146.81
474.75	9495.55
474.93	9486.19
475.12	9284.91
475.30	9355.12
475.48	9430.02
475.66	9518.96
475.84	9509.60
476.02	9610.24
476.20	9586.83
476.38	9912.17
476.56	9830.25
476.74	10010.47
476.92	9802.16
477.10	9825.57
477.28	10083.03
477.46	10078.35
477.64	10139.20
477.82	10321.76
478.00	10553.48
478.18	10621.35
478.36	10583.90
478.54	10822.64
478.72	10633.05
478.90	10764.12
479.08	10869.45
479.26	11119.89
479.44	11087.12
479.62	11084.78
479.80	11059.03
479.98	11257.98
480.16	11772.89
480.34	11435.86
480.52	11517.78
480.70	11798.64
480.88	11435.86
481.06	11658.21
481.24	11730.76
481.41	11829.07
481.59	12114.61
481.77	12004.61
481.95	12140.36
482.13	12376.75
482.31	12332.28
482.49	12540.59
482.67	12468.03
482.85	12547.61
483.03	12840.18
483.21	12847.20
483.39	13029.76
483.57	12580.38
483.74	13355.10
483.92	13556.38
484.10	13324.67
484.28	13453.40
484.46	13420.63
484.64	13944.91
484.82	13535.32
485.00	13902.78
485.18	14036.19
485.35	14317.06
485.53	14230.46
485.71	14370.89
485.89	14616.65
486.07	14567.49
486.25	14644.73
486.43	14569.83
486.61	14679.84
486.78	14782.82
486.96	15040.28
487.14	15290.72
487.32	15187.74
487.50	15194.76
487.68	15564.56
487.85	15742.44
488.03	15667.55
488.21	16203.53
488.39	15906.28
488.57	15992.88
488.75	16259.70
488.92	16379.07
489.10	16730.15
489.28	16545.25
489.46	16826.11
489.64	16645.89
489.81	16901.01
489.99	17233.36
490.17	17233.36
490.35	17624.23
490.53	17528.27
490.70	17767.01
490.88	17624.23
491.06	17813.82
491.24	17694.45
491.41	18005.74
491.59	18073.62
491.77	18047.87
491.95	18258.52
492.13	18288.95
492.30	18356.82
492.48	18492.57
492.66	18682.16
492.84	18581.51
493.01	18651.73
493.19	18881.10
493.37	19255.59
493.54	19463.90
493.72	19161.97
493.90	19058.98
494.08	19580.92
494.25	19744.76
494.43	19768.16
494.61	19754.12
494.79	19939.02
494.96	20009.24
495.14	20339.26
495.32	20739.49
495.49	20526.50
495.67	20315.85
495.85	20439.90
496.02	21153.76
496.20	20788.64
496.38	21125.68
496.55	20896.30
496.73	21436.97
496.91	21553.99
497.09	21441.65
497.26	21406.54
497.44	21886.35
497.62	21750.60
497.79	22125.08
497.97	21633.57
498.14	22157.85
498.32	22396.59
498.50	22305.31
498.67	22480.85
498.85	22726.60
499.03	22656.39
499.20	22888.10
499.38	23136.20
499.56	23019.17
499.73	23082.36
499.91	22937.25
500.08	23564.51
500.26	22941.93
500.44	23377.27
500.61	23503.66
500.79	23424.08
500.97	23384.29
501.14	23871.12
501.32	23716.65
501.49	23927.30
501.67	23915.59
501.84	24175.39
502.02	24112.20
502.20	24327.53
502.37	24364.98
502.55	24226.89
502.72	24592.01
502.90	24744.14
503.07	24367.32
503.25	24805.00
503.43	24435.19
503.60	24680.95
503.78	24978.20
503.95	24683.29
504.13	24945.43
504.30	25219.27
504.48	25135.01
504.65	25516.52
504.83	25303.53
505.01	25708.44
505.18	25392.47
505.36	26057.18
505.53	25450.99
505.71	25795.04
505.88	25649.93
506.06	25804.41
506.23	26162.51
506.41	25965.90
506.58	26211.66
506.76	26462.10
506.93	26335.71
507.11	26380.18
507.28	26448.05
507.46	26644.66
507.63	26443.37
507.81	26808.50
507.98	26742.96
508.16	26724.24
508.33	27033.19
508.50	26890.41
508.68	27058.93
508.85	27688.54
509.03	27246.18
509.20	27180.64
509.38	27922.59
509.55	27693.22
509.73	27452.14
509.90	27419.38
510.08	27784.50
510.25	27545.76
510.42	27929.61
510.60	28161.33
510.77	28292.40
510.95	28484.32
511.12	28095.79
511.30	28252.61
511.47	28163.67
511.64	28133.24
511.82	28379.00
511.99	28285.37
512.17	28552.20
512.34	28631.77
512.51	29020.30
512.69	29036.69
512.86	29010.94
513.04	29355.00
513.21	29205.20
513.38	29237.97
513.56	29371.38
513.73	29415.85
513.90	29237.97
514.08	29233.29
514.25	29874.60
514.43	29717.78
514.60	29757.57
514.77	29476.71
514.95	29567.99
515.12	29996.31
515.29	30139.08
515.47	30110.99
515.64	30204.61
515.81	30183.55
515.99	30178.87
516.16	30658.68
516.33	30396.54
516.51	30803.79
516.68	30438.67
516.85	30703.15
517.03	30607.19
517.20	30768.68
517.37	30768.68
517.54	31096.36
517.72	30679.74
517.89	31056.57
518.06	31381.90
518.24	31253.17
518.41	31136.15
518.58	31510.63
518.75	30881.03
518.93	31180.62
519.10	31454.46
519.27	31309.35
519.45	31632.34
519.62	31681.49
519.79	31646.38
519.96	31967.04
520.14	32060.66
520.31	31620.64
520.48	31974.06
520.65	32112.15
520.83	32374.29
521.00	32341.52
521.17	32456.21
521.34	32112.15
521.52	32348.54
521.69	32376.63
521.86	32589.62
522.03	32753.46
522.20	32954.74
522.38	33085.81
522.55	33273.06
522.72	33062.41
522.89	33144.33
523.07	33481.36
523.24	33024.96
523.41	33296.46
523.58	33303.48
523.75	33603.07
523.92	33081.13
524.10	33472.00
524.27	33481.36
524.44	33684.99
524.61	33818.40
524.78	34122.67
524.96	33869.89
525.13	33979.90
525.30	34164.80
525.47	33916.70
525.64	33780.95
525.81	34099.26
525.98	33855.85
526.16	33961.17
526.33	34071.18
526.50	34225.65
526.67	34141.39
526.84	34040.75
527.01	34813.13
527.18	34132.03
527.36	34349.70
527.53	34345.02
527.70	35218.04
527.87	34824.83
528.04	34822.49
528.21	34888.03
528.38	34515.88
528.55	34883.34
528.72	34876.32
528.89	35239.11
529.07	35239.11
529.24	35257.83
529.41	35211.02
529.58	35433.37
529.75	35627.63
529.92	35503.59
530.09	35386.56
530.26	35449.75
530.43	35852.33
530.60	35372.52
530.77	35569.12
530.94	35580.82
531.11	35690.83
531.28	35842.96
531.46	35632.32
531.63	35936.59
531.80	35714.23
531.97	36009.14
532.14	36112.13
532.31	36074.68
532.48	36194.04
532.65	36374.27
532.82	36088.72
532.99	36589.59
533.16	36006.80
533.33	36594.28
533.50	36678.54
533.67	36650.45
533.84	36414.05
534.01	36584.91
534.18	36301.71
534.35	36720.66
534.52	36917.27
534.69	36966.42
534.86	37457.93
535.03	36964.08
535.20	37120.90
535.37	37226.22
535.54	37076.43
535.71	36762.79
535.88	37432.19
536.05	37214.52
536.22	37600.71
536.38	37324.52
536.55	37713.05
536.72	37017.91
536.89	37266.01
537.06	37376.01
537.23	37820.72
537.40	37317.50
537.57	37436.87
537.74	38052.43
537.91	37783.27
538.08	38068.81
538.25	37289.42
538.42	38141.37
538.59	38286.48
538.75	37647.52
538.92	38167.12
539.09	37949.45
539.26	37832.42
539.43	38134.35
539.60	38382.45
539.77	38066.47
539.94	38415.21
540.11	38319.25
540.28	38213.93
540.44	38415.21
540.61	38052.43
540.78	38557.99
540.95	38382.45
541.12	38845.87
541.29	38789.70
541.46	38700.76
541.62	38696.08
541.79	38522.88
541.96	38497.13
542.13	38637.56
542.30	38244.35
542.47	38822.47
542.63	38934.81
542.80	39229.72
542.97	39789.11
543.14	39711.87
543.31	39154.82
543.48	39234.40
543.64	39784.43
543.81	39576.12
543.98	39428.66
544.15	39426.32
544.32	39793.79
544.48	40002.10
544.65	39746.98
544.82	39917.84
544.99	39739.96
545.16	39833.58
545.32	39917.84
545.49	39969.33
545.66	40369.56
545.83	40287.64
546.00	40177.64
546.16	39978.69
546.33	39966.99
546.50	40041.88
546.67	40123.80
546.83	39529.31
547.00	39838.26
547.17	40512.33
547.34	40268.92
547.50	40446.80
547.67	40582.55
547.84	40470.20
548.00	40823.62
548.17	40879.80
548.34	40828.30
548.51	41184.07
548.67	40823.62
548.84	40854.05
549.01	41034.27
549.18	40917.25
549.34	40858.73
549.51	40975.76
549.68	40891.50
549.84	40989.80
550.01	41045.97
550.18	41038.95
550.34	41134.92
550.51	40980.44
550.68	41296.41
550.84	41074.06
551.01	41415.78
551.18	40844.69
551.34	40737.02
551.51	41481.31
551.68	41258.96
551.84	41516.42
552.01	41268.33
552.18	41500.04
552.34	41453.23
552.51	41745.80
552.68	41352.58
552.84	41553.87
553.01	42005.59
553.18	41462.59
553.34	42155.39
553.51	41876.86
553.67	41736.43
553.84	41764.52
554.01	41862.82
554.17	41558.55
554.34	41640.47
554.51	41986.87
554.67	42333.27
554.84	42258.37
555.00	41860.48
555.17	41713.03
555.33	42211.56
555.50	42188.16
555.67	42279.44
555.83	42234.97
556.00	42768.61
556.16	42672.65
556.33	42590.73
556.50	42553.28
556.66	42284.12
556.83	42146.03
556.99	42796.70
557.16	42405.83
557.32	43033.09
557.49	42932.45
557.65	42174.11
557.82	42181.13
557.98	42754.57
558.15	42525.19
558.32	43075.22
558.48	42588.39
558.65	42258.37
558.81	42738.18
558.98	42878.61
559.14	42712.44
559.31	42754.57
559.47	42572.00
559.64	43384.17
559.80	42705.41
559.97	42909.04
560.13	42787.33
560.30	42284.12
560.46	42927.77
560.63	43000.32
560.79	43232.04
560.96	42880.95
561.12	43159.48
561.29	43281.19
561.45	43196.93
561.61	43002.66
561.78	42955.85
561.94	43346.72
562.11	43178.20
562.27	43330.34
562.44	43077.56
562.60	43096.28
562.77	43662.69
562.93	42775.63
563.10	43480.13
563.26	43210.97
563.42	43798.44
563.59	43430.98
563.75	43555.03
563.92	43217.99
564.08	43313.95
564.24	43676.74
564.41	43599.50
564.57	43627.59
564.74	43562.05
564.90	43267.14
565.07	43639.29
565.23	43178.20
565.39	43852.28
565.56	43487.15
565.72	43466.09
565.88	43585.46
566.05	43679.08
566.21	43955.26
566.38	43653.33
566.54	43854.62
566.70	43861.64
566.87	43906.11
567.03	43501.20
567.19	43625.25
567.36	43416.94
567.52	43810.15
567.68	44135.48
567.85	44135.48
568.01	44165.91
568.17	43863.98
568.34	44240.81
568.50	44037.18
568.66	43805.47
568.83	44130.80
568.99	43894.41
569.15	44091.01
569.32	43992.71
569.48	43665.03
569.64	44385.92
569.81	43927.17
569.97	44463.16
570.13	44027.82
570.30	44280.60
570.46	43871.00
570.62	43859.30
570.78	43793.76
570.95	44025.48
571.11	44378.90
571.27	43892.07
571.43	43931.86
571.60	44147.18
571.76	43896.75
571.92	43838.23
572.09	44079.31
572.25	43744.61
572.41	44002.07
572.57	44215.06
572.74	45020.20
572.90	44126.12
573.06	44385.92
573.22	44652.74
573.38	44591.89
573.55	44259.53
573.71	44470.18
573.87	44245.49
574.03	44308.68
574.20	44542.74
574.36	44816.58
574.52	44680.83
574.68	44182.29
574.84	44870.41
575.01	44952.33
575.17	44353.15
575.33	44423.37
575.49	43906.11
575.65	44343.79
575.82	44804.88
575.98	44294.64
576.14	44605.93
576.30	44935.95
576.46	44205.70
576.62	44493.58
576.79	44676.15
576.95	44112.08
577.11	44226.76
577.27	44217.40
577.43	44973.39
577.59	44236.12
577.75	44692.53
577.92	43753.97
578.08	44507.63
578.24	44619.97
578.40	44402.30
578.56	44795.51
578.72	44683.17
578.88	44961.69
579.04	44804.88
579.21	44486.56
579.37	44399.96
579.53	44947.65
579.69	44547.42
579.85	44196.34
580.01	44575.50
580.17	44505.29
580.33	44797.85
580.49	44444.43
580.65	44692.53
580.82	44552.10
580.98	44870.41
581.14	44208.04
581.30	44830.62
581.46	44650.40
581.62	44615.29
581.78	43981.01
581.94	44940.63
582.10	44582.52
582.26	45113.83
582.42	44430.39
582.58	44524.01
582.74	44767.43
582.90	44692.53
583.06	44847.00
583.22	44538.05
583.38	44711.25
583.54	44718.28
583.70	44921.90
583.86	44404.64
584.02	44999.14
584.18	44933.60
584.34	44966.37
584.50	45223.83
584.66	44896.16
584.82	44877.43
584.98	44938.29
585.14	45223.83
585.30	44839.98
585.46	44741.68
585.62	44872.75
585.78	45069.36
585.94	44421.03
586.10	44851.69
586.26	44690.19
586.42	44655.08
586.58	44996.80
586.74	44542.74
586.90	44652.74
587.06	44718.28
587.22	45118.51
587.38	44809.56
587.54	45111.49
587.70	45076.38
587.86	45043.61
588.02	44697.21
588.18	44699.55
588.34	44683.17
588.49	44987.44
588.65	44671.46
588.81	45008.50
588.97	45013.18
589.13	45146.59
589.29	44886.79
589.45	45123.19
589.61	45008.50
589.77	45497.67
589.93	44985.10
590.08	45043.61
590.24	45214.47
