SpectraSuite Data File
++++++++++++++++++++++++++++++++++++
Date: Fri Oct 25 11:23:03 EDT 2013
User: price-jones
Dark Spectrum Present: No
Reference Spectrum Present: No
Number of Sampled Component Spectra: 1
Spectrometers: USB2+H05261
Integration Time (usec): 100000 (USB2+H05261)
Spectra Averaged: 1 (USB2+H05261)
Boxcar Smoothing: 0 (USB2+H05261)
Correct for Electrical Dark: No (USB2+H05261)
Strobe/Lamp Enabled: No (USB2+H05261)
Correct for Detector Non-linearity: No (USB2+H05261)
Correct for Stray Light: No (USB2+H05261)
Number of Pixels in Processed Spectrum: 2048
>>>>>Begin Processed Spectral Data<<<<<
365.73	280.86
365.92	280.86
366.12	280.86
366.32	142.77
366.52	154.48
366.72	163.84
366.91	100.64
367.11	142.77
367.31	67.88
367.51	25.75
367.70	128.73
367.90	145.11
368.10	14.04
368.30	168.52
368.49	107.66
368.69	189.58
368.89	220.01
369.09	124.05
369.28	198.95
369.48	138.09
369.68	70.22
369.87	205.97
370.07	166.18
370.27	264.48
370.47	407.25
370.66	557.05
370.86	594.50
371.06	631.94
371.25	709.18
371.45	671.73
371.65	620.24
371.84	718.54
372.04	631.94
372.24	660.03
372.44	741.95
372.63	667.05
372.83	683.44
373.03	746.63
373.22	737.27
373.42	683.44
373.62	781.74
373.81	870.68
374.01	805.14
374.21	727.91
374.40	805.14
374.60	795.78
374.79	821.53
374.99	856.64
375.19	840.25
375.38	791.10
375.58	828.55
375.78	814.51
375.97	858.98
376.17	917.49
376.37	910.47
376.56	945.58
376.76	903.45
376.95	863.66
377.15	950.26
377.35	945.58
377.54	884.72
377.74	926.85
377.93	940.90
378.13	950.26
378.33	978.34
378.52	887.06
378.72	884.72
378.91	1011.11
379.11	971.32
379.31	966.64
379.50	943.24
379.70	919.83
379.89	1032.18
380.09	929.19
380.28	961.96
380.48	983.02
380.68	901.11
380.87	964.30
381.07	973.66
381.26	1086.01
381.46	964.30
381.65	1053.24
381.85	1071.97
382.04	933.87
382.24	1083.67
382.43	1074.31
382.63	1020.47
382.83	1118.78
383.02	1137.50
383.22	1196.01
383.41	1125.80
383.61	1177.29
383.80	1235.80
384.00	1039.20
384.19	1039.20
384.39	1144.52
384.58	1104.73
384.78	1174.95
384.97	1034.52
385.17	1186.65
385.36	1231.12
385.56	1142.18
385.75	1165.59
385.95	1200.69
386.14	1247.51
386.34	1109.41
386.53	1273.25
386.72	1235.80
386.92	1277.93
387.11	1270.91
387.31	1254.53
387.50	1193.67
387.70	1212.40
387.89	1329.42
388.09	1219.42
388.28	1301.34
388.48	1205.38
388.67	1303.68
388.86	1280.27
389.06	1299.00
389.25	1245.16
389.45	1329.42
389.64	1324.74
389.84	1373.89
390.03	1451.13
390.22	1467.52
390.42	1420.71
390.61	1268.57
390.81	1399.64
391.00	1441.77
391.19	1446.45
391.39	1409.00
391.58	1458.15
391.78	1526.03
391.97	1474.54
392.16	1509.65
392.36	1533.05
392.55	1563.48
392.75	1629.01
392.94	1549.43
393.13	1523.69
393.33	1479.22
393.52	1563.48
393.71	1523.69
393.91	1584.54
394.10	1607.95
394.29	1659.44
394.49	1526.03
394.68	1652.42
394.88	1563.48
395.07	1710.93
395.26	1717.95
395.46	1636.03
395.65	1694.55
395.84	1724.97
396.04	1715.61
396.23	1795.19
396.42	1741.36
396.62	1816.26
396.81	1799.87
397.00	1804.55
397.19	1708.59
397.39	1849.02
397.58	1858.39
397.77	1792.85
397.97	1851.36
398.16	1771.79
398.35	1905.20
398.55	1907.54
398.74	1865.41
398.93	1949.67
399.12	1888.81
399.32	1923.92
399.51	1909.88
399.70	2012.86
399.90	1961.37
400.09	1944.99
400.28	1956.69
400.47	1998.82
400.67	2106.48
400.86	2054.99
401.05	2113.50
401.24	1984.77
401.44	2157.97
401.63	2141.59
401.82	2172.02
402.01	2143.93
402.21	2076.06
402.40	2169.68
402.59	2186.06
402.78	2275.00
402.97	2267.98
403.17	2225.85
403.36	2270.32
403.55	2310.11
403.74	2403.73
403.93	2352.24
404.13	2417.77
404.32	2392.03
404.51	2267.98
404.70	2380.32
404.89	2455.22
405.09	2469.27
405.28	2392.03
405.47	2445.86
405.66	2511.39
405.85	2593.31
406.05	2466.92
406.24	2590.97
406.43	2462.24
406.62	2640.12
406.81	2736.09
407.00	2616.72
407.20	2635.44
407.39	2689.28
407.58	2684.59
407.77	2827.37
407.96	2754.81
408.15	2813.32
408.34	2787.58
408.54	2789.92
408.73	2897.58
408.92	2864.82
409.11	2878.86
409.30	2888.22
409.49	2827.37
409.68	2965.46
409.87	2885.88
410.07	2972.48
410.26	3014.61
410.45	2974.82
410.64	3047.38
410.83	3117.59
411.02	3098.87
411.21	3129.30
411.40	3070.78
411.59	3265.05
411.78	3279.09
411.98	3197.17
412.17	3262.71
412.36	3396.12
412.55	3309.52
412.74	3412.50
412.93	3314.20
413.12	3269.73
413.31	3538.89
413.50	3559.95
413.69	3548.25
413.88	3695.71
414.07	3595.06
414.26	3749.54
414.45	3693.37
414.64	3693.37
414.83	3824.44
415.02	3918.06
415.22	3789.33
415.41	3838.48
415.60	3836.14
415.79	3978.91
415.98	4030.40
416.17	3999.98
416.36	4002.32
416.55	3904.01
416.74	4086.58
416.93	3974.23
417.12	4042.11
417.31	4170.83
417.50	4215.30
417.69	4276.16
417.88	4252.75
418.07	4231.69
418.26	4264.46
418.45	4337.01
418.64	4416.59
418.83	4402.55
419.02	4592.13
419.21	4587.45
419.39	4610.86
419.58	4603.83
419.77	4531.28
419.96	4561.70
420.15	4720.86
420.34	4617.88
420.53	4638.94
420.72	4683.41
420.91	4760.65
421.10	4929.17
421.29	4788.74
421.48	4638.94
421.67	4674.05
421.86	4755.97
422.05	4842.57
422.24	4873.00
422.43	4821.50
422.61	4964.28
422.80	5060.24
422.99	4980.66
423.18	4917.47
423.37	5191.31
423.56	4807.46
423.75	4713.84
423.94	4882.36
424.13	4681.07
424.32	4884.70
424.50	5188.97
424.69	5128.11
424.88	5008.75
425.07	5039.17
425.26	5062.58
425.45	5130.45
425.64	5036.83
425.83	5034.49
426.01	5064.92
426.20	5067.26
426.39	5095.35
426.58	5062.58
426.77	5022.79
426.96	5275.57
427.15	5144.50
427.33	5334.08
427.52	5282.59
427.71	5217.05
427.90	5334.08
428.09	5430.04
428.28	5385.57
428.46	5486.22
428.65	5444.09
428.84	5394.93
429.03	5404.30
429.22	5446.43
429.40	5406.64
429.59	5392.59
429.78	5317.70
429.97	5460.47
430.16	5610.26
430.34	5542.39
430.53	5928.58
430.72	5666.44
430.91	5757.72
431.10	5643.03
431.28	5937.94
431.47	5666.44
431.66	5937.94
431.85	5844.32
432.03	6008.16
432.22	6015.18
432.41	6054.97
432.60	5841.98
432.79	6078.37
432.97	6061.99
433.16	6073.69
433.35	6010.50
433.54	6148.59
433.72	6363.92
433.91	6209.44
434.10	6087.73
434.28	6171.99
434.47	6394.34
434.66	6530.09
434.85	6321.79
435.03	6298.38
435.22	6340.51
435.41	6459.88
435.59	6417.75
435.78	6473.92
435.97	6600.31
436.16	6476.26
436.34	6492.65
436.53	6539.46
436.72	6729.04
436.90	6647.12
437.09	6780.53
437.28	6408.39
437.46	6525.41
437.65	6698.61
437.84	6839.05
438.02	6726.70
438.21	6796.92
438.40	6715.00
438.58	6951.39
438.77	6906.92
438.96	6986.50
439.14	7021.61
439.33	7279.07
439.52	7101.19
439.70	7279.07
439.89	7365.67
440.08	7445.24
440.26	7405.46
440.45	7386.73
440.63	7700.36
440.82	7658.23
441.01	7527.16
441.19	7733.13
441.38	7808.03
441.57	7819.73
441.75	7831.43
441.94	8067.83
442.12	8021.02
442.31	8030.38
442.50	8238.69
442.68	7974.21
442.87	7985.91
443.05	8140.38
443.24	8332.31
443.43	8234.00
443.61	8355.71
443.80	8554.66
443.98	8114.64
444.17	8049.10
444.35	8313.58
444.54	8463.38
444.73	8390.82
444.91	8332.31
445.10	8287.84
445.28	8489.12
445.47	8257.41
445.65	8446.99
445.84	8255.07
446.02	8575.72
446.21	8386.14
446.39	8386.14
446.58	8533.59
446.77	8606.15
446.95	8528.91
447.14	8547.64
447.32	8669.34
447.51	8538.27
447.69	8748.92
447.88	8578.06
448.06	8561.68
448.25	8636.58
448.43	8872.97
448.62	8844.88
448.80	8610.83
448.99	8781.69
449.17	8837.86
449.36	8753.60
449.54	8990.00
449.73	8975.95
449.91	9060.21
450.10	9107.02
450.28	9053.19
450.46	9420.66
450.65	9090.64
450.83	9210.01
451.02	9055.53
451.20	9163.20
451.39	9095.32
451.57	9268.52
451.76	9247.46
451.94	9114.05
452.13	9490.87
452.31	9441.72
452.49	9331.72
452.68	9518.96
452.86	9357.46
453.05	9427.68
453.23	9549.39
453.42	9462.79
453.60	9528.32
453.78	9568.11
453.97	9554.07
454.15	9563.43
454.34	9713.22
454.52	9926.21
454.70	9685.14
454.89	9970.68
455.07	10026.86
455.26	9895.78
455.44	9940.26
455.62	10015.15
455.81	9994.09
455.99	10094.73
456.17	10076.01
456.36	10024.51
456.54	10083.03
456.73	10195.37
456.91	10604.97
457.09	10579.22
457.28	10546.45
457.46	10499.64
457.64	10614.33
457.83	10745.40
458.01	10537.09
458.19	10815.62
458.38	10562.84
458.56	11000.52
458.74	10815.62
458.93	10651.78
459.11	10757.10
459.29	10864.77
459.48	10764.12
459.66	10977.11
459.84	10733.70
460.03	11234.57
460.21	11073.07
460.39	11033.29
460.57	11101.16
460.76	11089.46
460.94	11201.80
461.12	11033.29
461.31	11295.43
461.49	11265.00
461.67	11360.96
461.85	11676.93
462.04	11325.85
462.22	11461.60
462.40	11808.00
462.59	11496.71
462.77	11410.11
462.95	11618.42
463.13	11667.57
463.32	11896.94
463.50	11812.68
463.68	11927.37
463.86	11927.37
464.05	11826.73
464.23	11908.65
464.41	12112.27
464.59	11819.71
464.78	12353.35
464.96	12105.25
465.14	12011.63
465.32	12156.74
465.50	12332.28
465.69	12138.02
465.87	12044.40
466.05	12149.72
466.23	12262.07
466.41	12470.37
466.60	12666.98
466.78	12367.39
466.96	12353.35
467.14	12311.22
467.32	12643.57
467.51	12872.95
467.69	12727.83
467.87	12486.76
468.05	12765.28
468.23	12559.31
468.41	12489.10
468.60	12573.36
468.78	12957.21
468.96	12938.48
469.14	12816.77
469.32	12950.18
469.50	12886.99
469.69	13022.74
469.87	12996.99
470.05	13563.40
470.23	13378.50
470.41	13132.75
470.59	13411.27
470.77	13411.27
470.95	13462.76
471.14	13607.87
471.32	13125.72
471.50	13481.49
471.68	13762.35
471.86	13870.01
472.04	13671.07
472.22	14120.45
472.40	13727.24
472.58	13914.48
472.77	13846.61
472.95	14202.37
473.13	14808.57
473.31	14207.05
473.49	14265.57
473.67	14546.43
473.85	14420.04
474.03	14626.01
474.21	14672.82
474.39	14806.23
474.57	14647.07
474.75	15169.01
474.93	15466.26
475.12	15255.61
475.30	15492.01
475.48	15445.20
475.66	15412.43
475.84	15452.22
476.02	15653.50
476.20	15592.65
476.38	16020.97
476.56	16208.21
476.74	16222.25
476.92	16013.95
477.10	16023.31
477.28	16341.62
477.46	16437.58
477.64	16470.35
477.82	16753.55
478.00	17008.67
478.18	17114.00
478.36	16861.22
478.54	17472.10
478.72	17385.50
478.90	17493.16
479.08	17886.37
479.26	17891.06
479.44	17755.30
479.62	18026.81
479.80	18129.79
479.98	18237.45
480.16	18850.67
480.34	18441.08
480.52	18794.50
480.70	19192.39
480.88	18574.49
481.06	18951.32
481.24	19356.23
481.41	19419.42
481.59	19737.74
481.77	19438.15
481.95	19665.18
482.13	20100.52
482.31	19749.44
482.49	20535.86
482.67	20489.05
482.85	20924.39
483.03	20812.04
483.21	20917.37
483.39	21130.36
483.57	21081.21
483.74	21455.69
483.92	21656.98
484.10	21539.95
484.28	21844.22
484.46	22197.64
484.64	22546.38
484.82	22120.40
485.00	22560.42
485.18	22703.20
485.35	23199.39
485.53	23396.00
485.71	22953.63
485.89	23754.10
486.07	23805.59
486.25	23690.90
486.43	23812.61
486.61	24079.43
486.78	24187.10
486.96	24563.92
487.14	24812.02
487.32	24662.22
487.50	24940.75
487.68	25343.32
487.85	25516.52
488.03	26094.63
488.21	26120.38
488.39	26024.42
488.57	26199.96
488.75	26590.83
488.92	26712.53
489.10	26977.01
489.28	26972.33
489.46	27655.77
489.64	26923.18
489.81	27803.22
489.99	27953.02
490.17	28114.52
490.35	28538.15
490.53	28594.32
490.70	28638.80
490.88	28348.57
491.06	29041.37
491.24	29336.27
491.41	29371.38
491.59	29673.31
491.77	29661.61
491.95	29766.93
492.13	30047.80
492.30	30132.06
492.48	30363.77
492.66	30548.67
492.84	30815.49
493.01	30902.09
493.19	31072.95
493.37	31328.07
493.54	30939.54
493.72	31950.65
493.90	32154.28
494.08	31922.57
494.25	32404.72
494.43	31948.31
494.61	32453.87
494.79	32821.33
494.96	33043.68
495.14	33109.22
495.32	33429.87
495.49	33097.52
495.67	33895.64
495.85	33624.14
496.02	33984.58
496.20	34302.89
496.38	34391.83
496.55	34359.06
496.73	34962.92
496.91	35026.12
497.09	35129.10
497.26	35098.67
497.44	35906.16
497.62	35824.24
497.79	36194.04
497.97	35569.12
498.14	36233.83
498.32	36287.67
498.50	36285.33
498.67	37146.64
498.85	37186.43
499.03	37090.47
499.20	37085.79
499.38	37120.90
499.56	37125.58
499.73	37572.62
499.91	37801.99
500.08	38157.75
500.26	37652.20
500.44	38120.31
500.61	38139.03
500.79	38120.31
500.97	38398.83
501.14	38831.83
501.32	38841.19
501.49	38876.30
501.67	38955.88
501.84	39622.93
502.02	39299.94
502.20	39580.80
502.37	39409.94
502.55	39538.67
502.72	39824.22
502.90	40046.57
503.07	39793.79
503.25	39959.97
503.43	40233.81
503.60	40287.64
503.78	40711.28
503.95	41067.04
504.13	41081.08
504.30	40835.33
504.48	40942.99
504.65	40891.50
504.83	41771.54
505.01	41420.46
505.18	41574.94
505.36	41729.41
505.53	41731.75
505.71	42122.62
505.88	42696.05
506.06	41968.15
506.23	42607.11
506.41	42047.72
506.58	42583.71
506.76	42342.63
506.93	42993.30
507.11	42457.32
507.28	42869.25
507.46	42969.90
507.63	43082.24
507.81	43379.49
507.98	43299.91
508.16	43594.82
508.33	43723.55
508.50	44350.81
508.68	44261.87
508.85	44170.59
509.03	43943.56
509.20	44538.05
509.38	44685.51
509.55	44737.00
509.73	44797.85
509.90	44917.22
510.08	44704.23
510.25	44800.19
510.42	45064.67
510.60	45132.55
510.77	45720.02
510.95	46178.77
511.12	45867.48
511.30	45687.26
511.47	45614.70
511.64	45881.52
511.82	46312.18
511.99	46309.84
512.17	46595.38
512.34	46370.69
512.51	46815.40
512.69	46831.78
512.86	46939.44
513.04	46916.04
513.21	47306.91
513.38	47056.47
513.56	47103.28
513.73	46803.69
513.90	47487.13
514.08	47320.95
514.25	47580.75
514.43	47903.74
514.60	47978.64
514.77	47775.02
514.95	48273.55
515.12	47880.34
515.29	47971.62
515.47	48257.17
515.64	48212.70
515.81	48641.01
515.99	48556.75
516.16	49169.97
516.33	48657.40
516.51	49563.18
516.68	48516.96
516.85	48959.33
517.03	49188.70
517.20	49448.50
517.37	49144.23
517.54	49394.67
517.72	49244.87
517.89	49394.67
518.06	49659.15
518.24	49563.18
518.41	49474.24
518.58	49724.68
518.75	49595.95
518.93	50155.34
519.10	49617.02
519.27	49928.31
519.45	49815.96
519.62	49968.10
519.79	50059.38
519.96	50436.20
520.14	50581.32
520.31	50419.82
520.48	50829.41
520.65	50869.20
520.83	51079.85
521.00	50897.29
521.17	50918.35
521.34	51077.51
521.52	50927.72
521.69	51161.77
521.86	51171.13
522.03	51592.43
522.20	51873.29
522.38	52158.84
522.55	51679.03
522.72	51501.15
522.89	51964.57
523.07	52081.60
523.24	51412.21
523.41	52090.96
523.58	51964.57
523.75	52175.22
523.92	52013.73
524.10	52725.25
524.27	52603.54
524.44	52186.92
524.61	52121.39
524.78	52474.81
524.96	52484.17
525.13	52839.93
525.30	52762.70
525.47	52605.88
525.64	52687.80
525.81	52910.15
525.98	53195.70
526.16	52612.90
526.33	53020.16
526.50	53422.73
526.67	53195.70
526.84	53181.65
527.01	53106.76
527.18	53055.26
527.36	53406.34
527.53	53516.35
527.70	53654.44
527.87	53497.62
528.04	53345.49
528.21	53544.44
528.38	53570.18
528.55	53860.41
528.72	53801.89
528.89	53834.66
529.07	53553.80
529.24	53729.34
529.41	53853.39
529.58	54143.61
529.75	53874.45
529.92	54024.25
530.09	54087.44
530.26	54246.60
530.43	54302.77
530.60	54190.42
530.77	54335.54
530.94	54274.68
531.11	54457.24
531.28	54684.28
531.46	54398.73
531.63	54408.09
531.80	54394.05
531.97	54747.47
532.14	54887.90
532.31	54983.86
532.48	54731.09
532.65	55035.36
532.82	54988.55
532.99	55215.58
533.16	54705.34
533.33	55257.71
533.50	55196.85
533.67	54866.84
533.84	55082.17
534.01	55157.06
534.18	55306.86
534.35	55629.85
534.52	55356.01
534.69	55601.77
534.86	55653.26
535.03	55561.98
535.20	55482.40
535.37	55529.21
535.54	55648.58
535.71	55590.06
535.88	55903.70
536.05	56034.77
536.22	55992.64
536.38	55814.76
536.55	55849.86
536.72	55924.76
536.89	55784.33
537.06	55938.80
537.23	56301.59
537.40	55870.93
537.57	55845.18
537.74	55994.98
537.91	56158.81
538.08	56142.43
538.25	55702.41
538.42	56388.19
538.59	56437.34
538.75	56011.36
538.92	56362.44
539.09	56423.29
539.26	56303.93
539.43	56355.42
539.60	56545.00
539.77	56622.24
539.94	56685.43
540.11	56662.03
540.28	56987.36
540.44	56650.33
540.61	56657.35
540.78	56736.93
540.95	56652.67
541.12	56535.64
541.29	56783.74
541.46	56762.67
541.62	56868.00
541.79	57003.75
541.96	56664.37
542.13	56832.89
542.30	56860.97
542.47	57141.84
542.63	56938.21
542.80	57212.06
542.97	57230.78
543.14	57495.26
543.31	57455.47
543.48	57511.64
543.64	57675.48
543.81	57525.69
543.98	57876.77
544.15	57497.60
544.32	57642.71
544.48	57921.24
544.65	57542.07
544.82	57598.24
544.99	57518.67
545.16	57804.21
545.32	57595.90
545.49	57970.39
545.66	57979.75
545.83	57982.09
546.00	58089.76
546.16	57860.38
546.33	57874.43
546.50	57806.55
546.67	57998.48
546.83	57766.76
547.00	58080.39
547.17	58244.23
547.34	57942.30
547.50	57972.73
547.67	58232.53
547.84	58333.17
548.00	58389.34
548.17	58543.82
548.34	58295.72
548.51	58429.13
548.67	58445.52
548.84	58480.63
549.01	58553.18
549.18	58356.58
549.34	58560.20
549.51	58553.18
549.68	58625.74
549.84	58665.53
550.01	58857.45
550.18	58508.71
550.34	58569.57
550.51	58805.96
550.68	58635.10
550.84	58438.50
551.01	58733.40
551.18	58698.30
551.34	58695.95
551.51	58787.24
551.68	58857.45
551.84	58939.37
552.01	58862.13
552.18	59018.95
552.34	58714.68
552.51	58976.82
552.68	58733.40
552.84	58983.84
553.01	59180.45
553.18	58981.50
553.34	58920.65
553.51	59004.91
553.67	59152.36
553.84	59206.19
554.01	59245.98
554.17	59299.81
554.34	59554.93
554.51	59206.19
554.67	59678.98
554.84	59241.30
555.00	59248.32
555.17	59278.75
555.33	59224.92
555.50	59164.06
555.67	59068.10
555.83	59302.15
556.00	59374.71
556.16	59760.90
556.33	59475.35
556.50	59601.74
556.66	59561.95
556.83	59203.85
556.99	59707.07
557.16	59714.09
557.32	59716.43
557.49	59774.94
557.65	59559.61
557.82	59505.78
557.98	59735.15
558.15	59522.16
558.32	59777.28
558.48	59786.64
558.65	59590.04
558.81	59716.43
558.98	59903.67
559.14	59845.16
559.31	59959.84
559.47	59828.77
559.64	59805.37
559.80	59901.33
559.97	60109.64
560.13	59877.93
560.30	59929.42
560.46	60069.85
560.63	59976.23
560.79	59969.21
560.96	60100.28
561.12	60104.96
561.29	60079.21
561.45	59927.08
561.61	60186.88
561.78	59992.61
561.94	59941.12
562.11	60121.34
562.27	60074.53
562.44	60196.24
562.60	60196.24
562.77	60062.83
562.93	60137.72
563.10	60175.17
563.26	60046.44
563.42	60231.35
563.59	60184.54
563.75	60186.88
563.92	60360.08
564.08	60353.05
564.24	60413.91
564.41	60402.21
564.57	60542.64
564.74	60367.10
564.90	60378.80
565.07	60409.23
565.23	60418.59
565.39	60343.69
565.56	60544.98
565.72	60350.71
565.88	60322.63
566.05	60556.68
566.21	60540.30
566.38	60509.87
566.54	60622.22
566.70	60669.03
566.87	60589.45
567.03	60350.71
567.19	60650.30
567.36	60446.68
567.52	60427.95
567.68	60860.95
567.85	60505.19
568.01	60825.84
568.17	60645.62
568.34	60727.54
568.50	60523.91
568.66	60381.14
568.83	60591.79
568.99	60444.33
569.15	60657.32
569.32	60584.77
569.48	60544.98
569.64	60879.67
569.81	60753.29
569.97	60704.13
570.13	60762.65
570.30	60425.61
570.46	60851.59
570.62	60816.48
570.78	60921.80
570.95	60757.97
571.11	61055.21
571.27	60657.32
571.43	60863.29
571.60	60982.66
571.76	60772.01
571.92	60921.80
572.09	60779.03
572.25	60713.50
572.41	60821.16
572.57	60886.70
572.74	61034.15
572.90	60781.37
573.06	60893.72
573.22	60722.86
573.38	60729.88
573.55	60912.44
573.71	60973.30
573.87	60924.14
574.03	60870.31
574.20	61048.19
574.36	61186.28
574.52	60966.27
574.68	60945.21
574.84	61146.50
575.01	60872.65
575.17	60959.25
575.33	60713.50
575.49	60743.92
575.65	61048.19
575.82	61057.56
575.98	60973.30
576.14	61190.97
576.30	60865.63
576.46	61139.47
576.62	60968.61
576.79	60886.70
576.95	60900.74
577.11	61085.64
577.27	61275.22
577.43	61087.98
577.59	60903.08
577.75	60963.93
577.92	60970.96
578.08	60947.55
578.24	61059.90
578.40	61230.75
578.56	61090.32
578.72	61080.96
578.88	61151.18
579.04	61186.28
579.21	60935.85
579.37	61312.67
579.53	61195.65
579.69	61183.94
579.85	61195.65
580.01	61043.51
580.17	60968.61
580.33	61336.08
580.49	61137.13
580.65	60992.02
580.82	61333.74
580.98	60886.70
581.14	61031.81
581.30	61015.43
581.46	61190.97
581.62	61169.90
581.78	61029.47
581.94	61148.84
582.10	61237.78
582.26	61279.91
582.42	61111.39
582.58	61249.48
582.74	61151.18
582.90	61153.52
583.06	61087.98
583.22	61240.12
583.38	61041.17
583.54	61181.60
583.70	61209.69
583.86	61279.91
584.02	60945.21
584.18	61256.50
584.34	61190.97
584.50	61284.59
584.66	60865.63
584.82	61048.19
584.98	61174.58
585.14	61366.51
585.30	61179.26
585.46	61109.05
585.62	61183.94
585.78	61268.20
585.94	61155.86
586.10	61104.37
586.26	61277.57
586.42	61315.01
586.58	61153.52
586.74	61464.81
586.90	61066.92
587.06	61317.35
587.22	61364.17
587.38	61293.95
587.54	61406.30
587.70	61415.66
587.86	61329.06
588.02	61319.70
588.18	61272.88
588.34	61221.39
588.49	61307.99
