SpectraSuite Data File
++++++++++++++++++++++++++++++++++++
Date: Fri Oct 25 10:43:38 EDT 2013
User: price-jones
Dark Spectrum Present: No
Reference Spectrum Present: No
Number of Sampled Component Spectra: 1
Spectrometers: USB2+H05261
Integration Time (usec): 100000 (USB2+H05261)
Spectra Averaged: 1 (USB2+H05261)
Boxcar Smoothing: 0 (USB2+H05261)
Correct for Electrical Dark: No (USB2+H05261)
Strobe/Lamp Enabled: No (USB2+H05261)
Correct for Detector Non-linearity: No (USB2+H05261)
Correct for Stray Light: No (USB2+H05261)
Number of Pixels in Processed Spectrum: 2048
>>>>>Begin Processed Spectral Data<<<<<
365.73	138.09
365.92	138.09
366.12	138.09
366.32	39.79
366.52	11.70
366.72	60.85
366.91	0.00
367.11	9.36
367.31	39.79
367.51	23.41
367.70	58.51
367.90	0.00
368.10	0.00
368.30	56.17
368.49	81.92
368.69	23.41
368.89	0.00
369.09	18.72
369.28	98.30
369.48	72.56
369.68	30.43
369.87	93.62
370.07	88.94
370.27	126.39
370.47	205.97
370.66	407.25
370.86	430.66
371.06	454.06
371.25	477.47
371.45	484.49
371.65	472.79
371.84	463.43
372.04	479.81
372.24	458.74
372.44	395.55
372.63	449.38
372.83	489.17
373.03	519.60
373.22	510.24
373.42	484.49
373.62	543.00
373.81	493.85
374.01	620.24
374.21	545.34
374.40	582.79
374.60	606.20
374.79	575.77
374.99	561.73
375.19	615.56
375.38	603.86
375.58	599.18
375.78	734.93
375.97	662.37
376.17	645.99
376.37	599.18
376.56	622.58
376.76	596.84
376.95	571.09
377.15	615.56
377.35	524.28
377.54	622.58
377.74	657.69
377.93	699.82
378.13	582.79
378.33	634.29
378.52	692.80
378.72	627.26
378.91	631.94
379.11	671.73
379.31	650.67
379.50	603.86
379.70	697.48
379.89	727.91
380.09	732.59
380.28	669.39
380.48	746.63
380.68	758.33
380.87	711.52
381.07	697.48
381.26	812.17
381.46	664.71
381.65	674.07
381.85	638.97
382.04	669.39
382.24	702.16
382.43	751.31
382.63	704.50
382.83	709.18
383.02	774.72
383.22	788.76
383.41	706.84
383.61	709.18
383.80	772.38
384.00	781.74
384.19	802.80
384.39	770.04
384.58	807.48
384.78	800.46
384.97	802.80
385.17	812.17
385.36	842.59
385.56	809.83
385.75	802.80
385.95	889.40
386.14	873.02
386.34	828.55
386.53	795.78
386.72	767.70
386.92	898.77
387.11	896.43
387.31	875.36
387.50	884.72
387.70	917.49
387.89	880.04
388.09	823.87
388.28	849.61
388.48	917.49
388.67	863.66
388.86	922.17
389.06	1008.77
389.25	978.34
389.45	973.66
389.64	990.05
389.84	1060.26
390.03	950.26
390.22	1078.99
390.42	957.28
390.61	994.73
390.81	1011.11
391.00	1067.28
391.19	973.66
391.39	1001.75
391.58	1048.56
391.78	1156.22
391.97	1121.12
392.16	985.37
392.36	1083.67
392.55	1088.35
392.75	957.28
392.94	980.68
393.13	1011.11
393.33	1104.73
393.52	1114.10
393.71	1095.37
393.91	1064.94
394.10	1107.07
394.29	1135.16
394.49	1090.69
394.68	1193.67
394.88	1256.87
395.07	1259.21
395.26	1188.99
395.46	1364.53
395.65	1350.49
395.84	1181.97
396.04	1273.25
396.23	1184.31
396.42	1247.51
396.62	1207.72
396.81	1109.41
397.00	1235.80
397.19	1266.23
397.39	1324.74
397.58	1338.79
397.77	1390.28
397.97	1441.77
398.16	1310.70
398.35	1441.77
398.55	1455.81
398.74	1495.60
398.93	1584.54
399.12	1521.35
399.32	1523.69
399.51	1495.60
399.70	1600.93
399.90	1483.90
400.09	1593.90
400.28	1650.08
400.47	1645.40
400.67	1579.86
400.86	1626.67
401.05	1657.10
401.24	1736.68
401.44	1743.70
401.63	1717.95
401.82	1680.50
402.01	1680.50
402.21	1666.46
402.40	1776.47
402.59	1734.34
402.78	1764.76
402.97	1767.10
403.17	1699.23
403.36	1816.26
403.55	1811.57
403.74	1842.00
403.93	1834.98
404.13	1926.26
404.32	1856.04
404.51	1982.43
404.70	1942.64
404.89	2003.50
405.09	1942.64
405.28	1940.30
405.47	1977.75
405.66	1970.73
405.85	2015.20
406.05	2038.61
406.24	1987.11
406.43	2122.87
406.62	2038.61
406.81	2204.78
407.00	2092.44
407.20	1975.41
407.39	2024.56
407.58	2190.74
407.77	2172.02
407.96	2139.25
408.15	2193.08
408.34	2263.30
408.54	2270.32
408.73	2319.47
408.92	2338.20
409.11	2396.71
409.30	2326.49
409.49	2293.72
409.68	2305.43
409.87	2267.98
410.07	2436.50
410.26	2340.54
410.45	2560.55
410.64	2466.92
410.83	2537.14
411.02	2504.37
411.21	2509.05
411.40	2523.10
411.59	2565.23
411.78	2656.51
411.98	2663.53
412.17	2656.51
412.36	2602.68
412.55	2717.36
412.74	2731.41
412.93	2731.41
413.12	2785.24
413.31	2897.58
413.50	2766.51
413.69	2834.39
413.88	2972.48
414.07	2960.78
414.26	3009.93
414.45	3023.97
414.64	2953.76
414.83	2920.99
415.02	3026.31
415.22	3009.93
415.41	3166.74
415.60	3129.30
415.79	3215.90
415.98	3229.94
416.17	3356.33
416.36	3272.07
416.55	3255.69
416.74	3276.75
416.93	3424.20
417.12	3428.88
417.31	3314.20
417.50	3311.86
417.69	3517.83
417.88	3590.38
418.07	3424.20
418.26	3414.84
418.45	3478.04
418.64	3651.24
418.83	3644.21
419.02	3644.21
419.21	3658.26
419.39	3660.60
419.58	3548.25
419.77	3595.06
419.96	3623.15
420.15	3822.09
420.34	3751.88
420.53	3784.65
420.72	3831.46
420.91	3861.88
421.10	3941.46
421.29	3794.01
421.48	3777.62
421.67	3908.69
421.86	3845.50
422.05	3885.29
422.24	3751.88
422.43	3822.09
422.61	3843.16
422.80	3861.88
422.99	3875.93
423.18	3974.23
423.37	3997.64
423.56	3927.42
423.75	3990.61
423.94	3892.31
424.13	3723.79
424.32	3794.01
424.50	3934.44
424.69	4201.26
424.88	3995.29
425.07	3953.16
425.26	3953.16
425.45	3950.82
425.64	3943.80
425.83	3934.44
426.01	3990.61
426.20	4088.92
426.39	4072.53
426.58	4070.19
426.77	4018.70
426.96	3946.14
427.15	3911.04
427.33	4063.17
427.52	4180.20
427.71	4198.92
427.90	4203.60
428.09	4234.03
428.28	4222.33
428.46	4177.86
428.65	4135.73
428.84	4236.37
429.03	4222.33
429.22	4060.83
429.40	4264.46
429.59	4182.54
429.78	4046.79
429.97	3920.40
430.16	3957.85
430.34	4102.96
430.53	4278.50
430.72	4283.18
430.91	4339.35
431.10	4119.34
431.28	4650.64
431.47	4840.23
431.66	4812.14
431.85	4664.69
432.03	4552.34
432.22	4648.30
432.41	4695.11
432.60	4730.22
432.79	4718.52
432.97	4774.69
433.16	4858.95
433.35	4564.04
433.54	4793.42
433.72	4830.87
433.91	4880.02
434.10	4861.29
434.28	4978.32
434.47	4973.64
434.66	4910.44
434.85	4903.42
435.03	4936.19
435.22	4873.00
435.41	5111.73
435.59	5144.50
435.78	5186.63
435.97	5273.23
436.16	5156.20
436.34	5121.09
436.53	5200.67
436.72	5298.97
436.90	4973.64
437.09	5170.24
437.28	5114.07
437.46	5069.60
437.65	5294.29
437.84	5282.59
438.02	5172.58
438.21	5331.74
438.40	5142.16
438.58	5376.21
438.77	5444.09
438.96	5446.43
439.14	5631.33
439.33	5657.07
439.52	5713.25
439.70	5628.99
439.89	5699.20
440.08	5715.59
440.26	5638.35
440.45	5636.01
440.63	5849.00
440.82	5849.00
441.01	5968.37
441.19	6106.46
441.38	6188.38
441.57	6139.23
441.75	6101.78
441.94	6274.98
442.12	6546.48
442.31	6251.57
442.50	6382.64
442.68	6319.45
442.87	6289.02
443.05	6478.60
443.24	6586.27
443.43	6438.81
443.61	6361.58
443.80	6773.51
443.98	6368.60
444.17	6258.59
444.35	6366.26
444.54	6771.17
444.73	6464.56
444.91	6504.35
445.10	6487.96
445.28	6553.50
445.47	6413.07
445.65	6593.29
445.84	6513.71
446.02	6656.48
446.21	6705.63
446.39	6551.16
446.58	6764.15
446.77	6668.19
446.95	6696.27
447.14	6757.13
447.32	6813.30
447.51	6801.60
447.69	6810.96
447.88	6567.54
448.06	6707.98
448.25	6799.26
448.43	6775.85
448.62	6691.59
448.80	6913.94
448.99	6768.83
449.17	6892.88
449.36	6834.36
449.54	6953.73
449.73	7162.04
449.91	7180.76
450.10	7389.07
450.28	7400.77
450.46	7370.35
450.65	7293.11
450.83	7159.70
451.02	7260.34
451.20	7265.02
451.39	7307.15
451.57	7180.76
451.76	7150.34
451.94	7234.60
452.13	7297.79
452.31	7084.80
452.49	7103.53
452.68	7307.15
452.86	7274.38
453.05	7492.05
453.23	7433.54
453.42	7417.16
453.60	7332.90
453.78	7473.33
453.97	7243.96
454.15	7307.15
454.34	7433.54
454.52	7721.43
454.70	7609.08
454.89	7653.55
455.07	7756.54
455.26	7819.73
455.44	7761.22
455.62	7737.81
455.81	7623.12
455.99	7786.96
456.17	7859.52
456.36	7840.79
456.54	8121.66
456.73	8121.66
456.91	8372.10
457.09	8128.68
457.28	8180.17
457.46	8028.04
457.64	8334.65
457.83	8081.87
458.01	8049.10
458.19	8196.56
458.38	8105.28
458.56	8383.80
458.74	8283.16
458.93	8266.77
459.11	8425.93
459.29	8353.37
459.48	8409.54
459.66	8428.27
459.84	8479.76
460.03	8512.53
460.21	8575.72
460.39	8648.28
460.57	8439.97
460.76	8711.47
460.94	8702.11
461.12	8702.11
461.31	8500.83
461.49	8627.21
461.67	8596.79
461.85	8875.31
462.04	8800.41
462.22	9242.78
462.40	9004.04
462.59	9011.06
462.77	8882.33
462.95	8879.99
463.13	9071.92
463.32	8821.48
463.50	9046.17
463.68	8990.00
463.86	9142.13
464.05	8990.00
464.23	9151.49
464.41	9100.00
464.59	8987.66
464.78	9195.96
464.96	9317.67
465.14	8931.48
465.32	9191.28
465.50	9411.29
465.69	9401.93
465.87	9226.39
466.05	9125.75
466.23	9135.11
466.41	9118.73
466.60	9474.49
466.78	9289.59
466.96	9324.69
467.14	9540.02
467.32	9673.43
467.51	9577.47
467.69	9228.73
467.87	9586.83
468.05	9624.28
468.23	9631.30
468.41	9504.92
468.60	9643.01
468.78	9593.86
468.96	9685.14
469.14	9764.72
469.32	9834.93
469.50	9472.15
469.69	9675.77
469.87	9830.25
470.05	9806.84
470.23	9781.10
470.41	9963.66
470.59	10064.30
470.77	9984.73
470.95	9984.73
471.14	10139.20
471.32	10097.07
471.50	10450.49
471.68	10450.49
471.86	10181.33
472.04	10335.81
472.22	10691.57
472.40	10363.89
472.58	10218.78
472.77	10567.52
472.95	10523.05
473.13	10949.03
473.31	10597.95
473.49	10595.61
473.67	10689.23
473.85	10623.69
474.03	10832.00
474.21	11265.00
474.39	11173.72
474.57	11073.07
474.75	11243.93
474.93	11265.00
475.12	11094.14
475.30	11426.50
475.48	11199.46
475.66	11248.61
475.84	11466.28
476.02	11365.64
476.20	11454.58
476.38	11822.05
476.56	11932.05
476.74	11847.79
476.92	11880.56
477.10	12255.04
477.28	12079.50
477.46	12173.13
477.64	12503.14
477.82	12215.26
478.00	12793.37
478.18	12556.97
478.36	12636.55
478.54	12786.35
478.72	12865.92
478.90	13041.46
479.08	13006.36
479.26	13319.99
479.44	13001.68
479.62	13352.76
479.80	13668.73
479.98	13853.63
480.16	13612.56
480.34	13741.29
480.52	13858.31
480.70	13818.52
480.88	13832.57
481.06	13893.42
481.24	13884.06
481.41	14448.13
481.59	14593.24
481.77	14682.18
481.95	14403.66
482.13	14857.72
482.31	14665.80
482.49	15094.11
482.67	14829.63
482.85	15119.86
483.03	15314.13
483.21	15487.32
483.39	15524.77
483.57	15393.70
483.74	15585.63
483.92	15709.68
484.10	15655.84
484.28	16046.71
484.46	16121.61
484.64	16355.66
484.82	15985.86
485.00	16327.58
485.18	16634.19
485.35	16737.17
485.53	16397.79
485.71	16093.52
485.89	16788.66
486.07	16526.52
486.25	16582.70
486.43	17121.02
486.61	17273.15
486.78	17415.93
486.96	17635.94
487.14	18059.57
487.32	17678.07
487.50	18054.89
487.68	18150.85
487.85	18370.86
488.03	18438.74
488.21	18925.57
488.39	18513.64
488.57	19058.98
488.75	18939.62
488.92	19246.23
489.10	19267.29
489.28	19719.01
489.46	19875.83
489.64	19613.69
489.81	20053.71
489.99	20252.66
490.17	20208.19
490.35	20470.33
490.53	20449.26
490.70	20891.62
490.88	20673.95
491.06	21048.44
491.24	21074.18
491.41	20875.24
491.59	21018.01
491.77	20886.94
491.95	20865.88
492.13	21465.05
492.30	21654.64
492.48	21734.21
492.66	21869.97
492.84	22094.66
493.01	22607.23
493.19	22150.83
493.37	22197.64
493.54	22354.46
493.72	22766.39
493.90	22679.79
494.08	22843.63
494.25	23218.11
494.43	23129.17
494.61	23730.69
494.79	23714.31
494.96	23468.55
495.14	23765.80
495.32	23740.05
495.49	23915.59
495.67	23950.70
495.85	24219.86
496.02	24301.78
496.20	24587.33
496.38	24599.03
496.55	24643.50
496.73	25179.48
496.91	24999.26
497.09	24912.66
497.26	25245.02
497.44	24800.32
497.62	25050.75
497.79	25289.49
497.97	25172.46
498.14	25532.90
498.32	25652.27
498.50	25614.82
498.67	26029.10
498.85	26319.32
499.03	26331.03
499.20	26492.52
499.38	26916.16
499.56	26515.93
499.73	26443.37
499.91	26845.94
500.08	26679.77
500.26	26228.04
500.44	26670.40
500.61	26778.07
500.79	26913.82
500.97	26902.12
501.14	27356.18
501.32	27318.73
501.49	26967.65
501.67	27213.41
501.84	27620.66
502.02	27632.36
502.20	28027.92
502.37	27981.10
502.55	27632.36
502.72	28526.45
502.90	28318.14
503.07	27992.81
503.25	28376.66
503.43	27978.76
503.60	28470.28
503.78	28091.11
503.95	28079.41
504.13	28451.55
504.30	28723.05
504.48	28713.69
504.65	28849.44
504.83	29441.60
505.01	29376.06
505.18	29081.16
505.36	29469.69
505.53	29549.26
505.71	29603.10
505.88	29830.13
506.06	29876.94
506.23	29778.64
506.41	29759.91
506.58	30178.87
506.76	30543.99
506.93	30242.06
507.11	29820.77
507.28	29886.30
507.46	30441.01
507.63	30101.63
507.81	30506.54
507.98	30480.80
508.16	30707.83
508.33	30965.29
508.50	31381.90
508.68	31138.49
508.85	31255.51
509.03	30946.56
509.20	31283.60
509.38	31620.64
509.55	31557.44
509.73	31653.40
509.90	31482.55
510.08	31545.74
510.25	31775.11
510.42	31775.11
510.60	31901.50
510.77	31866.39
510.95	32154.28
511.12	32175.34
511.30	32580.26
511.47	32261.94
511.64	32650.47
511.82	32545.15
511.99	32570.90
512.17	32514.72
512.34	32613.02
512.51	32758.14
512.69	32500.68
512.86	32779.20
513.04	33233.27
513.21	33291.78
513.38	33158.37
513.56	33141.99
513.73	33071.77
513.90	33392.42
514.08	33549.24
514.25	33659.24
514.43	33413.49
514.60	33427.53
514.77	33350.29
514.95	33862.87
515.12	33912.02
515.29	33926.07
515.47	34401.19
515.64	34110.97
515.81	34162.46
515.99	33965.85
516.16	33942.45
516.33	33972.88
516.51	34066.50
516.68	33085.81
516.85	33975.22
517.03	34043.09
517.20	33771.59
517.37	34272.46
517.54	35014.41
517.72	34314.59
517.89	34183.52
518.06	34298.21
518.24	34490.13
518.41	34749.93
518.58	34775.68
518.75	34583.76
518.93	35065.91
519.10	34565.03
519.27	35477.84
519.45	35407.62
519.62	35512.95
519.79	35508.27
519.96	35468.48
520.14	35679.13
520.31	35566.78
520.48	35543.38
520.65	36095.74
520.83	36149.57
521.00	35899.14
521.17	35587.85
521.34	36374.27
521.52	36297.03
521.69	36343.84
521.86	36547.47
522.03	36266.60
522.20	36519.38
522.38	35922.54
522.55	36833.01
522.72	36580.23
522.89	36114.47
523.07	36837.69
523.24	36402.35
523.41	37076.43
523.58	36657.47
523.75	37275.37
523.92	37200.47
524.10	37706.03
524.27	37584.32
524.44	37053.02
524.61	37502.40
524.78	37291.76
524.96	37497.72
525.13	37713.05
525.30	37895.61
525.47	37869.87
525.64	37998.60
525.81	37909.66
525.98	37654.54
526.16	37429.85
526.33	37460.27
526.50	37713.05
526.67	37490.70
526.84	37509.43
527.01	37867.53
527.18	37607.73
527.36	38033.71
527.53	38658.63
527.70	38436.28
527.87	38476.07
528.04	38181.16
528.21	38969.92
528.38	38705.44
528.55	39105.67
528.72	38974.60
528.89	39466.11
529.07	38934.81
529.24	38515.86
529.41	39035.45
529.58	38951.20
529.75	39210.99
529.92	39316.32
530.09	39203.97
530.26	39421.64
530.43	39297.59
530.60	39349.09
530.77	39173.55
530.94	39791.45
531.11	39690.80
531.28	39276.53
531.46	39824.22
531.63	39658.04
531.80	39508.24
531.97	39590.16
532.14	39377.17
532.31	39533.99
532.48	39349.09
532.65	39662.72
532.82	39445.05
532.99	40027.84
533.16	39737.62
533.33	40109.76
533.50	40596.59
533.67	40172.96
533.84	39917.84
534.01	40231.47
534.18	40247.85
534.35	40203.38
534.52	40236.15
534.69	40598.93
534.86	40879.80
535.03	40512.33
535.20	41153.64
535.37	40797.88
535.54	40832.99
535.71	40896.18
535.88	41060.02
536.05	40907.88
536.22	41027.25
536.38	40987.46
536.55	40905.54
536.72	40914.90
536.89	40369.56
537.06	40830.65
537.23	41539.83
537.40	40868.09
537.57	40697.24
537.74	40914.90
537.91	41801.97
538.08	41698.98
538.25	41053.00
538.42	41855.80
538.59	41537.49
538.75	41113.85
538.92	41818.35
539.09	41691.96
539.26	41560.89
539.43	41612.38
539.60	41455.57
539.77	41401.74
539.94	41518.76
540.11	41537.49
540.28	41717.71
540.44	42162.41
540.61	41848.78
540.78	41729.41
540.95	41565.57
541.12	41801.97
541.29	41883.89
541.46	42087.51
541.62	41930.70
541.79	42134.32
541.96	41839.42
542.13	42211.56
542.30	42045.38
542.47	42157.73
542.63	42256.03
542.80	42213.90
542.97	42745.20
543.14	42780.31
543.31	42733.50
543.48	42562.64
543.64	43154.80
543.81	43154.80
543.98	42852.87
544.15	43044.79
544.32	42976.92
544.48	43318.64
544.65	43377.15
544.82	42796.70
544.99	42855.21
545.16	42761.59
545.32	42583.71
545.49	43536.30
545.66	43360.76
545.83	43311.61
546.00	43643.97
546.16	43433.32
546.33	43227.35
546.50	43267.14
546.67	43526.94
546.83	43264.80
547.00	43494.18
547.17	43311.61
547.34	42925.42
547.50	43571.41
547.67	43665.03
547.84	43658.01
548.00	43831.21
548.17	43779.72
548.34	43824.19
548.51	44460.82
548.67	44397.62
548.84	44142.50
549.01	43526.94
549.18	43812.49
549.34	44135.48
549.51	44083.99
549.68	44322.72
549.84	44086.33
550.01	44069.95
550.18	43863.98
550.34	43983.35
550.51	44563.80
550.68	44334.43
550.84	43665.03
551.01	44411.67
551.18	44629.34
551.34	43718.87
551.51	44472.52
551.68	44594.23
551.84	44261.87
552.01	44533.37
552.18	44037.18
552.34	44109.74
552.51	44325.07
552.68	44619.97
552.84	44727.64
553.01	44385.92
553.18	44421.03
553.34	44449.11
553.51	44769.77
553.67	44821.26
553.84	45055.31
554.01	44886.79
554.17	44814.24
554.34	44868.07
554.51	44765.09
554.67	45111.49
554.84	45141.91
555.00	44935.95
555.17	44598.91
555.33	44931.26
555.50	45036.59
555.67	44900.84
555.83	44809.56
556.00	44992.12
556.16	45064.67
556.33	44650.40
556.50	44949.99
556.66	45202.77
556.83	44645.72
556.99	45155.96
557.16	45462.57
557.32	45280.00
557.49	45382.99
557.65	45160.64
557.82	44999.14
557.98	44973.39
558.15	45071.70
558.32	45181.70
558.48	44626.99
558.65	45162.98
558.81	45130.21
558.98	45258.94
559.14	45326.81
559.31	45170.00
559.47	45280.00
559.64	45399.37
559.80	45474.27
559.97	45546.82
560.13	45684.92
560.30	45317.45
560.46	45659.17
560.63	45518.74
560.79	45837.05
560.96	45497.67
561.12	45705.98
561.29	45003.82
561.45	45106.80
561.61	45352.56
561.78	45134.89
561.94	45530.44
562.11	45464.91
562.27	45467.25
562.44	45399.37
562.60	45598.32
562.77	45624.06
562.93	45675.55
563.10	45762.15
563.26	45455.54
563.42	45869.82
563.59	45713.00
563.75	45633.42
563.92	45963.44
564.08	45722.37
564.24	45605.34
564.41	45872.16
564.57	45902.59
564.74	45607.68
564.90	45799.60
565.07	45652.15
565.23	45371.28
565.39	45787.90
565.56	45675.55
565.72	45654.49
565.88	45598.32
566.05	45694.28
566.21	45621.72
566.38	45958.76
566.54	46040.68
566.70	46115.58
566.87	46363.67
567.03	46024.29
567.19	46078.13
567.36	46101.53
567.52	46188.13
567.68	46115.58
567.85	45940.04
568.01	46183.45
568.17	46164.73
568.34	46356.65
568.50	45804.28
568.66	46068.76
568.83	46375.37
568.99	45806.62
569.15	45762.15
569.32	45914.29
569.48	45825.35
569.64	46230.26
569.81	45815.99
569.97	45874.50
570.13	46078.13
570.30	45556.19
570.46	45359.58
570.62	45404.05
570.78	45347.88
570.95	45745.77
571.11	45844.07
571.27	46178.77
571.43	46078.13
571.60	46141.32
571.76	46043.02
571.92	45893.22
572.09	46340.27
572.25	46330.90
572.41	46115.58
572.57	46157.70
572.74	46967.53
572.90	46080.47
573.06	46256.01
573.22	46644.54
573.38	46192.81
573.55	45890.88
573.71	46681.98
573.87	46408.14
574.03	45961.10
574.20	46127.28
574.36	45855.78
574.52	46349.63
574.68	46038.34
574.84	46375.37
575.01	46178.77
575.17	46045.36
575.33	45909.61
575.49	45617.04
575.65	46492.40
575.82	46108.55
575.98	46005.57
576.14	46272.39
576.30	46394.10
576.46	46277.07
576.62	46064.08
576.79	45839.39
576.95	45785.56
577.11	46094.51
577.27	46373.03
577.43	46183.45
577.59	45909.61
577.75	46272.39
577.92	45249.58
578.08	45448.52
578.24	45883.86
578.40	45942.38
578.56	46358.99
578.72	45991.53
578.88	46377.72
579.04	46188.13
579.21	45764.49
579.37	46363.67
579.53	45907.27
579.69	46223.24
579.85	45881.52
580.01	46363.67
580.17	46066.42
580.33	45839.39
580.49	46085.15
580.65	46246.65
580.82	46464.32
580.98	46258.35
581.14	46007.91
581.30	46326.22
581.46	46253.67
581.62	46033.66
581.78	45996.21
581.94	46178.77
582.10	46536.87
582.26	46384.74
582.42	46092.17
582.58	46454.95
582.74	45776.20
582.90	46220.90
583.06	46883.27
583.22	46459.63
583.38	46248.99
583.54	46366.01
583.70	46319.20
583.86	46384.74
584.02	46183.45
584.18	46602.41
584.34	46607.09
584.50	46085.15
584.66	46103.87
584.82	46300.48
584.98	46293.46
585.14	46511.13
585.30	46113.23
585.46	46443.25
585.62	45940.04
585.78	46216.22
585.94	46033.66
586.10	46047.70
586.26	45956.42
586.42	46918.38
586.58	46944.12
586.74	45869.82
586.90	46663.26
587.06	46213.88
587.22	46138.98
587.38	45827.69
587.54	46433.89
587.70	46644.54
587.86	46344.95
588.02	46508.79
588.18	46464.32
588.34	45790.24
588.49	45773.86
588.65	45635.77
588.81	46038.34
588.97	45874.50
589.13	45911.95
589.29	46394.10
589.45	46382.40
589.61	46005.57
589.77	46380.06
589.93	46681.98
