SpectraSuite Data File
++++++++++++++++++++++++++++++++++++
Date: Fri Oct 25 10:43:53 EDT 2013
User: price-jones
Dark Spectrum Present: No
Reference Spectrum Present: No
Number of Sampled Component Spectra: 1
Spectrometers: USB2+H05261
Integration Time (usec): 100000 (USB2+H05261)
Spectra Averaged: 1 (USB2+H05261)
Boxcar Smoothing: 0 (USB2+H05261)
Correct for Electrical Dark: No (USB2+H05261)
Strobe/Lamp Enabled: No (USB2+H05261)
Correct for Detector Non-linearity: No (USB2+H05261)
Correct for Stray Light: No (USB2+H05261)
Number of Pixels in Processed Spectrum: 2048
>>>>>Begin Processed Spectral Data<<<<<
365.73	86.60
365.92	86.60
366.12	86.60
366.32	0.00
366.52	0.00
366.72	51.49
366.91	14.04
367.11	74.90
367.31	67.88
367.51	39.79
367.70	0.00
367.90	105.32
368.10	58.51
368.30	25.75
368.49	0.00
368.69	72.56
368.89	79.58
369.09	39.79
369.28	39.79
369.48	42.13
369.68	25.75
369.87	63.19
370.07	91.28
370.27	131.07
370.47	147.45
370.66	404.91
370.86	400.23
371.06	517.26
371.25	456.40
371.45	390.87
371.65	447.04
371.84	468.11
372.04	496.19
372.24	526.62
372.44	512.58
372.63	484.49
372.83	463.43
373.03	477.47
373.22	482.15
373.42	524.28
373.62	503.22
373.81	627.26
374.01	573.43
374.21	561.73
374.40	517.26
374.60	552.37
374.79	587.47
374.99	526.62
375.19	634.29
375.38	580.45
375.58	585.13
375.78	685.78
375.97	678.76
376.17	638.97
376.37	638.97
376.56	660.03
376.76	615.56
376.95	624.92
377.15	685.78
377.35	723.23
377.54	723.23
377.74	613.22
377.93	634.29
378.13	671.73
378.33	688.12
378.52	622.58
378.72	737.27
378.91	641.31
379.11	622.58
379.31	617.90
379.50	678.76
379.70	622.58
379.89	709.18
380.09	699.82
380.28	748.97
380.48	732.59
380.68	720.88
380.87	713.86
381.07	692.80
381.26	837.91
381.46	791.10
381.65	748.97
381.85	685.78
382.04	753.65
382.24	765.36
382.43	746.63
382.63	739.61
382.83	777.06
383.02	720.88
383.22	851.96
383.41	758.33
383.61	795.78
383.80	791.10
384.00	816.85
384.19	821.53
384.39	795.78
384.58	917.49
384.78	922.17
384.97	823.87
385.17	807.48
385.36	763.01
385.56	858.98
385.75	873.02
385.95	800.46
386.14	791.10
386.34	884.72
386.53	891.74
386.72	870.68
386.92	851.96
387.11	851.96
387.31	919.83
387.50	854.30
387.70	947.92
387.89	847.27
388.09	919.83
388.28	816.85
388.48	931.53
388.67	976.00
388.86	968.98
389.06	987.71
389.25	903.45
389.45	964.30
389.64	1069.62
389.84	1043.88
390.03	985.37
390.22	1046.22
390.42	1043.88
390.61	990.05
390.81	1036.86
391.00	1114.10
391.19	1135.16
391.39	1069.62
391.58	1123.46
391.78	985.37
391.97	1142.18
392.16	1060.26
392.36	1064.94
392.55	1053.24
392.75	1004.09
392.94	1048.56
393.13	1048.56
393.33	968.98
393.52	1097.71
393.71	1046.22
393.91	1067.28
394.10	1149.20
394.29	1151.54
394.49	1193.67
394.68	1221.76
394.88	1191.33
395.07	1322.40
395.26	1301.34
395.46	1254.53
395.65	1315.38
395.84	1263.89
396.04	1252.19
396.23	1254.53
396.42	1228.78
396.62	1179.63
396.81	1224.10
397.00	1158.57
397.19	1266.23
397.39	1371.55
397.58	1413.68
397.77	1401.98
397.97	1444.11
398.16	1413.68
398.35	1507.30
398.55	1572.84
398.74	1537.73
398.93	1570.50
399.12	1453.47
399.32	1523.69
399.51	1626.67
399.70	1666.46
399.90	1629.01
400.09	1565.82
400.28	1589.22
400.47	1575.18
400.67	1680.50
400.86	1689.87
401.05	1685.19
401.24	1753.06
401.44	1872.43
401.63	1804.55
401.82	1694.55
402.01	1797.53
402.21	1926.26
402.40	1860.73
402.59	1727.32
402.78	1755.40
402.97	1788.17
403.17	1771.79
403.36	1900.52
403.55	1867.75
403.74	1949.67
403.93	1930.94
404.13	1914.56
404.32	1870.09
404.51	1874.77
404.70	1898.17
404.89	1996.48
405.09	2083.08
405.28	2003.50
405.47	2054.99
405.66	2010.52
405.85	2108.82
406.05	1961.37
406.24	2106.48
406.43	2186.06
406.62	2125.21
406.81	2162.66
407.00	2059.67
407.20	2054.99
407.39	2221.17
407.58	2197.76
407.77	2289.04
407.96	2291.38
408.15	2242.23
408.34	2366.28
408.54	2277.34
408.73	2406.07
408.92	2363.94
409.11	2347.56
409.30	2300.75
409.49	2448.20
409.68	2408.41
409.87	2385.01
410.07	2424.80
410.26	2417.77
410.45	2417.77
410.64	2576.93
410.83	2567.57
411.02	2644.81
411.21	2715.02
411.40	2623.74
411.59	2663.53
411.78	2658.85
411.98	2726.72
412.17	2768.85
412.36	2771.19
412.55	2843.75
412.74	2841.41
412.93	2883.54
413.12	2874.18
413.31	2953.76
413.50	2904.60
413.69	3045.04
413.88	3056.74
414.07	3009.93
414.26	3089.51
414.45	3150.36
414.64	2979.50
414.83	3096.53
415.02	3122.27
415.22	3173.77
415.41	3293.13
415.60	3302.50
415.79	3316.54
415.98	3251.00
416.17	3258.03
416.36	3267.39
416.55	3349.31
416.74	3365.69
416.93	3346.97
417.12	3410.16
417.31	3382.07
417.50	3482.72
417.69	3548.25
417.88	3480.38
418.07	3482.72
418.26	3508.46
418.45	3599.74
418.64	3815.07
418.83	3681.66
419.02	3667.62
419.21	3801.03
419.39	3791.67
419.58	3669.96
419.77	3658.26
419.96	3714.43
420.15	3660.60
420.34	3815.07
420.53	3822.09
420.72	4046.79
420.91	3955.51
421.10	3974.23
421.29	3915.72
421.48	3873.59
421.67	4042.11
421.86	3943.80
422.05	4058.49
422.24	3850.18
422.43	3861.88
422.61	4049.13
422.80	4187.22
422.99	4037.42
423.18	4039.76
423.37	4072.53
423.56	4051.47
423.75	3988.27
423.94	4042.11
424.13	3786.99
424.32	3822.09
424.50	4074.87
424.69	4056.15
424.88	4112.32
425.07	4079.55
425.26	4002.32
425.45	3964.87
425.64	4058.49
425.83	4187.22
426.01	4093.60
426.20	4138.07
426.39	4208.28
426.58	4189.56
426.77	3969.55
426.96	4131.05
427.15	4032.74
427.33	4152.11
427.52	4081.89
427.71	4255.09
427.90	4297.22
428.09	4252.75
428.28	4320.63
428.46	4236.37
428.65	4210.62
428.84	4320.63
429.03	4280.84
429.22	4203.60
429.40	4243.39
429.59	4236.37
429.78	3960.19
429.97	3946.14
430.16	4180.20
430.34	4236.37
430.53	4329.99
430.72	4416.59
430.91	4327.65
431.10	4575.75
431.28	4517.23
431.47	4753.63
431.66	4772.35
431.85	4751.29
432.03	4814.48
432.22	4655.33
432.41	4877.68
432.60	4821.50
432.79	4657.67
432.97	5076.62
433.16	5013.43
433.35	4856.61
433.54	4819.16
433.72	4940.87
433.91	4800.44
434.10	4873.00
434.28	4959.60
434.47	4884.70
434.66	5053.22
434.85	5170.24
435.03	5207.69
435.22	5097.69
435.41	5245.14
435.59	5203.01
435.78	5235.78
435.97	5165.56
436.16	5270.89
436.34	5273.23
436.53	5186.63
436.72	5270.89
436.90	5242.80
437.09	5334.08
437.28	5245.14
437.46	5252.16
437.65	5380.89
437.84	5366.85
438.02	5172.58
438.21	5439.40
438.40	5355.15
438.58	5444.09
438.77	5558.77
438.96	5603.24
439.14	5671.12
439.33	5806.87
439.52	5900.49
439.70	5626.65
439.89	5816.23
440.08	5895.81
440.26	5914.53
440.45	5940.28
440.63	5891.13
440.82	6235.19
441.01	6118.16
441.19	6235.19
441.38	6317.11
441.57	6377.96
441.75	6345.19
441.94	6539.46
442.12	6345.19
442.31	6534.78
442.50	6424.77
442.68	6494.99
442.87	6626.06
443.05	6616.69
443.24	6366.26
443.43	6558.18
443.61	6801.60
443.80	7016.93
443.98	6539.46
444.17	6274.98
444.35	6827.34
444.54	6773.51
444.73	6572.22
444.91	6906.92
445.10	6583.93
445.28	6616.69
445.47	6691.59
445.65	6539.46
445.84	6759.47
446.02	6612.01
446.21	6710.32
446.39	6841.39
446.58	6832.02
446.77	6890.54
446.95	6703.29
447.14	6967.77
447.32	7019.27
447.51	6923.30
447.69	6684.57
447.88	6916.28
448.06	6984.16
448.25	7155.02
448.43	7009.90
448.62	6883.52
448.80	6890.54
448.99	7040.33
449.17	7021.61
449.36	6916.28
449.54	7126.93
449.73	7293.11
449.91	7272.04
450.10	7260.34
450.28	7431.20
450.46	7447.58
450.65	7323.54
450.83	7478.01
451.02	7513.12
451.20	7454.61
451.39	7370.35
451.57	7332.90
451.76	7220.55
451.94	7442.90
452.13	7368.01
452.31	7262.68
452.49	7316.51
452.68	7337.58
452.86	7487.37
453.05	7389.07
453.23	7438.22
453.42	7424.18
453.60	7562.27
453.78	7665.25
453.97	7730.79
454.15	7810.37
454.34	7646.53
454.52	7824.41
454.70	7899.31
454.89	7747.17
455.07	7756.54
455.26	8004.63
455.44	7854.84
455.62	7896.97
455.81	7992.93
455.99	8156.77
456.17	8107.62
456.36	8004.63
456.54	8070.17
456.73	8187.19
456.91	8442.31
457.09	8341.67
457.28	8547.64
457.46	8301.88
457.64	8285.50
457.83	8168.47
458.01	8297.20
458.19	8491.46
458.38	8236.35
458.56	8606.15
458.74	8521.89
458.93	8446.99
459.11	8489.12
459.29	8362.73
459.48	8470.40
459.66	8521.89
459.84	8638.92
460.03	8744.24
460.21	8779.35
460.39	8994.68
460.57	8905.74
460.76	8894.04
460.94	9011.06
461.12	8879.99
461.31	8922.12
461.49	8837.86
461.67	8957.23
461.85	8922.12
462.04	8971.27
462.22	9207.67
462.40	9263.84
462.59	9263.84
462.77	9149.15
462.95	9181.92
463.13	9090.64
463.32	9298.95
463.50	9233.41
463.68	9137.45
463.86	9301.29
464.05	9085.96
464.23	9172.56
464.41	9380.87
464.59	9062.55
464.78	9420.66
464.96	9301.29
465.14	9151.49
465.32	9432.36
465.50	9476.83
465.69	9502.58
465.87	9465.13
466.05	9476.83
466.23	9408.95
466.41	9518.96
466.60	9509.60
466.78	9430.02
466.96	9362.14
467.14	9570.45
467.32	9500.23
467.51	9755.35
467.69	9418.32
467.87	9935.57
468.05	9713.22
468.23	9886.42
468.41	9785.78
468.60	9781.10
468.78	9755.35
468.96	9797.48
469.14	10078.35
469.32	9881.74
469.50	9687.48
469.69	10066.64
469.87	9867.70
470.05	9930.89
470.23	10162.61
470.41	10097.07
470.59	10284.31
470.77	9987.07
470.95	10038.56
471.14	10464.54
471.32	10118.14
471.50	10593.26
471.68	10551.14
471.86	10574.54
472.04	10754.76
472.22	10757.10
472.40	10476.24
472.58	10677.52
472.77	10792.21
472.95	10754.76
473.13	11089.46
473.31	10700.93
473.49	10752.42
473.67	10899.87
473.85	10920.94
474.03	11267.34
474.21	11602.04
474.39	11363.30
474.57	11204.14
474.75	11428.84
474.93	11412.45
475.12	11506.07
475.30	11620.76
475.48	11578.63
475.66	11737.79
475.84	11403.09
476.02	11653.53
476.20	11566.93
476.38	11880.56
476.56	12196.53
476.74	12297.17
476.92	12098.23
477.10	12049.08
477.28	12479.74
477.46	12383.77
477.64	12706.77
477.82	12748.90
478.00	13001.68
478.18	12725.49
478.36	12683.36
478.54	13151.47
478.72	13181.90
478.90	13387.86
479.08	13151.47
479.26	13359.78
479.44	13935.55
479.62	13703.84
479.80	13582.13
479.98	13954.27
480.16	13980.02
480.34	14188.33
480.52	14066.62
480.70	14265.57
480.88	13942.57
481.06	14413.02
481.24	14473.87
481.41	14724.31
481.59	14857.72
481.77	14773.46
481.95	14698.56
482.13	15021.56
482.31	14700.90
482.49	15243.91
482.67	15356.25
482.85	15405.41
483.03	15679.25
483.21	15630.10
483.39	15639.46
483.57	15592.65
483.74	16006.92
483.92	15934.37
484.10	15805.64
484.28	16177.78
484.46	16362.69
484.64	16812.07
484.82	16393.11
485.00	16535.88
485.18	17060.16
485.35	17008.67
485.53	16489.07
485.71	16491.41
485.89	16903.35
486.07	16744.19
486.25	16716.11
486.43	17254.43
486.61	17263.79
486.78	17462.74
486.96	17877.01
487.14	18328.74
487.32	18111.07
487.50	18228.09
487.68	18380.23
487.85	19051.96
488.03	18789.82
488.21	18972.38
488.39	18808.54
488.57	18972.38
488.75	19070.68
488.92	19662.84
489.10	19513.05
489.28	19936.68
489.46	20016.26
489.64	20184.78
489.81	20641.18
489.99	20416.49
490.17	20900.98
490.35	20830.77
490.53	20893.96
490.70	20769.91
490.88	21170.15
491.06	21546.97
491.24	21418.24
491.41	21385.47
491.59	21146.74
491.77	21326.96
491.95	22019.76
492.13	21811.45
492.30	22043.17
492.48	22265.52
492.66	22274.88
492.84	22661.07
493.01	22532.34
493.19	22640.00
493.37	22904.48
493.54	23089.38
493.72	23297.69
493.90	23494.30
494.08	23463.87
494.25	23379.61
494.43	23777.50
494.61	23843.04
494.79	24418.81
494.96	24151.99
495.14	24016.24
495.32	24318.17
495.49	24292.42
495.67	24254.97
495.85	24961.81
496.02	24737.12
496.20	24563.92
496.38	25032.03
496.55	25338.64
496.73	25748.23
496.91	25549.29
497.09	25591.42
497.26	25649.93
497.44	26003.35
497.62	25577.37
497.79	25832.49
497.97	25862.92
498.14	26120.38
498.32	26082.93
498.50	26321.66
498.67	26883.39
498.85	26546.36
499.03	27012.12
499.20	26850.63
499.38	27274.26
499.56	27063.61
499.73	27171.28
499.91	27112.77
500.08	27527.04
500.26	26628.27
500.44	27271.92
500.61	27222.77
500.79	27056.59
500.97	27330.44
501.14	27866.42
501.32	27756.41
501.49	27768.12
501.67	27697.90
501.84	27920.25
502.02	28264.31
502.20	28343.89
502.37	28545.17
502.55	28489.00
502.72	28634.11
502.90	28421.13
503.07	28650.50
503.25	28760.50
503.43	28744.12
503.60	28657.52
503.78	28900.94
503.95	28926.68
504.13	29010.94
504.30	29240.31
504.48	29362.02
504.65	29785.66
504.83	30031.41
505.01	29706.08
505.18	29926.09
505.36	29860.55
505.53	30022.05
505.71	30338.02
505.88	30625.91
506.06	30132.06
506.23	30223.34
506.41	30558.03
506.58	30576.76
506.76	30625.91
506.93	30984.01
507.11	30143.76
507.28	30892.73
507.46	30326.32
507.63	30948.90
507.81	30941.88
507.98	30810.81
508.16	31084.65
508.33	31159.55
508.50	31271.90
508.68	31419.35
508.85	31955.33
509.03	31613.62
509.20	31700.22
509.38	31784.48
509.55	32208.11
509.73	32098.11
509.90	31938.95
510.08	32048.96
510.25	32198.75
510.42	32154.28
510.60	32395.35
510.77	32236.20
510.95	32369.61
511.12	32765.16
511.30	32638.77
511.47	32701.96
511.64	33046.02
511.82	33308.16
511.99	33010.92
512.17	32917.29
512.34	33160.71
512.51	33771.59
512.69	33329.23
512.86	33383.06
513.04	33528.17
513.21	33530.51
513.38	33221.56
513.56	33692.01
513.73	33572.64
513.90	33881.60
514.08	33951.81
514.25	33684.99
514.43	34029.05
514.60	33500.09
514.77	33907.34
514.95	34260.76
515.12	34225.65
515.29	34293.53
515.47	35093.99
515.64	35250.81
515.81	34794.40
515.99	34342.68
516.16	34450.35
516.33	34373.11
516.51	34263.10
516.68	33816.06
516.85	34120.33
517.03	34309.91
517.20	34658.65
517.37	35374.86
517.54	35246.13
517.72	34618.86
517.89	34539.29
518.06	34579.07
518.24	34890.37
518.41	35150.17
518.58	34941.86
518.75	35138.46
518.93	35580.82
519.10	35019.10
519.27	35868.71
519.45	35604.23
519.62	35747.00
519.79	36346.18
519.96	36191.70
520.14	36074.68
520.31	36229.15
520.48	36257.24
520.65	36645.77
520.83	36708.96
521.00	36788.54
521.17	36428.10
521.34	36737.05
521.52	36605.98
521.69	36711.30
521.86	36896.20
522.03	36739.39
522.20	37490.70
522.38	36975.78
522.55	37013.23
522.72	36931.31
522.89	36886.84
523.07	37092.81
523.24	37261.33
523.41	37628.79
523.58	37652.20
523.75	38122.65
523.92	37727.10
524.10	38361.38
524.27	38155.41
524.44	38129.67
524.61	38082.86
524.78	38436.28
524.96	38366.06
525.13	38279.46
525.30	38160.09
525.47	38370.74
525.64	38745.23
525.81	38508.83
525.98	38312.23
526.16	38132.01
526.33	37780.93
526.50	37890.93
526.67	37729.44
526.84	38326.27
527.01	38099.24
527.18	38281.80
527.36	38803.74
527.53	38911.41
527.70	39271.85
527.87	39332.70
528.04	39302.28
528.21	38890.34
528.38	38871.62
528.55	39435.69
528.72	39522.29
528.89	39812.51
529.07	39620.59
529.24	39269.51
529.41	39438.03
529.58	39290.57
529.75	39215.68
529.92	39452.07
530.09	39725.91
530.26	39875.71
530.43	40037.20
530.60	39541.01
530.77	39873.37
530.94	40334.45
531.11	40390.62
531.28	40446.80
531.46	40275.94
531.63	40685.53
531.80	40172.96
531.97	40423.39
532.14	39922.52
532.31	39873.37
532.48	40519.35
532.65	40205.72
532.82	40343.81
532.99	40378.92
533.16	40156.57
533.33	41083.42
533.50	41205.13
533.67	41055.34
533.84	40477.22
534.01	40818.94
534.18	40629.36
534.35	41216.83
534.52	40704.26
534.69	41132.57
534.86	41212.15
535.03	41010.87
535.20	41645.15
535.37	41525.78
535.54	41926.02
535.71	41406.42
535.88	41326.84
536.05	41537.49
536.22	41228.54
536.38	41675.58
536.55	41476.63
536.72	41263.64
536.89	40870.43
537.06	41387.69
537.23	41654.51
537.40	41743.45
537.57	41584.30
537.74	41691.96
537.91	42286.46
538.08	42216.24
538.25	41521.10
538.42	42314.55
538.59	42440.93
538.75	41345.56
538.92	41766.86
539.09	42150.71
539.26	41930.70
539.43	41867.50
539.60	42103.90
539.77	41813.67
539.94	42487.74
540.11	42284.12
540.28	41984.53
540.44	42178.79
540.61	42412.85
540.78	42192.84
540.95	42478.38
541.12	42373.06
541.29	42398.80
541.46	42447.96
541.62	42499.45
541.79	42836.48
541.96	42401.14
542.13	42913.72
542.30	42494.77
542.47	42532.22
542.63	42588.39
542.80	43051.81
542.97	42792.01
543.14	43232.04
543.31	43475.45
543.48	43641.63
543.64	43658.01
543.81	43601.84
543.98	43400.55
544.15	43786.74
544.32	43557.37
544.48	43995.05
544.65	43798.44
544.82	43952.92
544.99	43459.07
545.16	43707.16
545.32	43398.21
545.49	43756.32
545.66	44451.45
545.83	44559.12
546.00	43730.57
546.16	43927.17
546.33	43873.34
546.50	43545.67
546.67	43936.54
546.83	43819.51
547.00	44051.22
547.17	43578.43
547.34	43533.96
547.50	43859.30
547.67	44126.12
547.84	43920.15
548.00	44044.20
548.17	44512.31
548.34	44367.20
548.51	44861.05
548.67	44261.87
548.84	44465.50
549.01	43915.47
549.18	43880.36
549.34	44608.27
549.51	44809.56
549.68	44854.03
549.84	44706.57
550.01	44931.26
550.18	44905.52
550.34	44533.37
550.51	44631.68
550.68	44655.08
550.84	44238.47
551.01	44800.19
551.18	44488.90
551.34	44449.11
551.51	44807.22
551.68	45181.70
551.84	45305.75
552.01	45153.62
552.18	44772.11
552.34	44891.48
552.51	44744.02
552.68	44938.29
552.84	45420.44
553.01	45186.38
553.18	45067.02
553.34	45188.72
553.51	45062.33
553.67	45455.54
553.84	45614.70
554.01	45317.45
554.17	45586.61
554.34	45258.94
554.51	45556.19
554.67	45361.92
554.84	45741.09
555.00	45106.80
555.17	45280.00
555.33	45652.15
555.50	44999.14
555.67	45476.61
555.83	45441.50
556.00	45525.76
556.16	45598.32
556.33	45481.29
556.50	45668.53
556.66	45490.65
556.83	45511.72
556.99	45434.48
557.16	45853.44
557.32	45586.61
557.49	45656.83
557.65	45422.78
557.82	45654.49
557.98	45614.70
558.15	45406.39
558.32	46080.47
558.48	45027.23
558.65	45567.89
558.81	45397.03
558.98	45516.40
559.14	46017.27
559.31	45865.14
559.47	45617.04
559.64	46181.11
559.80	45944.72
559.97	46143.66
560.13	45642.79
560.30	45977.48
560.46	45944.72
560.63	46377.72
560.79	46176.43
560.96	45820.67
561.12	46117.92
561.29	46026.63
561.45	45638.11
561.61	45677.90
561.78	46092.17
561.94	45490.65
562.11	45839.39
562.27	45640.45
562.44	46347.29
562.60	46206.86
562.77	46010.25
562.93	46492.40
563.10	46347.29
563.26	46066.42
563.42	46426.87
563.59	46160.05
563.75	45996.21
563.92	46349.63
564.08	46195.15
564.24	46522.83
564.41	46047.70
564.57	46607.09
564.74	46202.18
564.90	46099.19
565.07	46134.30
565.23	45961.10
565.39	46192.81
565.56	46410.48
565.72	46326.22
565.88	46239.62
566.05	46202.18
566.21	46141.32
566.38	46036.00
566.54	46433.89
566.70	46445.59
566.87	46375.37
567.03	46595.38
567.19	46817.74
567.36	46312.18
567.52	46206.86
567.68	46822.42
567.85	46260.69
568.01	46696.03
568.17	46548.57
568.34	46525.17
568.50	46476.02
568.66	46068.76
568.83	46663.26
568.99	46440.91
569.15	46490.06
569.32	46087.49
569.48	46384.74
569.64	46745.18
569.81	46335.59
569.97	46302.82
570.13	46457.29
570.30	46087.49
570.46	46459.63
570.62	46511.13
570.78	46089.83
570.95	46146.00
571.11	46368.35
571.27	46248.99
571.43	46387.08
571.60	46497.08
571.76	46073.45
571.92	46499.42
572.09	46309.84
572.25	46511.13
572.41	46721.77
572.57	46801.35
572.74	47047.11
572.90	46529.85
573.06	47325.63
573.22	46813.05
573.38	46450.27
573.55	46321.54
573.71	46712.41
573.87	46894.97
574.03	46529.85
574.20	46859.87
574.36	47009.66
574.52	46955.83
574.68	46440.91
574.84	46696.03
575.01	46768.58
575.17	46506.44
575.33	46251.33
575.49	46637.51
575.65	46588.36
575.82	46342.61
575.98	46480.70
576.14	47002.64
576.30	47009.66
576.46	46452.61
576.62	46499.42
576.79	46459.63
576.95	46564.96
577.11	46707.73
577.27	47035.41
577.43	46852.84
577.59	46473.68
577.75	46082.81
577.92	46110.89
578.08	46068.76
578.24	46450.27
578.40	46405.80
578.56	46834.12
578.72	46646.88
578.88	46953.49
579.04	46473.68
579.21	46618.79
579.37	46747.52
579.53	46604.75
579.69	46454.95
579.85	46663.26
580.01	46946.47
580.17	46452.61
580.33	46663.26
580.49	46653.90
580.65	46724.11
580.82	46784.97
580.98	46752.20
581.14	46398.78
581.30	46934.76
581.46	46576.66
581.62	46897.31
581.78	46686.67
581.94	47079.88
582.10	46845.82
582.26	47000.30
582.42	46897.31
582.58	46869.23
582.74	46705.39
582.90	46934.76
583.06	47035.41
583.22	46770.93
583.38	47105.62
583.54	47157.11
583.70	46967.53
583.86	47000.30
584.02	46803.69
584.18	46834.12
584.34	46794.33
584.50	46738.16
584.66	46873.91
584.82	46941.78
584.98	46944.12
585.14	46756.88
585.30	46527.51
585.46	46473.68
585.62	46602.41
585.78	46611.77
585.94	46499.42
586.10	46838.80
586.26	46670.28
586.42	46621.13
586.58	46852.84
586.74	46742.84
586.90	46670.28
587.06	46635.17
587.22	46822.42
587.38	46777.95
587.54	47178.18
587.70	46642.20
587.86	46597.73
588.02	46520.49
588.18	46761.56
588.34	46506.44
588.49	45918.97
588.65	46043.02
588.81	46396.44
588.97	46052.38
589.13	45949.40
589.29	45844.07
589.45	46457.29
589.61	46604.75
589.77	46593.04
589.93	46674.96
