SpectraSuite Data File
++++++++++++++++++++++++++++++++++++
Date: Fri Oct 25 10:47:08 EDT 2013
User: price-jones
Dark Spectrum Present: No
Reference Spectrum Present: No
Number of Sampled Component Spectra: 1
Spectrometers: USB2+H05261
Integration Time (usec): 100000 (USB2+H05261)
Spectra Averaged: 1 (USB2+H05261)
Boxcar Smoothing: 0 (USB2+H05261)
Correct for Electrical Dark: No (USB2+H05261)
Strobe/Lamp Enabled: No (USB2+H05261)
Correct for Detector Non-linearity: No (USB2+H05261)
Correct for Stray Light: No (USB2+H05261)
Number of Pixels in Processed Spectrum: 2048
>>>>>Begin Processed Spectral Data<<<<<
365.73	93.62
365.92	93.62
366.12	93.62
366.32	28.09
366.52	121.71
366.72	60.85
366.91	39.79
367.11	14.04
367.31	0.00
367.51	79.58
367.70	30.43
367.90	56.17
368.10	63.19
368.30	65.54
368.49	46.81
368.69	86.60
368.89	23.41
369.09	9.36
369.28	37.45
369.48	67.88
369.68	107.66
369.87	159.16
370.07	2.34
370.27	133.41
370.47	196.60
370.66	362.78
370.86	402.57
371.06	404.91
371.25	498.53
371.45	456.40
371.65	484.49
371.84	414.27
372.04	418.96
372.24	458.74
372.44	440.02
372.63	514.92
372.83	468.11
373.03	514.92
373.22	444.70
373.42	550.03
373.62	498.53
373.81	559.39
374.01	554.71
374.21	571.09
374.40	517.26
374.60	526.62
374.79	477.47
374.99	559.39
375.19	489.17
375.38	650.67
375.58	580.45
375.78	669.39
375.97	526.62
376.17	634.29
376.37	587.47
376.56	568.75
376.76	545.34
376.95	482.15
377.15	641.31
377.35	582.79
377.54	573.43
377.74	587.47
377.93	543.00
378.13	648.33
378.33	564.07
378.52	594.50
378.72	631.94
378.91	613.22
379.11	505.56
379.31	634.29
379.50	550.03
379.70	709.18
379.89	702.16
380.09	580.45
380.28	685.78
380.48	608.54
380.68	660.03
380.87	664.71
381.07	594.50
381.26	671.73
381.46	674.07
381.65	744.29
381.85	585.13
382.04	709.18
382.24	629.60
382.43	674.07
382.63	643.65
382.83	678.76
383.02	716.20
383.22	643.65
383.41	702.16
383.61	725.57
383.80	685.78
384.00	706.84
384.19	723.23
384.39	702.16
384.58	678.76
384.78	795.78
384.97	709.18
385.17	704.50
385.36	748.97
385.56	645.99
385.75	730.25
385.95	702.16
386.14	683.44
386.34	784.08
386.53	741.95
386.72	791.10
386.92	830.89
387.11	835.57
387.31	833.23
387.50	812.17
387.70	835.57
387.89	814.51
388.09	774.72
388.28	791.10
388.48	896.43
388.67	861.32
388.86	866.00
389.06	912.81
389.25	828.55
389.45	854.30
389.64	924.51
389.84	936.21
390.03	840.25
390.22	915.15
390.42	959.62
390.61	915.15
390.81	959.62
391.00	968.98
391.19	976.00
391.39	936.21
391.58	983.02
391.78	889.40
391.97	936.21
392.16	1001.75
392.36	1025.15
392.55	990.05
392.75	945.58
392.94	976.00
393.13	1004.09
393.33	919.83
393.52	1004.09
393.71	1043.88
393.91	1064.94
394.10	1083.67
394.29	1046.22
394.49	1093.03
394.68	1041.54
394.88	1062.60
395.07	1050.90
395.26	1097.71
395.46	1062.60
395.65	1130.48
395.84	1071.97
396.04	1158.57
396.23	1046.22
396.42	1088.35
396.62	1064.94
396.81	1172.61
397.00	1174.95
397.19	1181.97
397.39	1165.59
397.58	1212.40
397.77	1266.23
397.97	1231.12
398.16	1303.68
398.35	1193.67
398.55	1217.08
398.74	1364.53
398.93	1327.08
399.12	1259.21
399.32	1355.17
399.51	1273.25
399.70	1336.45
399.90	1341.13
400.09	1390.28
400.28	1380.92
400.47	1432.41
400.67	1404.32
400.86	1373.89
401.05	1488.58
401.24	1511.99
401.44	1343.47
401.63	1495.60
401.82	1502.62
402.01	1376.24
402.21	1416.02
402.40	1486.24
402.59	1502.62
402.78	1483.90
402.97	1563.48
403.17	1540.07
403.36	1500.28
403.55	1551.78
403.74	1481.56
403.93	1610.29
404.13	1671.14
404.32	1617.31
404.51	1603.27
404.70	1685.19
404.89	1659.44
405.09	1694.55
405.28	1708.59
405.47	1638.38
405.66	1661.78
405.85	1732.00
406.05	1769.44
406.24	1671.14
406.43	1781.15
406.62	1851.36
406.81	1949.67
407.00	1872.43
407.20	1778.81
407.39	1937.96
407.58	1914.56
407.77	1886.47
407.96	1902.86
408.15	1994.14
408.34	1944.99
408.54	1914.56
408.73	1928.60
408.92	2012.86
409.11	1998.82
409.30	2062.01
409.49	2026.90
409.68	1858.39
409.87	2029.24
410.07	2054.99
410.26	2080.74
410.45	2094.78
410.64	2153.29
410.83	2113.50
411.02	2150.95
411.21	2253.94
411.40	2298.41
411.59	2244.57
411.78	2314.79
411.98	2211.81
412.17	2342.88
412.36	2282.02
412.55	2303.09
412.74	2333.51
412.93	2431.82
413.12	2296.07
413.31	2602.68
413.50	2417.77
413.69	2497.35
413.88	2487.99
414.07	2347.56
414.26	2562.89
414.45	2569.91
414.64	2572.25
414.83	2630.76
415.02	2565.23
415.22	2766.51
415.41	2719.70
415.60	2679.91
415.79	2839.07
415.98	2796.94
416.17	2890.56
416.36	2832.05
416.55	2818.00
416.74	2853.11
416.93	2750.13
417.12	2986.52
417.31	2928.01
417.50	2881.20
417.69	3009.93
417.88	2960.78
418.07	3080.14
418.26	3068.44
418.45	3096.53
418.64	3269.73
418.83	3141.00
419.02	2939.71
419.21	3225.26
419.39	3089.51
419.58	3110.57
419.77	3192.49
419.96	3084.83
420.15	3171.43
420.34	3239.30
420.53	3211.22
420.72	3384.41
420.91	3365.69
421.10	3295.47
421.29	3286.11
421.48	3414.84
421.67	3475.70
421.86	3396.12
422.05	3279.09
422.24	3272.07
422.43	3414.84
422.61	3370.37
422.80	3428.88
422.99	3393.78
423.18	3564.64
423.37	3545.91
423.56	3541.23
423.75	3473.36
423.94	3400.80
424.13	3239.30
424.32	3386.76
424.50	3588.04
424.69	3569.32
424.88	3637.19
425.07	3475.70
425.26	3417.18
425.45	3576.34
425.64	3361.01
425.83	3513.14
426.01	3644.21
426.20	3543.57
426.39	3454.63
426.58	3480.38
426.77	3445.27
426.96	3613.79
427.15	3520.17
427.33	3651.24
427.52	3592.72
427.71	3679.32
427.90	3669.96
428.09	3632.51
428.28	3754.22
428.46	3744.86
428.65	3852.52
428.84	3819.75
429.03	3934.44
429.22	3744.86
429.40	3674.64
429.59	3824.44
429.78	3639.53
429.97	3646.55
430.16	3749.54
430.34	3810.39
430.53	3894.65
430.72	3831.46
430.91	3857.20
431.10	3847.84
431.28	4135.73
431.47	4072.53
431.66	4018.70
431.85	4049.13
432.03	4056.15
432.22	4201.26
432.41	4119.34
432.60	4091.26
432.79	4121.68
432.97	4180.20
433.16	4257.43
433.35	4053.81
433.54	4114.66
433.72	4222.33
433.91	4105.30
434.10	4203.60
434.28	4070.19
434.47	4362.76
434.66	4337.01
434.85	4332.33
435.03	4299.56
435.22	4414.25
435.41	4416.59
435.59	4503.19
435.78	4414.25
435.97	4571.07
436.16	4617.88
436.34	4395.53
436.53	4578.09
436.72	4725.54
436.90	4608.51
437.09	4498.51
437.28	4500.85
437.46	4379.14
437.65	4634.26
437.84	4503.19
438.02	4624.90
438.21	4695.11
438.40	4629.58
438.58	5025.13
438.77	4917.47
438.96	4891.72
439.14	5020.45
439.33	4978.32
439.52	5107.05
439.70	4910.44
439.89	5041.51
440.08	5048.54
440.26	5083.64
440.45	5191.31
440.63	5093.01
440.82	5158.54
441.01	5291.95
441.19	5387.91
441.38	5399.62
441.57	5394.93
441.75	5357.49
441.94	5488.56
442.12	5621.97
442.31	5664.10
442.50	5621.97
442.68	5528.35
442.87	5554.09
443.05	5589.20
443.24	5755.38
443.43	5671.12
443.61	5722.61
443.80	5954.32
443.98	5666.44
444.17	5600.90
444.35	5713.25
444.54	5603.24
444.73	5668.78
444.91	5760.06
445.10	5694.52
445.28	5767.08
445.47	5659.42
445.65	5841.98
445.84	5823.25
446.02	5851.34
446.21	5760.06
446.39	5767.08
446.58	5994.11
446.77	5769.42
446.95	5682.82
447.14	5930.92
447.32	5877.09
447.51	5973.05
447.69	5846.66
447.88	6005.81
448.06	5853.68
448.25	5799.85
448.43	5947.30
448.62	6022.20
448.80	6010.50
448.99	5834.96
449.17	5870.06
449.36	6003.47
449.54	6251.57
449.73	6111.14
449.91	6359.24
450.10	6155.61
450.28	6136.88
450.46	6389.66
450.65	6380.30
450.83	6256.25
451.02	6392.00
451.20	6366.26
451.39	6403.71
451.57	6359.24
451.76	6305.40
451.94	6375.62
452.13	6349.87
452.31	6319.45
452.49	6300.72
452.68	6312.42
452.86	6305.40
453.05	6487.96
453.23	6590.95
453.42	6595.63
453.60	6319.45
453.78	6368.60
453.97	6509.03
454.15	6544.14
454.34	6445.84
454.52	6502.01
454.70	6551.16
454.89	6836.70
455.07	6782.87
455.26	6642.44
455.44	6808.62
455.62	6668.19
455.81	6850.75
455.99	6977.14
456.17	6970.12
456.36	6871.81
456.54	7140.97
456.73	7007.56
456.91	7241.62
457.09	7159.70
457.28	7246.30
457.46	7084.80
457.64	7215.87
457.83	7185.44
458.01	7279.07
458.19	7290.77
458.38	7192.47
458.56	7379.71
458.74	7440.56
458.93	7379.71
459.11	7283.75
459.29	7258.00
459.48	7375.03
459.66	7405.46
459.84	7522.48
460.03	7489.71
460.21	7515.46
460.39	7573.97
460.57	7353.96
460.76	7595.04
460.94	7581.00
461.12	7681.64
461.31	7637.17
461.49	7583.34
461.67	7583.34
461.85	7833.77
462.04	7566.95
462.22	8325.29
462.40	7964.84
462.59	7765.90
462.77	7751.85
462.95	7864.20
463.13	7805.69
463.32	7824.41
463.50	8093.57
463.68	8042.08
463.86	8056.12
464.05	7887.61
464.23	7964.84
464.41	7988.25
464.59	8060.80
464.78	8063.15
464.96	8067.83
465.14	7946.12
465.32	8334.65
465.50	8191.88
465.69	8397.84
465.87	8147.40
466.05	8262.09
466.23	8409.54
466.41	8329.97
466.60	8418.91
466.78	8109.96
466.96	8241.03
467.14	8294.86
467.32	8400.18
467.51	8360.39
467.69	8236.35
467.87	8437.63
468.05	8393.16
468.23	8444.65
468.41	8327.63
468.60	8695.09
468.78	8578.06
468.96	8594.45
469.14	8620.19
469.32	8777.01
469.50	8306.56
469.69	8762.97
469.87	8585.08
470.05	8858.93
470.23	8730.20
470.41	8690.41
470.59	8812.12
470.77	8683.39
470.95	8964.25
471.14	9107.02
471.32	8835.52
471.50	9221.71
471.68	9069.58
471.86	9088.30
472.04	9291.93
472.22	9554.07
472.40	8999.36
472.58	9437.04
472.77	9273.20
472.95	9348.10
473.13	9619.60
473.31	9394.91
473.49	9490.87
473.67	9385.55
473.85	9614.92
474.03	9659.39
474.21	9654.71
474.39	9898.13
474.57	9722.59
474.75	10050.26
474.93	9982.38
475.12	9923.87
475.30	10092.39
475.48	10115.80
475.66	9928.55
475.84	10015.15
476.02	10118.14
476.20	10429.43
476.38	10452.83
476.56	10504.32
476.74	10588.58
476.92	10438.79
477.10	10745.40
477.28	10874.13
477.46	10808.59
477.64	10843.70
477.82	10925.62
478.00	11363.30
478.18	11365.64
478.36	11267.34
478.54	11433.52
478.72	11035.63
478.90	11440.54
479.08	11707.36
479.26	11700.34
479.44	11740.13
479.62	11934.39
479.80	12006.95
479.98	11829.07
480.16	12252.70
480.34	12037.38
480.52	12301.86
480.70	12468.03
480.88	12271.43
481.06	12271.43
481.24	12423.56
481.41	12772.30
481.59	13008.70
481.77	12950.18
481.95	12849.54
482.13	13034.44
482.31	12875.29
482.49	13280.20
482.67	13348.08
482.85	13352.76
483.03	13598.51
483.21	13685.11
483.39	13729.58
483.57	13720.22
483.74	13949.59
483.92	14113.43
484.10	13881.72
484.28	14288.97
484.46	14511.32
484.64	14537.07
484.82	14464.51
485.00	14403.66
485.18	14644.73
485.35	15302.42
485.53	15066.03
485.71	14958.36
485.89	15332.85
486.07	15136.24
486.25	15089.43
486.43	15250.93
486.61	15550.52
486.78	15613.71
486.96	15740.10
487.14	15967.13
487.32	16257.36
487.50	16020.97
487.68	16273.74
487.85	16573.33
488.03	16610.78
488.21	16652.91
488.39	16617.80
488.57	16940.80
488.75	17011.01
488.92	17135.06
489.10	17631.26
489.28	17458.06
489.46	17884.03
489.64	17769.35
489.81	18090.00
489.99	18178.94
490.17	18302.99
490.35	18513.64
490.53	18490.23
490.70	18878.76
490.88	18396.61
491.06	18960.68
491.24	18916.21
491.41	19066.00
491.59	18970.04
491.77	18920.89
491.95	19241.54
492.13	19332.82
492.30	19389.00
492.48	19669.86
492.66	19679.22
492.84	19609.01
493.01	19995.20
493.19	20144.99
493.37	20505.43
493.54	20416.49
493.72	20783.96
493.90	20657.57
494.08	20599.05
494.25	20992.26
494.43	20917.37
494.61	21425.26
494.79	21233.34
494.96	21174.83
495.14	21238.02
495.32	21724.85
495.49	21626.55
495.67	21621.87
495.85	21750.60
496.02	21909.75
496.20	22176.58
496.38	22525.32
496.55	22192.96
496.73	22574.47
496.91	22382.54
497.09	22534.68
497.26	22590.85
497.44	22927.89
497.62	23021.51
497.79	23159.60
497.97	23145.56
498.14	23068.32
498.32	23332.80
498.50	23096.41
498.67	23204.07
498.85	23709.63
499.03	23648.77
499.20	23875.80
499.38	23892.19
499.56	24074.75
499.73	23814.95
499.91	24093.47
500.08	24755.85
500.26	24414.13
500.44	24409.45
500.61	24540.52
500.79	24161.35
500.97	24556.90
501.14	24758.19
501.32	24786.27
501.49	24840.11
501.67	24819.04
501.84	25422.90
502.02	25003.94
502.20	25076.50
502.37	25553.97
502.55	25626.53
502.72	25546.95
502.90	25668.66
503.07	25392.47
503.25	25979.95
503.43	25867.60
503.60	25483.75
503.78	26164.85
503.95	26277.19
504.13	26101.65
504.30	26436.35
504.48	26169.53
504.65	26412.95
504.83	26602.53
505.01	26600.19
505.18	26459.76
505.36	26824.88
505.53	26888.07
505.71	27419.38
505.88	27271.92
506.06	26972.33
506.23	27077.66
506.41	27185.32
506.58	27159.58
506.76	27721.30
506.93	27578.53
507.11	27136.17
507.28	27672.15
507.46	27601.94
507.63	27637.05
507.81	27552.79
507.98	27894.50
508.16	27751.73
508.33	27995.15
508.50	28245.58
508.68	28154.30
508.85	28074.73
509.03	28273.67
509.20	28685.61
509.38	28671.56
509.55	28610.71
509.73	29041.37
509.90	28868.17
510.08	28673.90
510.25	28966.47
510.42	28907.96
510.60	29336.27
510.77	29130.31
510.95	29347.98
511.12	29277.76
511.30	29467.34
511.47	29532.88
511.64	29319.89
511.82	29902.68
511.99	29745.87
512.17	29986.94
512.34	29511.81
512.51	30497.18
512.69	30431.65
512.86	30265.47
513.04	30328.66
513.21	30515.90
513.38	30370.79
513.56	30188.23
513.73	30263.13
513.90	30431.65
514.08	30239.72
514.25	30747.62
514.43	30675.06
514.60	30590.80
514.77	30661.02
514.95	31007.42
515.12	31030.82
515.29	31112.74
515.47	31370.20
515.64	31192.32
515.81	31061.25
515.99	31599.57
516.16	31550.42
516.33	31388.92
516.51	31704.90
516.68	31573.83
516.85	31047.21
517.03	31498.93
517.20	31601.91
517.37	31718.94
517.54	32030.23
517.72	31594.89
517.89	31725.96
518.06	31728.30
518.24	32084.06
518.41	31648.72
518.58	32170.66
518.75	31915.54
518.93	32496.00
519.10	32304.07
519.27	32540.47
519.45	32587.28
519.62	32882.19
519.79	32685.58
519.96	32921.98
520.14	33291.78
520.31	32896.23
520.48	33378.38
520.65	33092.83
520.83	33523.49
521.00	33481.36
521.17	33223.90
521.34	33518.81
521.52	33802.02
521.69	33745.84
521.86	33617.11
522.03	33949.47
522.20	33802.02
522.38	34129.69
522.55	33869.89
522.72	33940.11
522.89	34066.50
523.07	34426.94
523.24	33635.84
523.41	33813.72
523.58	34176.50
523.75	34511.20
523.92	34471.41
524.10	34930.16
524.27	34639.93
524.44	34909.09
524.61	34703.12
524.78	34384.81
524.96	34902.07
525.13	35239.11
525.30	35306.98
525.47	34932.50
525.64	35292.94
525.81	35047.18
525.98	35068.25
526.16	34808.45
526.33	35232.08
526.50	35349.11
526.67	35353.79
526.84	35007.39
527.01	35136.12
527.18	35208.68
527.36	35206.34
527.53	35812.54
527.70	35739.98
527.87	35957.65
528.04	36046.59
528.21	36233.83
528.38	36196.38
528.55	35997.44
528.72	36322.77
528.89	36378.95
529.07	36418.74
529.24	35674.45
529.41	36165.96
529.58	35847.64
529.75	36334.48
529.92	36430.44
530.09	36201.07
530.26	36369.58
530.43	36748.75
530.60	36238.51
530.77	36491.29
530.94	36706.62
531.11	37174.73
531.28	37064.72
531.46	36629.38
531.63	36669.17
531.80	37046.00
531.97	36933.65
532.14	36713.64
532.31	36676.19
532.48	36793.22
532.65	37247.29
532.82	36924.29
532.99	37652.20
533.16	36945.36
533.33	37464.96
533.50	38054.77
533.67	37354.95
533.84	37450.91
534.01	37593.68
534.18	37268.35
534.35	37750.50
534.52	37996.26
534.69	38129.67
534.86	37991.58
535.03	37560.92
535.20	37886.25
535.37	37944.76
535.54	38061.79
535.71	37687.31
535.88	38099.24
536.05	37954.13
536.22	38405.85
536.38	38359.04
536.55	37734.12
536.72	38103.92
536.89	38316.91
537.06	38450.32
537.23	38469.04
537.40	38363.72
537.57	38712.46
537.74	38541.60
537.91	38962.90
538.08	38822.47
538.25	38899.70
538.42	38670.33
538.59	38995.67
538.75	38417.55
538.92	38639.90
539.09	38974.60
539.26	39208.65
539.43	39400.58
539.60	39218.02
539.77	39009.71
539.94	39372.49
540.11	39098.65
540.28	39321.00
540.44	39316.32
540.61	39349.09
540.78	39096.31
540.95	39056.52
541.12	39044.82
541.29	39005.03
541.46	39093.97
541.62	39559.73
541.79	39606.55
541.96	39356.11
542.13	39835.92
542.30	40027.84
542.47	39695.49
542.63	39702.51
542.80	39969.33
542.97	40109.76
543.14	40282.96
543.31	40175.30
543.48	40332.11
543.64	41038.95
543.81	40023.16
543.98	40493.61
544.15	40390.62
544.32	40353.18
544.48	41132.57
544.65	40161.25
544.82	40641.06
544.99	40170.61
545.16	40196.36
545.32	40517.01
545.49	40786.18
545.66	40898.52
545.83	41031.93
546.00	41038.95
546.16	41069.38
546.33	40526.38
546.50	40411.69
546.67	41132.57
546.83	40608.29
547.00	41212.15
547.17	40732.34
547.34	41265.99
547.50	41237.90
547.67	41170.02
547.84	41010.87
548.00	41177.04
548.17	41406.42
548.34	41240.24
548.51	41680.26
548.67	41706.01
548.84	41521.10
549.01	41371.31
549.18	41319.82
549.34	41397.06
549.51	41460.25
549.68	41888.57
549.84	41713.03
550.01	42012.62
550.18	41413.44
550.34	41500.04
550.51	41483.66
550.68	41429.82
550.84	40919.59
551.01	41996.23
551.18	41710.69
551.34	41539.83
551.51	41984.53
551.68	42007.94
551.84	41724.73
552.01	41867.50
552.18	42029.00
552.34	41956.44
552.51	42286.46
552.68	41668.56
552.84	42047.72
553.01	42337.95
553.18	42253.69
553.34	42305.18
553.51	42146.03
553.67	42574.34
553.84	42564.98
554.01	42403.49
554.17	42588.39
554.34	42780.31
554.51	42281.78
554.67	42618.81
554.84	42553.28
555.00	42370.72
555.17	42588.39
555.33	42653.92
555.50	42256.03
555.67	42897.34
555.83	42611.79
556.00	42422.21
556.16	42370.72
556.33	43047.13
556.50	43054.15
556.66	42967.55
556.83	42934.79
556.99	43178.20
557.16	43037.77
557.32	43344.38
557.49	42983.94
557.65	42600.09
557.82	42787.33
557.98	42878.61
558.15	42979.26
558.32	43405.23
558.48	43047.13
558.65	42682.01
558.81	42834.14
558.98	43344.38
559.14	43000.32
559.31	43470.77
559.47	43236.72
559.64	42866.91
559.80	43627.59
559.97	43482.47
560.13	42665.63
560.30	43140.75
560.46	43122.03
560.63	43714.19
560.79	43405.23
560.96	43833.55
561.12	43613.54
561.29	43545.67
561.45	43730.57
561.61	43285.87
561.78	43335.02
561.94	43178.20
562.11	43456.73
562.27	43838.23
562.44	43470.77
562.60	43447.36
562.77	43770.36
562.93	43402.89
563.10	43552.69
563.26	43423.96
563.42	43587.80
563.59	43517.58
563.75	43409.92
563.92	43856.96
564.08	43650.99
564.24	43325.66
564.41	44053.56
564.57	43515.24
564.74	43674.40
564.90	43957.60
565.07	43988.03
565.23	43835.89
565.39	43751.63
565.56	43653.33
565.72	43758.66
565.88	43636.95
566.05	43784.40
566.21	43833.55
566.38	43512.90
566.54	43611.20
566.70	44308.68
566.87	43697.80
567.03	44030.16
567.19	44257.19
567.36	44072.29
567.52	43842.92
567.68	43917.81
567.85	43950.58
568.01	43772.70
568.17	44105.06
568.34	44060.58
568.50	44076.97
568.66	43707.16
568.83	44346.13
568.99	43412.26
569.15	44027.82
569.32	43948.24
569.48	43868.66
569.64	44423.37
569.81	44208.04
569.97	43505.88
570.13	44217.40
570.30	43739.93
570.46	43487.15
570.62	44219.74
570.78	44154.21
570.95	44069.95
571.11	44275.91
571.27	43920.15
571.43	44018.46
571.60	44222.08
571.76	44378.90
571.92	44002.07
572.09	43868.66
572.25	43966.96
572.41	43931.86
572.57	44055.90
572.74	44643.38
572.90	44411.67
573.06	43962.28
573.22	44385.92
573.38	44023.14
573.55	44002.07
573.71	44135.48
573.87	43945.90
574.03	44142.50
574.20	43913.13
574.36	44341.45
574.52	44203.36
574.68	44594.23
574.84	44533.37
575.01	44165.91
575.17	44058.24
575.33	44135.48
575.49	44332.09
575.65	44734.66
575.82	44804.88
575.98	44645.72
576.14	44547.42
576.30	44472.52
576.46	44013.77
576.62	44395.28
576.79	44505.29
576.95	44165.91
577.11	44428.05
577.27	44268.89
577.43	44367.20
577.59	44390.60
577.75	44072.29
577.92	44369.54
578.08	44460.82
578.24	44266.55
578.40	44278.25
578.56	44414.01
578.72	44451.45
578.88	44619.97
579.04	44423.37
579.21	44313.36
579.37	44116.76
579.53	44360.17
579.69	44493.58
579.85	44594.23
580.01	44516.99
580.17	44327.41
580.33	44877.43
580.49	44432.73
580.65	44334.43
580.82	44322.72
580.98	44044.20
581.14	43955.26
581.30	44825.94
581.46	44350.81
581.62	44643.38
581.78	44533.37
581.94	44308.68
582.10	44296.98
582.26	44715.93
582.42	44893.82
582.58	44687.85
582.74	44004.41
582.90	44397.62
583.06	44931.26
583.22	44402.30
583.38	44844.66
583.54	44509.97
583.70	44444.43
583.86	44367.20
584.02	44231.44
584.18	44582.52
584.34	44746.36
584.50	44222.08
584.66	44528.69
584.82	44388.26
584.98	44837.64
585.14	44863.39
585.30	44428.05
585.46	44734.66
585.62	44322.72
585.78	44381.24
585.94	44318.04
586.10	44329.75
586.26	44341.45
586.42	44662.10
586.58	45045.95
586.74	44582.52
586.90	44334.43
587.06	44626.99
587.22	44638.70
587.38	44091.01
587.54	44781.47
587.70	44947.65
587.86	44643.38
588.02	44538.05
588.18	44847.00
588.34	44561.46
588.49	44645.72
588.65	43945.90
588.81	44076.97
588.97	44484.22
589.13	44027.82
589.29	44687.85
589.45	45048.29
589.61	44657.42
589.77	45008.50
589.93	44360.17
590.08	44725.30
590.24	44933.60
