SpectraSuite Data File
++++++++++++++++++++++++++++++++++++
Date: Fri Oct 25 10:47:23 EDT 2013
User: price-jones
Dark Spectrum Present: No
Reference Spectrum Present: No
Number of Sampled Component Spectra: 1
Spectrometers: USB2+H05261
Integration Time (usec): 100000 (USB2+H05261)
Spectra Averaged: 1 (USB2+H05261)
Boxcar Smoothing: 0 (USB2+H05261)
Correct for Electrical Dark: No (USB2+H05261)
Strobe/Lamp Enabled: No (USB2+H05261)
Correct for Detector Non-linearity: No (USB2+H05261)
Correct for Stray Light: No (USB2+H05261)
Number of Pixels in Processed Spectrum: 2048
>>>>>Begin Processed Spectral Data<<<<<
365.73	79.58
365.92	79.58
366.12	79.58
366.32	72.56
366.52	32.77
366.72	93.62
366.91	39.79
367.11	30.43
367.31	0.00
367.51	23.41
367.70	58.51
367.90	42.13
368.10	60.85
368.30	25.75
368.49	25.75
368.69	37.45
368.89	39.79
369.09	74.90
369.28	81.92
369.48	84.26
369.68	21.06
369.87	77.24
370.07	95.96
370.27	187.24
370.47	168.52
370.66	334.70
370.86	425.98
371.06	540.66
371.25	454.06
371.45	463.43
371.65	540.66
371.84	379.17
372.04	543.00
372.24	486.83
372.44	507.90
372.63	423.64
372.83	390.87
373.03	521.94
373.22	503.22
373.42	580.45
373.62	475.13
373.81	507.90
374.01	580.45
374.21	603.86
374.40	587.47
374.60	547.69
374.79	589.82
374.99	514.92
375.19	507.90
375.38	582.79
375.58	531.30
375.78	517.26
375.97	554.71
376.17	596.84
376.37	489.17
376.56	617.90
376.76	606.20
376.95	564.07
377.15	657.69
377.35	599.18
377.54	545.34
377.74	582.79
377.93	589.82
378.13	573.43
378.33	662.37
378.52	578.11
378.72	594.50
378.91	711.52
379.11	575.77
379.31	634.29
379.50	622.58
379.70	699.82
379.89	730.25
380.09	631.94
380.28	657.69
380.48	685.78
380.68	648.33
380.87	603.86
381.07	617.90
381.26	692.80
381.46	615.56
381.65	730.25
381.85	620.24
382.04	589.82
382.24	664.71
382.43	699.82
382.63	739.61
382.83	737.27
383.02	737.27
383.22	664.71
383.41	713.86
383.61	662.37
383.80	765.36
384.00	760.67
384.19	706.84
384.39	765.36
384.58	697.48
384.78	779.40
384.97	699.82
385.17	765.36
385.36	697.48
385.56	779.40
385.75	751.31
385.95	772.38
386.14	849.61
386.34	781.74
386.53	854.30
386.72	816.85
386.92	800.46
387.11	821.53
387.31	760.67
387.50	777.06
387.70	737.27
387.89	767.70
388.09	854.30
388.28	861.32
388.48	856.64
388.67	903.45
388.86	835.57
389.06	910.47
389.25	877.70
389.45	858.98
389.64	933.87
389.84	940.90
390.03	999.41
390.22	938.55
390.42	938.55
390.61	868.34
390.81	980.68
391.00	952.60
391.19	990.05
391.39	945.58
391.58	922.17
391.78	957.28
391.97	997.07
392.16	983.02
392.36	1067.28
392.55	912.81
392.75	954.94
392.94	889.40
393.13	1008.77
393.33	917.49
393.52	894.08
393.71	994.73
393.91	1050.90
394.10	1006.43
394.29	1022.81
394.49	1032.18
394.68	1135.16
394.88	1081.33
395.07	1167.93
395.26	1114.10
395.46	1128.14
395.65	1130.48
395.84	1046.22
396.04	1181.97
396.23	1029.84
396.42	1128.14
396.62	1172.61
396.81	1139.84
397.00	1165.59
397.19	1191.33
397.39	1151.54
397.58	1268.57
397.77	1287.29
397.97	1331.76
398.16	1221.76
398.35	1259.21
398.55	1315.38
398.74	1219.42
398.93	1275.59
399.12	1308.36
399.32	1359.85
399.51	1289.64
399.70	1502.62
399.90	1371.55
400.09	1341.13
400.28	1432.41
400.47	1350.49
400.67	1533.05
400.86	1453.47
401.05	1423.05
401.24	1589.22
401.44	1519.01
401.63	1465.18
401.82	1530.71
402.01	1542.41
402.21	1584.54
402.40	1614.97
402.59	1603.27
402.78	1631.35
402.97	1544.75
403.17	1554.12
403.36	1584.54
403.55	1636.03
403.74	1626.67
403.93	1614.97
404.13	1664.12
404.32	1689.87
404.51	1664.12
404.70	1799.87
404.89	1643.06
405.09	1774.13
405.28	1685.19
405.47	1734.34
405.66	1771.79
405.85	1804.55
406.05	1809.23
406.24	1734.34
406.43	1757.74
406.62	1865.41
406.81	1891.15
407.00	1907.54
407.20	1839.66
407.39	1902.86
407.58	1891.15
407.77	2069.03
407.96	1923.92
408.15	1907.54
408.34	1933.28
408.54	1977.75
408.73	1982.43
408.92	2012.86
409.11	2113.50
409.30	2160.31
409.49	2069.03
409.68	2008.18
409.87	2253.94
410.07	2090.10
410.26	2193.08
410.45	2153.29
410.64	2186.06
410.83	2186.06
411.02	2209.47
411.21	2377.98
411.40	2312.45
411.59	2303.09
411.78	2270.32
411.98	2354.58
412.17	2478.63
412.36	2394.37
412.55	2445.86
412.74	2363.94
412.93	2476.29
413.12	2448.20
413.31	2518.42
413.50	2422.45
413.69	2427.14
413.88	2558.21
414.07	2532.46
414.26	2579.27
414.45	2597.99
414.64	2686.94
414.83	2679.91
415.02	2689.28
415.22	2752.47
415.41	2722.04
415.60	2806.30
415.79	2902.26
415.98	2888.22
416.17	2846.09
416.36	2832.05
416.55	2846.09
416.74	3009.93
416.93	2925.67
417.12	2897.58
417.31	2895.24
417.50	2923.33
417.69	3180.79
417.88	3066.10
418.07	3068.44
418.26	3042.70
418.45	3066.10
418.64	3243.98
418.83	3173.77
419.02	3222.92
419.21	3276.75
419.39	3234.62
419.58	3155.04
419.77	3272.07
419.96	3246.32
420.15	3248.66
420.34	3407.82
420.53	3304.84
420.72	3377.39
420.91	3353.99
421.10	3405.48
421.29	3328.24
421.48	3482.72
421.67	3616.13
421.86	3405.48
422.05	3339.94
422.24	3459.31
422.43	3461.65
422.61	3522.51
422.80	3478.04
422.99	3536.55
423.18	3545.91
423.37	3616.13
423.56	3492.08
423.75	3552.93
423.94	3487.40
424.13	3204.19
424.32	3379.73
424.50	3550.59
424.69	3646.55
424.88	3723.79
425.07	3592.72
425.26	3609.11
425.45	3548.25
425.64	3623.15
425.83	3583.36
426.01	3609.11
426.20	3613.79
426.39	3695.71
426.58	3747.20
426.77	3644.21
426.96	3789.33
427.15	3700.39
427.33	3730.81
427.52	3644.21
427.71	3618.47
427.90	3625.49
428.09	3824.44
428.28	3833.80
428.46	3709.75
428.65	3770.60
428.84	3962.53
429.03	3831.46
429.22	3749.54
429.40	3681.66
429.59	3775.28
429.78	3644.21
429.97	3733.15
430.16	3747.20
430.34	4016.36
430.53	3808.05
430.72	3892.31
430.91	4037.42
431.10	4072.53
431.28	4173.18
431.47	4329.99
431.66	4135.73
431.85	3997.64
432.03	4205.94
432.22	4329.99
432.41	4234.03
432.60	4222.33
432.79	4198.92
432.97	4257.43
433.16	4236.37
433.35	4121.68
433.54	4402.55
433.72	4124.02
433.91	4329.99
434.10	4456.38
434.28	4304.25
434.47	4437.66
434.66	4465.74
434.85	4470.42
435.03	4421.27
435.22	4475.10
435.41	4734.90
435.59	4489.15
435.78	4582.77
435.97	4739.58
436.16	4599.15
436.34	4531.28
436.53	4697.46
436.72	4823.84
436.90	4638.94
437.09	4746.61
437.28	4648.30
437.46	4737.24
437.65	4847.25
437.84	4695.11
438.02	4748.95
438.21	4711.50
438.40	4807.46
438.58	4894.06
438.77	4947.89
438.96	4915.12
439.14	5069.60
439.33	4954.91
439.52	5167.90
439.70	5212.37
439.89	5107.05
440.08	5149.18
440.26	5221.74
440.45	5224.08
440.63	5317.70
440.82	5467.49
441.01	5383.23
441.19	5432.38
441.38	5554.09
441.57	5540.05
441.75	5469.83
441.94	5647.71
442.12	5607.92
442.31	5687.50
442.50	5598.56
442.68	5638.35
442.87	5694.52
443.05	5738.99
443.24	5748.36
443.43	5867.72
443.61	5802.19
443.80	5991.77
443.98	5830.27
444.17	5523.66
444.35	5764.74
444.54	5970.71
444.73	5900.49
444.91	5753.04
445.10	5636.01
445.28	5849.00
445.47	5956.66
445.65	5844.32
445.84	5846.66
446.02	5984.75
446.21	5982.41
446.39	5844.32
446.58	6003.47
446.77	5959.00
446.95	6015.18
447.14	5961.34
447.32	5947.30
447.51	6057.31
447.69	6010.50
447.88	6132.20
448.06	6108.80
448.25	6015.18
448.43	6059.65
448.62	6005.81
448.80	6155.61
448.99	6181.35
449.17	6282.00
449.36	6090.07
449.54	6422.43
449.73	6223.48
449.91	6373.28
450.10	6328.81
450.28	6509.03
450.46	6380.30
450.65	6422.43
450.83	6387.32
451.02	6541.80
451.20	6530.09
451.39	6403.71
451.57	6661.16
451.76	6448.18
451.94	6399.02
452.13	6586.27
452.31	6450.52
452.49	6389.66
452.68	6710.32
452.86	6335.83
453.05	6705.63
453.23	6602.65
453.42	6473.92
453.60	6707.98
453.78	6679.89
453.97	6679.89
454.15	6677.55
454.34	6633.08
454.52	6787.55
454.70	6745.42
454.89	6960.75
455.07	6911.60
455.26	6888.20
455.44	7103.53
455.62	7014.59
455.81	7148.00
455.99	7140.97
456.17	7136.29
456.36	7126.93
456.54	7206.51
456.73	7183.10
456.91	7562.27
457.09	7204.17
457.28	7400.77
457.46	7211.19
457.64	7438.22
457.83	7316.51
458.01	7283.75
458.19	7452.27
458.38	7393.75
458.56	7573.97
458.74	7417.16
458.93	7531.84
459.11	7449.93
459.29	7583.34
459.48	7730.79
459.66	7588.02
459.84	7573.97
460.03	7866.54
460.21	7737.81
460.39	7756.54
460.57	7721.43
460.76	7695.68
460.94	7868.88
461.12	7903.99
461.31	7836.11
461.49	7644.19
461.67	7822.07
461.85	8004.63
462.04	7948.46
462.22	8336.99
462.40	8021.02
462.59	8042.08
462.77	8135.70
462.95	8032.72
463.13	7995.27
463.32	8243.37
463.50	8243.37
463.68	8159.11
463.86	8304.22
464.05	8018.68
464.23	8283.16
464.41	8304.22
464.59	8135.70
464.78	8503.17
464.96	8390.82
465.14	8004.63
465.32	8430.61
465.50	8535.93
465.69	8404.86
465.87	8374.44
466.05	8533.59
466.23	8587.43
466.41	8407.20
466.60	8870.63
466.78	8439.97
466.96	8580.40
467.14	8404.86
467.32	8496.14
467.51	8699.77
467.69	8439.97
467.87	8627.21
468.05	8877.65
468.23	8718.50
468.41	8659.98
468.60	8648.28
468.78	8816.80
468.96	8791.05
469.14	8924.46
469.32	8912.76
469.50	8706.79
469.69	8795.73
469.87	9097.66
470.05	9085.96
470.23	9067.24
470.41	8975.95
470.59	9132.77
470.77	9200.65
470.95	9100.00
471.14	9277.88
471.32	9001.70
471.50	9458.10
471.68	9359.80
471.86	9233.41
472.04	9312.99
472.22	9720.24
472.40	9315.33
472.58	9448.74
472.77	9533.00
472.95	9493.21
473.13	9935.57
473.31	9745.99
473.49	9645.35
473.67	9692.16
473.85	9834.93
474.03	9930.89
474.21	9891.10
474.39	10125.16
474.57	10061.96
474.75	10200.05
474.93	10207.08
475.12	10289.00
475.30	10331.12
475.48	10363.89
475.66	10340.49
475.84	10134.52
476.02	10516.03
476.20	10452.83
476.38	10803.91
476.56	11042.65
476.74	10862.43
476.92	10654.12
477.10	10808.59
477.28	11016.90
477.46	10981.79
477.64	11126.91
477.82	11473.31
478.00	11480.33
478.18	11634.80
478.36	11632.46
478.54	11676.93
478.72	11648.85
478.90	11768.21
479.08	12037.38
479.26	12046.74
479.44	12032.69
479.62	12149.72
479.80	12374.41
479.98	12084.19
480.16	12421.22
480.34	12346.33
480.52	12468.03
480.70	12641.23
480.88	12456.33
481.06	12568.68
481.24	12786.35
481.41	13114.02
481.59	13266.16
481.77	13310.63
481.95	13329.35
482.13	13525.96
482.31	13291.90
482.49	13549.36
482.67	13535.32
482.85	13862.99
483.03	13965.98
483.21	13996.40
483.39	14174.28
483.57	14045.55
483.74	14333.44
483.92	14394.29
484.10	14171.94
484.28	14588.56
484.46	14932.62
484.64	15145.61
484.82	14609.62
485.00	14780.48
485.18	15267.31
485.35	15335.19
485.53	15161.99
485.71	15201.78
485.89	15393.70
486.07	15274.34
486.25	15489.67
486.43	15637.12
486.61	15833.72
486.78	15985.86
486.96	16002.24
487.14	16390.77
487.32	16355.66
487.50	16528.86
487.68	17011.01
487.85	17156.13
488.03	17088.25
488.21	17181.87
488.39	16835.47
488.57	17114.00
488.75	17195.92
488.92	17937.87
489.10	18085.32
489.28	18132.13
489.46	18221.07
489.64	18012.76
489.81	18558.11
489.99	18604.92
490.17	18534.70
490.35	19161.97
490.53	18876.42
490.70	19056.64
490.88	19082.39
491.06	19424.11
491.24	19089.41
491.41	19150.26
491.59	19374.95
491.77	19131.54
491.95	19564.54
492.13	19630.07
492.30	19770.51
492.48	20343.94
492.66	20154.35
492.84	20095.84
493.01	20456.28
493.19	20203.50
493.37	20982.90
493.54	20669.27
493.72	21041.42
493.90	20851.83
494.08	21064.82
494.25	21392.50
494.43	21434.63
494.61	22033.80
494.79	21645.27
494.96	21701.45
495.14	21369.09
495.32	21766.98
495.49	22080.61
495.67	22410.63
495.85	22230.41
496.02	22309.99
496.20	22270.20
496.38	22541.70
496.55	22780.43
496.73	23236.84
496.91	22838.95
497.09	22759.37
497.26	23452.17
497.44	23267.27
497.62	23084.70
497.79	23344.50
497.97	23323.44
498.14	23573.88
498.32	23625.37
498.50	23737.71
498.67	24254.97
498.85	24025.60
499.03	24479.66
499.20	24510.09
499.38	24582.65
499.56	24360.30
499.73	24730.10
499.91	24893.94
500.08	24664.57
500.26	24638.82
500.44	25039.05
500.61	24765.21
500.79	25310.55
500.97	25069.48
501.14	25355.02
501.32	25373.75
501.49	25280.13
501.67	25319.92
501.84	25834.83
502.02	26029.10
502.20	25818.45
502.37	26167.19
502.55	26029.10
502.72	26087.61
502.90	25895.69
503.07	25855.90
503.25	26462.10
503.43	26052.50
503.60	26052.50
503.78	26321.66
503.95	26216.34
504.13	26569.76
504.30	26700.83
504.48	27154.90
504.65	26939.57
504.83	27105.74
505.01	26993.40
505.18	27145.53
505.36	27431.08
505.53	27323.41
505.71	27838.33
505.88	27728.33
506.06	27489.59
506.23	27686.20
506.41	27864.08
506.58	27924.93
506.76	27843.01
506.93	28217.50
507.11	28025.57
507.28	28243.24
507.46	28161.33
507.63	27962.38
507.81	28287.71
507.98	28056.00
508.16	28673.90
508.33	28861.15
508.50	28851.78
508.68	28716.03
508.85	29050.73
509.03	28549.85
509.20	29043.71
509.38	29249.67
509.55	29415.85
509.73	29284.78
509.90	29254.36
510.08	29429.90
510.25	29457.98
510.42	29954.18
510.60	29986.94
510.77	29823.11
510.95	29919.07
511.12	30146.10
511.30	30239.72
511.47	30249.08
511.64	30628.25
511.82	30230.36
511.99	30221.00
512.17	30438.67
512.34	30375.47
512.51	30607.19
512.69	31087.00
512.86	30675.06
513.04	30803.79
513.21	30909.11
513.38	30787.41
513.56	30471.43
513.73	30668.04
513.90	31470.84
514.08	31089.34
514.25	31229.77
514.43	31405.31
514.60	31079.97
514.77	31051.89
514.95	31587.87
515.12	31538.72
515.29	31428.71
515.47	31983.42
515.64	31880.44
515.81	31372.54
515.99	31805.54
516.16	32058.32
516.33	31992.78
516.51	32041.93
516.68	32034.91
516.85	31805.54
517.03	31784.48
517.20	32243.22
517.37	32158.96
517.54	32388.33
517.72	32685.58
517.89	32191.73
518.06	32378.97
518.24	32779.20
518.41	32158.96
518.58	32769.84
518.75	32414.08
518.93	33228.59
519.10	32875.16
519.27	33315.19
519.45	32947.72
519.62	33181.77
519.79	33319.87
519.96	33336.25
520.14	33525.83
520.31	33479.02
520.48	33333.91
520.65	33675.63
520.83	33979.90
521.00	33722.44
521.17	33816.06
521.34	33963.51
521.52	34087.56
521.69	34412.90
521.86	34190.55
522.03	34216.29
522.20	34052.45
522.38	34443.32
522.55	34986.33
522.72	34195.23
522.89	34359.06
523.07	34555.67
523.24	34382.47
523.41	34927.81
523.58	34562.69
523.75	35189.95
523.92	34749.93
524.10	34939.52
524.27	35328.05
524.44	35232.08
524.61	35405.28
524.78	35913.18
524.96	35566.78
525.13	35419.33
525.30	35920.20
525.47	35229.74
525.64	35697.85
525.81	35711.89
525.98	35655.72
526.16	35655.72
526.33	35601.89
526.50	35782.11
526.67	35463.80
526.84	35840.62
527.01	35578.48
527.18	35875.73
527.36	36238.51
527.53	36168.30
527.70	36547.47
527.87	36744.07
528.04	36514.70
528.21	36561.51
528.38	36484.27
528.55	36641.09
528.72	36479.59
528.89	36701.94
529.07	37106.85
529.24	36938.33
529.41	36556.83
529.58	36891.52
529.75	36889.18
529.92	36893.86
530.09	37022.59
530.26	37368.99
530.43	37350.27
530.60	36964.08
530.77	37202.82
530.94	37090.47
531.11	37425.17
531.28	37266.01
531.46	37736.46
531.63	37628.79
531.80	37345.59
531.97	38014.98
532.14	37820.72
532.31	37420.48
532.48	37804.33
532.65	38108.60
532.82	37720.07
532.99	37785.61
533.16	37497.72
533.33	38270.10
533.50	38120.31
533.67	37937.74
533.84	38017.32
534.01	37975.19
534.18	37949.45
534.35	38490.11
534.52	38457.34
534.69	38183.50
534.86	38396.49
535.03	38279.46
535.20	39033.11
535.37	38937.15
535.54	39150.14
535.71	38618.84
535.88	38714.80
536.05	38780.34
536.22	38866.94
536.38	38693.74
536.55	38731.18
536.72	39061.20
536.89	38621.18
537.06	38712.46
537.23	39019.07
537.40	39000.35
537.57	39019.07
537.74	38932.47
537.91	39402.92
538.08	39250.78
538.25	39065.88
538.42	39480.16
538.59	39477.82
538.75	38932.47
538.92	39323.34
539.09	39686.12
539.26	39529.31
539.43	39524.63
539.60	39758.68
539.77	39878.05
539.94	39302.28
540.11	39557.39
540.28	39587.82
540.44	39482.50
540.61	39636.97
540.78	39372.49
540.95	39498.88
541.12	39941.24
541.29	39491.86
541.46	39611.23
541.62	39524.63
541.79	40041.88
541.96	39995.07
542.13	40168.27
542.30	39817.19
542.47	40390.62
542.63	40416.37
542.80	40355.52
542.97	40561.48
543.14	41020.23
543.31	40870.43
543.48	40540.42
543.64	41373.65
543.81	41081.08
543.98	40994.48
544.15	40830.65
544.32	41247.26
544.48	41251.94
544.65	41050.66
544.82	40959.38
544.99	40722.98
545.16	41488.34
545.32	40900.86
545.49	41668.56
545.66	41359.61
545.83	41057.68
546.00	41551.53
546.16	41713.03
546.33	41507.06
546.50	40982.78
546.67	41226.20
546.83	41001.50
547.00	41170.02
547.17	41205.13
547.34	41322.16
547.50	41443.87
547.67	42005.59
547.84	41972.83
548.00	41865.16
548.17	41951.76
548.34	41879.21
548.51	42506.47
548.67	41801.97
548.84	42384.76
549.01	41928.36
549.18	42099.22
549.34	42078.15
549.51	41858.14
549.68	42241.99
549.84	41935.38
550.01	42384.76
550.18	42127.30
550.34	41731.75
550.51	42326.25
550.68	41982.19
550.84	42007.94
551.01	42621.16
551.18	42078.15
551.34	42241.99
551.51	42192.84
551.68	42213.90
551.84	42541.58
552.01	42000.91
552.18	42080.49
552.34	42298.16
552.51	43014.37
552.68	42419.87
552.84	42801.38
553.01	43379.49
553.18	42897.34
553.34	42775.63
553.51	42246.67
553.67	42611.79
553.84	42672.65
554.01	43005.00
554.17	43203.95
554.34	42841.17
554.51	43058.84
554.67	43157.14
554.84	42824.78
555.00	42808.40
555.17	43124.37
555.33	42808.40
555.50	43119.69
555.67	43082.24
555.83	43157.14
556.00	43779.72
556.16	43379.49
556.33	43522.26
556.50	43384.17
556.66	43243.74
556.83	43187.56
556.99	44119.10
557.16	43482.47
557.32	43702.48
557.49	43384.17
557.65	43285.87
557.82	43615.88
557.98	43250.76
558.15	43789.08
558.32	43962.28
558.48	43342.04
558.65	43807.81
558.81	43063.52
558.98	43716.53
559.14	43622.90
559.31	43683.76
559.47	43681.42
559.64	43901.43
559.80	44437.41
559.97	43756.32
560.13	43704.82
560.30	43480.13
560.46	43742.27
560.63	43826.53
560.79	43882.70
560.96	44388.26
561.12	44009.09
561.29	44329.75
561.45	43608.86
561.61	43835.89
561.78	43768.02
561.94	43681.42
562.11	43634.61
562.27	43629.93
562.44	43456.73
562.60	44095.69
562.77	44165.91
562.93	43718.87
563.10	44034.84
563.26	43866.32
563.42	44259.53
563.59	44037.18
563.75	43667.37
563.92	44643.38
564.08	44318.04
564.24	44446.77
564.41	44299.32
564.57	44144.84
564.74	44041.86
564.90	44390.60
565.07	43997.39
565.23	43955.26
565.39	43789.08
565.56	44348.47
565.72	43805.47
565.88	44130.80
566.05	44126.12
566.21	43826.53
566.38	44294.64
566.54	44318.04
566.70	44671.46
566.87	44797.85
567.03	44568.48
567.19	44215.06
567.36	44421.03
567.52	44729.98
567.68	44516.99
567.85	44318.04
568.01	44563.80
568.17	44027.82
568.34	44781.47
568.50	44549.76
568.66	44273.57
568.83	44573.16
568.99	44409.32
569.15	44315.70
569.32	44392.94
569.48	44229.10
569.64	44495.92
569.81	44526.35
569.97	44641.04
570.13	44383.58
570.30	44666.78
570.46	44531.03
570.62	44414.01
570.78	44186.97
570.95	44013.77
571.11	44769.77
571.27	44257.19
571.43	44671.46
571.60	44957.01
571.76	44481.88
571.92	44322.72
572.09	44226.76
572.25	44573.16
572.41	44151.87
572.57	44772.11
572.74	44598.91
572.90	44985.10
573.06	44737.00
573.22	44952.33
573.38	44533.37
573.55	44659.76
573.71	44856.37
573.87	44542.74
574.03	44491.24
574.20	45024.89
574.36	44491.24
574.52	44842.32
574.68	44793.17
574.84	44538.05
575.01	44306.34
575.17	45153.62
575.33	44844.66
575.49	44713.59
575.65	45174.68
575.82	45324.47
575.98	44896.16
576.14	45020.20
576.30	44779.13
576.46	44460.82
576.62	44669.12
576.79	44500.61
576.95	44198.68
577.11	44896.16
577.27	44837.64
577.43	45214.47
577.59	44807.22
577.75	44631.68
577.92	44718.28
578.08	44830.62
578.24	44643.38
578.40	44636.36
578.56	44673.81
578.72	44500.61
578.88	44797.85
579.04	45111.49
579.21	44673.81
579.37	44727.64
579.53	44769.77
579.69	44580.18
579.85	44774.45
580.01	45212.13
580.17	45153.62
580.33	45120.85
580.49	45214.47
580.65	45062.33
580.82	44783.81
580.98	44767.43
581.14	44734.66
581.30	45162.98
581.46	45006.16
581.62	45008.50
581.78	44746.36
581.94	45574.91
582.10	44589.55
582.26	44949.99
582.42	44954.67
582.58	44884.45
582.74	44954.67
582.90	44715.93
583.06	44804.88
583.22	45057.65
583.38	44851.69
583.54	45050.63
583.70	44477.20
583.86	44905.52
584.02	44849.35
584.18	44673.81
584.34	45078.72
584.50	45268.30
584.66	44570.82
584.82	44671.46
584.98	45446.18
585.14	44947.65
585.30	44601.25
585.46	44861.05
585.62	44795.51
585.78	44788.49
585.94	44477.20
586.10	44708.91
586.26	44755.72
586.42	45111.49
586.58	44987.44
586.74	45270.64
586.90	45247.24
587.06	44732.32
587.22	44739.34
587.38	44692.53
587.54	45392.35
587.70	44921.90
587.86	44722.96
588.02	45268.30
588.18	45111.49
588.34	44861.05
588.49	44900.84
588.65	44828.28
588.81	44378.90
588.97	44678.49
589.13	44818.92
589.29	44924.24
589.45	45109.14
589.61	45193.40
589.77	45308.09
589.93	45350.22
590.08	45193.40
590.24	45368.94
