SpectraSuite Data File
++++++++++++++++++++++++++++++++++++
Date: Fri Oct 25 11:26:26 EDT 2013
User: price-jones
Dark Spectrum Present: No
Reference Spectrum Present: No
Number of Sampled Component Spectra: 1
Spectrometers: USB2+H05261
Integration Time (usec): 100000 (USB2+H05261)
Spectra Averaged: 1 (USB2+H05261)
Boxcar Smoothing: 0 (USB2+H05261)
Correct for Electrical Dark: No (USB2+H05261)
Strobe/Lamp Enabled: No (USB2+H05261)
Correct for Detector Non-linearity: No (USB2+H05261)
Correct for Stray Light: No (USB2+H05261)
Number of Pixels in Processed Spectrum: 2048
>>>>>Begin Processed Spectral Data<<<<<
365.73	248.10
365.92	248.10
366.12	248.10
366.32	191.92
366.52	107.66
366.72	138.09
366.91	128.73
367.11	93.62
367.31	105.32
367.51	107.66
367.70	56.17
367.90	91.28
368.10	107.66
368.30	152.13
368.49	133.41
368.69	138.09
368.89	198.95
369.09	212.99
369.28	131.07
369.48	194.26
369.68	74.90
369.87	205.97
370.07	210.65
370.27	332.36
370.47	360.44
370.66	613.22
370.86	592.16
371.06	601.52
371.25	716.20
371.45	601.52
371.65	760.67
371.84	617.90
372.04	704.50
372.24	744.29
372.44	760.67
372.63	709.18
372.83	727.91
373.03	692.80
373.22	746.63
373.42	746.63
373.62	809.83
373.81	823.87
374.01	807.48
374.21	812.17
374.40	767.70
374.60	851.96
374.79	814.51
374.99	737.27
375.19	840.25
375.38	805.14
375.58	936.21
375.78	912.81
375.97	931.53
376.17	926.85
376.37	896.43
376.56	917.49
376.76	814.51
376.95	798.12
377.15	936.21
377.35	875.36
377.54	849.61
377.74	936.21
377.93	854.30
378.13	880.04
378.33	926.85
378.52	976.00
378.72	1015.79
378.91	938.55
379.11	966.64
379.31	898.77
379.50	931.53
379.70	983.02
379.89	910.47
380.09	966.64
380.28	952.60
380.48	926.85
380.68	922.17
380.87	1032.18
381.07	1076.65
381.26	1015.79
381.46	1022.81
381.65	947.92
381.85	1088.35
382.04	1025.15
382.24	1046.22
382.43	1064.94
382.63	1057.92
382.83	1093.03
383.02	1074.31
383.22	1170.27
383.41	1046.22
383.61	1123.46
383.80	1153.88
384.00	1057.92
384.19	1144.52
384.39	1181.97
384.58	1181.97
384.78	1076.65
384.97	1200.69
385.17	1146.86
385.36	1135.16
385.56	1118.78
385.75	1151.54
385.95	1132.82
386.14	1226.44
386.34	1231.12
386.53	1198.35
386.72	1247.51
386.92	1231.12
387.11	1207.72
387.31	1224.10
387.50	1280.27
387.70	1306.02
387.89	1313.04
388.09	1306.02
388.28	1266.23
388.48	1247.51
388.67	1320.06
388.86	1392.62
389.06	1364.53
389.25	1313.04
389.45	1303.68
389.64	1296.66
389.84	1366.87
390.03	1399.64
390.22	1486.24
390.42	1441.77
390.61	1338.79
390.81	1425.39
391.00	1383.26
391.19	1502.62
391.39	1455.81
391.58	1483.90
391.78	1418.36
391.97	1500.28
392.16	1427.73
392.36	1483.90
392.55	1469.86
392.75	1570.50
392.94	1502.62
393.13	1530.71
393.33	1511.99
393.52	1509.65
393.71	1675.82
393.91	1614.97
394.10	1554.12
394.29	1607.95
394.49	1586.88
394.68	1626.67
394.88	1659.44
395.07	1748.38
395.26	1596.25
395.46	1703.91
395.65	1767.10
395.84	1687.53
396.04	1743.70
396.23	1664.12
396.42	1781.15
396.62	1739.02
396.81	1755.40
397.00	1682.85
397.19	1797.53
397.39	1893.49
397.58	1858.39
397.77	1785.83
397.97	1792.85
398.16	1799.87
398.35	1827.96
398.55	1825.62
398.74	1884.13
398.93	1996.48
399.12	1886.47
399.32	1830.30
399.51	1935.62
399.70	2038.61
399.90	1970.73
400.09	1973.07
400.28	2085.42
400.47	2012.86
400.67	2115.84
400.86	1937.96
401.05	2017.54
401.24	2090.10
401.44	2179.04
401.63	2132.23
401.82	2214.15
402.01	2050.31
402.21	2183.72
402.40	2148.61
402.59	2190.74
402.78	2141.59
402.97	2122.87
403.17	2256.28
403.36	2195.42
403.55	2200.10
403.74	2265.64
403.93	2377.98
404.13	2403.73
404.32	2310.11
404.51	2420.11
404.70	2438.84
404.89	2392.03
405.09	2497.35
405.28	2410.75
405.47	2471.61
405.66	2551.18
405.85	2612.04
406.05	2480.97
406.24	2490.33
406.43	2581.61
406.62	2614.38
406.81	2658.85
407.00	2597.99
407.20	2619.06
407.39	2621.40
407.58	2686.94
407.77	2630.76
407.96	2668.21
408.15	2801.62
408.34	2663.53
408.54	2785.24
408.73	2815.66
408.92	2778.22
409.11	2881.20
409.30	2836.73
409.49	2871.84
409.68	2956.10
409.87	2944.39
410.07	3047.38
410.26	2942.05
410.45	3035.67
410.64	3045.04
410.83	3061.42
411.02	3136.32
411.21	3215.90
411.40	2988.86
411.59	3187.81
411.78	3138.66
411.98	3201.85
412.17	3260.37
412.36	3251.00
412.55	3272.07
412.74	3391.44
412.93	3349.31
413.12	3243.98
413.31	3370.37
413.50	3513.14
413.69	3433.57
413.88	3482.72
414.07	3581.02
414.26	3527.19
414.45	3749.54
414.64	3693.37
414.83	3735.50
415.02	3768.26
415.22	3808.05
415.41	3850.18
415.60	3868.91
415.79	3791.67
415.98	4011.68
416.17	3969.55
416.36	3992.95
416.55	3990.61
416.74	4037.42
416.93	4023.38
417.12	4128.70
417.31	4056.15
417.50	4217.65
417.69	4341.69
417.88	4224.67
418.07	4166.15
418.26	4262.12
418.45	4222.33
418.64	4367.44
418.83	4435.32
419.02	4327.65
419.21	4402.55
419.39	4514.89
419.58	4545.32
419.77	4383.82
419.96	4493.83
420.15	4594.47
420.34	4561.70
420.53	4634.26
420.72	4718.52
420.91	4662.35
421.10	4819.16
421.29	4751.29
421.48	4554.68
421.67	4674.05
421.86	4798.10
422.05	4896.40
422.24	4837.89
422.43	4793.42
422.61	4823.84
422.80	4840.23
422.99	4910.44
423.18	4865.97
423.37	4898.74
423.56	4788.74
423.75	4851.93
423.94	4727.88
424.13	4683.41
424.32	4706.82
424.50	4968.96
424.69	5228.76
424.88	4873.00
425.07	4933.85
425.26	4835.55
425.45	4994.70
425.64	4964.28
425.83	4896.40
426.01	5020.45
426.20	4966.62
426.39	4983.00
426.58	5029.81
426.77	5149.18
426.96	4884.70
427.15	5181.95
427.33	5200.67
427.52	5095.35
427.71	5233.44
427.90	5256.84
428.09	5378.55
428.28	5350.46
428.46	5305.99
428.65	5298.97
428.84	5542.39
429.03	5298.97
429.22	5303.65
429.40	5446.43
429.59	5476.85
429.78	5275.57
429.97	5137.48
430.16	5427.70
430.34	5511.96
430.53	5638.35
430.72	5612.60
430.91	5556.43
431.10	5404.30
431.28	5542.39
431.47	5617.29
431.66	5762.40
431.85	5839.64
432.03	5874.74
432.22	5954.32
432.41	5877.09
432.60	5872.40
432.79	5820.91
432.97	6022.20
433.16	5994.11
433.35	5834.96
433.54	6087.73
433.72	6314.77
433.91	5970.71
434.10	6097.10
434.28	6118.16
434.47	6214.12
434.66	6300.72
434.85	6267.95
435.03	6190.72
435.22	6155.61
435.41	6429.45
435.59	6356.90
435.78	6319.45
435.97	6476.26
436.16	6506.69
436.34	6537.12
436.53	6576.91
436.72	6719.68
436.90	6457.54
437.09	6626.06
437.28	6387.32
437.46	6555.84
437.65	6635.42
437.84	6707.98
438.02	6719.68
438.21	6696.27
438.40	6548.82
438.58	7028.63
438.77	7000.54
438.96	7129.27
439.14	7033.31
439.33	7122.25
439.52	7133.95
439.70	7176.08
439.89	7122.25
440.08	7190.13
440.26	7300.13
440.45	7253.32
440.63	7372.69
440.82	7653.55
441.01	7522.48
441.19	7616.10
441.38	7737.81
441.57	7681.64
441.75	7791.64
441.94	7868.88
442.12	7911.01
442.31	8147.40
442.50	8060.80
442.68	8119.32
442.87	8030.38
443.05	7878.24
443.24	8290.18
443.43	8028.04
443.61	8280.82
443.80	8283.16
443.98	7962.50
444.17	7786.96
444.35	8252.73
444.54	8414.23
444.73	8301.88
444.91	8379.12
445.10	8301.88
445.28	8070.17
445.47	8109.96
445.65	8463.38
445.84	8278.47
446.02	8575.72
446.21	8322.94
446.39	8205.92
446.58	8430.61
446.77	8320.60
446.95	8208.26
447.14	8243.37
447.32	8594.45
447.51	8259.75
447.69	8512.53
447.88	8454.02
448.06	8554.66
448.25	8414.23
448.43	8521.89
448.62	8519.55
448.80	8430.61
448.99	8603.81
449.17	8674.03
449.36	8603.81
449.54	8851.91
449.73	8961.91
449.91	9083.62
450.10	8713.81
450.28	8926.80
450.46	9008.72
450.65	8947.87
450.83	8929.14
451.02	9090.64
451.20	9170.22
451.39	9242.78
451.57	9046.17
451.76	9102.34
451.94	9172.56
452.13	9228.73
452.31	9430.02
452.49	9146.81
452.68	9217.03
452.86	9408.95
453.05	9460.45
453.23	9394.91
453.42	9282.56
453.60	9284.91
453.78	9521.30
453.97	9165.54
454.15	9399.59
454.34	9617.26
454.52	9635.99
454.70	9671.09
454.89	9533.00
455.07	9729.61
455.26	9647.69
455.44	9891.10
455.62	9652.37
455.81	9741.31
455.99	9823.23
456.17	9905.15
456.36	9994.09
456.54	10183.67
456.73	10127.50
456.91	10162.61
457.09	10225.80
457.28	10471.56
457.46	10118.14
457.64	10317.08
457.83	10377.94
458.01	10441.13
458.19	10658.80
458.38	10452.83
458.56	10466.88
458.74	10534.75
458.93	10389.64
459.11	10558.16
459.29	10759.44
459.48	10792.21
459.66	10682.20
459.84	10553.48
460.03	10939.66
460.21	10696.25
460.39	10824.98
460.57	11084.78
460.76	10986.47
460.94	11253.30
461.12	11042.65
461.31	10998.18
461.49	11075.42
461.67	10911.58
461.85	11587.99
462.04	11304.79
462.22	11798.64
462.40	11487.35
462.59	11325.85
462.77	11492.03
462.95	11335.21
463.13	11449.90
463.32	11571.61
463.50	11805.66
463.68	11672.25
463.86	11768.21
464.05	11389.05
464.23	11737.79
464.41	11819.71
464.59	11756.51
464.78	11990.56
464.96	11683.95
465.14	11683.95
465.32	11803.32
465.50	12002.27
465.69	12037.38
465.87	12013.97
466.05	12177.81
466.23	12060.78
466.41	11927.37
466.60	12393.14
466.78	12154.40
466.96	12030.35
467.14	12315.90
467.32	11946.09
467.51	12449.31
467.69	12128.66
467.87	12519.53
468.05	12512.50
468.23	12421.22
468.41	12463.35
468.60	12648.26
468.78	12606.13
468.96	12421.22
469.14	12678.68
469.32	12786.35
469.50	12393.14
469.69	12697.41
469.87	12842.52
470.05	13090.62
470.23	13090.62
470.41	13097.64
470.59	13331.69
470.77	13357.44
470.95	12898.69
471.14	13284.88
471.32	13013.38
471.50	13345.73
471.68	13771.71
471.86	13425.31
472.04	13554.04
472.22	13900.44
472.40	13795.12
472.58	13685.11
472.77	13916.83
472.95	13933.21
473.13	14562.81
473.31	13928.53
473.49	13790.44
473.67	14111.09
473.85	14235.14
474.03	14171.94
474.21	14553.45
474.39	14829.63
474.57	14754.74
474.75	14960.70
474.93	14700.90
475.12	14883.47
475.30	15066.03
475.48	14820.27
475.66	14988.79
475.84	14934.96
476.02	15227.53
476.20	15393.70
476.38	15648.82
476.56	15878.19
476.74	15906.28
476.92	15960.11
477.10	15594.99
477.28	15974.16
477.46	15953.09
477.64	15927.35
477.82	16463.33
478.00	16711.42
478.18	16390.77
478.36	16648.23
478.54	17186.55
478.72	16905.69
478.90	17310.60
479.08	17481.46
479.26	17572.74
479.44	17469.76
479.62	17701.47
479.80	17818.50
479.98	17937.87
480.16	18422.36
480.34	18349.80
480.52	18438.74
480.70	18579.17
480.88	18092.34
481.06	18579.17
481.24	18761.73
481.41	18853.02
481.59	19328.14
481.77	19260.27
481.95	19566.88
482.13	19447.51
482.31	19520.07
482.49	20152.01
482.67	20091.16
482.85	20163.72
483.03	20627.14
483.21	20313.51
483.39	20900.98
483.57	20713.74
483.74	21020.35
483.92	21247.38
484.10	21032.05
484.28	21263.77
484.46	21823.16
484.64	22195.30
484.82	21972.95
485.00	22326.37
485.18	22520.63
485.35	23061.30
485.53	22682.13
485.71	22782.77
485.89	23243.86
486.07	23103.43
486.25	23531.75
486.43	23288.33
486.61	23721.33
486.78	23950.70
486.96	24006.87
487.14	24151.99
487.32	24631.80
487.50	24561.58
487.68	24872.87
487.85	24924.36
488.03	25188.85
488.21	25387.79
488.39	25940.16
488.57	25788.02
488.75	25949.52
488.92	26059.52
489.10	26602.53
489.28	26253.79
489.46	26998.08
489.64	27070.64
489.81	27480.23
489.99	27892.16
490.17	27793.86
490.35	27779.82
490.53	27976.42
490.70	28114.52
490.88	27669.81
491.06	28996.90
491.24	28264.31
491.41	28725.39
491.59	28762.84
491.77	28840.08
491.95	29483.73
492.13	29252.02
492.30	29780.98
492.48	29668.63
492.66	29977.58
492.84	29968.22
493.01	30485.48
493.19	30574.42
493.37	30810.81
493.54	30785.07
493.72	30920.82
493.90	31016.78
494.08	31569.15
494.25	32016.19
494.43	31835.97
494.61	32105.13
494.79	32306.41
494.96	32322.80
495.14	32479.61
495.32	32847.08
495.49	32826.01
495.67	32945.38
495.85	33380.72
496.02	33769.25
496.20	33986.92
496.38	33638.18
496.55	33886.28
496.73	34604.82
496.91	34340.34
497.09	34653.97
497.26	34604.82
497.44	34951.22
497.62	34916.11
497.79	35147.82
497.97	35016.75
498.14	35849.99
498.32	35576.14
498.50	35992.76
498.67	36208.09
498.85	35669.76
499.03	36332.14
499.20	36526.40
499.38	36409.37
499.56	36488.95
499.73	36835.35
499.91	36589.59
500.08	37326.86
500.26	37163.03
500.44	37226.22
500.61	37502.40
500.79	37205.16
500.97	37495.38
501.14	38263.08
501.32	38080.52
501.49	38293.50
501.67	38387.13
501.84	38586.07
502.02	38689.06
502.20	39100.99
502.37	39131.42
502.55	38780.34
502.72	39232.06
502.90	39442.71
503.07	39358.45
503.25	39218.02
503.43	39288.23
503.60	39786.77
503.78	40423.39
503.95	39318.66
504.13	40123.80
504.30	40456.16
504.48	40233.81
504.65	40507.65
504.83	40842.35
505.01	40802.56
505.18	41057.68
505.36	41411.10
505.53	41397.06
505.71	40919.59
505.88	41553.87
506.06	41099.81
506.23	41785.58
506.41	41326.84
506.58	41577.28
506.76	41881.55
506.93	42302.84
507.11	42335.61
507.28	42469.02
507.46	42586.05
507.63	42951.17
507.81	42895.00
507.98	42895.00
508.16	43283.53
508.33	42960.53
508.50	43110.33
508.68	42986.28
508.85	43648.65
509.03	43536.30
509.20	43679.08
509.38	44142.50
509.55	43973.98
509.73	44577.84
509.90	44128.46
510.08	44437.41
510.25	44296.98
510.42	44685.51
510.60	44435.07
510.77	44835.30
510.95	45083.40
511.12	44690.19
511.30	45052.97
511.47	45104.46
511.64	45343.20
511.82	45588.95
511.99	45081.06
512.17	45677.90
512.34	45242.56
512.51	45998.55
512.69	45727.05
512.86	45865.14
513.04	46241.96
513.21	46171.75
513.38	46490.06
513.56	46813.05
513.73	46438.57
513.90	47112.64
514.08	46972.21
514.25	46843.48
514.43	47075.19
514.60	47203.92
514.77	47271.80
514.95	47356.06
515.12	47356.06
515.29	47400.53
515.47	47760.97
515.64	47639.26
515.81	47662.67
515.99	47917.79
516.16	48023.11
516.33	48161.20
516.51	48594.20
516.68	48378.87
516.85	48271.21
517.03	48371.85
517.20	48423.34
517.37	48612.93
517.54	48404.62
517.72	48266.53
517.89	49050.61
518.06	48961.67
518.24	48772.08
518.41	48608.25
518.58	48980.39
518.75	49188.70
518.93	49312.75
519.10	49291.68
519.27	49502.33
519.45	49296.36
519.62	49626.38
519.79	49684.89
519.96	49654.47
520.14	50059.38
520.31	49851.07
520.48	50248.96
520.65	50045.33
520.83	50412.80
521.00	50450.25
521.17	50445.57
521.34	50419.82
521.52	50588.34
521.69	50529.83
521.86	50295.77
522.03	50806.01
522.20	50878.57
522.38	51063.47
522.55	51014.32
522.72	51049.42
522.89	50944.10
523.07	51323.27
523.24	51112.62
523.41	51547.96
523.58	50930.06
523.75	51526.89
523.92	51686.05
524.10	51444.98
524.27	51934.15
524.44	51838.18
524.61	51814.78
524.78	52006.70
524.96	51760.95
525.13	52163.52
525.30	52013.73
525.47	52367.15
525.64	52271.18
525.81	52486.51
525.98	52460.77
526.16	52367.15
526.33	52458.43
526.50	52399.91
526.67	52624.60
526.84	52624.60
527.01	52404.59
527.18	52781.42
527.36	52804.83
527.53	52933.56
527.70	53085.69
527.87	53282.30
528.04	53062.29
528.21	53083.35
528.38	53003.77
528.55	53265.91
528.72	53069.31
528.89	53338.47
529.07	53064.63
529.24	53460.18
529.41	53308.04
529.58	53670.82
529.75	53645.08
529.92	53591.25
530.09	53528.05
530.26	53776.15
530.43	53886.15
530.60	53689.55
530.77	53656.78
530.94	53759.76
531.11	53804.24
531.28	53965.73
531.46	54066.38
531.63	53865.09
531.80	54007.86
531.97	53993.82
532.14	54274.68
532.31	54183.40
532.48	54279.36
532.65	54490.01
532.82	54096.80
532.99	54712.36
533.16	54405.75
533.33	54642.15
533.50	54705.34
533.67	54691.30
533.84	54499.37
534.01	54787.26
534.18	54724.07
534.35	55147.70
534.52	54939.39
534.69	54937.05
534.86	54955.78
535.03	54677.25
535.20	55030.68
535.37	55147.70
535.54	55281.11
535.71	55100.89
535.88	55131.32
536.05	55248.35
536.22	55283.45
536.38	55583.04
536.55	55447.29
536.72	55400.48
536.89	55351.33
537.06	55585.38
537.23	55552.62
537.40	55173.45
537.57	55576.02
537.74	55536.23
537.91	55653.26
538.08	55842.84
538.25	55517.51
538.42	55756.24
538.59	55908.38
538.75	55536.23
538.92	55819.44
539.09	55870.93
539.26	55934.12
539.43	55833.48
539.60	56114.34
539.77	55945.83
539.94	56168.18
540.11	56109.66
540.28	56182.22
540.44	56411.59
540.61	56144.77
540.78	56191.58
540.95	56079.24
541.12	56165.84
541.29	56137.75
541.46	56226.69
541.62	56296.91
541.79	56411.59
541.96	56004.34
542.13	56587.13
542.30	56449.04
542.47	56610.54
542.63	56706.50
542.80	56807.14
542.97	56839.91
543.14	56853.95
543.31	57176.95
543.48	56891.40
543.64	57200.35
543.81	57242.48
543.98	57193.33
544.15	57031.83
544.32	57289.29
544.48	57305.68
544.65	57176.95
544.82	57104.39
544.99	57193.33
545.16	57366.53
545.32	57080.98
545.49	57366.53
545.66	57403.98
545.83	57399.30
546.00	57551.43
546.16	57425.04
546.33	57511.64
546.50	57146.52
546.67	57612.29
546.83	57434.41
547.00	57483.56
547.17	57371.21
547.34	57703.57
547.50	57986.77
547.67	57907.19
547.84	57616.97
548.00	57916.56
548.17	58213.80
548.34	57792.51
548.51	57991.45
548.67	57982.09
548.84	57946.98
549.01	57764.42
549.18	58047.63
549.34	58071.03
549.51	58040.60
549.68	58181.04
549.84	58038.26
550.01	58277.00
550.18	57963.37
550.34	58489.99
550.51	58279.34
550.68	58286.36
550.84	58115.50
551.01	58412.75
551.18	58272.32
551.34	58262.96
551.51	58588.29
551.68	58501.69
551.84	58522.76
552.01	58309.77
552.18	58623.40
552.34	58363.60
552.51	58543.82
552.68	58342.53
552.84	58372.96
553.01	58820.00
553.18	58403.39
553.34	58585.95
553.51	58567.23
553.67	58714.68
553.84	58585.95
554.01	58663.19
554.17	58997.88
554.34	58726.38
554.51	58777.87
554.67	58925.33
554.84	58770.85
555.00	58831.71
555.17	58782.55
555.33	58887.88
555.50	58820.00
555.67	58822.34
555.83	58908.94
556.00	59044.69
556.16	59260.02
556.33	59168.74
556.50	59047.04
556.66	58834.05
556.83	58876.18
556.99	59072.78
557.16	59098.53
557.32	59234.28
557.49	59379.39
557.65	59143.00
557.82	59047.04
557.98	59241.30
558.15	59187.47
558.32	59253.00
558.48	59164.06
558.65	59224.92
558.81	59180.45
558.98	59320.88
559.14	59377.05
559.31	59363.01
559.47	59463.65
559.64	59309.18
559.80	59529.19
559.97	59451.95
560.13	59451.95
560.30	59381.73
560.46	59568.97
560.63	59737.49
560.79	59515.14
560.96	59824.09
561.12	59599.40
561.29	59601.74
561.45	59760.90
561.61	59484.72
561.78	59489.40
561.94	59625.15
562.11	59781.96
562.27	59529.19
562.44	59835.80
562.60	59980.91
562.77	59812.39
562.93	59667.28
563.10	59962.18
563.26	59777.28
563.42	59859.20
563.59	59852.18
563.75	59702.38
563.92	59779.62
564.08	59767.92
564.24	59875.58
564.41	59959.84
564.57	59803.03
564.74	59948.14
564.90	60156.45
565.07	59814.73
565.23	59959.84
565.39	60009.00
565.56	60128.36
565.72	59962.18
565.88	60079.21
566.05	59875.58
566.21	59999.63
566.38	60229.01
566.54	60102.62
566.70	60273.48
566.87	60296.88
567.03	60104.96
567.19	60238.37
567.36	60168.15
567.52	60140.07
567.68	60357.74
567.85	60196.24
568.01	59812.39
568.17	60088.57
568.34	60268.79
568.50	60186.88
568.66	60111.98
568.83	60200.92
568.99	60296.88
569.15	60299.22
569.32	60294.54
569.48	60399.86
569.64	60114.32
569.81	60289.86
569.97	60458.38
570.13	60214.96
570.30	60090.91
570.46	60339.01
570.62	60451.36
570.78	60158.79
570.95	60306.24
571.11	60390.50
571.27	60341.35
571.43	60371.78
571.60	60554.34
571.76	60261.77
571.92	60521.57
572.09	60264.11
572.25	60331.99
572.41	60390.50
572.57	60458.38
572.74	60495.83
572.90	60264.11
573.06	60413.91
573.22	60437.31
573.38	60610.51
573.55	60559.02
573.71	60659.66
573.87	60554.34
574.03	60282.84
574.20	60580.09
574.36	60441.99
574.52	60544.98
574.68	60519.23
574.84	60844.57
575.01	60605.83
575.17	60530.93
575.33	60568.38
575.49	60463.06
575.65	60591.79
575.82	60757.97
575.98	60846.91
576.14	60624.56
576.30	60671.37
576.46	60549.66
576.62	60615.19
576.79	60498.17
576.95	60467.74
577.11	60650.30
577.27	60664.35
577.43	60477.10
577.59	60516.89
577.75	60575.40
577.92	60402.21
578.08	60425.61
578.24	60750.94
578.40	60839.89
578.56	60903.08
578.72	60552.00
578.88	60900.74
579.04	60825.84
579.21	60676.05
579.37	60835.20
579.53	60940.53
579.69	60477.10
579.85	60582.43
580.01	60598.81
580.17	60479.44
580.33	60846.91
580.49	60743.92
580.65	60952.23
580.82	60629.24
580.98	60746.26
581.14	60786.05
581.30	60872.65
581.46	60795.42
581.62	60743.92
581.78	60762.65
581.94	60746.26
582.10	60631.58
582.26	60615.19
582.42	60472.42
582.58	60788.39
582.74	60647.96
582.90	60788.39
583.06	60659.66
583.22	60530.93
583.38	60872.65
583.54	60739.24
583.70	60608.17
583.86	60893.72
584.02	60718.18
584.18	61036.49
584.34	60793.07
584.50	60889.04
584.66	60533.28
584.82	60566.04
584.98	61024.79
585.14	60786.05
585.30	60851.59
585.46	60917.12
585.62	60802.44
585.78	60797.76
585.94	60741.58
586.10	60870.31
586.26	60683.07
586.42	60938.19
586.58	61022.45
586.74	61001.38
586.90	60837.54
587.06	60884.36
587.22	61069.26
587.38	60814.14
587.54	60987.34
587.70	61095.00
587.86	60828.18
588.02	60757.97
588.18	61109.05
588.34	60786.05
588.49	60846.91
