SpectraSuite Data File
++++++++++++++++++++++++++++++++++++
Date: Fri Oct 25 11:24:08 EDT 2013
User: price-jones
Dark Spectrum Present: No
Reference Spectrum Present: No
Number of Sampled Component Spectra: 1
Spectrometers: USB2+H05261
Integration Time (usec): 100000 (USB2+H05261)
Spectra Averaged: 1 (USB2+H05261)
Boxcar Smoothing: 0 (USB2+H05261)
Correct for Electrical Dark: No (USB2+H05261)
Strobe/Lamp Enabled: No (USB2+H05261)
Correct for Detector Non-linearity: No (USB2+H05261)
Correct for Stray Light: No (USB2+H05261)
Number of Pixels in Processed Spectrum: 2048
>>>>>Begin Processed Spectral Data<<<<<
365.73	173.20
365.92	173.20
366.12	173.20
366.32	187.24
366.52	145.11
366.72	81.92
366.91	91.28
367.11	142.77
367.31	63.19
367.51	74.90
367.70	67.88
367.90	117.03
368.10	145.11
368.30	93.62
368.49	128.73
368.69	255.12
368.89	114.69
369.09	126.39
369.28	156.82
369.48	205.97
369.68	168.52
369.87	173.20
370.07	170.86
370.27	255.12
370.47	257.46
370.66	608.54
370.86	627.26
371.06	615.56
371.25	664.71
371.45	631.94
371.65	660.03
371.84	720.88
372.04	629.60
372.24	702.16
372.44	770.04
372.63	737.27
372.83	695.14
373.03	823.87
373.22	732.59
373.42	779.40
373.62	837.91
373.81	833.23
374.01	837.91
374.21	814.51
374.40	833.23
374.60	812.17
374.79	802.80
374.99	821.53
375.19	858.98
375.38	894.08
375.58	800.46
375.78	880.04
375.97	791.10
376.17	926.85
376.37	861.32
376.56	910.47
376.76	856.64
376.95	861.32
377.15	950.26
377.35	917.49
377.54	940.90
377.74	847.27
377.93	917.49
378.13	964.30
378.33	966.64
378.52	973.66
378.72	952.60
378.91	901.11
379.11	959.62
379.31	947.92
379.50	1022.81
379.70	968.98
379.89	952.60
380.09	994.73
380.28	959.62
380.48	931.53
380.68	971.32
380.87	931.53
381.07	964.30
381.26	1018.13
381.46	990.05
381.65	1069.62
381.85	1074.31
382.04	1006.43
382.24	1078.99
382.43	1006.43
382.63	1130.48
382.83	1022.81
383.02	1088.35
383.22	1025.15
383.41	1111.75
383.61	1132.82
383.80	1071.97
384.00	1086.01
384.19	1116.44
384.39	1160.91
384.58	1212.40
384.78	1174.95
384.97	1203.04
385.17	1139.84
385.36	1081.33
385.56	1179.63
385.75	1153.88
385.95	1224.10
386.14	1151.54
386.34	1165.59
386.53	1303.68
386.72	1172.61
386.92	1219.42
387.11	1191.33
387.31	1287.29
387.50	1315.38
387.70	1315.38
387.89	1219.42
388.09	1334.11
388.28	1247.51
388.48	1203.04
388.67	1240.48
388.86	1270.91
389.06	1411.34
389.25	1345.81
389.45	1376.24
389.64	1378.58
389.84	1371.55
390.03	1432.41
390.22	1409.00
390.42	1416.02
390.61	1448.79
390.81	1401.98
391.00	1366.87
391.19	1399.64
391.39	1437.09
391.58	1458.15
391.78	1502.62
391.97	1434.75
392.16	1413.68
392.36	1540.07
392.55	1523.69
392.75	1523.69
392.94	1469.86
393.13	1521.35
393.33	1526.03
393.52	1544.75
393.71	1619.65
393.91	1568.16
394.10	1540.07
394.29	1636.03
394.49	1689.87
394.68	1633.69
394.88	1680.50
395.07	1694.55
395.26	1652.42
395.46	1701.57
395.65	1736.68
395.84	1689.87
396.04	1703.91
396.23	1699.23
396.42	1795.19
396.62	1954.35
396.81	1827.96
397.00	1837.32
397.19	1802.21
397.39	1802.21
397.58	1760.08
397.77	1853.70
397.97	1795.19
398.16	1858.39
398.35	1926.26
398.55	1849.02
398.74	1888.81
398.93	1942.64
399.12	1933.28
399.32	1853.70
399.51	1916.90
399.70	1947.33
399.90	1998.82
400.09	2073.71
400.28	2106.48
400.47	1987.11
400.67	2172.02
400.86	2071.37
401.05	2202.44
401.24	2083.08
401.44	2143.93
401.63	2139.25
401.82	2179.04
402.01	2085.42
402.21	2113.50
402.40	2176.70
402.59	2193.08
402.78	2228.19
402.97	2267.98
403.17	2221.17
403.36	2260.96
403.55	2326.49
403.74	2399.05
403.93	2303.09
404.13	2293.72
404.32	2312.45
404.51	2277.34
404.70	2511.39
404.89	2520.76
405.09	2485.65
405.28	2469.27
405.47	2499.69
405.66	2518.42
405.85	2583.95
406.05	2614.38
406.24	2555.86
406.43	2560.55
406.62	2661.19
406.81	2717.36
407.00	2705.66
407.20	2480.97
407.39	2562.89
407.58	2661.19
407.77	2771.19
407.96	2705.66
408.15	2808.64
408.34	2679.91
408.54	2846.09
408.73	2827.37
408.92	2867.16
409.11	2911.63
409.30	2799.28
409.49	2855.45
409.68	2897.58
409.87	3047.38
410.07	3087.17
410.26	3030.99
410.45	3009.93
410.64	3110.57
410.83	3136.32
411.02	3061.42
411.21	3133.98
411.40	3218.24
411.59	3096.53
411.78	3166.74
411.98	3082.49
412.17	3311.86
412.36	3122.27
412.55	3344.63
412.74	3365.69
412.93	3499.10
413.12	3349.31
413.31	3566.98
413.50	3595.06
413.69	3527.19
413.88	3660.60
414.07	3660.60
414.26	3754.22
414.45	3679.32
414.64	3761.24
414.83	3840.82
415.02	3733.15
415.22	3918.06
415.41	3976.57
415.60	3889.97
415.79	3943.80
415.98	3960.19
416.17	3868.91
416.36	3782.31
416.55	3992.95
416.74	4168.49
416.93	4065.51
417.12	4135.73
417.31	4114.66
417.50	4168.49
417.69	4306.59
417.88	4231.69
418.07	4257.43
418.26	4355.74
418.45	4374.46
418.64	4603.83
418.83	4500.85
419.02	4390.84
419.21	4339.35
419.39	4610.86
419.58	4540.64
419.77	4521.92
419.96	4564.04
420.15	4739.58
420.34	4718.52
420.53	4662.35
420.72	4638.94
420.91	4662.35
421.10	4664.69
421.29	4898.74
421.48	4720.86
421.67	4821.50
421.86	4905.76
422.05	4744.27
422.24	4835.55
422.43	4975.98
422.61	5097.69
422.80	4999.38
422.99	5018.11
423.18	4894.06
423.37	5081.30
423.56	4884.70
423.75	4873.00
423.94	4833.21
424.13	4592.13
424.32	4819.16
424.50	4901.08
424.69	5221.74
424.88	5123.43
425.07	4905.76
425.26	5078.96
425.45	4880.02
425.64	5088.32
425.83	4964.28
426.01	5004.07
426.20	5029.81
426.39	5177.26
426.58	4975.98
426.77	5088.32
426.96	5158.54
427.15	5093.01
427.33	5338.76
427.52	5259.18
427.71	5296.63
427.90	5263.86
428.09	5212.37
428.28	5336.42
428.46	5444.09
428.65	5369.19
428.84	5596.22
429.03	5633.67
429.22	5502.60
429.40	5397.28
429.59	5427.70
429.78	5434.72
429.97	5343.44
430.16	5425.36
430.34	5633.67
430.53	5750.70
430.72	5659.42
430.91	5638.35
431.10	5657.07
431.28	5682.82
431.47	5781.12
431.66	5933.26
431.85	5727.29
432.03	6097.10
432.22	5996.45
432.41	6052.63
432.60	6033.90
432.79	5956.66
432.97	5956.66
433.16	6047.94
433.35	6083.05
433.54	6122.84
433.72	6181.35
433.91	6045.60
434.10	6069.01
434.28	6115.82
434.47	6146.25
434.66	6340.51
434.85	6326.47
435.03	6340.51
435.22	6289.02
435.41	6628.40
435.59	6541.80
435.78	6520.73
435.97	6464.56
436.16	6525.41
436.34	6401.37
436.53	6415.41
436.72	6745.42
436.90	6478.60
437.09	6431.79
437.28	6612.01
437.46	6509.03
437.65	6677.55
437.84	6801.60
438.02	6752.45
438.21	6885.86
438.40	6750.10
438.58	6974.80
438.77	6946.71
438.96	7089.48
439.14	7094.16
439.33	7328.22
439.52	7250.98
439.70	7258.00
439.89	7566.95
440.08	7468.65
440.26	7442.90
440.45	7548.23
440.63	7482.69
440.82	7723.77
441.01	7410.14
441.19	7688.66
441.38	7817.39
441.57	7756.54
441.75	7927.39
441.94	8198.90
442.12	7939.10
442.31	7889.95
442.50	8161.45
442.68	8011.65
442.87	7988.25
443.05	8060.80
443.24	8318.26
443.43	8145.06
443.61	8332.31
443.80	8521.89
443.98	8156.77
444.17	7864.20
444.35	8135.70
444.54	8224.64
444.73	8313.58
444.91	8362.73
445.10	8198.90
445.28	8456.36
445.47	8404.86
445.65	8592.11
445.84	8479.76
446.02	8622.53
446.21	8332.31
446.39	8468.06
446.58	8624.87
446.77	8606.15
446.95	8182.51
447.14	8538.27
447.32	8690.41
447.51	8599.13
447.69	8524.23
447.88	8517.21
448.06	8510.19
448.25	8549.98
448.43	8709.13
448.62	8624.87
448.80	8571.04
448.99	8781.69
449.17	8695.09
449.36	8814.46
449.54	8924.46
449.73	9032.13
449.91	9142.13
450.10	9029.79
450.28	9043.83
450.46	9104.68
450.65	9202.99
450.83	9214.69
451.02	9104.68
451.20	9160.86
451.39	9083.62
451.57	9303.63
451.76	9104.68
451.94	9334.06
452.13	9380.87
452.31	9458.10
452.49	9151.49
452.68	9497.89
452.86	9481.51
453.05	9385.55
453.23	9387.89
453.42	9322.35
453.60	9437.04
453.78	9451.08
453.97	9387.89
454.15	9305.97
454.34	9635.99
454.52	9710.88
454.70	9664.07
454.89	9926.21
455.07	9745.99
455.26	9961.32
455.44	9895.78
455.62	9928.55
455.81	9886.42
455.99	10256.23
456.17	10017.49
456.36	10246.87
456.54	10223.46
456.73	10438.79
456.91	10600.29
457.09	10523.05
457.28	10544.11
457.46	10267.93
457.64	10518.37
457.83	10604.97
458.01	10516.03
458.19	10895.19
458.38	10450.49
458.56	10785.19
458.74	10904.56
458.93	10757.10
459.11	10689.23
459.29	10782.85
459.48	10705.61
459.66	10934.98
459.84	10944.34
460.03	11080.10
460.21	11021.58
460.39	10815.62
460.57	11178.40
460.76	11281.38
460.94	11169.04
461.12	11339.90
461.31	11052.01
461.49	11178.40
461.67	11087.12
461.85	11550.54
462.04	11485.01
462.22	11571.61
462.40	11651.19
462.59	11506.07
462.77	11693.32
462.95	11630.12
463.13	11571.61
463.32	11566.93
463.50	11660.55
463.68	11826.73
463.86	12116.95
464.05	11590.33
464.23	11775.24
464.41	11885.24
464.59	11786.94
464.78	12081.85
464.96	12166.10
465.14	11950.78
465.32	12135.68
465.50	12311.22
465.69	12147.38
465.87	12086.53
466.05	12170.79
466.23	12201.21
466.41	12236.32
466.60	12360.37
466.78	12215.26
466.96	12138.02
467.14	12182.49
467.32	12320.58
467.51	12353.35
467.69	12191.85
467.87	12580.38
468.05	12638.89
468.23	12547.61
468.41	12638.89
468.60	12510.16
468.78	13076.57
468.96	12659.96
469.14	12952.52
469.32	13165.51
469.50	12664.64
469.69	13022.74
469.87	13013.38
470.05	13114.02
470.23	13275.52
470.41	13027.42
470.59	13284.88
470.77	13193.60
470.95	13214.66
471.14	13638.30
471.32	13158.49
471.50	13696.82
471.68	13694.47
471.86	13776.39
472.04	13769.37
472.22	13998.74
472.40	13575.11
472.58	13888.74
472.77	13891.08
472.95	14501.96
473.13	14623.67
473.31	13778.73
473.49	14342.80
473.67	14485.58
473.85	14242.16
474.03	14647.07
474.21	14916.23
474.39	14895.17
474.57	14808.57
474.75	14885.81
474.93	15030.92
475.12	14956.02
475.30	15023.90
475.48	14967.73
475.66	15103.48
475.84	15150.29
476.02	15548.18
476.20	15246.25
476.38	15847.77
476.56	16013.95
476.74	16236.30
476.92	16020.97
477.10	15922.66
477.28	16130.97
477.46	16051.39
477.64	16629.51
477.82	16596.74
478.00	17078.89
478.18	16847.18
478.36	16823.77
478.54	17158.47
478.72	17081.23
478.90	17481.46
479.08	17579.76
479.26	17682.75
479.44	17980.00
479.62	18052.55
479.80	18333.42
479.98	18354.48
480.16	18822.59
480.34	18417.68
480.52	19229.84
480.70	18672.79
480.88	18487.89
481.06	18735.99
481.24	18963.02
481.41	19183.03
481.59	19625.39
481.77	19438.15
481.95	19817.32
482.13	19887.53
482.31	19976.47
482.49	20512.46
482.67	20339.26
482.85	20613.10
483.03	20592.03
483.21	20851.83
483.39	21003.97
483.57	20652.89
483.74	21130.36
483.92	21710.81
484.10	21202.91
484.28	21635.91
484.46	22071.25
484.64	22895.12
484.82	22340.41
485.00	22522.98
485.18	22391.91
485.35	22876.40
485.53	22951.29
485.71	23056.62
485.89	23592.60
486.07	23304.71
486.25	23604.30
486.43	23660.48
486.61	23908.57
486.78	24023.26
486.96	24367.32
487.14	24673.93
487.32	24322.85
487.50	24898.62
487.68	24980.54
487.85	25493.12
488.03	25766.96
488.21	26321.66
488.39	25837.17
488.57	26031.44
488.75	26459.76
488.92	26721.90
489.10	26789.77
489.28	27084.68
489.46	27351.50
489.64	27229.79
489.81	27922.59
489.99	27861.74
490.17	27917.91
490.35	28463.25
490.53	28233.88
490.70	28800.29
490.88	28971.15
491.06	29099.88
491.24	29015.62
491.41	29394.79
491.59	29046.05
491.77	29401.81
491.95	29624.16
492.13	30326.32
492.30	30274.83
492.48	30068.86
492.66	30373.13
492.84	30548.67
493.01	31012.10
493.19	30843.58
493.37	31047.21
493.54	31147.85
493.72	31632.34
493.90	31796.18
494.08	31711.92
494.25	31913.20
494.43	31826.60
494.61	32699.62
494.79	32669.20
494.96	32804.95
495.14	32769.84
495.32	33020.28
495.49	33488.38
495.67	33708.40
495.85	33724.78
496.02	33825.42
496.20	34209.27
496.38	34015.01
496.55	34422.26
496.73	34951.22
496.91	34600.14
497.09	35306.98
497.26	35058.88
497.44	34998.03
497.62	35578.48
497.79	35908.50
497.97	35831.26
498.14	36299.37
498.32	36514.70
498.50	36465.55
498.67	36460.87
498.85	36463.21
499.03	36769.82
499.20	36804.92
499.38	37184.09
499.56	37326.86
499.73	37038.98
499.91	37282.39
500.08	37977.53
500.26	37874.55
500.44	37820.72
500.61	38272.44
500.79	38071.15
500.97	38330.95
501.14	38880.98
501.32	38689.06
501.49	38707.78
501.67	38780.34
501.84	39196.95
502.02	39054.18
502.20	39253.12
502.37	39201.63
502.55	39842.94
502.72	39370.15
502.90	39812.51
503.07	39608.89
503.25	40133.17
503.43	39798.47
503.60	40414.03
503.78	40313.39
503.95	40460.84
504.13	41165.34
504.30	40825.96
504.48	40737.02
504.65	40828.30
504.83	41088.10
505.01	42012.62
505.18	41326.84
505.36	41804.31
505.53	41682.60
505.71	42012.62
505.88	42157.73
506.06	41535.15
506.23	41830.05
506.41	42291.14
506.58	42457.32
506.76	42157.73
506.93	42904.36
507.11	42548.60
507.28	42892.66
507.46	42895.00
507.63	43131.39
507.81	43124.37
507.98	43243.74
508.16	43217.99
508.33	43950.58
508.50	44009.09
508.68	43697.80
508.85	44289.96
509.03	44304.00
509.20	44388.26
509.38	44542.74
509.55	44561.46
509.73	44280.60
509.90	44788.49
510.08	44603.59
510.25	44648.06
510.42	45237.87
510.60	44924.24
510.77	45350.22
510.95	45565.55
511.12	45312.77
511.30	45333.84
511.47	45720.02
511.64	46286.43
511.82	46143.66
511.99	46335.59
512.17	46234.94
512.34	46021.95
512.51	46265.37
512.69	46667.94
512.86	46571.98
513.04	46894.97
513.21	46749.86
513.38	47047.11
513.56	47026.04
513.73	46939.44
513.90	47370.10
514.08	47093.92
514.25	47522.24
514.43	47796.08
514.60	47501.17
514.77	47814.80
514.95	47767.99
515.12	47885.02
515.29	48004.39
515.47	48332.06
515.64	48367.17
515.81	48163.54
515.99	48498.24
516.16	48783.79
516.33	48601.22
516.51	48882.09
516.68	48568.46
516.85	48720.59
517.03	49181.68
517.20	49251.89
517.37	49048.27
517.54	48893.79
517.72	49195.72
517.89	49207.42
518.06	49219.13
518.24	49226.15
518.41	49727.02
518.58	49544.46
518.75	49766.81
518.93	49790.22
519.10	49710.64
519.27	50192.79
519.45	49855.75
519.62	50218.53
519.79	50047.68
519.96	50094.49
520.14	50429.18
520.31	50171.72
520.48	50997.93
520.65	50356.63
520.83	50632.81
521.00	50578.98
521.17	50660.90
521.34	50747.50
521.52	51007.29
521.69	50979.21
521.86	51292.84
522.03	51461.36
522.20	51817.12
522.38	51751.59
522.55	51554.98
522.72	51838.18
522.89	51679.03
523.07	51950.53
523.24	51714.14
523.41	51784.35
523.58	51868.61
523.75	52088.62
523.92	51901.38
524.10	52215.01
524.27	52339.06
524.44	52226.71
524.61	52435.02
524.78	52289.91
524.96	52390.55
525.13	52545.03
525.30	52186.92
525.47	52722.91
525.64	52846.96
525.81	52605.88
525.98	52924.19
526.16	52865.68
526.33	53146.54
526.50	53078.67
526.67	52945.26
526.84	53078.67
527.01	52968.66
527.18	53291.66
527.36	53132.50
527.53	53174.63
527.70	53301.02
527.87	53296.34
528.04	53127.82
528.21	53792.53
528.38	53764.45
528.55	53722.32
528.72	53109.10
528.89	53565.50
529.07	53483.58
529.24	53815.94
529.41	53935.30
529.58	54071.06
529.75	53860.41
529.92	53799.55
530.09	54085.10
530.26	54195.10
530.43	54064.03
530.60	53869.77
530.77	54096.80
530.94	54316.81
531.11	54066.38
531.28	54057.01
531.46	53935.30
531.63	54038.29
531.80	54370.64
531.97	54543.84
532.14	54915.99
532.31	54733.43
532.48	54609.38
532.65	54918.33
532.82	54735.77
532.99	54803.64
533.16	54595.34
533.33	54983.86
533.50	55215.58
533.67	54962.80
533.84	54911.31
534.01	54906.63
534.18	55033.02
534.35	55522.19
534.52	55222.60
534.69	55475.38
534.86	55690.71
535.03	55339.63
535.20	55636.87
535.37	55442.61
535.54	55454.31
535.71	55679.00
535.88	55538.57
536.05	55704.75
536.22	55880.29
536.38	55803.05
536.55	55636.87
536.72	55845.18
536.89	55622.83
537.06	55765.60
537.23	55992.64
537.40	55709.43
537.57	55826.46
537.74	55934.12
537.91	56027.74
538.08	56018.38
538.25	55716.45
538.42	56104.98
538.59	56399.89
538.75	56046.47
538.92	56301.59
539.09	56472.45
539.26	56486.49
539.43	56257.12
539.60	56306.27
539.77	56631.60
539.94	56718.20
540.11	56285.20
540.28	56645.65
540.44	56647.99
540.61	56645.65
540.78	56516.92
540.95	56610.54
541.12	56568.41
541.29	56378.82
541.46	56732.25
541.62	56669.05
541.79	56816.50
541.96	56427.98
542.13	56980.34
542.30	56912.47
542.47	56933.53
542.63	56945.23
542.80	57247.16
542.97	57317.38
543.14	57481.22
543.31	57298.65
543.48	57209.71
543.64	57764.42
543.81	57593.56
543.98	57366.53
544.15	57572.50
544.32	57656.76
544.48	57923.58
544.65	57483.56
544.82	57448.45
544.99	57439.09
545.16	57450.79
545.32	57609.95
545.49	57717.61
545.66	57996.13
545.83	57638.03
546.00	57752.72
546.16	57935.28
546.33	57691.86
546.50	57415.68
546.67	57731.65
546.83	57551.43
547.00	57937.62
547.17	57790.17
547.34	57932.94
547.50	57996.13
547.67	58298.06
547.84	58206.78
548.00	58211.46
548.17	58464.24
548.34	58115.50
548.51	58281.68
548.67	58422.11
548.84	58335.51
549.01	58410.41
549.18	58328.49
549.34	58387.00
549.51	58686.59
549.68	58515.73
549.84	58525.10
550.01	58550.84
550.18	58426.79
550.34	58471.26
550.51	58550.84
550.68	58717.02
550.84	58384.66
551.01	58618.72
551.18	58574.25
551.34	58497.01
551.51	58630.42
551.68	58670.21
551.84	58705.32
552.01	58522.76
552.18	58770.85
552.34	58576.59
552.51	58934.69
552.68	58646.80
552.84	58728.72
553.01	58948.73
553.18	58796.60
553.34	59100.87
553.51	58674.89
553.67	58962.78
553.84	59103.21
554.01	59124.27
554.17	59068.10
554.34	59124.27
554.51	59171.08
554.67	59154.70
554.84	59236.62
555.00	59018.95
555.17	58962.78
555.33	59114.91
555.50	59152.36
555.67	59346.62
555.83	59180.45
556.00	59367.69
556.16	59428.54
556.33	59365.35
556.50	59274.07
556.66	59611.10
556.83	59229.60
556.99	59540.89
557.16	59564.29
557.32	59559.61
557.49	59681.32
557.65	59416.84
557.82	59536.21
557.98	59468.33
558.15	59550.25
558.32	59774.94
558.48	59721.11
558.65	59678.98
558.81	59524.50
558.98	59496.42
559.14	59671.96
559.31	59784.30
559.47	59774.94
559.64	59898.99
559.80	59824.09
559.97	59966.87
560.13	59627.49
560.30	59868.56
560.46	59807.71
560.63	60009.00
560.79	60011.34
560.96	60086.23
561.12	60102.62
561.29	59884.95
561.45	59931.76
561.61	59976.23
561.78	59999.63
561.94	59882.61
562.11	60013.68
562.27	59861.54
562.44	60163.47
562.60	60236.03
562.77	60299.22
562.93	60027.72
563.10	60041.76
563.26	59908.35
563.42	60336.67
563.59	60093.25
563.75	59969.21
563.92	60067.51
564.08	60257.09
564.24	60385.82
564.41	60245.39
564.57	60313.26
564.74	60151.77
564.90	60189.22
565.07	60205.60
565.23	60245.39
565.39	60282.84
565.56	60392.84
565.72	60163.47
565.88	60161.13
566.05	60280.50
566.21	60357.74
566.38	60364.76
566.54	60308.58
566.70	60486.46
566.87	60486.46
567.03	60280.50
567.19	60645.62
567.36	60601.15
567.52	60294.54
567.68	60615.19
567.85	60486.46
568.01	60617.53
568.17	60486.46
568.34	60807.12
568.50	60596.47
568.66	60495.83
568.83	60523.91
568.99	60453.70
569.15	60530.93
569.32	60781.37
569.48	60460.72
569.64	60722.86
569.81	60402.21
569.97	60491.15
570.13	60619.88
570.30	60423.27
570.46	60608.17
570.62	60659.66
570.78	60659.66
570.95	60544.98
571.11	60825.84
571.27	60694.77
571.43	60474.76
571.60	60729.88
571.76	60680.73
571.92	60645.62
572.09	60739.24
572.25	60603.49
572.41	60774.35
572.57	60659.66
572.74	60910.10
572.90	60542.64
573.06	60874.99
573.22	60718.18
573.38	60729.88
573.55	60666.69
573.71	60933.51
573.87	60849.25
574.03	60523.91
574.20	60924.14
574.36	60596.47
574.52	60994.36
574.68	60945.21
574.84	60973.30
575.01	60975.64
575.17	60732.22
575.33	60736.90
575.49	60872.65
575.65	60842.23
575.82	60985.00
575.98	60739.24
576.14	61134.79
576.30	61048.19
576.46	60963.93
576.62	60961.59
576.79	60938.19
576.95	60931.17
577.11	60975.64
577.27	60912.44
577.43	61158.20
577.59	60889.04
577.75	60580.09
577.92	60743.92
578.08	60959.25
578.24	60900.74
578.40	61160.54
578.56	61043.51
578.72	60987.34
578.88	61127.77
579.04	61272.88
579.21	61102.03
579.37	61160.54
579.53	61109.05
579.69	60802.44
579.85	60596.47
580.01	60994.36
580.17	60917.12
580.33	61111.39
580.49	61015.43
580.65	60947.55
580.82	61137.13
580.98	61064.58
581.14	60931.17
581.30	60970.96
581.46	61006.06
581.62	61158.20
581.78	61057.56
581.94	60832.86
582.10	61141.81
582.26	60980.32
582.42	61001.38
582.58	60935.85
582.74	60914.78
582.90	60994.36
583.06	61109.05
583.22	60996.70
583.38	61078.62
583.54	61193.31
583.70	61055.21
583.86	61209.69
584.02	60842.23
584.18	61109.05
584.34	61085.64
584.50	61104.37
584.66	61064.58
584.82	61003.72
584.98	61193.31
585.14	61102.03
585.30	60940.53
585.46	61319.70
585.62	61146.50
585.78	61371.19
585.94	61010.74
586.10	61036.49
586.26	61223.73
586.42	61352.46
586.58	61008.40
586.74	60985.00
586.90	60987.34
587.06	61160.54
587.22	61436.72
587.38	61059.90
587.54	61235.44
587.70	61235.44
587.86	61190.97
588.02	61151.18
588.18	61471.83
588.34	61155.86
588.49	61195.65
