SpectraSuite Data File
++++++++++++++++++++++++++++++++++++
Date: Fri Oct 25 10:43:27 EDT 2013
User: price-jones
Dark Spectrum Present: No
Reference Spectrum Present: No
Number of Sampled Component Spectra: 1
Spectrometers: USB2+H05261
Integration Time (usec): 100000 (USB2+H05261)
Spectra Averaged: 1 (USB2+H05261)
Boxcar Smoothing: 0 (USB2+H05261)
Correct for Electrical Dark: No (USB2+H05261)
Strobe/Lamp Enabled: No (USB2+H05261)
Correct for Detector Non-linearity: No (USB2+H05261)
Correct for Stray Light: No (USB2+H05261)
Number of Pixels in Processed Spectrum: 2048
>>>>>Begin Processed Spectral Data<<<<<
365.73	173.20
365.92	173.20
366.12	173.20
366.32	11.70
366.52	56.17
366.72	72.56
366.91	0.00
367.11	0.00
367.31	4.68
367.51	28.09
367.70	9.36
367.90	95.96
368.10	9.36
368.30	133.41
368.49	53.83
368.69	39.79
368.89	93.62
369.09	16.38
369.28	0.00
369.48	72.56
369.68	37.45
369.87	49.15
370.07	114.69
370.27	133.41
370.47	250.44
370.66	379.17
370.86	449.38
371.06	418.96
371.25	475.13
371.45	425.98
371.65	468.11
371.84	512.58
372.04	493.85
372.24	500.87
372.44	505.56
372.63	416.62
372.83	489.17
373.03	435.34
373.22	449.38
373.42	517.26
373.62	564.07
373.81	564.07
374.01	496.19
374.21	566.41
374.40	582.79
374.60	552.37
374.79	559.39
374.99	489.17
375.19	524.28
375.38	582.79
375.58	573.43
375.78	709.18
375.97	559.39
376.17	594.50
376.37	540.66
376.56	603.86
376.76	578.11
376.95	566.41
377.15	650.67
377.35	648.33
377.54	704.50
377.74	697.48
377.93	568.75
378.13	564.07
378.33	655.35
378.52	641.31
378.72	599.18
378.91	620.24
379.11	653.01
379.31	634.29
379.50	638.97
379.70	702.16
379.89	718.54
380.09	674.07
380.28	688.12
380.48	681.10
380.68	690.46
380.87	559.39
381.07	697.48
381.26	589.82
381.46	739.61
381.65	641.31
381.85	636.63
382.04	636.63
382.24	720.88
382.43	676.41
382.63	734.93
382.83	643.65
383.02	734.93
383.22	737.27
383.41	599.18
383.61	816.85
383.80	725.57
384.00	793.44
384.19	793.44
384.39	730.25
384.58	744.29
384.78	800.46
384.97	807.48
385.17	837.91
385.36	821.53
385.56	807.48
385.75	779.40
385.95	847.27
386.14	873.02
386.34	772.38
386.53	814.51
386.72	732.59
386.92	821.53
387.11	784.08
387.31	870.68
387.50	861.32
387.70	819.19
387.89	938.55
388.09	821.53
388.28	828.55
388.48	802.80
388.67	912.81
388.86	849.61
389.06	873.02
389.25	971.32
389.45	1006.43
389.64	1004.09
389.84	947.92
390.03	999.41
390.22	1036.86
390.42	954.94
390.61	1001.75
390.81	1053.24
391.00	1050.90
391.19	1025.15
391.39	987.71
391.58	1057.92
391.78	1006.43
391.97	1053.24
392.16	1004.09
392.36	1069.62
392.55	1046.22
392.75	1004.09
392.94	961.96
393.13	971.32
393.33	1015.79
393.52	891.74
393.71	1036.86
393.91	1083.67
394.10	1069.62
394.29	1160.91
394.49	1165.59
394.68	1233.46
394.88	1240.48
395.07	1254.53
395.26	1235.80
395.46	1259.21
395.65	1266.23
395.84	1130.48
396.04	1306.02
396.23	1100.05
396.42	1156.22
396.62	1184.31
396.81	1266.23
397.00	1139.84
397.19	1240.48
397.39	1322.40
397.58	1301.34
397.77	1320.06
397.97	1399.64
398.16	1427.73
398.35	1394.96
398.55	1444.11
398.74	1476.88
398.93	1554.12
399.12	1514.33
399.32	1425.39
399.51	1465.18
399.70	1577.52
399.90	1596.25
400.09	1558.80
400.28	1626.67
400.47	1490.92
400.67	1610.29
400.86	1647.74
401.05	1612.63
401.24	1619.65
401.44	1689.87
401.63	1710.93
401.82	1593.90
402.01	1603.27
402.21	1685.19
402.40	1802.21
402.59	1734.34
402.78	1727.32
402.97	1717.95
403.17	1694.55
403.36	1788.17
403.55	1764.76
403.74	1760.08
403.93	1823.28
404.13	1762.42
404.32	1764.76
404.51	1823.28
404.70	1837.32
404.89	1799.87
405.09	2033.93
405.28	1909.88
405.47	1952.01
405.66	2069.03
405.85	1998.82
406.05	1935.62
406.24	2047.97
406.43	1877.11
406.62	1982.43
406.81	2146.27
407.00	1954.35
407.20	1987.11
407.39	2108.82
407.58	2090.10
407.77	2167.34
407.96	2277.34
408.15	2228.19
408.34	2214.15
408.54	2251.60
408.73	2282.02
408.92	2160.31
409.11	2204.78
409.30	2244.57
409.49	2195.42
409.68	2265.64
409.87	2200.10
410.07	2275.00
410.26	2399.05
410.45	2218.83
410.64	2406.07
410.83	2487.99
411.02	2462.24
411.21	2546.50
411.40	2448.20
411.59	2626.08
411.78	2602.68
411.98	2513.74
412.17	2572.25
412.36	2616.72
412.55	2579.27
412.74	2647.15
412.93	2689.28
413.12	2731.41
413.31	2651.83
413.50	2808.64
413.69	2862.48
413.88	2885.88
414.07	2878.86
414.26	2920.99
414.45	3005.25
414.64	2892.90
414.83	2935.03
415.02	3012.27
415.22	3103.55
415.41	3002.91
415.60	3054.40
415.79	3096.53
415.98	3197.17
416.17	3262.71
416.36	3119.93
416.55	3229.94
416.74	3110.57
416.93	3232.28
417.12	3173.77
417.31	3272.07
417.50	3206.53
417.69	3379.73
417.88	3412.50
418.07	3335.26
418.26	3290.79
418.45	3428.88
418.64	3595.06
418.83	3578.68
419.02	3389.10
419.21	3550.59
419.39	3566.98
419.58	3386.76
419.77	3562.30
419.96	3513.14
420.15	3662.94
420.34	3648.90
420.53	3595.06
420.72	3709.75
420.91	3791.67
421.10	3810.39
421.29	3836.14
421.48	3808.05
421.67	3908.69
421.86	3716.77
422.05	3714.43
422.24	3562.30
422.43	3803.37
422.61	3765.92
422.80	3896.99
422.99	3775.28
423.18	3948.48
423.37	3950.82
423.56	3850.18
423.75	3772.94
423.94	3758.90
424.13	3604.42
424.32	3768.26
424.50	3995.29
424.69	4145.09
424.88	3990.61
425.07	3786.99
425.26	3840.82
425.45	4011.68
425.64	3948.48
425.83	3632.51
426.01	3885.29
426.20	3885.29
426.39	3988.27
426.58	3836.14
426.77	3861.88
426.96	3801.03
427.15	3964.87
427.33	4004.66
427.52	4028.06
427.71	4112.32
427.90	4046.79
428.09	4163.81
428.28	4098.28
428.46	4154.45
428.65	4159.13
428.84	4236.37
429.03	4285.52
429.22	4021.04
429.40	4227.01
429.59	4046.79
429.78	3920.40
429.97	3861.88
430.16	4049.13
430.34	4032.74
430.53	4112.32
430.72	4124.02
430.91	4203.60
431.10	4198.92
431.28	4423.61
431.47	4716.18
431.66	4573.41
431.85	4519.57
432.03	4580.43
432.22	4510.21
432.41	4381.48
432.60	4454.04
432.79	4676.39
432.97	4737.24
433.16	4601.49
433.35	4482.13
433.54	4440.00
433.72	4514.89
433.91	4573.41
434.10	4629.58
434.28	4688.09
434.47	4758.31
434.66	4737.24
434.85	4959.60
435.03	4821.50
435.22	4924.49
435.41	4950.23
435.59	5107.05
435.78	5069.60
435.97	5057.90
436.16	5149.18
436.34	5116.41
436.53	5100.03
436.72	5043.85
436.90	5060.24
437.09	5078.96
437.28	5011.09
437.46	4947.89
437.65	4938.53
437.84	5064.92
438.02	5069.60
438.21	5163.22
438.40	5078.96
438.58	5298.97
438.77	5308.34
438.96	5427.70
439.14	5430.04
439.33	5591.54
439.52	5621.97
439.70	5556.43
439.89	5598.56
440.08	5570.48
440.26	5689.84
440.45	5738.99
440.63	5755.38
440.82	5935.60
441.01	5858.36
441.19	5877.09
441.38	5856.02
441.57	6195.40
441.75	6197.74
441.94	6235.19
442.12	6211.78
442.31	6253.91
442.50	6321.79
442.68	6057.31
442.87	6207.10
443.05	6258.59
443.24	6338.17
443.43	6258.59
443.61	6321.79
443.80	6527.75
443.98	6207.10
444.17	6221.14
444.35	6403.71
444.54	6387.32
444.73	6434.13
444.91	6476.26
445.10	6333.49
445.28	6324.13
445.47	6265.61
445.65	6349.87
445.84	6441.15
446.02	6480.94
446.21	6490.31
446.39	6740.74
446.58	6513.71
446.77	6614.35
446.95	6408.39
447.14	6492.65
447.32	6640.10
447.51	6551.16
447.69	6483.28
447.88	6532.44
448.06	6436.47
448.25	6637.76
448.43	6696.27
448.62	6499.67
448.80	6586.27
448.99	6565.20
449.17	6698.61
449.36	6537.12
449.54	6796.92
449.73	6993.52
449.91	7098.84
450.10	6904.58
450.28	7094.16
450.46	7056.72
450.65	6979.48
450.83	6895.22
451.02	7084.80
451.20	7187.79
451.39	6993.52
451.57	6942.03
451.76	7119.91
451.94	7030.97
452.13	7258.00
452.31	7129.27
452.49	6981.82
452.68	7035.65
452.86	7176.08
453.05	7363.33
453.23	7232.26
453.42	7211.19
453.60	7234.60
453.78	7360.98
453.97	7183.10
454.15	7180.76
454.34	7281.41
454.52	7300.13
454.70	7440.56
454.89	7375.03
455.07	7468.65
455.26	7536.52
455.44	7714.41
455.62	7562.27
455.81	7487.37
455.99	7609.08
456.17	7712.07
456.36	7707.38
456.54	7918.03
456.73	7833.77
456.91	8039.74
457.09	7971.86
457.28	8163.79
457.46	7730.79
457.64	8105.28
457.83	8067.83
458.01	7887.61
458.19	8140.38
458.38	7990.59
458.56	8262.09
458.74	8142.72
458.93	8210.60
459.11	8067.83
459.29	8339.33
459.48	8159.11
459.66	8140.38
459.84	8294.86
460.03	8421.25
460.21	8339.33
460.39	8435.29
460.57	8248.05
460.76	8365.07
460.94	8491.46
461.12	8407.20
461.31	8587.43
461.49	8596.79
461.67	8374.44
461.85	8690.41
462.04	8442.31
462.22	9132.77
462.40	8718.50
462.59	8805.10
462.77	8769.99
462.95	8891.70
463.13	8760.63
463.32	8952.55
463.50	8830.84
463.68	8954.89
463.86	8681.05
464.05	8793.39
464.23	8739.56
464.41	8868.29
464.59	8702.11
464.78	8821.48
464.96	8959.57
465.14	8887.01
465.32	8943.19
465.50	9331.72
465.69	9146.81
465.87	8978.30
466.05	9062.55
466.23	9015.74
466.41	8992.34
466.60	9226.39
466.78	8950.21
466.96	9128.09
467.14	9013.40
467.32	9217.03
467.51	9472.15
467.69	9011.06
467.87	9146.81
468.05	9207.67
468.23	9259.16
468.41	9256.82
468.60	9322.35
468.78	9626.62
468.96	9268.52
469.14	9696.84
469.32	9643.01
469.50	9441.72
469.69	9638.33
469.87	9745.99
470.05	9502.58
470.23	9516.62
470.41	9685.14
470.59	9757.69
470.77	9678.12
470.95	9710.88
471.14	9909.83
471.32	9926.21
471.50	10181.33
471.68	10160.27
471.86	10164.95
472.04	10204.74
472.22	10574.54
472.40	10094.73
472.58	10408.36
472.77	10111.11
472.95	10513.69
473.13	10651.78
473.31	10466.88
473.49	10352.19
473.67	10466.88
473.85	10452.83
474.03	10553.48
474.21	10785.19
474.39	10878.81
474.57	10930.30
474.75	11197.12
474.93	11143.29
475.12	11084.78
475.30	10960.73
475.48	10827.32
475.66	11164.36
475.84	11098.82
476.02	11112.86
476.20	11241.59
476.38	11543.52
476.56	11632.46
476.74	11494.37
476.92	11501.39
477.10	11693.32
477.28	11978.86
477.46	11868.86
477.64	11887.58
477.82	12135.68
478.00	12430.59
478.18	12430.59
478.36	12308.88
478.54	12596.76
478.72	12741.88
478.90	12854.22
479.08	12823.80
479.26	12791.03
479.44	12854.22
479.62	13259.13
479.80	13437.02
479.98	13322.33
480.16	13537.66
480.34	13614.90
480.52	13523.62
480.70	13460.42
480.88	13448.72
481.06	13600.85
481.24	13731.92
481.41	13923.85
481.59	14136.84
481.77	14305.35
481.95	14288.97
482.13	14298.33
482.31	14281.95
482.49	14801.55
482.67	14661.12
482.85	14684.52
483.03	14986.45
483.21	15108.16
483.39	15047.30
483.57	15243.91
483.74	15173.69
483.92	15407.75
484.10	15150.29
484.28	15438.17
484.46	15899.26
484.64	16081.82
484.82	15857.13
485.00	15929.69
485.18	16112.25
485.35	16318.22
485.53	15967.13
485.71	15658.18
485.89	16020.97
486.07	16231.62
486.25	16622.48
486.43	16917.39
486.61	16624.83
486.78	16919.73
486.96	17097.61
487.14	17156.13
487.32	17675.73
487.50	17727.22
487.68	17947.23
487.85	17881.69
488.03	18427.04
488.21	18560.45
488.39	18139.15
488.57	18361.50
488.75	18635.35
488.92	18679.82
489.10	19105.79
489.28	18937.27
489.46	19517.73
489.64	19468.58
489.81	20039.67
489.99	19999.88
490.17	19709.65
490.35	20088.82
490.53	20009.24
490.70	20100.52
490.88	20067.75
491.06	20465.64
491.24	20568.63
491.41	20353.30
491.59	20250.32
491.77	20463.30
491.95	20629.48
492.13	20889.28
492.30	21341.00
492.48	21298.88
492.66	21546.97
492.84	21523.57
493.01	21614.85
493.19	21642.93
493.37	21895.71
493.54	22148.49
493.72	21970.61
493.90	22195.30
494.08	22750.01
494.25	22691.49
494.43	22735.96
494.61	23388.97
494.79	23288.33
494.96	22963.00
495.14	23159.60
495.32	23241.52
495.49	23489.62
495.67	23721.33
495.85	23763.46
496.02	23929.64
496.20	24126.24
496.38	24236.25
496.55	24250.29
496.73	24505.41
496.91	24592.01
497.09	24444.56
497.26	24781.59
497.44	24786.27
497.62	24769.89
497.79	24940.75
497.97	24924.36
498.14	25378.43
498.32	25127.99
498.50	25355.02
498.67	25628.87
498.85	25596.10
499.03	25869.94
499.20	25860.58
499.38	25771.64
499.56	26160.17
499.73	26380.18
499.91	26396.56
500.08	26216.34
500.26	26017.40
500.44	25879.30
500.61	26214.00
500.79	26108.68
500.97	26368.48
501.14	26831.90
501.32	26862.33
501.49	26614.23
501.67	26969.99
501.84	27115.11
502.02	27297.67
502.20	27381.93
502.37	27482.57
502.55	27489.59
502.72	27730.67
502.90	27384.27
503.07	27648.75
503.25	27667.47
503.43	27630.02
503.60	28016.21
503.78	27948.34
503.95	27566.83
504.13	27969.40
504.30	28329.84
504.48	28343.89
504.65	28402.40
504.83	28219.84
505.01	28526.45
505.18	28650.50
505.36	28947.75
505.53	29383.09
505.71	29476.71
505.88	29053.07
506.06	28800.29
506.23	29179.46
506.41	29212.23
506.58	29383.09
506.76	29165.42
506.93	29776.30
507.11	29376.06
507.28	29640.54
507.46	29439.26
507.63	29404.15
507.81	29928.43
507.98	29338.62
508.16	29860.55
508.33	30218.66
508.50	30099.29
508.68	30499.52
508.85	30717.19
509.03	30199.93
509.20	30920.82
509.38	31000.40
509.55	30941.88
509.73	30534.63
509.90	30932.52
510.08	30902.09
510.25	31241.47
510.42	31267.22
510.60	31419.35
510.77	31356.16
510.95	31433.39
511.12	31056.57
511.30	31606.59
511.47	32123.85
511.64	31740.00
511.82	32165.98
511.99	31934.27
512.17	31920.23
512.34	31660.43
512.51	32203.43
512.69	32102.79
512.86	32449.19
513.04	32591.96
513.21	32163.64
513.38	32074.70
513.56	32046.62
513.73	32184.71
513.90	32809.63
514.08	32531.11
514.25	32891.55
514.43	32744.09
514.60	32793.25
514.77	32716.01
514.95	33078.79
515.12	33259.01
515.29	33350.29
515.47	33469.66
515.64	33996.28
515.81	33350.29
515.99	33312.84
516.16	33298.80
516.33	33315.19
516.51	33240.29
516.68	32779.20
516.85	32821.33
517.03	33118.58
517.20	33443.91
517.37	33741.16
517.54	34132.03
517.72	33764.57
517.89	33170.07
518.06	33495.41
518.24	33521.15
518.41	33853.51
518.58	34377.79
518.75	33947.13
518.93	34602.48
519.10	34426.94
519.27	35016.75
519.45	34717.17
519.62	34590.78
519.79	35051.86
519.96	34876.32
520.14	34923.13
520.31	34499.50
520.48	35192.30
520.65	35140.80
520.83	35264.85
521.00	35517.63
521.17	35171.23
521.34	35644.02
521.52	35550.40
521.69	35800.83
521.86	36086.38
522.03	35704.87
522.20	35608.91
522.38	35758.70
522.55	35845.30
522.72	36030.21
522.89	35613.59
523.07	36400.01
523.24	36598.96
523.41	36531.08
523.58	36037.23
523.75	36818.97
523.92	36971.10
524.10	36325.11
524.27	36776.84
524.44	36809.61
524.61	36421.08
524.78	36685.56
524.96	37041.32
525.13	37146.64
525.30	36994.51
525.47	37097.49
525.64	36793.22
525.81	37401.76
525.98	37254.31
526.16	37031.96
526.33	36676.19
526.50	37282.39
526.67	36594.28
526.84	37067.06
527.01	36858.76
527.18	37120.90
527.36	37759.86
527.53	37411.12
527.70	37811.35
527.87	37975.19
528.04	37832.42
528.21	38309.89
528.38	37818.38
528.55	38735.87
528.72	38410.53
528.89	38433.94
529.07	38768.63
529.24	38288.82
529.41	38064.13
529.58	38099.24
529.75	38291.16
529.92	38689.06
530.09	38885.66
530.26	38773.31
530.43	38656.29
530.60	38618.84
530.77	38574.37
530.94	39201.63
531.11	38660.97
531.28	38862.26
531.46	39349.09
531.63	39196.95
531.80	39098.65
531.97	38998.01
532.14	39330.36
532.31	38787.36
532.48	38986.30
532.65	39040.14
532.82	39173.55
532.99	39166.52
533.16	39302.28
533.33	39402.92
533.50	39964.65
533.67	39491.86
533.84	39608.89
534.01	39398.24
534.18	39220.36
534.35	39789.11
534.52	40044.23
534.69	39952.94
534.86	40034.86
535.03	39702.51
535.20	40205.72
535.37	40301.68
535.54	40189.34
535.71	40069.97
535.88	40493.61
536.05	40009.12
536.22	40053.59
536.38	40245.51
536.55	40072.31
536.72	40095.72
536.89	40006.78
537.06	40179.98
537.23	40947.67
537.40	40865.75
537.57	40371.90
537.74	40580.21
537.91	40673.83
538.08	40676.17
538.25	40392.97
538.42	40722.98
538.59	40952.35
538.75	40629.36
538.92	40900.86
539.09	41127.89
539.26	40526.38
539.43	40730.00
539.60	40856.39
539.77	40921.93
539.94	41118.53
540.11	41268.33
540.28	41244.92
540.44	41123.21
540.61	41219.17
540.78	41228.54
540.95	40882.14
541.12	41062.36
541.29	41097.47
541.46	41242.58
541.62	41308.11
541.79	41581.96
541.96	41200.45
542.13	41813.67
542.30	41361.95
542.47	41542.17
542.63	41876.86
542.80	41727.07
542.97	42286.46
543.14	41991.55
543.31	42216.24
543.48	42342.63
543.64	42333.27
543.81	42412.85
543.98	42632.86
544.15	42361.36
544.32	42447.96
544.48	42637.54
544.65	42127.30
544.82	42412.85
544.99	42029.00
545.16	41872.18
545.32	42192.84
545.49	42934.79
545.66	42995.64
545.83	42799.04
546.00	42649.24
546.16	43026.07
546.33	42059.43
546.50	42644.56
546.67	42630.52
546.83	42990.96
547.00	42806.06
547.17	42731.16
547.34	42789.67
547.50	42799.04
547.67	43508.22
547.84	43100.97
548.00	43164.16
548.17	43948.24
548.34	43173.52
548.51	43524.60
548.67	43459.07
548.84	43452.05
549.01	43379.49
549.18	42962.87
549.34	42857.55
549.51	43957.60
549.68	43318.64
549.84	43555.03
550.01	43665.03
550.18	43377.15
550.34	43407.58
550.51	43526.94
550.68	43557.37
550.84	43058.84
551.01	43459.07
551.18	43503.54
551.34	43688.44
551.51	43658.01
551.68	43861.64
551.84	43878.02
552.01	43526.94
552.18	44215.06
552.34	43232.04
552.51	43608.86
552.68	44074.63
552.84	44158.89
553.01	44023.14
553.18	44060.58
553.34	43983.35
553.51	43971.64
553.67	44280.60
553.84	44619.97
554.01	44327.41
554.17	44655.08
554.34	44252.51
554.51	44156.55
554.67	44493.58
554.84	44638.70
555.00	43964.62
555.17	43988.03
555.33	44383.58
555.50	44589.55
555.67	44325.07
555.83	44631.68
556.00	44161.23
556.16	45148.93
556.33	44229.10
556.50	44025.48
556.66	44727.64
556.83	44011.43
556.99	44692.53
557.16	44378.90
557.32	44350.81
557.49	44516.99
557.65	44561.46
557.82	44610.61
557.98	44575.50
558.15	44425.71
558.32	45221.49
558.48	44662.10
558.65	44416.35
558.81	44025.48
558.98	44591.89
559.14	44318.04
559.31	44404.64
559.47	44734.66
559.64	44488.90
559.80	44524.01
559.97	44854.03
560.13	44601.25
560.30	44612.95
560.46	44825.94
560.63	44830.62
560.79	45153.62
560.96	45275.32
561.12	44975.73
561.29	44591.89
561.45	45230.85
561.61	45432.14
561.78	45067.02
561.94	44535.71
562.11	44687.85
562.27	44877.43
562.44	44989.78
562.60	45123.19
562.77	45397.03
562.93	45160.64
563.10	44931.26
563.26	45139.57
563.42	45230.85
563.59	45008.50
563.75	45270.64
563.92	45441.50
564.08	45013.18
564.24	45291.71
564.41	45291.71
564.57	44844.66
564.74	44727.64
564.90	45296.39
565.07	45443.84
565.23	45127.87
565.39	44928.92
565.56	45296.39
565.72	45151.27
565.88	44917.22
566.05	45006.16
566.21	45275.32
566.38	45036.59
566.54	45174.68
566.70	45738.75
566.87	45762.15
567.03	45705.98
567.19	45642.79
567.36	45244.90
567.52	45614.70
567.68	45170.00
567.85	45041.27
568.01	45436.82
568.17	45378.31
568.34	45425.12
568.50	45003.82
568.66	45280.00
568.83	45399.37
568.99	45158.30
569.15	45078.72
569.32	45404.05
569.48	45331.50
569.64	46050.04
569.81	45191.06
569.97	45680.24
570.13	45464.91
570.30	44893.82
570.46	45336.18
570.62	44870.41
570.78	44907.86
570.95	45450.86
571.11	44989.78
571.27	44825.94
571.43	44980.42
571.60	45333.84
571.76	45193.40
571.92	45764.49
572.09	45588.95
572.25	45710.66
572.41	45375.97
572.57	45755.13
572.74	46213.88
572.90	45844.07
573.06	45727.05
573.22	45734.07
573.38	45024.89
573.55	45191.06
573.71	45956.42
573.87	45642.79
574.03	45315.11
574.20	45869.82
574.36	45090.42
574.52	45654.49
574.68	45443.84
574.84	45483.63
575.01	45893.22
575.17	45574.91
575.33	45209.79
575.49	45968.12
575.65	45432.14
575.82	46026.63
575.98	45787.90
576.14	45469.59
576.30	46117.92
576.46	45535.12
576.62	45378.31
576.79	45284.68
576.95	45347.88
577.11	45549.17
577.27	45790.24
577.43	45549.17
577.59	45205.11
577.75	45530.44
577.92	45354.90
578.08	45062.33
578.24	45064.67
578.40	45680.24
578.56	45979.82
578.72	45490.65
578.88	46141.32
579.04	45944.72
579.21	45755.13
579.37	45448.52
579.53	45528.10
579.69	45591.30
579.85	45371.28
580.01	45670.87
580.17	45310.43
580.33	45574.91
580.49	45947.06
580.65	45563.21
580.82	45455.54
580.98	45516.40
581.14	45270.64
581.30	45715.34
581.46	45612.36
581.62	45626.40
581.78	45315.11
581.94	45825.35
582.10	45951.74
582.26	45907.27
582.42	45565.55
582.58	45476.61
582.74	45446.18
582.90	46321.54
583.06	46071.10
583.22	46019.61
583.38	46108.55
583.54	45963.44
583.70	45925.99
583.86	45434.48
584.02	45713.00
584.18	45790.24
584.34	45713.00
584.50	45612.36
584.66	45933.01
584.82	45436.82
584.98	45392.35
585.14	45443.84
585.30	45675.55
585.46	45504.70
585.62	45485.97
585.78	45308.09
585.94	45443.84
586.10	45743.43
586.26	45656.83
586.42	46160.05
586.58	45921.31
586.74	45748.11
586.90	45441.50
587.06	45546.82
587.22	45841.73
587.38	45558.53
587.54	45750.45
587.70	45717.68
587.86	45764.49
588.02	45525.76
588.18	45839.39
588.34	45366.60
588.49	45563.21
588.65	45322.13
588.81	45132.55
588.97	45469.59
589.13	44982.76
589.29	45099.78
589.45	45453.20
589.61	45500.01
589.77	45874.50
589.93	45940.04
590.08	45558.53
