SpectraSuite Data File
++++++++++++++++++++++++++++++++++++
Date: Fri Oct 25 10:47:07 EDT 2013
User: price-jones
Dark Spectrum Present: No
Reference Spectrum Present: No
Number of Sampled Component Spectra: 1
Spectrometers: USB2+H05261
Integration Time (usec): 100000 (USB2+H05261)
Spectra Averaged: 1 (USB2+H05261)
Boxcar Smoothing: 0 (USB2+H05261)
Correct for Electrical Dark: No (USB2+H05261)
Strobe/Lamp Enabled: No (USB2+H05261)
Correct for Detector Non-linearity: No (USB2+H05261)
Correct for Stray Light: No (USB2+H05261)
Number of Pixels in Processed Spectrum: 2048
>>>>>Begin Processed Spectral Data<<<<<
365.73	163.84
365.92	163.84
366.12	163.84
366.32	65.54
366.52	93.62
366.72	114.69
366.91	16.38
367.11	21.06
367.31	0.00
367.51	25.75
367.70	77.24
367.90	7.02
368.10	86.60
368.30	53.83
368.49	70.22
368.69	98.30
368.89	51.49
369.09	187.24
369.28	88.94
369.48	95.96
369.68	88.94
369.87	121.71
370.07	49.15
370.27	170.86
370.47	182.56
370.66	390.87
370.86	374.49
371.06	425.98
371.25	411.93
371.45	430.66
371.65	463.43
371.84	454.06
372.04	437.68
372.24	430.66
372.44	479.81
372.63	435.34
372.83	477.47
373.03	428.32
373.22	512.58
373.42	479.81
373.62	526.62
373.81	491.51
374.01	535.98
374.21	547.69
374.40	512.58
374.60	575.77
374.79	578.11
374.99	519.60
375.19	538.32
375.38	528.96
375.58	603.86
375.78	634.29
375.97	615.56
376.17	638.97
376.37	589.82
376.56	566.41
376.76	578.11
376.95	557.05
377.15	557.05
377.35	559.39
377.54	559.39
377.74	629.60
377.93	535.98
378.13	622.58
378.33	648.33
378.52	643.65
378.72	615.56
378.91	622.58
379.11	631.94
379.31	566.41
379.50	592.16
379.70	613.22
379.89	606.20
380.09	624.92
380.28	528.96
380.48	681.10
380.68	552.37
380.87	573.43
381.07	636.63
381.26	683.44
381.46	650.67
381.65	692.80
381.85	690.46
382.04	596.84
382.24	676.41
382.43	709.18
382.63	678.76
382.83	718.54
383.02	643.65
383.22	711.52
383.41	695.14
383.61	699.82
383.80	732.59
384.00	678.76
384.19	732.59
384.39	688.12
384.58	704.50
384.78	765.36
384.97	793.44
385.17	758.33
385.36	891.74
385.56	760.67
385.75	784.08
385.95	800.46
386.14	725.57
386.34	786.42
386.53	812.17
386.72	763.01
386.92	779.40
387.11	819.19
387.31	805.14
387.50	823.87
387.70	807.48
387.89	770.04
388.09	791.10
388.28	861.32
388.48	835.57
388.67	770.04
388.86	851.96
389.06	884.72
389.25	877.70
389.45	945.58
389.64	847.27
389.84	959.62
390.03	957.28
390.22	884.72
390.42	866.00
390.61	905.79
390.81	992.39
391.00	1004.09
391.19	1027.50
391.39	912.81
391.58	926.85
391.78	999.41
391.97	966.64
392.16	908.13
392.36	1020.47
392.55	985.37
392.75	901.11
392.94	884.72
393.13	980.68
393.33	1018.13
393.52	971.32
393.71	1015.79
393.91	1025.15
394.10	1086.01
394.29	1001.75
394.49	1074.31
394.68	1046.22
394.88	1069.62
395.07	1158.57
395.26	1090.69
395.46	1128.14
395.65	1086.01
395.84	1135.16
396.04	1064.94
396.23	1153.88
396.42	1135.16
396.62	1181.97
396.81	1064.94
397.00	1142.18
397.19	1184.31
397.39	1163.25
397.58	1252.19
397.77	1151.54
397.97	1270.91
398.16	1240.48
398.35	1256.87
398.55	1273.25
398.74	1217.08
398.93	1289.64
399.12	1303.68
399.32	1299.00
399.51	1327.08
399.70	1411.34
399.90	1320.06
400.09	1369.21
400.28	1397.30
400.47	1465.18
400.67	1430.07
400.86	1476.88
401.05	1453.47
401.24	1420.71
401.44	1427.73
401.63	1483.90
401.82	1371.55
402.01	1446.45
402.21	1430.07
402.40	1490.92
402.59	1561.14
402.78	1558.80
402.97	1614.97
403.17	1589.22
403.36	1654.76
403.55	1481.56
403.74	1554.12
403.93	1565.82
404.13	1703.91
404.32	1666.46
404.51	1614.97
404.70	1771.79
404.89	1636.03
405.09	1671.14
405.28	1715.61
405.47	1624.33
405.66	1774.13
405.85	1792.85
406.05	1746.04
406.24	1757.74
406.43	1694.55
406.62	1757.74
406.81	1891.15
407.00	1783.49
407.20	1727.32
407.39	1867.75
407.58	1909.88
407.77	1827.96
407.96	1865.41
408.15	1921.58
408.34	1891.15
408.54	1881.79
408.73	2003.50
408.92	1975.41
409.11	2064.35
409.30	2064.35
409.49	2033.93
409.68	2054.99
409.87	2040.95
410.07	2010.52
410.26	2090.10
410.45	2073.71
410.64	2125.21
410.83	2136.91
411.02	2125.21
411.21	2249.25
411.40	2232.87
411.59	2214.15
411.78	2225.85
411.98	2321.81
412.17	2263.30
412.36	2317.13
412.55	2289.04
412.74	2464.58
412.93	2356.92
413.12	2422.45
413.31	2532.46
413.50	2328.83
413.69	2406.07
413.88	2579.27
414.07	2511.39
414.26	2619.06
414.45	2602.68
414.64	2600.34
414.83	2658.85
415.02	2698.64
415.22	2712.68
415.41	2693.96
415.60	2782.90
415.79	2729.06
415.98	2930.35
416.17	2808.64
416.36	2825.03
416.55	2808.64
416.74	2944.39
416.93	2799.28
417.12	2876.52
417.31	2920.99
417.50	3000.57
417.69	3000.57
417.88	2963.12
418.07	2832.05
418.26	2984.18
418.45	3148.02
418.64	3330.58
418.83	3239.30
419.02	3148.02
419.21	3166.74
419.39	3042.70
419.58	3122.27
419.77	3091.85
419.96	3225.26
420.15	3232.28
420.34	3393.78
420.53	3283.77
420.72	3335.26
420.91	3480.38
421.10	3337.60
421.29	3286.11
421.48	3346.97
421.67	3487.40
421.86	3386.76
422.05	3344.63
422.24	3321.22
422.43	3445.27
422.61	3480.38
422.80	3510.80
422.99	3501.44
423.18	3482.72
423.37	3445.27
423.56	3611.45
423.75	3428.88
423.94	3407.82
424.13	3265.05
424.32	3356.33
424.50	3527.19
424.69	3562.30
424.88	3466.33
425.07	3538.89
425.26	3431.23
425.45	3421.86
425.64	3428.88
425.83	3606.77
426.01	3515.48
426.20	3566.98
426.39	3566.98
426.58	3524.85
426.77	3606.77
426.96	3552.93
427.15	3503.78
427.33	3473.36
427.52	3702.73
427.71	3578.68
427.90	3684.00
428.09	3634.85
428.28	3761.24
428.46	3688.68
428.65	3681.66
428.84	3735.50
429.03	3733.15
429.22	3651.24
429.40	3763.58
429.59	3838.48
429.78	3508.46
429.97	3559.95
430.16	3669.96
430.34	3925.08
430.53	3868.91
430.72	3955.51
430.91	3904.01
431.10	3871.25
431.28	3915.72
431.47	4072.53
431.66	4149.77
431.85	4023.38
432.03	4170.83
432.22	3997.64
432.41	4154.45
432.60	4208.28
432.79	4170.83
432.97	4149.77
433.16	4210.62
433.35	4205.94
433.54	4177.86
433.72	4088.92
433.91	4236.37
434.10	4292.54
434.28	4266.80
434.47	4320.63
434.66	4425.95
434.85	4437.66
435.03	4447.02
435.22	4479.79
435.41	4451.70
435.59	4564.04
435.78	4617.88
435.97	4475.10
436.16	4582.77
436.34	4416.59
436.53	4575.75
436.72	4737.24
436.90	4444.68
437.09	4547.66
437.28	4528.94
437.46	4683.41
437.65	4498.51
437.84	4617.88
438.02	4645.96
438.21	4798.10
438.40	4610.86
438.58	4781.71
438.77	4898.74
438.96	4823.84
439.14	4929.17
439.33	4980.66
439.52	4985.34
439.70	4945.55
439.89	5214.71
440.08	5128.11
440.26	5177.26
440.45	5109.39
440.63	5240.46
440.82	5394.93
441.01	5289.61
441.19	5397.28
441.38	5408.98
441.57	5364.51
441.75	5509.62
441.94	5561.11
442.12	5582.18
442.31	5806.87
442.50	5701.54
442.68	5558.77
442.87	5493.24
443.05	5736.65
443.24	5720.27
443.43	5844.32
443.61	5774.10
443.80	5980.07
443.98	5699.20
444.17	5584.52
444.35	5626.65
444.54	5921.56
444.73	5813.89
444.91	5830.27
445.10	5905.17
445.28	5921.56
445.47	5720.27
445.65	5774.10
445.84	5753.04
446.02	5935.60
446.21	5879.43
446.39	5863.04
446.58	5942.62
446.77	6019.86
446.95	5699.20
447.14	5914.53
447.32	5902.83
447.51	5888.79
447.69	5968.37
447.88	5944.96
448.06	5980.07
448.25	6015.18
448.43	5984.75
448.62	6005.81
448.80	6026.88
448.99	6066.67
449.17	6134.54
449.36	5982.41
449.54	6228.17
449.73	6235.19
449.91	6202.42
450.10	6211.78
450.28	6384.98
450.46	6406.05
450.65	6244.55
450.83	6143.91
451.02	6401.37
451.20	6380.30
451.39	6438.81
451.57	6209.44
451.76	6384.98
451.94	6492.65
452.13	6394.34
452.31	6340.51
452.49	6314.77
452.68	6612.01
452.86	6532.44
453.05	6422.43
453.23	6602.65
453.42	6497.33
453.60	6466.90
453.78	6600.31
453.97	6464.56
454.15	6525.41
454.34	6586.27
454.52	6562.86
454.70	6773.51
454.89	6796.92
455.07	6722.02
455.26	6810.96
455.44	6876.49
455.62	6867.13
455.81	6715.00
455.99	6979.48
456.17	6892.88
456.36	6916.28
456.54	7000.54
456.73	6986.50
456.91	7164.38
457.09	7255.66
457.28	7368.01
457.46	7215.87
457.64	7300.13
457.83	7012.24
458.01	7185.44
458.19	7595.04
458.38	7353.96
458.56	7368.01
458.74	7258.00
458.93	7396.09
459.11	7229.91
459.29	7419.50
459.48	7339.92
459.66	7403.11
459.84	7557.59
460.03	7602.06
460.21	7648.87
460.39	7576.31
460.57	7489.71
460.76	7470.99
460.94	7606.74
461.12	7728.45
461.31	7796.32
461.49	7653.55
461.67	7801.01
461.85	7859.52
462.04	7796.32
462.22	8280.82
462.40	7978.89
462.59	7831.43
462.77	7925.05
462.95	8004.63
463.13	7899.31
463.32	7995.27
463.50	7885.26
463.68	7962.50
463.86	8107.62
464.05	7962.50
464.23	8065.49
464.41	7992.93
464.59	8072.51
464.78	8208.26
464.96	8224.64
465.14	7988.25
465.32	8145.06
465.50	8283.16
465.69	8444.65
465.87	8208.26
466.05	8318.26
466.23	8264.43
466.41	8189.53
466.60	8381.46
466.78	8205.92
466.96	8320.60
467.14	8306.56
467.32	8360.39
467.51	8456.36
467.69	8226.98
467.87	8477.42
468.05	8599.13
468.23	8545.30
468.41	8451.67
468.60	8517.21
468.78	8491.46
468.96	8454.02
469.14	8786.37
469.32	8779.35
469.50	8348.69
469.69	8814.46
469.87	8821.48
470.05	8821.48
470.23	8842.54
470.41	8718.50
470.59	8908.08
470.77	8908.08
470.95	9111.71
471.14	9184.26
471.32	8887.01
471.50	9128.09
471.68	9100.00
471.86	9160.86
472.04	9298.95
472.22	9467.47
472.40	9064.89
472.58	9219.37
472.77	9303.63
472.95	9638.33
473.13	9701.52
473.31	9570.45
473.49	9661.73
473.67	9518.96
473.85	9575.13
474.03	9987.07
474.21	9778.76
474.39	9909.83
474.57	9839.61
474.75	9905.15
474.93	10045.58
475.12	9914.51
475.30	10036.22
475.48	10270.27
475.66	10136.86
475.84	10143.88
476.02	10029.20
476.20	10391.98
476.38	10459.85
476.56	10668.16
476.74	10649.44
476.92	10597.95
477.10	10616.67
477.28	10633.05
477.46	10888.17
477.64	11082.44
477.82	11133.93
478.00	11232.23
478.18	11386.71
478.36	11283.72
478.54	11452.24
478.72	11592.67
478.90	11499.05
479.08	11726.08
479.26	11808.00
479.44	11854.81
479.62	12046.74
479.80	11915.67
479.98	12081.85
480.16	12229.30
480.34	12187.17
480.52	12285.47
480.70	12306.54
480.88	12046.74
481.06	12365.05
481.24	12552.29
481.41	12613.15
481.59	13025.08
481.77	12945.50
481.95	13095.30
482.13	13092.96
482.31	13114.02
482.49	13422.97
482.67	13240.41
482.85	13565.74
483.03	13420.63
483.21	14031.51
483.39	13855.97
483.57	14108.75
483.74	14029.17
483.92	14136.84
484.10	14054.92
484.28	14277.27
484.46	14373.23
484.64	14698.56
484.82	14441.11
485.00	14717.29
485.18	14923.26
485.35	15133.90
485.53	14799.21
485.71	15030.92
485.89	15297.74
486.07	15033.26
486.25	15307.10
486.43	15494.35
486.61	15515.41
486.78	15742.44
486.96	15779.89
487.14	16074.80
487.32	16051.39
487.50	16297.15
487.68	16376.73
487.85	16542.91
488.03	16730.15
488.21	16924.41
488.39	16891.65
488.57	17022.72
488.75	16943.14
488.92	17336.35
489.10	17427.63
489.28	17724.88
489.46	17921.48
489.64	17879.35
489.81	18270.22
489.99	18223.41
490.17	18263.20
490.35	18256.18
490.53	18623.64
490.70	18579.17
490.88	18696.20
491.06	19267.29
491.24	18712.58
491.41	18710.24
491.59	19096.43
491.77	19227.50
491.95	19197.07
492.13	19747.10
492.30	19459.21
492.48	19768.16
492.66	19658.16
492.84	19962.43
493.01	20299.47
493.19	20315.85
493.37	20381.38
493.54	20456.28
493.72	20685.65
493.90	20673.95
494.08	20664.59
494.25	21027.37
494.43	21179.51
494.61	21153.76
494.79	21387.82
494.96	21380.79
495.14	21277.81
495.32	21626.55
495.49	21486.12
495.67	21858.26
495.85	21743.58
496.02	21975.29
496.20	22492.55
496.38	22129.77
496.55	22164.87
496.73	22775.75
496.91	22286.58
497.09	22787.46
497.26	23023.85
497.44	22668.09
497.62	22986.40
497.79	23304.71
497.97	22998.10
498.14	23520.04
498.32	23349.18
498.50	23307.05
498.67	23749.42
498.85	23496.64
499.03	23786.86
499.20	24133.26
499.38	23960.06
499.56	24285.40
499.73	24360.30
499.91	24472.64
500.08	24451.58
500.26	23983.47
500.44	24526.47
500.61	24641.16
500.79	24786.27
500.97	24678.61
501.14	25083.52
501.32	24992.24
501.49	24893.94
501.67	25174.80
501.84	25207.57
502.02	25188.85
502.20	25397.15
502.37	25607.80
502.55	25649.93
502.72	25556.31
502.90	25652.27
503.07	25514.18
503.25	25846.54
503.43	25909.73
503.60	26267.83
503.78	25827.81
503.95	26036.12
504.13	25979.95
504.30	26293.58
504.48	26331.03
504.65	26396.56
504.83	26281.88
505.01	26998.08
505.18	26574.44
505.36	26780.41
505.53	27068.30
505.71	27197.02
505.88	27405.33
506.06	27126.81
506.23	27484.91
506.41	27122.13
506.58	27510.66
506.76	27232.13
506.93	27697.90
507.11	27653.43
507.28	27440.44
507.46	27737.69
507.63	27737.69
507.81	27850.03
507.98	27758.75
508.16	28027.92
508.33	28292.40
508.50	28381.34
508.68	28636.45
508.85	28917.32
509.03	28709.01
509.20	28402.40
509.38	28826.04
509.55	28823.70
509.73	28912.64
509.90	28797.95
510.08	29120.95
510.25	28713.69
510.42	29085.84
510.60	29277.76
510.77	29465.00
510.95	29237.97
511.12	29413.51
511.30	29387.77
511.47	29546.92
511.64	29956.52
511.82	29935.45
511.99	29647.57
512.17	29935.45
512.34	29865.24
512.51	29984.60
512.69	30359.09
512.86	30443.35
513.04	30433.99
513.21	30237.38
513.38	30607.19
513.56	30534.63
513.73	30162.48
513.90	30724.21
514.08	31028.48
514.25	30672.72
514.43	31112.74
514.60	30637.61
514.77	30859.96
514.95	31192.32
515.12	31124.44
515.29	31367.86
515.47	31632.34
515.64	31395.95
515.81	31501.27
515.99	31630.00
516.16	31318.71
516.33	31498.93
516.51	31730.64
516.68	31255.51
516.85	31189.98
517.03	31981.08
517.20	31852.35
517.37	31960.02
517.54	32039.59
517.72	32568.55
517.89	31962.36
518.06	32163.64
518.24	32217.47
518.41	32283.01
518.58	31981.08
518.75	31948.31
518.93	32465.57
519.10	32332.16
519.27	32800.27
519.45	32531.11
519.62	32582.60
519.79	33074.11
519.96	33102.20
520.14	33029.64
520.31	32711.33
520.48	33165.39
520.65	33359.66
520.83	33291.78
521.00	33586.69
521.17	33528.17
521.34	33858.19
521.52	33347.95
521.69	33605.41
521.86	33830.10
522.03	33727.12
522.20	33961.17
522.38	34199.91
522.55	33956.49
522.72	33773.93
522.89	33996.28
523.07	33982.24
523.24	34003.30
523.41	34176.50
523.58	34192.89
523.75	34866.96
523.92	34464.39
524.10	34476.09
524.27	35096.33
524.44	34801.43
524.61	35019.10
524.78	34932.50
524.96	34934.84
525.13	35185.27
525.30	35524.65
525.47	35653.38
525.64	34911.43
525.81	35058.88
525.98	35571.46
526.16	35243.79
526.33	35131.44
526.50	35440.39
526.67	35281.24
526.84	35129.10
527.01	35154.85
527.18	35461.46
527.36	35578.48
527.53	35777.43
527.70	35765.73
527.87	36259.58
528.04	36102.76
528.21	35555.08
528.38	35864.03
528.55	35964.67
528.72	36032.55
528.89	36224.47
529.07	36503.00
529.24	36549.81
529.41	36086.38
529.58	35934.24
529.75	36350.86
529.92	36645.77
530.09	36409.37
530.26	36837.69
530.43	36605.98
530.60	36449.16
530.77	36851.73
530.94	37078.77
531.11	36545.12
531.28	36912.59
531.46	37193.45
531.63	36996.85
531.80	36776.84
531.97	37282.39
532.14	36814.29
532.31	36872.80
532.48	37301.12
532.65	37273.03
532.82	37490.70
532.99	37413.46
533.16	37450.91
533.33	37418.14
533.50	37710.71
533.67	37701.35
533.84	37256.65
534.01	37855.82
534.18	37441.55
534.35	38078.18
534.52	37759.86
534.69	37979.87
534.86	38029.02
535.03	37848.80
535.20	37998.60
535.37	38019.66
535.54	38511.17
535.71	38007.96
535.88	38251.38
536.05	38312.23
536.22	38354.36
536.38	37979.87
536.55	38555.64
536.72	38649.27
536.89	38309.89
537.06	38349.68
537.23	38513.52
537.40	38726.50
537.57	38536.92
537.74	38136.69
537.91	39091.63
538.08	38897.36
538.25	38548.62
538.42	38843.53
538.59	39072.90
538.75	38621.18
538.92	39269.51
539.09	38855.23
539.26	39065.88
539.43	39285.89
539.60	39503.56
539.77	39412.28
539.94	38995.67
540.11	39342.06
540.28	39115.03
540.44	39306.96
540.61	39117.37
540.78	39117.37
540.95	39463.77
541.12	39402.92
541.29	39466.11
541.46	39292.91
541.62	39807.83
541.79	39646.33
541.96	39145.46
542.13	39611.23
542.30	39840.60
542.47	39517.60
542.63	39936.56
542.80	39910.82
542.97	40203.38
543.14	40165.93
543.31	39950.60
543.48	40044.23
543.64	40769.79
543.81	40671.49
543.98	40603.61
544.15	39992.73
544.32	40250.19
544.48	40954.69
544.65	40994.48
544.82	40809.58
544.99	40437.44
545.16	40493.61
545.32	40945.33
545.49	41060.02
545.66	40690.21
545.83	40687.87
546.00	41057.68
546.16	41106.83
546.33	41036.61
546.50	40781.49
546.67	40907.88
546.83	40612.98
547.00	41177.04
547.17	41043.63
547.34	40825.96
547.50	41408.76
547.67	41336.20
547.84	40886.82
548.00	41394.71
548.17	41563.23
548.34	40980.44
548.51	41617.07
548.67	41757.50
548.84	41287.05
549.01	41305.77
549.18	41191.09
549.34	41977.51
549.51	41771.54
549.68	41537.49
549.84	41535.15
550.01	41612.38
550.18	41448.55
550.34	41750.48
550.51	41886.23
550.68	41574.94
550.84	41816.01
551.01	42012.62
551.18	41832.39
551.34	42150.71
551.51	41876.86
551.68	42099.22
551.84	41949.42
552.01	42052.41
552.18	41883.89
552.34	41923.68
552.51	42066.45
552.68	41942.40
552.84	42043.04
553.01	43037.77
553.18	42373.06
553.34	41921.34
553.51	41841.76
553.67	42249.01
553.84	42653.92
554.01	42490.09
554.17	42841.17
554.34	42693.71
554.51	42492.43
554.67	42649.24
554.84	42770.95
555.00	42373.06
555.17	42806.06
555.33	42597.75
555.50	43056.50
555.67	42351.99
555.83	42820.10
556.00	43030.75
556.16	43311.61
556.33	42841.17
556.50	42719.46
556.66	42813.08
556.83	42717.12
556.99	42880.95
557.16	43002.66
557.32	43096.28
557.49	42981.60
557.65	42799.04
557.82	43187.56
557.98	42843.51
558.15	43086.92
558.32	43557.37
558.48	43288.21
558.65	43379.49
558.81	43054.15
558.98	43395.87
559.14	43489.49
559.31	43049.47
559.47	43304.59
559.64	43459.07
559.80	43477.79
559.97	43650.99
560.13	42920.74
560.30	43098.62
560.46	43522.26
560.63	43262.46
560.79	43459.07
560.96	43901.43
561.12	43124.37
561.29	43611.20
561.45	43658.01
561.61	43583.12
561.78	43267.14
561.94	43335.02
562.11	43063.52
562.27	43409.92
562.44	43445.02
562.60	43749.29
562.77	43709.50
562.93	43456.73
563.10	44137.82
563.26	43452.05
563.42	43536.30
563.59	43920.15
563.75	43641.63
563.92	43700.14
564.08	43983.35
564.24	43718.87
564.41	44107.40
564.57	43555.03
564.74	43751.63
564.90	43690.78
565.07	43917.81
565.23	44175.27
565.39	43789.08
565.56	44168.25
565.72	43847.60
565.88	43482.47
566.05	43812.49
566.21	43629.93
566.38	44161.23
566.54	43906.11
566.70	44163.57
566.87	44332.09
567.03	44168.25
567.19	44453.79
567.36	44135.48
567.52	43583.12
567.68	44067.61
567.85	43580.78
568.01	44062.93
568.17	44069.95
568.34	44327.41
568.50	43948.24
568.66	43779.72
568.83	44144.84
568.99	43688.44
569.15	43662.69
569.32	43885.04
569.48	43662.69
569.64	44577.84
569.81	44123.78
569.97	44261.87
570.13	43950.58
570.30	43758.66
570.46	43915.47
570.62	43990.37
570.78	43889.73
570.95	43840.57
571.11	44383.58
571.27	44137.82
571.43	44067.61
571.60	44147.18
571.76	44367.20
571.92	43945.90
572.09	43992.71
572.25	43931.86
572.41	44168.25
572.57	44350.81
572.74	44404.64
572.90	44470.18
573.06	44404.64
573.22	44360.17
573.38	44072.29
573.55	44013.77
573.71	44273.57
573.87	44264.21
574.03	44222.08
574.20	44245.49
574.36	44144.84
574.52	44095.69
574.68	44301.66
574.84	44772.11
575.01	44191.65
575.17	44369.54
575.33	44383.58
575.49	44067.61
575.65	44739.34
575.82	44708.91
575.98	44552.10
576.14	44699.55
576.30	44893.82
576.46	44591.89
576.62	44474.86
576.79	44133.14
576.95	44566.14
577.11	44545.08
577.27	44378.90
577.43	44488.90
577.59	44676.15
577.75	44402.30
577.92	44477.20
578.08	44030.16
578.24	44165.91
578.40	44388.26
578.56	44509.97
578.72	44142.50
578.88	44418.69
579.04	44650.40
579.21	44252.51
579.37	44378.90
579.53	44390.60
579.69	43906.11
579.85	44318.04
580.01	44484.22
580.17	44271.23
580.33	44739.34
580.49	44163.57
580.65	44617.63
580.82	44601.25
580.98	44240.81
581.14	44289.96
581.30	44594.23
581.46	44465.50
581.62	44210.38
581.78	44619.97
581.94	44734.66
582.10	44322.72
582.26	44343.79
582.42	44596.57
582.58	44268.89
582.74	43817.17
582.90	44320.38
583.06	44835.30
583.22	44605.93
583.38	44645.72
583.54	44514.65
583.70	44325.07
583.86	44360.17
584.02	44247.83
584.18	44662.10
584.34	44322.72
584.50	44339.11
584.66	44301.66
584.82	44425.71
584.98	44851.69
585.14	44615.29
585.30	44486.56
585.46	44428.05
585.62	44741.68
585.78	44219.74
585.94	44030.16
586.10	44657.42
586.26	44645.72
586.42	44875.09
586.58	44505.29
586.74	44753.38
586.90	44671.46
587.06	44369.54
587.22	44982.76
587.38	44425.71
587.54	44910.20
587.70	45013.18
587.86	44498.26
588.02	44755.72
588.18	44992.12
588.34	44348.47
588.49	44624.65
588.65	44395.28
588.81	44301.66
588.97	44470.18
589.13	44591.89
589.29	44917.22
589.45	44921.90
589.61	44739.34
589.77	44823.60
589.93	44737.00
590.08	44893.82
590.24	44783.81
