SpectraSuite Data File
++++++++++++++++++++++++++++++++++++
Date: Fri Oct 25 11:25:19 EDT 2013
User: price-jones
Dark Spectrum Present: No
Reference Spectrum Present: No
Number of Sampled Component Spectra: 1
Spectrometers: USB2+H05261
Integration Time (usec): 100000 (USB2+H05261)
Spectra Averaged: 1 (USB2+H05261)
Boxcar Smoothing: 0 (USB2+H05261)
Correct for Electrical Dark: No (USB2+H05261)
Strobe/Lamp Enabled: No (USB2+H05261)
Correct for Detector Non-linearity: No (USB2+H05261)
Correct for Stray Light: No (USB2+H05261)
Number of Pixels in Processed Spectrum: 2048
>>>>>Begin Processed Spectral Data<<<<<
365.73	215.33
365.92	215.33
366.12	215.33
366.32	208.31
366.52	161.50
366.72	210.65
366.91	205.97
367.11	86.60
367.31	175.54
367.51	140.43
367.70	67.88
367.90	135.75
368.10	187.24
368.30	140.43
368.49	138.09
368.69	217.67
368.89	245.76
369.09	173.20
369.28	189.58
369.48	187.24
369.68	203.63
369.87	220.01
370.07	191.92
370.27	294.91
370.47	367.46
370.66	596.84
370.86	662.37
371.06	716.20
371.25	685.78
371.45	678.76
371.65	727.91
371.84	716.20
372.04	650.67
372.24	655.35
372.44	739.61
372.63	791.10
372.83	788.76
373.03	770.04
373.22	741.95
373.42	732.59
373.62	737.27
373.81	755.99
374.01	870.68
374.21	861.32
374.40	770.04
374.60	767.70
374.79	912.81
374.99	821.53
375.19	858.98
375.38	800.46
375.58	828.55
375.78	936.21
375.97	858.98
376.17	880.04
376.37	819.19
376.56	877.70
376.76	891.74
376.95	863.66
377.15	882.38
377.35	912.81
377.54	844.93
377.74	896.43
377.93	809.83
378.13	884.72
378.33	898.77
378.52	844.93
378.72	971.32
378.91	985.37
379.11	919.83
379.31	922.17
379.50	983.02
379.70	936.21
379.89	938.55
380.09	889.40
380.28	976.00
380.48	973.66
380.68	1025.15
380.87	1057.92
381.07	1137.50
381.26	1067.28
381.46	1076.65
381.65	985.37
381.85	1071.97
382.04	1013.45
382.24	980.68
382.43	1053.24
382.63	1027.50
382.83	1151.54
383.02	1081.33
383.22	1020.47
383.41	1032.18
383.61	1165.59
383.80	1067.28
384.00	1022.81
384.19	1027.50
384.39	1160.91
384.58	1167.93
384.78	1043.88
384.97	1071.97
385.17	1123.46
385.36	1100.05
385.56	1153.88
385.75	1170.27
385.95	1177.29
386.14	1299.00
386.34	1235.80
386.53	1214.74
386.72	1217.08
386.92	1247.51
387.11	1338.79
387.31	1324.74
387.50	1193.67
387.70	1214.74
387.89	1240.48
388.09	1263.89
388.28	1198.35
388.48	1233.46
388.67	1324.74
388.86	1416.02
389.06	1306.02
389.25	1350.49
389.45	1275.59
389.64	1324.74
389.84	1460.49
390.03	1469.86
390.22	1376.24
390.42	1378.58
390.61	1350.49
390.81	1380.92
391.00	1441.77
391.19	1416.02
391.39	1474.54
391.58	1558.80
391.78	1430.07
391.97	1444.11
392.16	1448.79
392.36	1500.28
392.55	1504.96
392.75	1579.86
392.94	1497.94
393.13	1488.58
393.33	1434.75
393.52	1584.54
393.71	1579.86
393.91	1579.86
394.10	1621.99
394.29	1643.06
394.49	1596.25
394.68	1579.86
394.88	1652.42
395.07	1673.48
395.26	1582.20
395.46	1739.02
395.65	1629.01
395.84	1666.46
396.04	1783.49
396.23	1748.38
396.42	1774.13
396.62	1792.85
396.81	1732.00
397.00	1776.47
397.19	1717.95
397.39	1739.02
397.58	1832.64
397.77	1846.68
397.97	1830.30
398.16	1834.98
398.35	1823.28
398.55	1832.64
398.74	1856.04
398.93	2012.86
399.12	1905.20
399.32	1952.01
399.51	1930.94
399.70	2108.82
399.90	1844.34
400.09	1989.46
400.28	1982.43
400.47	2017.54
400.67	2040.95
400.86	2005.84
401.05	1984.77
401.24	2052.65
401.44	2040.95
401.63	2052.65
401.82	2127.55
402.01	2172.02
402.21	2235.21
402.40	2146.27
402.59	2143.93
402.78	2307.77
402.97	2221.17
403.17	2326.49
403.36	2176.70
403.55	2324.15
403.74	2251.60
403.93	2289.04
404.13	2282.02
404.32	2354.58
404.51	2396.71
404.70	2427.14
404.89	2464.58
405.09	2464.58
405.28	2356.92
405.47	2448.20
405.66	2448.20
405.85	2565.23
406.05	2569.91
406.24	2558.21
406.43	2534.80
406.62	2579.27
406.81	2609.70
407.00	2579.27
407.20	2490.33
407.39	2619.06
407.58	2626.08
407.77	2693.96
407.96	2787.58
408.15	2621.40
408.34	2607.36
408.54	2902.26
408.73	2799.28
408.92	2803.96
409.11	2881.20
409.30	2902.26
409.49	2789.92
409.68	2878.86
409.87	2888.22
410.07	3012.27
410.26	3094.19
410.45	2988.86
410.64	2949.08
410.83	2977.16
411.02	3033.33
411.21	3075.46
411.40	3117.59
411.59	3351.65
411.78	3297.81
411.98	3218.24
412.17	3248.66
412.36	3342.28
412.55	3391.44
412.74	3370.37
412.93	3335.26
413.12	3314.20
413.31	3466.33
413.50	3428.88
413.69	3309.52
413.88	3693.37
414.07	3513.14
414.26	3611.45
414.45	3674.64
414.64	3578.68
414.83	3791.67
415.02	3819.75
415.22	3702.73
415.41	3845.50
415.60	3775.28
415.79	3758.90
415.98	3822.09
416.17	3981.25
416.36	3953.16
416.55	3976.57
416.74	3929.76
416.93	4037.42
417.12	4117.00
417.31	4196.58
417.50	4173.18
417.69	4271.48
417.88	4334.67
418.07	4095.94
418.26	4315.95
418.45	4269.14
418.64	4461.06
418.83	4421.27
419.02	4231.69
419.21	4395.53
419.39	4507.87
419.58	4496.17
419.77	4428.29
419.96	4397.87
420.15	4652.98
420.34	4681.07
420.53	4599.15
420.72	4655.33
420.91	4716.18
421.10	4713.84
421.29	4809.80
421.48	4498.51
421.67	4629.58
421.86	4704.48
422.05	4762.99
422.24	4854.27
422.43	4865.97
422.61	4875.34
422.80	4936.19
422.99	4999.38
423.18	4877.68
423.37	5013.43
423.56	4903.42
423.75	4933.85
423.94	4805.12
424.13	4493.83
424.32	4791.08
424.50	5062.58
424.69	5053.22
424.88	5104.71
425.07	4887.04
425.26	5085.98
425.45	4945.55
425.64	4847.25
425.83	4985.34
426.01	4880.02
426.20	5046.20
426.39	5137.48
426.58	5125.77
426.77	5088.32
426.96	5139.82
427.15	5001.72
427.33	5266.21
427.52	5170.24
427.71	5123.43
427.90	5181.95
428.09	5364.51
428.28	5373.87
428.46	5203.01
428.65	5343.44
428.84	5565.79
429.03	5509.62
429.22	5273.23
429.40	5460.47
429.59	5399.62
429.78	5252.16
429.97	5139.82
430.16	5373.87
430.34	5441.75
430.53	5509.62
430.72	5680.48
430.91	5675.80
431.10	5507.28
431.28	5678.14
431.47	5720.27
431.66	5788.14
431.85	5832.62
432.03	5851.34
432.22	6104.12
432.41	5989.43
432.60	5961.34
432.79	5987.09
432.97	5987.09
433.16	5806.87
433.35	5851.34
433.54	5975.39
433.72	6080.71
433.91	6033.90
434.10	6134.54
434.28	5888.79
434.47	6057.31
434.66	6160.29
434.85	6232.85
435.03	6319.45
435.22	6289.02
435.41	6450.52
435.59	6282.00
435.78	6448.18
435.97	6490.31
436.16	6347.53
436.34	6406.05
436.53	6555.84
436.72	6654.14
436.90	6504.35
437.09	6722.02
437.28	6392.00
437.46	6619.04
437.65	6675.21
437.84	6682.23
438.02	6722.02
438.21	6668.19
438.40	6663.51
438.58	6913.94
438.77	6785.21
438.96	6883.52
439.14	6965.43
439.33	7056.72
439.52	7215.87
439.70	7283.75
439.89	7199.49
440.08	7255.66
440.26	7428.86
440.45	7506.10
440.63	7321.20
440.82	7475.67
441.01	7428.86
441.19	7784.62
441.38	7751.85
441.57	7520.14
441.75	7761.22
441.94	7824.41
442.12	7847.82
442.31	8039.74
442.50	8037.40
442.68	7892.29
442.87	8046.76
443.05	8234.00
443.24	8128.68
443.43	8086.55
443.61	8056.12
443.80	8439.97
443.98	7992.93
444.17	7873.56
444.35	8070.17
444.54	8292.52
444.73	8098.25
444.91	8320.60
445.10	8287.84
445.28	8327.63
445.47	8100.59
445.65	8224.64
445.84	8273.79
446.02	8430.61
446.21	8238.69
446.39	8400.18
446.58	8542.96
446.77	8465.72
446.95	8285.50
447.14	8344.01
447.32	8549.98
447.51	8313.58
447.69	8372.10
447.88	8381.46
448.06	8271.45
448.25	8416.57
448.43	8678.71
448.62	8446.99
448.80	8613.17
448.99	8627.21
449.17	8627.21
449.36	8587.43
449.54	8767.65
449.73	8997.02
449.91	8821.48
450.10	8982.98
450.28	8966.59
450.46	8903.40
450.65	8875.31
450.83	8901.06
451.02	8961.91
451.20	9121.07
451.39	9242.78
451.57	9165.54
451.76	9011.06
451.94	9067.24
452.13	9320.01
452.31	9280.22
452.49	9034.47
452.68	9308.31
452.86	9200.65
453.05	9144.47
453.23	9334.06
453.42	9327.03
453.60	9137.45
453.78	9444.06
453.97	9369.16
454.15	9352.78
454.34	9397.25
454.52	9694.50
454.70	9612.58
454.89	9603.22
455.07	9760.03
455.26	9659.39
455.44	9694.50
455.62	9912.17
455.81	9886.42
455.99	9956.64
456.17	9982.38
456.36	10148.56
456.54	10078.35
456.73	10080.69
456.91	10499.64
457.09	10150.90
457.28	10422.41
457.46	10197.71
457.64	10499.64
457.83	10434.11
458.01	10431.77
458.19	10707.95
458.38	10588.58
458.56	10661.14
458.74	10560.50
458.93	10630.71
459.11	10848.38
459.29	10829.66
459.48	10789.87
459.66	10792.21
459.84	10916.26
460.03	11178.40
460.21	10998.18
460.39	10930.30
460.57	10780.51
460.76	10841.36
460.94	11080.10
461.12	11049.67
461.31	10960.73
461.49	10892.85
461.67	11082.44
461.85	11421.81
462.04	11173.72
462.22	11803.32
462.40	11246.27
462.59	11583.31
462.77	11309.47
462.95	11651.19
463.13	11604.38
463.32	11611.40
463.50	11946.09
463.68	11723.74
463.86	11782.26
464.05	11548.20
464.23	11611.40
464.41	11477.99
464.59	11522.46
464.78	11988.22
464.96	11850.13
465.14	11772.89
465.32	12095.89
465.50	12114.61
465.69	12133.34
465.87	12058.44
466.05	12152.06
466.23	12187.17
466.41	12262.07
466.60	12233.98
466.78	11990.56
466.96	12002.27
467.14	12292.49
467.32	12189.51
467.51	12334.62
467.69	12444.63
467.87	12439.95
468.05	12329.94
468.23	12325.26
468.41	12449.31
468.60	12540.59
468.78	12788.69
468.96	12428.24
469.14	12613.15
469.32	12821.45
469.50	12468.03
469.69	12704.43
469.87	12901.03
470.05	12980.61
470.23	12870.61
470.41	13121.04
470.59	13317.65
470.77	13142.11
470.95	13334.03
471.14	13561.06
471.32	13252.11
471.50	13472.12
471.68	13511.91
471.86	13687.45
472.04	13364.46
472.22	13661.71
472.40	13523.62
472.58	13982.36
472.77	13965.98
472.95	14106.41
473.13	14483.24
473.31	13862.99
473.49	14171.94
473.67	14293.65
473.85	14366.21
474.03	14518.34
474.21	14408.34
474.39	14494.94
474.57	14607.28
474.75	14789.85
474.93	15075.39
475.12	14843.68
475.30	15014.54
475.48	14993.47
475.66	14930.28
475.84	15122.20
476.02	15089.43
476.20	15199.44
476.38	15393.70
476.56	15756.49
476.74	15948.41
476.92	15569.24
477.10	15669.89
477.28	15791.59
477.46	16145.02
477.64	16236.30
477.82	16301.83
478.00	16673.98
478.18	16676.32
478.36	16776.96
478.54	17097.61
478.72	16994.63
478.90	17521.25
479.08	17366.78
479.26	17153.79
479.44	17799.77
479.62	17839.56
479.80	17855.95
479.98	18347.46
480.16	18471.51
480.34	18338.10
480.52	18279.58
480.70	18555.77
480.88	18127.45
481.06	18698.54
481.24	18743.01
481.41	18988.77
481.59	19328.14
481.77	19276.65
481.95	19197.07
482.13	19716.67
482.31	19499.00
482.49	20294.79
482.67	19962.43
482.85	20276.06
483.03	20203.50
483.21	20615.44
483.39	21209.93
483.57	20549.90
483.74	21090.57
483.92	21242.70
484.10	21074.18
484.28	21497.82
484.46	21745.92
484.64	22162.53
484.82	21727.19
485.00	22438.72
485.18	22431.69
485.35	22878.74
485.53	22602.55
485.71	23000.44
485.89	23278.97
486.07	22923.21
486.25	23393.65
486.43	23356.21
486.61	23964.75
486.78	23793.89
486.96	23943.68
487.14	23957.72
487.32	24510.09
487.50	24650.52
487.68	24643.50
487.85	25160.76
488.03	25259.06
488.21	25689.72
488.39	25631.21
488.57	25928.45
488.75	26218.68
488.92	26265.49
489.10	26527.63
489.28	26740.62
489.46	26661.04
489.64	26677.43
489.81	27290.65
489.99	27515.34
490.17	27620.66
490.35	27861.74
490.53	27948.34
490.70	27943.66
490.88	28187.07
491.06	28872.85
491.24	29010.94
491.41	28577.94
491.59	28755.82
491.77	29195.84
491.95	29174.78
492.13	29369.04
492.30	29935.45
492.48	29947.15
492.66	29809.06
492.84	30195.25
493.01	30232.70
493.19	30565.06
493.37	30703.15
493.54	31005.08
493.72	30972.31
493.90	31388.92
494.08	31321.05
494.25	31887.46
494.43	31709.58
494.61	32163.64
494.79	32016.19
494.96	32477.27
495.14	32568.55
495.32	32950.06
495.49	32982.83
495.67	32762.82
495.85	33163.05
496.02	33263.69
496.20	33605.41
496.38	33902.66
496.55	33858.19
496.73	34335.66
496.91	34583.76
497.09	34668.02
497.26	34309.91
497.44	34792.06
497.62	35267.19
497.79	35749.34
497.97	35393.58
498.14	35786.79
498.32	35969.35
498.50	36322.77
498.67	36524.06
498.85	36430.44
499.03	36535.76
499.20	36566.19
499.38	36636.41
499.56	36613.00
499.73	37020.25
499.91	37258.99
500.08	37301.12
500.26	37090.47
500.44	37329.20
500.61	37483.68
500.79	37228.56
500.97	37883.91
501.14	38218.61
501.32	38316.91
501.49	38242.01
501.67	38110.94
501.84	38426.92
502.02	38707.78
502.20	38731.18
502.37	39072.90
502.55	38981.62
502.72	39363.13
502.90	39229.72
503.07	39220.36
503.25	39323.34
503.43	39779.74
503.60	39768.04
503.78	40027.84
503.95	39910.82
504.13	39892.09
504.30	40505.31
504.48	40236.15
504.65	40395.31
504.83	40643.40
505.01	40865.75
505.18	40322.75
505.36	41244.92
505.53	40912.56
505.71	41132.57
505.88	41249.60
506.06	41340.88
506.23	41813.67
506.41	41523.44
506.58	42000.91
506.76	42014.96
506.93	42398.80
507.11	41986.87
507.28	42511.15
507.46	42157.73
507.63	42403.49
507.81	42796.70
507.98	42373.06
508.16	43213.31
508.33	43126.71
508.50	43274.16
508.68	43302.25
508.85	43566.73
509.03	43217.99
509.20	43508.22
509.38	44018.46
509.55	43966.96
509.73	43936.54
509.90	44769.77
510.08	44378.90
510.25	44685.51
510.42	44711.25
510.60	44699.55
510.77	44678.49
510.95	45605.34
511.12	44772.11
511.30	45010.84
511.47	45139.57
511.64	45130.21
511.82	45668.53
511.99	45148.93
512.17	45595.98
512.34	45563.21
512.51	45954.08
512.69	46202.18
512.86	46380.06
513.04	46256.01
513.21	46295.80
513.38	46260.69
513.56	46742.84
513.73	46766.24
513.90	46602.41
514.08	46763.90
514.25	47274.14
514.43	47026.04
514.60	47260.10
514.77	47063.49
514.95	47475.43
515.12	47393.51
515.29	47433.30
515.47	47550.32
515.64	47936.51
515.81	47648.63
515.99	47728.20
516.16	47966.94
516.33	48268.87
516.51	48671.44
516.68	48643.35
516.85	47896.72
517.03	48645.69
517.20	48662.08
517.37	48711.23
517.54	48699.53
517.72	48570.80
517.89	48788.47
518.06	49167.63
518.24	48706.55
518.41	49066.99
518.58	49382.96
518.75	48779.10
518.93	49612.34
519.10	49336.15
519.27	49738.72
519.45	49478.92
519.62	49495.31
519.79	49890.86
519.96	49691.91
520.14	50117.89
520.31	49895.54
520.48	49944.69
520.65	49797.24
520.83	50731.11
521.00	50450.25
521.17	50094.49
521.34	50349.60
521.52	50490.04
521.69	50787.28
521.86	50607.06
522.03	50925.38
522.20	51002.61
522.38	51161.77
522.55	51175.81
522.72	51194.54
522.89	50979.21
523.07	51578.39
523.24	50918.35
523.41	51543.28
523.58	51374.76
523.75	51716.48
523.92	51208.58
524.10	51934.15
524.27	52310.97
524.44	51557.32
524.61	51959.89
524.78	51880.31
524.96	52252.46
525.13	52207.99
525.30	52399.91
525.47	52252.46
525.64	52245.44
525.81	52683.12
525.98	52156.50
526.16	52205.65
526.33	52491.19
526.50	52889.09
526.67	52495.88
526.84	52959.30
527.01	52807.17
527.18	52624.60
527.36	52837.59
527.53	52713.55
527.70	53034.20
527.87	53146.54
528.04	52900.79
528.21	53214.42
528.38	53268.25
528.55	53347.83
528.72	53036.54
528.89	53343.15
529.07	53081.01
529.24	53179.31
529.41	53553.80
529.58	53373.58
529.75	53289.32
529.92	53719.98
530.09	53689.55
530.26	53694.23
530.43	53921.26
530.60	53525.71
530.77	53668.48
530.94	53998.50
531.11	53844.02
531.28	53593.59
531.46	54197.44
531.63	54171.70
531.80	54174.04
531.97	54288.73
532.14	54010.20
532.31	54253.62
532.48	54300.43
532.65	54354.26
532.82	54281.70
532.99	54719.38
533.16	54445.54
533.33	54850.45
533.50	54681.94
533.67	54597.68
533.84	54497.03
534.01	54817.69
534.18	54581.29
534.35	55072.81
534.52	54972.16
534.69	54871.52
534.86	55079.83
535.03	54962.80
535.20	55098.55
535.37	54986.21
535.54	55290.48
535.71	55035.36
535.88	55391.12
536.05	55316.22
536.22	55168.77
536.38	55370.05
536.55	55468.36
536.72	55327.92
536.89	55288.13
537.06	55285.79
537.23	55664.96
537.40	55262.39
537.57	55482.40
537.74	55831.14
537.91	55611.13
538.08	55786.67
538.25	55648.58
538.42	55746.88
538.59	55950.51
538.75	55515.17
538.92	56074.55
539.09	55936.46
539.26	56013.70
539.43	55899.01
539.60	55976.25
539.77	55973.91
539.94	56397.55
540.11	56399.89
540.28	56193.92
540.44	56437.34
540.61	56212.65
540.78	56303.93
540.95	56233.71
541.12	56090.94
541.29	56200.94
541.46	56423.29
541.62	56357.76
541.79	56683.09
541.96	56247.75
542.13	56350.74
542.30	56509.89
542.47	56568.41
542.63	56772.03
542.80	56760.33
542.97	56769.69
543.14	57247.16
543.31	56856.29
543.48	56907.79
543.64	57366.53
543.81	57361.85
543.98	57256.53
544.15	57181.63
544.32	57205.03
544.48	57219.08
544.65	57190.99
544.82	57371.21
544.99	57270.57
545.16	57343.12
545.32	57073.96
545.49	57310.36
545.66	57532.71
545.83	57574.84
546.00	57565.48
546.16	57474.20
546.33	57322.06
546.50	57378.23
546.67	57698.89
546.83	57242.48
547.00	57696.55
547.17	57703.57
547.34	57439.09
547.50	57762.08
547.67	57633.35
547.84	57839.32
548.00	57946.98
548.17	58047.63
548.34	57783.15
548.51	58047.63
548.67	58255.93
548.84	58031.24
549.01	57844.00
549.18	57986.77
549.34	58003.16
549.51	58185.72
549.68	58422.11
549.84	58206.78
550.01	58330.83
550.18	58253.59
550.34	58379.98
550.51	58504.03
550.68	58216.14
550.84	58003.16
551.01	58590.63
551.18	58398.71
551.34	58445.52
551.51	58590.63
551.68	58316.79
551.84	58649.14
552.01	58323.81
552.18	58403.39
552.34	58417.43
552.51	58876.18
552.68	58340.19
552.84	58344.87
553.01	58674.89
553.18	58801.28
553.34	58745.11
553.51	58679.57
553.67	58805.96
553.84	58841.07
554.01	58848.09
554.17	58920.65
554.34	58815.32
554.51	58990.86
554.67	58848.09
554.84	58705.32
555.00	58787.24
555.17	58960.44
555.33	59000.22
555.50	58787.24
555.67	58997.88
555.83	58637.44
556.00	58859.79
556.16	59297.47
556.33	59021.29
556.50	59150.02
556.66	59079.80
556.83	59023.63
556.99	59245.98
557.16	59309.18
557.32	59391.09
557.49	59512.80
557.65	59121.93
557.82	59302.15
557.98	59405.14
558.15	59112.57
558.32	59320.88
558.48	59290.45
558.65	59224.92
558.81	59353.65
558.98	59475.35
559.14	59400.46
559.31	59421.52
559.47	59688.34
559.64	59723.45
559.80	59533.87
559.97	59494.08
560.13	59475.35
560.30	59604.08
560.46	59803.03
560.63	59585.36
560.79	59487.06
560.96	59777.28
561.12	59671.96
561.29	59723.45
561.45	59840.48
561.61	59611.10
561.78	59648.55
561.94	59573.66
562.11	59618.13
562.27	59756.22
562.44	59894.31
562.60	59906.01
562.77	59838.14
562.93	59482.37
563.10	59807.71
563.26	59716.43
563.42	60144.75
563.59	59870.90
563.75	60088.57
563.92	59798.35
564.08	59636.85
564.24	59896.65
564.41	59814.73
564.57	59931.76
564.74	59941.12
564.90	59931.76
565.07	59856.86
565.23	59969.21
565.39	59894.31
565.56	60058.15
565.72	59824.09
565.88	60093.25
566.05	59927.08
566.21	59999.63
566.38	59938.78
566.54	60053.47
566.70	60257.09
566.87	60189.22
567.03	60074.53
567.19	60191.56
567.36	60252.41
567.52	60161.13
567.68	60411.57
567.85	60233.69
568.01	60353.05
568.17	60383.48
568.34	60324.97
568.50	60238.37
568.66	60058.15
568.83	60364.76
568.99	60285.18
569.15	60207.94
569.32	60182.19
569.48	60271.14
569.64	60334.33
569.81	60362.42
569.97	60350.71
570.13	60434.97
570.30	60376.46
570.46	60322.63
570.62	60303.90
570.78	60243.05
570.95	60266.45
571.11	60498.17
571.27	60498.17
571.43	60313.26
571.60	60434.97
571.76	60343.69
571.92	60563.70
572.09	60629.24
572.25	60411.57
572.41	60385.82
572.57	60404.55
572.74	60727.54
572.90	60453.70
573.06	60348.37
573.22	60561.36
573.38	60561.36
573.55	60406.89
573.71	60654.98
573.87	60561.36
574.03	60472.42
574.20	60680.73
574.36	60406.89
574.52	60554.34
574.68	60563.70
574.84	60598.81
575.01	60563.70
575.17	60418.59
575.33	60512.21
575.49	60568.38
575.65	60542.64
575.82	60664.35
575.98	60626.90
576.14	60797.76
576.30	60795.42
576.46	60584.77
576.62	60554.34
576.79	60732.22
576.95	60624.56
577.11	60683.07
577.27	60692.43
577.43	60842.23
577.59	60617.53
577.75	60591.79
577.92	60559.02
578.08	60664.35
578.24	60748.60
578.40	60825.84
578.56	60774.35
578.72	60650.30
578.88	60708.82
579.04	60919.46
579.21	60491.15
579.37	60839.89
579.53	60786.05
579.69	60364.76
579.85	60764.99
580.01	60584.77
580.17	60350.71
580.33	60786.05
580.49	60949.89
580.65	60851.59
580.82	60659.66
580.98	60671.37
581.14	60711.16
581.30	61029.47
581.46	60640.94
581.62	60821.16
581.78	60720.52
581.94	60650.30
582.10	60617.53
582.26	60711.16
582.42	60685.41
582.58	60638.60
582.74	60603.49
582.90	60825.84
583.06	60779.03
583.22	60629.24
583.38	60809.46
583.54	60874.99
583.70	60877.33
583.86	60774.35
584.02	60669.03
584.18	60977.98
584.34	60938.19
584.50	60816.48
584.66	60666.69
584.82	60633.92
584.98	60982.66
585.14	60938.19
585.30	60818.82
585.46	60893.72
585.62	60928.83
585.78	61013.08
585.94	60713.50
586.10	60898.40
586.26	60816.48
586.42	60886.70
586.58	60940.53
586.74	60898.40
586.90	60926.49
587.06	61001.38
587.22	60914.78
587.38	60776.69
587.54	60992.02
587.70	61113.73
587.86	60860.95
588.02	60830.52
588.18	60973.30
588.34	60942.87
588.49	60867.97
