SpectraSuite Data File
++++++++++++++++++++++++++++++++++++
Date: Fri Oct 25 11:22:33 EDT 2013
User: price-jones
Dark Spectrum Present: No
Reference Spectrum Present: No
Number of Sampled Component Spectra: 1
Spectrometers: USB2+H05261
Integration Time (usec): 100000 (USB2+H05261)
Spectra Averaged: 1 (USB2+H05261)
Boxcar Smoothing: 0 (USB2+H05261)
Correct for Electrical Dark: No (USB2+H05261)
Strobe/Lamp Enabled: No (USB2+H05261)
Correct for Detector Non-linearity: No (USB2+H05261)
Correct for Stray Light: No (USB2+H05261)
Number of Pixels in Processed Spectrum: 2048
>>>>>Begin Processed Spectral Data<<<<<
365.73	210.65
365.92	210.65
366.12	210.65
366.32	177.88
366.52	175.54
366.72	145.11
366.91	110.01
367.11	147.45
367.31	140.43
367.51	147.45
367.70	102.98
367.90	168.52
368.10	159.16
368.30	53.83
368.49	138.09
368.69	126.39
368.89	119.37
369.09	177.88
369.28	220.01
369.48	170.86
369.68	161.50
369.87	175.54
370.07	196.60
370.27	299.59
370.47	285.55
370.66	554.71
370.86	629.60
371.06	671.73
371.25	655.35
371.45	634.29
371.65	645.99
371.84	688.12
372.04	718.54
372.24	781.74
372.44	678.76
372.63	725.57
372.83	828.55
373.03	767.70
373.22	760.67
373.42	734.93
373.62	718.54
373.81	765.36
374.01	798.12
374.21	823.87
374.40	835.57
374.60	779.40
374.79	807.48
374.99	821.53
375.19	849.61
375.38	915.15
375.58	798.12
375.78	880.04
375.97	877.70
376.17	901.11
376.37	905.79
376.56	828.55
376.76	891.74
376.95	868.34
377.15	851.96
377.35	882.38
377.54	858.98
377.74	882.38
377.93	847.27
378.13	938.55
378.33	985.37
378.52	947.92
378.72	917.49
378.91	910.47
379.11	901.11
379.31	901.11
379.50	924.51
379.70	1011.11
379.89	947.92
380.09	1015.79
380.28	971.32
380.48	1001.75
380.68	910.47
380.87	971.32
381.07	1057.92
381.26	1034.52
381.46	1090.69
381.65	964.30
381.85	1083.67
382.04	964.30
382.24	1008.77
382.43	1116.44
382.63	992.39
382.83	1083.67
383.02	1128.14
383.22	1100.05
383.41	994.73
383.61	1088.35
383.80	1102.39
384.00	1095.37
384.19	1114.10
384.39	1142.18
384.58	1125.80
384.78	1174.95
384.97	1167.93
385.17	1226.44
385.36	1132.82
385.56	1160.91
385.75	1224.10
385.95	1240.48
386.14	1186.65
386.34	1242.82
386.53	1196.01
386.72	1184.31
386.92	1252.19
387.11	1299.00
387.31	1212.40
387.50	1310.70
387.70	1242.82
387.89	1270.91
388.09	1315.38
388.28	1266.23
388.48	1252.19
388.67	1277.93
388.86	1380.92
389.06	1336.45
389.25	1364.53
389.45	1355.17
389.64	1287.29
389.84	1352.83
390.03	1434.75
390.22	1432.41
390.42	1362.19
390.61	1357.51
390.81	1411.34
391.00	1413.68
391.19	1394.96
391.39	1458.15
391.58	1495.60
391.78	1420.71
391.97	1530.71
392.16	1502.62
392.36	1563.48
392.55	1479.22
392.75	1441.77
392.94	1476.88
393.13	1605.61
393.33	1465.18
393.52	1579.86
393.71	1645.40
393.91	1535.39
394.10	1549.43
394.29	1572.84
394.49	1692.21
394.68	1612.63
394.88	1659.44
395.07	1713.27
395.26	1668.80
395.46	1694.55
395.65	1657.10
395.84	1706.25
396.04	1830.30
396.23	1888.81
396.42	1739.02
396.62	1750.72
396.81	1825.62
397.00	1811.57
397.19	1849.02
397.39	1813.92
397.58	1834.98
397.77	1851.36
397.97	1867.75
398.16	1926.26
398.35	1952.01
398.55	1891.15
398.74	1879.45
398.93	2022.22
399.12	1975.41
399.32	1820.94
399.51	1923.92
399.70	2050.31
399.90	2076.06
400.09	2029.24
400.28	2122.87
400.47	2125.21
400.67	2136.91
400.86	2113.50
401.05	2047.97
401.24	2012.86
401.44	2174.36
401.63	2071.37
401.82	2235.21
402.01	2115.84
402.21	2122.87
402.40	2242.23
402.59	2204.78
402.78	2286.70
402.97	2235.21
403.17	2237.55
403.36	2190.74
403.55	2310.11
403.74	2434.16
403.93	2485.65
404.13	2434.16
404.32	2420.11
404.51	2377.98
404.70	2396.71
404.89	2324.15
405.09	2499.69
405.28	2422.45
405.47	2441.18
405.66	2530.12
405.85	2518.42
406.05	2504.37
406.24	2506.71
406.43	2581.61
406.62	2579.27
406.81	2745.45
407.00	2530.12
407.20	2651.83
407.39	2640.12
407.58	2635.44
407.77	2764.17
407.96	2775.88
408.15	2705.66
408.34	2768.85
408.54	2855.45
408.73	2768.85
408.92	2832.05
409.11	2906.95
409.30	2909.29
409.49	3033.33
409.68	2963.12
409.87	3019.29
410.07	3035.67
410.26	3059.08
410.45	3089.51
410.64	3110.57
410.83	3155.04
411.02	3138.66
411.21	3201.85
411.40	3178.45
411.59	3169.09
411.78	3332.92
411.98	3213.56
412.17	3321.22
412.36	3365.69
412.55	3445.27
412.74	3520.17
412.93	3424.20
413.12	3358.67
413.31	3681.66
413.50	3524.85
413.69	3449.95
413.88	3700.39
414.07	3634.85
414.26	3588.04
414.45	3630.17
414.64	3744.86
414.83	3868.91
415.02	3770.60
415.22	3850.18
415.41	3852.52
415.60	4025.72
415.79	4016.36
415.98	3967.21
416.17	3960.19
416.36	4088.92
416.55	4077.21
416.74	4091.26
416.93	4072.53
417.12	4138.07
417.31	4229.35
417.50	4397.87
417.69	4299.56
417.88	4234.03
418.07	4255.09
418.26	4423.61
418.45	4355.74
418.64	4613.20
418.83	4589.79
419.02	4601.49
419.21	4407.23
419.39	4484.47
419.58	4554.68
419.77	4421.27
419.96	4638.94
420.15	4732.56
420.34	4709.16
420.53	4606.17
420.72	4746.61
420.91	4741.93
421.10	4709.16
421.29	5069.60
421.48	4755.97
421.67	4858.95
421.86	4788.74
422.05	4863.63
422.24	4863.63
422.43	4861.29
422.61	4889.38
422.80	5015.77
422.99	5027.47
423.18	4983.00
423.37	5022.79
423.56	4940.87
423.75	4858.95
423.94	4868.31
424.13	4667.03
424.32	4805.12
424.50	5221.74
424.69	5135.14
424.88	4985.34
425.07	4929.17
425.26	4823.84
425.45	4985.34
425.64	5109.39
425.83	5041.51
426.01	5107.05
426.20	5212.37
426.39	5095.35
426.58	5193.65
426.77	5102.37
426.96	5301.31
427.15	5146.84
427.33	5313.02
427.52	5355.15
427.71	5184.29
427.90	5238.12
428.09	5418.34
428.28	5460.47
428.46	5427.70
428.65	5259.18
428.84	5654.73
429.03	5701.54
429.22	5277.91
429.40	5502.60
429.59	5521.32
429.78	5350.46
429.97	5317.70
430.16	5584.52
430.34	5792.83
430.53	5799.85
430.72	5708.57
430.91	5748.36
431.10	5645.37
431.28	5767.08
431.47	5951.98
431.66	5886.45
431.85	5905.17
432.03	5954.32
432.22	6090.07
432.41	5968.37
432.60	6118.16
432.79	5984.75
432.97	5980.07
433.16	6054.97
433.35	6085.39
433.54	6183.70
433.72	6221.14
433.91	6225.82
434.10	6328.81
434.28	6186.04
434.47	6218.80
434.66	6382.64
434.85	6476.26
435.03	6527.75
435.22	6448.18
435.41	6670.53
435.59	6459.88
435.78	6539.46
435.97	6518.39
436.16	6614.35
436.34	6518.39
436.53	6436.47
436.72	6740.74
436.90	6546.48
437.09	6810.96
437.28	6424.77
437.46	6871.81
437.65	6841.39
437.84	6778.19
438.02	6827.34
438.21	6836.70
438.40	6750.10
438.58	7119.91
438.77	7066.08
438.96	7091.82
439.14	7152.68
439.33	7250.98
439.52	7307.15
439.70	7255.66
439.89	7496.74
440.08	7459.29
440.26	7449.93
440.45	7344.60
440.63	7583.34
440.82	7527.16
441.01	7531.84
441.19	7882.92
441.38	7812.71
441.57	7831.43
441.75	7967.18
441.94	8093.57
442.12	8060.80
442.31	8156.77
442.50	8348.69
442.68	8205.92
442.87	8189.53
443.05	8109.96
443.24	8381.46
443.43	8156.77
443.61	8140.38
443.80	8652.96
443.98	8231.66
444.17	7925.05
444.35	8287.84
444.54	8659.98
444.73	8451.67
444.91	8369.76
445.10	8561.68
445.28	8325.29
445.47	8341.67
445.65	8463.38
445.84	8566.36
446.02	8622.53
446.21	8557.00
446.39	8468.06
446.58	8512.53
446.77	8409.54
446.95	8432.95
447.14	8559.34
447.32	8645.94
447.51	8449.33
447.69	8739.56
447.88	8692.75
448.06	8739.56
448.25	8659.98
448.43	8854.25
448.62	8659.98
448.80	8781.69
448.99	8966.59
449.17	8903.40
449.36	8758.28
449.54	9029.79
449.73	9100.00
449.91	9006.38
450.10	9064.89
450.28	9294.27
450.46	9011.06
450.65	9008.72
450.83	9177.24
451.02	9186.60
451.20	9273.20
451.39	9163.20
451.57	9287.25
451.76	9078.94
451.94	9289.59
452.13	9451.08
452.31	9465.13
452.49	9495.55
452.68	9509.60
452.86	9453.42
453.05	9392.57
453.23	9572.79
453.42	9652.37
453.60	9490.87
453.78	9682.80
453.97	9408.95
454.15	9472.15
454.34	9818.55
454.52	9703.86
454.70	9717.90
454.89	9603.22
455.07	9958.98
455.26	9996.43
455.44	10073.67
455.62	10022.17
455.81	9944.94
455.99	10162.61
456.17	10279.63
456.36	10190.69
456.54	10242.18
456.73	10256.23
456.91	10677.52
457.09	10579.22
457.28	10729.02
457.46	10410.70
457.64	10736.04
457.83	10773.49
458.01	10394.32
458.19	10785.19
458.38	10534.75
458.56	10841.36
458.74	10911.58
458.93	10757.10
459.11	10960.73
459.29	10857.75
459.48	10998.18
459.66	10939.66
459.84	11040.31
460.03	11218.19
460.21	11012.22
460.39	11124.57
460.57	11157.33
460.76	11192.44
460.94	11372.66
461.12	11250.96
461.31	11302.45
461.49	11169.04
461.67	11403.09
461.85	11660.55
462.04	11265.00
462.22	11885.24
462.40	11716.72
462.59	11573.95
462.77	11477.99
462.95	11793.96
463.13	11864.18
463.32	11990.56
463.50	11840.77
463.68	11896.94
463.86	12044.40
464.05	11812.68
464.23	12032.69
464.41	11955.46
464.59	11644.17
464.78	12402.50
464.96	12046.74
465.14	12236.32
465.32	12266.75
465.50	12528.89
465.69	12465.69
465.87	12233.98
466.05	12430.59
466.23	12145.04
466.41	12311.22
466.60	12397.82
466.78	12388.46
466.96	12355.69
467.14	12472.71
467.32	12365.05
467.51	13036.78
467.69	12280.79
467.87	12545.27
468.05	12903.37
468.23	12671.66
468.41	12657.62
468.60	12638.89
468.78	13095.30
468.96	12849.54
469.14	13043.81
469.32	13284.88
469.50	12915.08
469.69	13324.67
469.87	12968.91
470.05	13319.99
470.23	13191.26
470.41	13483.83
470.59	13612.56
470.77	13507.23
470.95	13544.68
471.14	13881.72
471.32	13256.79
471.50	13708.52
471.68	14015.13
471.86	13970.66
472.04	13708.52
472.22	14291.31
472.40	13750.65
472.58	14253.86
472.77	14298.33
472.95	14335.78
473.13	14885.81
473.31	14478.55
473.49	14244.50
473.67	14303.01
473.85	14401.32
474.03	14995.81
474.21	14934.96
474.39	14813.25
474.57	14803.89
474.75	15082.41
474.93	15192.42
475.12	15176.03
475.30	15356.25
475.48	15250.93
475.66	15496.69
475.84	15494.35
476.02	15372.64
476.20	15578.61
476.38	15878.19
476.56	16315.87
476.74	16182.46
476.92	16346.30
477.10	16067.78
477.28	16325.24
477.46	16446.94
477.64	16568.65
477.82	16772.28
478.00	17532.95
478.18	17123.36
478.36	17174.85
478.54	17394.86
478.72	17322.30
478.90	17582.10
479.08	17685.09
479.26	17907.44
479.44	17881.69
479.62	18075.96
479.80	18090.00
479.98	18515.98
480.16	18970.04
480.34	18345.12
480.52	18834.29
480.70	18913.87
480.88	18534.70
481.06	19073.03
481.24	19199.41
481.41	19391.34
481.59	19573.90
481.77	19810.29
481.95	19845.40
482.13	19852.42
482.31	19981.15
482.49	20524.16
482.67	20308.83
482.85	20629.48
483.03	20652.89
483.21	20585.01
483.39	21025.03
483.57	21343.35
483.74	21582.08
483.92	21467.39
484.10	21453.35
484.28	21804.43
484.46	22141.47
484.64	22750.01
484.82	22223.39
485.00	22593.19
485.18	23278.97
485.35	23498.98
485.53	23386.63
485.71	23304.71
485.89	23960.06
486.07	23557.49
486.25	23718.99
486.43	23955.38
486.61	24266.67
486.78	24451.58
486.96	24369.66
487.14	24730.10
487.32	25212.25
487.50	24720.74
487.68	25254.38
487.85	25701.42
488.03	25900.37
488.21	26333.37
488.39	26057.18
488.57	26382.52
488.75	26529.97
488.92	26796.79
489.10	26969.99
489.28	27414.69
489.46	27569.17
489.64	27473.21
489.81	28327.50
489.99	27821.95
490.17	28542.83
490.35	28526.45
490.53	28240.90
490.70	28657.52
490.88	29010.94
491.06	29455.64
491.24	29509.47
491.41	29352.66
491.59	30066.52
491.77	29851.19
491.95	29937.79
492.13	30033.75
492.30	30178.87
492.48	30499.52
492.66	30508.88
492.84	30611.87
493.01	31192.32
493.19	31283.60
493.37	31405.31
493.54	31494.25
493.72	32107.47
493.90	32053.64
494.08	32147.26
494.25	32737.07
494.43	32390.67
494.61	32425.78
494.79	32919.63
494.96	32711.33
495.14	33326.89
495.32	33839.47
495.49	33427.53
495.67	33766.91
495.85	33951.81
496.02	34192.89
496.20	34520.56
496.38	34717.17
496.55	34527.58
496.73	35477.84
496.91	34960.58
497.09	35260.17
497.26	35225.06
497.44	35395.92
497.62	35974.03
497.79	36177.66
497.97	35800.83
498.14	36790.88
498.32	36596.62
498.50	36666.83
498.67	36964.08
498.85	36928.97
499.03	36928.97
499.20	37191.11
499.38	37598.37
499.56	37453.25
499.73	37514.11
499.91	37591.34
500.08	38513.52
500.26	37975.19
500.44	38347.34
500.61	38436.28
500.79	38504.15
500.97	38778.00
501.14	38829.49
501.32	39236.74
501.49	39313.98
501.67	39302.28
501.84	39459.09
502.02	39632.29
502.20	39564.42
502.37	39735.27
502.55	39810.17
502.72	39796.13
502.90	39945.92
503.07	39990.39
503.25	40280.62
503.43	40023.16
503.60	40692.55
503.78	40444.46
503.95	41038.95
504.13	41181.73
504.30	41097.47
504.48	41223.86
504.65	41153.64
504.83	41612.38
505.01	41944.74
505.18	41626.43
505.36	42136.66
505.53	41663.88
505.71	42043.04
505.88	42469.02
506.06	42373.06
506.23	42429.23
506.41	42478.38
506.58	42803.72
506.76	42974.58
506.93	42974.58
507.11	42911.38
507.28	43150.12
507.46	43540.99
507.63	43573.75
507.81	43620.56
507.98	43421.62
508.16	43522.26
508.33	44044.20
508.50	43859.30
508.68	44142.50
508.85	44456.14
509.03	44439.75
509.20	44645.72
509.38	45057.65
509.55	44968.71
509.73	44884.45
509.90	45500.01
510.08	45062.33
510.25	45455.54
510.42	45411.07
510.60	45638.11
510.77	45457.88
510.95	46167.07
511.12	45722.37
511.30	45696.62
511.47	46625.81
511.64	45844.07
511.82	46220.90
511.99	46256.01
512.17	46806.03
512.34	46562.62
512.51	46836.46
512.69	47028.38
512.86	46876.25
513.04	47131.37
513.21	47302.23
513.38	47250.74
513.56	47243.71
513.73	47220.31
513.90	47594.79
514.08	47461.38
514.25	48006.73
514.43	47742.25
514.60	48224.40
514.77	48495.90
514.95	48502.92
515.12	48367.17
515.29	48116.73
515.47	48566.12
515.64	48797.83
515.81	48217.38
515.99	48573.14
516.16	48615.27
516.33	48949.96
516.51	49188.70
516.68	49801.92
516.85	49261.26
517.03	48966.35
517.20	49457.86
517.37	49404.03
517.54	49420.41
517.72	49331.47
517.89	49476.58
518.06	49680.21
518.24	49504.67
518.41	49818.30
518.58	49918.95
518.75	49738.72
518.93	50092.15
519.10	49867.45
519.27	50452.59
519.45	50380.03
519.62	50578.98
519.79	50300.45
519.96	50192.79
520.14	50665.58
520.31	50466.63
520.48	50726.43
520.65	51023.68
520.83	50885.59
521.00	51126.66
521.17	50923.04
521.34	51047.08
521.52	51526.89
521.69	51246.03
521.86	51559.66
522.03	51545.62
522.20	51852.23
522.38	52076.92
522.55	51817.12
522.72	51751.59
522.89	51412.21
523.07	52175.22
523.24	52046.49
523.41	52067.56
523.58	52051.17
523.75	52577.79
523.92	52147.14
524.10	52165.86
524.27	52385.87
524.44	52474.81
524.61	52561.41
524.78	52879.72
524.96	52264.16
525.13	52612.90
525.30	52589.50
525.47	52889.09
525.64	53106.76
525.81	52959.30
525.98	53109.10
526.16	53123.14
526.33	52917.17
526.50	53633.38
526.67	53338.47
526.84	53462.52
527.01	53195.70
527.18	53432.09
527.36	53254.21
527.53	53612.31
527.70	53684.87
527.87	53872.11
528.04	53340.81
528.21	54073.40
528.38	53624.01
528.55	53970.41
528.72	53918.92
528.89	53624.01
529.07	53628.69
529.24	53958.71
529.41	54087.44
529.58	54094.46
529.75	54068.72
529.92	54457.24
530.09	54113.19
530.26	54389.37
530.43	54417.46
530.60	54328.52
530.77	54129.57
530.94	54553.21
531.11	54541.50
531.28	54663.21
531.46	54747.47
531.63	54920.67
531.80	54548.53
531.97	54873.86
532.14	54838.75
532.31	55075.15
532.48	54997.91
532.65	54927.69
532.82	54829.39
532.99	55063.44
533.16	54955.78
533.33	55126.64
533.50	55332.60
533.67	55463.67
533.84	55072.81
534.01	55365.37
534.18	55353.67
534.35	55625.17
534.52	55274.09
534.69	55451.97
534.86	55671.98
535.03	55585.38
535.20	55721.13
535.37	55695.39
535.54	55604.11
535.71	55702.41
535.88	55753.90
536.05	55798.37
536.22	55910.72
536.38	55901.36
536.55	55896.67
536.72	55983.27
536.89	56051.15
537.06	55938.80
537.23	55917.74
537.40	56032.42
537.57	56154.13
537.74	56198.60
537.91	56460.74
538.08	56259.46
538.25	56268.82
538.42	56147.11
538.59	56353.08
538.75	56446.70
538.92	56467.76
539.09	56537.98
539.26	56526.28
539.43	56486.49
539.60	56776.72
539.77	56563.73
539.94	56692.46
540.11	56643.30
540.28	56842.25
540.44	57038.86
540.61	56746.29
540.78	56816.50
540.95	57179.29
541.12	56610.54
541.29	56664.37
541.46	57031.83
541.62	57099.71
541.79	56898.42
541.96	56694.80
542.13	56893.74
542.30	57017.79
542.47	57141.84
542.63	57425.04
542.80	57151.20
542.97	57523.35
543.14	57647.39
543.31	57567.82
543.48	57609.95
543.64	57970.39
543.81	57265.89
543.98	57462.49
544.15	57385.25
544.32	57689.52
544.48	58033.58
544.65	57626.33
544.82	57963.37
544.99	57645.05
545.16	57851.02
545.32	57663.78
545.49	57958.69
545.66	58033.58
545.83	58124.86
546.00	57928.26
546.16	58059.33
546.33	57930.60
546.50	57860.38
546.67	58113.16
546.83	57904.85
547.00	58195.08
547.17	58019.54
547.34	58478.28
547.50	58316.79
547.67	58377.64
547.84	58225.51
548.00	58464.24
548.17	58396.37
548.34	58391.68
548.51	58585.95
548.67	58548.50
548.84	58515.73
549.01	58321.47
549.18	58501.69
549.34	58745.11
549.51	58611.70
549.68	58585.95
549.84	58588.29
550.01	58738.08
550.18	58658.51
550.34	58670.21
550.51	58897.24
550.68	58845.75
550.84	58550.84
551.01	58841.07
551.18	58796.60
551.34	58700.64
551.51	59056.40
551.68	58887.88
551.84	59044.69
552.01	58925.33
552.18	58983.84
552.34	59075.12
552.51	59164.06
552.68	59014.27
552.84	58965.12
553.01	59199.17
553.18	59121.93
553.34	59189.81
553.51	59002.56
553.67	59173.42
553.84	59182.79
554.01	59313.86
554.17	59409.82
554.34	59564.29
554.51	59400.46
554.67	59302.15
554.84	59442.59
555.00	59292.79
555.17	59208.53
555.33	59512.80
555.50	59522.16
555.67	59206.19
555.83	59379.39
556.00	59402.80
556.16	59807.71
556.33	59590.04
556.50	59465.99
556.66	59777.28
556.83	59721.11
556.99	59826.43
557.16	59838.14
557.32	59793.67
557.49	59868.56
557.65	59866.22
557.82	59753.88
557.98	59868.56
558.15	59838.14
558.32	59721.11
558.48	59847.50
558.65	59554.93
558.81	59894.31
558.98	59980.91
559.14	59994.95
559.31	60090.91
559.47	59849.84
559.64	59873.24
559.80	60023.04
559.97	60097.94
560.13	59966.87
560.30	59936.44
560.46	60104.96
560.63	60051.12
560.79	60224.32
560.96	60287.52
561.12	60299.22
561.29	60189.22
561.45	60055.81
561.61	60158.79
561.78	60079.21
561.94	60009.00
562.11	60116.66
562.27	60175.17
562.44	60268.79
562.60	60449.02
562.77	60437.31
562.93	60121.34
563.10	60350.71
563.26	60193.90
563.42	60643.28
563.59	60446.68
563.75	60240.71
563.92	60399.86
564.08	60348.37
564.24	60575.40
564.41	60273.48
564.57	60404.55
564.74	60425.61
564.90	60378.80
565.07	60591.79
565.23	60526.25
565.39	60519.23
565.56	60549.66
565.72	60505.19
565.88	60554.34
566.05	60495.83
566.21	60582.43
566.38	60582.43
566.54	60645.62
566.70	60622.22
566.87	60725.20
567.03	60573.06
567.19	60942.87
567.36	60706.47
567.52	60528.59
567.68	60786.05
567.85	60645.62
568.01	60659.66
568.17	60615.19
568.34	60757.97
568.50	60704.13
568.66	60664.35
568.83	60612.85
568.99	60650.30
569.15	60797.76
569.32	60774.35
569.48	60816.48
569.64	60917.12
569.81	60626.90
569.97	60720.52
570.13	60788.39
570.30	60704.13
570.46	60725.20
570.62	60886.70
570.78	60947.55
570.95	60828.18
571.11	60846.91
571.27	60905.42
571.43	60889.04
571.60	61064.58
571.76	60725.20
571.92	60683.07
572.09	60952.23
572.25	60856.27
572.41	60774.35
572.57	61055.21
572.74	61132.45
572.90	60893.72
573.06	60926.49
573.22	60814.14
573.38	60989.68
573.55	61029.47
573.71	61207.35
573.87	60921.80
574.03	60811.80
574.20	61057.56
574.36	60809.46
574.52	61048.19
574.68	61024.79
574.84	61167.56
575.01	61214.37
575.17	61120.75
575.33	61137.13
575.49	60924.14
575.65	61212.03
575.82	61233.10
575.98	61158.20
576.14	61162.88
576.30	61230.75
576.46	61237.78
576.62	61048.19
576.79	61132.45
576.95	60933.51
577.11	61162.88
577.27	61188.63
577.43	61139.47
577.59	60910.10
577.75	61221.39
577.92	61087.98
578.08	61158.20
578.24	61216.71
578.40	61263.52
578.56	61212.03
578.72	61109.05
578.88	61233.10
579.04	61352.46
579.21	61233.10
579.37	61385.23
579.53	61333.74
579.69	61158.20
579.85	61123.09
580.01	61038.83
580.17	61146.50
580.33	61331.40
580.49	61350.12
580.65	61165.22
580.82	61073.94
580.98	60989.68
581.14	61022.45
581.30	61265.86
581.46	61263.52
581.62	61193.31
581.78	61151.18
581.94	61352.46
582.10	61052.87
582.26	61490.55
582.42	61176.92
582.58	61298.63
582.74	61268.20
582.90	61146.50
583.06	61132.45
583.22	61155.86
583.38	61293.95
583.54	61219.05
583.70	61331.40
583.86	61336.08
584.02	61006.06
584.18	61333.74
584.34	61310.33
584.50	61102.03
584.66	61254.16
584.82	61052.87
584.98	61516.30
585.14	61429.70
585.30	61279.91
585.46	61174.58
585.62	61329.06
585.78	61626.31
585.94	61113.73
586.10	61446.08
586.26	61322.04
586.42	61331.40
586.58	61418.00
586.74	61399.27
586.90	61429.70
587.06	61076.28
587.22	61319.70
587.38	61317.35
587.54	61535.02
587.70	61588.86
587.86	61432.04
588.02	61448.42
588.18	61553.75
588.34	61542.05
588.49	61312.67
