SpectraSuite Data File
++++++++++++++++++++++++++++++++++++
Date: Fri Oct 25 11:26:17 EDT 2013
User: price-jones
Dark Spectrum Present: No
Reference Spectrum Present: No
Number of Sampled Component Spectra: 1
Spectrometers: USB2+H05261
Integration Time (usec): 100000 (USB2+H05261)
Spectra Averaged: 1 (USB2+H05261)
Boxcar Smoothing: 0 (USB2+H05261)
Correct for Electrical Dark: No (USB2+H05261)
Strobe/Lamp Enabled: No (USB2+H05261)
Correct for Detector Non-linearity: No (USB2+H05261)
Correct for Stray Light: No (USB2+H05261)
Number of Pixels in Processed Spectrum: 2048
>>>>>Begin Processed Spectral Data<<<<<
365.73	266.82
365.92	266.82
366.12	266.82
366.32	117.03
366.52	159.16
366.72	159.16
366.91	149.79
367.11	149.79
367.31	84.26
367.51	124.05
367.70	107.66
367.90	147.45
368.10	152.13
368.30	124.05
368.49	135.75
368.69	194.26
368.89	161.50
369.09	121.71
369.28	222.35
369.48	180.22
369.68	154.48
369.87	217.67
370.07	175.54
370.27	266.82
370.47	322.99
370.66	585.13
370.86	585.13
371.06	650.67
371.25	676.41
371.45	699.82
371.65	636.63
371.84	678.76
372.04	716.20
372.24	758.33
372.44	746.63
372.63	702.16
372.83	739.61
373.03	748.97
373.22	732.59
373.42	746.63
373.62	770.04
373.81	847.27
374.01	812.17
374.21	814.51
374.40	793.44
374.60	814.51
374.79	833.23
374.99	826.21
375.19	823.87
375.38	847.27
375.58	765.36
375.78	884.72
375.97	788.76
376.17	901.11
376.37	910.47
376.56	894.08
376.76	842.59
376.95	882.38
377.15	877.70
377.35	884.72
377.54	844.93
377.74	973.66
377.93	903.45
378.13	950.26
378.33	950.26
378.52	854.30
378.72	968.98
378.91	940.90
379.11	917.49
379.31	987.71
379.50	940.90
379.70	999.41
379.89	922.17
380.09	966.64
380.28	1006.43
380.48	966.64
380.68	980.68
380.87	950.26
381.07	924.51
381.26	1109.41
381.46	990.05
381.65	1076.65
381.85	1039.20
382.04	1060.26
382.24	1069.62
382.43	1071.97
382.63	971.32
382.83	1111.75
383.02	1118.78
383.22	1095.37
383.41	959.62
383.61	1097.71
383.80	1067.28
384.00	1149.20
384.19	1111.75
384.39	1158.57
384.58	1146.86
384.78	1100.05
384.97	1135.16
385.17	1165.59
385.36	1254.53
385.56	1203.04
385.75	1142.18
385.95	1163.25
386.14	1193.67
386.34	1111.75
386.53	1111.75
386.72	1238.14
386.92	1240.48
387.11	1252.19
387.31	1310.70
387.50	1139.84
387.70	1198.35
387.89	1226.44
388.09	1170.27
388.28	1254.53
388.48	1317.72
388.67	1364.53
388.86	1371.55
389.06	1247.51
389.25	1355.17
389.45	1310.70
389.64	1331.76
389.84	1341.13
390.03	1380.92
390.22	1348.15
390.42	1343.47
390.61	1352.83
390.81	1401.98
391.00	1387.94
391.19	1411.34
391.39	1401.98
391.58	1425.39
391.78	1465.18
391.97	1399.64
392.16	1416.02
392.36	1551.78
392.55	1558.80
392.75	1481.56
392.94	1373.89
393.13	1549.43
393.33	1565.82
393.52	1614.97
393.71	1657.10
393.91	1650.08
394.10	1563.48
394.29	1643.06
394.49	1535.39
394.68	1589.22
394.88	1694.55
395.07	1713.27
395.26	1624.33
395.46	1563.48
395.65	1643.06
395.84	1703.91
396.04	1720.29
396.23	1689.87
396.42	1729.66
396.62	1757.74
396.81	1795.19
397.00	1757.74
397.19	1732.00
397.39	1827.96
397.58	1792.85
397.77	1823.28
397.97	1893.49
398.16	1947.33
398.35	1930.94
398.55	1944.99
398.74	1935.62
398.93	1839.66
399.12	1909.88
399.32	1886.47
399.51	1952.01
399.70	2047.97
399.90	2019.88
400.09	2010.52
400.28	2005.84
400.47	2008.18
400.67	2080.74
400.86	1959.03
401.05	2012.86
401.24	2099.46
401.44	2141.59
401.63	2092.44
401.82	2125.21
402.01	2115.84
402.21	2221.17
402.40	2150.95
402.59	2169.68
402.78	2230.53
402.97	2237.55
403.17	2223.51
403.36	2342.88
403.55	2186.06
403.74	2300.75
403.93	2359.26
404.13	2221.17
404.32	2300.75
404.51	2363.94
404.70	2495.01
404.89	2300.75
405.09	2459.90
405.28	2480.97
405.47	2429.48
405.66	2576.93
405.85	2485.65
406.05	2492.67
406.24	2555.86
406.43	2593.31
406.62	2619.06
406.81	2698.64
407.00	2612.04
407.20	2686.94
407.39	2527.78
407.58	2672.89
407.77	2642.46
407.96	2834.39
408.15	2719.70
408.34	2661.19
408.54	2729.06
408.73	2768.85
408.92	2754.81
409.11	2832.05
409.30	2984.18
409.49	2883.54
409.68	2918.65
409.87	2869.50
410.07	2998.23
410.26	2988.86
410.45	3009.93
410.64	2946.73
410.83	3005.25
411.02	3098.87
411.21	3192.49
411.40	3185.47
411.59	3201.85
411.78	3084.83
411.98	3208.87
412.17	3276.75
412.36	3269.73
412.55	3365.69
412.74	3414.84
412.93	3435.91
413.12	3281.43
413.31	3435.91
413.50	3620.81
413.69	3344.63
413.88	3510.80
414.07	3459.31
414.26	3517.83
414.45	3515.48
414.64	3527.19
414.83	3744.86
415.02	3786.99
415.22	3786.99
415.41	3728.47
415.60	3756.56
415.79	3784.65
415.98	3948.48
416.17	3992.95
416.36	3941.46
416.55	4030.40
416.74	4114.66
416.93	4072.53
417.12	4070.19
417.31	3992.95
417.50	4023.38
417.69	4231.69
417.88	4292.54
418.07	4329.99
418.26	4222.33
418.45	4329.99
418.64	4550.00
418.83	4379.14
419.02	4393.19
419.21	4360.42
419.39	4514.89
419.58	4400.21
419.77	4482.13
419.96	4594.47
420.15	4587.45
420.34	4667.03
420.53	4547.66
420.72	4643.62
420.91	4498.51
421.10	4550.00
421.29	4678.73
421.48	4767.67
421.67	4734.90
421.86	4718.52
422.05	4709.16
422.24	4667.03
422.43	4835.55
422.61	4929.17
422.80	4791.08
422.99	4851.93
423.18	4844.91
423.37	4959.60
423.56	4917.47
423.75	4833.21
423.94	4830.87
424.13	4652.98
424.32	4819.16
424.50	5027.47
424.69	4994.70
424.88	4903.42
425.07	4975.98
425.26	4903.42
425.45	4917.47
425.64	4952.57
425.83	4910.44
426.01	4926.83
426.20	5029.81
426.39	5109.39
426.58	4987.68
426.77	5015.77
426.96	5095.35
427.15	5160.88
427.33	5135.14
427.52	5198.33
427.71	5263.86
427.90	5062.58
428.09	5165.56
428.28	5291.95
428.46	5359.83
428.65	5247.48
428.84	5303.65
429.03	5394.93
429.22	5205.35
429.40	5439.40
429.59	5596.22
429.78	5146.84
429.97	5280.25
430.16	5575.16
430.34	5416.00
430.53	5692.18
430.72	5577.50
430.91	5575.16
431.10	5715.59
431.28	5598.56
431.47	5764.74
431.66	5575.16
431.85	5579.84
432.03	5839.64
432.22	5987.09
432.41	5785.80
432.60	5923.90
432.79	5914.53
432.97	5968.37
433.16	6040.92
433.35	5898.15
433.54	5996.45
433.72	6106.46
433.91	6204.76
434.10	6167.31
434.28	5900.49
434.47	6043.26
434.66	6211.78
434.85	6310.08
435.03	6368.60
435.22	6171.99
435.41	6384.98
435.59	6270.30
435.78	6380.30
435.97	6349.87
436.16	6331.15
436.34	6356.90
436.53	6466.90
436.72	6518.39
436.90	6401.37
437.09	6654.14
437.28	6466.90
437.46	6619.04
437.65	6499.67
437.84	6810.96
438.02	6733.72
438.21	6616.69
438.40	6825.00
438.58	6668.19
438.77	6951.39
438.96	6864.79
439.14	7091.82
439.33	7215.87
439.52	6963.09
439.70	7103.53
439.89	7166.72
440.08	7243.96
440.26	7363.33
440.45	7194.81
440.63	7243.96
440.82	7506.10
441.01	7473.33
441.19	7470.99
441.38	7683.98
441.57	7714.41
441.75	7754.19
441.94	7735.47
442.12	7960.16
442.31	7831.43
442.50	8074.85
442.68	7936.76
442.87	7964.84
443.05	7903.99
443.24	8016.33
443.43	8133.36
443.61	8112.30
443.80	8437.63
443.98	7971.86
444.17	7786.96
444.35	8191.88
444.54	8294.86
444.73	8271.45
444.91	8084.21
445.10	8180.17
445.28	8051.44
445.47	8234.00
445.65	8269.11
445.84	8259.75
446.02	8175.49
446.21	8428.27
446.39	8276.13
446.58	8564.02
446.77	8327.63
446.95	8262.09
447.14	8386.14
447.32	8442.31
447.51	8547.64
447.69	8360.39
447.88	8442.31
448.06	8348.69
448.25	8301.88
448.43	8360.39
448.62	8482.10
448.80	8439.97
448.99	8622.53
449.17	8470.40
449.36	8470.40
449.54	8688.07
449.73	9006.38
449.91	8828.50
450.10	8978.30
450.28	9015.74
450.46	8994.68
450.65	8858.93
450.83	8854.25
451.02	8997.02
451.20	9004.04
451.39	9261.50
451.57	9048.51
451.76	9184.26
451.94	9015.74
452.13	9221.71
452.31	9294.27
452.49	9284.91
452.68	9345.76
452.86	9338.74
453.05	9252.14
453.23	9437.04
453.42	9170.22
453.60	9221.71
453.78	9547.05
453.97	9355.12
454.15	9420.66
454.34	9430.02
454.52	9605.56
454.70	9692.16
454.89	9530.66
455.07	9764.72
455.26	9846.63
455.44	9809.19
455.62	9731.95
455.81	9935.57
455.99	9689.82
456.17	9970.68
456.36	9905.15
456.54	10139.20
456.73	10186.01
456.91	10319.42
457.09	10326.44
457.28	10258.57
457.46	10296.02
457.64	10424.75
457.83	10546.45
458.01	10272.61
458.19	10726.68
458.38	10452.83
458.56	10490.28
458.74	10635.39
458.93	10719.65
459.11	10672.84
459.29	10616.67
459.48	10815.62
459.66	10628.37
459.84	10792.21
460.03	10813.28
460.21	10972.43
460.39	11075.42
460.57	10899.87
460.76	10981.79
460.94	10967.75
461.12	11126.91
461.31	11110.52
461.49	10822.64
461.67	11105.84
461.85	11162.01
462.04	11215.85
462.22	11777.58
462.40	11358.62
462.59	11389.05
462.77	11248.61
462.95	11672.25
463.13	11777.58
463.32	11311.81
463.50	11845.45
463.68	11496.71
463.86	11723.74
464.05	11618.42
464.23	11758.85
464.41	11494.37
464.59	11683.95
464.78	12100.57
464.96	11873.54
465.14	11810.34
465.32	12224.62
465.50	12173.13
465.69	12028.01
465.87	11978.86
466.05	12044.40
466.23	12100.57
466.41	12163.76
466.60	12444.63
466.78	12135.68
466.96	12058.44
467.14	12044.40
467.32	12250.36
467.51	12505.48
467.69	12046.74
467.87	12241.00
468.05	12505.48
468.23	12348.67
468.41	12182.49
468.60	12725.49
468.78	12774.64
468.96	12397.82
469.14	12674.00
469.32	12912.74
469.50	12470.37
469.69	12814.43
469.87	12957.21
470.05	12959.55
470.23	13036.78
470.41	13261.48
470.59	13123.38
470.77	12989.97
470.95	13039.12
471.14	13724.90
471.32	13132.75
471.50	13493.19
471.68	13317.65
471.86	13296.58
472.04	13642.98
472.22	13961.30
472.40	13689.79
472.58	13507.23
472.77	13743.63
472.95	13994.06
473.13	14422.38
473.31	13893.42
473.49	14162.58
473.67	14057.26
473.85	14375.57
474.03	14314.72
474.21	14469.19
474.39	14466.85
474.57	14518.34
474.75	14815.59
474.93	14782.82
475.12	14757.08
475.30	15098.80
475.48	14960.70
475.66	15098.80
475.84	14967.73
476.02	15103.48
476.20	15229.87
476.38	15323.49
476.56	15925.00
476.74	15941.39
476.92	15747.12
477.10	15686.27
477.28	15777.55
477.46	16175.44
477.64	16203.53
477.82	16393.11
478.00	16973.56
478.18	17027.40
478.36	16673.98
478.54	16915.05
478.72	17018.04
478.90	17139.74
479.08	17373.80
479.26	17659.34
479.44	17528.27
479.62	17701.47
479.80	17980.00
479.98	18029.15
480.16	18560.45
480.34	18029.15
480.52	18450.44
480.70	18310.01
480.88	18335.76
481.06	18485.55
481.24	18532.36
481.41	18831.95
481.59	19185.37
481.77	19623.05
481.95	19246.23
482.13	19690.93
482.31	19484.96
482.49	20159.03
482.67	19784.55
482.85	20283.08
483.03	20189.46
483.21	20421.17
483.39	20666.93
483.57	20734.81
483.74	20915.03
483.92	21341.00
484.10	21022.69
484.28	21628.89
484.46	21720.17
484.64	22001.04
484.82	22094.66
485.00	22277.22
485.18	22492.55
485.35	23030.87
485.53	22892.78
485.71	22586.17
485.89	23335.14
486.07	23009.81
486.25	23028.53
486.43	23482.59
486.61	23594.94
486.78	24009.22
486.96	24065.39
487.14	24386.04
487.32	23976.45
487.50	24636.48
487.68	25050.75
487.85	25226.29
488.03	25448.64
488.21	25270.76
488.39	25483.75
488.57	25898.03
488.75	25652.27
488.92	26410.60
489.10	26373.16
489.28	26244.43
489.46	27122.13
489.64	26925.52
489.81	27253.20
489.99	27295.33
490.17	27840.67
490.35	27697.90
490.53	27861.74
490.70	28098.13
490.88	28025.57
491.06	28505.38
491.24	28629.43
491.41	28519.43
491.59	28697.31
491.77	29024.98
491.95	29308.19
492.13	29390.11
492.30	29373.72
492.48	29647.57
492.66	29898.00
492.84	30043.12
493.01	30209.29
493.19	30064.18
493.37	30408.24
493.54	30792.09
493.72	31243.81
493.90	31021.46
494.08	31302.32
494.25	31634.68
494.43	31723.62
494.61	31908.52
494.79	32304.07
494.96	32215.13
495.14	32711.33
495.32	32739.41
495.49	33151.35
495.67	32788.56
495.85	33539.88
496.02	33584.35
496.20	34213.95
496.38	33591.37
496.55	34155.44
496.73	34284.17
496.91	34192.89
497.09	34457.37
497.26	34251.40
497.44	34520.56
497.62	34991.01
497.79	35477.84
497.97	35269.53
498.14	35604.23
498.32	35985.74
498.50	35988.08
498.67	36266.60
498.85	36198.73
499.03	36229.15
499.20	36720.66
499.38	36545.12
499.56	36524.06
499.73	36678.54
499.91	37099.83
500.08	37354.95
500.26	37148.98
500.44	37425.17
500.61	37642.84
500.79	37340.91
500.97	37743.48
501.14	38354.36
501.32	38515.86
501.49	38239.67
501.67	38323.93
501.84	38162.43
502.02	38387.13
502.20	38536.92
502.37	38983.96
502.55	38918.43
502.72	39208.65
502.90	39578.46
503.07	38948.85
503.25	39344.41
503.43	39559.73
503.60	39456.75
503.78	39868.69
503.95	40184.66
504.13	40121.46
504.30	40418.71
504.48	40229.13
504.65	40631.70
504.83	40849.37
505.01	40849.37
505.18	40849.37
505.36	41076.40
505.53	41411.10
505.71	41546.85
505.88	41010.87
506.06	41378.33
506.23	41284.71
506.41	41617.07
506.58	41338.54
506.76	41610.04
506.93	42237.31
507.11	42202.20
507.28	42244.33
507.46	42326.25
507.63	42569.66
507.81	42955.85
507.98	42260.71
508.16	43016.71
508.33	43082.24
508.50	43070.54
508.68	43370.13
508.85	43611.20
509.03	43164.16
509.20	43281.19
509.38	43880.36
509.55	44254.85
509.73	44502.95
509.90	44432.73
510.08	44144.84
510.25	44779.13
510.42	44519.33
510.60	44751.04
510.77	44685.51
510.95	45006.16
511.12	45659.17
511.30	44971.05
511.47	45233.19
511.64	45212.13
511.82	45525.76
511.99	45188.72
512.17	45418.10
512.34	45691.94
512.51	45890.88
512.69	46237.28
512.86	45911.95
513.04	46213.88
513.21	46078.13
513.38	46258.35
513.56	46504.10
513.73	46614.11
513.90	46253.67
514.08	46522.83
514.25	46396.44
514.43	47079.88
514.60	46995.62
514.77	46923.06
514.95	47407.55
515.12	47063.49
515.29	47220.31
515.47	47543.30
515.64	47852.25
515.81	47297.55
515.99	47716.50
516.16	47978.64
516.33	47756.29
516.51	48336.74
516.68	48273.55
516.85	48292.27
517.03	48067.58
517.20	48512.28
517.37	48144.82
517.54	48444.41
517.72	48720.59
517.89	48662.08
518.06	49263.60
518.24	48825.92
518.41	49144.23
518.58	48844.64
518.75	49125.50
518.93	49504.67
519.10	49090.40
519.27	49659.15
519.45	49563.18
519.62	49284.66
519.79	49202.74
519.96	49860.43
520.14	50218.53
520.31	50012.57
520.48	50028.95
520.65	50127.25
520.83	50024.27
521.00	50349.60
521.17	50071.08
521.34	50373.01
521.52	50103.85
521.69	50408.12
521.86	50801.33
522.03	50913.67
522.20	50747.50
522.38	51325.61
522.55	51152.41
522.72	51189.86
522.89	51133.68
523.07	51304.54
523.24	51267.09
523.41	51620.52
523.58	50960.48
523.75	51650.94
523.92	51466.04
524.10	51201.56
524.27	51227.31
524.44	51976.28
524.61	51606.47
524.78	51987.98
524.96	51861.59
525.13	52009.04
525.30	52259.48
525.47	52144.80
525.64	52100.32
525.81	52203.31
525.98	52329.70
526.16	52189.27
526.33	52231.40
526.50	52725.25
526.67	52493.54
526.84	52233.74
527.01	52498.22
527.18	52435.02
527.36	52781.42
527.53	52659.71
527.70	53099.73
527.87	53336.13
528.04	52830.57
528.21	53066.97
528.38	53116.12
528.55	53539.75
528.72	53205.06
528.89	53008.45
529.07	53343.15
529.24	53359.53
529.41	53396.98
529.58	53343.15
529.75	53373.58
529.92	53607.63
530.09	53609.97
530.26	53567.84
530.43	53691.89
530.60	53378.26
530.77	53415.71
530.94	53797.21
531.11	53890.83
531.28	53876.79
531.46	54019.56
531.63	53811.26
531.80	53785.51
531.97	54134.25
532.14	54124.89
532.31	54082.76
532.48	54057.01
532.65	54169.36
532.82	54110.85
532.99	54576.61
533.16	54305.11
533.33	54618.74
533.50	54747.47
533.67	54520.44
533.84	54595.34
534.01	54501.71
534.18	54621.08
534.35	54843.43
534.52	54768.54
534.69	54717.04
534.86	55189.83
535.03	54749.81
535.20	55114.94
535.37	55131.32
535.54	55182.81
535.71	55002.59
535.88	55325.58
536.05	55072.81
536.22	55344.31
536.38	55444.95
536.55	55451.97
536.72	55112.59
536.89	55203.88
537.06	55250.69
537.23	55510.49
537.40	55466.02
537.57	55320.90
537.74	55688.37
537.91	55576.02
538.08	55564.32
538.25	55447.29
538.42	55810.07
538.59	55983.27
538.75	55817.10
538.92	55786.67
539.09	56067.53
539.26	55681.34
539.43	55943.48
539.60	55985.61
539.77	55913.06
539.94	56385.85
540.11	55955.19
540.28	56301.59
540.44	56140.09
540.61	56397.55
540.78	56107.32
540.95	56104.98
541.12	56032.42
541.29	56275.84
541.46	56449.04
541.62	56191.58
541.79	56757.99
541.96	55950.51
542.13	56488.83
542.30	56493.51
542.47	56699.48
542.63	56563.73
542.80	56514.58
542.97	56921.83
543.14	57050.56
543.31	56905.44
543.48	57043.54
543.64	57319.72
543.81	57116.09
543.98	57102.05
544.15	57240.14
544.32	57179.29
544.48	57289.29
544.65	57076.30
544.82	57085.67
544.99	57214.40
545.16	57268.23
545.32	57052.90
545.49	57642.71
545.66	57469.51
545.83	57375.89
546.00	57528.03
546.16	57457.81
546.33	57125.46
546.50	57179.29
546.67	57272.91
546.83	57319.72
547.00	57462.49
547.17	57680.16
547.34	57336.10
547.50	57689.52
547.67	58017.20
547.84	57799.53
548.00	58028.90
548.17	58094.44
548.34	57916.56
548.51	57991.45
548.67	58059.33
548.84	57949.32
549.01	57862.72
549.18	57733.99
549.34	58117.84
549.51	57930.60
549.68	58007.84
549.84	58117.84
550.01	58078.05
550.18	58181.04
550.34	58272.32
550.51	58089.76
550.68	58178.70
550.84	58026.56
551.01	58347.21
551.18	58298.06
551.34	58185.72
551.51	58340.19
551.68	58424.45
551.84	58529.78
552.01	58309.77
552.18	58342.53
552.34	58103.80
552.51	58415.09
552.68	58169.33
552.84	58265.30
553.01	58674.89
553.18	58457.22
553.34	58595.31
553.51	58726.38
553.67	58649.14
553.84	58789.58
554.01	58597.65
554.17	58782.55
554.34	58698.30
554.51	58838.73
554.67	58693.61
554.84	58920.65
555.00	58686.59
555.17	58679.57
555.33	58890.22
555.50	58747.45
555.67	58798.94
555.83	58829.37
556.00	58845.75
556.16	59267.05
556.33	59075.12
556.50	59072.78
556.66	59330.24
556.83	59011.93
556.99	59276.41
557.16	59344.28
557.32	59224.92
557.49	59229.60
557.65	59288.11
557.82	59154.70
557.98	59150.02
558.15	59166.40
558.32	59318.54
558.48	59299.81
558.65	59213.21
558.81	59355.99
558.98	59332.58
559.14	59318.54
559.31	59344.28
559.47	59550.25
559.64	59458.97
559.80	59365.35
559.97	59473.01
560.13	59353.65
560.30	59409.82
560.46	59461.31
560.63	59573.66
560.79	59536.21
560.96	59620.47
561.12	59646.21
561.29	59601.74
561.45	59728.13
561.61	59702.38
561.78	59634.51
561.94	59632.17
562.11	59704.73
562.27	59625.15
562.44	59730.47
562.60	59990.27
562.77	59889.63
562.93	59723.45
563.10	59941.12
563.26	59634.51
563.42	60044.10
563.59	59648.55
563.75	59690.68
563.92	59711.75
564.08	59765.58
564.24	59831.11
564.41	59882.61
564.57	60001.97
564.74	59959.84
564.90	60001.97
565.07	59817.07
565.23	60023.04
565.39	59870.90
565.56	60030.06
565.72	60119.00
565.88	60027.72
566.05	59915.37
566.21	59894.31
566.38	59898.99
566.54	60135.38
566.70	60086.23
566.87	60093.25
567.03	59955.16
567.19	60102.62
567.36	60238.37
567.52	60004.31
567.68	60065.17
567.85	60172.83
568.01	60034.74
568.17	60048.78
568.34	60172.83
568.50	60128.36
568.66	60289.86
568.83	60299.22
568.99	60133.04
569.15	60278.16
569.32	60179.85
569.48	60207.94
569.64	60367.10
569.81	60299.22
569.97	60053.47
570.13	60207.94
570.30	60339.01
570.46	60149.43
570.62	60322.63
570.78	60360.08
570.95	60303.90
571.11	60357.74
571.27	60343.69
571.43	60303.90
571.60	60329.65
571.76	60360.08
571.92	60369.44
572.09	60383.48
572.25	60523.91
572.41	60226.66
572.57	60505.19
572.74	60563.70
572.90	60140.07
573.06	60458.38
573.22	60268.79
573.38	60430.29
573.55	60406.89
573.71	60654.98
573.87	60383.48
574.03	60357.74
574.20	60299.22
574.36	60474.76
574.52	60570.72
574.68	60537.96
574.84	60610.51
575.01	60626.90
575.17	60427.95
575.33	60449.02
575.49	60411.57
575.65	60378.80
575.82	60673.71
575.98	60673.71
576.14	60711.16
576.30	60519.23
576.46	60493.49
576.62	60507.53
576.79	60217.30
576.95	60561.36
577.11	60573.06
577.27	60732.22
577.43	60636.26
577.59	60453.70
577.75	60512.21
577.92	60376.46
578.08	60573.06
578.24	60505.19
578.40	60790.73
578.56	60830.52
578.72	60509.87
578.88	60692.43
579.04	60821.16
579.21	60729.88
579.37	60757.97
579.53	60739.24
579.69	60502.85
579.85	60554.34
580.01	60629.24
580.17	60725.20
580.33	60725.20
580.49	60839.89
580.65	60713.50
580.82	60823.50
580.98	60612.85
581.14	60664.35
581.30	60867.97
581.46	60708.82
581.62	60804.78
581.78	60617.53
581.94	60753.29
582.10	60598.81
582.26	60537.96
582.42	60760.31
582.58	60830.52
582.74	60535.62
582.90	60753.29
583.06	60804.78
583.22	60491.15
583.38	60622.22
583.54	60788.39
583.70	60973.30
583.86	60727.54
584.02	60636.26
584.18	60905.42
584.34	60694.77
584.50	60816.48
584.66	60757.97
584.82	60760.31
584.98	60912.44
585.14	61118.41
585.30	60704.13
585.46	60795.42
585.62	60849.25
585.78	60694.77
585.94	60547.32
586.10	60624.56
586.26	60842.23
586.42	60973.30
586.58	61041.17
586.74	61013.08
586.90	60977.98
587.06	60701.79
587.22	61045.85
587.38	60886.70
587.54	60952.23
587.70	61256.50
587.86	60926.49
588.02	60772.01
588.18	60919.46
588.34	60996.70
588.49	60933.51
