SpectraSuite Data File
++++++++++++++++++++++++++++++++++++
Date: Fri Oct 25 11:25:08 EDT 2013
User: price-jones
Dark Spectrum Present: No
Reference Spectrum Present: No
Number of Sampled Component Spectra: 1
Spectrometers: USB2+H05261
Integration Time (usec): 100000 (USB2+H05261)
Spectra Averaged: 1 (USB2+H05261)
Boxcar Smoothing: 0 (USB2+H05261)
Correct for Electrical Dark: No (USB2+H05261)
Strobe/Lamp Enabled: No (USB2+H05261)
Correct for Detector Non-linearity: No (USB2+H05261)
Correct for Stray Light: No (USB2+H05261)
Number of Pixels in Processed Spectrum: 2048
>>>>>Begin Processed Spectral Data<<<<<
365.73	271.50
365.92	271.50
366.12	271.50
366.32	70.22
366.52	117.03
366.72	117.03
366.91	105.32
367.11	142.77
367.31	201.29
367.51	124.05
367.70	110.01
367.90	112.35
368.10	126.39
368.30	142.77
368.49	126.39
368.69	175.54
368.89	152.13
369.09	201.29
369.28	231.71
369.48	173.20
369.68	117.03
369.87	191.92
370.07	201.29
370.27	248.10
370.47	266.82
370.66	606.20
370.86	592.16
371.06	706.84
371.25	697.48
371.45	641.31
371.65	699.82
371.84	657.69
372.04	695.14
372.24	657.69
372.44	669.39
372.63	671.73
372.83	770.04
373.03	779.40
373.22	851.96
373.42	734.93
373.62	767.70
373.81	751.31
374.01	800.46
374.21	777.06
374.40	788.76
374.60	823.87
374.79	807.48
374.99	851.96
375.19	842.59
375.38	795.78
375.58	837.91
375.78	821.53
375.97	896.43
376.17	903.45
376.37	903.45
376.56	870.68
376.76	898.77
376.95	945.58
377.15	959.62
377.35	908.13
377.54	905.79
377.74	896.43
377.93	929.19
378.13	931.53
378.33	891.74
378.52	936.21
378.72	844.93
378.91	973.66
379.11	861.32
379.31	880.04
379.50	947.92
379.70	976.00
379.89	978.34
380.09	1034.52
380.28	971.32
380.48	954.94
380.68	1041.54
380.87	940.90
381.07	1011.11
381.26	1029.84
381.46	933.87
381.65	1104.73
381.85	1062.60
382.04	1100.05
382.24	1036.86
382.43	1053.24
382.63	1046.22
382.83	1102.39
383.02	1100.05
383.22	1107.07
383.41	1071.97
383.61	1013.45
383.80	1123.46
384.00	1095.37
384.19	1217.08
384.39	1163.25
384.58	1128.14
384.78	1167.93
384.97	1203.04
385.17	1186.65
385.36	1088.35
385.56	1179.63
385.75	1139.84
385.95	1151.54
386.14	1149.20
386.34	1174.95
386.53	1125.80
386.72	1165.59
386.92	1259.21
387.11	1245.16
387.31	1266.23
387.50	1247.51
387.70	1296.66
387.89	1301.34
388.09	1317.72
388.28	1238.14
388.48	1261.55
388.67	1273.25
388.86	1259.21
389.06	1235.80
389.25	1317.72
389.45	1324.74
389.64	1327.08
389.84	1366.87
390.03	1387.94
390.22	1371.55
390.42	1409.00
390.61	1310.70
390.81	1448.79
391.00	1399.64
391.19	1500.28
391.39	1343.47
391.58	1420.71
391.78	1451.13
391.97	1504.96
392.16	1460.49
392.36	1441.77
392.55	1542.41
392.75	1504.96
392.94	1460.49
393.13	1661.78
393.33	1493.26
393.52	1502.62
393.71	1633.69
393.91	1519.01
394.10	1647.74
394.29	1596.25
394.49	1682.85
394.68	1633.69
394.88	1603.27
395.07	1706.25
395.26	1727.32
395.46	1598.59
395.65	1645.40
395.84	1788.17
396.04	1842.00
396.23	1806.89
396.42	1675.82
396.62	1685.19
396.81	1682.85
397.00	1734.34
397.19	1760.08
397.39	1820.94
397.58	1844.34
397.77	1811.57
397.97	1856.04
398.16	1823.28
398.35	1778.81
398.55	1853.70
398.74	1991.80
398.93	1907.54
399.12	1884.13
399.32	1984.77
399.51	1959.03
399.70	1954.35
399.90	2019.88
400.09	1952.01
400.28	2047.97
400.47	2073.71
400.67	2066.69
400.86	1954.35
401.05	2029.24
401.24	2019.88
401.44	2204.78
401.63	2188.40
401.82	2136.91
402.01	2078.40
402.21	2148.61
402.40	2129.89
402.59	2169.68
402.78	2232.87
402.97	2265.64
403.17	2221.17
403.36	2317.13
403.55	2242.23
403.74	2249.25
403.93	2277.34
404.13	2377.98
404.32	2251.60
404.51	2258.62
404.70	2413.09
404.89	2359.26
405.09	2434.16
405.28	2462.24
405.47	2422.45
405.66	2464.58
405.85	2558.21
406.05	2525.44
406.24	2429.48
406.43	2588.63
406.62	2492.67
406.81	2658.85
407.00	2565.23
407.20	2595.65
407.39	2590.97
407.58	2686.94
407.77	2710.34
407.96	2743.11
408.15	2724.38
408.34	2590.97
408.54	2757.15
408.73	2757.15
408.92	2778.22
409.11	2913.97
409.30	2867.16
409.49	2864.82
409.68	2867.16
409.87	2827.37
410.07	2911.63
410.26	2977.16
410.45	2984.18
410.64	3000.57
410.83	3033.33
411.02	3089.51
411.21	3084.83
411.40	3028.65
411.59	3297.81
411.78	3091.85
411.98	3117.59
412.17	3159.72
412.36	3283.77
412.55	3412.50
412.74	3384.41
412.93	3344.63
413.12	3391.44
413.31	3616.13
413.50	3372.71
413.69	3370.37
413.88	3482.72
414.07	3541.23
414.26	3698.05
414.45	3632.51
414.64	3662.94
414.83	3756.56
415.02	3700.39
415.22	3707.41
415.41	3943.80
415.60	3873.59
415.79	3943.80
415.98	4023.38
416.17	3925.08
416.36	3953.16
416.55	3978.91
416.74	4004.66
416.93	4051.47
417.12	4065.51
417.31	4065.51
417.50	4128.70
417.69	4294.88
417.88	4227.01
418.07	4187.22
418.26	4243.39
418.45	4184.88
418.64	4447.02
418.83	4334.67
419.02	4390.84
419.21	4418.93
419.39	4456.38
419.58	4365.10
419.77	4381.48
419.96	4486.81
420.15	4463.40
420.34	4458.72
420.53	4557.02
420.72	4624.90
420.91	4664.69
421.10	4718.52
421.29	4746.61
421.48	4762.99
421.67	4674.05
421.86	4685.75
422.05	4664.69
422.24	4702.14
422.43	4959.60
422.61	4784.06
422.80	4924.49
422.99	5015.77
423.18	4875.34
423.37	4997.04
423.56	5034.49
423.75	4788.74
423.94	4851.93
424.13	4788.74
424.32	4760.65
424.50	4943.21
424.69	5242.80
424.88	5011.09
425.07	4863.63
425.26	4964.28
425.45	5067.26
425.64	4947.89
425.83	4807.46
426.01	5144.50
426.20	5039.17
426.39	4992.36
426.58	4924.49
426.77	5107.05
426.96	5212.37
427.15	5165.56
427.33	5191.31
427.52	5205.35
427.71	5329.40
427.90	5149.18
428.09	5338.76
428.28	5224.08
428.46	5378.55
428.65	5273.23
428.84	5507.28
429.03	5380.89
429.22	5247.48
429.40	5479.19
429.59	5441.75
429.78	5268.55
429.97	5116.41
430.16	5504.94
430.34	5568.13
430.53	5708.57
430.72	5696.86
430.91	5584.52
431.10	5575.16
431.28	5781.12
431.47	5696.86
431.66	5689.84
431.85	5689.84
432.03	5933.26
432.22	5959.00
432.41	5919.21
432.60	5956.66
432.79	5837.30
432.97	5959.00
433.16	5884.11
433.35	6003.47
433.54	5987.09
433.72	6031.56
433.91	6066.67
434.10	6104.12
434.28	6260.93
434.47	6157.95
434.66	6171.99
434.85	6260.93
435.03	6202.42
435.22	6136.88
435.41	6361.58
435.59	6352.21
435.78	6377.96
435.97	6541.80
436.16	6384.98
436.34	6520.73
436.53	6363.92
436.72	6619.04
436.90	6359.24
437.09	6546.48
437.28	6429.45
437.46	6729.04
437.65	6719.68
437.84	6689.25
438.02	6640.10
438.21	6670.53
438.40	6595.63
438.58	6918.62
438.77	6888.20
438.96	6923.30
439.14	7098.84
439.33	7124.59
439.52	6944.37
439.70	7187.79
439.89	7246.30
440.08	7087.14
440.26	7337.58
440.45	7304.81
440.63	7485.03
440.82	7559.93
441.01	7470.99
441.19	7639.51
441.38	7676.96
441.57	7627.81
441.75	7653.55
441.94	7775.26
442.12	7995.27
442.31	8152.09
442.50	8042.08
442.68	7936.76
442.87	7962.50
443.05	8009.31
443.24	8109.96
443.43	8173.15
443.61	8023.36
443.80	8252.73
443.98	8140.38
444.17	7805.69
444.35	8142.72
444.54	8374.44
444.73	8461.04
444.91	8238.69
445.10	8229.32
445.28	8287.84
445.47	8231.66
445.65	8184.85
445.84	8437.63
446.02	8411.89
446.21	8283.16
446.39	8276.13
446.58	8339.33
446.77	8290.18
446.95	8259.75
447.14	8301.88
447.32	8397.84
447.51	8468.06
447.69	8393.16
447.88	8458.70
448.06	8465.72
448.25	8542.96
448.43	8561.68
448.62	8594.45
448.80	8592.11
448.99	8727.86
449.17	8624.87
449.36	8341.67
449.54	8765.31
449.73	8947.87
449.91	8884.67
450.10	8926.80
450.28	8905.74
450.46	9025.11
450.65	8905.74
450.83	8896.38
451.02	8954.89
451.20	9181.92
451.39	9062.55
451.57	9022.77
451.76	9076.60
451.94	9013.40
452.13	9345.76
452.31	9284.91
452.49	9235.75
452.68	9268.52
452.86	9231.07
453.05	9453.42
453.23	9469.81
453.42	9334.06
453.60	9181.92
453.78	9668.75
453.97	9303.63
454.15	9537.68
454.34	9303.63
454.52	9654.71
454.70	9788.12
454.89	9612.58
455.07	9504.92
455.26	9734.29
455.44	9806.84
455.62	10010.47
455.81	9879.40
455.99	10038.56
456.17	10076.01
456.36	10012.81
456.54	9893.44
456.73	10200.05
456.91	10305.38
457.09	10284.31
457.28	10485.60
457.46	10373.25
457.64	10347.51
457.83	10452.83
458.01	10434.11
458.19	10593.26
458.38	10527.73
458.56	10670.50
458.74	10572.20
458.93	10665.82
459.11	10644.76
459.29	10574.54
459.48	10738.38
459.66	10656.46
459.84	10766.46
460.03	10806.25
460.21	10799.23
460.39	11033.29
460.57	11098.82
460.76	11136.27
460.94	11042.65
461.12	10965.41
461.31	11250.96
461.49	11150.31
461.67	11232.23
461.85	11363.30
462.04	11265.00
462.22	11903.96
462.40	11531.82
462.59	11431.18
462.77	11386.71
462.95	11534.16
463.13	11487.35
463.32	11501.39
463.50	11796.30
463.68	11604.38
463.86	11882.90
464.05	11501.39
464.23	11702.68
464.41	11644.17
464.59	11655.87
464.78	12278.45
464.96	11833.75
465.14	11599.70
465.32	12084.19
465.50	12030.35
465.69	12135.68
465.87	12100.57
466.05	11950.78
466.23	12196.53
466.41	12381.43
466.60	12439.95
466.78	11829.07
466.96	12388.46
467.14	12442.29
467.32	12266.75
467.51	12334.62
467.69	11906.31
467.87	12292.49
468.05	12592.08
468.23	12341.64
468.41	12222.28
468.60	12524.21
468.78	12559.31
468.96	12283.13
469.14	12882.31
469.32	12985.29
469.50	12519.53
469.69	13060.19
469.87	12739.54
470.05	13011.04
470.23	13125.72
470.41	13153.81
470.59	13064.87
470.77	13137.43
470.95	13249.77
471.14	13268.50
471.32	13144.45
471.50	13561.06
471.68	13298.92
471.86	13558.72
472.04	13488.51
472.22	13848.95
472.40	13425.31
472.58	14005.77
472.77	13923.85
472.95	14080.66
473.13	14560.47
473.31	13905.12
473.49	14146.20
473.67	14246.84
473.85	14167.26
474.03	14576.86
474.21	14525.36
474.39	14700.90
474.57	14960.70
474.75	14745.38
474.93	15063.69
475.12	14946.66
475.30	15066.03
475.48	14927.94
475.66	15073.05
475.84	14995.81
476.02	15229.87
476.20	15391.36
476.38	15374.98
476.56	15960.11
476.74	15712.02
476.92	15943.73
477.10	15644.14
477.28	15913.30
477.46	15976.50
477.64	16020.97
477.82	16477.37
478.00	16830.79
478.18	16617.80
478.36	17095.27
478.54	16996.97
478.72	17137.40
478.90	17338.69
479.08	17289.54
479.26	17514.23
479.44	17582.10
479.62	17820.84
479.80	17944.89
479.98	18277.24
480.16	18609.60
480.34	17909.78
480.52	18761.73
480.70	18443.42
480.88	18483.21
481.06	18689.18
481.24	18743.01
481.41	19056.64
481.59	19295.38
481.77	19583.26
481.95	19377.30
482.13	19861.79
482.31	19763.48
482.49	20011.58
482.67	20130.95
482.85	20493.73
483.03	20318.19
483.21	20748.85
483.39	20645.87
483.57	20868.22
483.74	20772.25
483.92	21591.44
484.10	21118.65
484.28	21343.35
484.46	21930.82
484.64	21996.35
484.82	21582.08
485.00	22228.07
485.18	22923.21
485.35	22356.80
485.53	22902.14
485.71	22960.66
485.89	23117.47
486.07	23199.39
486.25	23501.32
486.43	23400.68
486.61	23976.45
486.78	23992.83
486.96	24018.58
487.14	24418.81
487.32	24414.13
487.50	24910.32
487.68	24730.10
487.85	25184.16
488.03	25366.73
488.21	25666.31
488.39	25841.85
488.57	25916.75
488.75	26010.37
488.92	26132.08
489.10	26518.27
489.28	27040.21
489.46	27019.14
489.64	27225.11
489.81	27651.09
489.99	27225.11
490.17	27468.53
490.35	28166.01
490.53	28161.33
490.70	28318.14
490.88	28114.52
491.06	28402.40
491.24	28774.55
491.41	28751.14
491.59	28779.23
491.77	28870.51
491.95	29455.64
492.13	29820.77
492.30	29933.11
492.48	29579.69
492.66	29738.85
492.84	30022.05
493.01	30452.71
493.19	30574.42
493.37	30848.26
493.54	31384.24
493.72	31569.15
493.90	31381.90
494.08	31634.68
494.25	31655.75
494.43	32135.56
494.61	32243.22
494.79	32292.37
494.96	32222.16
495.14	32467.91
495.32	33251.99
495.49	32931.34
495.67	33228.59
495.85	33027.30
496.02	33752.87
496.20	34089.90
496.38	33937.77
496.55	33757.55
496.73	34677.38
496.91	34155.44
497.09	34679.72
497.26	35054.20
497.44	34895.05
497.62	35103.35
497.79	35711.89
497.97	35267.19
498.14	36154.26
498.32	35896.80
498.50	35728.28
498.67	36341.50
498.85	36402.35
499.03	36407.03
499.20	36404.69
499.38	36910.25
499.56	36926.63
499.73	36903.23
499.91	36769.82
500.08	37364.31
500.26	36877.48
500.44	37270.69
500.61	37483.68
500.79	37467.30
500.97	37706.03
501.14	38251.38
501.32	38239.67
501.49	38637.56
501.67	38213.93
501.84	38602.46
502.02	38787.36
502.20	38913.75
502.37	38450.32
502.55	39304.62
502.72	39248.44
502.90	38993.32
503.07	39084.61
503.25	39306.96
503.43	39634.63
503.60	39667.40
503.78	40126.14
503.95	39845.28
504.13	40289.98
504.30	40631.70
504.48	40229.13
504.65	40236.15
504.83	40650.42
505.01	40741.71
505.18	41120.87
505.36	41464.93
505.53	40959.38
505.71	41104.49
505.88	41478.97
506.06	41359.61
506.23	41881.55
506.41	41605.36
506.58	41961.12
506.76	41783.24
506.93	42412.85
507.11	41961.12
507.28	42363.70
507.46	42471.36
507.63	42230.29
507.81	43070.54
507.98	42405.83
508.16	42796.70
508.33	43222.67
508.50	43400.55
508.68	43402.89
508.85	43739.93
509.03	43372.47
509.20	44016.11
509.38	43835.89
509.55	44203.36
509.73	44098.03
509.90	44526.35
510.08	44261.87
510.25	44371.88
510.42	44463.16
510.60	44889.13
510.77	45272.98
510.95	45022.54
511.12	45020.20
511.30	44811.90
511.47	45113.83
511.64	45263.62
511.82	45734.07
511.99	44945.31
512.17	45649.81
512.34	45572.57
512.51	46078.13
512.69	45724.71
512.86	46096.85
513.04	46316.86
513.21	46260.69
513.38	46567.30
513.56	46644.54
513.73	47000.30
513.90	46651.56
514.08	46951.15
514.25	47012.00
514.43	47255.42
514.60	47105.62
514.77	47309.25
514.95	47318.61
515.12	47224.99
515.29	47400.53
515.47	47831.19
515.64	47814.80
515.81	47627.56
515.99	47931.83
516.16	48168.22
516.33	48048.86
516.51	48360.15
516.68	48329.72
516.85	48392.92
517.03	48673.78
517.20	48547.39
517.37	48514.62
517.54	48512.28
517.72	48547.39
517.89	48793.15
518.06	48825.92
518.24	48903.15
518.41	49230.83
518.58	49141.89
518.75	49455.52
518.93	49598.29
519.10	49317.43
519.27	49434.45
519.45	49865.11
519.62	49570.21
519.79	49326.79
519.96	49806.60
520.14	49954.05
520.31	49865.11
520.48	50225.56
520.65	49968.10
520.83	50164.70
521.00	50525.14
521.17	50410.46
521.34	50527.48
521.52	50731.11
521.69	50607.06
521.86	50749.84
522.03	50791.97
522.20	51194.54
522.38	51182.84
522.55	50997.93
522.72	50843.46
522.89	51323.27
523.07	51473.06
523.24	51388.80
523.41	51751.59
523.58	51124.32
523.75	51730.52
523.92	51690.73
524.10	51971.60
524.27	51854.57
524.44	51739.88
524.61	51889.68
524.78	52156.50
524.96	51873.29
525.13	51859.25
525.30	52168.20
525.47	52329.70
525.64	52411.62
525.81	52479.49
525.98	52460.77
526.16	52388.21
526.33	52563.75
526.50	52856.32
526.67	52678.44
526.84	52722.91
527.01	52519.28
527.18	52706.52
527.36	52701.84
527.53	52853.98
527.70	53249.53
527.87	53057.60
528.04	53160.59
528.21	53104.41
528.38	53230.80
528.55	53244.85
528.72	53389.96
528.89	53172.29
529.07	53525.71
529.24	53118.46
529.41	53537.41
529.58	53495.28
529.75	53717.64
529.92	53525.71
530.09	53401.66
530.26	53773.81
530.43	53907.22
530.60	54000.84
530.77	53516.35
530.94	53874.45
531.11	53935.30
531.28	53839.34
531.46	54099.14
531.63	54007.86
531.80	54155.32
531.97	54314.47
532.14	54277.02
532.31	54368.30
532.48	54223.19
532.65	54478.31
532.82	54314.47
532.99	54740.45
533.16	54316.81
533.33	54695.98
533.50	54747.47
533.67	54677.25
533.84	54541.50
534.01	54857.48
534.18	54815.35
534.35	55096.21
534.52	54981.52
534.69	55126.64
534.86	55096.21
535.03	54904.29
535.20	54897.27
535.37	55004.93
535.54	55473.04
535.71	55292.82
535.88	55412.18
536.05	55187.49
536.22	55330.26
536.38	55327.92
536.55	55220.26
536.72	55451.97
536.89	55398.14
537.06	55484.74
537.23	55388.78
537.40	55433.25
537.57	55430.91
537.74	55517.51
537.91	55365.37
538.08	55833.48
538.25	55374.73
538.42	55828.80
538.59	55992.64
538.75	55763.26
538.92	55791.35
539.09	56013.70
539.26	55992.64
539.43	55997.32
539.60	56046.47
539.77	56060.51
539.94	56320.31
540.11	56343.72
540.28	56355.42
540.44	56217.33
540.61	56104.98
540.78	56303.93
540.95	56158.81
541.12	56285.20
541.29	56252.44
541.46	56446.70
541.62	56416.27
541.79	56573.09
541.96	56437.34
542.13	56470.11
542.30	56299.25
542.47	56715.86
542.63	56631.60
542.80	56839.91
542.97	56966.30
543.14	57055.24
543.31	57102.05
543.48	57130.14
543.64	57312.70
543.81	57350.15
543.98	57116.09
544.15	57223.76
544.32	57373.55
544.48	57312.70
544.65	57284.61
544.82	57195.67
544.99	57181.63
545.16	57497.60
545.32	57296.31
545.49	57322.06
545.66	57464.83
545.83	57378.23
546.00	57675.48
546.16	57696.55
546.33	57331.42
546.50	57361.85
546.67	57411.00
546.83	57160.56
547.00	57640.37
547.17	57638.03
547.34	57818.25
547.50	57708.25
547.67	57827.62
547.84	57820.59
548.00	57935.28
548.17	57993.79
548.34	57900.17
548.51	58085.07
548.67	58148.27
548.84	58059.33
549.01	57977.41
549.18	57902.51
549.34	58166.99
549.51	58101.46
549.68	58162.31
549.84	58122.52
550.01	58604.67
550.18	58103.80
550.34	58344.87
550.51	58225.51
550.68	58319.13
550.84	58042.95
551.01	58408.07
551.18	58396.37
551.34	58480.63
551.51	58368.28
551.68	58525.10
551.84	58674.89
552.01	58326.15
552.18	58581.27
552.34	58417.43
552.51	58581.27
552.68	58368.28
552.84	58419.77
553.01	58812.98
553.18	58698.30
553.34	58862.13
553.51	58585.95
553.67	58733.40
553.84	58901.92
554.01	58735.74
554.17	58817.66
554.34	58773.19
554.51	58901.92
554.67	59082.14
554.84	58930.01
555.00	58735.74
555.17	58679.57
555.33	59068.10
555.50	58775.53
555.67	58789.58
555.83	58843.41
556.00	58852.77
556.16	59351.30
556.33	59063.42
556.50	59032.99
556.66	59121.93
556.83	59042.35
556.99	59168.74
557.16	59377.05
557.32	59381.73
557.49	59388.75
557.65	59056.40
557.82	59208.53
557.98	59250.66
558.15	59388.75
558.32	59388.75
558.48	59124.27
558.65	59613.44
558.81	59477.69
558.98	59414.50
559.14	59334.92
559.31	59604.08
559.47	59505.78
559.64	59583.02
559.80	59615.79
559.97	59765.58
560.13	59451.95
560.30	59489.40
560.46	59618.13
560.63	59533.87
560.79	59494.08
560.96	59662.60
561.12	59686.00
561.29	59709.41
561.45	59758.56
561.61	59746.86
561.78	59854.52
561.94	59585.36
562.11	59615.79
562.27	59667.28
562.44	59943.46
562.60	59959.84
562.77	59629.83
562.93	59440.24
563.10	60067.51
563.26	59854.52
563.42	60111.98
563.59	59880.27
563.75	59737.49
563.92	59709.41
564.08	59985.59
564.24	60130.70
564.41	59920.05
564.57	59987.93
564.74	59985.59
564.90	59976.23
565.07	59955.16
565.23	59845.16
565.39	59971.55
565.56	60093.25
565.72	59987.93
565.88	60027.72
566.05	59924.74
566.21	59831.11
566.38	60172.83
566.54	60090.91
566.70	60053.47
566.87	60135.38
567.03	60048.78
567.19	60296.88
567.36	60390.50
567.52	60296.88
567.68	60514.55
567.85	60257.09
568.01	60299.22
568.17	60076.87
568.34	60243.05
568.50	60154.11
568.66	60207.94
568.83	60285.18
568.99	60102.62
569.15	60374.12
569.32	60266.45
569.48	60313.26
569.64	60458.38
569.81	60285.18
569.97	60205.60
570.13	60353.05
570.30	60273.48
570.46	60247.73
570.62	60425.61
570.78	60247.73
570.95	60374.12
571.11	60526.25
571.27	60537.96
571.43	60395.18
571.60	60488.80
571.76	60350.71
571.92	60484.12
572.09	60540.30
572.25	60434.97
572.41	60432.63
572.57	60479.44
572.74	60645.62
572.90	60299.22
573.06	60505.19
573.22	60423.27
573.38	60617.53
573.55	60526.25
573.71	60795.42
573.87	60575.40
574.03	60362.42
574.20	60519.23
574.36	60582.43
574.52	60509.87
574.68	60465.40
574.84	60673.71
575.01	60683.07
575.17	60664.35
575.33	60626.90
575.49	60486.46
575.65	60622.22
575.82	60535.62
575.98	60694.77
576.14	60769.67
576.30	60589.45
576.46	60704.13
576.62	60650.30
576.79	60662.00
576.95	60425.61
577.11	60647.96
577.27	60612.85
577.43	60643.28
577.59	60767.33
577.75	60697.11
577.92	60596.47
578.08	60917.12
578.24	60659.66
578.40	60774.35
578.56	60657.32
578.72	60776.69
578.88	60917.12
579.04	60774.35
579.21	60718.18
579.37	60776.69
579.53	60729.88
579.69	60687.75
579.85	60692.43
580.01	60589.45
580.17	60516.89
580.33	60821.16
580.49	60807.12
580.65	60928.83
580.82	60917.12
580.98	60800.10
581.14	60662.00
581.30	60924.14
581.46	60741.58
581.62	60804.78
581.78	60687.75
581.94	60933.51
582.10	60624.56
582.26	60849.25
582.42	60669.03
582.58	60685.41
582.74	60781.37
582.90	60764.99
583.06	60678.39
583.22	60816.48
583.38	60956.91
583.54	60659.66
583.70	60825.84
583.86	60942.87
584.02	60795.42
584.18	60832.86
584.34	60786.05
584.50	60879.67
584.66	60877.33
584.82	60645.62
584.98	60961.59
585.14	61132.45
585.30	60603.49
585.46	60900.74
585.62	60860.95
585.78	60968.61
585.94	60750.94
586.10	60879.67
586.26	60760.31
586.42	60853.93
586.58	60755.63
586.74	60926.49
586.90	61008.40
587.06	60867.97
587.22	61006.06
587.38	60935.85
587.54	61010.74
587.70	61113.73
587.86	60790.73
588.02	60938.19
588.18	61172.24
588.34	60797.76
588.49	60963.93
