SpectraSuite Data File
++++++++++++++++++++++++++++++++++++
Date: Fri Oct 25 11:25:30 EDT 2013
User: price-jones
Dark Spectrum Present: No
Reference Spectrum Present: No
Number of Sampled Component Spectra: 1
Spectrometers: USB2+H05261
Integration Time (usec): 100000 (USB2+H05261)
Spectra Averaged: 1 (USB2+H05261)
Boxcar Smoothing: 0 (USB2+H05261)
Correct for Electrical Dark: No (USB2+H05261)
Strobe/Lamp Enabled: No (USB2+H05261)
Correct for Detector Non-linearity: No (USB2+H05261)
Correct for Stray Light: No (USB2+H05261)
Number of Pixels in Processed Spectrum: 2048
>>>>>Begin Processed Spectral Data<<<<<
365.73	248.10
365.92	248.10
366.12	248.10
366.32	142.77
366.52	161.50
366.72	175.54
366.91	105.32
367.11	149.79
367.31	128.73
367.51	154.48
367.70	119.37
367.90	149.79
368.10	191.92
368.30	170.86
368.49	124.05
368.69	135.75
368.89	196.60
369.09	84.26
369.28	194.26
369.48	152.13
369.68	140.43
369.87	215.33
370.07	166.18
370.27	191.92
370.47	330.02
370.66	571.09
370.86	636.63
371.06	662.37
371.25	681.10
371.45	690.46
371.65	711.52
371.84	748.97
372.04	636.63
372.24	638.97
372.44	674.07
372.63	744.29
372.83	744.29
373.03	634.29
373.22	702.16
373.42	784.08
373.62	816.85
373.81	854.30
374.01	786.42
374.21	837.91
374.40	870.68
374.60	826.21
374.79	861.32
374.99	779.40
375.19	828.55
375.38	746.63
375.58	877.70
375.78	926.85
375.97	835.57
376.17	849.61
376.37	868.34
376.56	851.96
376.76	866.00
376.95	877.70
377.15	903.45
377.35	915.15
377.54	983.02
377.74	889.40
377.93	924.51
378.13	908.13
378.33	945.58
378.52	915.15
378.72	943.24
378.91	924.51
379.11	987.71
379.31	954.94
379.50	1001.75
379.70	896.43
379.89	940.90
380.09	983.02
380.28	959.62
380.48	971.32
380.68	1088.35
380.87	1008.77
381.07	1034.52
381.26	1025.15
381.46	992.39
381.65	1102.39
381.85	945.58
382.04	1041.54
382.24	987.71
382.43	1004.09
382.63	1062.60
382.83	1097.71
383.02	1137.50
383.22	1132.82
383.41	1210.06
383.61	1100.05
383.80	1165.59
384.00	1062.60
384.19	1048.56
384.39	1090.69
384.58	1130.48
384.78	1109.41
384.97	1151.54
385.17	1071.97
385.36	1184.31
385.56	1076.65
385.75	1081.33
385.95	1177.29
386.14	1142.18
386.34	1240.48
386.53	1153.88
386.72	1181.97
386.92	1226.44
387.11	1245.16
387.31	1249.85
387.50	1156.22
387.70	1228.78
387.89	1200.69
388.09	1338.79
388.28	1315.38
388.48	1289.64
388.67	1228.78
388.86	1320.06
389.06	1277.93
389.25	1348.15
389.45	1308.36
389.64	1219.42
389.84	1345.81
390.03	1303.68
390.22	1301.34
390.42	1303.68
390.61	1371.55
390.81	1341.13
391.00	1282.61
391.19	1404.32
391.39	1380.92
391.58	1369.21
391.78	1462.83
391.97	1526.03
392.16	1514.33
392.36	1490.92
392.55	1514.33
392.75	1474.54
392.94	1591.56
393.13	1603.27
393.33	1474.54
393.52	1519.01
393.71	1577.52
393.91	1561.14
394.10	1537.73
394.29	1540.07
394.49	1605.61
394.68	1589.22
394.88	1582.20
395.07	1650.08
395.26	1664.12
395.46	1678.16
395.65	1760.08
395.84	1636.03
396.04	1717.95
396.23	1743.70
396.42	1764.76
396.62	1816.26
396.81	1757.74
397.00	1727.32
397.19	1743.70
397.39	1790.51
397.58	1870.09
397.77	1757.74
397.97	1874.77
398.16	1879.45
398.35	1956.69
398.55	1846.68
398.74	1820.94
398.93	1973.07
399.12	1811.57
399.32	1844.34
399.51	1844.34
399.70	1966.05
399.90	1954.35
400.09	1996.48
400.28	1923.92
400.47	2010.52
400.67	2064.35
400.86	2024.56
401.05	2010.52
401.24	2090.10
401.44	2141.59
401.63	2181.38
401.82	2080.74
402.01	2115.84
402.21	2169.68
402.40	2104.14
402.59	2228.19
402.78	2237.55
402.97	2211.81
403.17	2349.90
403.36	2286.70
403.55	2239.89
403.74	2321.81
403.93	2333.51
404.13	2338.20
404.32	2361.60
404.51	2319.47
404.70	2434.16
404.89	2291.38
405.09	2523.10
405.28	2504.37
405.47	2415.43
405.66	2476.29
405.85	2464.58
406.05	2478.63
406.24	2567.57
406.43	2579.27
406.62	2626.08
406.81	2609.70
407.00	2581.61
407.20	2532.46
407.39	2637.78
407.58	2715.02
407.77	2670.55
407.96	2867.16
408.15	2815.66
408.34	2747.79
408.54	2750.13
408.73	2686.94
408.92	2759.49
409.11	2864.82
409.30	2738.43
409.49	2855.45
409.68	2864.82
409.87	2906.95
410.07	2951.42
410.26	2925.67
410.45	2986.52
410.64	3021.63
410.83	3159.72
411.02	3173.77
411.21	3178.45
411.40	3040.36
411.59	3194.83
411.78	3040.36
411.98	3030.99
412.17	3258.03
412.36	3325.90
412.55	3236.96
412.74	3435.91
412.93	3452.29
413.12	3389.10
413.31	3508.46
413.50	3412.50
413.69	3538.89
413.88	3562.30
414.07	3604.42
414.26	3578.68
414.45	3688.68
414.64	3754.22
414.83	3721.45
415.02	3829.12
415.22	3836.14
415.41	3740.18
415.60	3777.62
415.79	3836.14
415.98	3761.24
416.17	3920.40
416.36	3962.53
416.55	3927.42
416.74	4058.49
416.93	4016.36
417.12	4112.32
417.31	4156.79
417.50	4152.11
417.69	4180.20
417.88	4259.78
418.07	4161.47
418.26	4224.67
418.45	4397.87
418.64	4437.66
418.83	4306.59
419.02	4344.03
419.21	4477.44
419.39	4580.43
419.58	4451.70
419.77	4344.03
419.96	4454.04
420.15	4517.23
420.34	4542.98
420.53	4566.39
420.72	4697.46
420.91	4718.52
421.10	4692.77
421.29	4683.41
421.48	4699.80
421.67	4713.84
421.86	4713.84
422.05	4657.67
422.24	4830.87
422.43	4814.48
422.61	4851.93
422.80	4816.82
422.99	4873.00
423.18	4887.04
423.37	4968.96
423.56	4947.89
423.75	4924.49
423.94	4816.82
424.13	4557.02
424.32	4615.54
424.50	4971.30
424.69	4980.66
424.88	4975.98
425.07	5036.83
425.26	4952.57
425.45	4957.25
425.64	4835.55
425.83	4896.40
426.01	4929.17
426.20	5008.75
426.39	4931.51
426.58	5006.41
426.77	4950.23
426.96	5050.88
427.15	5116.41
427.33	5057.90
427.52	5214.71
427.71	5277.91
427.90	5093.01
428.09	5277.91
428.28	5284.93
428.46	5397.28
428.65	5336.42
428.84	5504.94
429.03	5469.83
429.22	5212.37
429.40	5411.32
429.59	5523.66
429.78	5294.29
429.97	5240.46
430.16	5474.51
430.34	5551.75
430.53	5598.56
430.72	5579.84
430.91	5654.73
431.10	5621.97
431.28	5797.51
431.47	5799.85
431.66	5849.00
431.85	5919.21
432.03	5921.56
432.22	5947.30
432.41	5851.34
432.60	5912.19
432.79	5832.62
432.97	5900.49
433.16	5930.92
433.35	5872.40
433.54	6214.12
433.72	6085.39
433.91	6104.12
434.10	5970.71
434.28	6094.76
434.47	6050.28
434.66	6267.95
434.85	6324.13
435.03	6279.66
435.22	6366.26
435.41	6326.47
435.59	6242.21
435.78	6324.13
435.97	6502.01
436.16	6443.49
436.34	6176.67
436.53	6403.71
436.72	6597.97
436.90	6462.22
437.09	6677.55
437.28	6506.69
437.46	6443.49
437.65	6541.80
437.84	6682.23
438.02	6698.61
438.21	6752.45
438.40	6717.34
438.58	6972.46
438.77	6956.07
438.96	7002.88
439.14	7136.29
439.33	7138.63
439.52	7145.66
439.70	7077.78
439.89	7265.02
440.08	7311.83
440.26	7274.38
440.45	7180.76
440.63	7398.43
440.82	7712.07
441.01	7433.54
441.19	7644.19
441.38	7751.85
441.57	7639.51
441.75	7637.17
441.94	7899.31
442.12	7903.99
442.31	7896.97
442.50	8030.38
442.68	7901.65
442.87	7976.55
443.05	8107.62
443.24	8299.54
443.43	7990.59
443.61	7957.82
443.80	8334.65
443.98	7899.31
444.17	7742.49
444.35	8063.15
444.54	8397.84
444.73	8154.43
444.91	8294.86
445.10	8276.13
445.28	8348.69
445.47	8250.39
445.65	8166.13
445.84	8271.45
446.02	8320.60
446.21	8400.18
446.39	8196.56
446.58	8456.36
446.77	8348.69
446.95	8149.75
447.14	8334.65
447.32	8458.70
447.51	8503.17
447.69	8456.36
447.88	8524.23
448.06	8287.84
448.25	8493.80
448.43	8549.98
448.62	8585.08
448.80	8430.61
448.99	8540.61
449.17	8510.19
449.36	8610.83
449.54	8800.41
449.73	8807.44
449.91	8828.50
450.10	8798.07
450.28	8915.10
450.46	9006.38
450.65	9004.04
450.83	8896.38
451.02	9057.87
451.20	9088.30
451.39	9301.29
451.57	9071.92
451.76	8795.73
451.94	9121.07
452.13	9327.03
452.31	9224.05
452.49	9137.45
452.68	9160.86
452.86	9245.12
453.05	9446.40
453.23	9259.16
453.42	9329.38
453.60	9423.00
453.78	9500.23
453.97	9352.78
454.15	9233.41
454.34	9242.78
454.52	9455.76
454.70	9727.27
454.89	9607.90
455.07	9619.60
455.26	9891.10
455.44	9909.83
455.62	9982.38
455.81	9902.81
455.99	10026.86
456.17	10085.37
456.36	10040.90
456.54	10057.28
456.73	10178.99
456.91	10274.95
457.09	10076.01
457.28	10459.85
457.46	10157.92
457.64	10576.88
457.83	10373.25
458.01	10246.87
458.19	10574.54
458.38	10293.68
458.56	10745.40
458.74	10686.89
458.93	10576.88
459.11	10714.97
459.29	10691.57
459.48	10604.97
459.66	10750.08
459.84	10810.93
460.03	10785.19
460.21	11012.22
460.39	11005.20
460.57	11028.60
460.76	11061.37
460.94	11356.28
461.12	11257.98
461.31	11005.20
461.49	11089.46
461.67	11140.95
461.85	11234.57
462.04	11131.59
462.22	11929.71
462.40	11569.27
462.59	11281.38
462.77	11180.74
462.95	11459.26
463.13	11412.45
463.32	11522.46
463.50	11534.16
463.68	11775.24
463.86	11819.71
464.05	11377.34
464.23	11726.08
464.41	11927.37
464.59	11571.61
464.78	12297.17
464.96	11894.60
465.14	11726.08
465.32	11786.94
465.50	12095.89
465.69	12042.06
465.87	12208.23
466.05	12292.49
466.23	12112.27
466.41	12149.72
466.60	12425.90
466.78	12142.70
466.96	12348.67
467.14	12201.21
467.32	12444.63
467.51	12273.77
467.69	12393.14
467.87	12353.35
468.05	12498.46
468.23	12343.99
468.41	12503.14
468.60	12390.80
468.78	12531.23
468.96	12369.73
469.14	12479.74
469.32	12875.29
469.50	12524.21
469.69	12711.45
469.87	12917.42
470.05	13130.41
470.23	12917.42
470.41	13165.51
470.59	13214.66
470.77	12879.97
470.95	13217.01
471.14	13441.70
471.32	13219.35
471.50	13589.15
471.68	13376.16
471.86	13418.29
472.04	13661.71
472.22	14019.81
472.40	13554.04
472.58	13891.08
472.77	13900.44
472.95	13853.63
473.13	14499.62
473.31	13900.44
473.49	13884.06
473.67	13982.36
473.85	14242.16
474.03	14455.15
474.21	14293.65
474.39	14579.20
474.57	14544.09
474.75	14743.03
474.93	14747.72
475.12	14689.20
475.30	15218.16
475.48	14822.61
475.66	14909.21
475.84	15234.55
476.02	15000.49
476.20	15122.20
476.38	15648.82
476.56	15737.76
476.74	15880.53
476.92	15719.04
477.10	15784.57
477.28	15927.35
477.46	16004.58
477.64	16201.19
477.82	16283.11
478.00	16554.61
478.18	16578.01
478.36	16783.98
478.54	17408.90
478.72	16973.56
478.90	17268.47
479.08	17385.50
479.26	17542.32
479.44	17605.51
479.62	17713.17
479.80	17687.43
479.98	18108.72
480.16	18583.85
480.34	18279.58
480.52	18356.82
480.70	18628.32
480.88	18237.45
481.06	18738.33
481.24	18611.94
481.41	19089.41
481.59	19117.50
481.77	19225.16
481.95	19513.05
482.13	19484.96
482.31	19686.25
482.49	19915.62
482.67	20210.53
482.85	20276.06
483.03	20121.59
483.21	20542.88
483.39	20655.23
483.57	20603.74
483.74	21298.88
483.92	21158.44
484.10	20823.75
484.28	21507.18
484.46	21673.36
484.64	22251.47
484.82	21722.51
485.00	22066.57
485.18	22775.75
485.35	22780.43
485.53	22515.95
485.71	23168.96
485.89	23208.75
486.07	22916.19
486.25	23164.28
486.43	23543.45
486.61	23667.50
486.78	23875.80
486.96	24016.24
487.14	24411.79
487.32	24212.84
487.50	24706.70
487.68	24861.17
487.85	25151.40
488.03	25078.84
488.21	25610.14
488.39	25729.51
488.57	25736.53
488.75	25919.09
488.92	26230.38
489.10	26515.93
489.28	26546.36
489.46	27051.91
489.64	27119.79
489.81	27351.50
489.99	27517.68
490.17	27527.04
490.35	28016.21
490.53	27784.50
490.70	28041.96
490.88	28219.84
491.06	28547.51
491.24	28577.94
491.41	28879.87
491.59	29046.05
491.77	29277.76
491.95	29371.38
492.13	29511.81
492.30	29874.60
492.48	29593.73
492.66	29734.17
492.84	30368.45
493.01	30555.69
493.19	30171.85
493.37	30871.67
493.54	30806.13
493.72	31269.56
493.90	31222.75
494.08	31379.56
494.25	31744.69
494.43	31798.52
494.61	32404.72
494.79	31995.12
494.96	32332.16
495.14	32456.21
495.32	32931.34
495.49	32893.89
495.67	33043.68
495.85	33476.68
496.02	33766.91
496.20	33563.28
496.38	33647.54
496.55	33748.18
496.73	34108.63
496.91	34047.77
497.09	34380.13
497.26	35133.78
497.44	34778.02
497.62	35131.44
497.79	35459.12
497.97	35178.25
498.14	36182.34
498.32	35732.96
498.50	35557.42
498.67	36060.63
498.85	36067.66
499.03	36285.33
499.20	36278.30
499.38	36306.39
499.56	36816.63
499.73	37003.87
499.91	36821.31
500.08	37471.98
500.26	37221.54
500.44	37310.48
500.61	37603.05
500.79	37116.22
500.97	37968.17
501.14	38155.41
501.32	38183.50
501.49	38389.47
501.67	38628.20
501.84	38529.90
502.02	38349.68
502.20	38871.62
502.37	38932.47
502.55	38597.77
502.72	39257.81
502.90	39468.45
503.07	39828.90
503.25	39377.17
503.43	39154.82
503.60	39473.13
503.78	39622.93
503.95	39889.75
504.13	40194.02
504.30	40177.64
504.48	40046.57
504.65	40512.33
504.83	40514.67
505.01	41141.94
505.18	40509.99
505.36	41268.33
505.53	41081.08
505.71	41420.46
505.88	41455.57
506.06	41146.62
506.23	42085.17
506.41	41083.42
506.58	41675.58
506.76	41902.61
506.93	41771.54
507.11	42274.76
507.28	42281.78
507.46	42515.83
507.63	42794.36
507.81	43044.79
507.98	42696.05
508.16	43283.53
508.33	43318.64
508.50	43035.43
508.68	43463.75
508.85	43585.46
509.03	43856.96
509.20	43606.52
509.38	43966.96
509.55	43737.59
509.73	43922.49
509.90	44282.94
510.08	44355.49
510.25	44215.06
510.42	44491.24
510.60	44896.16
510.77	44708.91
510.95	45226.17
511.12	44926.58
511.30	44699.55
511.47	45045.95
511.64	44992.12
511.82	45815.99
511.99	45366.60
512.17	45485.97
512.34	45724.71
512.51	45509.38
512.69	45830.03
512.86	45930.67
513.04	46593.04
513.21	46134.30
513.38	46747.52
513.56	46852.84
513.73	46665.60
513.90	46635.17
514.08	46267.71
514.25	47227.33
514.43	47416.91
514.60	46934.76
514.77	47199.24
514.95	47332.65
515.12	47519.90
515.29	47416.91
515.47	47538.62
515.64	47901.40
515.81	47250.74
515.99	48147.16
516.16	48336.74
516.33	48002.05
516.51	48418.66
516.68	48076.94
516.85	48282.91
517.03	48596.54
517.20	48547.39
517.37	48376.53
517.54	48285.25
517.72	48692.50
517.89	48509.94
518.06	48898.47
518.24	48961.67
518.41	49237.85
518.58	49006.14
518.75	48966.35
518.93	49258.91
519.10	49406.37
519.27	49600.63
519.45	49654.47
519.62	49659.15
519.79	49586.59
519.96	49720.00
520.14	50012.57
520.31	49890.86
520.48	50003.20
520.65	50174.06
520.83	50560.25
521.00	50475.99
521.17	50239.60
521.34	50555.57
521.52	50553.23
521.69	50515.78
521.86	50759.20
522.03	50576.64
522.20	50808.35
522.38	51222.62
522.55	51159.43
522.72	51337.31
522.89	51068.15
523.07	51442.63
523.24	51231.99
523.41	51559.66
523.58	51210.92
523.75	51730.52
523.92	51306.88
524.10	51667.33
524.27	51842.87
524.44	51779.67
524.61	51920.10
524.78	52058.20
524.96	51985.64
525.13	51966.91
525.30	52037.13
525.47	52306.29
525.64	52172.88
525.81	52538.01
525.98	52339.06
526.16	52741.63
526.33	52399.91
526.50	52821.21
526.67	52825.89
526.84	52795.46
527.01	52776.74
527.18	52687.80
527.36	52601.20
527.53	52914.83
527.70	53317.40
527.87	53066.97
528.04	53034.20
528.21	53382.94
528.38	53237.83
528.55	53546.78
528.72	52987.39
528.89	53413.37
529.07	53183.99
529.24	53315.06
529.41	53771.47
529.58	53282.30
529.75	53233.14
529.92	53684.87
530.09	53703.59
530.26	53804.24
530.43	53815.94
530.60	53165.27
530.77	53656.78
530.94	54078.08
531.11	53609.97
531.28	54094.46
531.46	53993.82
531.63	53956.37
531.80	53829.98
531.97	54209.15
532.14	54279.36
532.31	54255.96
532.48	54274.68
532.65	54415.11
532.82	54026.59
532.99	54323.83
533.16	54466.61
533.33	54567.25
533.50	54639.81
533.67	54454.90
533.84	54611.72
534.01	54588.31
534.18	54684.28
534.35	55077.49
534.52	54908.97
534.69	54923.01
534.86	55084.51
535.03	55002.59
535.20	54913.65
535.37	55049.40
535.54	54993.23
535.71	54885.56
535.88	55505.80
536.05	55449.63
536.22	55440.27
536.38	55133.66
536.55	55566.66
536.72	55292.82
536.89	55356.01
537.06	55599.43
537.23	55400.48
537.40	55487.08
537.57	55517.51
537.74	55569.00
537.91	55660.28
538.08	55604.11
538.25	55681.34
538.42	55515.17
538.59	55758.58
538.75	55728.16
538.92	55709.43
539.09	56165.84
539.26	55906.04
539.43	55924.76
539.60	55835.82
539.77	56301.59
539.94	56278.18
540.11	55934.12
540.28	56109.66
540.44	56327.33
540.61	56130.73
540.78	55910.72
540.95	56259.46
541.12	56266.48
541.29	56303.93
541.46	56493.51
541.62	56540.32
541.79	56498.19
541.96	56058.17
542.13	56371.80
542.30	56406.91
542.47	56587.13
542.63	56655.01
542.80	56683.09
542.97	56875.02
543.14	56954.60
543.31	56999.07
543.48	57001.41
543.64	57130.14
543.81	57186.31
543.98	57137.16
544.15	56970.98
544.32	57350.15
544.48	57441.43
544.65	56980.34
544.82	57282.27
544.99	57174.61
545.16	57270.57
545.32	57333.76
545.49	57530.37
545.66	57506.96
545.83	57399.30
546.00	57673.14
546.16	57183.97
546.33	57532.71
546.50	57130.14
546.67	57521.01
546.83	57366.53
547.00	57553.77
547.17	57467.17
547.34	57602.92
547.50	57743.36
547.67	57867.40
547.84	57619.31
548.00	58141.25
548.17	57965.71
548.34	57848.68
548.51	58216.14
548.67	58232.53
548.84	57907.19
549.01	57738.68
549.18	57900.17
549.34	58096.78
549.51	58185.72
549.68	58269.98
549.84	58040.60
550.01	58305.09
550.18	58082.73
550.34	58342.53
550.51	58211.46
550.68	58281.68
550.84	58071.03
551.01	58354.24
551.18	58419.77
551.34	58389.34
551.51	58508.71
551.68	58365.94
551.84	58511.05
552.01	58073.37
552.18	58569.57
552.34	58450.20
552.51	58705.32
552.68	58452.54
552.84	58508.71
553.01	58841.07
553.18	58635.10
553.34	58740.42
553.51	58656.17
553.67	58604.67
553.84	58724.04
554.01	58843.41
554.17	58862.13
554.34	58824.68
554.51	58899.58
554.67	58925.33
554.84	58834.05
555.00	58766.17
555.17	58951.07
555.33	58915.96
555.50	58585.95
555.67	58857.45
555.83	58686.59
556.00	58768.51
556.16	59035.33
556.33	59016.61
556.50	59185.13
556.66	59096.19
556.83	58946.39
556.99	59203.85
557.16	59561.95
557.32	59505.78
557.49	59449.61
557.65	58988.52
557.82	59318.54
557.98	59077.46
558.15	59231.94
558.32	59229.60
558.48	59023.63
558.65	59430.88
558.81	59384.07
558.98	59416.84
559.14	59463.65
559.31	59435.56
559.47	59435.56
559.64	59625.15
559.80	59341.94
559.97	59538.55
560.13	59344.28
560.30	59634.51
560.46	59620.47
560.63	59686.00
560.79	59547.91
560.96	59840.48
561.12	59678.98
561.29	59501.10
561.45	59721.11
561.61	59791.33
561.78	59625.15
561.94	59372.37
562.11	59707.07
562.27	59730.47
562.44	59770.26
562.60	60062.83
562.77	59788.98
562.93	59622.81
563.10	59859.20
563.26	59723.45
563.42	60116.66
563.59	59735.15
563.75	59625.15
563.92	60193.90
564.08	59784.30
564.24	59817.07
564.41	60011.34
564.57	60053.47
564.74	59917.71
564.90	60013.68
565.07	59896.65
565.23	60048.78
565.39	59934.10
565.56	60154.11
565.72	59959.84
565.88	60116.66
566.05	59805.37
566.21	60034.74
566.38	59915.37
566.54	60142.41
566.70	60142.41
566.87	60205.60
567.03	60025.38
567.19	60350.71
567.36	60140.07
567.52	60266.45
567.68	60310.92
567.85	60214.96
568.01	60135.38
568.17	60186.88
568.34	60203.26
568.50	60303.90
568.66	60285.18
568.83	60406.89
568.99	60069.85
569.15	60348.37
569.32	60280.50
569.48	60130.70
569.64	60460.72
569.81	60446.68
569.97	60257.09
570.13	60310.92
570.30	60109.64
570.46	60231.35
570.62	60233.69
570.78	60376.46
570.95	60238.37
571.11	60479.44
571.27	60296.88
571.43	60301.56
571.60	60568.38
571.76	60280.50
571.92	60278.16
572.09	60341.35
572.25	60561.36
572.41	60126.02
572.57	60399.86
572.74	60652.64
572.90	60488.80
573.06	60364.76
573.22	60463.06
573.38	60495.83
573.55	60514.55
573.71	60472.42
573.87	60519.23
574.03	60523.91
574.20	60516.89
574.36	60388.16
574.52	60685.41
574.68	60491.15
574.84	60521.57
575.01	60631.58
575.17	60711.16
575.33	60526.25
575.49	60591.79
575.65	60554.34
575.82	60584.77
575.98	60526.25
576.14	60858.61
576.30	60795.42
576.46	60643.28
576.62	60554.34
576.79	60587.11
576.95	60472.42
577.11	60694.77
577.27	60556.68
577.43	60561.36
577.59	60580.09
577.75	60568.38
577.92	60441.99
578.08	60498.17
578.24	60669.03
578.40	60954.57
578.56	60963.93
578.72	60727.54
578.88	60889.04
579.04	60945.21
579.21	60825.84
579.37	60945.21
579.53	60683.07
579.69	60596.47
579.85	60708.82
580.01	60802.44
580.17	60570.72
580.33	60912.44
580.49	60783.71
580.65	60514.55
580.82	60584.77
580.98	60680.73
581.14	60680.73
581.30	60912.44
581.46	60793.07
581.62	60814.14
581.78	60767.33
581.94	60865.63
582.10	60591.79
582.26	60842.23
582.42	60633.92
582.58	60678.39
582.74	60652.64
582.90	60933.51
583.06	60706.47
583.22	60786.05
583.38	60924.14
583.54	60891.38
583.70	60755.63
583.86	60818.82
584.02	60788.39
584.18	60940.53
584.34	60692.43
584.50	60793.07
584.66	60626.90
584.82	60608.17
584.98	61050.53
585.14	61020.11
585.30	60608.17
585.46	60886.70
585.62	60816.48
585.78	60959.25
585.94	60650.30
586.10	60907.76
586.26	61059.90
586.42	60659.66
586.58	61059.90
586.74	60811.80
586.90	60797.76
587.06	60872.65
587.22	60970.96
587.38	61078.62
587.54	60959.25
587.70	60938.19
587.86	61073.94
588.02	60959.25
588.18	61043.51
588.34	60811.80
588.49	60750.94
