SpectraSuite Data File
++++++++++++++++++++++++++++++++++++
Date: Fri Oct 25 11:26:14 EDT 2013
User: price-jones
Dark Spectrum Present: No
Reference Spectrum Present: No
Number of Sampled Component Spectra: 1
Spectrometers: USB2+H05261
Integration Time (usec): 100000 (USB2+H05261)
Spectra Averaged: 1 (USB2+H05261)
Boxcar Smoothing: 0 (USB2+H05261)
Correct for Electrical Dark: No (USB2+H05261)
Strobe/Lamp Enabled: No (USB2+H05261)
Correct for Detector Non-linearity: No (USB2+H05261)
Correct for Stray Light: No (USB2+H05261)
Number of Pixels in Processed Spectrum: 2048
>>>>>Begin Processed Spectral Data<<<<<
365.73	262.14
365.92	262.14
366.12	262.14
366.32	170.86
366.52	117.03
366.72	156.82
366.91	166.18
367.11	98.30
367.31	117.03
367.51	161.50
367.70	182.56
367.90	159.16
368.10	182.56
368.30	142.77
368.49	114.69
368.69	131.07
368.89	126.39
369.09	180.22
369.28	163.84
369.48	177.88
369.68	229.37
369.87	152.13
370.07	210.65
370.27	243.42
370.47	344.06
370.66	613.22
370.86	641.31
371.06	751.31
371.25	603.86
371.45	629.60
371.65	606.20
371.84	669.39
372.04	720.88
372.24	755.99
372.44	692.80
372.63	737.27
372.83	636.63
373.03	781.74
373.22	760.67
373.42	746.63
373.62	779.40
373.81	781.74
374.01	788.76
374.21	858.98
374.40	835.57
374.60	896.43
374.79	858.98
374.99	755.99
375.19	767.70
375.38	905.79
375.58	802.80
375.78	833.23
375.97	917.49
376.17	903.45
376.37	870.68
376.56	884.72
376.76	866.00
376.95	875.36
377.15	861.32
377.35	912.81
377.54	891.74
377.74	819.19
377.93	905.79
378.13	908.13
378.33	851.96
378.52	976.00
378.72	997.07
378.91	1020.47
379.11	940.90
379.31	973.66
379.50	933.87
379.70	1011.11
379.89	980.68
380.09	1001.75
380.28	1043.88
380.48	961.96
380.68	880.04
380.87	959.62
381.07	992.39
381.26	1060.26
381.46	987.71
381.65	992.39
381.85	1060.26
382.04	1069.62
382.24	1102.39
382.43	1006.43
382.63	1064.94
382.83	1114.10
383.02	1067.28
383.22	1118.78
383.41	1057.92
383.61	1097.71
383.80	1146.86
384.00	1132.82
384.19	1128.14
384.39	1069.62
384.58	1022.81
384.78	1097.71
384.97	1153.88
385.17	1226.44
385.36	1191.33
385.56	1125.80
385.75	1177.29
385.95	1224.10
386.14	1198.35
386.34	1142.18
386.53	1160.91
386.72	1114.10
386.92	1289.64
387.11	1181.97
387.31	1233.46
387.50	1212.40
387.70	1345.81
387.89	1249.85
388.09	1289.64
388.28	1341.13
388.48	1320.06
388.67	1235.80
388.86	1289.64
389.06	1294.32
389.25	1378.58
389.45	1352.83
389.64	1322.40
389.84	1313.04
390.03	1301.34
390.22	1385.60
390.42	1425.39
390.61	1418.36
390.81	1345.81
391.00	1394.96
391.19	1519.01
391.39	1483.90
391.58	1554.12
391.78	1544.75
391.97	1465.18
392.16	1479.22
392.36	1483.90
392.55	1547.09
392.75	1493.26
392.94	1500.28
393.13	1504.96
393.33	1455.81
393.52	1526.03
393.71	1547.09
393.91	1565.82
394.10	1582.20
394.29	1528.37
394.49	1568.16
394.68	1633.69
394.88	1612.63
395.07	1689.87
395.26	1722.63
395.46	1591.56
395.65	1689.87
395.84	1647.74
396.04	1820.94
396.23	1776.47
396.42	1610.29
396.62	1720.29
396.81	1746.04
397.00	1769.44
397.19	1720.29
397.39	1832.64
397.58	1867.75
397.77	1743.70
397.97	1825.62
398.16	1977.75
398.35	1874.77
398.55	1816.26
398.74	1816.26
398.93	1905.20
399.12	1956.69
399.32	1797.53
399.51	1949.67
399.70	1959.03
399.90	1987.11
400.09	2026.90
400.28	2179.04
400.47	2026.90
400.67	2052.65
400.86	2071.37
401.05	2101.80
401.24	2165.00
401.44	2118.18
401.63	2085.42
401.82	2115.84
402.01	2160.31
402.21	2193.08
402.40	2265.64
402.59	2251.60
402.78	2148.61
402.97	2193.08
403.17	2211.81
403.36	2235.21
403.55	2197.76
403.74	2275.00
403.93	2347.56
404.13	2356.92
404.32	2377.98
404.51	2303.09
404.70	2342.88
404.89	2403.73
405.09	2420.11
405.28	2544.16
405.47	2483.31
405.66	2506.71
405.85	2471.61
406.05	2462.24
406.24	2546.50
406.43	2590.97
406.62	2719.70
406.81	2509.05
407.00	2572.25
407.20	2485.65
407.39	2590.97
407.58	2602.68
407.77	2832.05
407.96	2801.62
408.15	2743.11
408.34	2827.37
408.54	2871.84
408.73	2717.36
408.92	2775.88
409.11	2782.90
409.30	2911.63
409.49	2918.65
409.68	2878.86
409.87	2843.75
410.07	3101.21
410.26	2946.73
410.45	2984.18
410.64	3101.21
410.83	3026.31
411.02	3129.30
411.21	3028.65
411.40	3115.25
411.59	3152.70
411.78	3136.32
411.98	3232.28
412.17	3241.64
412.36	3201.85
412.55	3269.73
412.74	3442.93
412.93	3335.26
413.12	3316.54
413.31	3478.04
413.50	3517.83
413.69	3447.61
413.88	3536.55
414.07	3592.72
414.26	3662.94
414.45	3662.94
414.64	3585.70
414.83	3662.94
415.02	3791.67
415.22	3747.20
415.41	3896.99
415.60	3971.89
415.79	3939.12
415.98	3908.69
416.17	3955.51
416.36	3999.98
416.55	3873.59
416.74	4025.72
416.93	4074.87
417.12	4004.66
417.31	4161.47
417.50	4166.15
417.69	4229.35
417.88	4154.45
418.07	4072.53
418.26	4320.63
418.45	4287.86
418.64	4344.03
418.83	4283.18
419.02	4325.31
419.21	4578.09
419.39	4447.02
419.58	4390.84
419.77	4491.49
419.96	4542.98
420.15	4444.68
420.34	4585.11
420.53	4624.90
420.72	4486.81
420.91	4571.07
421.10	4755.97
421.29	4805.12
421.48	4713.84
421.67	4840.23
421.86	4755.97
422.05	4748.95
422.24	4816.82
422.43	4875.34
422.61	4903.42
422.80	4809.80
422.99	4854.27
423.18	4873.00
423.37	5078.96
423.56	4772.35
423.75	4870.65
423.94	4931.51
424.13	4624.90
424.32	4814.48
424.50	4952.57
424.69	5123.43
424.88	5071.94
425.07	4887.04
425.26	4903.42
425.45	4938.53
425.64	5001.72
425.83	4917.47
426.01	5128.11
426.20	5132.79
426.39	4968.96
426.58	5078.96
426.77	5013.43
426.96	5071.94
427.15	5041.51
427.33	5048.54
427.52	4990.02
427.71	5212.37
427.90	5125.77
428.09	5289.61
428.28	5313.02
428.46	5371.53
428.65	5322.38
428.84	5493.24
429.03	5556.43
429.22	5432.38
429.40	5430.04
429.59	5390.25
429.78	5366.85
429.97	5233.44
430.16	5434.72
430.34	5617.29
430.53	5603.24
430.72	5577.50
430.91	5643.03
431.10	5488.56
431.28	5650.05
431.47	5743.67
431.66	5767.08
431.85	5783.46
432.03	6031.56
432.22	6024.54
432.41	5982.41
432.60	6038.58
432.79	5916.87
432.97	5966.03
433.16	5767.08
433.35	5804.53
433.54	5968.37
433.72	6125.18
433.91	6040.92
434.10	6157.95
434.28	5919.21
434.47	5977.73
434.66	6256.25
434.85	6251.57
435.03	6333.49
435.22	6338.17
435.41	6382.64
435.59	6265.61
435.78	6326.47
435.97	6541.80
436.16	6258.59
436.34	6413.07
436.53	6562.86
436.72	6661.16
436.90	6340.51
437.09	6626.06
437.28	6438.81
437.46	6431.79
437.65	6595.63
437.84	6949.05
438.02	6813.30
438.21	6787.55
438.40	6710.32
438.58	6839.05
438.77	6932.67
438.96	6801.60
439.14	7045.01
439.33	7077.78
439.52	7197.15
439.70	7096.50
439.89	7452.27
440.08	7435.88
440.26	7140.97
440.45	7267.36
440.63	7557.59
440.82	7470.99
441.01	7290.77
441.19	7531.84
441.38	7765.90
441.57	7716.75
441.75	7737.81
441.94	7903.99
442.12	7791.64
442.31	8116.98
442.50	7943.78
442.68	7754.19
442.87	8128.68
443.05	8039.74
443.24	8072.51
443.43	8154.43
443.61	8262.09
443.80	8355.71
443.98	8191.88
444.17	7798.66
444.35	8191.88
444.54	8344.01
444.73	8257.41
444.91	8397.84
445.10	8222.30
445.28	8489.12
445.47	8203.58
445.65	8304.22
445.84	8334.65
446.02	8449.33
446.21	8531.25
446.39	8411.89
446.58	8496.14
446.77	8449.33
446.95	8348.69
447.14	8472.74
447.32	8479.76
447.51	8360.39
447.69	8348.69
447.88	8517.21
448.06	8641.26
448.25	8533.59
448.43	8606.15
448.62	8547.64
448.80	8528.91
448.99	8517.21
449.17	8676.37
449.36	8622.53
449.54	8781.69
449.73	8945.53
449.91	8954.89
450.10	8835.52
450.28	9088.30
450.46	9137.45
450.65	8793.39
450.83	9069.58
451.02	8943.19
451.20	9202.99
451.39	8971.27
451.57	9181.92
451.76	8933.82
451.94	9050.85
452.13	9177.24
452.31	9081.28
452.49	9022.77
452.68	9301.29
452.86	9460.45
453.05	9191.28
453.23	9320.01
453.42	9235.75
453.60	9144.47
453.78	9530.66
453.97	9455.76
454.15	9369.16
454.34	9376.19
454.52	9710.88
454.70	9596.20
454.89	9570.45
455.07	9699.18
455.26	9760.03
455.44	9865.36
455.62	9919.19
455.81	9844.29
455.99	9870.04
456.17	9968.34
456.36	10024.51
456.54	10265.59
456.73	10052.60
456.91	10483.26
457.09	10246.87
457.28	10443.47
457.46	10396.66
457.64	10443.47
457.83	10373.25
458.01	10223.46
458.19	10757.10
458.38	10527.73
458.56	10672.84
458.74	10595.61
458.93	10565.18
459.11	10614.33
459.29	10668.16
459.48	10600.29
459.66	10705.61
459.84	10878.81
460.03	11077.76
460.21	10829.66
460.39	10920.94
460.57	10883.49
460.76	11059.03
460.94	11143.29
461.12	11019.24
461.31	10979.45
461.49	11059.03
461.67	11049.67
461.85	11328.19
462.04	11225.21
462.22	11758.85
462.40	11602.04
462.59	11468.62
462.77	11253.30
462.95	11494.37
463.13	11445.22
463.32	11653.53
463.50	11726.08
463.68	11747.15
463.86	11576.29
464.05	11506.07
464.23	11737.79
464.41	11754.17
464.59	11646.51
464.78	12226.96
464.96	12032.69
465.14	11784.60
465.32	11932.05
465.50	12013.97
465.69	11983.54
465.87	12159.08
466.05	12067.80
466.23	12056.10
466.41	12306.54
466.60	12435.27
466.78	12147.38
466.96	12184.83
467.14	12297.17
467.32	12341.64
467.51	12617.83
467.69	12259.73
467.87	12435.27
468.05	12542.93
468.23	12397.82
468.41	12355.69
468.60	12510.16
468.78	12475.06
468.96	12498.46
469.14	12723.15
469.32	12924.44
469.50	12784.01
469.69	12896.35
469.87	12915.08
470.05	12765.28
470.23	13205.30
470.41	12912.74
470.59	13315.31
470.77	13029.76
470.95	13411.27
471.14	13336.37
471.32	12954.87
471.50	13476.80
471.68	13378.50
471.86	13624.26
472.04	13685.11
472.22	13853.63
472.40	13516.59
472.58	13745.97
472.77	13898.10
472.95	14143.86
473.13	14569.83
473.31	14059.60
473.49	13872.36
473.67	14015.13
473.85	14207.05
474.03	14677.50
474.21	14520.68
474.39	14721.97
474.57	14560.47
474.75	14586.22
474.93	14881.13
475.12	14607.28
475.30	15171.35
475.48	14941.98
475.66	15225.18
475.84	15101.14
476.02	15407.75
476.20	15171.35
476.38	15815.00
476.56	15868.83
476.74	16023.31
476.92	15534.14
477.10	15763.51
477.28	15925.00
477.46	16217.57
477.64	16203.53
477.82	16496.10
478.00	16589.72
478.18	16559.29
478.36	16791.00
478.54	17029.74
478.72	17057.82
478.90	17118.68
479.08	17357.41
479.26	17614.87
479.44	17493.16
479.62	18017.44
479.80	18197.67
479.98	17947.23
480.16	18384.91
480.34	18075.96
480.52	18693.86
480.70	18331.08
480.88	18492.57
481.06	18686.84
481.24	18878.76
481.41	18810.89
481.59	19442.83
481.77	19690.93
481.95	19644.12
482.13	19625.39
482.31	19459.21
482.49	20327.55
482.67	20081.80
482.85	20027.96
483.03	20592.03
483.21	20379.04
483.39	20877.58
483.57	21083.55
483.74	20940.77
483.92	20870.56
484.10	21015.67
484.28	21694.43
484.46	21605.49
484.64	22361.48
484.82	21764.64
485.00	22230.41
485.18	22375.52
485.35	22876.40
485.53	22801.50
485.71	22829.59
485.89	23428.76
486.07	23232.16
486.25	23220.45
486.43	23405.36
486.61	23800.91
486.78	23536.43
486.96	24280.72
487.14	24472.64
487.32	24514.77
487.50	24308.80
487.68	24739.46
487.85	25247.36
488.03	25553.97
488.21	25776.32
488.39	25797.38
488.57	25678.02
488.75	26375.50
488.92	26305.28
489.10	26265.49
489.28	26448.05
489.46	26820.20
489.64	26632.96
489.81	27482.57
489.99	27974.08
490.17	27683.86
490.35	27740.03
490.53	28243.24
490.70	28538.15
490.88	27889.82
491.06	28739.44
491.24	28566.24
491.41	29186.48
491.59	28847.10
491.77	28943.06
491.95	29331.59
492.13	29677.99
492.30	29907.37
492.48	29553.94
492.66	30274.83
492.84	29986.94
493.01	30478.46
493.19	30260.79
493.37	30703.15
493.54	31028.48
493.72	31271.90
493.90	31414.67
494.08	31660.43
494.25	31824.26
494.43	31590.21
494.61	32133.21
494.79	32231.52
494.96	32048.96
495.14	32610.68
495.32	32765.16
495.49	32788.56
495.67	33050.70
495.85	33467.32
496.02	33617.11
496.20	33607.75
496.38	33722.44
496.55	33900.32
496.73	34630.57
496.91	34150.76
497.09	34836.53
497.26	34740.57
497.44	34572.05
497.62	35337.41
497.79	35576.14
497.97	35545.72
498.14	36009.14
498.32	35775.09
498.50	36343.84
498.67	36254.90
498.85	36231.49
499.03	36802.58
499.20	36559.17
499.38	37029.62
499.56	36818.97
499.73	36980.46
499.91	37317.50
500.08	37134.94
500.26	37034.30
500.44	37301.12
500.61	37837.10
500.79	36938.33
500.97	38192.86
501.14	38195.20
501.32	38347.34
501.49	38323.93
501.67	38506.49
501.84	38871.62
502.02	39000.35
502.20	38782.68
502.37	39189.93
502.55	39423.98
502.72	39124.40
502.90	39281.21
503.07	39133.76
503.25	39723.57
503.43	39501.22
503.60	39618.25
503.78	39892.09
503.95	40027.84
504.13	40208.06
504.30	40577.87
504.48	40488.93
504.65	40353.18
504.83	40793.20
505.01	41219.17
505.18	41027.25
505.36	41422.80
505.53	41034.27
505.71	41392.37
505.88	41092.79
506.06	41315.14
506.23	41916.65
506.41	41315.14
506.58	41972.83
506.76	41792.61
506.93	42335.61
507.11	41972.83
507.28	42237.31
507.46	42440.93
507.63	42740.52
507.81	42923.08
507.98	42366.04
508.16	42576.69
508.33	42904.36
508.50	43590.14
508.68	43459.07
508.85	43426.30
509.03	43597.16
509.20	43636.95
509.38	44027.82
509.55	44196.34
509.73	44509.97
509.90	44339.11
510.08	43936.54
510.25	44018.46
510.42	44509.97
510.60	45219.15
510.77	45036.59
510.95	45399.37
511.12	44839.98
511.30	45015.52
511.47	45200.43
511.64	45198.09
511.82	45579.59
511.99	45378.31
512.17	45867.48
512.34	45418.10
512.51	46078.13
512.69	46031.32
512.86	45933.01
513.04	46220.90
513.21	46291.12
513.38	46431.55
513.56	46782.63
513.73	46342.61
513.90	46768.58
514.08	46518.15
514.25	47260.10
514.43	47171.16
514.60	47192.22
514.77	47075.19
514.95	47477.77
515.12	47566.71
515.29	47269.46
515.47	47817.14
515.64	47999.71
515.81	47690.76
515.99	47817.14
516.16	48250.14
516.33	48322.70
516.51	48509.94
516.68	48114.39
516.85	48264.19
517.03	48411.64
517.20	48767.40
517.37	48435.05
517.54	48727.61
517.72	48507.60
517.89	48624.63
518.06	49106.78
518.24	48701.87
518.41	49389.98
518.58	49148.91
518.75	49319.77
518.93	49322.11
519.10	49492.97
519.27	49708.30
519.45	49322.11
519.62	49755.11
519.79	49893.20
519.96	49743.41
520.14	49970.44
520.31	49743.41
520.48	50211.51
520.65	50099.17
520.83	50600.04
521.00	50192.79
521.17	50237.26
521.34	50494.72
521.52	50756.86
521.69	50672.60
521.86	50878.57
522.03	51105.60
522.20	50897.29
522.38	51470.72
522.55	50941.76
522.72	50976.87
522.89	51150.07
523.07	51330.29
523.24	51480.08
523.41	51554.98
523.58	51243.69
523.75	51650.94
523.92	51679.03
524.10	51849.89
524.27	51711.80
524.44	51973.94
524.61	51800.74
524.78	52023.09
524.96	52238.42
525.13	52062.88
525.30	52313.31
525.47	52109.69
525.64	52371.83
525.81	52575.45
525.98	52484.17
526.16	52439.70
526.33	52802.49
526.50	52804.83
526.67	53085.69
526.84	52603.54
527.01	52992.07
527.18	52861.00
527.36	52699.50
527.53	53001.43
527.70	52942.92
527.87	53305.70
528.04	53090.37
528.21	53256.55
528.38	53396.98
528.55	53446.13
528.72	53415.71
528.89	53551.46
529.07	53265.91
529.24	53366.55
529.41	53511.67
529.58	53219.10
529.75	53591.25
529.92	53712.95
530.09	53825.30
530.26	53841.68
530.43	53956.37
530.60	53549.12
530.77	53904.88
530.94	53829.98
531.11	53619.33
531.28	54007.86
531.46	53996.16
531.63	54075.74
531.80	54066.38
531.97	54080.42
532.14	54504.06
532.31	54237.23
532.48	54181.06
532.65	54490.01
532.82	54094.46
532.99	54485.33
533.16	54585.97
533.33	54677.25
533.50	54908.97
533.67	54710.02
533.84	54426.82
534.01	54829.39
534.18	54841.09
534.35	55145.36
534.52	55002.59
534.69	55231.96
534.86	55180.47
535.03	54787.26
535.20	55119.62
535.37	55363.03
535.54	55182.81
535.71	55089.19
535.88	54981.52
536.05	55316.22
536.22	55358.35
536.38	55016.63
536.55	55419.20
536.72	55367.71
536.89	55487.08
537.06	55154.72
537.23	55536.23
537.40	55348.99
537.57	55646.24
537.74	55784.33
537.91	55798.37
538.08	55508.14
538.25	55601.77
538.42	55817.10
538.59	56051.15
538.75	55936.46
538.92	56069.87
539.09	56060.51
539.26	56203.28
539.43	56114.34
539.60	55994.98
539.77	56079.24
539.94	56409.25
540.11	56112.00
540.28	56067.53
540.44	56430.32
540.61	55870.93
540.78	56097.96
540.95	56376.48
541.12	56299.25
541.29	56186.90
541.46	56427.98
541.62	56357.76
541.79	56568.41
541.96	56236.05
542.13	56423.29
542.30	56514.58
542.47	56638.62
542.63	56722.88
542.80	56865.66
542.97	56837.57
543.14	57202.69
543.31	57106.73
543.48	57167.58
543.64	57331.42
543.81	57078.64
543.98	56954.60
544.15	57127.80
544.32	57315.04
544.48	57495.26
544.65	57169.93
544.82	57326.74
544.99	57324.40
545.16	57499.94
545.32	57090.35
545.49	57551.43
545.66	57453.13
545.83	57371.21
546.00	57516.32
546.16	57633.35
546.33	57453.13
546.50	57684.84
546.67	57588.88
546.83	57551.43
547.00	57558.45
547.17	57656.76
547.34	57635.69
547.50	57684.84
547.67	57984.43
547.84	57827.62
548.00	57855.70
548.17	57946.98
548.34	58066.35
548.51	57993.79
548.67	58211.46
548.84	57925.92
549.01	58101.46
549.18	57991.45
549.34	58117.84
549.51	58054.65
549.68	58300.40
549.84	58115.50
550.01	58396.37
550.18	58431.47
550.34	58323.81
550.51	58436.16
550.68	58244.23
550.84	58335.51
551.01	58323.81
551.18	58382.32
551.34	58424.45
551.51	58679.57
551.68	58473.60
551.84	58532.12
552.01	58267.64
552.18	58384.66
552.34	58145.93
552.51	58616.38
552.68	58426.79
552.84	58333.17
553.01	58719.36
553.18	58649.14
553.34	58791.92
553.51	58447.86
553.67	58724.04
553.84	58920.65
554.01	58801.28
554.17	58866.81
554.34	58775.53
554.51	59047.04
554.67	58873.84
554.84	58904.26
555.00	58681.91
555.17	59007.25
555.33	58937.03
555.50	58829.37
555.67	58815.32
555.83	58880.86
556.00	58944.05
556.16	59260.02
556.33	59203.85
556.50	59072.78
556.66	59295.13
556.83	58925.33
556.99	59498.76
557.16	59248.32
557.32	59454.29
557.49	59522.16
557.65	59278.75
557.82	59140.66
557.98	59231.94
558.15	59334.92
558.32	59140.66
558.48	59213.21
558.65	59487.06
558.81	59313.86
558.98	59290.45
559.14	59487.06
559.31	59477.69
559.47	59465.99
559.64	59503.44
559.80	59386.41
559.97	59533.87
560.13	59344.28
560.30	59461.31
560.46	59763.24
560.63	59653.23
560.79	59561.95
560.96	59838.14
561.12	59669.62
561.29	59824.09
561.45	59781.96
561.61	59796.01
561.78	59519.82
561.94	59629.83
562.11	59758.56
562.27	59707.07
562.44	59803.03
562.60	59877.93
562.77	59992.61
562.93	59465.99
563.10	60086.23
563.26	59849.84
563.42	60114.32
563.59	59849.84
563.75	59955.16
563.92	59793.67
564.08	59777.28
564.24	60107.30
564.41	59828.77
564.57	60025.38
564.74	60067.51
564.90	59955.16
565.07	59812.39
565.23	59999.63
565.39	59959.84
565.56	59920.05
565.72	60004.31
565.88	60016.02
566.05	60102.62
566.21	60109.64
566.38	60151.77
566.54	60009.00
566.70	60130.70
566.87	60135.38
567.03	60200.92
567.19	60261.77
567.36	60238.37
567.52	60364.76
567.68	60430.29
567.85	60072.19
568.01	60299.22
568.17	60079.21
568.34	60439.65
568.50	60168.15
568.66	60151.77
568.83	60217.30
568.99	60280.50
569.15	60350.71
569.32	60329.65
569.48	60278.16
569.64	60477.10
569.81	60278.16
569.97	60392.84
570.13	60341.35
570.30	60259.43
570.46	60280.50
570.62	60413.91
570.78	60261.77
570.95	60336.67
571.11	60409.23
571.27	60432.63
571.43	60317.95
571.60	60446.68
571.76	60425.61
571.92	60350.71
572.09	60247.73
572.25	60404.55
572.41	60385.82
572.57	60285.18
572.74	60729.88
572.90	60205.60
573.06	60472.42
573.22	60488.80
573.38	60488.80
573.55	60453.70
573.71	60940.53
573.87	60622.22
574.03	60685.41
574.20	60542.64
574.36	60500.51
574.52	60559.02
574.68	60654.98
574.84	60729.88
575.01	60746.26
575.17	60617.53
575.33	60467.74
575.49	60470.08
575.65	60603.49
575.82	60701.79
575.98	60725.20
576.14	60917.12
576.30	60673.71
576.46	60640.94
576.62	60633.92
576.79	60673.71
576.95	60544.98
577.11	60652.64
577.27	60814.14
577.43	60874.99
577.59	60601.15
577.75	60776.69
577.92	60605.83
578.08	60662.00
578.24	60865.63
578.40	60858.61
578.56	60800.10
578.72	60680.73
578.88	60879.67
579.04	60987.34
579.21	60816.48
579.37	60797.76
579.53	60797.76
579.69	60629.24
579.85	60601.15
580.01	60746.26
580.17	60535.62
580.33	60498.17
580.49	60753.29
580.65	60779.03
580.82	60685.41
580.98	60650.30
581.14	60554.34
581.30	60968.61
581.46	60734.56
581.62	60928.83
581.78	60757.97
581.94	60802.44
582.10	60804.78
582.26	60832.86
582.42	60781.37
582.58	60718.18
582.74	60640.94
582.90	60645.62
583.06	60891.38
583.22	60781.37
583.38	60760.31
583.54	60849.25
583.70	60849.25
583.86	60774.35
584.02	60825.84
584.18	60954.57
584.34	60849.25
584.50	60973.30
584.66	60657.32
584.82	60502.85
584.98	61118.41
585.14	60893.72
585.30	60802.44
585.46	60788.39
585.62	60795.42
585.78	60835.20
585.94	60694.77
586.10	60917.12
586.26	60956.91
586.42	61085.64
586.58	60687.75
586.74	60907.76
586.90	60912.44
587.06	60802.44
587.22	60966.27
587.38	60870.31
587.54	61071.60
587.70	61076.28
587.86	60851.59
588.02	60865.63
588.18	61113.73
588.34	60945.21
588.49	60968.61
