SpectraSuite Data File
++++++++++++++++++++++++++++++++++++
Date: Fri Oct 25 11:22:48 EDT 2013
User: price-jones
Dark Spectrum Present: No
Reference Spectrum Present: No
Number of Sampled Component Spectra: 1
Spectrometers: USB2+H05261
Integration Time (usec): 100000 (USB2+H05261)
Spectra Averaged: 1 (USB2+H05261)
Boxcar Smoothing: 0 (USB2+H05261)
Correct for Electrical Dark: No (USB2+H05261)
Strobe/Lamp Enabled: No (USB2+H05261)
Correct for Detector Non-linearity: No (USB2+H05261)
Correct for Stray Light: No (USB2+H05261)
Number of Pixels in Processed Spectrum: 2048
>>>>>Begin Processed Spectral Data<<<<<
365.73	266.82
365.92	266.82
366.12	266.82
366.32	168.52
366.52	133.41
366.72	131.07
366.91	105.32
367.11	79.58
367.31	145.11
367.51	95.96
367.70	95.96
367.90	145.11
368.10	88.94
368.30	105.32
368.49	124.05
368.69	156.82
368.89	161.50
369.09	135.75
369.28	119.37
369.48	121.71
369.68	131.07
369.87	194.26
370.07	74.90
370.27	184.90
370.47	334.70
370.66	575.77
370.86	681.10
371.06	606.20
371.25	683.44
371.45	613.22
371.65	713.86
371.84	674.07
372.04	629.60
372.24	709.18
372.44	713.86
372.63	650.67
372.83	765.36
373.03	812.17
373.22	760.67
373.42	730.25
373.62	739.61
373.81	821.53
374.01	814.51
374.21	739.61
374.40	770.04
374.60	744.29
374.79	858.98
374.99	795.78
375.19	854.30
375.38	889.40
375.58	863.66
375.78	814.51
375.97	887.06
376.17	875.36
376.37	844.93
376.56	844.93
376.76	908.13
376.95	896.43
377.15	870.68
377.35	802.80
377.54	908.13
377.74	924.51
377.93	887.06
378.13	903.45
378.33	889.40
378.52	973.66
378.72	994.73
378.91	936.21
379.11	992.39
379.31	936.21
379.50	898.77
379.70	1029.84
379.89	929.19
380.09	938.55
380.28	1022.81
380.48	1020.47
380.68	985.37
380.87	964.30
381.07	990.05
381.26	1013.45
381.46	1022.81
381.65	1048.56
381.85	1076.65
382.04	1053.24
382.24	1083.67
382.43	1146.86
382.63	1015.79
382.83	1018.13
383.02	1111.75
383.22	1062.60
383.41	1022.81
383.61	1130.48
383.80	1186.65
384.00	1109.41
384.19	1132.82
384.39	1046.22
384.58	1158.57
384.78	1083.67
384.97	1170.27
385.17	1107.07
385.36	1078.99
385.56	1226.44
385.75	1153.88
385.95	1177.29
386.14	1233.46
386.34	1210.06
386.53	1268.57
386.72	1146.86
386.92	1289.64
387.11	1165.59
387.31	1282.61
387.50	1221.76
387.70	1303.68
387.89	1280.27
388.09	1277.93
388.28	1401.98
388.48	1268.57
388.67	1416.02
388.86	1327.08
389.06	1266.23
389.25	1306.02
389.45	1266.23
389.64	1341.13
389.84	1378.58
390.03	1380.92
390.22	1458.15
390.42	1460.49
390.61	1284.95
390.81	1427.73
391.00	1371.55
391.19	1425.39
391.39	1430.07
391.58	1444.11
391.78	1483.90
391.97	1528.37
392.16	1423.05
392.36	1540.07
392.55	1565.82
392.75	1526.03
392.94	1617.31
393.13	1495.60
393.33	1526.03
393.52	1638.38
393.71	1582.20
393.91	1584.54
394.10	1509.65
394.29	1570.50
394.49	1607.95
394.68	1687.53
394.88	1708.59
395.07	1715.61
395.26	1638.38
395.46	1612.63
395.65	1671.14
395.84	1717.95
396.04	1870.09
396.23	1739.02
396.42	1680.50
396.62	1788.17
396.81	1781.15
397.00	1722.63
397.19	1785.83
397.39	1865.41
397.58	1863.07
397.77	1879.45
397.97	1856.04
398.16	1849.02
398.35	1926.26
398.55	1809.23
398.74	1818.60
398.93	2003.50
399.12	1867.75
399.32	1984.77
399.51	2038.61
399.70	2050.31
399.90	1860.73
400.09	1905.20
400.28	2047.97
400.47	2165.00
400.67	2176.70
400.86	2108.82
401.05	2165.00
401.24	2094.78
401.44	2115.84
401.63	2181.38
401.82	2157.97
402.01	2118.18
402.21	2183.72
402.40	2169.68
402.59	2136.91
402.78	2211.81
402.97	2235.21
403.17	2370.96
403.36	2230.53
403.55	2279.68
403.74	2272.66
403.93	2312.45
404.13	2373.30
404.32	2293.72
404.51	2429.48
404.70	2373.30
404.89	2286.70
405.09	2436.50
405.28	2502.03
405.47	2495.01
405.66	2438.84
405.85	2588.63
406.05	2539.48
406.24	2562.89
406.43	2621.40
406.62	2565.23
406.81	2581.61
407.00	2565.23
407.20	2532.46
407.39	2693.96
407.58	2722.04
407.77	2738.43
407.96	2764.17
408.15	2677.57
408.34	2759.49
408.54	2773.53
408.73	2848.43
408.92	2794.60
409.11	2888.22
409.30	2998.23
409.49	2836.73
409.68	2993.55
409.87	2897.58
410.07	3021.63
410.26	2944.39
410.45	2918.65
410.64	3023.97
410.83	3119.93
411.02	3101.21
411.21	3241.64
411.40	3000.57
411.59	3023.97
411.78	3297.81
411.98	3241.64
412.17	3342.28
412.36	3361.01
412.55	3393.78
412.74	3431.23
412.93	3459.31
413.12	3421.86
413.31	3569.32
413.50	3480.38
413.69	3524.85
413.88	3709.75
414.07	3653.58
414.26	3681.66
414.45	3562.30
414.64	3674.64
414.83	3655.92
415.02	3756.56
415.22	3850.18
415.41	3861.88
415.60	3749.54
415.79	3932.10
415.98	3978.91
416.17	3936.78
416.36	4095.94
416.55	3971.89
416.74	4119.34
416.93	4025.72
417.12	3992.95
417.31	4147.43
417.50	4109.98
417.69	4285.52
417.88	4290.20
418.07	4208.28
418.26	4231.69
418.45	4416.59
418.64	4468.08
418.83	4496.17
419.02	4344.03
419.21	4550.00
419.39	4409.57
419.58	4404.89
419.77	4428.29
419.96	4601.49
420.15	4475.10
420.34	4643.62
420.53	4566.39
420.72	4573.41
420.91	4861.29
421.10	4716.18
421.29	4788.74
421.48	4528.94
421.67	4746.61
421.86	4610.86
422.05	4709.16
422.24	4896.40
422.43	4842.57
422.61	5081.30
422.80	4917.47
422.99	4931.51
423.18	5015.77
423.37	4994.70
423.56	4997.04
423.75	4959.60
423.94	4807.46
424.13	4662.35
424.32	4697.46
424.50	5027.47
424.69	5132.79
424.88	5198.33
425.07	5018.11
425.26	5011.09
425.45	5064.92
425.64	5020.45
425.83	4966.62
426.01	5046.20
426.20	5125.77
426.39	5109.39
426.58	5039.17
426.77	5137.48
426.96	5233.44
427.15	5181.95
427.33	5132.79
427.52	5160.88
427.71	5369.19
427.90	5240.46
428.09	5357.49
428.28	5376.21
428.46	5355.15
428.65	5352.81
428.84	5619.63
429.03	5366.85
429.22	5467.49
429.40	5607.92
429.59	5465.15
429.78	5270.89
429.97	5240.46
430.16	5551.75
430.34	5446.43
430.53	5682.82
430.72	5685.16
430.91	5628.99
431.10	5640.69
431.28	5851.34
431.47	5717.93
431.66	6008.16
431.85	5685.16
432.03	5975.39
432.22	6036.24
432.41	6094.76
432.60	5832.62
432.79	5982.41
432.97	5912.19
433.16	5994.11
433.35	6153.27
433.54	6059.65
433.72	6101.78
433.91	6218.80
434.10	5994.11
434.28	6083.05
434.47	6125.18
434.66	6296.04
434.85	6359.24
435.03	6342.85
435.22	6340.51
435.41	6588.61
435.59	6408.39
435.78	6480.94
435.97	6438.81
436.16	6448.18
436.34	6499.67
436.53	6562.86
436.72	6612.01
436.90	6356.90
437.09	6705.63
437.28	6567.54
437.46	6675.21
437.65	6609.67
437.84	6918.62
438.02	6661.16
438.21	6773.51
438.40	6932.67
438.58	6972.46
438.77	7098.84
438.96	6927.99
439.14	7183.10
439.33	6995.86
439.52	7098.84
439.70	7272.04
439.89	7351.62
440.08	7428.86
440.26	7360.98
440.45	7386.73
440.63	7482.69
440.82	7592.70
441.01	7475.67
441.19	7700.36
441.38	7768.24
441.57	7808.03
441.75	7819.73
441.94	7925.05
442.12	8037.40
442.31	8161.45
442.50	8074.85
442.68	8177.83
442.87	7985.91
443.05	7953.14
443.24	8278.47
443.43	8182.51
443.61	8374.44
443.80	8257.41
443.98	8182.51
444.17	7824.41
444.35	8234.00
444.54	8468.06
444.73	8285.50
444.91	8299.54
445.10	8285.50
445.28	8294.86
445.47	8276.13
445.65	8346.35
445.84	8470.40
446.02	8332.31
446.21	8458.70
446.39	8315.92
446.58	8458.70
446.77	8446.99
446.95	8432.95
447.14	8322.94
447.32	8587.43
447.51	8430.61
447.69	8549.98
447.88	8538.27
448.06	8578.06
448.25	8690.41
448.43	8416.57
448.62	8779.35
448.80	8561.68
448.99	8744.24
449.17	8903.40
449.36	8643.60
449.54	9111.71
449.73	9067.24
449.91	9018.08
450.10	9039.15
450.28	9078.94
450.46	9210.01
450.65	9123.41
450.83	9034.47
451.02	9029.79
451.20	9338.74
451.39	9221.71
451.57	9174.90
451.76	9224.05
451.94	9090.64
452.13	9280.22
452.31	9430.02
452.49	9160.86
452.68	9451.08
452.86	9242.78
453.05	9497.89
453.23	9451.08
453.42	9413.63
453.60	9245.12
453.78	9481.51
453.97	9359.80
454.15	9577.47
454.34	9444.06
454.52	9816.21
454.70	9621.94
454.89	9851.31
455.07	10022.17
455.26	9783.44
455.44	10045.58
455.62	9963.66
455.81	9837.27
455.99	9881.74
456.17	10134.52
456.36	10073.67
456.54	10291.34
456.73	10342.83
456.91	10595.61
457.09	10698.59
457.28	10600.29
457.46	10399.00
457.64	10471.56
457.83	10499.64
458.01	10359.21
458.19	10832.00
458.38	10485.60
458.56	10857.75
458.74	10619.01
458.93	10644.76
459.11	10731.36
459.29	10761.78
459.48	10895.19
459.66	10862.43
459.84	11250.96
460.03	11236.91
460.21	11096.48
460.39	11150.31
460.57	11089.46
460.76	11236.91
460.94	11297.77
461.12	11337.56
461.31	11248.61
461.49	11028.60
461.67	11197.12
461.85	11513.10
462.04	11393.73
462.22	11840.77
462.40	11676.93
462.59	11529.48
462.77	11571.61
462.95	11630.12
463.13	11524.80
463.32	11847.79
463.50	11634.80
463.68	12020.99
463.86	11983.54
464.05	11761.19
464.23	11859.49
464.41	12023.33
464.59	11686.29
464.78	11999.93
464.96	12170.79
465.14	12032.69
465.32	12175.47
465.50	12028.01
465.69	12203.55
465.87	12374.41
466.05	12215.26
466.23	12219.94
466.41	12304.20
466.60	12561.66
466.78	12177.81
466.96	12327.60
467.14	12353.35
467.32	12327.60
467.51	12659.96
467.69	12250.36
467.87	12491.44
468.05	12638.89
468.23	12638.89
468.41	12465.69
468.60	12821.45
468.78	12664.64
468.96	12652.94
469.14	13069.55
469.32	13273.18
469.50	12711.45
469.69	13062.53
469.87	12889.33
470.05	13071.89
470.23	13261.48
470.41	13521.27
470.59	13352.76
470.77	13020.40
470.95	13341.05
471.14	13830.23
471.32	13341.05
471.50	13755.33
471.68	13535.32
471.86	13760.01
472.04	13523.62
472.22	14083.00
472.40	13640.64
472.58	13994.06
472.77	13830.23
472.95	13865.33
473.13	14420.04
473.31	14232.80
473.49	14319.40
473.67	14064.28
473.85	14417.70
474.03	14588.56
474.21	14698.56
474.39	14787.50
474.57	14848.36
474.75	14902.19
474.93	14733.67
475.12	15075.39
475.30	15194.76
475.48	15103.48
475.66	15187.74
475.84	15232.21
476.02	15435.83
476.20	15653.50
476.38	15843.09
476.56	16037.35
476.74	15779.89
476.92	15962.45
477.10	15693.29
477.28	16107.57
477.46	16283.11
477.64	16507.80
477.82	16720.79
478.00	17041.44
478.18	16807.39
478.36	17172.51
478.54	17081.23
478.72	17319.96
478.90	17408.90
479.08	17745.94
479.26	17771.69
479.44	17968.29
479.62	18090.00
479.80	18003.40
479.98	18326.39
480.16	18841.31
480.34	18478.53
480.52	18518.32
480.70	18537.04
480.88	18705.56
481.06	18820.25
481.24	18911.53
481.41	19192.39
481.59	19424.11
481.77	19733.06
481.95	19655.82
482.13	19620.71
482.31	19716.67
482.49	20510.11
482.67	20503.09
482.85	20493.73
483.03	20645.87
483.21	20823.75
483.39	21401.86
483.57	20788.64
483.74	21273.13
483.92	21294.19
484.10	21453.35
484.28	21678.04
484.46	21958.91
484.64	22558.08
484.82	21928.48
485.00	22654.05
485.18	22911.50
485.35	23353.87
485.53	22874.06
485.71	23175.98
485.89	23761.12
486.07	23487.28
486.25	23440.47
486.43	23964.75
486.61	24079.43
486.78	24222.20
486.96	24538.18
487.14	24711.38
487.32	24851.81
487.50	24945.43
487.68	25076.50
487.85	25553.97
488.03	25596.10
488.21	26073.57
488.39	25961.22
488.57	26111.02
488.75	26574.44
488.92	26625.93
489.10	26899.78
489.28	26735.94
489.46	27384.27
489.64	27325.75
489.81	27543.42
489.99	27484.91
490.17	28084.09
490.35	28245.58
490.53	28315.80
490.70	28552.20
490.88	28079.41
491.06	29001.58
491.24	29352.66
491.41	28980.51
491.59	29366.70
491.77	29385.43
491.95	29668.63
492.13	30078.22
492.30	30132.06
492.48	30110.99
492.66	30188.23
492.84	30656.34
493.01	30785.07
493.19	30911.46
493.37	31260.20
493.54	31442.76
493.72	31779.79
493.90	31512.97
494.08	31491.91
494.25	32156.62
494.43	32334.50
494.61	32713.67
494.79	32329.82
494.96	32519.40
495.14	33120.92
495.32	33511.79
495.49	33460.30
495.67	33589.03
495.85	33912.02
496.02	33888.62
496.20	33897.98
496.38	34450.35
496.55	34384.81
496.73	34834.19
496.91	34651.63
497.09	35187.61
497.26	35093.99
497.44	35220.38
497.62	35571.46
497.79	35866.37
497.97	35512.95
498.14	35749.34
498.32	36346.18
498.50	36367.24
498.67	36563.85
498.85	36905.57
499.03	36877.48
499.20	37125.58
499.38	37249.63
499.56	37097.49
499.73	37490.70
499.91	37186.43
500.08	37853.48
500.26	37436.87
500.44	38073.49
500.61	38312.23
500.79	38178.82
500.97	38536.92
501.14	38494.79
501.32	38597.77
501.49	38639.90
501.67	38932.47
501.84	39288.23
502.02	39005.03
502.20	39285.89
502.37	39454.41
502.55	39545.69
502.72	39899.11
502.90	39365.47
503.07	39805.49
503.25	40025.50
503.43	39828.90
503.60	40327.43
503.78	40659.79
503.95	40100.40
504.13	40332.11
504.30	40830.65
504.48	40776.81
504.65	41022.57
504.83	40905.54
505.01	41280.03
505.18	41340.88
505.36	41462.59
505.53	41497.70
505.71	41935.38
505.88	42218.58
506.06	41612.38
506.23	41769.20
506.41	42164.75
506.58	42021.98
506.76	42253.69
506.93	42431.57
507.11	42794.36
507.28	42618.81
507.46	43253.10
507.63	43215.65
507.81	43503.54
507.98	43054.15
508.16	43344.38
508.33	43763.34
508.50	43910.79
508.68	43929.51
508.85	43873.34
509.03	44086.33
509.20	44079.31
509.38	44479.54
509.55	44507.63
509.73	44570.82
509.90	44786.15
510.08	44865.73
510.25	44809.56
510.42	44945.31
510.60	45064.67
510.77	45191.06
510.95	45544.48
511.12	45088.08
511.30	45563.21
511.47	45778.54
511.64	45837.05
511.82	45872.16
511.99	45741.09
512.17	45731.73
512.34	46066.42
512.51	46677.30
512.69	46490.06
512.86	46445.59
513.04	46813.05
513.21	46913.70
513.38	47051.79
513.56	47290.52
513.73	47124.35
513.90	47124.35
514.08	46808.37
514.25	47339.68
514.43	47784.38
514.60	47786.72
514.77	47449.68
514.95	48004.39
515.12	47512.88
515.29	48016.09
515.47	48229.08
515.64	48196.31
515.81	48107.37
515.99	48563.78
516.16	48355.47
516.33	48617.61
516.51	48722.93
516.68	48610.59
516.85	48526.33
517.03	49139.55
517.20	49195.72
517.37	48842.30
517.54	49212.10
517.72	49226.15
517.89	49389.98
518.06	49640.42
518.24	49141.89
518.41	49621.70
518.58	49865.11
518.75	49729.36
518.93	49830.01
519.10	49439.14
519.27	49867.45
519.45	49778.51
519.62	50581.32
519.79	50209.17
519.96	50225.56
520.14	50171.72
520.31	50422.16
520.48	50237.26
520.65	50630.47
520.83	50646.85
521.00	51136.02
521.17	50454.93
521.34	50904.31
521.52	50892.61
521.69	51119.64
521.86	51365.40
522.03	51435.61
522.20	51484.76
522.38	51613.49
522.55	51894.36
522.72	51636.90
522.89	51606.47
523.07	51826.48
523.24	51580.73
523.41	51877.97
523.58	51842.87
523.75	52039.47
523.92	51641.58
524.10	52165.86
524.27	52339.06
524.44	52317.99
524.61	52130.75
524.78	52009.04
524.96	52500.56
525.13	52308.63
525.30	52767.38
525.47	52566.09
525.64	52652.69
525.81	53024.84
525.98	53153.57
526.16	52755.68
526.33	52830.57
526.50	53076.33
526.67	52774.40
526.84	53001.43
527.01	52985.05
527.18	52975.69
527.36	53034.20
527.53	53291.66
527.70	53626.35
527.87	53478.90
528.04	53495.28
528.21	53659.12
528.38	53340.81
528.55	53729.34
528.72	53303.36
528.89	53715.29
529.07	53542.10
529.24	53460.18
529.41	53923.60
529.58	53909.56
529.75	53970.41
529.92	54021.90
530.09	53900.20
530.26	54246.60
530.43	54089.78
530.60	53982.12
530.77	53921.26
530.94	54195.10
531.11	54237.23
531.28	54150.63
531.46	54286.39
531.63	54272.34
531.80	54415.11
531.97	54637.47
532.14	54848.11
532.31	54693.64
532.48	54873.86
532.65	54871.52
532.82	54714.70
532.99	54726.41
533.16	54897.27
533.33	55033.02
533.50	54965.14
533.67	54932.37
533.84	54784.92
534.01	55023.65
534.18	54995.57
534.35	55344.31
534.52	55166.43
534.69	55327.92
534.86	55274.09
535.03	55063.44
535.20	55454.31
535.37	55365.37
535.54	55536.23
535.71	55515.17
535.88	55643.90
536.05	55629.85
536.22	55704.75
536.38	55707.09
536.55	55814.76
536.72	55711.77
536.89	55716.45
537.06	55789.01
537.23	56154.13
537.40	55627.51
537.57	55611.13
537.74	56119.02
537.91	56182.22
538.08	56088.60
538.25	55786.67
538.42	56261.80
538.59	56348.40
538.75	56182.22
538.92	56060.51
539.09	56395.21
539.26	56271.16
539.43	56327.33
539.60	56418.61
539.77	56437.34
539.94	56605.86
540.11	56566.07
540.28	56465.42
540.44	56423.29
540.61	56425.64
540.78	56617.56
540.95	56743.95
541.12	56552.02
541.29	56772.03
541.46	56500.53
541.62	56828.21
541.79	56853.95
541.96	56395.21
542.13	56685.43
542.30	57027.15
542.47	56884.38
542.63	57006.09
542.80	57153.54
542.97	57361.85
543.14	57296.31
543.31	57190.99
543.48	57258.87
543.64	57652.08
543.81	57492.92
543.98	57474.20
544.15	57623.99
544.32	57661.44
544.48	57654.42
544.65	57476.54
544.82	57523.35
544.99	57497.60
545.16	57563.14
545.32	57705.91
545.49	57876.77
545.66	57801.87
545.83	58064.01
546.00	57745.70
546.16	57855.70
546.33	57581.86
546.50	57570.16
546.67	57743.36
546.83	57829.96
547.00	57890.81
547.17	57769.10
547.34	57958.69
547.50	57984.43
547.67	58007.84
547.84	58164.65
548.00	58120.18
548.17	58351.90
548.34	58286.36
548.51	58457.22
548.67	58438.50
548.84	58295.72
549.01	58543.82
549.18	58204.44
549.34	58478.28
549.51	58344.87
549.68	58452.54
549.84	58398.71
550.01	58475.94
550.18	58536.80
550.34	58660.85
550.51	58728.72
550.68	58527.44
550.84	58188.06
551.01	58691.27
551.18	58656.17
551.34	58707.66
551.51	58590.63
551.68	58815.32
551.84	58763.83
552.01	58639.78
552.18	58941.71
552.34	58710.00
552.51	58955.75
552.68	58782.55
552.84	58841.07
553.01	59044.69
553.18	58997.88
553.34	59098.53
553.51	58805.96
553.67	58784.90
553.84	59061.08
554.01	59063.42
554.17	59138.32
554.34	59138.32
554.51	59107.89
554.67	59250.66
554.84	59182.79
555.00	59161.72
555.17	59121.93
555.33	59234.28
555.50	59143.00
555.67	59220.23
555.83	59194.49
556.00	59306.83
556.16	59430.88
556.33	59384.07
556.50	59437.90
556.66	59433.22
556.83	59187.47
556.99	59332.58
557.16	59709.41
557.32	59358.33
557.49	59735.15
557.65	59494.08
557.82	59363.01
557.98	59587.70
558.15	59695.36
558.32	59760.90
558.48	59395.77
558.65	59627.49
558.81	59360.67
558.98	59751.54
559.14	59793.67
559.31	59875.58
559.47	59906.01
559.64	59875.58
559.80	59737.49
559.97	59891.97
560.13	59704.73
560.30	59786.64
560.46	59784.30
560.63	59976.23
560.79	60009.00
560.96	60161.13
561.12	59924.74
561.29	59934.10
561.45	60009.00
561.61	59889.63
561.78	60107.30
561.94	60004.31
562.11	60193.90
562.27	60006.65
562.44	60062.83
562.60	60310.92
562.77	60102.62
562.93	59999.63
563.10	60177.51
563.26	59962.18
563.42	60317.95
563.59	60175.17
563.75	60088.57
563.92	60119.00
564.08	60346.03
564.24	60367.10
564.41	60257.09
564.57	60388.16
564.74	60051.12
564.90	60329.65
565.07	60207.94
565.23	60238.37
565.39	60189.22
565.56	60446.68
565.72	60037.08
565.88	60458.38
566.05	60301.56
566.21	60446.68
566.38	60540.30
566.54	60481.78
566.70	60643.28
566.87	60596.47
567.03	60355.39
567.19	60477.10
567.36	60458.38
567.52	60324.97
567.68	60502.85
567.85	60470.08
568.01	60687.75
568.17	60313.26
568.34	60385.82
568.50	60509.87
568.66	60467.74
568.83	60596.47
568.99	60306.24
569.15	60505.19
569.32	60587.11
569.48	60556.68
569.64	60598.81
569.81	60720.52
569.97	60488.80
570.13	60603.49
570.30	60463.06
570.46	60697.11
570.62	60561.36
570.78	60559.02
570.95	60657.32
571.11	60612.85
571.27	60505.19
571.43	60715.84
571.60	60863.29
571.76	60652.64
571.92	60631.58
572.09	60776.69
572.25	60664.35
572.41	60636.26
572.57	60650.30
572.74	61029.47
572.90	60647.96
573.06	60872.65
573.22	60722.86
573.38	60697.11
573.55	60800.10
573.71	60849.25
573.87	60863.29
574.03	60662.00
574.20	60790.73
574.36	60619.88
574.52	60814.14
574.68	60811.80
574.84	61043.51
575.01	60755.63
575.17	60757.97
575.33	60526.25
575.49	60739.24
575.65	61017.77
575.82	60912.44
575.98	60884.36
576.14	61087.98
576.30	60900.74
576.46	60947.55
576.62	60718.18
576.79	60982.66
576.95	60858.61
577.11	60928.83
577.27	60790.73
577.43	60942.87
577.59	60816.48
577.75	60860.95
577.92	60945.21
578.08	60924.14
578.24	61176.92
578.40	61127.77
578.56	61233.10
578.72	60938.19
578.88	60949.89
579.04	61120.75
579.21	60865.63
579.37	61221.39
579.53	61097.34
579.69	60830.52
579.85	60844.57
580.01	61022.45
580.17	60839.89
580.33	60860.95
580.49	61277.57
580.65	61144.16
580.82	60856.27
580.98	60996.70
581.14	60989.68
581.30	61197.99
581.46	60919.46
581.62	61099.68
581.78	60912.44
581.94	60926.49
582.10	60914.78
582.26	61066.92
582.42	61104.37
582.58	61057.56
582.74	61249.48
582.90	60973.30
583.06	61095.00
583.22	60839.89
583.38	61043.51
583.54	61095.00
583.70	61106.71
583.86	61207.35
584.02	61034.15
584.18	61254.16
584.34	61022.45
584.50	60982.66
584.66	61113.73
584.82	60973.30
584.98	61525.66
585.14	61151.18
585.30	60994.36
585.46	61118.41
585.62	61174.58
585.78	61331.40
585.94	61041.17
586.10	61125.43
586.26	61146.50
586.42	61127.77
586.58	61221.39
586.74	61268.20
586.90	61024.79
587.06	61006.06
587.22	61190.97
587.38	61120.75
587.54	61350.12
587.70	61478.85
587.86	61193.31
588.02	61125.43
588.18	61401.61
588.34	61237.78
588.49	61261.18
