SpectraSuite Data File
++++++++++++++++++++++++++++++++++++
Date: Fri Oct 25 11:23:40 EDT 2013
User: price-jones
Dark Spectrum Present: No
Reference Spectrum Present: No
Number of Sampled Component Spectra: 1
Spectrometers: USB2+H05261
Integration Time (usec): 100000 (USB2+H05261)
Spectra Averaged: 1 (USB2+H05261)
Boxcar Smoothing: 0 (USB2+H05261)
Correct for Electrical Dark: No (USB2+H05261)
Strobe/Lamp Enabled: No (USB2+H05261)
Correct for Detector Non-linearity: No (USB2+H05261)
Correct for Stray Light: No (USB2+H05261)
Number of Pixels in Processed Spectrum: 2048
>>>>>Begin Processed Spectral Data<<<<<
365.73	278.52
365.92	278.52
366.12	278.52
366.32	187.24
366.52	175.54
366.72	60.85
366.91	63.19
367.11	149.79
367.31	121.71
367.51	131.07
367.70	133.41
367.90	126.39
368.10	166.18
368.30	67.88
368.49	121.71
368.69	124.05
368.89	168.52
369.09	133.41
369.28	121.71
369.48	187.24
369.68	145.11
369.87	191.92
370.07	159.16
370.27	250.44
370.47	283.20
370.66	653.01
370.86	622.58
371.06	603.86
371.25	688.12
371.45	650.67
371.65	720.88
371.84	671.73
372.04	739.61
372.24	688.12
372.44	706.84
372.63	669.39
372.83	697.48
373.03	697.48
373.22	690.46
373.42	812.17
373.62	826.21
373.81	826.21
374.01	866.00
374.21	746.63
374.40	851.96
374.60	835.57
374.79	788.76
374.99	833.23
375.19	802.80
375.38	833.23
375.58	868.34
375.78	894.08
375.97	842.59
376.17	863.66
376.37	854.30
376.56	847.27
376.76	840.25
376.95	882.38
377.15	814.51
377.35	847.27
377.54	844.93
377.74	873.02
377.93	926.85
378.13	856.64
378.33	919.83
378.52	919.83
378.72	971.32
378.91	929.19
379.11	910.47
379.31	858.98
379.50	861.32
379.70	1025.15
379.89	985.37
380.09	933.87
380.28	1018.13
380.48	978.34
380.68	992.39
380.87	971.32
381.07	976.00
381.26	1025.15
381.46	999.41
381.65	1043.88
381.85	1048.56
382.04	1027.50
382.24	1053.24
382.43	1081.33
382.63	1074.31
382.83	1095.37
383.02	1088.35
383.22	1064.94
383.41	1048.56
383.61	1146.86
383.80	1064.94
384.00	1095.37
384.19	1086.01
384.39	1170.27
384.58	1188.99
384.78	1104.73
384.97	1233.46
385.17	1086.01
385.36	1118.78
385.56	1146.86
385.75	1132.82
385.95	1191.33
386.14	1184.31
386.34	1198.35
386.53	1186.65
386.72	1174.95
386.92	1245.16
387.11	1191.33
387.31	1343.47
387.50	1291.98
387.70	1306.02
387.89	1198.35
388.09	1280.27
388.28	1200.69
388.48	1296.66
388.67	1268.57
388.86	1275.59
389.06	1270.91
389.25	1327.08
389.45	1373.89
389.64	1380.92
389.84	1413.68
390.03	1378.58
390.22	1362.19
390.42	1437.09
390.61	1394.96
390.81	1441.77
391.00	1418.36
391.19	1348.15
391.39	1439.43
391.58	1420.71
391.78	1446.45
391.97	1451.13
392.16	1409.00
392.36	1600.93
392.55	1554.12
392.75	1469.86
392.94	1504.96
393.13	1556.46
393.33	1591.56
393.52	1490.92
393.71	1603.27
393.91	1582.20
394.10	1584.54
394.29	1563.48
394.49	1643.06
394.68	1717.95
394.88	1647.74
395.07	1624.33
395.26	1673.48
395.46	1689.87
395.65	1739.02
395.84	1710.93
396.04	1849.02
396.23	1678.16
396.42	1715.61
396.62	1722.63
396.81	1739.02
397.00	1781.15
397.19	1750.72
397.39	1809.23
397.58	1769.44
397.77	1884.13
397.97	1846.68
398.16	1935.62
398.35	1937.96
398.55	1916.90
398.74	1842.00
398.93	1907.54
399.12	1968.39
399.32	1853.70
399.51	1933.28
399.70	2066.69
399.90	1902.86
400.09	2001.16
400.28	2115.84
400.47	2062.01
400.67	2113.50
400.86	2062.01
401.05	2101.80
401.24	2143.93
401.44	2139.25
401.63	2094.78
401.82	2143.93
402.01	2169.68
402.21	2228.19
402.40	2202.44
402.59	2127.55
402.78	2148.61
402.97	2239.89
403.17	2258.62
403.36	2228.19
403.55	2239.89
403.74	2380.32
403.93	2392.03
404.13	2347.56
404.32	2462.24
404.51	2314.79
404.70	2530.12
404.89	2427.14
405.09	2506.71
405.28	2597.99
405.47	2434.16
405.66	2532.46
405.85	2520.76
406.05	2413.09
406.24	2562.89
406.43	2499.69
406.62	2708.00
406.81	2672.89
407.00	2640.12
407.20	2644.81
407.39	2675.23
407.58	2710.34
407.77	2747.79
407.96	2717.36
408.15	2918.65
408.34	2743.11
408.54	2850.77
408.73	2698.64
408.92	2775.88
409.11	2899.92
409.30	2864.82
409.49	2963.12
409.68	2810.98
409.87	2972.48
410.07	3077.80
410.26	3105.89
410.45	2984.18
410.64	3105.89
410.83	3061.42
411.02	3080.14
411.21	3185.47
411.40	3089.51
411.59	3211.22
411.78	3262.71
411.98	3243.98
412.17	3328.24
412.36	3243.98
412.55	3342.28
412.74	3330.58
412.93	3361.01
413.12	3311.86
413.31	3438.25
413.50	3496.76
413.69	3433.57
413.88	3613.79
414.07	3637.19
414.26	3634.85
414.45	3786.99
414.64	3646.55
414.83	3798.69
415.02	3639.53
415.22	3765.92
415.41	3735.50
415.60	3957.85
415.79	3871.25
415.98	4086.58
416.17	3962.53
416.36	3946.14
416.55	4060.83
416.74	3997.64
416.93	3960.19
417.12	4077.21
417.31	4117.00
417.50	4133.39
417.69	4395.53
417.88	4311.27
418.07	4273.82
418.26	4358.08
418.45	4196.58
418.64	4512.55
418.83	4421.27
419.02	4510.21
419.21	4409.57
419.39	4568.73
419.58	4442.34
419.77	4409.57
419.96	4531.28
420.15	4512.55
420.34	4561.70
420.53	4638.94
420.72	4688.09
420.91	4695.11
421.10	4636.60
421.29	4858.95
421.48	4615.54
421.67	4690.43
421.86	4669.37
422.05	4723.20
422.24	4854.27
422.43	4802.78
422.61	4919.81
422.80	4887.04
422.99	4833.21
423.18	4889.38
423.37	5018.11
423.56	4875.34
423.75	4809.80
423.94	4863.63
424.13	4723.20
424.32	4723.20
424.50	4861.29
424.69	5039.17
424.88	5036.83
425.07	4933.85
425.26	5013.43
425.45	4994.70
425.64	4966.62
425.83	4856.61
426.01	4926.83
426.20	5177.26
426.39	5109.39
426.58	4917.47
426.77	5078.96
426.96	5048.54
427.15	5043.85
427.33	5163.22
427.52	5034.49
427.71	5331.74
427.90	5160.88
428.09	5305.99
428.28	5427.70
428.46	5310.68
428.65	5357.49
428.84	5373.87
429.03	5643.03
429.22	5357.49
429.40	5467.49
429.59	5577.50
429.78	5240.46
429.97	5338.76
430.16	5561.11
430.34	5617.29
430.53	5633.67
430.72	5652.39
430.91	5598.56
431.10	5518.98
431.28	5612.60
431.47	5722.61
431.66	5886.45
431.85	5724.95
432.03	5870.06
432.22	6043.26
432.41	5867.72
432.60	6045.60
432.79	6061.99
432.97	6003.47
433.16	6134.54
433.35	6012.84
433.54	6078.37
433.72	6134.54
433.91	5984.75
434.10	5977.73
434.28	5984.75
434.47	6064.33
434.66	6108.80
434.85	6483.28
435.03	6221.14
435.22	6300.72
435.41	6551.16
435.59	6530.09
435.78	6380.30
435.97	6373.28
436.16	6338.17
436.34	6569.88
436.53	6406.05
436.72	6576.91
436.90	6410.73
437.09	6752.45
437.28	6420.09
437.46	6651.80
437.65	6740.74
437.84	6722.02
438.02	6747.76
438.21	6841.39
438.40	6670.53
438.58	6956.07
438.77	7117.57
438.96	7063.74
439.14	7178.42
439.33	7183.10
439.52	7253.32
439.70	7148.00
439.89	7321.20
440.08	7311.83
440.26	7480.35
440.45	7499.08
440.63	7452.27
440.82	7611.42
441.01	7550.57
441.19	7623.12
441.38	7826.75
441.57	7604.40
441.75	7964.84
441.94	7878.24
442.12	7775.26
442.31	8086.55
442.50	8081.87
442.68	7992.93
442.87	8035.06
443.05	8128.68
443.24	8196.56
443.43	8299.54
443.61	8163.79
443.80	8505.51
443.98	8088.89
444.17	7847.82
444.35	8229.32
444.54	8542.96
444.73	8329.97
444.91	8177.83
445.10	8411.89
445.28	8273.79
445.47	8177.83
445.65	8308.90
445.84	8404.86
446.02	8383.80
446.21	8360.39
446.39	8372.10
446.58	8374.44
446.77	8547.64
446.95	8477.42
447.14	8456.36
447.32	8699.77
447.51	8568.70
447.69	8500.83
447.88	8568.70
448.06	8652.96
448.25	8571.04
448.43	8802.75
448.62	8774.67
448.80	8592.11
448.99	8587.43
449.17	8641.26
449.36	8528.91
449.54	8772.33
449.73	8879.99
449.91	8879.99
450.10	8805.10
450.28	9034.47
450.46	9020.42
450.65	9085.96
450.83	8943.19
451.02	9181.92
451.20	9130.43
451.39	9181.92
451.57	9149.15
451.76	9179.58
451.94	9242.78
452.13	9210.01
452.31	9291.93
452.49	9153.84
452.68	9467.47
452.86	9420.66
453.05	9406.61
453.23	9572.79
453.42	9327.03
453.60	9259.16
453.78	9446.40
453.97	9605.56
454.15	9451.08
454.34	9348.10
454.52	9661.73
454.70	9767.06
454.89	9699.18
455.07	9958.98
455.26	9781.10
455.44	9816.21
455.62	10071.33
455.81	9982.38
455.99	10017.49
456.17	10012.81
456.36	9956.64
456.54	10141.54
456.73	10022.17
456.91	10579.22
457.09	10286.65
457.28	10424.75
457.46	10209.42
457.64	10480.92
457.83	10595.61
458.01	10476.24
458.19	10846.04
458.38	10689.23
458.56	10637.73
458.74	10729.02
458.93	10721.99
459.11	10736.04
459.29	10562.84
459.48	10839.02
459.66	10733.70
459.84	10782.85
460.03	11122.23
460.21	10946.69
460.39	11194.78
460.57	11201.80
460.76	10909.24
460.94	11225.21
461.12	11124.57
461.31	11042.65
461.49	11162.01
461.67	11389.05
461.85	11454.58
462.04	11550.54
462.22	11564.59
462.40	11503.73
462.59	11613.74
462.77	11496.71
462.95	11482.67
463.13	11534.16
463.32	11695.66
463.50	11868.86
463.68	11878.22
463.86	11709.70
464.05	11791.62
464.23	11775.24
464.41	11941.41
464.59	11524.80
464.78	12074.82
464.96	11571.61
465.14	11889.92
465.32	12128.66
465.50	12210.57
465.69	12245.68
465.87	12212.92
466.05	12133.34
466.23	12248.02
466.41	12535.91
466.60	12606.13
466.78	12182.49
466.96	12285.47
467.14	12404.84
467.32	12421.22
467.51	12561.66
467.69	12250.36
467.87	12414.20
468.05	12362.71
468.23	12421.22
468.41	12449.31
468.60	12629.53
468.78	12659.96
468.96	12526.55
469.14	12816.77
469.32	12774.64
469.50	12732.51
469.69	13139.77
469.87	13160.83
470.05	13146.79
470.23	13099.98
470.41	12849.54
470.59	13233.39
470.77	13364.46
470.95	13350.42
471.14	13532.98
471.32	13200.62
471.50	13673.41
471.68	13401.91
471.86	13364.46
472.04	13996.40
472.22	14136.84
472.40	13795.12
472.58	13727.24
472.77	13804.48
472.95	14111.09
473.13	14286.63
473.31	14015.13
473.49	13898.10
473.67	14244.50
473.85	14232.80
474.03	14890.49
474.21	14913.89
474.39	14743.03
474.57	14661.12
474.75	14574.52
474.93	15007.52
475.12	14902.19
475.30	15133.90
475.48	15117.52
475.66	14974.75
475.84	15054.33
476.02	15084.75
476.20	15461.58
476.38	15433.49
476.56	16112.25
476.74	16056.08
476.92	16121.61
477.10	15714.36
477.28	16098.20
477.46	16365.03
477.64	16493.76
477.82	16594.40
478.00	17060.16
478.18	16828.45
478.36	17109.32
478.54	17153.79
478.72	17121.02
478.90	17062.51
479.08	17495.50
479.26	17621.89
479.44	17757.64
479.62	17799.77
479.80	18246.82
479.98	18066.60
480.16	18429.38
480.34	18370.86
480.52	18553.43
480.70	18504.28
480.88	18523.00
481.06	18787.48
481.24	19066.00
481.41	19110.47
481.59	19344.53
481.77	19227.50
481.95	19833.70
482.13	19702.63
482.31	19391.34
482.49	20105.20
482.67	20308.83
482.85	20435.22
483.03	20608.42
483.21	20744.17
483.39	20540.54
483.57	21008.65
483.74	21308.24
483.92	21359.73
484.10	21326.96
484.28	21696.77
484.46	22146.15
484.64	22539.36
484.82	21872.31
485.00	22398.93
485.18	22761.71
485.35	22998.10
485.53	22740.64
485.71	23077.68
485.89	23496.64
486.07	23030.87
486.25	23503.66
486.43	23559.83
486.61	24161.35
486.78	23948.36
486.96	24016.24
487.14	24603.71
487.32	24854.15
487.50	24765.21
487.68	24837.76
487.85	25523.54
488.03	25563.33
488.21	25895.69
488.39	25818.45
488.57	26073.57
488.75	26448.05
488.92	26223.36
489.10	26883.39
489.28	26569.76
489.46	27370.22
489.64	27115.11
489.81	27641.73
489.99	27632.36
490.17	27594.92
490.35	28229.20
490.53	27828.97
490.70	28528.79
490.88	28173.03
491.06	28847.10
491.24	29006.26
491.41	29184.14
491.59	29504.79
491.77	29373.72
491.95	29460.32
492.13	29748.21
492.30	29635.86
492.48	30515.90
492.66	29872.26
492.84	30401.22
493.01	30562.72
493.19	30459.73
493.37	30691.44
493.54	30693.79
493.72	31498.93
493.90	31297.64
494.08	31573.83
494.25	31983.42
494.43	32261.94
494.61	32287.69
494.79	32472.59
494.96	32917.29
495.14	32664.52
495.32	33287.10
495.49	32903.25
495.67	32989.85
495.85	33364.34
496.02	33872.23
496.20	33888.62
496.38	34117.99
496.55	33989.26
496.73	34550.99
496.91	34558.01
497.09	34820.15
497.26	35145.48
497.44	35269.53
497.62	35049.52
497.79	35983.40
497.97	35377.20
498.14	35784.45
498.32	36437.46
498.50	35859.35
498.67	36739.39
498.85	36350.86
499.03	36524.06
499.20	36959.40
499.38	37020.25
499.56	37226.22
499.73	37165.37
499.91	37324.52
500.08	37916.68
500.26	37757.52
500.44	37897.95
500.61	37984.55
500.79	37654.54
500.97	38305.21
501.14	38520.54
501.32	38230.31
501.49	38473.73
501.67	38923.11
501.84	39306.96
502.02	38974.60
502.20	38944.17
502.37	39618.25
502.55	39821.87
502.72	39601.86
502.90	39826.56
503.07	39346.75
503.25	40287.64
503.43	39831.24
503.60	40322.75
503.78	40109.76
503.95	40474.88
504.13	40622.34
504.30	40701.92
504.48	40720.64
504.65	40657.45
504.83	40896.18
505.01	41118.53
505.18	40893.84
505.36	41565.57
505.53	41331.52
505.71	41818.35
505.88	41764.52
506.06	41193.43
506.23	42169.43
506.41	42157.73
506.58	42192.84
506.76	42267.73
506.93	42890.32
507.11	42274.76
507.28	42581.37
507.46	42904.36
507.63	42916.06
507.81	43517.58
507.98	43206.29
508.16	43414.60
508.33	43290.55
508.50	43377.15
508.68	43587.80
508.85	43779.72
509.03	44016.11
509.20	44039.52
509.38	43707.16
509.55	44233.78
509.73	44734.66
509.90	44713.59
510.08	44629.34
510.25	44713.59
510.42	44879.77
510.60	45027.23
510.77	45471.93
510.95	45233.19
511.12	45141.91
511.30	45057.65
511.47	45574.91
511.64	45507.04
511.82	45944.72
511.99	45600.66
512.17	45801.94
512.34	45832.37
512.51	46780.29
512.69	46454.95
512.86	46426.87
513.04	46873.91
513.21	46789.65
513.38	46768.58
513.56	46873.91
513.73	46735.82
513.90	47269.46
514.08	47210.95
514.25	47494.15
514.43	47700.12
514.60	47744.59
514.77	47676.71
514.95	47693.10
515.12	47360.74
515.29	47985.66
515.47	47704.80
515.64	48168.22
515.81	47922.47
515.99	48505.26
516.16	48488.88
516.33	48577.82
516.51	48505.26
516.68	48755.70
516.85	48439.73
517.03	48685.48
517.20	48912.52
517.37	48959.33
517.54	48870.39
517.72	48804.85
517.89	49125.50
518.06	48978.05
518.24	49179.34
518.41	49492.97
518.58	49343.17
518.75	49303.38
518.93	49715.32
519.10	49654.47
519.27	49490.63
519.45	49645.10
519.62	49986.82
519.79	50218.53
519.96	50066.40
520.14	50239.60
520.31	50110.87
520.48	50389.39
520.65	50209.17
520.83	50576.64
521.00	50525.14
521.17	50497.06
521.34	50698.34
521.52	50948.78
521.69	50415.14
521.86	50780.26
522.03	50969.85
522.20	51423.91
522.38	51870.95
522.55	51292.84
522.72	51721.16
522.89	51255.39
523.07	51559.66
523.24	51430.93
523.41	51601.79
523.58	51540.94
523.75	51887.34
523.92	51693.07
524.10	52179.90
524.27	52453.75
524.44	51966.91
524.61	51725.84
524.78	52458.43
524.96	52481.83
525.13	52086.28
525.30	52708.86
525.47	52467.79
525.64	52552.05
525.81	52713.55
525.98	52449.06
526.16	52622.26
526.33	52610.56
526.50	53092.71
526.67	52804.83
526.84	52793.12
527.01	52865.68
527.18	52718.23
527.36	52818.87
527.53	53003.77
527.70	53581.88
527.87	53467.20
528.04	53324.43
528.21	53574.86
528.38	53322.08
528.55	53539.75
528.72	53319.74
528.89	53602.95
529.07	53312.72
529.24	53579.54
529.41	53727.00
529.58	53333.79
529.75	53698.91
529.92	53668.48
530.09	53984.46
530.26	53975.09
530.43	53991.48
530.60	53759.76
530.77	53984.46
530.94	54206.81
531.11	53977.43
531.28	54398.73
531.46	54120.21
531.63	54398.73
531.80	54475.97
531.97	54436.18
532.14	54398.73
532.31	54461.93
532.48	54749.81
532.65	54822.37
532.82	54394.05
532.99	54597.68
533.16	54487.67
533.33	54920.67
533.50	54960.46
533.67	54920.67
533.84	54735.77
534.01	54796.62
534.18	55042.38
534.35	55105.57
534.52	55227.28
534.69	55063.44
534.86	55033.02
535.03	55047.06
535.20	55393.46
535.37	55379.42
535.54	55430.91
535.71	55065.78
535.88	55604.11
536.05	55721.13
536.22	55428.57
536.38	55704.75
536.55	55653.26
536.72	55648.58
536.89	55669.64
537.06	55796.03
537.23	55936.46
537.40	55662.62
537.57	55791.35
537.74	55964.55
537.91	55819.44
538.08	55487.08
538.25	55817.10
538.42	55819.44
538.59	56275.84
538.75	55861.57
538.92	55964.55
539.09	56170.52
539.26	56233.71
539.43	56184.56
539.60	56214.99
539.77	56282.86
539.94	56413.93
540.11	56222.01
540.28	56360.10
540.44	56474.79
540.61	56442.02
540.78	56390.53
540.95	56547.34
541.12	56449.04
541.29	56500.53
541.46	56626.92
541.62	56652.67
541.79	56676.07
541.96	56404.57
542.13	56662.03
542.30	56706.50
542.47	56769.69
542.63	56750.97
542.80	56821.19
542.97	57020.13
543.14	57162.90
543.31	57071.62
543.48	57429.72
543.64	57293.97
543.81	57499.94
543.98	57195.67
544.15	57284.61
544.32	57469.51
544.48	57579.52
544.65	57176.95
544.82	57422.70
544.99	57237.80
545.16	57581.86
545.32	57609.95
545.49	57628.67
545.66	57893.15
545.83	57642.71
546.00	58028.90
546.16	57694.21
546.33	57462.49
546.50	57776.12
546.67	57771.44
546.83	57359.51
547.00	57808.89
547.17	57757.40
547.34	57890.81
547.50	57890.81
547.67	58014.86
547.84	58089.76
548.00	58024.22
548.17	58234.87
548.34	58113.16
548.51	58087.42
548.67	58202.10
548.84	58092.10
549.01	58021.88
549.18	58127.20
549.34	58291.04
549.51	58309.77
549.68	58185.72
549.84	58422.11
550.01	58440.84
550.18	58365.94
550.34	58468.92
550.51	58585.95
550.68	58557.86
550.84	58328.49
551.01	58576.59
551.18	58511.05
551.34	58609.35
551.51	58578.93
551.68	58511.05
551.84	58597.65
552.01	58445.52
552.18	58688.93
552.34	58518.07
552.51	58897.24
552.68	58829.37
552.84	58543.82
553.01	58899.58
553.18	58628.08
553.34	58953.41
553.51	58829.37
553.67	58955.75
553.84	58866.81
554.01	59379.39
554.17	59213.21
554.34	59072.78
554.51	58791.92
554.67	58969.80
554.84	59119.59
555.00	59100.87
555.17	58951.07
555.33	59206.19
555.50	58841.07
555.67	59049.38
555.83	59147.68
556.00	59016.61
556.16	59386.41
556.33	59358.33
556.50	59407.48
556.66	59508.12
556.83	59173.42
556.99	59374.71
557.16	59351.30
557.32	59611.10
557.49	59636.85
557.65	59295.13
557.82	59262.36
557.98	59398.12
558.15	59524.50
558.32	59779.62
558.48	59683.66
558.65	59365.35
558.81	59365.35
558.98	59660.26
559.14	59716.43
559.31	59700.04
559.47	59718.77
559.64	59632.17
559.80	59810.05
559.97	59870.90
560.13	59489.40
560.30	59681.32
560.46	59597.06
560.63	59683.66
560.79	59709.41
560.96	59927.08
561.12	59990.27
561.29	59985.59
561.45	59891.97
561.61	59716.43
561.78	60046.44
561.94	59906.01
562.11	59840.48
562.27	59978.57
562.44	59999.63
562.60	60104.96
562.77	60170.49
562.93	59788.98
563.10	60020.70
563.26	59786.64
563.42	60161.13
563.59	59966.87
563.75	60030.06
563.92	59999.63
564.08	59882.61
564.24	60041.76
564.41	60140.07
564.57	60210.28
564.74	60119.00
564.90	60062.83
565.07	60224.32
565.23	60196.24
565.39	60062.83
565.56	60198.58
565.72	60317.95
565.88	60170.49
566.05	60182.19
566.21	60107.30
566.38	60350.71
566.54	60245.39
566.70	60315.61
566.87	60441.99
567.03	60395.18
567.19	60449.02
567.36	60406.89
567.52	60273.48
567.68	60488.80
567.85	60350.71
568.01	60514.55
568.17	60434.97
568.34	60477.10
568.50	60317.95
568.66	60329.65
568.83	60486.46
568.99	60371.78
569.15	60329.65
569.32	60392.84
569.48	60463.06
569.64	60650.30
569.81	60463.06
569.97	60406.89
570.13	60542.64
570.30	60273.48
570.46	60456.04
570.62	60493.49
570.78	60617.53
570.95	60411.57
571.11	60722.86
571.27	60418.59
571.43	60678.39
571.60	60781.37
571.76	60692.43
571.92	60690.09
572.09	60540.30
572.25	60624.56
572.41	60591.79
572.57	60657.32
572.74	60776.69
572.90	60591.79
573.06	60666.69
573.22	60617.53
573.38	60685.41
573.55	60643.28
573.71	60678.39
573.87	60612.85
574.03	60631.58
574.20	60657.32
574.36	60573.06
574.52	60757.97
574.68	60912.44
574.84	60800.10
575.01	60903.08
575.17	60645.62
575.33	60736.90
575.49	60704.13
575.65	60741.58
575.82	60992.02
575.98	60741.58
576.14	61085.64
576.30	60907.76
576.46	60860.95
576.62	60928.83
576.79	60844.57
576.95	60587.11
577.11	60996.70
577.27	60802.44
577.43	60750.94
577.59	60779.03
577.75	60676.05
577.92	60800.10
578.08	60662.00
578.24	60853.93
578.40	60947.55
578.56	61006.06
578.72	60793.07
578.88	60996.70
579.04	61071.60
579.21	60842.23
579.37	61200.33
579.53	60992.02
579.69	60776.69
579.85	60893.72
580.01	60811.80
580.17	60800.10
580.33	60870.31
580.49	60975.64
580.65	61052.87
580.82	60809.46
580.98	60764.99
581.14	60704.13
581.30	60942.87
581.46	60807.12
581.62	61073.94
581.78	61052.87
581.94	61001.38
582.10	60959.25
582.26	61113.73
582.42	60877.33
582.58	61062.24
582.74	60863.29
582.90	61048.19
583.06	61043.51
583.22	60793.07
583.38	60882.02
583.54	60989.68
583.70	60912.44
583.86	61015.43
584.02	60872.65
584.18	61050.53
584.34	61027.13
584.50	60851.59
584.66	60783.71
584.82	60809.46
584.98	61151.18
585.14	60928.83
585.30	60982.66
585.46	61013.08
585.62	60987.34
585.78	61270.54
585.94	61132.45
586.10	60853.93
586.26	61146.50
586.42	61265.86
586.58	61233.10
586.74	61069.26
586.90	60992.02
587.06	60940.53
587.22	61179.26
587.38	60949.89
587.54	61284.59
587.70	61155.86
587.86	61041.17
588.02	60865.63
588.18	61104.37
588.34	61132.45
588.49	61041.17
