SpectraSuite Data File
++++++++++++++++++++++++++++++++++++
Date: Fri Oct 25 11:23:06 EDT 2013
User: price-jones
Dark Spectrum Present: No
Reference Spectrum Present: No
Number of Sampled Component Spectra: 1
Spectrometers: USB2+H05261
Integration Time (usec): 100000 (USB2+H05261)
Spectra Averaged: 1 (USB2+H05261)
Boxcar Smoothing: 0 (USB2+H05261)
Correct for Electrical Dark: No (USB2+H05261)
Strobe/Lamp Enabled: No (USB2+H05261)
Correct for Detector Non-linearity: No (USB2+H05261)
Correct for Stray Light: No (USB2+H05261)
Number of Pixels in Processed Spectrum: 2048
>>>>>Begin Processed Spectral Data<<<<<
365.73	198.95
365.92	198.95
366.12	198.95
366.32	168.52
366.52	77.24
366.72	138.09
366.91	81.92
367.11	131.07
367.31	95.96
367.51	133.41
367.70	98.30
367.90	102.98
368.10	119.37
368.30	126.39
368.49	140.43
368.69	248.10
368.89	189.58
369.09	196.60
369.28	161.50
369.48	138.09
369.68	175.54
369.87	175.54
370.07	114.69
370.27	187.24
370.47	248.10
370.66	568.75
370.86	521.94
371.06	615.56
371.25	702.16
371.45	617.90
371.65	636.63
371.84	669.39
372.04	688.12
372.24	730.25
372.44	645.99
372.63	734.93
372.83	777.06
373.03	725.57
373.22	674.07
373.42	763.01
373.62	758.33
373.81	781.74
374.01	840.25
374.21	798.12
374.40	746.63
374.60	791.10
374.79	858.98
374.99	814.51
375.19	863.66
375.38	882.38
375.58	856.64
375.78	905.79
375.97	873.02
376.17	856.64
376.37	901.11
376.56	922.17
376.76	884.72
376.95	847.27
377.15	922.17
377.35	882.38
377.54	854.30
377.74	870.68
377.93	973.66
378.13	943.24
378.33	940.90
378.52	887.06
378.72	936.21
378.91	903.45
379.11	919.83
379.31	983.02
379.50	983.02
379.70	997.07
379.89	1032.18
380.09	1008.77
380.28	997.07
380.48	936.21
380.68	978.34
380.87	1088.35
381.07	1074.31
381.26	1048.56
381.46	926.85
381.65	1095.37
381.85	1060.26
382.04	1001.75
382.24	1095.37
382.43	1097.71
382.63	1053.24
382.83	1090.69
383.02	1088.35
383.22	1088.35
383.41	1041.54
383.61	1090.69
383.80	1060.26
384.00	1043.88
384.19	1076.65
384.39	1093.03
384.58	1191.33
384.78	1165.59
384.97	1149.20
385.17	1144.52
385.36	1177.29
385.56	1207.72
385.75	1212.40
385.95	1158.57
386.14	1341.13
386.34	1179.63
386.53	1249.85
386.72	1109.41
386.92	1247.51
387.11	1299.00
387.31	1294.32
387.50	1275.59
387.70	1200.69
387.89	1284.95
388.09	1306.02
388.28	1273.25
388.48	1214.74
388.67	1306.02
388.86	1261.55
389.06	1301.34
389.25	1345.81
389.45	1336.45
389.64	1327.08
389.84	1345.81
390.03	1497.94
390.22	1397.30
390.42	1364.53
390.61	1350.49
390.81	1423.05
391.00	1401.98
391.19	1458.15
391.39	1483.90
391.58	1469.86
391.78	1486.24
391.97	1476.88
392.16	1554.12
392.36	1472.20
392.55	1481.56
392.75	1497.94
392.94	1516.67
393.13	1556.46
393.33	1607.95
393.52	1570.50
393.71	1570.50
393.91	1586.88
394.10	1610.29
394.29	1598.59
394.49	1710.93
394.68	1589.22
394.88	1614.97
395.07	1612.63
395.26	1607.95
395.46	1844.34
395.65	1650.08
395.84	1720.29
396.04	1699.23
396.23	1827.96
396.42	1668.80
396.62	1827.96
396.81	1820.94
397.00	1788.17
397.19	1811.57
397.39	1760.08
397.58	1769.44
397.77	1921.58
397.97	1811.57
398.16	1785.83
398.35	1930.94
398.55	1968.39
398.74	1996.48
398.93	2101.80
399.12	1984.77
399.32	1977.75
399.51	1837.32
399.70	1944.99
399.90	1935.62
400.09	2033.93
400.28	2078.40
400.47	2078.40
400.67	2083.08
400.86	2148.61
401.05	2139.25
401.24	2083.08
401.44	2059.67
401.63	2040.95
401.82	2195.42
402.01	2132.23
402.21	2211.81
402.40	2232.87
402.59	2237.55
402.78	2256.28
402.97	2291.38
403.17	2136.91
403.36	2373.30
403.55	2298.41
403.74	2504.37
403.93	2429.48
404.13	2300.75
404.32	2354.58
404.51	2429.48
404.70	2459.90
404.89	2441.18
405.09	2525.44
405.28	2464.58
405.47	2462.24
405.66	2464.58
405.85	2612.04
406.05	2532.46
406.24	2616.72
406.43	2586.29
406.62	2682.25
406.81	2705.66
407.00	2621.40
407.20	2609.70
407.39	2670.55
407.58	2761.83
407.77	2672.89
407.96	2801.62
408.15	2818.00
408.34	2715.02
408.54	2712.68
408.73	2953.76
408.92	2885.88
409.11	2939.71
409.30	2813.32
409.49	2937.37
409.68	2913.97
409.87	2998.23
410.07	2956.10
410.26	3094.19
410.45	3035.67
410.64	3052.06
410.83	3190.15
411.02	3234.62
411.21	3246.32
411.40	3232.28
411.59	3211.22
411.78	3351.65
411.98	3290.79
412.17	3208.87
412.36	3321.22
412.55	3361.01
412.74	3410.16
412.93	3529.53
413.12	3363.35
413.31	3566.98
413.50	3564.64
413.69	3639.53
413.88	3662.94
414.07	3627.83
414.26	3716.77
414.45	3756.56
414.64	3777.62
414.83	3810.39
415.02	3946.14
415.22	3850.18
415.41	3971.89
415.60	3843.16
415.79	4042.11
415.98	4030.40
416.17	4046.79
416.36	3939.12
416.55	3913.38
416.74	4063.17
416.93	4133.39
417.12	4191.90
417.31	4145.09
417.50	4205.94
417.69	4306.59
417.88	4187.22
418.07	4308.93
418.26	4266.80
418.45	4376.80
418.64	4482.13
418.83	4500.85
419.02	4552.34
419.21	4631.92
419.39	4456.38
419.58	4505.53
419.77	4486.81
419.96	4660.01
420.15	4559.36
420.34	4711.50
420.53	4652.98
420.72	4865.97
420.91	4894.06
421.10	4685.75
421.29	4868.31
421.48	4812.14
421.67	4889.38
421.86	4807.46
422.05	4685.75
422.24	4762.99
422.43	4945.55
422.61	4887.04
422.80	5025.13
422.99	4903.42
423.18	4975.98
423.37	5074.28
423.56	5153.86
423.75	4910.44
423.94	4898.74
424.13	4683.41
424.32	4786.40
424.50	5027.47
424.69	5132.79
424.88	5151.52
425.07	4999.38
425.26	4992.36
425.45	4940.87
425.64	5060.24
425.83	5011.09
426.01	5034.49
426.20	5130.45
426.39	5240.46
426.58	5006.41
426.77	5214.71
426.96	5200.67
427.15	5149.18
427.33	5231.10
427.52	5238.12
427.71	5282.59
427.90	5139.82
428.09	5392.59
428.28	5427.70
428.46	5284.93
428.65	5387.91
428.84	5500.26
429.03	5490.90
429.22	5408.98
429.40	5668.78
429.59	5547.07
429.78	5406.64
429.97	5357.49
430.16	5458.13
430.34	5612.60
430.53	5687.50
430.72	5673.46
430.91	5659.42
431.10	5792.83
431.28	5788.14
431.47	5839.64
431.66	5926.24
431.85	5923.90
432.03	5919.21
432.22	6076.03
432.41	5870.06
432.60	6010.50
432.79	6026.88
432.97	6181.35
433.16	6073.69
433.35	5937.94
433.54	6157.95
433.72	6232.85
433.91	6244.55
434.10	6272.64
434.28	6141.57
434.47	6237.53
434.66	6352.21
434.85	6356.90
435.03	6429.45
435.22	6368.60
435.41	6649.46
435.59	6504.35
435.78	6499.67
435.97	6668.19
436.16	6445.84
436.34	6546.48
436.53	6696.27
436.72	6675.21
436.90	6602.65
437.09	6740.74
437.28	6590.95
437.46	6827.34
437.65	6665.85
437.84	6759.47
438.02	6703.29
438.21	6836.70
438.40	6771.17
438.58	6974.80
438.77	6916.28
438.96	6874.15
439.14	7159.70
439.33	7220.55
439.52	7386.73
439.70	7468.65
439.89	7559.93
440.08	7686.32
440.26	7363.33
440.45	7480.35
440.63	7559.93
440.82	7616.10
441.01	7578.65
441.19	7819.73
441.38	7691.00
441.57	7822.07
441.75	7997.61
441.94	8035.06
442.12	8093.57
442.31	8016.33
442.50	8306.56
442.68	8116.98
442.87	8175.49
443.05	7976.55
443.24	8145.06
443.43	8285.50
443.61	8390.82
443.80	8592.11
443.98	8159.11
444.17	7765.90
444.35	8442.31
444.54	8678.71
444.73	8297.20
444.91	8241.03
445.10	8524.23
445.28	8416.57
445.47	8346.35
445.65	8428.27
445.84	8489.12
446.02	8414.23
446.21	8535.93
446.39	8439.97
446.58	8580.40
446.77	8587.43
446.95	8472.74
447.14	8484.44
447.32	8629.56
447.51	8564.02
447.69	8613.17
447.88	8638.92
448.06	8643.60
448.25	8657.64
448.43	8753.60
448.62	8690.41
448.80	8580.40
448.99	8753.60
449.17	8791.05
449.36	8854.25
449.54	8917.44
449.73	9001.70
449.91	9088.30
450.10	9149.15
450.28	8997.02
450.46	9287.25
450.65	9170.22
450.83	9078.94
451.02	9022.77
451.20	9362.14
451.39	9259.16
451.57	9111.71
451.76	9057.87
451.94	9369.16
452.13	9577.47
452.31	9469.81
452.49	9036.81
452.68	9453.42
452.86	9504.92
453.05	9385.55
453.23	9495.55
453.42	9465.13
453.60	9266.18
453.78	9525.98
453.97	9661.73
454.15	9474.49
454.34	9664.07
454.52	9825.57
454.70	9926.21
454.89	9877.06
455.07	9884.08
455.26	9916.85
455.44	9781.10
455.62	10071.33
455.81	9893.44
455.99	10026.86
456.17	10279.63
456.36	10312.40
456.54	10291.34
456.73	10380.28
456.91	10541.77
457.09	10462.19
457.28	10658.80
457.46	10501.98
457.64	10869.45
457.83	10698.59
458.01	10691.57
458.19	10626.03
458.38	10733.70
458.56	10649.44
458.74	10768.80
458.93	10759.44
459.11	10778.17
459.29	10899.87
459.48	10918.60
459.66	11101.16
459.84	11061.37
460.03	11215.85
460.21	11232.23
460.39	11349.26
460.57	11145.63
460.76	11552.88
460.94	11276.70
461.12	11239.25
461.31	11318.83
461.49	11115.20
461.67	11286.06
461.85	11438.20
462.04	11377.34
462.22	11681.61
462.40	11658.21
462.59	11580.97
462.77	11445.22
462.95	11714.38
463.13	11683.95
463.32	11754.17
463.50	11861.84
463.68	12163.76
463.86	12088.87
464.05	11695.66
464.23	12037.38
464.41	11910.99
464.59	11913.33
464.78	12259.73
464.96	12107.59
465.14	12011.63
465.32	12233.98
465.50	12329.94
465.69	12458.67
465.87	12360.37
466.05	12140.36
466.23	12093.55
466.41	12699.75
466.60	12599.10
466.78	12343.99
466.96	12465.69
467.14	12620.17
467.32	12435.27
467.51	12709.11
467.69	12084.19
467.87	12629.53
468.05	12636.55
468.23	12582.72
468.41	12496.12
468.60	12793.37
468.78	12774.64
468.96	12791.03
469.14	12795.71
469.32	13172.54
469.50	12947.84
469.69	13142.11
469.87	13191.26
470.05	13315.31
470.23	13219.35
470.41	13312.97
470.59	13315.31
470.77	13413.61
470.95	13397.23
471.14	13607.87
471.32	13305.95
471.50	13752.99
471.68	13816.18
471.86	13893.42
472.04	13902.78
472.22	14237.48
472.40	13888.74
472.58	13795.12
472.77	14160.24
472.95	14401.32
473.13	14824.95
473.31	14148.54
473.49	14277.27
473.67	14242.16
473.85	14389.61
474.03	14794.53
474.21	14705.59
474.39	15040.28
474.57	14813.25
474.75	15030.92
474.93	14934.96
475.12	15012.20
475.30	15339.87
475.48	15119.86
475.66	15646.48
475.84	15503.71
476.02	15587.97
476.20	15611.37
476.38	15822.02
476.56	16081.82
476.74	16329.92
476.92	16276.09
477.10	15807.98
477.28	16343.96
477.46	16486.73
477.64	16318.22
477.82	16851.86
478.00	17270.81
478.18	17018.04
478.36	17193.58
478.54	17341.03
478.72	17528.27
478.90	17759.98
479.08	18003.40
479.26	17862.97
479.44	18115.75
479.62	18148.51
479.80	18457.46
479.98	18607.26
480.16	18473.85
480.34	18810.89
480.52	18689.18
480.70	18614.28
480.88	18773.44
481.06	18813.23
481.24	18902.17
481.41	19468.58
481.59	19564.54
481.77	19807.95
481.95	19646.46
482.13	20285.42
482.31	20027.96
482.49	20407.13
482.67	20290.10
482.85	20350.96
483.03	20868.22
483.21	21025.03
483.39	21287.17
483.57	21263.77
483.74	21315.26
483.92	21769.32
484.10	21888.69
484.28	21940.18
484.46	22377.86
484.64	22815.54
484.82	22216.36
485.00	22785.12
485.18	22703.20
485.35	23314.08
485.53	23234.50
485.71	23246.20
485.89	23466.21
486.07	23175.98
486.25	23618.35
486.43	23936.66
486.61	24140.29
486.78	24442.21
486.96	24322.85
487.14	24599.03
487.32	24606.05
487.50	25378.43
487.68	25064.80
487.85	25647.59
488.03	26024.42
488.21	26356.77
488.39	26199.96
488.57	26281.88
488.75	26349.75
488.92	26848.29
489.10	27033.19
489.28	27140.85
489.46	27119.79
489.64	27264.90
489.81	28027.92
489.99	27777.48
490.17	28034.94
490.35	28191.75
490.53	28613.05
490.70	28519.43
490.88	28432.83
491.06	28978.17
491.24	29347.98
491.41	29532.88
491.59	29486.07
491.77	29310.53
491.95	29940.13
492.13	30066.52
492.30	30464.41
492.48	30211.64
492.66	30307.60
492.84	30705.49
493.01	30656.34
493.19	30993.37
493.37	31405.31
493.54	31527.02
493.72	31821.92
493.90	31339.77
494.08	32039.59
494.25	32423.44
494.43	32500.68
494.61	32921.98
494.79	32996.87
494.96	32711.33
495.14	33240.29
495.32	33467.32
495.49	33488.38
495.67	33802.02
495.85	34106.29
496.02	34005.64
496.20	34658.65
496.38	34644.61
496.55	34813.13
496.73	35037.82
496.91	34979.31
497.09	34644.61
497.26	35435.71
497.44	35248.47
497.62	35625.29
497.79	36102.76
497.97	36137.87
498.14	36477.25
498.32	36219.79
498.50	36566.19
498.67	36655.13
498.85	37081.11
499.03	36935.99
499.20	36758.11
499.38	37483.68
499.56	37874.55
499.73	37305.80
499.91	37565.60
500.08	37904.98
500.26	37794.97
500.44	38319.25
500.61	38480.75
500.79	38078.18
500.97	38827.15
501.14	39136.10
501.32	38808.42
501.49	39159.50
501.67	39133.76
501.84	39358.45
502.02	39489.52
502.20	39613.57
502.37	39744.64
502.55	39643.99
502.72	40163.59
502.90	40418.71
503.07	39908.47
503.25	40367.22
503.43	40079.33
503.60	40664.47
503.78	40683.19
503.95	40835.33
504.13	41195.77
504.30	41244.92
504.48	40921.93
504.65	41010.87
504.83	41163.00
505.01	41390.03
505.18	41483.66
505.36	41909.63
505.53	41507.06
505.71	42162.41
505.88	42370.72
506.06	42050.06
506.23	42302.84
506.41	41947.08
506.58	42361.36
506.76	42433.91
506.93	43077.56
507.11	42586.05
507.28	42897.34
507.46	42567.32
507.63	43746.95
507.81	43791.42
507.98	43339.70
508.16	43704.82
508.33	43969.30
508.50	44264.21
508.68	44215.06
508.85	44261.87
509.03	43889.73
509.20	44603.59
509.38	44907.86
509.55	44954.67
509.73	45106.80
509.90	45244.90
510.08	44807.22
510.25	44875.09
510.42	45387.67
510.60	45230.85
510.77	45467.25
510.95	45722.37
511.12	45574.91
511.30	45984.51
511.47	45921.31
511.64	45986.85
511.82	46401.12
511.99	46251.33
512.17	46323.88
512.34	46419.84
512.51	46838.80
512.69	46948.81
512.86	46569.64
513.04	47175.84
513.21	47019.02
513.38	47250.74
513.56	47154.77
513.73	47400.53
513.90	47590.11
514.08	47442.66
514.25	47529.26
514.43	47948.21
514.60	48198.65
514.77	48170.57
514.95	48348.45
515.12	47746.93
515.29	48219.72
515.47	48135.46
515.64	48540.37
515.81	48383.55
515.99	48704.21
516.16	48758.04
516.33	48718.25
516.51	49200.40
516.68	48729.95
516.85	49148.91
517.03	49567.87
517.20	48956.99
517.37	49123.16
517.54	49514.03
517.72	49256.57
517.89	50071.08
518.06	49827.66
518.24	49698.94
518.41	49900.22
518.58	49682.55
518.75	49490.63
518.93	49773.83
519.10	49951.71
519.27	49801.92
519.45	50160.02
519.62	50251.30
519.79	50550.89
519.96	50227.90
520.14	50382.37
520.31	50185.77
520.48	50532.17
520.65	50422.16
520.83	51138.36
521.00	50768.56
521.17	50925.38
521.34	51103.26
521.52	51295.18
521.69	51213.26
521.86	51437.95
522.03	51536.26
522.20	51690.73
522.38	51861.59
522.55	52149.48
522.72	51763.29
522.89	51599.45
523.07	52257.14
523.24	51756.27
523.41	52154.16
523.58	51700.09
523.75	52397.57
523.92	52296.93
524.10	52404.59
524.27	52645.67
524.44	52402.25
524.61	52561.41
524.78	52715.89
524.96	52500.56
525.13	52835.25
525.30	52861.00
525.47	52765.04
525.64	52879.72
525.81	52853.98
525.98	53230.80
526.16	52736.95
526.33	53251.87
526.50	53167.61
526.67	53193.36
526.84	53359.53
527.01	53361.87
527.18	53254.21
527.36	53333.79
527.53	53240.17
527.70	53815.94
527.87	53785.51
528.04	53495.28
528.21	53858.07
528.38	53848.71
528.55	53883.81
528.72	53474.22
528.89	53745.72
529.07	53614.65
529.24	53811.26
529.41	54239.57
529.58	54054.67
529.75	54033.61
529.92	53989.14
530.09	54167.02
530.26	54218.51
530.43	54145.95
530.60	53923.60
530.77	54433.84
530.94	54478.31
531.11	54305.11
531.28	54611.72
531.46	54749.81
531.63	54560.23
531.80	54616.40
531.97	54838.75
532.14	54887.90
532.31	54927.69
532.48	55042.38
532.65	54934.71
532.82	54962.80
532.99	55140.68
533.16	55173.45
533.33	55295.16
533.50	55192.17
533.67	55409.84
533.84	54927.69
534.01	55054.08
534.18	55093.87
534.35	55580.70
534.52	55395.80
534.69	55468.36
534.86	55377.08
535.03	55405.16
535.20	55578.36
535.37	55791.35
535.54	55414.52
535.71	55316.22
535.88	55646.24
536.05	55962.21
536.22	56009.02
536.38	55807.73
536.55	56100.30
536.72	55917.74
536.89	55826.46
537.06	55957.53
537.23	56119.02
537.40	55868.59
537.57	55952.85
537.74	55983.27
537.91	56427.98
538.08	56137.75
538.25	56313.29
538.42	56130.73
538.59	56673.73
538.75	56423.29
538.92	56470.11
539.09	56404.57
539.26	56666.71
539.43	56374.14
539.60	56584.79
539.77	56383.51
539.94	56912.47
540.11	56800.12
540.28	56720.54
540.44	56685.43
540.61	56811.82
540.78	56720.54
540.95	56767.35
541.12	56577.77
541.29	56905.44
541.46	56875.02
541.62	56755.65
541.79	57045.88
541.96	56687.78
542.13	56921.83
542.30	56942.89
542.47	57064.60
542.63	57146.52
542.80	56985.02
542.97	57272.91
543.14	57563.14
543.31	57305.68
543.48	57544.41
543.64	57609.95
543.81	57776.12
543.98	57640.37
544.15	57499.94
544.32	57605.26
544.48	57897.83
544.65	57544.41
544.82	57584.20
544.99	57497.60
545.16	57792.51
545.32	57822.93
545.49	57836.98
545.66	58047.63
545.83	57876.77
546.00	58085.07
546.16	57902.51
546.33	57612.29
546.50	57909.53
546.67	58094.44
546.83	57951.66
547.00	57991.45
547.17	57993.79
547.34	58216.14
547.50	58302.74
547.67	58415.09
547.84	58234.87
548.00	58356.58
548.17	58464.24
548.34	58539.14
548.51	58550.84
548.67	58571.91
548.84	58174.02
549.01	58333.17
549.18	58611.70
549.34	58688.93
549.51	58529.78
549.68	58679.57
549.84	58562.54
550.01	58731.06
550.18	58562.54
550.34	58733.40
550.51	59032.99
550.68	58791.92
550.84	58433.81
551.01	58990.86
551.18	58845.75
551.34	58717.02
551.51	58859.79
551.68	58836.39
551.84	58960.44
552.01	58885.54
552.18	58901.92
552.34	58768.51
552.51	58897.24
552.68	58759.15
552.84	59143.00
553.01	59278.75
553.18	59213.21
553.34	59107.89
553.51	58885.54
553.67	59121.93
553.84	59372.37
554.01	59189.81
554.17	59306.83
554.34	59159.38
554.51	59196.83
554.67	59178.10
554.84	59264.70
555.00	59178.10
555.17	59131.29
555.33	59281.09
555.50	59269.39
555.67	59428.54
555.83	59145.34
556.00	59465.99
556.16	59838.14
556.33	59643.87
556.50	59676.64
556.66	59597.06
556.83	59437.90
556.99	59627.49
557.16	59852.18
557.32	59798.35
557.49	60039.42
557.65	59568.97
557.82	59517.48
557.98	59531.53
558.15	59756.22
558.32	59725.79
558.48	59700.04
558.65	59751.54
558.81	59587.70
558.98	59723.45
559.14	59931.76
559.31	60032.40
559.47	59875.58
559.64	59891.97
559.80	59938.78
559.97	60062.83
560.13	60067.51
560.30	59833.46
560.46	59849.84
560.63	60065.17
560.79	59898.99
560.96	60193.90
561.12	59957.50
561.29	60044.10
561.45	60025.38
561.61	60060.49
561.78	60212.62
561.94	60163.47
562.11	60130.70
562.27	60100.28
562.44	60203.26
562.60	60268.79
562.77	60114.32
562.93	59903.67
563.10	60107.30
563.26	60156.45
563.42	60507.53
563.59	60137.72
563.75	60240.71
563.92	60294.54
564.08	60130.70
564.24	60610.51
564.41	60371.78
564.57	60591.79
564.74	60367.10
564.90	60528.59
565.07	60486.46
565.23	60182.19
565.39	60353.05
565.56	60467.74
565.72	60526.25
565.88	60437.31
566.05	60395.18
566.21	60516.89
566.38	60535.62
566.54	60825.84
566.70	60516.89
566.87	60640.94
567.03	60463.06
567.19	60575.40
567.36	60596.47
567.52	60563.70
567.68	60725.20
567.85	60563.70
568.01	60753.29
568.17	60720.52
568.34	60741.58
568.50	60666.69
568.66	60486.46
568.83	60802.44
568.99	60645.62
569.15	60467.74
569.32	60746.26
569.48	60610.51
569.64	60694.77
569.81	60619.88
569.97	60694.77
570.13	60783.71
570.30	60729.88
570.46	60706.47
570.62	60879.67
570.78	60741.58
570.95	60783.71
571.11	60860.95
571.27	60807.12
571.43	60657.32
571.60	61062.24
571.76	60844.57
571.92	60980.32
572.09	60912.44
572.25	60839.89
572.41	60678.39
572.57	60863.29
572.74	61020.11
572.90	60896.06
573.06	60949.89
573.22	60818.82
573.38	60816.48
573.55	60931.17
573.71	61214.37
573.87	61087.98
574.03	60823.50
574.20	60837.54
574.36	60870.31
574.52	61214.37
574.68	61031.81
574.84	61050.53
575.01	60891.38
575.17	60886.70
575.33	60842.23
575.49	60963.93
575.65	60973.30
575.82	61006.06
575.98	61214.37
576.14	61120.75
576.30	61059.90
576.46	60949.89
576.62	61071.60
576.79	61017.77
576.95	60828.18
577.11	61127.77
577.27	61158.20
577.43	61188.63
577.59	60882.02
577.75	60980.32
577.92	60931.17
578.08	60935.85
578.24	61233.10
578.40	61202.67
578.56	61242.46
578.72	61073.94
578.88	61240.12
579.04	61329.06
579.21	61174.58
579.37	61345.44
579.53	61429.70
579.69	61090.32
579.85	61099.68
580.01	61106.71
580.17	60910.10
580.33	61193.31
580.49	61247.14
580.65	61109.05
580.82	61132.45
580.98	61013.08
581.14	61083.30
581.30	61380.55
581.46	61137.13
581.62	61275.22
581.78	61134.79
581.94	61179.26
582.10	61064.58
582.26	61282.25
582.42	61286.93
582.58	61221.39
582.74	61148.84
582.90	61326.72
583.06	61130.11
583.22	61078.62
583.38	61071.60
583.54	61289.27
583.70	61315.01
583.86	61275.22
584.02	61221.39
584.18	61223.73
584.34	61212.03
584.50	61052.87
584.66	61102.03
584.82	61127.77
584.98	61389.91
585.14	61272.88
585.30	61090.32
585.46	61209.69
585.62	61293.95
585.78	61434.38
585.94	61254.16
586.10	61244.80
586.26	61195.65
586.42	61441.40
586.58	61268.20
586.74	61212.03
586.90	61153.52
587.06	61261.18
587.22	61474.17
587.38	61516.30
587.54	61375.87
587.70	61549.07
587.86	61291.61
588.02	61263.52
588.18	61389.91
588.34	61195.65
588.49	61300.97
