SpectraSuite Data File
++++++++++++++++++++++++++++++++++++
Date: Fri Oct 25 11:22:58 EDT 2013
User: price-jones
Dark Spectrum Present: No
Reference Spectrum Present: No
Number of Sampled Component Spectra: 1
Spectrometers: USB2+H05261
Integration Time (usec): 100000 (USB2+H05261)
Spectra Averaged: 1 (USB2+H05261)
Boxcar Smoothing: 0 (USB2+H05261)
Correct for Electrical Dark: No (USB2+H05261)
Strobe/Lamp Enabled: No (USB2+H05261)
Correct for Detector Non-linearity: No (USB2+H05261)
Correct for Stray Light: No (USB2+H05261)
Number of Pixels in Processed Spectrum: 2048
>>>>>Begin Processed Spectral Data<<<<<
365.73	278.52
365.92	278.52
366.12	278.52
366.32	163.84
366.52	110.01
366.72	81.92
366.91	145.11
367.11	95.96
367.31	28.09
367.51	208.31
367.70	168.52
367.90	194.26
368.10	114.69
368.30	112.35
368.49	112.35
368.69	140.43
368.89	149.79
369.09	205.97
369.28	177.88
369.48	142.77
369.68	170.86
369.87	241.08
370.07	196.60
370.27	238.73
370.47	353.42
370.66	601.52
370.86	610.88
371.06	599.18
371.25	653.01
371.45	645.99
371.65	690.46
371.84	631.94
372.04	676.41
372.24	676.41
372.44	650.67
372.63	723.23
372.83	748.97
373.03	812.17
373.22	765.36
373.42	753.65
373.62	791.10
373.81	739.61
374.01	744.29
374.21	880.04
374.40	746.63
374.60	894.08
374.79	744.29
374.99	814.51
375.19	800.46
375.38	802.80
375.58	835.57
375.78	812.17
375.97	856.64
376.17	912.81
376.37	819.19
376.56	887.06
376.76	763.01
376.95	866.00
377.15	863.66
377.35	851.96
377.54	945.58
377.74	844.93
377.93	837.91
378.13	952.60
378.33	971.32
378.52	919.83
378.72	875.36
378.91	905.79
379.11	985.37
379.31	1036.86
379.50	1013.45
379.70	964.30
379.89	943.24
380.09	952.60
380.28	1029.84
380.48	1004.09
380.68	997.07
380.87	931.53
381.07	1039.20
381.26	1043.88
381.46	1015.79
381.65	1004.09
381.85	1109.41
382.04	997.07
382.24	1039.20
382.43	1093.03
382.63	1071.97
382.83	1039.20
383.02	1086.01
383.22	1100.05
383.41	1078.99
383.61	1088.35
383.80	1174.95
384.00	1158.57
384.19	1036.86
384.39	1137.50
384.58	1193.67
384.78	1132.82
384.97	1144.52
385.17	1090.69
385.36	1158.57
385.56	1196.01
385.75	1191.33
385.95	1121.12
386.14	1308.36
386.34	1203.04
386.53	1160.91
386.72	1160.91
386.92	1254.53
387.11	1273.25
387.31	1233.46
387.50	1245.16
387.70	1348.15
387.89	1270.91
388.09	1231.12
388.28	1418.36
388.48	1345.81
388.67	1263.89
388.86	1320.06
389.06	1348.15
389.25	1322.40
389.45	1277.93
389.64	1313.04
389.84	1392.62
390.03	1315.38
390.22	1324.74
390.42	1329.42
390.61	1385.60
390.81	1404.32
391.00	1467.52
391.19	1465.18
391.39	1479.22
391.58	1476.88
391.78	1497.94
391.97	1530.71
392.16	1460.49
392.36	1458.15
392.55	1476.88
392.75	1509.65
392.94	1497.94
393.13	1561.14
393.33	1540.07
393.52	1617.31
393.71	1544.75
393.91	1570.50
394.10	1528.37
394.29	1563.48
394.49	1610.29
394.68	1624.33
394.88	1668.80
395.07	1650.08
395.26	1664.12
395.46	1664.12
395.65	1591.56
395.84	1743.70
396.04	1827.96
396.23	1736.68
396.42	1790.51
396.62	1785.83
396.81	1776.47
397.00	1774.13
397.19	1734.34
397.39	1811.57
397.58	1909.88
397.77	1849.02
397.97	1844.34
398.16	1905.20
398.35	1912.22
398.55	1884.13
398.74	1923.92
398.93	1966.05
399.12	1881.79
399.32	1921.58
399.51	1977.75
399.70	2069.03
399.90	2001.16
400.09	2005.84
400.28	2073.71
400.47	2094.78
400.67	2033.93
400.86	2148.61
401.05	2183.72
401.24	2069.03
401.44	2160.31
401.63	2150.95
401.82	2083.08
402.01	2162.66
402.21	2176.70
402.40	2139.25
402.59	2195.42
402.78	2239.89
402.97	2167.34
403.17	2282.02
403.36	2321.81
403.55	2260.96
403.74	2436.50
403.93	2275.00
404.13	2408.41
404.32	2396.71
404.51	2296.07
404.70	2387.35
404.89	2429.48
405.09	2431.82
405.28	2516.08
405.47	2420.11
405.66	2574.59
405.85	2595.65
406.05	2544.16
406.24	2635.44
406.43	2555.86
406.62	2626.08
406.81	2700.98
407.00	2581.61
407.20	2569.91
407.39	2677.57
407.58	2726.72
407.77	2715.02
407.96	2836.73
408.15	2799.28
408.34	2682.25
408.54	2724.38
408.73	2862.48
408.92	2909.29
409.11	2958.44
409.30	2923.33
409.49	3066.10
409.68	2911.63
409.87	2848.43
410.07	3035.67
410.26	3007.59
410.45	3148.02
410.64	3007.59
410.83	3096.53
411.02	3204.19
411.21	3253.34
411.40	3199.51
411.59	3311.86
411.78	3255.69
411.98	3274.41
412.17	3311.86
412.36	3323.56
412.55	3358.67
412.74	3323.56
412.93	3461.65
413.12	3452.29
413.31	3566.98
413.50	3541.23
413.69	3557.61
413.88	3684.00
414.07	3618.47
414.26	3599.74
414.45	3674.64
414.64	3777.62
414.83	3873.59
415.02	3882.95
415.22	3892.31
415.41	3929.76
415.60	3950.82
415.79	3803.37
415.98	3957.85
416.17	4091.26
416.36	4023.38
416.55	4058.49
416.74	4124.02
416.93	3974.23
417.12	4159.13
417.31	4065.51
417.50	4177.86
417.69	4308.93
417.88	4308.93
418.07	4407.23
418.26	4222.33
418.45	4444.68
418.64	4465.74
418.83	4484.47
419.02	4400.21
419.21	4603.83
419.39	4720.86
419.58	4582.77
419.77	4486.81
419.96	4496.17
420.15	4692.77
420.34	4737.24
420.53	4624.90
420.72	4847.25
420.91	4557.02
421.10	4788.74
421.29	4802.78
421.48	4674.05
421.67	4821.50
421.86	4858.95
422.05	4833.21
422.24	4737.24
422.43	4971.30
422.61	4870.65
422.80	4985.34
422.99	4917.47
423.18	5116.41
423.37	5252.16
423.56	4940.87
423.75	4807.46
423.94	4880.02
424.13	4809.80
424.32	4748.95
424.50	5062.58
424.69	5060.24
424.88	5158.54
425.07	4910.44
425.26	4889.38
425.45	4837.89
425.64	4877.68
425.83	5015.77
426.01	5020.45
426.20	5008.75
426.39	5224.08
426.58	5074.28
426.77	5100.03
426.96	5179.61
427.15	5081.30
427.33	5158.54
427.52	5170.24
427.71	5296.63
427.90	5240.46
428.09	5399.62
428.28	5493.24
428.46	5430.04
428.65	5303.65
428.84	5439.40
429.03	5614.95
429.22	5224.08
429.40	5509.62
429.59	5589.20
429.78	5308.34
429.97	5357.49
430.16	5476.85
430.34	5692.18
430.53	5799.85
430.72	5771.76
430.91	5643.03
431.10	5600.90
431.28	5783.46
431.47	5818.57
431.66	5844.32
431.85	5717.93
432.03	5914.53
432.22	6069.01
432.41	5891.13
432.60	6001.13
432.79	5970.71
432.97	6134.54
433.16	6057.31
433.35	6108.80
433.54	6033.90
433.72	6218.80
433.91	6256.25
434.10	6289.02
434.28	6230.51
434.47	6230.51
434.66	6188.38
434.85	6375.62
435.03	6366.26
435.22	6342.85
435.41	6619.04
435.59	6469.24
435.78	6328.81
435.97	6551.16
436.16	6492.65
436.34	6480.94
436.53	6633.08
436.72	6750.10
436.90	6633.08
437.09	6628.40
437.28	6452.86
437.46	6766.49
437.65	6736.06
437.84	6815.64
438.02	6881.18
438.21	6897.56
438.40	6869.47
438.58	7091.82
438.77	7126.93
438.96	6895.22
439.14	7115.23
439.33	7229.91
439.52	7304.81
439.70	7267.36
439.89	7421.84
440.08	7403.11
440.26	7403.11
440.45	7258.00
440.63	7339.92
440.82	7485.03
441.01	7686.32
441.19	7590.36
441.38	7801.01
441.57	7679.30
441.75	7838.45
441.94	8112.30
442.12	8006.97
442.31	8234.00
442.50	7896.97
442.68	8004.63
442.87	8088.89
443.05	8170.81
443.24	8376.78
443.43	8180.17
443.61	8250.39
443.80	8454.02
443.98	8051.44
444.17	7836.11
444.35	8278.47
444.54	8421.25
444.73	8505.51
444.91	8369.76
445.10	8496.14
445.28	8446.99
445.47	8327.63
445.65	8407.20
445.84	8437.63
446.02	8500.83
446.21	8610.83
446.39	8432.95
446.58	8601.47
446.77	8517.21
446.95	8442.31
447.14	8702.11
447.32	8535.93
447.51	8547.64
447.69	8472.74
447.88	8542.96
448.06	8645.94
448.25	8704.45
448.43	8645.94
448.62	8760.63
448.80	8674.03
448.99	8875.31
449.17	8812.12
449.36	8669.34
449.54	8919.78
449.73	8938.51
449.91	9114.05
450.10	9006.38
450.28	9104.68
450.46	9144.47
450.65	9165.54
450.83	9041.49
451.02	9092.98
451.20	9277.88
451.39	9249.80
451.57	9006.38
451.76	9046.17
451.94	9263.84
452.13	9509.60
452.31	9413.63
452.49	9254.48
452.68	9401.93
452.86	9465.13
453.05	9628.96
453.23	9544.70
453.42	9415.98
453.60	9579.81
453.78	9530.66
453.97	9430.02
454.15	9689.82
454.34	9605.56
454.52	9834.93
454.70	9551.73
454.89	9856.00
455.07	9643.01
455.26	10024.51
455.44	10157.92
455.62	10047.92
455.81	10050.26
455.99	10059.62
456.17	10239.84
456.36	10178.99
456.54	10120.48
456.73	10361.55
456.91	10408.36
457.09	10457.51
457.28	10654.12
457.46	10485.60
457.64	10567.52
457.83	10747.74
458.01	10450.49
458.19	10747.74
458.38	10750.08
458.56	10712.63
458.74	10782.85
458.93	10902.22
459.11	10827.32
459.29	10820.30
459.48	10846.04
459.66	10916.26
459.84	11052.01
460.03	11194.78
460.21	11192.44
460.39	11047.33
460.57	11129.25
460.76	11023.92
460.94	11082.44
461.12	11007.54
461.31	11124.57
461.49	11272.02
461.67	11405.43
461.85	11531.82
462.04	11468.62
462.22	11573.95
462.40	11700.34
462.59	11552.88
462.77	11487.35
462.95	11669.91
463.13	11805.66
463.32	11957.80
463.50	11871.20
463.68	11992.90
463.86	11913.33
464.05	11623.10
464.23	11948.43
464.41	11925.03
464.59	12131.00
464.78	12030.35
464.96	11885.24
465.14	11810.34
465.32	11978.86
465.50	12264.41
465.69	12140.36
465.87	12430.59
466.05	12212.92
466.23	11934.39
466.41	12479.74
466.60	12465.69
466.78	12203.55
466.96	12358.03
467.14	12383.77
467.32	12624.85
467.51	12629.53
467.69	12079.50
467.87	12730.17
468.05	12629.53
468.23	12573.36
468.41	12723.15
468.60	12489.10
468.78	12842.52
468.96	12547.61
469.14	12791.03
469.32	12964.23
469.50	12898.69
469.69	13146.79
469.87	13352.76
470.05	13312.97
470.23	13275.52
470.41	13455.74
470.59	13465.10
470.77	13392.55
470.95	13345.73
471.14	13678.09
471.32	13137.43
471.50	13790.44
471.68	13830.23
471.86	13750.65
472.04	13680.43
472.22	14146.20
472.40	13668.73
472.58	13926.19
472.77	13905.12
472.95	14331.10
473.13	14544.09
473.31	14305.35
473.49	14317.06
473.67	14246.84
473.85	14443.45
474.03	14604.94
474.21	14642.39
474.39	14656.43
474.57	14824.95
474.75	14972.41
474.93	15276.68
475.12	15016.88
475.30	15454.56
475.48	15054.33
475.66	15775.21
475.84	15346.89
476.02	15438.17
476.20	15616.05
476.38	15651.16
476.56	16287.79
476.74	16453.97
476.92	16182.46
477.10	16046.71
477.28	15983.52
477.46	16449.28
477.64	16463.33
477.82	16905.69
478.00	17008.67
478.18	16872.92
478.36	17179.53
478.54	17341.03
478.72	17305.92
478.90	17518.91
479.08	17865.31
479.26	17638.28
479.44	18085.32
479.62	18274.90
479.80	18295.97
479.98	18375.55
480.16	18754.71
480.34	18298.31
480.52	18888.12
480.70	18792.16
480.88	18497.25
481.06	19054.30
481.24	18796.84
481.41	18895.14
481.59	19627.73
481.77	19686.25
481.95	19908.60
482.13	19644.12
482.31	19967.11
482.49	20673.95
482.67	19971.79
482.85	20599.05
483.03	20795.66
483.21	20940.77
483.39	21160.78
483.57	21193.55
483.74	21266.11
483.92	21460.37
484.10	21451.01
484.28	21762.30
484.46	22146.15
484.64	22609.58
484.82	22382.54
485.00	22525.32
485.18	22845.97
485.35	23243.86
485.53	23037.89
485.71	23143.22
485.89	24191.78
486.07	23309.40
486.25	23517.70
486.43	24020.92
486.61	24147.31
486.78	24332.21
486.96	24343.91
487.14	24823.72
487.32	25069.48
487.50	25184.16
487.68	25252.04
487.85	25401.83
488.03	25769.30
488.21	26085.27
488.39	26113.36
488.57	26394.22
488.75	26307.62
488.92	26548.70
489.10	27344.48
489.28	27063.61
489.46	27307.03
489.64	27243.84
489.81	27929.61
489.99	27819.61
490.17	27974.08
490.35	28563.90
490.53	28336.87
490.70	28840.08
490.88	28641.14
491.06	29188.82
491.24	29113.92
491.41	29434.58
491.59	29493.09
491.77	29575.01
491.95	29783.32
492.13	30167.16
492.30	30026.73
492.48	30293.55
492.66	30686.76
492.84	30642.29
493.01	30909.11
493.19	30904.43
493.37	31335.09
493.54	31620.64
493.72	31903.84
493.90	31768.09
494.08	31840.65
494.25	32257.26
494.43	32407.06
494.61	32582.60
494.79	32811.97
494.96	32397.70
495.14	33043.68
495.32	33308.16
495.49	33188.80
495.67	33612.43
495.85	33720.10
496.02	33970.54
496.20	34539.29
496.38	34408.22
496.55	34448.00
496.73	35597.21
496.91	34888.03
497.09	35314.00
497.26	35229.74
497.44	34953.56
497.62	35576.14
497.79	36170.64
497.97	35910.84
498.14	36411.71
498.32	36570.87
498.50	36605.98
498.67	36566.19
498.85	37123.24
499.03	36730.03
499.20	37116.22
499.38	37368.99
499.56	37535.17
499.73	37771.57
499.91	37476.66
500.08	37839.44
500.26	37493.04
500.44	38293.50
500.61	38363.72
500.79	38092.22
500.97	38305.21
501.14	38815.44
501.32	38983.96
501.49	39220.36
501.67	38660.97
501.84	39569.10
502.02	39583.14
502.20	39482.50
502.37	39999.76
502.55	39487.18
502.72	39365.47
502.90	40135.51
503.07	39622.93
503.25	40182.32
503.43	40123.80
503.60	40659.79
503.78	40437.44
503.95	40556.80
504.13	40811.92
504.30	40889.16
504.48	40694.89
504.65	41048.32
504.83	41483.66
505.01	41668.56
505.18	41343.22
505.36	41741.11
505.53	41600.68
505.71	41869.84
505.88	42197.52
506.06	41940.06
506.23	42164.75
506.41	42038.36
506.58	42419.87
506.76	42623.50
506.93	42714.78
507.11	42597.75
507.28	42831.80
507.46	42932.45
507.63	43342.04
507.81	43814.83
507.98	43201.61
508.16	43412.26
508.33	43789.08
508.50	43922.49
508.68	43936.54
508.85	44308.68
509.03	44081.65
509.20	44245.49
509.38	44767.43
509.55	44961.69
509.73	44900.84
509.90	44985.10
510.08	44685.51
510.25	45099.78
510.42	45036.59
510.60	45514.06
510.77	45471.93
510.95	46003.23
511.12	45680.24
511.30	45567.89
511.47	46167.07
511.64	45865.14
511.82	46284.09
511.99	46164.73
512.17	46417.50
512.34	46171.75
512.51	46927.74
512.69	46717.09
512.86	46501.76
513.04	47173.50
513.21	46820.08
513.38	47208.61
513.56	47447.34
513.73	47213.29
513.90	47377.12
514.08	47196.90
514.25	47676.71
514.43	47833.53
514.60	47578.41
514.77	47697.78
514.95	48168.22
515.12	47681.39
515.29	47863.96
515.47	48374.19
515.64	48402.28
515.81	47878.00
515.99	48580.16
516.16	48968.69
516.33	48603.56
516.51	48996.77
516.68	49102.10
516.85	48502.92
517.03	49249.55
517.20	49059.97
517.37	49411.05
517.54	49509.35
517.72	49045.93
517.89	49354.88
518.06	49279.98
518.24	49822.98
518.41	49736.38
518.58	49696.59
518.75	49762.13
518.93	49680.21
519.10	49911.92
519.27	49848.73
519.45	50106.19
519.62	50564.93
519.79	50522.80
519.96	50138.96
520.14	50370.67
520.31	50188.11
520.48	50653.87
520.65	50656.21
520.83	50908.99
521.00	51213.26
521.17	50983.89
521.34	50904.31
521.52	50679.62
521.69	51096.24
521.86	51400.50
522.03	51220.28
522.20	51608.81
522.38	51765.63
522.55	51416.89
522.72	51859.25
522.89	51735.20
523.07	51786.69
523.24	51835.84
523.41	52172.88
523.58	51983.30
523.75	52484.17
523.92	52238.42
524.10	52397.57
524.27	52273.52
524.44	52673.76
524.61	52413.96
524.78	52683.12
524.96	52472.47
525.13	52683.12
525.30	52545.03
525.47	52994.41
525.64	53111.44
525.81	52821.21
525.98	52985.05
526.16	52807.17
526.33	53078.67
526.50	53411.02
526.67	52975.69
526.84	53226.12
527.01	53017.82
527.18	52891.43
527.36	53153.57
527.53	53268.25
527.70	53785.51
527.87	53694.23
528.04	53305.70
528.21	53691.89
528.38	53755.08
528.55	53801.89
528.72	53528.05
528.89	53853.39
529.07	53872.11
529.24	53799.55
529.41	53918.92
529.58	53993.82
529.75	53820.62
529.92	54085.10
530.09	54000.84
530.26	54049.99
530.43	54429.16
530.60	53954.03
530.77	54033.61
530.94	54431.50
531.11	54396.39
531.28	54377.67
531.46	54543.84
531.63	54571.93
531.80	54485.33
531.97	54628.10
532.14	54944.08
532.31	54885.56
532.48	54866.84
532.65	54852.80
532.82	54784.92
532.99	54925.35
533.16	54918.33
533.33	55222.60
533.50	55447.29
533.67	54848.11
533.84	54653.85
534.01	55236.64
534.18	55145.36
534.35	55664.96
534.52	55451.97
534.69	55746.88
534.86	55590.06
535.03	54988.55
535.20	55831.14
535.37	55510.49
535.54	55620.49
535.71	55505.80
535.88	55702.41
536.05	55676.66
536.22	56048.81
536.38	55697.73
536.55	55779.65
536.72	55934.12
536.89	55927.10
537.06	55571.34
537.23	55903.70
537.40	55671.98
537.57	55983.27
537.74	56027.74
537.91	56163.50
538.08	56182.22
538.25	56039.45
538.42	56315.63
538.59	56404.57
538.75	56383.51
538.92	56198.60
539.09	56528.62
539.26	56200.94
539.43	56177.54
539.60	56465.42
539.77	56313.29
539.94	56732.25
540.11	56542.66
540.28	56491.17
540.44	56404.57
540.61	56809.48
540.78	56671.39
540.95	56704.16
541.12	56842.25
541.29	56685.43
541.46	56479.47
541.62	56694.80
541.79	56821.19
541.96	56638.62
542.13	56844.59
542.30	56832.89
542.47	57095.03
542.63	57209.71
542.80	57001.41
542.97	57310.36
543.14	57544.41
543.31	57457.81
543.48	57373.55
543.64	57759.74
543.81	57626.33
543.98	57528.03
544.15	57513.98
544.32	57766.76
544.48	57750.38
544.65	57640.37
544.82	57790.17
544.99	57633.35
545.16	57485.90
545.32	57623.99
545.49	57841.66
545.66	57867.40
545.83	57738.68
546.00	57944.64
546.16	58113.16
546.33	57560.79
546.50	57574.84
546.67	57996.13
546.83	57780.81
547.00	57741.02
547.17	57895.49
547.34	58049.97
547.50	58124.86
547.67	58539.14
547.84	58260.62
548.00	58185.72
548.17	58497.01
548.34	58356.58
548.51	58548.50
548.67	58527.44
548.84	58190.40
549.01	58527.44
549.18	58417.43
549.34	58670.21
549.51	58618.72
549.68	58424.45
549.84	58410.41
550.01	58787.24
550.18	58417.43
550.34	58766.17
550.51	58564.88
550.68	58710.00
550.84	58443.18
551.01	58838.73
551.18	58691.27
551.34	58763.83
551.51	58948.73
551.68	58965.12
551.84	58869.15
552.01	58768.51
552.18	59023.63
552.34	58789.58
552.51	58946.39
552.68	58768.51
552.84	58827.02
553.01	59138.32
553.18	59016.61
553.34	59049.38
553.51	58808.30
553.67	58953.41
553.84	59297.47
554.01	59154.70
554.17	59264.70
554.34	59318.54
554.51	59269.39
554.67	59058.74
554.84	59215.55
555.00	59178.10
555.17	59241.30
555.33	59096.19
555.50	59377.05
555.67	59311.52
555.83	59107.89
556.00	59330.24
556.16	59700.04
556.33	59538.55
556.50	59540.89
556.66	59796.01
556.83	59320.88
556.99	59512.80
557.16	59620.47
557.32	59807.71
557.49	59859.20
557.65	59576.00
557.82	59512.80
557.98	59592.38
558.15	59508.12
558.32	59650.89
558.48	59552.59
558.65	59625.15
558.81	59784.30
558.98	59660.26
559.14	59774.94
559.31	59931.76
559.47	59803.03
559.64	60023.04
559.80	59950.48
559.97	59983.25
560.13	59866.22
560.30	59924.74
560.46	59863.88
560.63	60151.77
560.79	60095.60
560.96	60250.07
561.12	60177.51
561.29	59877.93
561.45	59955.16
561.61	60041.76
561.78	59908.35
561.94	59814.73
562.11	60151.77
562.27	60046.44
562.44	60051.12
562.60	60273.48
562.77	60254.75
562.93	59943.46
563.10	60193.90
563.26	60018.36
563.42	60671.37
563.59	60388.16
563.75	60371.78
563.92	60416.25
564.08	60217.30
564.24	60226.66
564.41	60437.31
564.57	60301.56
564.74	60413.91
564.90	60369.44
565.07	60175.17
565.23	60320.29
565.39	60383.48
565.56	60313.26
565.72	60371.78
565.88	60458.38
566.05	60327.31
566.21	60315.61
566.38	60430.29
566.54	60605.83
566.70	60411.57
566.87	60732.22
567.03	60247.73
567.19	60659.66
567.36	60465.40
567.52	60367.10
567.68	60678.39
567.85	60530.93
568.01	60713.50
568.17	60713.50
568.34	60491.15
568.50	60573.06
568.66	60577.75
568.83	60491.15
568.99	60530.93
569.15	60526.25
569.32	60603.49
569.48	60704.13
569.64	60697.11
569.81	60673.71
569.97	60673.71
570.13	60704.13
570.30	60732.22
570.46	60713.50
570.62	60523.91
570.78	60760.31
570.95	60701.79
571.11	61045.85
571.27	60830.52
571.43	60626.90
571.60	61038.83
571.76	60912.44
571.92	60793.07
572.09	60963.93
572.25	60879.67
572.41	60809.46
572.57	60910.10
572.74	61076.28
572.90	60753.29
573.06	60903.08
573.22	60685.41
573.38	60804.78
573.55	60837.54
573.71	60982.66
573.87	60856.27
574.03	60863.29
574.20	60975.64
574.36	60706.47
574.52	60945.21
574.68	61010.74
574.84	61151.18
575.01	60779.03
575.17	60743.92
575.33	60839.89
575.49	60837.54
575.65	60933.51
575.82	60996.70
575.98	60870.31
576.14	61235.44
576.30	60910.10
576.46	60891.38
576.62	60980.32
576.79	61003.72
576.95	60896.06
577.11	60992.02
577.27	61205.01
577.43	61027.13
577.59	60886.70
577.75	61043.51
577.92	60912.44
578.08	60825.84
578.24	60933.51
578.40	61195.65
578.56	61183.94
578.72	61041.17
578.88	61181.60
579.04	61080.96
579.21	61102.03
579.37	61146.50
579.53	61373.53
579.69	61141.81
579.85	61242.46
580.01	61214.37
580.17	60977.98
580.33	61212.03
580.49	61303.31
580.65	60977.98
580.82	61022.45
580.98	61167.56
581.14	60879.67
581.30	61188.63
581.46	61197.99
581.62	61244.80
581.78	61188.63
581.94	61144.16
582.10	61050.53
582.26	61104.37
582.42	60989.68
582.58	61300.97
582.74	61134.79
582.90	61062.24
583.06	60886.70
583.22	61155.86
583.38	61307.99
583.54	61095.00
583.70	61113.73
583.86	61183.94
584.02	61029.47
584.18	61389.91
584.34	61209.69
584.50	61228.41
584.66	61090.32
584.82	61045.85
584.98	61293.95
585.14	61282.25
585.30	61237.78
585.46	61296.29
585.62	61279.91
585.78	61434.38
585.94	61099.68
586.10	61289.27
586.26	61212.03
586.42	61298.63
586.58	61310.33
586.74	61340.76
586.90	61087.98
587.06	61179.26
587.22	61268.20
587.38	61148.84
587.54	61581.84
587.70	61425.02
587.86	61235.44
588.02	61387.57
588.18	61518.64
588.34	61364.17
