SpectraSuite Data File
++++++++++++++++++++++++++++++++++++
Date: Fri Oct 25 11:23:31 EDT 2013
User: price-jones
Dark Spectrum Present: No
Reference Spectrum Present: No
Number of Sampled Component Spectra: 1
Spectrometers: USB2+H05261
Integration Time (usec): 100000 (USB2+H05261)
Spectra Averaged: 1 (USB2+H05261)
Boxcar Smoothing: 0 (USB2+H05261)
Correct for Electrical Dark: No (USB2+H05261)
Strobe/Lamp Enabled: No (USB2+H05261)
Correct for Detector Non-linearity: No (USB2+H05261)
Correct for Stray Light: No (USB2+H05261)
Number of Pixels in Processed Spectrum: 2048
>>>>>Begin Processed Spectral Data<<<<<
365.73	224.69
365.92	224.69
366.12	224.69
366.32	161.50
366.52	168.52
366.72	154.48
366.91	152.13
367.11	46.81
367.31	70.22
367.51	149.79
367.70	124.05
367.90	168.52
368.10	67.88
368.30	170.86
368.49	124.05
368.69	93.62
368.89	140.43
369.09	110.01
369.28	159.16
369.48	124.05
369.68	91.28
369.87	210.65
370.07	161.50
370.27	241.08
370.47	255.12
370.66	550.03
370.86	685.78
371.06	704.50
371.25	655.35
371.45	688.12
371.65	676.41
371.84	727.91
372.04	716.20
372.24	706.84
372.44	709.18
372.63	751.31
372.83	711.52
373.03	713.86
373.22	772.38
373.42	730.25
373.62	781.74
373.81	765.36
374.01	688.12
374.21	802.80
374.40	777.06
374.60	816.85
374.79	781.74
374.99	772.38
375.19	875.36
375.38	800.46
375.58	800.46
375.78	884.72
375.97	826.21
376.17	924.51
376.37	842.59
376.56	866.00
376.76	798.12
376.95	873.02
377.15	858.98
377.35	826.21
377.54	856.64
377.74	870.68
377.93	912.81
378.13	943.24
378.33	903.45
378.52	936.21
378.72	1004.09
378.91	1060.26
379.11	891.74
379.31	908.13
379.50	990.05
379.70	997.07
379.89	966.64
380.09	896.43
380.28	990.05
380.48	943.24
380.68	961.96
380.87	1015.79
381.07	1032.18
381.26	1025.15
381.46	1039.20
381.65	1053.24
381.85	1060.26
382.04	1034.52
382.24	1121.12
382.43	1081.33
382.63	1076.65
382.83	1018.13
383.02	1095.37
383.22	1041.54
383.41	1107.07
383.61	1032.18
383.80	1125.80
384.00	1086.01
384.19	1130.48
384.39	1050.90
384.58	1193.67
384.78	1144.52
384.97	1142.18
385.17	1071.97
385.36	1160.91
385.56	1214.74
385.75	1226.44
385.95	1203.04
386.14	1233.46
386.34	1217.08
386.53	1261.55
386.72	1167.93
386.92	1266.23
387.11	1275.59
387.31	1256.87
387.50	1313.04
387.70	1235.80
387.89	1247.51
388.09	1331.76
388.28	1275.59
388.48	1252.19
388.67	1315.38
388.86	1296.66
389.06	1394.96
389.25	1409.00
389.45	1416.02
389.64	1385.60
389.84	1338.79
390.03	1465.18
390.22	1404.32
390.42	1355.17
390.61	1411.34
390.81	1451.13
391.00	1334.11
391.19	1392.62
391.39	1418.36
391.58	1486.24
391.78	1437.09
391.97	1483.90
392.16	1551.78
392.36	1582.20
392.55	1533.05
392.75	1483.90
392.94	1455.81
393.13	1598.59
393.33	1554.12
393.52	1526.03
393.71	1619.65
393.91	1544.75
394.10	1519.01
394.29	1490.92
394.49	1530.71
394.68	1636.03
394.88	1673.48
395.07	1675.82
395.26	1689.87
395.46	1626.67
395.65	1781.15
395.84	1736.68
396.04	1736.68
396.23	1781.15
396.42	1717.95
396.62	1764.76
396.81	1717.95
397.00	1748.38
397.19	1706.25
397.39	1774.13
397.58	1797.53
397.77	1746.04
397.97	1830.30
398.16	1886.47
398.35	1851.36
398.55	1879.45
398.74	1879.45
398.93	1930.94
399.12	1956.69
399.32	1919.24
399.51	1975.41
399.70	1984.77
399.90	2008.18
400.09	2080.74
400.28	1944.99
400.47	2083.08
400.67	2033.93
400.86	2029.24
401.05	2019.88
401.24	2029.24
401.44	2054.99
401.63	2108.82
401.82	2181.38
402.01	2176.70
402.21	2223.51
402.40	2122.87
402.59	2104.14
402.78	2239.89
402.97	2293.72
403.17	2197.76
403.36	2232.87
403.55	2328.83
403.74	2326.49
403.93	2345.22
404.13	2239.89
404.32	2464.58
404.51	2335.85
404.70	2326.49
404.89	2352.24
405.09	2562.89
405.28	2438.84
405.47	2576.93
405.66	2420.11
405.85	2565.23
406.05	2527.78
406.24	2576.93
406.43	2616.72
406.62	2710.34
406.81	2670.55
407.00	2548.84
407.20	2637.78
407.39	2649.49
407.58	2759.49
407.77	2736.09
407.96	2834.39
408.15	2860.13
408.34	2689.28
408.54	2848.43
408.73	2832.05
408.92	2829.71
409.11	3009.93
409.30	2932.69
409.49	2972.48
409.68	2988.86
409.87	2935.03
410.07	2942.05
410.26	3077.80
410.45	2993.55
410.64	3023.97
410.83	3084.83
411.02	3080.14
411.21	3183.13
411.40	3096.53
411.59	3159.72
411.78	3201.85
411.98	3143.34
412.17	3274.41
412.36	3290.79
412.55	3410.16
412.74	3375.05
412.93	3417.18
413.12	3389.10
413.31	3524.85
413.50	3571.66
413.69	3435.91
413.88	3515.48
414.07	3728.47
414.26	3503.78
414.45	3620.81
414.64	3742.52
414.83	3786.99
415.02	3754.22
415.22	3763.58
415.41	3794.01
415.60	3817.41
415.79	3866.56
415.98	4011.68
416.17	3988.27
416.36	4044.45
416.55	4086.58
416.74	4109.98
416.93	3985.93
417.12	4053.81
417.31	4208.28
417.50	4079.55
417.69	4236.37
417.88	4138.07
418.07	4327.65
418.26	4269.14
418.45	4294.88
418.64	4524.26
418.83	4428.29
419.02	4372.12
419.21	4461.06
419.39	4432.97
419.58	4681.07
419.77	4550.00
419.96	4486.81
420.15	4533.62
420.34	4594.47
420.53	4475.10
420.72	4716.18
420.91	4713.84
421.10	4781.71
421.29	4746.61
421.48	4798.10
421.67	4863.63
421.86	4809.80
422.05	4816.82
422.24	4737.24
422.43	4835.55
422.61	4919.81
422.80	4863.63
422.99	4975.98
423.18	5050.88
423.37	5111.73
423.56	4884.70
423.75	4943.21
423.94	4905.76
424.13	4540.64
424.32	4744.27
424.50	5074.28
424.69	5184.29
424.88	5097.69
425.07	5015.77
425.26	5013.43
425.45	4919.81
425.64	5046.20
425.83	5011.09
426.01	5018.11
426.20	4961.94
426.39	5153.86
426.58	4992.36
426.77	4964.28
426.96	5256.84
427.15	5006.41
427.33	5240.46
427.52	5060.24
427.71	5256.84
427.90	5224.08
428.09	5291.95
428.28	5268.55
428.46	5376.21
428.65	5355.15
428.84	5441.75
429.03	5493.24
429.22	5406.64
429.40	5488.56
429.59	5685.16
429.78	5275.57
429.97	5327.06
430.16	5523.66
430.34	5654.73
430.53	5923.90
430.72	5628.99
430.91	5724.95
431.10	5713.25
431.28	5743.67
431.47	5937.94
431.66	5994.11
431.85	5811.55
432.03	5748.36
432.22	6040.92
432.41	5959.00
432.60	6022.20
432.79	6069.01
432.97	5937.94
433.16	6061.99
433.35	5961.34
433.54	6003.47
433.72	6179.01
433.91	6228.17
434.10	6228.17
434.28	6064.33
434.47	6167.31
434.66	6179.01
434.85	6237.53
435.03	6370.94
435.22	6218.80
435.41	6530.09
435.59	6356.90
435.78	6375.62
435.97	6509.03
436.16	6499.67
436.34	6452.86
436.53	6590.95
436.72	6640.10
436.90	6534.78
437.09	6707.98
437.28	6464.56
437.46	6609.67
437.65	6607.33
437.84	6787.55
438.02	6675.21
438.21	6787.55
438.40	6640.10
438.58	7056.72
438.77	6878.83
438.96	6895.22
439.14	7063.74
439.33	7089.48
439.52	7180.76
439.70	7117.57
439.89	7236.94
440.08	7485.03
440.26	7456.95
440.45	7487.37
440.63	7719.09
440.82	7541.21
441.01	7384.39
441.19	7667.60
441.38	7786.96
441.57	7707.38
441.75	7847.82
441.94	7882.92
442.12	7887.61
442.31	7831.43
442.50	8074.85
442.68	7976.55
442.87	8166.13
443.05	8278.47
443.24	8259.75
443.43	8088.89
443.61	8147.40
443.80	8531.25
443.98	8039.74
444.17	7932.08
444.35	8428.27
444.54	8416.57
444.73	8236.35
444.91	8514.87
445.10	8358.05
445.28	8301.88
445.47	8203.58
445.65	8395.50
445.84	8446.99
446.02	8575.72
446.21	8285.50
446.39	8329.97
446.58	8482.10
446.77	8449.33
446.95	8320.60
447.14	8446.99
447.32	8603.81
447.51	8458.70
447.69	8437.63
447.88	8482.10
448.06	8575.72
448.25	8491.46
448.43	8594.45
448.62	8627.21
448.80	8503.17
448.99	8807.44
449.17	8706.79
449.36	8594.45
449.54	8772.33
449.73	8898.72
449.91	9076.60
450.10	9081.28
450.28	9104.68
450.46	9233.41
450.65	9060.21
450.83	9053.19
451.02	9090.64
451.20	9022.77
451.39	9195.96
451.57	9195.96
451.76	9195.96
451.94	9177.24
452.13	9528.32
452.31	9198.31
452.49	9259.16
452.68	9380.87
452.86	9324.69
453.05	9720.24
453.23	9369.16
453.42	9551.73
453.60	9207.67
453.78	9565.77
453.97	9565.77
454.15	9621.94
454.34	9565.77
454.52	9736.63
454.70	9788.12
454.89	9675.77
455.07	9774.08
455.26	9846.63
455.44	9982.38
455.62	10061.96
455.81	9909.83
455.99	9968.34
456.17	10312.40
456.36	10115.80
456.54	10237.50
456.73	10300.70
456.91	10438.79
457.09	10443.47
457.28	10551.14
457.46	10251.55
457.64	10380.28
457.83	10567.52
458.01	10497.30
458.19	10714.97
458.38	10668.16
458.56	10904.56
458.74	10747.74
458.93	10892.85
459.11	10843.70
459.29	10949.03
459.48	11000.52
459.66	11091.80
459.84	10869.45
460.03	11077.76
460.21	11119.89
460.39	10995.84
460.57	11150.31
460.76	11323.51
460.94	11119.89
461.12	11126.91
461.31	11110.52
461.49	11307.13
461.67	11131.59
461.85	11164.36
462.04	11260.32
462.22	11927.37
462.40	11529.48
462.59	11686.29
462.77	11573.95
462.95	11562.25
463.13	11571.61
463.32	11485.01
463.50	12004.61
463.68	11950.78
463.86	11693.32
464.05	11520.12
464.23	11761.19
464.41	11812.68
464.59	11925.03
464.78	12233.98
464.96	11817.36
465.14	11833.75
465.32	12023.33
465.50	12170.79
465.69	12201.21
465.87	12210.57
466.05	12266.75
466.23	12285.47
466.41	12250.36
466.60	12571.02
466.78	11955.46
466.96	12123.98
467.14	12315.90
467.32	12339.30
467.51	12512.50
467.69	12159.08
467.87	12676.34
468.05	12622.51
468.23	12571.02
468.41	12620.17
468.60	12805.07
468.78	12552.29
468.96	12662.30
469.14	13060.19
469.32	12968.91
469.50	12585.06
469.69	13039.12
469.87	13137.43
470.05	13144.45
470.23	13135.09
470.41	12992.31
470.59	13516.59
470.77	13420.63
470.95	13406.59
471.14	13312.97
471.32	13205.30
471.50	13722.56
471.68	13451.06
471.86	13827.88
472.04	13923.85
472.22	14090.02
472.40	13607.87
472.58	13954.27
472.77	14043.21
472.95	14001.08
473.13	14640.05
473.31	13980.02
473.49	14155.56
473.67	14092.37
473.85	14534.73
474.03	14918.57
474.21	14682.18
474.39	14757.08
474.57	14728.99
474.75	15124.54
474.93	15112.84
475.12	15007.52
475.30	15171.35
475.48	15147.95
475.66	15239.23
475.84	15133.90
476.02	15281.36
476.20	15433.49
476.38	15728.40
476.56	16020.97
476.74	16053.73
476.92	15831.38
477.10	15618.39
477.28	16156.72
477.46	16051.39
477.64	16409.50
477.82	16570.99
478.00	17132.72
478.18	16929.09
478.36	17020.38
478.54	17357.41
478.72	17376.14
478.90	17287.20
479.08	17830.20
479.26	17930.84
479.44	17577.42
479.62	17848.93
479.80	18373.21
479.98	18338.10
480.16	18527.68
480.34	18291.29
480.52	18672.79
480.70	18703.22
480.88	18654.07
481.06	18937.27
481.24	19094.09
481.41	19199.41
481.59	19154.94
481.77	19618.37
481.95	19386.66
482.13	19901.58
482.31	19913.28
482.49	20334.57
482.67	20292.44
482.85	20400.11
483.03	20582.67
483.21	21001.63
483.39	21348.03
483.57	20812.04
483.74	21179.51
483.92	21247.38
484.10	21511.86
484.28	21460.37
484.46	22104.02
484.64	22148.49
484.82	22291.26
485.00	22237.43
485.18	22869.37
485.35	23173.64
485.53	22780.43
485.71	23133.86
485.89	23278.97
486.07	23569.19
486.25	23644.09
486.43	23384.29
486.61	23599.62
486.78	24334.55
486.96	24161.35
487.14	24381.36
487.32	24652.86
487.50	25137.35
487.68	25015.65
487.85	25497.80
488.03	25413.54
488.21	26022.08
488.39	26167.19
488.57	26260.81
488.75	26277.19
488.92	26466.78
489.10	26761.69
489.28	26918.50
489.46	26937.23
489.64	27215.75
489.81	27793.86
489.99	27859.40
490.17	28063.02
490.35	28137.92
490.53	27859.40
490.70	28079.41
490.88	28217.50
491.06	29043.71
491.24	28732.42
491.41	29345.64
491.59	28982.85
491.77	29685.01
491.95	29504.79
492.13	29979.92
492.30	29970.56
492.48	30183.55
492.66	30377.81
492.84	30490.16
493.01	30679.74
493.19	31054.23
493.37	30988.69
493.54	31166.57
493.72	31749.37
493.90	31653.40
494.08	31754.05
494.25	32137.90
494.43	31981.08
494.61	32701.96
494.79	32357.91
494.96	32847.08
495.14	32669.20
495.32	33046.02
495.49	33003.89
495.67	33223.90
495.85	33486.04
496.02	33731.80
496.20	34443.32
496.38	33762.23
496.55	34347.36
496.73	35112.72
496.91	34492.47
497.09	34843.56
497.26	35239.11
497.44	35302.30
497.62	35168.89
497.79	36053.61
497.97	35644.02
498.14	36362.56
498.32	36388.31
498.50	36605.98
498.67	36575.55
498.85	36404.69
499.03	36891.52
499.20	36980.46
499.38	37237.92
499.56	37144.30
499.73	37148.98
499.91	37542.19
500.08	37869.87
500.26	37806.67
500.44	37867.53
500.61	37993.92
500.79	37851.14
500.97	38543.94
501.14	38897.36
501.32	38941.83
501.49	38387.13
501.67	39136.10
501.84	39196.95
502.02	38990.98
502.20	39222.70
502.37	39777.40
502.55	38953.54
502.72	39592.50
502.90	39536.33
503.07	39545.69
503.25	40011.46
503.43	39880.39
503.60	40027.84
503.78	40584.89
503.95	40238.49
504.13	40308.71
504.30	40964.06
504.48	40704.26
504.65	40835.33
504.83	40835.33
505.01	41291.73
505.18	41265.99
505.36	41804.31
505.53	41209.81
505.71	41577.28
505.88	42036.02
506.06	41851.12
506.23	41848.78
506.41	42036.02
506.58	42143.69
506.76	42326.25
506.93	42794.36
507.11	42330.93
507.28	42930.11
507.46	42754.57
507.63	43248.42
507.81	43065.86
507.98	43061.18
508.16	43550.35
508.33	43952.92
508.50	43419.28
508.68	43934.20
508.85	44306.34
509.03	43995.05
509.20	44282.94
509.38	44636.36
509.55	44388.26
509.73	44959.35
509.90	44844.66
510.08	44367.20
510.25	44994.46
510.42	45464.91
510.60	45027.23
510.77	45439.16
510.95	45354.90
511.12	45446.18
511.30	45160.64
511.47	45434.48
511.64	45656.83
511.82	46014.93
511.99	45748.11
512.17	46064.08
512.34	45860.46
512.51	46550.91
512.69	46197.49
512.86	46405.80
513.04	46859.87
513.21	46777.95
513.38	46728.80
513.56	46995.62
513.73	46911.36
513.90	47388.83
514.08	47037.75
514.25	47290.52
514.43	47538.62
514.60	47643.94
514.77	47372.44
514.95	47817.14
515.12	47756.29
515.29	47826.51
515.47	47990.34
515.64	48348.45
515.81	47929.49
515.99	48217.38
516.16	48353.13
516.33	48896.13
516.51	48924.22
516.68	48631.65
516.85	48423.34
517.03	48732.29
517.20	49074.01
517.37	49146.57
517.54	49003.80
517.72	48886.77
517.89	49074.01
518.06	49382.96
518.24	49186.36
518.41	49322.11
518.58	49511.69
518.75	49661.49
518.93	49432.11
519.10	49640.42
519.27	49942.35
519.45	49832.35
519.62	50258.32
519.79	50174.06
519.96	50150.66
520.14	50223.22
520.31	50307.47
520.48	50775.58
520.65	50440.89
520.83	50632.81
521.00	50686.64
521.17	50466.63
521.34	51004.95
521.52	51262.41
521.69	51215.60
521.86	51136.02
522.03	51093.89
522.20	51564.34
522.38	51468.38
522.55	51473.06
522.72	51407.53
522.89	51377.10
523.07	52100.32
523.24	51409.87
523.41	52203.31
523.58	51929.47
523.75	51978.62
523.92	51887.34
524.10	51826.48
524.27	52062.88
524.44	52313.31
524.61	52097.98
524.78	52463.11
524.96	52423.32
525.13	52626.95
525.30	52643.33
525.47	52182.24
525.64	52404.59
525.81	52559.07
525.98	52722.91
526.16	52783.76
526.33	52708.86
526.50	53347.83
526.67	52959.30
526.84	53027.18
527.01	52980.37
527.18	52912.49
527.36	53282.30
527.53	53057.60
527.70	53406.34
527.87	53509.33
528.04	53289.32
528.21	53542.10
528.38	53710.61
528.55	53715.29
528.72	53532.73
528.89	53532.73
529.07	53345.49
529.24	53474.22
529.41	53776.15
529.58	53759.76
529.75	53958.71
529.92	53904.88
530.09	53954.03
530.26	53862.75
530.43	54021.90
530.60	53956.37
530.77	54087.44
530.94	54279.36
531.11	54024.25
531.28	54160.00
531.46	54197.44
531.63	54195.10
531.80	54485.33
531.97	54459.58
532.14	54520.44
532.31	54527.46
532.48	54815.35
532.65	54885.56
532.82	54686.62
532.99	54813.01
533.16	54658.53
533.33	55000.25
533.50	54763.85
533.67	54960.46
533.84	54969.82
534.01	54885.56
534.18	55093.87
534.35	55341.97
534.52	55018.97
534.69	55405.16
534.86	55503.46
535.03	55260.05
535.20	55269.41
535.37	55611.13
535.54	55707.09
535.71	55423.89
535.88	55529.21
536.05	55597.09
536.22	55704.75
536.38	55622.83
536.55	55826.46
536.72	55901.36
536.89	55821.78
537.06	55463.67
537.23	55831.14
537.40	55494.10
537.57	55707.09
537.74	56053.49
537.91	55959.87
538.08	55973.91
538.25	55838.16
538.42	55849.86
538.59	56018.38
538.75	56086.26
538.92	56109.66
539.09	56388.19
539.26	56332.01
539.43	56238.39
539.60	56238.39
539.77	56051.15
539.94	56566.07
540.11	56238.39
540.28	56463.08
540.44	56470.11
540.61	56603.52
540.78	56456.06
540.95	56488.83
541.12	56505.21
541.29	56680.75
541.46	56772.03
541.62	56727.56
541.79	56973.32
541.96	56463.08
542.13	56540.32
542.30	56783.74
542.47	57050.56
542.63	57045.88
542.80	57036.51
542.97	57298.65
543.14	57317.38
543.31	57146.52
543.48	57162.90
543.64	57329.08
543.81	57151.20
543.98	57354.83
544.15	57560.79
544.32	57415.68
544.48	57808.89
544.65	57659.10
544.82	57556.11
544.99	57418.02
545.16	57474.20
545.32	57518.67
545.49	57623.99
545.66	57743.36
545.83	57907.19
546.00	57577.18
546.16	57733.99
546.33	57471.85
546.50	57715.27
546.67	57991.45
546.83	57471.85
547.00	57963.37
547.17	57820.59
547.34	57698.89
547.50	57982.09
547.67	58120.18
547.84	58131.89
548.00	58305.09
548.17	58408.07
548.34	58307.43
548.51	58342.53
548.67	58230.19
548.84	58213.80
549.01	58185.72
549.18	58234.87
549.34	58391.68
549.51	58459.56
549.68	58499.35
549.84	58511.05
550.01	58408.07
550.18	58543.82
550.34	58639.78
550.51	58651.48
550.68	58454.88
550.84	58253.59
551.01	58735.74
551.18	58602.33
551.34	58733.40
551.51	58735.74
551.68	58726.38
551.84	58504.03
552.01	58475.94
552.18	58761.49
552.34	58686.59
552.51	58801.28
552.68	58672.55
552.84	58784.90
553.01	58934.69
553.18	58714.68
553.34	59037.67
553.51	58763.83
553.67	58745.11
553.84	59166.40
554.01	59100.87
554.17	58925.33
554.34	59128.95
554.51	59145.34
554.67	59119.59
554.84	59098.53
555.00	59063.42
555.17	59004.91
555.33	59166.40
555.50	58951.07
555.67	59250.66
555.83	59318.54
556.00	59114.91
556.16	59465.99
556.33	59447.27
556.50	59231.94
556.66	59489.40
556.83	59150.02
556.99	59508.12
557.16	59547.91
557.32	59606.42
557.49	59653.23
557.65	59330.24
557.82	59496.42
557.98	59370.03
558.15	59510.46
558.32	59482.37
558.48	59297.47
558.65	59522.16
558.81	59604.08
558.98	59552.59
559.14	59934.10
559.31	59812.39
559.47	59840.48
559.64	59770.26
559.80	59828.77
559.97	59662.60
560.13	59903.67
560.30	59957.50
560.46	59798.35
560.63	59683.66
560.79	59866.22
560.96	59976.23
561.12	59913.03
561.29	59929.42
561.45	59896.65
561.61	59915.37
561.78	59922.40
561.94	59838.14
562.11	59845.16
562.27	59922.40
562.44	60128.36
562.60	60161.13
562.77	60186.88
562.93	59896.65
563.10	60119.00
563.26	59922.40
563.42	60147.09
563.59	60149.43
563.75	60041.76
563.92	60032.40
564.08	60149.43
564.24	60219.64
564.41	60207.94
564.57	60280.50
564.74	60177.51
564.90	60200.92
565.07	60261.77
565.23	60130.70
565.39	60140.07
565.56	60392.84
565.72	60179.85
565.88	60224.32
566.05	60142.41
566.21	60221.98
566.38	60221.98
566.54	60280.50
566.70	60502.85
566.87	60594.13
567.03	60126.02
567.19	60301.56
567.36	60467.74
567.52	60271.14
567.68	60622.22
567.85	60320.29
568.01	60486.46
568.17	60236.03
568.34	60666.69
568.50	60437.31
568.66	60528.59
568.83	60463.06
568.99	60250.07
569.15	60631.58
569.32	60683.07
569.48	60530.93
569.64	60619.88
569.81	60666.69
569.97	60299.22
570.13	60584.77
570.30	60463.06
570.46	60552.00
570.62	60694.77
570.78	60486.46
570.95	60566.04
571.11	60736.90
571.27	60624.56
571.43	60664.35
571.60	60963.93
571.76	60575.40
571.92	60673.71
572.09	60692.43
572.25	60755.63
572.41	60631.58
572.57	60636.26
572.74	60921.80
572.90	60842.23
573.06	60762.65
573.22	60811.80
573.38	60685.41
573.55	60828.18
573.71	60825.84
573.87	60760.31
574.03	60743.92
574.20	60802.44
574.36	60750.94
574.52	60816.48
574.68	60858.61
574.84	60804.78
575.01	60807.12
575.17	60846.91
575.33	60837.54
575.49	60598.81
575.65	60874.99
575.82	60828.18
575.98	61006.06
576.14	61214.37
576.30	60809.46
576.46	60821.16
576.62	60837.54
576.79	60886.70
576.95	60823.50
577.11	60912.44
577.27	60961.59
577.43	60910.10
577.59	60762.65
577.75	60664.35
577.92	60912.44
578.08	60835.20
578.24	60891.38
578.40	60903.08
578.56	61104.37
578.72	60931.17
578.88	61202.67
579.04	60999.04
579.21	60942.87
579.37	61029.47
579.53	60931.17
579.69	60963.93
579.85	60942.87
580.01	60830.52
580.17	60713.50
580.33	61083.30
580.49	61073.94
580.65	60896.06
580.82	60940.53
580.98	60842.23
581.14	60757.97
581.30	61202.67
581.46	61233.10
581.62	61148.84
581.78	60849.25
581.94	61160.54
582.10	60907.76
582.26	60921.80
582.42	61078.62
582.58	61022.45
582.74	61162.88
582.90	60874.99
583.06	61062.24
583.22	60685.41
583.38	61024.79
583.54	60884.36
583.70	61050.53
583.86	61041.17
584.02	61167.56
584.18	61193.31
584.34	61090.32
584.50	60945.21
584.66	61001.38
584.82	60767.33
584.98	61113.73
585.14	61130.11
585.30	60856.27
585.46	61038.83
585.62	61165.22
585.78	61251.82
585.94	61041.17
586.10	61041.17
586.26	61083.30
586.42	61162.88
586.58	61080.96
586.74	61062.24
586.90	60945.21
587.06	60994.36
587.22	61214.37
587.38	61340.76
587.54	61230.75
587.70	61212.03
587.86	61212.03
588.02	61015.43
588.18	61270.54
588.34	61233.10
588.49	61085.64
