SpectraSuite Data File
++++++++++++++++++++++++++++++++++++
Date: Fri Oct 25 11:24:09 EDT 2013
User: price-jones
Dark Spectrum Present: No
Reference Spectrum Present: No
Number of Sampled Component Spectra: 1
Spectrometers: USB2+H05261
Integration Time (usec): 100000 (USB2+H05261)
Spectra Averaged: 1 (USB2+H05261)
Boxcar Smoothing: 0 (USB2+H05261)
Correct for Electrical Dark: No (USB2+H05261)
Strobe/Lamp Enabled: No (USB2+H05261)
Correct for Detector Non-linearity: No (USB2+H05261)
Correct for Stray Light: No (USB2+H05261)
Number of Pixels in Processed Spectrum: 2048
>>>>>Begin Processed Spectral Data<<<<<
365.73	140.43
365.92	140.43
366.12	140.43
366.32	142.77
366.52	119.37
366.72	142.77
366.91	161.50
367.11	184.90
367.31	149.79
367.51	215.33
367.70	133.41
367.90	117.03
368.10	177.88
368.30	173.20
368.49	149.79
368.69	212.99
368.89	145.11
369.09	163.84
369.28	191.92
369.48	140.43
369.68	138.09
369.87	220.01
370.07	163.84
370.27	238.73
370.47	306.61
370.66	571.09
370.86	596.84
371.06	683.44
371.25	613.22
371.45	589.82
371.65	725.57
371.84	725.57
372.04	678.76
372.24	699.82
372.44	627.26
372.63	720.88
372.83	763.01
373.03	702.16
373.22	720.88
373.42	737.27
373.62	772.38
373.81	805.14
374.01	880.04
374.21	844.93
374.40	741.95
374.60	835.57
374.79	863.66
374.99	805.14
375.19	814.51
375.38	866.00
375.58	786.42
375.78	983.02
375.97	884.72
376.17	971.32
376.37	884.72
376.56	947.92
376.76	884.72
376.95	870.68
377.15	938.55
377.35	954.94
377.54	912.81
377.74	936.21
377.93	873.02
378.13	959.62
378.33	901.11
378.52	866.00
378.72	973.66
378.91	894.08
379.11	917.49
379.31	929.19
379.50	875.36
379.70	987.71
379.89	915.15
380.09	987.71
380.28	971.32
380.48	976.00
380.68	976.00
380.87	1006.43
381.07	1027.50
381.26	1020.47
381.46	961.96
381.65	1013.45
381.85	1060.26
382.04	1011.11
382.24	1088.35
382.43	1090.69
382.63	1015.79
382.83	1083.67
383.02	1107.07
383.22	1114.10
383.41	1088.35
383.61	1128.14
383.80	1188.99
384.00	1179.63
384.19	1128.14
384.39	1212.40
384.58	1060.26
384.78	1167.93
384.97	1174.95
385.17	1158.57
385.36	1221.76
385.56	1210.06
385.75	1114.10
385.95	1198.35
386.14	1177.29
386.34	1146.86
386.53	1198.35
386.72	1315.38
386.92	1268.57
387.11	1289.64
387.31	1343.47
387.50	1142.18
387.70	1261.55
387.89	1301.34
388.09	1334.11
388.28	1366.87
388.48	1214.74
388.67	1334.11
388.86	1268.57
389.06	1373.89
389.25	1322.40
389.45	1371.55
389.64	1317.72
389.84	1397.30
390.03	1366.87
390.22	1458.15
390.42	1350.49
390.61	1397.30
390.81	1460.49
391.00	1411.34
391.19	1472.20
391.39	1458.15
391.58	1444.11
391.78	1406.66
391.97	1420.71
392.16	1460.49
392.36	1467.52
392.55	1472.20
392.75	1540.07
392.94	1507.30
393.13	1479.22
393.33	1514.33
393.52	1514.33
393.71	1547.09
393.91	1530.71
394.10	1600.93
394.29	1626.67
394.49	1537.73
394.68	1589.22
394.88	1741.36
395.07	1673.48
395.26	1741.36
395.46	1710.93
395.65	1682.85
395.84	1715.61
396.04	1816.26
396.23	1832.64
396.42	1762.42
396.62	1792.85
396.81	1792.85
397.00	1736.68
397.19	1839.66
397.39	1802.21
397.58	1863.07
397.77	1865.41
397.97	1856.04
398.16	1750.72
398.35	1926.26
398.55	1907.54
398.74	1856.04
398.93	1970.73
399.12	1947.33
399.32	1949.67
399.51	1905.20
399.70	2069.03
399.90	1975.41
400.09	1966.05
400.28	2038.61
400.47	2113.50
400.67	2204.78
400.86	2080.74
401.05	2054.99
401.24	2024.56
401.44	1996.48
401.63	2125.21
401.82	2092.44
402.01	2094.78
402.21	2190.74
402.40	2260.96
402.59	2172.02
402.78	2237.55
402.97	2291.38
403.17	2270.32
403.36	2307.77
403.55	2239.89
403.74	2438.84
403.93	2380.32
404.13	2408.41
404.32	2347.56
404.51	2317.13
404.70	2464.58
404.89	2403.73
405.09	2457.56
405.28	2471.61
405.47	2443.52
405.66	2483.31
405.85	2663.53
406.05	2560.55
406.24	2502.03
406.43	2558.21
406.62	2614.38
406.81	2661.19
407.00	2595.65
407.20	2511.39
407.39	2560.55
407.58	2733.75
407.77	2686.94
407.96	2719.70
408.15	2780.56
408.34	2750.13
408.54	2708.00
408.73	2829.71
408.92	2953.76
409.11	2911.63
409.30	2988.86
409.49	2960.78
409.68	2935.03
409.87	2867.16
410.07	2923.33
410.26	2949.08
410.45	3040.36
410.64	3080.14
410.83	3112.91
411.02	3077.80
411.21	3098.87
411.40	3166.74
411.59	3295.47
411.78	3197.17
411.98	3229.94
412.17	3311.86
412.36	3290.79
412.55	3309.52
412.74	3382.07
412.93	3361.01
413.12	3431.23
413.31	3494.42
413.50	3463.99
413.69	3396.12
413.88	3569.32
414.07	3660.60
414.26	3665.28
414.45	3693.37
414.64	3740.18
414.83	3925.08
415.02	3740.18
415.22	3918.06
415.41	3775.28
415.60	3829.12
415.79	3843.16
415.98	4014.02
416.17	4065.51
416.36	4023.38
416.55	4011.68
416.74	4004.66
416.93	4126.36
417.12	4187.22
417.31	4329.99
417.50	4196.58
417.69	4231.69
417.88	4297.22
418.07	4257.43
418.26	4231.69
418.45	4329.99
418.64	4542.98
418.83	4447.02
419.02	4524.26
419.21	4355.74
419.39	4706.82
419.58	4500.85
419.77	4372.12
419.96	4594.47
420.15	4617.88
420.34	4526.60
420.53	4643.62
420.72	4734.90
420.91	4631.92
421.10	4636.60
421.29	4823.84
421.48	4662.35
421.67	4755.97
421.86	4840.23
422.05	4772.35
422.24	4716.18
422.43	5041.51
422.61	4936.19
422.80	4961.94
422.99	4898.74
423.18	5001.72
423.37	4980.66
423.56	4980.66
423.75	4957.25
423.94	4858.95
424.13	4631.92
424.32	4901.08
424.50	5006.41
424.69	5029.81
424.88	5083.64
425.07	5041.51
425.26	4990.02
425.45	4952.57
425.64	5041.51
425.83	5062.58
426.01	5184.29
426.20	4957.25
426.39	5025.13
426.58	4957.25
426.77	5048.54
426.96	5142.16
427.15	5111.73
427.33	5195.99
427.52	5104.71
427.71	5350.46
427.90	5132.79
428.09	5240.46
428.28	5385.57
428.46	5394.93
428.65	5427.70
428.84	5509.62
429.03	5437.06
429.22	5509.62
429.40	5502.60
429.59	5610.26
429.78	5364.51
429.97	5263.86
430.16	5521.32
430.34	5614.95
430.53	5760.06
430.72	5626.65
430.91	5703.89
431.10	5577.50
431.28	5734.31
431.47	5858.36
431.66	5937.94
431.85	5888.79
432.03	6001.13
432.22	6012.84
432.41	5928.58
432.60	5895.81
432.79	5853.68
432.97	6036.24
433.16	6118.16
433.35	6015.18
433.54	6099.44
433.72	6155.61
433.91	6115.82
434.10	6321.79
434.28	6050.28
434.47	6228.17
434.66	6169.65
434.85	6209.44
435.03	6349.87
435.22	6361.58
435.41	6293.70
435.59	6347.53
435.78	6408.39
435.97	6597.97
436.16	6544.14
436.34	6621.38
436.53	6483.28
436.72	6698.61
436.90	6384.98
437.09	6663.51
437.28	6534.78
437.46	6478.60
437.65	6579.25
437.84	6836.70
438.02	6668.19
438.21	6757.13
438.40	6656.48
438.58	6949.05
438.77	7016.93
438.96	7091.82
439.14	7232.26
439.33	7176.08
439.52	7335.24
439.70	7190.13
439.89	7236.94
440.08	7241.62
440.26	7398.43
440.45	7531.84
440.63	7595.04
440.82	7833.77
441.01	7712.07
441.19	7686.32
441.38	7971.86
441.57	7712.07
441.75	7946.12
441.94	7990.59
442.12	8074.85
442.31	7831.43
442.50	8013.99
442.68	7908.67
442.87	7901.65
443.05	8128.68
443.24	8283.16
443.43	8301.88
443.61	8271.45
443.80	8428.27
443.98	8198.90
444.17	7871.22
444.35	8245.71
444.54	8325.29
444.73	8250.39
444.91	8271.45
445.10	8358.05
445.28	8439.97
445.47	8304.22
445.65	8437.63
445.84	8461.04
446.02	8428.27
446.21	8418.91
446.39	8489.12
446.58	8512.53
446.77	8528.91
446.95	8397.84
447.14	8346.35
447.32	8615.51
447.51	8667.00
447.69	8575.72
447.88	8512.53
448.06	8624.87
448.25	8641.26
448.43	8456.36
448.62	8643.60
448.80	8737.22
448.99	8638.92
449.17	8699.77
449.36	8615.51
449.54	8762.97
449.73	8865.95
449.91	8851.91
450.10	8837.86
450.28	9006.38
450.46	9188.94
450.65	9067.24
450.83	9123.41
451.02	9083.62
451.20	9305.97
451.39	9287.25
451.57	8964.25
451.76	9015.74
451.94	9327.03
452.13	9334.06
452.31	9364.48
452.49	9252.14
452.68	9329.38
452.86	9437.04
453.05	9369.16
453.23	9533.00
453.42	9406.61
453.60	9291.93
453.78	9640.67
453.97	9516.62
454.15	9401.93
454.34	9430.02
454.52	9710.88
454.70	9729.61
454.89	9781.10
455.07	9860.68
455.26	9928.55
455.44	9933.23
455.62	10047.92
455.81	10057.28
455.99	10033.88
456.17	10160.27
456.36	9982.38
456.54	10225.80
456.73	10281.97
456.91	10588.58
457.09	10518.37
457.28	10593.26
457.46	10324.10
457.64	10518.37
457.83	10717.31
458.01	10665.82
458.19	10839.02
458.38	10523.05
458.56	10775.83
458.74	10707.95
458.93	10724.33
459.11	10827.32
459.29	10906.90
459.48	10967.75
459.66	10780.51
459.84	10848.38
460.03	11002.86
460.21	11260.32
460.39	10972.43
460.57	11014.56
460.76	11234.57
460.94	11190.10
461.12	11173.72
461.31	11344.58
461.49	11239.25
461.67	11180.74
461.85	11585.65
462.04	11274.36
462.22	12018.65
462.40	11513.10
462.59	11658.21
462.77	11672.25
462.95	11681.61
463.13	11679.27
463.32	11843.11
463.50	11838.43
463.68	11903.96
463.86	11892.26
464.05	11770.55
464.23	11707.36
464.41	11733.11
464.59	11798.64
464.78	12088.87
464.96	12114.61
465.14	11915.67
465.32	11903.96
465.50	12159.08
465.69	12133.34
465.87	12453.99
466.05	12123.98
466.23	12011.63
466.41	12236.32
466.60	12407.18
466.78	12004.61
466.96	12383.77
467.14	12334.62
467.32	12531.23
467.51	12718.47
467.69	12142.70
467.87	12594.42
468.05	12624.85
468.23	12582.72
468.41	12510.16
468.60	12620.17
468.78	12912.74
468.96	12585.06
469.14	12851.88
469.32	13170.19
469.50	12692.73
469.69	12898.69
469.87	13181.90
470.05	13139.77
470.23	13441.70
470.41	13385.52
470.59	13048.49
470.77	13577.45
470.95	13259.13
471.14	13500.21
471.32	12980.61
471.50	13701.50
471.68	13504.89
471.86	13394.89
472.04	13987.04
472.22	14075.98
472.40	13734.26
472.58	13874.70
472.77	13792.78
472.95	14513.66
473.13	14761.76
473.31	14197.69
473.49	14188.33
473.67	14148.54
473.85	14476.21
474.03	14668.14
474.21	14839.00
474.39	14637.71
474.57	14789.85
474.75	14869.42
474.93	15147.95
475.12	15037.94
475.30	15061.35
475.48	15091.77
475.66	15108.16
475.84	15260.29
476.02	15295.40
476.20	15541.16
476.38	15803.30
476.56	16095.86
476.74	16233.96
476.92	16002.24
477.10	15836.06
477.28	16594.40
477.46	16477.37
477.64	16758.24
477.82	16613.12
478.00	17284.86
478.18	16952.50
478.36	17156.13
478.54	17397.20
478.72	17200.60
478.90	17348.05
479.08	17617.21
479.26	18106.38
479.44	17891.06
479.62	17708.49
479.80	18097.02
479.98	18389.59
480.16	18504.28
480.34	18356.82
480.52	18951.32
480.70	18539.38
480.88	18504.28
481.06	19044.94
481.24	18956.00
481.41	19080.05
481.59	19510.71
481.77	19295.38
481.95	19754.12
482.13	19784.55
482.31	19707.31
482.49	20538.20
482.67	20400.11
482.85	20762.89
483.03	20779.28
483.21	21036.74
483.39	21373.77
483.57	21135.04
483.74	21411.22
483.92	21551.65
484.10	21088.23
484.28	21752.94
484.46	22148.49
484.64	22246.79
484.82	22026.78
485.00	22115.72
485.18	22597.87
485.35	22864.69
485.53	22946.61
485.71	23405.36
485.89	23889.85
486.07	23386.63
486.25	23641.75
486.43	23473.23
486.61	23796.23
486.78	24154.33
486.96	24477.32
487.14	24673.93
487.32	24697.33
487.50	25085.86
487.68	24907.98
487.85	25696.74
488.03	25778.66
488.21	26249.11
488.39	25975.27
488.57	25986.97
488.75	26185.91
488.92	26871.69
489.10	26923.18
489.28	26930.20
489.46	27002.76
489.64	26801.47
489.81	27779.82
489.99	27800.88
490.17	27892.16
490.35	28236.22
490.53	28327.50
490.70	28521.77
490.88	28582.62
491.06	29092.86
491.24	29371.38
491.41	29607.78
491.59	29563.31
491.77	29617.14
491.95	29839.49
492.13	29752.89
492.30	30036.09
492.48	30258.45
492.66	30443.35
492.84	30433.99
493.01	30534.63
493.19	30899.75
493.37	30911.46
493.54	31028.48
493.72	31601.91
493.90	31531.70
494.08	32196.41
494.25	32393.01
494.43	32587.28
494.61	32547.49
494.79	32645.79
494.96	32718.35
495.14	33062.41
495.32	33357.32
495.49	33226.24
495.67	33624.14
495.85	33785.63
496.02	33949.47
496.20	34029.05
496.38	34567.37
496.55	34522.90
496.73	35290.60
496.91	35150.17
497.09	34693.76
497.26	35065.91
497.44	35290.60
497.62	35438.05
497.79	35927.22
497.97	35761.05
498.14	36329.80
498.32	36404.69
498.50	36243.20
498.67	36863.44
498.85	36947.70
499.03	36821.31
499.20	36610.66
499.38	37385.38
499.56	37118.56
499.73	37549.21
499.91	37914.34
500.08	37722.41
500.26	37528.15
500.44	37928.38
500.61	38167.12
500.79	38286.48
500.97	38293.50
501.14	39037.80
501.32	38487.77
501.49	38227.97
501.67	38686.71
501.84	39440.37
502.02	38948.85
502.20	39306.96
502.37	39510.58
502.55	39475.48
502.72	39562.08
502.90	40133.17
503.07	39569.10
503.25	39866.34
503.43	39826.56
503.60	39978.69
503.78	40514.67
503.95	40119.12
504.13	40828.30
504.30	40999.16
504.48	40678.51
504.65	40615.32
504.83	41022.57
505.01	41429.82
505.18	41560.89
505.36	41893.25
505.53	41661.54
505.71	41876.86
505.88	42464.34
506.06	41600.68
506.23	42258.37
506.41	41860.48
506.58	42403.49
506.76	42298.16
506.93	42831.80
507.11	42752.23
507.28	42768.61
507.46	42941.81
507.63	42682.01
507.81	43363.11
507.98	43133.73
508.16	43470.77
508.33	43686.10
508.50	43732.91
508.68	43995.05
508.85	44226.76
509.03	43997.39
509.20	44151.87
509.38	44795.51
509.55	44690.19
509.73	44500.61
509.90	44559.12
510.08	44505.29
510.25	45048.29
510.42	45167.66
510.60	45268.30
510.77	45659.17
510.95	45989.19
511.12	45336.18
511.30	45776.20
511.47	45773.86
511.64	45696.62
511.82	46403.46
511.99	45808.96
512.17	46148.34
512.34	46330.90
512.51	46426.87
512.69	46600.07
512.86	46745.18
513.04	46864.55
513.21	46918.38
513.38	47285.84
513.56	46911.36
513.73	46925.40
513.90	47419.25
514.08	46848.16
514.25	47611.18
514.43	47920.13
514.60	47569.05
514.77	47445.00
514.95	48083.97
515.12	47547.98
515.29	47662.67
515.47	48388.24
515.64	48362.49
515.81	48098.01
515.99	48580.16
516.16	48580.16
516.33	48814.21
516.51	49099.76
516.68	48711.23
516.85	48481.86
517.03	48903.15
517.20	49322.11
517.37	48837.62
517.54	49301.04
517.72	49539.78
517.89	48942.94
518.06	49071.67
518.24	49106.78
518.41	49668.51
518.58	49722.34
518.75	49593.61
518.93	49736.38
519.10	49453.18
519.27	49951.71
519.45	50164.70
519.62	50106.19
519.79	50281.73
519.96	50007.89
520.14	50410.46
520.31	50284.07
520.48	50361.31
520.65	50546.21
520.83	50820.05
521.00	50845.80
521.17	51112.62
521.34	50782.60
521.52	51145.39
521.69	51241.35
521.86	51140.71
522.03	51440.29
522.20	51423.91
522.38	51641.58
522.55	51519.87
522.72	51723.50
522.89	51611.15
523.07	51903.72
523.24	51606.47
523.41	51915.42
523.58	51854.57
523.75	51903.72
523.92	52144.80
524.10	52189.27
524.27	52292.25
524.44	52215.01
524.61	52140.11
524.78	52467.79
524.96	52200.97
525.13	52580.13
525.30	52746.31
525.47	52591.84
525.64	52622.26
525.81	52750.99
525.98	52959.30
526.16	52720.57
526.33	52875.04
526.50	52818.87
526.67	52786.10
526.84	53088.03
527.01	53001.43
527.18	53006.11
527.36	53078.67
527.53	53301.02
527.70	53574.86
527.87	53717.64
528.04	53216.76
528.21	53544.44
528.38	53675.51
528.55	53738.70
528.72	53762.11
528.89	53731.68
529.07	53719.98
529.24	53710.61
529.41	53715.29
529.58	53956.37
529.75	53858.07
529.92	53785.51
530.09	53968.07
530.26	53989.14
530.43	54319.15
530.60	53701.25
530.77	54143.61
530.94	54312.13
531.11	54555.55
531.28	54220.85
531.46	54452.56
531.63	54372.99
531.80	54623.42
531.97	54681.94
532.14	54632.78
532.31	54447.88
532.48	54831.73
532.65	54749.81
532.82	54644.49
532.99	54892.58
533.16	54630.44
533.33	54871.52
533.50	55147.70
533.67	54848.11
533.84	54717.04
534.01	55096.21
534.18	55075.15
534.35	55442.61
534.52	55222.60
534.69	55400.48
534.86	55363.03
535.03	55358.35
535.20	55164.09
535.37	55381.76
535.54	55669.64
535.71	55405.16
535.88	55552.62
536.05	55458.99
536.22	55884.97
536.38	55742.20
536.55	55737.52
536.72	55756.24
536.89	55608.79
537.06	55784.33
537.23	55903.70
537.40	55688.37
537.57	55964.55
537.74	55934.12
537.91	56360.10
538.08	56222.01
538.25	55877.95
538.42	56266.48
538.59	56364.78
538.75	56186.90
538.92	56172.86
539.09	56505.21
539.26	56240.73
539.43	56193.92
539.60	56231.37
539.77	56439.68
539.94	56584.79
540.11	56594.15
540.28	56774.37
540.44	56741.61
540.61	56647.99
540.78	56596.49
540.95	56633.94
541.12	56624.58
541.29	56507.55
541.46	56650.33
541.62	56640.96
541.79	56844.59
541.96	56650.33
542.13	56605.86
542.30	56832.89
542.47	56994.39
542.63	56870.34
542.80	57041.20
542.97	57373.55
543.14	57422.70
543.31	57495.26
543.48	57244.82
543.64	57675.48
543.81	57389.94
543.98	57499.94
544.15	57471.85
544.32	57759.74
544.48	57771.44
544.65	57338.44
544.82	57804.21
544.99	57296.31
545.16	57834.64
545.32	57542.07
545.49	57799.53
545.66	57677.82
545.83	57956.35
546.00	57909.53
546.16	57612.29
546.33	57633.35
546.50	57572.50
546.67	57883.79
546.83	57602.92
547.00	58190.40
547.17	58026.56
547.34	57808.89
547.50	58047.63
547.67	58213.80
547.84	58188.06
548.00	58288.70
548.17	58204.44
548.34	58499.35
548.51	58485.31
548.67	58471.26
548.84	58384.66
549.01	58422.11
549.18	58342.53
549.34	58344.87
549.51	58644.46
549.68	58611.70
549.84	58419.77
550.01	58548.50
550.18	58403.39
550.34	58644.46
550.51	58639.78
550.68	58515.73
550.84	58595.31
551.01	58649.14
551.18	58567.23
551.34	58684.25
551.51	58803.62
551.68	58843.41
551.84	59089.16
552.01	58644.46
552.18	58637.44
552.34	58518.07
552.51	58892.56
552.68	58653.82
552.84	58904.26
553.01	59175.76
553.18	59023.63
553.34	59040.01
553.51	59000.22
553.67	59096.19
553.84	59056.40
554.01	59133.63
554.17	59018.95
554.34	59103.21
554.51	59133.63
554.67	59267.05
554.84	59070.44
555.00	59231.94
555.17	58995.54
555.33	59220.23
555.50	59107.89
555.67	58997.88
555.83	59213.21
556.00	59430.88
556.16	59407.48
556.33	59554.93
556.50	59306.83
556.66	59529.19
556.83	59147.68
556.99	59451.95
557.16	59662.60
557.32	59494.08
557.49	59856.86
557.65	59245.98
557.82	59540.89
557.98	59414.50
558.15	59327.90
558.32	59620.47
558.48	59545.57
558.65	59267.05
558.81	59470.67
558.98	59683.66
559.14	59576.00
559.31	59838.14
559.47	59941.12
559.64	59920.05
559.80	59948.14
559.97	60020.70
560.13	59693.02
560.30	59950.48
560.46	59817.07
560.63	59943.46
560.79	59798.35
560.96	60079.21
561.12	60069.85
561.29	60027.72
561.45	59931.76
561.61	59845.16
561.78	59971.55
561.94	60172.83
562.11	60032.40
562.27	60034.74
562.44	60004.31
562.60	60331.99
562.77	60142.41
562.93	59777.28
563.10	60280.50
563.26	60186.88
563.42	60418.59
563.59	60266.45
563.75	60170.49
563.92	59999.63
564.08	59955.16
564.24	60320.29
564.41	60074.53
564.57	60055.81
564.74	60243.05
564.90	60184.54
565.07	60264.11
565.23	60287.52
565.39	60030.06
565.56	60491.15
565.72	60367.10
565.88	60484.12
566.05	60250.07
566.21	60219.64
566.38	60315.61
566.54	60446.68
566.70	60507.53
566.87	60434.97
567.03	60420.93
567.19	60596.47
567.36	60430.29
567.52	60420.93
567.68	60601.15
567.85	60549.66
568.01	60774.35
568.17	60484.12
568.34	60523.91
568.50	60390.50
568.66	60603.49
568.83	60561.36
568.99	60444.33
569.15	60472.42
569.32	60451.36
569.48	60626.90
569.64	60729.88
569.81	60514.55
569.97	60622.22
570.13	60779.03
570.30	60519.23
570.46	60781.37
570.62	60575.40
570.78	60736.90
570.95	60631.58
571.11	60690.09
571.27	60629.24
571.43	60582.43
571.60	60952.23
571.76	60739.24
571.92	60781.37
572.09	60772.01
572.25	60772.01
572.41	60521.57
572.57	60591.79
572.74	60835.20
572.90	60488.80
573.06	60704.13
573.22	60860.95
573.38	60631.58
573.55	60697.11
573.71	60898.40
573.87	60636.26
574.03	60584.77
574.20	60952.23
574.36	60554.34
574.52	60727.54
574.68	60919.46
574.84	60669.03
575.01	60818.82
575.17	60844.57
575.33	60704.13
575.49	60720.52
575.65	60844.57
575.82	60963.93
575.98	61036.49
576.14	60900.74
576.30	60788.39
576.46	60985.00
576.62	60753.29
576.79	60917.12
576.95	60809.46
577.11	60940.53
577.27	61064.58
577.43	60966.27
577.59	60816.48
577.75	60830.52
577.92	60699.45
578.08	60779.03
578.24	60945.21
578.40	61160.54
578.56	60996.70
578.72	60956.91
578.88	61066.92
579.04	61162.88
579.21	61001.38
579.37	61062.24
579.53	61146.50
579.69	60832.86
579.85	61078.62
580.01	60956.91
580.17	60856.27
580.33	61300.97
580.49	61272.88
580.65	61010.74
580.82	60966.27
580.98	61066.92
581.14	60725.20
581.30	61176.92
581.46	61036.49
581.62	61284.59
581.78	61057.56
581.94	61029.47
582.10	61064.58
582.26	61174.58
582.42	61113.73
582.58	61013.08
582.74	60874.99
582.90	60835.20
583.06	61083.30
583.22	60823.50
583.38	61020.11
583.54	61155.86
583.70	61146.50
583.86	61291.61
584.02	60975.64
584.18	61130.11
584.34	61130.11
584.50	61097.34
584.66	61125.43
584.82	61029.47
584.98	61249.48
585.14	61237.78
585.30	61015.43
585.46	61296.29
585.62	61275.22
585.78	61345.44
585.94	60966.27
586.10	61207.35
586.26	61167.56
586.42	61216.71
586.58	61057.56
586.74	61205.01
586.90	61153.52
587.06	61167.56
587.22	61310.33
587.38	61090.32
587.54	61333.74
587.70	61418.00
587.86	61310.33
588.02	61237.78
588.18	61310.33
588.34	61055.21
588.49	61183.94
