SpectraSuite Data File
++++++++++++++++++++++++++++++++++++
Date: Fri Oct 25 10:47:40 EDT 2013
User: price-jones
Dark Spectrum Present: No
Reference Spectrum Present: No
Number of Sampled Component Spectra: 1
Spectrometers: USB2+H05261
Integration Time (usec): 100000 (USB2+H05261)
Spectra Averaged: 1 (USB2+H05261)
Boxcar Smoothing: 0 (USB2+H05261)
Correct for Electrical Dark: No (USB2+H05261)
Strobe/Lamp Enabled: No (USB2+H05261)
Correct for Detector Non-linearity: No (USB2+H05261)
Correct for Stray Light: No (USB2+H05261)
Number of Pixels in Processed Spectrum: 2048
>>>>>Begin Processed Spectral Data<<<<<
365.73	100.64
365.92	100.64
366.12	100.64
366.32	67.88
366.52	51.49
366.72	28.09
366.91	4.68
367.11	42.13
367.31	39.79
367.51	74.90
367.70	65.54
367.90	117.03
368.10	39.79
368.30	7.02
368.49	84.26
368.69	70.22
368.89	63.19
369.09	63.19
369.28	28.09
369.48	79.58
369.68	93.62
369.87	74.90
370.07	84.26
370.27	65.54
370.47	276.18
370.66	428.32
370.86	411.93
371.06	388.53
371.25	454.06
371.45	477.47
371.65	465.77
371.84	451.72
372.04	451.72
372.24	447.04
372.44	428.32
372.63	475.13
372.83	578.11
373.03	514.92
373.22	540.66
373.42	486.83
373.62	519.60
373.81	440.02
374.01	547.69
374.21	528.96
374.40	451.72
374.60	608.54
374.79	510.24
374.99	517.26
375.19	550.03
375.38	636.63
375.58	573.43
375.78	519.60
375.97	657.69
376.17	643.65
376.37	589.82
376.56	622.58
376.76	608.54
376.95	538.32
377.15	571.09
377.35	657.69
377.54	601.52
377.74	594.50
377.93	620.24
378.13	655.35
378.33	629.60
378.52	615.56
378.72	653.01
378.91	641.31
379.11	599.18
379.31	594.50
379.50	585.13
379.70	617.90
379.89	657.69
380.09	667.05
380.28	645.99
380.48	678.76
380.68	713.86
380.87	655.35
381.07	627.26
381.26	758.33
381.46	660.03
381.65	697.48
381.85	636.63
382.04	615.56
382.24	648.33
382.43	669.39
382.63	688.12
382.83	655.35
383.02	816.85
383.22	744.29
383.41	699.82
383.61	718.54
383.80	748.97
384.00	795.78
384.19	819.19
384.39	737.27
384.58	765.36
384.78	739.61
384.97	821.53
385.17	737.27
385.36	751.31
385.56	720.88
385.75	706.84
385.95	854.30
386.14	793.44
386.34	788.76
386.53	779.40
386.72	781.74
386.92	910.47
387.11	809.83
387.31	870.68
387.50	767.70
387.70	791.10
387.89	781.74
388.09	847.27
388.28	830.89
388.48	851.96
388.67	826.21
388.86	856.64
389.06	870.68
389.25	917.49
389.45	1001.75
389.64	912.81
389.84	912.81
390.03	882.38
390.22	968.98
390.42	1006.43
390.61	936.21
390.81	952.60
391.00	1015.79
391.19	1034.52
391.39	891.74
391.58	943.24
391.78	966.64
391.97	980.68
392.16	912.81
392.36	1086.01
392.55	1022.81
392.75	990.05
392.94	905.79
393.13	961.96
393.33	976.00
393.52	1036.86
393.71	1083.67
393.91	1034.52
394.10	1062.60
394.29	1083.67
394.49	1179.63
394.68	1139.84
394.88	1125.80
395.07	1067.28
395.26	1090.69
395.46	1158.57
395.65	1233.46
395.84	1036.86
396.04	1240.48
396.23	1109.41
396.42	1074.31
396.62	1132.82
396.81	1071.97
397.00	1158.57
397.19	1214.74
397.39	1233.46
397.58	1268.57
397.77	1301.34
397.97	1320.06
398.16	1322.40
398.35	1308.36
398.55	1308.36
398.74	1371.55
398.93	1350.49
399.12	1299.00
399.32	1324.74
399.51	1409.00
399.70	1357.51
399.90	1411.34
400.09	1425.39
400.28	1357.51
400.47	1425.39
400.67	1359.85
400.86	1488.58
401.05	1430.07
401.24	1593.90
401.44	1446.45
401.63	1474.54
401.82	1448.79
402.01	1509.65
402.21	1551.78
402.40	1519.01
402.59	1554.12
402.78	1549.43
402.97	1579.86
403.17	1692.21
403.36	1554.12
403.55	1673.48
403.74	1699.23
403.93	1624.33
404.13	1701.57
404.32	1659.44
404.51	1668.80
404.70	1748.38
404.89	1720.29
405.09	1809.23
405.28	1687.53
405.47	1638.38
405.66	1788.17
405.85	1837.32
406.05	1762.42
406.24	1919.24
406.43	1762.42
406.62	1879.45
406.81	1902.86
407.00	1809.23
407.20	1792.85
407.39	1827.96
407.58	1926.26
407.77	1935.62
407.96	1935.62
408.15	1954.35
408.34	1994.14
408.54	2101.80
408.73	2038.61
408.92	2071.37
409.11	2127.55
409.30	2001.16
409.49	2040.95
409.68	2050.31
409.87	2141.59
410.07	2036.27
410.26	2190.74
410.45	2141.59
410.64	2162.66
410.83	2253.94
411.02	2256.28
411.21	2366.28
411.40	2223.51
411.59	2368.62
411.78	2099.46
411.98	2310.11
412.17	2200.10
412.36	2321.81
412.55	2368.62
412.74	2385.01
412.93	2438.84
413.12	2452.88
413.31	2492.67
413.50	2490.33
413.69	2644.81
413.88	2539.48
414.07	2565.23
414.26	2768.85
414.45	2600.34
414.64	2661.19
414.83	2686.94
415.02	2747.79
415.22	2626.08
415.41	2700.98
415.60	2832.05
415.79	2916.31
415.98	3007.59
416.17	2902.26
416.36	2972.48
416.55	2860.13
416.74	2750.13
416.93	2960.78
417.12	2881.20
417.31	3035.67
417.50	3087.17
417.69	3141.00
417.88	3194.83
418.07	3052.06
418.26	3185.47
418.45	3117.59
418.64	3288.45
418.83	3145.68
419.02	3171.43
419.21	3269.73
419.39	3246.32
419.58	3321.22
419.77	3222.92
419.96	3332.92
420.15	3297.81
420.34	3346.97
420.53	3370.37
420.72	3311.86
420.91	3438.25
421.10	3393.78
421.29	3623.15
421.48	3426.54
421.67	3496.76
421.86	3456.97
422.05	3405.48
422.24	3487.40
422.43	3517.83
422.61	3480.38
422.80	3487.40
422.99	3375.05
423.18	3660.60
423.37	3665.28
423.56	3499.10
423.75	3574.00
423.94	3492.08
424.13	3419.52
424.32	3400.80
424.50	3574.00
424.69	3674.64
424.88	3630.17
425.07	3569.32
425.26	3435.91
425.45	3599.74
425.64	3466.33
425.83	3508.46
426.01	3705.07
426.20	3735.50
426.39	3503.78
426.58	3606.77
426.77	3599.74
426.96	3648.90
427.15	3728.47
427.33	3798.69
427.52	3742.52
427.71	3763.58
427.90	3712.09
428.09	3777.62
428.28	3960.19
428.46	3948.48
428.65	3758.90
428.84	3978.91
429.03	3896.99
429.22	3660.60
429.40	3859.54
429.59	3873.59
429.78	3686.34
429.97	3719.11
430.16	3868.91
430.34	3730.81
430.53	3866.56
430.72	3880.61
430.91	3922.74
431.10	3866.56
431.28	4131.05
431.47	4072.53
431.66	4299.56
431.85	4250.41
432.03	4290.20
432.22	4322.97
432.41	4180.20
432.60	4208.28
432.79	4379.14
432.97	4269.14
433.16	4294.88
433.35	4219.99
433.54	4201.26
433.72	4311.27
433.91	4372.12
434.10	4355.74
434.28	4388.50
434.47	4456.38
434.66	4496.17
434.85	4482.13
435.03	4400.21
435.22	4528.94
435.41	4723.20
435.59	4573.41
435.78	4702.14
435.97	4664.69
436.16	4550.00
436.34	4615.54
436.53	4718.52
436.72	4863.63
436.90	4627.24
437.09	4760.65
437.28	4550.00
437.46	4795.76
437.65	4781.71
437.84	4681.07
438.02	4706.82
438.21	4837.89
438.40	4690.43
438.58	4978.32
438.77	4858.95
438.96	4816.82
439.14	4947.89
439.33	5062.58
439.52	5128.11
439.70	5090.67
439.89	5036.83
440.08	5207.69
440.26	5177.26
440.45	5144.50
440.63	5219.39
440.82	5469.83
441.01	5383.23
441.19	5397.28
441.38	5521.32
441.57	5600.90
441.75	5586.86
441.94	5628.99
442.12	5916.87
442.31	5881.77
442.50	5638.35
442.68	5771.76
442.87	5762.40
443.05	5579.84
443.24	5715.59
443.43	5790.49
443.61	5844.32
443.80	6087.73
443.98	5710.91
444.17	5507.28
444.35	5781.12
444.54	5919.21
444.73	5834.96
444.91	5874.74
445.10	5975.39
445.28	5844.32
445.47	5811.55
445.65	5923.90
445.84	6008.16
446.02	5837.30
446.21	5947.30
446.39	5980.07
446.58	6057.31
446.77	5937.94
446.95	6059.65
447.14	6200.08
447.32	6282.00
447.51	5893.47
447.69	6087.73
447.88	6146.25
448.06	6031.56
448.25	6038.58
448.43	6099.44
448.62	6061.99
448.80	6054.97
448.99	6026.88
449.17	6171.99
449.36	6139.23
449.54	6471.58
449.73	6399.02
449.91	6331.15
450.10	6263.27
450.28	6368.60
450.46	6466.90
450.65	6581.59
450.83	6450.52
451.02	6516.05
451.20	6558.18
451.39	6427.11
451.57	6560.52
451.76	6370.94
451.94	6558.18
452.13	6490.31
452.31	6630.74
452.49	6457.54
452.68	6614.35
452.86	6518.39
453.05	6436.47
453.23	6764.15
453.42	6782.87
453.60	6595.63
453.78	6780.53
453.97	6675.21
454.15	6679.89
454.34	6878.83
454.52	6930.33
454.70	6958.41
454.89	6810.96
455.07	6731.38
455.26	6862.45
455.44	6892.88
455.62	6932.67
455.81	7026.29
455.99	7129.27
456.17	7103.53
456.36	7059.06
456.54	7208.85
456.73	7169.06
456.91	7419.50
457.09	7410.14
457.28	7445.24
457.46	7276.73
457.64	7351.62
457.83	7396.09
458.01	7463.97
458.19	7602.06
458.38	7370.35
458.56	7566.95
458.74	7501.42
458.93	7520.14
459.11	7613.76
459.29	7630.15
459.48	7562.27
459.66	7363.33
459.84	7712.07
460.03	7819.73
460.21	7658.23
460.39	7836.11
460.57	7702.70
460.76	7742.49
460.94	7889.95
461.12	7679.30
461.31	7793.98
461.49	7744.83
461.67	7730.79
461.85	7985.91
462.04	8102.93
462.22	8568.70
462.40	8114.64
462.59	7995.27
462.77	7969.52
462.95	8212.94
463.13	8009.31
463.32	8161.45
463.50	8170.81
463.68	8259.75
463.86	8449.33
464.05	7981.23
464.23	8166.13
464.41	8212.94
464.59	8264.43
464.78	8449.33
464.96	8224.64
465.14	8245.71
465.32	8409.54
465.50	8308.90
465.69	8482.10
465.87	8425.93
466.05	8390.82
466.23	8346.35
466.41	8500.83
466.60	8613.17
466.78	8381.46
466.96	8351.03
467.14	8571.04
467.32	8435.29
467.51	8641.26
467.69	8468.06
467.87	8606.15
468.05	8739.56
468.23	8781.69
468.41	8662.32
468.60	8549.98
468.78	8723.18
468.96	8779.35
469.14	8884.67
469.32	8961.91
469.50	8627.21
469.69	8999.36
469.87	9088.30
470.05	8842.54
470.23	8884.67
470.41	8908.08
470.59	9055.53
470.77	8896.38
470.95	9125.75
471.14	9266.18
471.32	9114.05
471.50	9291.93
471.68	9310.65
471.86	9289.59
472.04	9287.25
472.22	9558.75
472.40	9462.79
472.58	9275.54
472.77	9572.79
472.95	9497.89
473.13	9956.64
473.31	9762.37
473.49	9753.01
473.67	9645.35
473.85	9834.93
474.03	9935.57
474.21	9951.96
474.39	10078.35
474.57	10249.21
474.75	10106.43
474.93	10281.97
475.12	10228.14
475.30	10246.87
475.48	10232.82
475.66	10256.23
475.84	10513.69
476.02	10546.45
476.20	10504.32
476.38	10703.27
476.56	11073.07
476.74	10785.19
476.92	10963.07
477.10	11035.63
477.28	10956.05
477.46	10995.84
477.64	11211.17
477.82	11283.72
478.00	11819.71
478.18	11344.58
478.36	11793.96
478.54	11623.10
478.72	11585.65
478.90	11913.33
479.08	11915.67
479.26	11997.59
479.44	11962.48
479.62	12346.33
479.80	12329.94
479.98	12376.75
480.16	12566.34
480.34	12496.12
480.52	12655.28
480.70	12659.96
480.88	12470.37
481.06	12620.17
481.24	12727.83
481.41	12952.52
481.59	13221.69
481.77	13097.64
481.95	13427.65
482.13	13317.65
482.31	13310.63
482.49	13781.07
482.67	13675.75
482.85	13970.66
483.03	13832.57
483.21	14134.50
483.39	14029.17
483.57	14253.86
483.74	14218.75
483.92	14588.56
484.10	14291.31
484.28	14635.37
484.46	14747.72
484.64	14984.11
484.82	14700.90
485.00	14895.17
485.18	15199.44
485.35	15325.83
485.53	15129.22
485.71	15468.60
485.89	15353.91
486.07	15510.73
486.25	15499.03
486.43	15707.34
486.61	15740.10
486.78	16245.66
486.96	15988.20
487.14	16456.31
487.32	16294.81
487.50	16453.97
487.68	16734.83
487.85	17053.14
488.03	17366.78
488.21	17291.88
488.39	17390.18
488.57	17116.34
488.75	17481.46
488.92	17834.88
489.10	17975.31
489.28	18005.74
489.46	18059.57
489.64	18204.69
489.81	18761.73
489.99	18672.79
490.17	18932.59
490.35	18710.24
490.53	18551.09
490.70	18848.33
490.88	19030.90
491.06	19410.06
491.24	19096.43
491.41	19171.33
491.59	19164.31
491.77	19503.68
491.95	19796.25
492.13	19852.42
492.30	20030.30
492.48	20175.42
492.66	19969.45
492.84	20308.83
493.01	20566.29
493.19	20313.51
493.37	20659.91
493.54	20762.89
493.72	20671.61
493.90	21010.99
494.08	21036.74
494.25	21259.09
494.43	21355.05
494.61	21965.93
494.79	21785.71
494.96	21652.30
495.14	21668.68
495.32	21900.39
495.49	22115.72
495.67	21994.01
495.85	22295.94
496.02	22429.35
496.20	22551.06
496.38	22478.50
496.55	23030.87
496.73	23527.06
496.91	22876.40
497.09	23026.19
497.26	23124.49
497.44	23108.11
497.62	23147.90
497.79	23751.76
497.97	23826.65
498.14	23330.46
498.32	23981.13
498.50	23625.37
498.67	24140.29
498.85	23924.96
499.03	24259.65
499.20	24507.75
499.38	24428.17
499.56	24416.47
499.73	24669.25
499.91	24493.71
500.08	24669.25
500.26	24339.23
500.44	25109.27
500.61	24975.86
500.79	24636.48
500.97	24999.26
501.14	25785.68
501.32	25188.85
501.49	25259.06
501.67	25427.58
501.84	25797.38
502.02	25839.51
502.20	25951.86
502.37	25741.21
502.55	26284.22
502.72	26316.98
502.90	26244.43
503.07	26316.98
503.25	26361.45
503.43	26214.00
503.60	26441.03
503.78	26527.63
503.95	26316.98
504.13	26735.94
504.30	26899.78
504.48	26590.83
504.65	27264.90
504.83	26803.82
505.01	26902.12
505.18	27246.18
505.36	27339.80
505.53	27211.07
505.71	27733.01
505.88	27754.07
506.06	27138.51
506.23	27342.14
506.41	27529.38
506.58	27733.01
506.76	27775.14
506.93	28238.56
507.11	28088.77
507.28	28444.53
507.46	28114.52
507.63	28276.01
507.81	28446.87
507.98	28327.50
508.16	28559.22
508.33	28734.76
508.50	28411.76
508.68	28774.55
508.85	29347.98
509.03	28489.00
509.20	29181.80
509.38	29469.69
509.55	29020.30
509.73	29778.64
509.90	29457.98
510.08	29111.58
510.25	29406.49
510.42	29701.40
510.60	30073.54
510.77	29703.74
510.95	29766.93
511.12	29467.34
511.30	29902.68
511.47	30099.29
511.64	30277.17
511.82	30731.23
511.99	30195.25
512.17	30171.85
512.34	30204.61
512.51	30918.48
512.69	30841.24
512.86	30749.96
513.04	30450.37
513.21	30906.77
513.38	30749.96
513.56	30955.93
513.73	30920.82
513.90	31112.74
514.08	30871.67
514.25	30944.22
514.43	31140.83
514.60	31325.73
514.77	30946.56
514.95	31569.15
515.12	31503.61
515.29	31969.38
515.47	32135.56
515.64	32140.24
515.81	31842.99
515.99	31688.51
516.16	31723.62
516.33	31992.78
516.51	32154.28
516.68	31583.19
516.85	31524.68
517.03	31508.29
517.20	32208.11
517.37	31990.44
517.54	32046.62
517.72	32250.24
517.89	32292.37
518.06	32236.20
518.24	32540.47
518.41	32065.34
518.58	32589.62
518.75	32437.48
518.93	32844.74
519.10	32823.67
519.27	33078.79
519.45	33036.66
519.62	33198.16
519.79	33123.26
519.96	33509.45
520.14	33673.29
520.31	33420.51
520.48	33425.19
520.65	33750.52
520.83	33493.07
521.00	33998.62
521.17	34024.37
521.34	34419.92
521.52	34096.92
521.69	34092.24
521.86	34562.69
522.03	34986.33
522.20	34288.85
522.38	34433.96
522.55	34637.59
522.72	34649.29
522.89	34478.43
523.07	34731.21
523.24	34492.47
523.41	34983.99
523.58	34663.33
523.75	35075.27
523.92	35105.70
524.10	34930.16
524.27	35168.89
524.44	35594.87
524.61	35136.12
524.78	35541.03
524.96	35606.57
525.13	35409.96
525.30	36023.19
525.47	35611.25
525.64	36009.14
525.81	35641.68
525.98	35910.84
526.16	35342.09
526.33	35496.56
526.50	35976.37
526.67	35559.76
526.84	36048.93
527.01	35578.48
527.18	35896.80
527.36	36348.52
527.53	36247.88
527.70	36563.85
527.87	36563.85
528.04	36313.41
528.21	36589.59
528.38	36456.18
528.55	36835.35
528.72	36587.25
528.89	36762.79
529.07	36999.19
529.24	36842.37
529.41	36786.20
529.58	36877.48
529.75	36772.16
529.92	37064.72
530.09	37251.97
530.26	37205.16
530.43	37315.16
530.60	36994.51
530.77	37181.75
530.94	37291.76
531.11	37649.86
531.28	37361.97
531.46	36940.68
531.63	37823.06
531.80	37551.56
531.97	37584.32
532.14	37722.41
532.31	37801.99
532.48	37645.18
532.65	37961.15
532.82	37855.82
532.99	37661.56
533.16	38124.99
533.33	37706.03
533.50	37865.19
533.67	38436.28
533.84	37841.78
534.01	38185.84
534.18	38176.48
534.35	38380.10
534.52	38527.56
534.69	38349.68
534.86	38466.70
535.03	38426.92
535.20	38588.41
535.37	39299.94
535.54	38888.00
535.71	38391.81
535.88	38443.30
536.05	38824.81
536.22	39194.61
536.38	38979.28
536.55	38745.23
536.72	39035.45
536.89	38546.28
537.06	39016.73
537.23	39288.23
537.40	38497.13
537.57	39302.28
537.74	39047.16
537.91	39517.60
538.08	39269.51
538.25	38995.67
538.42	39576.12
538.59	39323.34
538.75	39232.06
538.92	39409.94
539.09	39875.71
539.26	39433.35
539.43	39290.57
539.60	39662.72
539.77	39651.02
539.94	39449.73
540.11	39374.83
540.28	39543.35
540.44	39966.99
540.61	39360.79
540.78	39566.76
540.95	39997.41
541.12	39817.19
541.29	39920.18
541.46	39892.09
541.62	40367.22
541.79	40421.05
541.96	39885.07
542.13	40325.09
542.30	40451.48
542.47	40257.21
542.63	40165.93
542.80	40100.40
542.97	40989.80
543.14	41111.51
543.31	40727.66
543.48	40563.82
543.64	41378.33
543.81	41523.44
543.98	40935.97
544.15	41170.02
544.32	40566.16
544.48	41972.83
544.65	41235.56
544.82	41237.90
544.99	40573.19
545.16	41209.81
545.32	41212.15
545.49	41282.37
545.66	41596.00
545.83	41352.58
546.00	41471.95
546.16	41366.63
546.33	41254.28
546.50	41120.87
546.67	41418.12
546.83	41158.32
547.00	41141.94
547.17	41605.36
547.34	41507.06
547.50	41757.50
547.67	41942.40
547.84	41874.52
548.00	41404.08
548.17	42139.00
548.34	41673.24
548.51	41998.57
548.67	41860.48
548.84	41984.53
549.01	41923.68
549.18	41916.65
549.34	41928.36
549.51	42085.17
549.68	41792.61
549.84	42096.88
550.01	42302.84
550.18	42178.79
550.34	42071.13
550.51	42078.15
550.68	42471.36
550.84	41975.17
551.01	42433.91
551.18	42337.95
551.34	42366.04
551.51	42281.78
551.68	42579.03
551.84	42890.32
552.01	42436.25
552.18	42759.25
552.34	42241.99
552.51	43021.39
552.68	42714.78
552.84	43000.32
553.01	42960.53
553.18	42546.26
553.34	42609.45
553.51	42473.70
553.67	42934.79
553.84	42918.40
554.01	42993.30
554.17	43058.84
554.34	42845.85
554.51	43419.28
554.67	43372.47
554.84	42909.04
555.00	42527.53
555.17	43047.13
555.33	42836.48
555.50	42906.70
555.67	43157.14
555.83	42857.55
556.00	43042.45
556.16	43756.32
556.33	43545.67
556.50	43217.99
556.66	43278.85
556.83	43260.12
556.99	43573.75
557.16	43452.05
557.32	43681.42
557.49	43428.64
557.65	43250.76
557.82	43419.28
557.98	43454.39
558.15	43260.12
558.32	43791.42
558.48	43306.93
558.65	43199.27
558.81	43297.57
558.98	43571.41
559.14	43459.07
559.31	43878.02
559.47	43962.28
559.64	43676.74
559.80	43622.90
559.97	43885.04
560.13	43632.27
560.30	43339.70
560.46	44046.54
560.63	43573.75
560.79	43863.98
560.96	44062.93
561.12	44053.56
561.29	43683.76
561.45	43608.86
561.61	43824.19
561.78	43934.20
561.94	43683.76
562.11	43903.77
562.27	43943.56
562.44	43929.51
562.60	44191.65
562.77	44547.42
562.93	44156.55
563.10	44142.50
563.26	43524.60
563.42	44098.03
563.59	43920.15
563.75	43833.55
563.92	44137.82
564.08	44243.15
564.24	44481.88
564.41	44514.65
564.57	44432.73
564.74	44231.44
564.90	44367.20
565.07	44055.90
565.23	43969.30
565.39	44133.14
565.56	44442.09
565.72	44093.35
565.88	44451.45
566.05	44268.89
566.21	44294.64
566.38	44311.02
566.54	44266.55
566.70	44350.81
566.87	44989.78
567.03	44046.54
567.19	44601.25
567.36	44561.46
567.52	44102.71
567.68	44397.62
567.85	44470.18
568.01	44603.59
568.17	44409.32
568.34	44964.03
568.50	44535.71
568.66	44186.97
568.83	44629.34
568.99	44720.62
569.15	44107.40
569.32	44210.38
569.48	43896.75
569.64	44952.33
569.81	44619.97
569.97	44795.51
570.13	44472.52
570.30	44395.28
570.46	44182.29
570.62	44395.28
570.78	44100.37
570.95	44306.34
571.11	44608.27
571.27	44797.85
571.43	44538.05
571.60	45186.38
571.76	44603.59
571.92	44336.77
572.09	44339.11
572.25	44648.06
572.41	44603.59
572.57	44680.83
572.74	44598.91
572.90	44577.84
573.06	44741.68
573.22	44722.96
573.38	44577.84
573.55	44697.21
573.71	44844.66
573.87	44657.42
574.03	44257.19
574.20	44186.97
574.36	44680.83
574.52	44973.39
574.68	44877.43
574.84	44570.82
575.01	44320.38
575.17	44704.23
575.33	44332.09
575.49	44678.49
575.65	44795.51
575.82	45382.99
575.98	45010.84
576.14	45591.30
576.30	44968.71
576.46	44800.19
576.62	44942.97
576.79	44570.82
576.95	44254.85
577.11	44289.96
577.27	45003.82
577.43	45010.84
577.59	44718.28
577.75	44737.00
577.92	44493.58
578.08	44615.29
578.24	44425.71
578.40	44404.64
578.56	44863.39
578.72	45067.02
578.88	45085.74
579.04	44926.58
579.21	44720.62
579.37	44699.55
579.53	44938.29
579.69	44634.02
579.85	44849.35
580.01	44882.11
580.17	44739.34
580.33	45427.46
580.49	44889.13
580.65	45352.56
580.82	44851.69
580.98	44811.90
581.14	44369.54
581.30	44797.85
581.46	45027.23
581.62	45162.98
581.78	44835.30
581.94	45387.67
582.10	44947.65
582.26	45298.73
582.42	45198.09
582.58	44839.98
582.74	44596.57
582.90	44554.44
583.06	45174.68
583.22	44940.63
583.38	44634.02
583.54	44816.58
583.70	44734.66
583.86	44774.45
584.02	44631.68
584.18	44903.18
584.34	44959.35
584.50	45172.34
584.66	44800.19
584.82	45024.89
584.98	44839.98
585.14	45228.51
585.30	44608.27
585.46	44935.95
585.62	44851.69
585.78	44839.98
585.94	44357.83
586.10	44975.73
586.26	45102.12
586.42	44765.09
586.58	45181.70
586.74	44697.21
586.90	44898.50
587.06	45125.53
587.22	44898.50
587.38	44790.83
587.54	45720.02
587.70	45017.86
587.86	45177.02
588.02	44938.29
588.18	45329.16
588.34	44687.85
588.49	45010.84
588.65	44814.24
588.81	44779.13
588.97	44758.06
589.13	45132.55
589.29	45057.65
589.45	45287.03
589.61	45509.38
589.77	45198.09
589.93	45603.00
590.08	45272.98
590.24	45209.79
