SpectraSuite Data File
++++++++++++++++++++++++++++++++++++
Date: Fri Oct 25 11:24:02 EDT 2013
User: price-jones
Dark Spectrum Present: No
Reference Spectrum Present: No
Number of Sampled Component Spectra: 1
Spectrometers: USB2+H05261
Integration Time (usec): 100000 (USB2+H05261)
Spectra Averaged: 1 (USB2+H05261)
Boxcar Smoothing: 0 (USB2+H05261)
Correct for Electrical Dark: No (USB2+H05261)
Strobe/Lamp Enabled: No (USB2+H05261)
Correct for Detector Non-linearity: No (USB2+H05261)
Correct for Stray Light: No (USB2+H05261)
Number of Pixels in Processed Spectrum: 2048
>>>>>Begin Processed Spectral Data<<<<<
365.73	252.78
365.92	252.78
366.12	252.78
366.32	191.92
366.52	117.03
366.72	105.32
366.91	189.58
367.11	184.90
367.31	95.96
367.51	117.03
367.70	128.73
367.90	177.88
368.10	100.64
368.30	56.17
368.49	135.75
368.69	98.30
368.89	138.09
369.09	168.52
369.28	163.84
369.48	142.77
369.68	168.52
369.87	191.92
370.07	156.82
370.27	166.18
370.47	283.20
370.66	606.20
370.86	636.63
371.06	674.07
371.25	674.07
371.45	748.97
371.65	720.88
371.84	704.50
372.04	667.05
372.24	603.86
372.44	767.70
372.63	720.88
372.83	753.65
373.03	713.86
373.22	734.93
373.42	763.01
373.62	765.36
373.81	786.42
374.01	791.10
374.21	849.61
374.40	755.99
374.60	795.78
374.79	866.00
374.99	777.06
375.19	837.91
375.38	901.11
375.58	833.23
375.78	898.77
375.97	905.79
376.17	908.13
376.37	901.11
376.56	870.68
376.76	844.93
376.95	880.04
377.15	894.08
377.35	940.90
377.54	933.87
377.74	875.36
377.93	866.00
378.13	765.36
378.33	905.79
378.52	868.34
378.72	971.32
378.91	931.53
379.11	915.15
379.31	954.94
379.50	978.34
379.70	1020.47
379.89	1032.18
380.09	1025.15
380.28	919.83
380.48	1046.22
380.68	1011.11
380.87	1039.20
381.07	1001.75
381.26	943.24
381.46	1025.15
381.65	976.00
381.85	1083.67
382.04	1020.47
382.24	1137.50
382.43	1015.79
382.63	1022.81
382.83	1050.90
383.02	1004.09
383.22	1130.48
383.41	1102.39
383.61	1172.61
383.80	1181.97
384.00	1011.11
384.19	1200.69
384.39	1062.60
384.58	1025.15
384.78	1123.46
384.97	1128.14
385.17	1167.93
385.36	1156.22
385.56	1135.16
385.75	1102.39
385.95	1121.12
386.14	1139.84
386.34	1235.80
386.53	1163.25
386.72	1160.91
386.92	1270.91
387.11	1167.93
387.31	1275.59
387.50	1214.74
387.70	1247.51
387.89	1287.29
388.09	1289.64
388.28	1207.72
388.48	1224.10
388.67	1289.64
388.86	1270.91
389.06	1303.68
389.25	1366.87
389.45	1308.36
389.64	1313.04
389.84	1451.13
390.03	1331.76
390.22	1416.02
390.42	1411.34
390.61	1458.15
390.81	1444.11
391.00	1383.26
391.19	1385.60
391.39	1533.05
391.58	1483.90
391.78	1451.13
391.97	1495.60
392.16	1490.92
392.36	1607.95
392.55	1516.67
392.75	1600.93
392.94	1509.65
393.13	1483.90
393.33	1472.20
393.52	1542.41
393.71	1582.20
393.91	1586.88
394.10	1483.90
394.29	1544.75
394.49	1652.42
394.68	1703.91
394.88	1633.69
395.07	1605.61
395.26	1596.25
395.46	1675.82
395.65	1724.97
395.84	1671.14
396.04	1701.57
396.23	1764.76
396.42	1715.61
396.62	1746.04
396.81	1717.95
397.00	1678.16
397.19	1818.60
397.39	1813.92
397.58	1795.19
397.77	1952.01
397.97	1909.88
398.16	1827.96
398.35	1900.52
398.55	1846.68
398.74	1827.96
398.93	2047.97
399.12	1973.07
399.32	1870.09
399.51	1991.80
399.70	2069.03
399.90	1916.90
400.09	1989.46
400.28	2050.31
400.47	2005.84
400.67	2106.48
400.86	2134.57
401.05	2050.31
401.24	2050.31
401.44	2129.89
401.63	2045.63
401.82	2136.91
402.01	2223.51
402.21	2258.62
402.40	2104.14
402.59	2174.36
402.78	2136.91
402.97	2305.43
403.17	2293.72
403.36	2282.02
403.55	2424.80
403.74	2317.13
403.93	2473.95
404.13	2408.41
404.32	2326.49
404.51	2310.11
404.70	2417.77
404.89	2347.56
405.09	2408.41
405.28	2595.65
405.47	2511.39
405.66	2520.76
405.85	2555.86
406.05	2530.12
406.24	2551.18
406.43	2595.65
406.62	2616.72
406.81	2572.25
407.00	2649.49
407.20	2576.93
407.39	2569.91
407.58	2773.53
407.77	2801.62
407.96	2864.82
408.15	2775.88
408.34	2773.53
408.54	2836.73
408.73	2782.90
408.92	2719.70
409.11	2820.35
409.30	2818.00
409.49	2885.88
409.68	2942.05
409.87	2986.52
410.07	2995.89
410.26	3009.93
410.45	2998.23
410.64	3133.98
410.83	2984.18
411.02	3152.70
411.21	3232.28
411.40	3136.32
411.59	3222.92
411.78	3225.26
411.98	3211.22
412.17	3351.65
412.36	3206.53
412.55	3363.35
412.74	3309.52
412.93	3274.41
413.12	3435.91
413.31	3499.10
413.50	3459.31
413.69	3489.74
413.88	3578.68
414.07	3548.25
414.26	3747.20
414.45	3592.72
414.64	3630.17
414.83	3772.94
415.02	3777.62
415.22	3976.57
415.41	3901.67
415.60	3908.69
415.79	3889.97
415.98	4067.85
416.17	4004.66
416.36	3911.04
416.55	4002.32
416.74	4056.15
416.93	4194.24
417.12	4140.41
417.31	4315.95
417.50	4241.05
417.69	4346.37
417.88	4170.83
418.07	4299.56
418.26	4222.33
418.45	4491.49
418.64	4503.19
418.83	4437.66
419.02	4444.68
419.21	4531.28
419.39	4432.97
419.58	4507.87
419.77	4425.95
419.96	4613.20
420.15	4533.62
420.34	4468.08
420.53	4657.67
420.72	4688.09
420.91	4737.24
421.10	4755.97
421.29	4873.00
421.48	4575.75
421.67	4807.46
421.86	4875.34
422.05	4734.90
422.24	4966.62
422.43	4826.18
422.61	5100.03
422.80	4994.70
422.99	4915.12
423.18	4842.57
423.37	5008.75
423.56	5036.83
423.75	5053.22
423.94	4793.42
424.13	4774.69
424.32	4664.69
424.50	5032.15
424.69	5172.58
424.88	5078.96
425.07	5034.49
425.26	4828.53
425.45	4912.78
425.64	5121.09
425.83	5020.45
426.01	5207.69
426.20	5118.75
426.39	5107.05
426.58	5025.13
426.77	4999.38
426.96	5259.18
427.15	5085.98
427.33	5160.88
427.52	5191.31
427.71	5139.82
427.90	5224.08
428.09	5268.55
428.28	5490.90
428.46	5284.93
428.65	5305.99
428.84	5537.71
429.03	5647.71
429.22	5582.18
429.40	5551.75
429.59	5547.07
429.78	5343.44
429.97	5327.06
430.16	5633.67
430.34	5652.39
430.53	5713.25
430.72	5561.11
430.91	5626.65
431.10	5661.76
431.28	5659.42
431.47	5818.57
431.66	5841.98
431.85	5872.40
432.03	6045.60
432.22	6003.47
432.41	5987.09
432.60	5902.83
432.79	6005.81
432.97	6066.67
433.16	6078.37
433.35	6083.05
433.54	6001.13
433.72	6015.18
433.91	6092.41
434.10	6265.61
434.28	6090.07
434.47	6263.27
434.66	6289.02
434.85	6284.34
435.03	6258.59
435.22	6258.59
435.41	6459.88
435.59	6303.06
435.78	6291.36
435.97	6551.16
436.16	6459.88
436.34	6424.77
436.53	6633.08
436.72	6686.91
436.90	6506.69
437.09	6799.26
437.28	6434.13
437.46	6656.48
437.65	6642.44
437.84	6794.58
438.02	6925.65
438.21	6834.36
438.40	6801.60
438.58	7075.44
438.77	7180.76
438.96	7164.38
439.14	7248.64
439.33	7150.34
439.52	7321.20
439.70	7232.26
439.89	7382.05
440.08	7515.46
440.26	7456.95
440.45	7339.92
440.63	7403.11
440.82	7466.31
441.01	7480.35
441.19	7688.66
441.38	7716.75
441.57	7796.32
441.75	7801.01
441.94	8037.40
442.12	8116.98
442.31	7826.75
442.50	8203.58
442.68	7978.89
442.87	7953.14
443.05	8147.40
443.24	8201.24
443.43	8152.09
443.61	8292.52
443.80	8713.81
443.98	8133.36
444.17	7824.41
444.35	8177.83
444.54	8423.59
444.73	8379.12
444.91	8351.03
445.10	8353.37
445.28	8243.37
445.47	8421.25
445.65	8306.56
445.84	8472.74
446.02	8482.10
446.21	8439.97
446.39	8442.31
446.58	8641.26
446.77	8578.06
446.95	8369.76
447.14	8383.80
447.32	8542.96
447.51	8496.14
447.69	8489.12
447.88	8585.08
448.06	8456.36
448.25	8507.85
448.43	8711.47
448.62	8557.00
448.80	8648.28
448.99	8554.66
449.17	8858.93
449.36	8620.19
449.54	8814.46
449.73	8919.78
449.91	9001.70
450.10	9071.92
450.28	8922.12
450.46	9064.89
450.65	9193.62
450.83	9111.71
451.02	9034.47
451.20	9291.93
451.39	9181.92
451.57	9160.86
451.76	9029.79
451.94	9125.75
452.13	9476.83
452.31	9305.97
452.49	9144.47
452.68	9301.29
452.86	9320.01
453.05	9460.45
453.23	9376.19
453.42	9373.85
453.60	9392.57
453.78	9837.27
453.97	9488.53
454.15	9399.59
454.34	9650.03
454.52	9888.76
454.70	9678.12
454.89	9935.57
455.07	9893.44
455.26	9837.27
455.44	9909.83
455.62	9949.62
455.81	9895.78
455.99	9937.91
456.17	10017.49
456.36	10076.01
456.54	10361.55
456.73	10406.02
456.91	10553.48
457.09	10391.98
457.28	10677.52
457.46	10272.61
457.64	10420.06
457.83	10443.47
458.01	10644.76
458.19	10822.64
458.38	10724.33
458.56	10974.77
458.74	10511.35
458.93	10799.23
459.11	10785.19
459.29	10736.04
459.48	10937.32
459.66	10820.30
459.84	11105.84
460.03	11187.76
460.21	10930.30
460.39	10984.13
460.57	10949.03
460.76	11197.12
460.94	11129.25
461.12	11117.54
461.31	11431.18
461.49	11194.78
461.67	11206.48
461.85	11454.58
462.04	11382.03
462.22	11634.80
462.40	11398.41
462.59	11576.29
462.77	11477.99
462.95	11702.68
463.13	11702.68
463.32	11676.93
463.50	11784.60
463.68	11789.28
463.86	11803.32
464.05	11639.48
464.23	11730.76
464.41	11892.26
464.59	11587.99
464.78	12229.30
464.96	11922.69
465.14	11878.22
465.32	11922.69
465.50	12306.54
465.69	12119.29
465.87	12198.87
466.05	12358.03
466.23	12116.95
466.41	12248.02
466.60	12430.59
466.78	12203.55
466.96	12334.62
467.14	12435.27
467.32	12613.15
467.51	12643.57
467.69	12163.76
467.87	12683.36
468.05	12676.34
468.23	12512.50
468.41	12601.44
468.60	12617.83
468.78	12758.26
468.96	12564.00
469.14	12957.21
469.32	12971.25
469.50	12847.20
469.69	12936.14
469.87	13025.08
470.05	13149.13
470.23	13128.06
470.41	13109.34
470.59	13532.98
470.77	13310.63
470.95	13413.61
471.14	13352.76
471.32	13090.62
471.50	13593.83
471.68	13678.09
471.86	13818.52
472.04	13944.91
472.22	14132.15
472.40	13797.46
472.58	13888.74
472.77	14118.11
472.95	14200.03
473.13	14672.82
473.31	14050.24
473.49	14218.75
473.67	14235.14
473.85	14370.89
474.03	14904.53
474.21	14539.41
474.39	14925.60
474.57	14743.03
474.75	14897.51
474.93	15056.67
475.12	14867.08
475.30	15290.72
475.48	15386.68
475.66	15405.41
475.84	15199.44
476.02	15379.66
476.20	15353.91
476.38	15758.83
476.56	16184.80
476.74	16074.80
476.92	15714.36
477.10	15887.56
477.28	16201.19
477.46	16107.57
477.64	16507.80
477.82	16556.95
478.00	17116.34
478.18	16886.97
478.36	16973.56
478.54	17245.07
478.72	17158.47
478.90	17561.04
479.08	17785.73
479.26	17961.27
479.44	17778.71
479.62	18038.51
479.80	18143.83
479.98	18281.92
480.16	18775.78
480.34	18436.40
480.52	18607.26
480.70	18602.58
480.88	18359.16
481.06	18810.89
481.24	19007.49
481.41	19232.18
481.59	19363.25
481.77	19665.18
481.95	19747.10
482.13	19814.98
482.31	19803.27
482.49	20264.36
482.67	20191.80
482.85	20561.61
483.03	20730.12
483.21	20879.92
483.39	21266.11
483.57	20879.92
483.74	21404.20
483.92	21507.18
484.10	21088.23
484.28	21900.39
484.46	22167.21
484.64	22544.04
484.82	22190.62
485.00	22352.12
485.18	22874.06
485.35	23089.38
485.53	22888.10
485.71	22925.55
485.89	23529.41
486.07	23412.38
486.25	23714.31
486.43	23775.16
486.61	24187.10
486.78	24194.12
486.96	24215.18
487.14	24879.89
487.32	24655.20
487.50	25029.69
487.68	25097.56
487.85	25490.77
488.03	25579.71
488.21	26043.14
488.39	25853.56
488.57	25755.26
488.75	26129.74
488.92	26429.33
489.10	26689.13
489.28	26927.86
489.46	27639.39
489.64	27370.22
489.81	27887.48
489.99	27314.05
490.17	27857.06
490.35	28121.54
490.53	28472.62
490.70	28538.15
490.88	28479.64
491.06	28933.70
491.24	29013.28
491.41	29380.74
491.59	29305.85
491.77	29605.44
491.95	29795.02
492.13	30012.69
492.30	30101.63
492.48	30281.85
492.66	30279.51
492.84	30602.50
493.01	31051.89
493.19	30789.75
493.37	31084.65
493.54	31124.44
493.72	31976.40
493.90	31585.53
494.08	31646.38
494.25	31990.44
494.43	32287.69
494.61	32905.59
494.79	32879.85
494.96	32278.33
495.14	32921.98
495.32	33443.91
495.49	33553.92
495.67	33273.06
495.85	34178.84
496.02	34038.41
496.20	34073.52
496.38	34139.05
496.55	34356.72
496.73	34742.91
496.91	34778.02
497.09	34712.49
497.26	35002.71
497.44	35030.80
497.62	35611.25
497.79	36205.75
497.97	35622.95
498.14	36067.66
498.32	36205.75
498.50	36416.40
498.67	36833.01
498.85	36643.43
499.03	37041.32
499.20	36992.17
499.38	37062.38
499.56	37230.90
499.73	37156.00
499.91	37699.01
500.08	38094.56
500.26	37682.62
500.44	37734.12
500.61	38092.22
500.79	37846.46
500.97	38494.79
501.14	39185.25
501.32	38848.21
501.49	38651.61
501.67	39206.31
501.84	39838.26
502.02	39203.97
502.20	39290.57
502.37	39447.39
502.55	39604.20
502.72	39629.95
502.90	39990.39
503.07	39688.46
503.25	40016.14
503.43	39976.35
503.60	40346.15
503.78	40205.72
503.95	40814.26
504.13	40690.21
504.30	40774.47
504.48	40355.52
504.65	41027.25
504.83	41219.17
505.01	41450.89
505.18	41757.50
505.36	42073.47
505.53	41404.08
505.71	41797.29
505.88	41900.27
506.06	41727.07
506.23	42117.94
506.41	42117.94
506.58	41825.37
506.76	42094.53
506.93	42859.89
507.11	42955.85
507.28	43009.68
507.46	42703.07
507.63	42777.97
507.81	43498.86
507.98	43075.22
508.16	43232.04
508.33	43290.55
508.50	43889.73
508.68	44121.44
508.85	44147.18
509.03	44004.41
509.20	44428.05
509.38	44392.94
509.55	44629.34
509.73	44629.34
509.90	44664.44
510.08	44835.30
510.25	45088.08
510.42	44767.43
510.60	45289.37
510.77	45647.47
510.95	45801.94
511.12	45338.52
511.30	45448.52
511.47	45591.30
511.64	46171.75
511.82	46143.66
511.99	46073.45
512.17	46660.92
512.34	46153.02
512.51	46384.74
512.69	46831.78
512.86	46845.82
513.04	46658.58
513.21	46799.01
513.38	46822.42
513.56	47330.31
513.73	47201.58
513.90	47161.79
514.08	47295.21
514.25	47578.41
514.43	47636.92
514.60	47887.36
514.77	47173.50
514.95	48114.39
515.12	47779.70
515.29	47941.19
515.47	48081.63
515.64	48236.10
515.81	48198.65
515.99	48189.29
516.16	48540.37
516.33	48676.12
516.51	49263.60
516.68	48884.43
516.85	48458.45
517.03	48563.78
517.20	49289.34
517.37	48931.24
517.54	49228.49
517.72	49118.48
517.89	49563.18
518.06	49427.43
518.24	49331.47
518.41	49387.64
518.58	49956.39
518.75	49558.50
518.93	49837.03
519.10	49970.44
519.27	49883.84
519.45	50031.29
519.62	49998.52
519.79	50710.05
519.96	50457.27
520.14	50328.54
520.31	50478.33
520.48	50401.10
520.65	50525.14
520.83	50939.42
521.00	51199.22
521.17	50759.20
521.34	50941.76
521.52	50885.59
521.69	50859.84
521.86	51201.56
522.03	51566.68
522.20	51615.83
522.38	51531.57
522.55	51650.94
522.72	51597.11
522.89	51473.06
523.07	52030.11
523.24	51742.22
523.41	52081.60
523.58	51454.34
523.75	52097.98
523.92	52079.26
524.10	52158.84
524.27	52034.79
524.44	52222.03
524.61	52215.01
524.78	52381.19
524.96	52371.83
525.13	52446.72
525.30	52533.32
525.47	52748.65
525.64	52622.26
525.81	52886.74
525.98	52776.74
526.16	52987.39
526.33	52952.28
526.50	53277.61
526.67	53036.54
526.84	53066.97
527.01	53104.41
527.18	53106.76
527.36	53095.05
527.53	53556.14
527.70	53808.92
527.87	53518.69
528.04	53242.51
528.21	53546.78
528.38	53499.97
528.55	53698.91
528.72	53745.72
528.89	53628.69
529.07	53649.76
529.24	53820.62
529.41	54007.86
529.58	54024.25
529.75	53961.05
529.92	54042.97
530.09	53813.60
530.26	53942.33
530.43	54305.11
530.60	54129.57
530.77	54031.27
530.94	54160.00
531.11	54026.59
531.28	54127.23
531.46	54370.64
531.63	54740.45
531.80	54649.17
531.97	54621.08
532.14	54614.06
532.31	54461.93
532.48	54574.27
532.65	54773.22
532.82	54780.24
532.99	54880.88
533.16	54635.13
533.33	55295.16
533.50	54913.65
533.67	55145.36
533.84	55210.90
534.01	55103.23
534.18	54934.71
534.35	55412.18
534.52	55400.48
534.69	55175.79
534.86	55370.05
535.03	55363.03
535.20	55379.42
535.37	55449.63
535.54	55573.68
535.71	55175.79
535.88	55587.72
536.05	55566.66
536.22	55557.30
536.38	55969.23
536.55	55920.08
536.72	55938.80
536.89	55646.24
537.06	55662.62
537.23	56065.19
537.40	55826.46
537.57	55884.97
537.74	56112.00
537.91	56273.50
538.08	56130.73
538.25	55807.73
538.42	56137.75
538.59	56353.08
538.75	56137.75
538.92	56435.00
539.09	56257.12
539.26	56226.69
539.43	56545.00
539.60	56479.47
539.77	56334.35
539.94	56507.55
540.11	56526.28
540.28	56633.94
540.44	56699.48
540.61	56671.39
540.78	56456.06
540.95	56568.41
541.12	56559.05
541.29	56519.26
541.46	56849.27
541.62	56680.75
541.79	56507.55
541.96	56741.61
542.13	56687.78
542.30	56924.17
542.47	57090.35
542.63	57069.28
542.80	56797.78
542.97	57188.65
543.14	57263.55
543.31	57371.21
543.48	57443.77
543.64	57551.43
543.81	57455.47
543.98	57352.49
544.15	57373.55
544.32	57518.67
544.48	57633.35
544.65	57638.03
544.82	57532.71
544.99	57340.78
545.16	57839.32
545.32	57588.88
545.49	57715.27
545.66	58028.90
545.83	57750.38
546.00	57954.00
546.16	57691.86
546.33	57544.41
546.50	57645.05
546.67	57888.47
546.83	57631.01
547.00	57886.13
547.17	58005.50
547.34	58080.39
547.50	58183.38
547.67	58145.93
547.84	58195.08
548.00	58248.91
548.17	58532.12
548.34	58232.53
548.51	58513.39
548.67	58370.62
548.84	58122.52
549.01	58377.64
549.18	58466.58
549.34	58291.04
549.51	58546.16
549.68	58761.49
549.84	58295.72
550.01	58555.52
550.18	58365.94
550.34	58445.52
550.51	58520.41
550.68	58518.07
550.84	58335.51
551.01	58754.47
551.18	58805.96
551.34	58417.43
551.51	58731.06
551.68	58784.90
551.84	58686.59
552.01	58370.62
552.18	58845.75
552.34	58684.25
552.51	58932.35
552.68	58670.21
552.84	58913.62
553.01	59023.63
553.18	59070.44
553.34	59150.02
553.51	58794.26
553.67	59131.29
553.84	58986.18
554.01	59316.20
554.17	59065.76
554.34	59070.44
554.51	59091.51
554.67	59379.39
554.84	59278.75
555.00	59068.10
555.17	59199.17
555.33	59250.66
555.50	59014.27
555.67	59128.95
555.83	59215.55
556.00	59260.02
556.16	59465.99
556.33	59547.91
556.50	59253.00
556.66	59550.25
556.83	59072.78
556.99	59653.23
557.16	59592.38
557.32	59702.38
557.49	59737.49
557.65	59311.52
557.82	59559.61
557.98	59480.03
558.15	59395.77
558.32	59384.07
558.48	59718.77
558.65	59868.56
558.81	59646.21
558.98	59594.72
559.14	59688.34
559.31	59751.54
559.47	59985.59
559.64	59936.44
559.80	59891.97
559.97	59847.50
560.13	59686.00
560.30	59655.57
560.46	59929.42
560.63	59980.91
560.79	59910.69
560.96	59990.27
561.12	59898.99
561.29	59985.59
561.45	60013.68
561.61	59906.01
561.78	59868.56
561.94	60142.41
562.11	60020.70
562.27	59896.65
562.44	60004.31
562.60	60212.62
562.77	60016.02
562.93	59980.91
563.10	60327.31
563.26	60130.70
563.42	60207.94
563.59	60165.81
563.75	60128.36
563.92	60196.24
564.08	60151.77
564.24	60133.04
564.41	60327.31
564.57	60397.52
564.74	60341.35
564.90	60280.50
565.07	60287.52
565.23	60264.11
565.39	60264.11
565.56	60383.48
565.72	60250.07
565.88	60154.11
566.05	60214.96
566.21	60158.79
566.38	60294.54
566.54	60493.49
566.70	60331.99
566.87	60479.44
567.03	60519.23
567.19	60582.43
567.36	60420.93
567.52	60397.52
567.68	60856.27
567.85	60472.42
568.01	60540.30
568.17	60280.50
568.34	60364.76
568.50	60631.58
568.66	60324.97
568.83	60584.77
568.99	60432.63
569.15	60678.39
569.32	60561.36
569.48	60664.35
569.64	60568.38
569.81	60598.81
569.97	60575.40
570.13	60647.96
570.30	60474.76
570.46	60654.98
570.62	60664.35
570.78	60610.51
570.95	60617.53
571.11	60900.74
571.27	60575.40
571.43	60441.99
571.60	60867.97
571.76	60685.41
571.92	60715.84
572.09	60706.47
572.25	60783.71
572.41	60608.17
572.57	60807.12
572.74	61071.60
572.90	60687.75
573.06	60748.60
573.22	60793.07
573.38	60814.14
573.55	60687.75
573.71	61073.94
573.87	60743.92
574.03	60582.43
574.20	60807.12
574.36	60704.13
574.52	60956.91
574.68	60989.68
574.84	60757.97
575.01	60924.14
575.17	60676.05
575.33	60903.08
575.49	60750.94
575.65	60821.16
575.82	60760.31
575.98	60786.05
576.14	61233.10
576.30	61024.79
576.46	60994.36
576.62	61006.06
576.79	60837.54
576.95	60727.54
577.11	60832.86
577.27	60832.86
577.43	61064.58
577.59	61045.85
577.75	60896.06
577.92	60790.73
578.08	61069.26
578.24	61057.56
578.40	61511.62
578.56	61057.56
578.72	61034.15
578.88	61293.95
579.04	61293.95
579.21	60898.40
579.37	61300.97
579.53	61139.47
579.69	60816.48
579.85	61027.13
580.01	60980.32
580.17	60823.50
580.33	61188.63
580.49	61212.03
580.65	61045.85
580.82	60970.96
580.98	60823.50
581.14	60985.00
581.30	61059.90
581.46	61174.58
581.62	61027.13
581.78	61022.45
581.94	61146.50
582.10	60982.66
582.26	60966.27
582.42	61188.63
582.58	61106.71
582.74	61197.99
582.90	61151.18
583.06	60924.14
583.22	60776.69
583.38	61073.94
583.54	61181.60
583.70	61179.26
583.86	61052.87
584.02	60893.72
584.18	61085.64
584.34	60949.89
584.50	61193.31
584.66	60947.55
584.82	60928.83
584.98	61432.04
585.14	61228.41
585.30	60903.08
585.46	61471.83
585.62	61118.41
585.78	61244.80
585.94	60933.51
586.10	61216.71
586.26	61190.97
586.42	61235.44
586.58	61219.05
586.74	61364.17
586.90	61165.22
587.06	60994.36
587.22	61139.47
587.38	61258.84
587.54	61462.47
587.70	61305.65
587.86	61216.71
588.02	61174.58
588.18	61219.05
588.34	61083.30
588.49	61190.97
