SpectraSuite Data File
++++++++++++++++++++++++++++++++++++
Date: Fri Oct 25 10:47:05 EDT 2013
User: price-jones
Dark Spectrum Present: No
Reference Spectrum Present: No
Number of Sampled Component Spectra: 1
Spectrometers: USB2+H05261
Integration Time (usec): 100000 (USB2+H05261)
Spectra Averaged: 1 (USB2+H05261)
Boxcar Smoothing: 0 (USB2+H05261)
Correct for Electrical Dark: No (USB2+H05261)
Strobe/Lamp Enabled: No (USB2+H05261)
Correct for Detector Non-linearity: No (USB2+H05261)
Correct for Stray Light: No (USB2+H05261)
Number of Pixels in Processed Spectrum: 2048
>>>>>Begin Processed Spectral Data<<<<<
365.73	196.60
365.92	196.60
366.12	196.60
366.32	88.94
366.52	0.00
366.72	60.85
366.91	53.83
367.11	39.79
367.31	0.00
367.51	60.85
367.70	51.49
367.90	37.45
368.10	0.00
368.30	39.79
368.49	51.49
368.69	51.49
368.89	35.11
369.09	70.22
369.28	70.22
369.48	42.13
369.68	110.01
369.87	112.35
370.07	124.05
370.27	112.35
370.47	238.73
370.66	278.52
370.86	444.70
371.06	477.47
371.25	479.81
371.45	442.36
371.65	510.24
371.84	428.32
372.04	433.00
372.24	428.32
372.44	468.11
372.63	449.38
372.83	517.26
373.03	526.62
373.22	514.92
373.42	489.17
373.62	564.07
373.81	519.60
374.01	587.47
374.21	547.69
374.40	568.75
374.60	648.33
374.79	561.73
374.99	566.41
375.19	557.05
375.38	571.09
375.58	547.69
375.78	638.97
375.97	671.73
376.17	571.09
376.37	615.56
376.56	552.37
376.76	550.03
376.95	564.07
377.15	629.60
377.35	638.97
377.54	617.90
377.74	641.31
377.93	557.05
378.13	643.65
378.33	603.86
378.52	589.82
378.72	601.52
378.91	695.14
379.11	653.01
379.31	624.92
379.50	690.46
379.70	624.92
379.89	655.35
380.09	634.29
380.28	697.48
380.48	704.50
380.68	690.46
380.87	678.76
381.07	601.52
381.26	723.23
381.46	645.99
381.65	704.50
381.85	636.63
382.04	727.91
382.24	765.36
382.43	664.71
382.63	603.86
382.83	718.54
383.02	653.01
383.22	716.20
383.41	814.51
383.61	657.69
383.80	657.69
384.00	734.93
384.19	748.97
384.39	791.10
384.58	732.59
384.78	802.80
384.97	779.40
385.17	777.06
385.36	755.99
385.56	781.74
385.75	697.48
385.95	894.08
386.14	828.55
386.34	830.89
386.53	772.38
386.72	734.93
386.92	835.57
387.11	837.91
387.31	800.46
387.50	844.93
387.70	844.93
387.89	847.27
388.09	847.27
388.28	896.43
388.48	786.42
388.67	898.77
388.86	891.74
389.06	959.62
389.25	891.74
389.45	929.19
389.64	875.36
389.84	884.72
390.03	917.49
390.22	954.94
390.42	894.08
390.61	901.11
390.81	959.62
391.00	959.62
391.19	1020.47
391.39	903.45
391.58	950.26
391.78	898.77
391.97	1036.86
392.16	917.49
392.36	1067.28
392.55	992.39
392.75	964.30
392.94	973.66
393.13	1081.33
393.33	985.37
393.52	1025.15
393.71	1100.05
393.91	1027.50
394.10	1116.44
394.29	1090.69
394.49	1128.14
394.68	1125.80
394.88	1034.52
395.07	1050.90
395.26	1130.48
395.46	1139.84
395.65	1109.41
395.84	1132.82
396.04	1174.95
396.23	1125.80
396.42	1076.65
396.62	1034.52
396.81	1160.91
397.00	1097.71
397.19	1221.76
397.39	1252.19
397.58	1226.44
397.77	1254.53
397.97	1252.19
398.16	1359.85
398.35	1320.06
398.55	1313.04
398.74	1242.82
398.93	1320.06
399.12	1359.85
399.32	1299.00
399.51	1385.60
399.70	1411.34
399.90	1401.98
400.09	1474.54
400.28	1521.35
400.47	1474.54
400.67	1533.05
400.86	1493.26
401.05	1483.90
401.24	1479.22
401.44	1509.65
401.63	1502.62
401.82	1570.50
402.01	1565.82
402.21	1497.94
402.40	1563.48
402.59	1495.60
402.78	1650.08
402.97	1551.78
403.17	1572.84
403.36	1584.54
403.55	1631.35
403.74	1727.32
403.93	1619.65
404.13	1682.85
404.32	1650.08
404.51	1614.97
404.70	1736.68
404.89	1668.80
405.09	1851.36
405.28	1687.53
405.47	1706.25
405.66	1732.00
405.85	1732.00
406.05	1739.02
406.24	1809.23
406.43	1804.55
406.62	1930.94
406.81	2003.50
407.00	1907.54
407.20	1856.04
407.39	1729.66
407.58	1930.94
407.77	1888.81
407.96	1973.07
408.15	1991.80
408.34	2087.76
408.54	2047.97
408.73	2085.42
408.92	2036.27
409.11	1977.75
409.30	2064.35
409.49	2080.74
409.68	2066.69
409.87	2008.18
410.07	2122.87
410.26	2230.53
410.45	2085.42
410.64	2167.34
410.83	2267.98
411.02	2143.93
411.21	2282.02
411.40	2256.28
411.59	2319.47
411.78	2307.77
411.98	2296.07
412.17	2296.07
412.36	2403.73
412.55	2361.60
412.74	2485.65
412.93	2342.88
413.12	2413.09
413.31	2534.80
413.50	2572.25
413.69	2476.29
413.88	2576.93
414.07	2682.25
414.26	2621.40
414.45	2654.17
414.64	2738.43
414.83	2773.53
415.02	2677.57
415.22	2843.75
415.41	2860.13
415.60	2785.24
415.79	2928.01
415.98	2780.56
416.17	2771.19
416.36	2768.85
416.55	2867.16
416.74	2916.31
416.93	2935.03
417.12	2960.78
417.31	3042.70
417.50	2967.80
417.69	3101.21
417.88	3059.08
418.07	3096.53
418.26	3073.12
418.45	3290.79
418.64	3197.17
418.83	3218.24
419.02	3197.17
419.21	3222.92
419.39	3302.50
419.58	3190.15
419.77	3141.00
419.96	3356.33
420.15	3431.23
420.34	3279.09
420.53	3290.79
420.72	3531.87
420.91	3379.73
421.10	3475.70
421.29	3618.47
421.48	3365.69
421.67	3384.41
421.86	3438.25
422.05	3391.44
422.24	3435.91
422.43	3480.38
422.61	3543.57
422.80	3531.87
422.99	3669.96
423.18	3585.70
423.37	3646.55
423.56	3494.42
423.75	3459.31
423.94	3494.42
424.13	3309.52
424.32	3480.38
424.50	3662.94
424.69	3660.60
424.88	3550.59
425.07	3466.33
425.26	3613.79
425.45	3592.72
425.64	3552.93
425.83	3517.83
426.01	3571.66
426.20	3754.22
426.39	3555.27
426.58	3630.17
426.77	3602.08
426.96	3566.98
427.15	3585.70
427.33	3595.06
427.52	3662.94
427.71	3758.90
427.90	3796.35
428.09	3833.80
428.28	3803.37
428.46	3702.73
428.65	3770.60
428.84	3854.86
429.03	3908.69
429.22	3803.37
429.40	3906.35
429.59	3831.46
429.78	3684.00
429.97	3475.70
430.16	3794.01
430.34	3854.86
430.53	3943.80
430.72	3925.08
430.91	3957.85
431.10	4032.74
431.28	3999.98
431.47	4262.12
431.66	4224.67
431.85	4124.02
432.03	4248.07
432.22	4299.56
432.41	4322.97
432.60	4334.67
432.79	4219.99
432.97	4421.27
433.16	4161.47
433.35	4287.86
433.54	4283.18
433.72	4358.08
433.91	4327.65
434.10	4337.01
434.28	4238.71
434.47	4428.29
434.66	4535.96
434.85	4507.87
435.03	4496.17
435.22	4643.62
435.41	4610.86
435.59	4561.70
435.78	4645.96
435.97	4643.62
436.16	4622.56
436.34	4610.86
436.53	4798.10
436.72	4762.99
436.90	4762.99
437.09	4655.33
437.28	4507.87
437.46	4655.33
437.65	4535.96
437.84	4683.41
438.02	4674.05
438.21	4793.42
438.40	4746.61
438.58	4903.42
438.77	5025.13
438.96	4917.47
439.14	5006.41
439.33	5093.01
439.52	5001.72
439.70	5001.72
439.89	5149.18
440.08	5193.65
440.26	5069.60
440.45	5090.67
440.63	5235.78
440.82	5465.15
441.01	5355.15
441.19	5401.96
441.38	5418.34
441.57	5383.23
441.75	5488.56
441.94	5638.35
442.12	5729.63
442.31	6008.16
442.50	5755.38
442.68	5738.99
442.87	5804.53
443.05	5650.05
443.24	6012.84
443.43	5736.65
443.61	5874.74
443.80	6047.94
443.98	5753.04
444.17	5603.24
444.35	5968.37
444.54	6097.10
444.73	5914.53
444.91	6015.18
445.10	6059.65
445.28	5785.80
445.47	5811.55
445.65	5865.38
445.84	5790.49
446.02	6087.73
446.21	5975.39
446.39	5851.34
446.58	6026.88
446.77	6080.71
446.95	5994.11
447.14	6050.28
447.32	5982.41
447.51	6078.37
447.69	6111.14
447.88	6216.46
448.06	6139.23
448.25	6129.86
448.43	6104.12
448.62	6106.46
448.80	6127.52
448.99	6164.97
449.17	6129.86
449.36	6218.80
449.54	6361.58
449.73	6314.77
449.91	6289.02
450.10	6310.08
450.28	6473.92
450.46	6462.22
450.65	6354.55
450.83	6572.22
451.02	6312.42
451.20	6408.39
451.39	6431.79
451.57	6373.28
451.76	6548.82
451.94	6703.29
452.13	6691.59
452.31	6567.54
452.49	6541.80
452.68	6724.36
452.86	6635.42
453.05	6778.19
453.23	6796.92
453.42	6654.14
453.60	6862.45
453.78	6827.34
453.97	6530.09
454.15	6780.53
454.34	6588.61
454.52	6703.29
454.70	6719.68
454.89	6923.30
455.07	6911.60
455.26	6712.66
455.44	6932.67
455.62	7103.53
455.81	7115.23
455.99	6974.80
456.17	6918.62
456.36	7042.67
456.54	7030.97
456.73	7265.02
456.91	7290.77
457.09	7279.07
457.28	7566.95
457.46	7236.94
457.64	7393.75
457.83	7274.38
458.01	7274.38
458.19	7447.58
458.38	7283.75
458.56	7585.68
458.74	7506.10
458.93	7494.40
459.11	7386.73
459.29	7466.31
459.48	7644.19
459.66	7653.55
459.84	7545.89
460.03	7513.12
460.21	7730.79
460.39	7786.96
460.57	7543.55
460.76	7845.48
460.94	7868.88
461.12	7847.82
461.31	7829.09
461.49	7932.08
461.67	7882.92
461.85	8102.93
462.04	8006.97
462.22	8538.27
462.40	8168.47
462.59	8184.85
462.77	8109.96
462.95	8205.92
463.13	8187.19
463.32	8084.21
463.50	8271.45
463.68	8222.30
463.86	8177.83
464.05	8152.09
464.23	8072.51
464.41	8203.58
464.59	8063.15
464.78	8341.67
464.96	8325.29
465.14	8152.09
465.32	8393.16
465.50	8257.41
465.69	8461.04
465.87	8484.44
466.05	8432.95
466.23	8418.91
466.41	8306.56
466.60	8755.94
466.78	8367.42
466.96	8557.00
467.14	8294.86
467.32	8720.84
467.51	8798.07
467.69	8156.77
467.87	8531.25
468.05	8816.80
468.23	8615.51
468.41	8793.39
468.60	8652.96
468.78	8816.80
468.96	8760.63
469.14	8723.18
469.32	8781.69
469.50	8622.53
469.69	8997.02
469.87	9034.47
470.05	9034.47
470.23	8849.57
470.41	9018.08
470.59	9111.71
470.77	9060.21
470.95	9163.20
471.14	9217.03
471.32	9046.17
471.50	9554.07
471.68	9430.02
471.86	9437.04
472.04	9521.30
472.22	9605.56
472.40	9397.25
472.58	9359.80
472.77	9659.39
472.95	9706.20
473.13	10008.13
473.31	9797.48
473.49	9537.68
473.67	9762.37
473.85	9757.69
474.03	9991.75
474.21	9954.30
474.39	10015.15
474.57	10174.31
474.75	10186.01
474.93	10200.05
475.12	10401.34
475.30	10289.00
475.48	10438.79
475.66	10310.06
475.84	10485.60
476.02	10485.60
476.20	10413.04
476.38	10747.74
476.56	10839.02
476.74	11044.99
476.92	10916.26
477.10	10796.89
477.28	11016.90
477.46	11089.46
477.64	11227.55
477.82	11449.90
478.00	11449.90
478.18	11508.41
478.36	11573.95
478.54	11681.61
478.72	11733.11
478.90	11918.01
479.08	11908.65
479.26	11981.20
479.44	11793.96
479.62	12177.81
479.80	12173.13
479.98	12313.56
480.16	12622.51
480.34	12470.37
480.52	12826.14
480.70	12528.89
480.88	12332.28
481.06	12695.07
481.24	12624.85
481.41	12996.99
481.59	13118.70
481.77	13123.38
481.95	13247.43
482.13	13528.30
482.31	13315.31
482.49	13593.83
482.67	14026.83
482.85	13884.06
483.03	13909.80
483.21	13935.55
483.39	14115.77
483.57	14218.75
483.74	14136.84
483.92	14279.61
484.10	14040.87
484.28	14288.97
484.46	15075.39
484.64	15096.46
484.82	15021.56
485.00	14824.95
485.18	15363.28
485.35	15288.38
485.53	15276.68
485.71	15171.35
485.89	15587.97
486.07	15414.77
486.25	15634.78
486.43	15557.54
486.61	15803.30
486.78	16358.00
486.96	16046.71
487.14	16388.43
487.32	16381.41
487.50	16386.09
487.68	16931.44
487.85	17165.49
488.03	17256.77
488.21	17121.02
488.39	17261.45
488.57	17373.80
488.75	17497.84
488.92	17869.99
489.10	17881.69
489.28	17666.36
489.46	18230.43
489.64	18104.04
489.81	18508.96
489.99	18302.99
490.17	18611.94
490.35	18642.37
490.53	18820.25
490.70	19094.09
490.88	19012.17
491.06	19080.05
491.24	19218.14
491.41	19248.57
491.59	19133.88
491.77	19227.50
491.95	19489.64
492.13	19805.61
492.30	19999.88
492.48	20051.37
492.66	20243.29
492.84	20308.83
493.01	20360.32
493.19	20482.03
493.37	20849.49
493.54	20776.94
493.72	21088.23
493.90	20805.02
494.08	21240.36
494.25	21331.64
494.43	21507.18
494.61	21607.83
494.79	21628.89
494.96	21561.02
495.14	21642.93
495.32	21944.86
495.49	21745.92
495.67	22307.65
495.85	22064.23
496.02	22331.05
496.20	22513.61
496.38	22820.22
496.55	22572.13
496.73	23421.74
496.91	22899.80
497.09	22890.44
497.26	23613.66
497.44	23386.63
497.62	23527.06
497.79	23461.53
497.97	23222.80
498.14	23749.42
498.32	23770.48
498.50	23843.04
498.67	24329.87
498.85	24184.76
499.03	24135.60
499.20	24617.75
499.38	24327.53
499.56	24723.08
499.73	24797.98
499.91	24744.14
500.08	24737.12
500.26	24397.74
500.44	24669.25
500.61	24938.41
500.79	24879.89
500.97	25113.95
501.14	25486.09
501.32	25415.88
501.49	25626.53
501.67	25448.64
501.84	25584.40
502.02	26005.69
502.20	25773.98
502.37	26188.25
502.55	25703.76
502.72	26075.91
502.90	26375.50
503.07	26036.12
503.25	26494.86
503.43	26101.65
503.60	26665.72
503.78	26335.71
503.95	26621.25
504.13	26862.33
504.30	26749.98
504.48	26806.16
504.65	26885.73
504.83	27042.55
505.01	27187.66
505.18	27147.87
505.36	27695.56
505.53	27468.53
505.71	27463.85
505.88	27995.15
506.06	27367.88
506.23	27735.35
506.41	27421.72
506.58	27871.10
506.76	28072.39
506.93	28184.73
507.11	28168.35
507.28	28203.46
507.46	28182.39
507.63	28201.11
507.81	28402.40
507.98	28414.10
508.16	28692.63
508.33	29081.16
508.50	28599.01
508.68	28526.45
508.85	29111.58
509.03	29036.69
509.20	29043.71
509.38	29270.74
509.55	29350.32
509.73	29626.50
509.90	29528.20
510.08	29612.46
510.25	29186.48
510.42	29977.58
510.60	29619.48
510.77	29921.41
510.95	29926.09
511.12	29809.06
511.30	29923.75
511.47	30368.45
511.64	30363.77
511.82	30740.60
511.99	30192.91
512.17	30614.21
512.34	30366.11
512.51	30698.47
512.69	30866.98
512.86	30600.16
513.04	30948.90
513.21	30855.28
513.38	30820.17
513.56	30918.48
513.73	31014.44
513.90	30881.03
514.08	31271.90
514.25	31243.81
514.43	30920.82
514.60	31475.52
514.77	31178.28
514.95	31503.61
515.12	31405.31
515.29	31440.42
515.47	31718.94
515.64	31672.13
515.81	31653.40
515.99	31920.23
516.16	32053.64
516.33	32297.05
516.51	32341.52
516.68	31775.11
516.85	31381.90
517.03	31924.91
517.20	32229.18
517.37	32404.72
517.54	32418.76
517.72	32533.45
517.89	32524.08
518.06	32011.51
518.24	32439.82
518.41	32353.23
518.58	32758.14
518.75	32418.76
518.93	33284.76
519.10	32926.66
519.27	33247.31
519.45	33174.75
519.62	33521.15
519.79	33425.19
519.96	33336.25
520.14	33734.14
520.31	33242.63
520.48	34022.03
520.65	33191.14
520.83	33729.46
521.00	34314.59
521.17	33907.34
521.34	33837.12
521.52	34242.04
521.69	33699.03
521.86	34363.75
522.03	34440.98
522.20	34274.80
522.38	34700.78
522.55	34361.40
522.72	34445.66
522.89	34363.75
523.07	34611.84
523.24	34593.12
523.41	34618.86
523.58	34965.26
523.75	35065.91
523.92	35000.37
524.10	34909.09
524.27	35047.18
524.44	35077.61
524.61	35639.34
524.78	35243.79
524.96	35885.09
525.13	35955.31
525.30	36011.48
525.47	35681.47
525.64	35473.16
525.81	35723.60
525.98	35545.72
526.16	35557.42
526.33	35276.55
526.50	35810.20
526.67	35868.71
526.84	35906.16
527.01	35634.66
527.18	36020.84
527.36	36219.79
527.53	36236.17
527.70	36715.98
527.87	36643.43
528.04	36554.49
528.21	36769.82
528.38	36734.71
528.55	36823.65
528.72	36591.94
528.89	37235.58
529.07	37029.62
529.24	37163.03
529.41	36706.62
529.58	36825.99
529.75	36947.70
529.92	36982.80
530.09	37172.39
530.26	37455.59
530.43	37347.93
530.60	37191.11
530.77	37266.01
530.94	37237.92
531.11	37574.96
531.28	37413.46
531.46	37523.47
531.63	38050.09
531.80	37738.80
531.97	37483.68
532.14	37551.56
532.31	37326.86
532.48	37488.36
532.65	37919.02
532.82	37961.15
532.99	38012.64
533.16	37713.05
533.33	37993.92
533.50	38101.58
533.67	38417.55
533.84	37776.25
534.01	38253.72
534.18	37830.08
534.35	38583.73
534.52	38316.91
534.69	38349.68
534.86	38349.68
535.03	38452.66
535.20	38614.16
535.37	38672.67
535.54	38700.76
535.71	38490.11
535.88	38918.43
536.05	38691.40
536.22	38515.86
536.38	38653.95
536.55	38691.40
536.72	39075.24
536.89	38593.09
537.06	38918.43
537.23	39112.69
537.40	38979.28
537.57	39089.29
537.74	38897.36
537.91	39026.09
538.08	39433.35
538.25	39267.17
538.42	39171.21
538.59	39721.23
538.75	39360.79
538.92	39260.15
539.09	39679.10
539.26	39646.33
539.43	39721.23
539.60	39952.94
539.77	39122.05
539.94	39842.94
540.11	39674.42
540.28	39480.16
540.44	39456.75
540.61	39880.39
540.78	40030.18
540.95	39545.69
541.12	39854.64
541.29	39522.29
541.46	39990.39
541.62	40013.80
541.79	40467.86
541.96	39955.29
542.13	39943.58
542.30	40149.55
542.47	40072.31
542.63	40105.08
542.80	40423.39
542.97	40467.86
543.14	40596.59
543.31	40767.45
543.48	40872.78
543.64	41013.21
543.81	41109.17
543.98	40891.50
544.15	41146.62
544.32	41125.55
544.48	41380.67
544.65	40896.18
544.82	40992.14
544.99	41127.89
545.16	40856.39
545.32	41160.66
545.49	41401.74
545.66	41694.30
545.83	41041.29
546.00	41677.92
546.16	41198.11
546.33	41446.21
546.50	41425.14
546.67	41558.55
546.83	41010.87
547.00	41219.17
547.17	41310.46
547.34	41263.64
547.50	41738.77
547.67	41933.04
547.84	41670.90
548.00	41752.82
548.17	41965.81
548.34	42143.69
548.51	42169.43
548.67	42286.46
548.84	41881.55
549.01	41989.21
549.18	41654.51
549.34	42522.85
549.51	42110.92
549.68	42223.26
549.84	42361.36
550.01	42541.58
550.18	41904.95
550.34	42075.81
550.51	42045.38
550.68	42085.17
550.84	41649.83
551.01	42321.57
551.18	42223.26
551.34	42307.52
551.51	42539.24
551.68	42412.85
551.84	42878.61
552.01	42330.93
552.18	42616.47
552.34	42366.04
552.51	43044.79
552.68	42485.40
552.84	42628.18
553.01	43115.01
553.18	42852.87
553.34	42794.36
553.51	43035.43
553.67	42476.04
553.84	43075.22
554.01	42873.93
554.17	43210.97
554.34	43320.98
554.51	43000.32
554.67	43077.56
554.84	43117.35
555.00	42965.21
555.17	42997.98
555.33	43164.16
555.50	43178.20
555.67	43505.88
555.83	42887.98
556.00	43480.13
556.16	43421.62
556.33	43147.78
556.50	43068.20
556.66	43192.25
556.83	43044.79
556.99	43482.47
557.16	43693.12
557.32	43323.32
557.49	43711.84
557.65	43044.79
557.82	43351.40
557.98	43365.45
558.15	43407.58
558.32	43817.17
558.48	43309.27
558.65	43524.60
558.81	43564.39
558.98	43370.13
559.14	43196.93
559.31	43344.38
559.47	43601.84
559.64	43608.86
559.80	43842.92
559.97	43959.94
560.13	43517.58
560.30	43707.16
560.46	43875.68
560.63	43655.67
560.79	44240.81
560.96	44163.57
561.12	43835.89
561.29	43597.16
561.45	43688.44
561.61	43723.55
561.78	44126.12
561.94	43824.19
562.11	43990.37
562.27	43842.92
562.44	44142.50
562.60	43812.49
562.77	44179.95
562.93	44109.74
563.10	44430.39
563.26	44020.80
563.42	44451.45
563.59	43842.92
563.75	44222.08
563.92	44556.78
564.08	44091.01
564.24	43934.20
564.41	44718.28
564.57	44109.74
564.74	44364.85
564.90	44701.89
565.07	44341.45
565.23	44549.76
565.39	44222.08
565.56	44446.77
565.72	44343.79
565.88	44311.02
566.05	44046.54
566.21	44430.39
566.38	44622.31
566.54	43952.92
566.70	44301.66
566.87	44704.23
567.03	44217.40
567.19	44844.66
567.36	44318.04
567.52	44348.47
567.68	44355.49
567.85	43868.66
568.01	44456.14
568.17	44458.48
568.34	44708.91
568.50	44367.20
568.66	44275.91
568.83	44725.30
568.99	44259.53
569.15	44547.42
569.32	44102.71
569.48	44083.99
569.64	44594.23
569.81	44554.44
569.97	44435.07
570.13	44325.07
570.30	44556.78
570.46	44381.24
570.62	44395.28
570.78	44191.65
570.95	44306.34
571.11	44722.96
571.27	44807.22
571.43	44704.23
571.60	44645.72
571.76	44772.11
571.92	44638.70
572.09	44615.29
572.25	44285.28
572.41	44500.61
572.57	44570.82
572.74	44844.66
572.90	44392.94
573.06	44456.14
573.22	44814.24
573.38	44495.92
573.55	44371.88
573.71	44786.15
573.87	44493.58
574.03	44692.53
574.20	44484.22
574.36	44528.69
574.52	44868.07
574.68	44638.70
574.84	44746.36
575.01	44863.39
575.17	44662.10
575.33	44512.31
575.49	44399.96
575.65	44980.42
575.82	45375.97
575.98	45036.59
576.14	44987.44
576.30	45382.99
576.46	44863.39
576.62	44481.88
576.79	44767.43
576.95	44264.21
577.11	44875.09
577.27	44540.39
577.43	44790.83
577.59	45195.74
577.75	44655.08
577.92	44685.51
578.08	44493.58
578.24	44598.91
578.40	44994.46
578.56	44626.99
578.72	44823.60
578.88	45043.61
579.04	44694.87
579.21	45010.84
579.37	44893.82
579.53	44905.52
579.69	44264.21
579.85	44910.20
580.01	45057.65
580.17	44835.30
580.33	45167.66
580.49	45010.84
580.65	44781.47
580.82	45148.93
580.98	44580.18
581.14	44580.18
581.30	44992.12
581.46	44898.50
581.62	45223.83
581.78	44954.67
581.94	45111.49
582.10	45415.76
582.26	44861.05
582.42	44987.44
582.58	45144.25
582.74	45106.80
582.90	45050.63
583.06	45195.74
583.22	45200.43
583.38	45368.94
583.54	44875.09
583.70	44657.42
583.86	44839.98
584.02	44884.45
584.18	45078.72
584.34	44835.30
584.50	45057.65
584.66	44760.40
584.82	44856.37
584.98	45408.73
585.14	45139.57
585.30	44952.33
585.46	44896.16
585.62	44605.93
585.78	44758.06
585.94	44610.61
586.10	44582.52
586.26	44823.60
586.42	45167.66
586.58	44837.64
586.74	45031.91
586.90	44900.84
587.06	44732.32
587.22	45193.40
587.38	44786.15
587.54	45441.50
587.70	45310.43
587.86	45134.89
588.02	45394.69
588.18	45235.53
588.34	44959.35
588.49	44659.76
588.65	44636.36
588.81	44655.08
588.97	44678.49
589.13	44673.81
589.29	44680.83
589.45	45111.49
589.61	45200.43
589.77	45127.87
589.93	45326.81
590.08	45500.01
590.24	45544.48
