SpectraSuite Data File
++++++++++++++++++++++++++++++++++++
Date: Fri Oct 25 10:43:43 EDT 2013
User: price-jones
Dark Spectrum Present: No
Reference Spectrum Present: No
Number of Sampled Component Spectra: 1
Spectrometers: USB2+H05261
Integration Time (usec): 100000 (USB2+H05261)
Spectra Averaged: 1 (USB2+H05261)
Boxcar Smoothing: 0 (USB2+H05261)
Correct for Electrical Dark: No (USB2+H05261)
Strobe/Lamp Enabled: No (USB2+H05261)
Correct for Detector Non-linearity: No (USB2+H05261)
Correct for Stray Light: No (USB2+H05261)
Number of Pixels in Processed Spectrum: 2048
>>>>>Begin Processed Spectral Data<<<<<
365.73	117.03
365.92	117.03
366.12	117.03
366.32	44.47
366.52	0.00
366.72	44.47
366.91	0.00
367.11	28.09
367.31	28.09
367.51	0.00
367.70	0.00
367.90	46.81
368.10	0.00
368.30	0.00
368.49	0.00
368.69	65.54
368.89	30.43
369.09	0.00
369.28	0.00
369.48	0.00
369.68	21.06
369.87	95.96
370.07	60.85
370.27	124.05
370.47	201.29
370.66	372.15
370.86	393.21
371.06	421.30
371.25	535.98
371.45	447.04
371.65	463.43
371.84	486.83
372.04	500.87
372.24	507.90
372.44	409.59
372.63	589.82
372.83	461.09
373.03	503.22
373.22	496.19
373.42	568.75
373.62	545.34
373.81	559.39
374.01	512.58
374.21	629.60
374.40	557.05
374.60	585.13
374.79	573.43
374.99	547.69
375.19	615.56
375.38	603.86
375.58	688.12
375.78	599.18
375.97	601.52
376.17	690.46
376.37	559.39
376.56	589.82
376.76	676.41
376.95	627.26
377.15	681.10
377.35	617.90
377.54	653.01
377.74	608.54
377.93	662.37
378.13	648.33
378.33	695.14
378.52	596.84
378.72	720.88
378.91	650.67
379.11	589.82
379.31	624.92
379.50	638.97
379.70	697.48
379.89	622.58
380.09	671.73
380.28	683.44
380.48	716.20
380.68	641.31
380.87	699.82
381.07	716.20
381.26	690.46
381.46	688.12
381.65	636.63
381.85	688.12
382.04	690.46
382.24	725.57
382.43	662.37
382.63	697.48
382.83	688.12
383.02	690.46
383.22	699.82
383.41	662.37
383.61	763.01
383.80	770.04
384.00	901.11
384.19	758.33
384.39	767.70
384.58	770.04
384.78	819.19
384.97	781.74
385.17	746.63
385.36	777.06
385.56	805.14
385.75	699.82
385.95	800.46
386.14	873.02
386.34	828.55
386.53	821.53
386.72	844.93
386.92	837.91
387.11	840.25
387.31	861.32
387.50	819.19
387.70	868.34
387.89	966.64
388.09	856.64
388.28	891.74
388.48	929.19
388.67	947.92
388.86	966.64
389.06	961.96
389.25	966.64
389.45	1057.92
389.64	908.13
389.84	1022.81
390.03	1071.97
390.22	1039.20
390.42	966.64
390.61	952.60
390.81	1022.81
391.00	938.55
391.19	1067.28
391.39	1008.77
391.58	999.41
391.78	1025.15
391.97	983.02
392.16	1029.84
392.36	1100.05
392.55	1055.58
392.75	1078.99
392.94	971.32
393.13	1046.22
393.33	1039.20
393.52	1036.86
393.71	1095.37
393.91	1050.90
394.10	1104.73
394.29	1203.04
394.49	1116.44
394.68	1203.04
394.88	1313.04
395.07	1179.63
395.26	1284.95
395.46	1259.21
395.65	1336.45
395.84	1219.42
396.04	1245.16
396.23	1186.65
396.42	1102.39
396.62	1203.04
396.81	1198.35
397.00	1109.41
397.19	1263.89
397.39	1329.42
397.58	1453.47
397.77	1369.21
397.97	1362.19
398.16	1427.73
398.35	1446.45
398.55	1528.37
398.74	1465.18
398.93	1376.24
399.12	1458.15
399.32	1448.79
399.51	1554.12
399.70	1519.01
399.90	1514.33
400.09	1558.80
400.28	1621.99
400.47	1605.61
400.67	1708.59
400.86	1732.00
401.05	1650.08
401.24	1621.99
401.44	1666.46
401.63	1682.85
401.82	1743.70
402.01	1661.78
402.21	1769.44
402.40	1710.93
402.59	1703.91
402.78	1792.85
402.97	1771.79
403.17	1823.28
403.36	1792.85
403.55	1881.79
403.74	1839.66
403.93	1827.96
404.13	1774.13
404.32	1851.36
404.51	1863.07
404.70	1905.20
404.89	1853.70
405.09	1994.14
405.28	1942.64
405.47	1832.64
405.66	1874.77
405.85	1984.77
406.05	1959.03
406.24	2031.58
406.43	2080.74
406.62	2132.23
406.81	2153.29
407.00	2024.56
407.20	1952.01
407.39	2064.35
407.58	2143.93
407.77	2129.89
407.96	2211.81
408.15	2202.44
408.34	2150.95
408.54	2310.11
408.73	2298.41
408.92	2251.60
409.11	2272.66
409.30	2204.78
409.49	2277.34
409.68	2150.95
409.87	2296.07
410.07	2354.58
410.26	2249.25
410.45	2396.71
410.64	2532.46
410.83	2590.97
411.02	2499.69
411.21	2626.08
411.40	2495.01
411.59	2637.78
411.78	2487.99
411.98	2534.80
412.17	2712.68
412.36	2717.36
412.55	2745.45
412.74	2717.36
412.93	2661.19
413.12	2708.00
413.31	2918.65
413.50	2808.64
413.69	2920.99
413.88	2939.71
414.07	2911.63
414.26	2960.78
414.45	2911.63
414.64	2911.63
414.83	3016.95
415.02	3021.63
415.22	3101.21
415.41	3070.78
415.60	3150.36
415.79	3201.85
415.98	3293.13
416.17	3199.51
416.36	3176.11
416.55	3236.96
416.74	3220.58
416.93	3197.17
417.12	3201.85
417.31	3269.73
417.50	3321.22
417.69	3433.57
417.88	3414.84
418.07	3391.44
418.26	3351.65
418.45	3506.12
418.64	3681.66
418.83	3559.95
419.02	3583.36
419.21	3494.42
419.39	3538.89
419.58	3492.08
419.77	3531.87
419.96	3569.32
420.15	3749.54
420.34	3742.52
420.53	3824.44
420.72	3782.31
420.91	3779.97
421.10	3772.94
421.29	3719.11
421.48	3880.61
421.67	3712.09
421.86	3665.28
422.05	3763.58
422.24	3789.33
422.43	3798.69
422.61	3922.74
422.80	3906.35
422.99	3878.27
423.18	3892.31
423.37	4032.74
423.56	4025.72
423.75	3976.57
423.94	3882.95
424.13	3700.39
424.32	3777.62
424.50	3964.87
424.69	4093.60
424.88	4016.36
425.07	3936.78
425.26	3824.44
425.45	3850.18
425.64	3943.80
425.83	3843.16
426.01	4004.66
426.20	3957.85
426.39	4124.02
426.58	3915.72
426.77	3894.65
426.96	3985.93
427.15	3964.87
427.33	3950.82
427.52	3936.78
427.71	4079.55
427.90	4079.55
428.09	4189.56
428.28	4212.96
428.46	4306.59
428.65	3957.85
428.84	4168.49
429.03	4320.63
429.22	4133.39
429.40	4124.02
429.59	4102.96
429.78	3997.64
429.97	3894.65
430.16	3962.53
430.34	4142.75
430.53	4203.60
430.72	4142.75
430.91	4131.05
431.10	4250.41
431.28	4376.80
431.47	4533.62
431.66	4587.45
431.85	4346.37
432.03	4648.30
432.22	4669.37
432.41	4367.44
432.60	4606.17
432.79	4695.11
432.97	4821.50
433.16	4706.82
433.35	4638.94
433.54	4650.64
433.72	4669.37
433.91	4547.66
434.10	4594.47
434.28	4802.78
434.47	4798.10
434.66	4896.40
434.85	4842.57
435.03	4961.94
435.22	4973.64
435.41	5008.75
435.59	5163.22
435.78	5027.47
435.97	5043.85
436.16	5011.09
436.34	5188.97
436.53	5137.48
436.72	5142.16
436.90	5142.16
437.09	5179.61
437.28	5097.69
437.46	5055.56
437.65	5261.52
437.84	5231.10
438.02	5233.44
438.21	5055.56
438.40	5090.67
438.58	5348.12
438.77	5226.42
438.96	5268.55
439.14	5362.17
439.33	5614.95
439.52	5507.28
439.70	5558.77
439.89	5664.10
440.08	5556.43
440.26	5551.75
440.45	5659.42
440.63	5806.87
440.82	5799.85
441.01	5788.14
441.19	5998.79
441.38	5944.96
441.57	5930.92
441.75	6026.88
441.94	6300.72
442.12	6230.51
442.31	6277.32
442.50	6274.98
442.68	6190.72
442.87	6324.13
443.05	6286.68
443.24	6420.09
443.43	6317.11
443.61	6406.05
443.80	6628.40
443.98	6464.56
444.17	6202.42
444.35	6272.64
444.54	6649.46
444.73	6497.33
444.91	6459.88
445.10	6502.01
445.28	6361.58
445.47	6399.02
445.65	6319.45
445.84	6469.24
446.02	6511.37
446.21	6466.90
446.39	6551.16
446.58	6502.01
446.77	6525.41
446.95	6715.00
447.14	6740.74
447.32	6759.47
447.51	6530.09
447.69	6588.61
447.88	6733.72
448.06	6698.61
448.25	6698.61
448.43	6799.26
448.62	6607.33
448.80	6761.81
448.99	6555.84
449.17	6794.58
449.36	6836.70
449.54	6853.09
449.73	6867.13
449.91	7082.46
450.10	7272.04
450.28	7171.40
450.46	7063.74
450.65	7225.23
450.83	7358.64
451.02	7101.19
451.20	7283.75
451.39	7300.13
451.57	6979.48
451.76	7250.98
451.94	7171.40
452.13	7260.34
452.31	7119.91
452.49	7068.42
452.68	7290.77
452.86	7204.17
453.05	7152.68
453.23	7297.79
453.42	7297.79
453.60	7349.28
453.78	7379.71
453.97	7283.75
454.15	7503.76
454.34	7318.86
454.52	7410.14
454.70	7506.10
454.89	7562.27
455.07	7494.40
455.26	7506.10
455.44	7606.74
455.62	7634.83
455.81	7887.61
455.99	7683.98
456.17	7698.02
456.36	7637.17
456.54	7985.91
456.73	7957.82
456.91	7932.08
457.09	8067.83
457.28	8149.75
457.46	8081.87
457.64	8051.44
457.83	8234.00
458.01	8100.59
458.19	8304.22
458.38	8124.00
458.56	8255.07
458.74	8166.13
458.93	8381.46
459.11	8217.62
459.29	8217.62
459.48	8173.15
459.66	8276.13
459.84	8458.70
460.03	8512.53
460.21	8505.51
460.39	8533.59
460.57	8372.10
460.76	8629.56
460.94	8561.68
461.12	8608.49
461.31	8657.64
461.49	8606.15
461.67	8872.97
461.85	9018.08
462.04	8674.03
462.22	9111.71
462.40	8891.70
462.59	8788.71
462.77	8929.14
462.95	8774.67
463.13	8805.10
463.32	8978.30
463.50	9004.04
463.68	9090.64
463.86	8842.54
464.05	8709.13
464.23	8943.19
464.41	9083.62
464.59	8723.18
464.78	9121.07
464.96	9160.86
465.14	8992.34
465.32	9167.88
465.50	9434.70
465.69	9217.03
465.87	9284.91
466.05	8940.85
466.23	9064.89
466.41	9083.62
466.60	9287.25
466.78	9210.01
466.96	9125.75
467.14	9233.41
467.32	9331.72
467.51	9605.56
467.69	9128.09
467.87	9277.88
468.05	9561.09
468.23	9357.46
468.41	9362.14
468.60	9586.83
468.78	9523.64
468.96	9465.13
469.14	9738.97
469.32	9830.25
469.50	9692.16
469.69	9633.64
469.87	9816.21
470.05	9872.38
470.23	9710.88
470.41	9657.05
470.59	9685.14
470.77	9912.17
470.95	10207.08
471.14	10162.61
471.32	9729.61
471.50	9928.55
471.68	10200.05
471.86	10375.59
472.04	10396.66
472.22	10637.73
472.40	10214.10
472.58	10361.55
472.77	10429.43
472.95	10403.68
473.13	10520.71
473.31	10530.07
473.49	10593.26
473.67	10525.39
473.85	10743.06
474.03	10949.03
474.21	10944.34
474.39	10897.53
474.57	11005.20
474.75	11136.27
474.93	11133.93
475.12	11201.80
475.30	11208.83
475.48	11094.14
475.66	11173.72
475.84	11117.54
476.02	11396.07
476.20	11477.99
476.38	11473.31
476.56	11805.66
476.74	11709.70
476.92	11768.21
477.10	11590.33
477.28	11934.39
477.46	11758.85
477.64	12322.92
477.82	12273.77
478.00	12327.60
478.18	12292.49
478.36	12521.87
478.54	12835.50
478.72	12681.02
478.90	12695.07
479.08	12854.22
479.26	13247.43
479.44	13006.36
479.62	13137.43
479.80	13289.56
479.98	13401.91
480.16	13429.99
480.34	13535.32
480.52	13834.91
480.70	13799.80
480.88	13776.39
481.06	13846.61
481.24	13977.68
481.41	14033.85
481.59	14008.11
481.77	14235.14
481.95	14359.19
482.13	14471.53
482.31	14413.02
482.49	14876.44
482.67	14890.49
482.85	15094.11
483.03	14967.73
483.21	15166.67
483.39	15349.23
483.57	15283.70
483.74	15550.52
483.92	15688.61
484.10	15426.47
484.28	15672.23
484.46	15819.68
484.64	16280.77
484.82	15983.52
485.00	16088.84
485.18	16458.65
485.35	16339.28
485.53	16100.55
485.71	16409.50
485.89	16348.64
486.07	16376.73
486.25	16292.47
486.43	16603.76
486.61	16844.84
486.78	17128.04
486.96	17315.28
487.14	17575.08
487.32	17397.20
487.50	17916.80
487.68	17783.39
487.85	18476.19
488.03	18342.78
488.21	18359.16
488.39	18508.96
488.57	18670.45
488.75	18607.26
488.92	19171.33
489.10	19133.88
489.28	19349.21
489.46	19564.54
489.64	19365.59
489.81	19686.25
489.99	19962.43
490.17	20114.56
490.35	19971.79
490.53	20034.99
490.70	20589.69
490.88	20610.76
491.06	20540.54
491.24	20594.37
491.41	20505.43
491.59	20737.15
491.77	20503.09
491.95	20823.75
492.13	21362.07
492.30	21348.03
492.48	21373.77
492.66	21766.98
492.84	21563.36
493.01	22286.58
493.19	21853.58
493.37	21947.20
493.54	22188.28
493.72	22249.13
493.90	22586.17
494.08	23065.98
494.25	23154.92
494.43	23187.69
494.61	23204.07
494.79	23171.30
494.96	23417.06
495.14	23307.05
495.32	23534.09
495.49	23662.82
495.67	23644.09
495.85	24049.00
496.02	24023.26
496.20	23946.02
496.38	24444.56
496.55	24725.42
496.73	24699.67
496.91	25097.56
497.09	25017.99
497.26	25336.30
497.44	24954.79
497.62	24931.39
497.79	25015.65
497.97	25036.71
498.14	25062.46
498.32	25500.14
498.50	25617.16
498.67	25928.45
498.85	25844.20
499.03	26279.54
499.20	26150.81
499.38	26455.08
499.56	26298.26
499.73	26405.92
499.91	26469.12
500.08	26335.71
500.26	26066.55
500.44	26443.37
500.61	26497.20
500.79	26555.72
500.97	26623.59
501.14	27077.66
501.32	26625.93
501.49	27096.38
501.67	26789.77
501.84	26820.20
502.02	27384.27
502.20	27281.28
502.37	27847.69
502.55	27868.76
502.72	27920.25
502.90	27971.74
503.07	27569.17
503.25	27843.01
503.43	27887.48
503.60	28140.26
503.78	28273.67
503.95	28238.56
504.13	28306.44
504.30	28425.81
504.48	28566.24
504.65	28355.59
504.83	28872.85
505.01	29132.65
505.18	29060.09
505.36	29207.55
505.53	29390.11
505.71	29511.81
505.88	29619.48
506.06	29249.67
506.23	29455.64
506.41	29376.06
506.58	29858.21
506.76	29560.97
506.93	29771.61
507.11	29818.42
507.28	30003.33
507.46	29876.94
507.63	29972.90
507.81	30129.72
507.98	30036.09
508.16	30235.04
508.33	30089.93
508.50	30546.33
508.68	30572.08
508.85	30911.46
509.03	30869.33
509.20	31002.74
509.38	31136.15
509.55	31068.27
509.73	31222.75
509.90	31358.50
510.08	31295.30
510.25	31164.23
510.42	31519.99
510.60	31927.25
510.77	31674.47
510.95	31634.68
511.12	31941.29
511.30	31915.54
511.47	31974.06
511.64	32205.77
511.82	32158.96
511.99	32084.06
512.17	31892.14
512.34	32067.68
512.51	32505.36
512.69	32374.29
512.86	32889.21
513.04	32716.01
513.21	32634.09
513.38	32779.20
513.56	32978.15
513.73	32692.60
513.90	33083.47
514.08	32524.08
514.25	32671.54
514.43	32786.22
514.60	33156.03
514.77	33113.90
514.95	33549.24
515.12	33050.70
515.29	33383.06
515.47	34249.06
515.64	33556.26
515.81	33565.62
515.99	33699.03
516.16	33469.66
516.33	33104.54
516.51	33757.55
516.68	32903.25
516.85	33003.89
517.03	33633.50
517.20	33621.80
517.37	34272.46
517.54	34333.32
517.72	34005.64
517.89	33940.11
518.06	34073.52
518.24	33825.42
518.41	34263.10
518.58	34452.69
518.75	34916.11
518.93	34604.82
519.10	34763.98
519.27	34747.59
519.45	35023.78
519.62	35063.57
519.79	34972.28
519.96	35299.96
520.14	35208.68
520.31	35161.87
520.48	35089.31
520.65	35037.82
520.83	35665.08
521.00	35842.96
521.17	35800.83
521.34	35917.86
521.52	35814.88
521.69	36224.47
521.86	36353.20
522.03	36250.22
522.20	36135.53
522.38	36313.41
522.55	36601.30
522.72	35807.86
522.89	36030.21
523.07	36308.73
523.24	36336.82
523.41	36570.87
523.58	36865.78
523.75	37158.34
523.92	37198.13
524.10	37006.21
524.27	36987.49
524.44	37558.58
524.61	37244.94
524.78	37436.87
524.96	37303.46
525.13	37935.40
525.30	37607.73
525.47	37411.12
525.64	37699.01
525.81	37504.74
525.98	37682.62
526.16	37195.79
526.33	37202.82
526.50	37216.86
526.67	37343.25
526.84	37350.27
527.01	37277.71
527.18	37914.34
527.36	37809.01
527.53	38232.65
527.70	38263.08
527.87	38007.96
528.04	38054.77
528.21	38298.19
528.38	38246.69
528.55	38515.86
528.72	38632.88
528.89	38677.35
529.07	38511.17
529.24	38555.64
529.41	38665.65
529.58	38450.32
529.75	38981.62
529.92	38775.66
530.09	38731.18
530.26	39304.62
530.43	38895.02
530.60	38677.35
530.77	39262.49
530.94	39225.04
531.11	38679.69
531.28	39262.49
531.46	39414.62
531.63	39473.13
531.80	39166.52
531.97	39599.52
532.14	39466.11
532.31	38618.84
532.48	39416.96
532.65	39601.86
532.82	39414.62
532.99	39482.50
533.16	39393.56
533.33	39660.38
533.50	39679.10
533.67	39803.15
533.84	39786.77
534.01	39882.73
534.18	40250.19
534.35	40430.41
534.52	40348.50
534.69	40208.06
534.86	40456.16
535.03	40254.87
535.20	40327.43
535.37	40636.38
535.54	41003.85
535.71	40383.60
535.88	40559.14
536.05	40620.00
536.22	40584.89
536.38	40715.96
536.55	40147.21
536.72	40236.15
536.89	40570.85
537.06	40268.92
537.23	41193.43
537.40	40982.78
537.57	40954.69
537.74	41053.00
537.91	41350.24
538.08	41291.73
538.25	40933.63
538.42	41202.79
538.59	41268.33
538.75	41219.17
538.92	41322.16
539.09	41394.71
539.26	41703.67
539.43	41357.27
539.60	41418.12
539.77	41074.06
539.94	40882.14
540.11	41385.35
540.28	40825.96
540.44	41631.11
540.61	41787.92
540.78	41081.08
540.95	41460.25
541.12	41567.91
541.29	41677.92
541.46	41832.39
541.62	41766.86
541.79	41902.61
541.96	41600.68
542.13	41998.57
542.30	41720.05
542.47	41984.53
542.63	41661.54
542.80	42202.20
542.97	42525.19
543.14	42939.47
543.31	42576.69
543.48	42747.54
543.64	42740.52
543.81	42682.01
543.98	42586.05
544.15	42588.39
544.32	42328.59
544.48	42745.20
544.65	42653.92
544.82	42485.40
544.99	42831.80
545.16	42899.68
545.32	42864.57
545.49	43281.19
545.66	43093.94
545.83	43374.81
546.00	43215.65
546.16	43023.73
546.33	43084.58
546.50	42845.85
546.67	43426.30
546.83	42731.16
547.00	42869.25
547.17	42845.85
547.34	43157.14
547.50	43023.73
547.67	43842.92
547.84	43538.65
548.00	43599.50
548.17	43892.07
548.34	43342.04
548.51	43962.28
548.67	43929.51
548.84	43578.43
549.01	43192.25
549.18	43697.80
549.34	43718.87
549.51	43459.07
549.68	43835.89
549.84	43559.71
550.01	44170.59
550.18	43859.30
550.34	44016.11
550.51	44154.21
550.68	44025.48
550.84	43304.59
551.01	43683.76
551.18	44320.38
551.34	44240.81
551.51	43997.39
551.68	44264.21
551.84	44680.83
552.01	43981.01
552.18	43655.67
552.34	44198.68
552.51	44135.48
552.68	43966.96
552.84	44409.32
553.01	44442.09
553.18	44296.98
553.34	44591.89
553.51	44325.07
553.67	44091.01
553.84	44776.79
554.01	44168.25
554.17	44498.26
554.34	44339.11
554.51	44505.29
554.67	44748.70
554.84	44605.93
555.00	44406.98
555.17	44477.20
555.33	44423.37
555.50	44961.69
555.67	44678.49
555.83	44547.42
556.00	44935.95
556.16	45069.36
556.33	44891.48
556.50	44734.66
556.66	44540.39
556.83	44502.95
556.99	44711.25
557.16	45085.74
557.32	45244.90
557.49	45029.57
557.65	44741.68
557.82	44931.26
557.98	44697.21
558.15	45106.80
558.32	44877.43
558.48	44896.16
558.65	44718.28
558.81	44502.95
558.98	45062.33
559.14	44959.35
559.31	44933.60
559.47	45020.20
559.64	45090.42
559.80	45146.59
559.97	45371.28
560.13	44945.31
560.30	44835.30
560.46	44966.37
560.63	45249.58
560.79	45158.30
560.96	45563.21
561.12	45235.53
561.29	44989.78
561.45	45195.74
561.61	44959.35
561.78	45797.26
561.94	45277.66
562.11	45167.66
562.27	45310.43
562.44	45532.78
562.60	45399.37
562.77	45127.87
562.93	45350.22
563.10	45406.39
563.26	45074.04
563.42	45221.49
563.59	45261.28
563.75	45762.15
563.92	46017.27
564.08	45441.50
564.24	45734.07
564.41	45839.39
564.57	45467.25
564.74	45359.58
564.90	45272.98
565.07	45333.84
565.23	45659.17
565.39	45549.17
565.56	45827.69
565.72	45083.40
565.88	45230.85
566.05	45352.56
566.21	45446.18
566.38	45607.68
566.54	45514.06
566.70	46188.13
566.87	45886.20
567.03	45483.63
567.19	45834.71
567.36	46124.94
567.52	45500.01
567.68	45647.47
567.85	45713.00
568.01	45708.32
568.17	45710.66
568.34	46019.61
568.50	45272.98
568.66	45607.68
568.83	46012.59
568.99	45375.97
569.15	45631.08
569.32	45579.59
569.48	45661.51
569.64	45808.96
569.81	45815.99
569.97	45776.20
570.13	45544.48
570.30	45272.98
570.46	45687.26
570.62	45586.61
570.78	45345.54
570.95	45340.86
571.11	45521.08
571.27	45713.00
571.43	45467.25
571.60	45986.85
571.76	45404.05
571.92	46143.66
572.09	45972.80
572.25	45881.52
572.41	45743.43
572.57	46017.27
572.74	46138.98
572.90	46220.90
573.06	46036.00
573.22	45902.59
573.38	45858.12
573.55	45549.17
573.71	46356.65
573.87	46225.58
574.03	46038.34
574.20	45584.27
574.36	46176.43
574.52	45940.04
574.68	45848.75
574.84	46026.63
575.01	45736.41
575.17	46024.29
575.33	45682.58
575.49	45701.30
575.65	46120.26
575.82	46094.51
575.98	45729.39
576.14	46286.43
576.30	46068.76
576.46	46101.53
576.62	45776.20
576.79	45446.18
576.95	45478.95
577.11	46117.92
577.27	45855.78
577.43	46075.79
577.59	45682.58
577.75	45682.58
577.92	45579.59
578.08	45492.99
578.24	45649.81
578.40	45628.74
578.56	45989.19
578.72	46387.08
578.88	46131.96
579.04	46239.62
579.21	45801.94
579.37	45984.51
579.53	45717.68
579.69	45757.47
579.85	45869.82
580.01	45928.33
580.17	45935.35
580.33	46047.70
580.49	46028.98
580.65	45949.40
580.82	45921.31
580.98	45947.06
581.14	45811.31
581.30	46127.28
581.46	45851.09
581.62	45937.69
581.78	46087.49
581.94	46014.93
582.10	46040.68
582.26	46227.92
582.42	45958.76
582.58	46225.58
582.74	45881.52
582.90	46429.21
583.06	46326.22
583.22	45909.61
583.38	46436.23
583.54	46185.79
583.70	46328.56
583.86	46190.47
584.02	45755.13
584.18	46162.39
584.34	46068.76
584.50	45801.94
584.66	45764.49
584.82	45654.49
584.98	46445.59
585.14	46256.01
585.30	45759.81
585.46	46368.35
585.62	45818.33
585.78	45801.94
585.94	45951.74
586.10	45743.43
586.26	45961.10
586.42	46143.66
586.58	46014.93
586.74	45874.50
586.90	45872.16
587.06	46134.30
587.22	46270.05
587.38	45759.81
587.54	45764.49
587.70	46485.38
587.86	46136.64
588.02	46277.07
588.18	46337.93
588.34	45993.87
588.49	45521.08
588.65	45357.24
588.81	45542.14
588.97	45752.79
589.13	45603.00
589.29	45799.60
589.45	45869.82
589.61	45970.46
589.77	46698.37
589.93	46052.38
590.08	46328.56
