SpectraSuite Data File
++++++++++++++++++++++++++++++++++++
Date: Fri Oct 25 10:48:10 EDT 2013
User: price-jones
Dark Spectrum Present: No
Reference Spectrum Present: No
Number of Sampled Component Spectra: 1
Spectrometers: USB2+H05261
Integration Time (usec): 100000 (USB2+H05261)
Spectra Averaged: 1 (USB2+H05261)
Boxcar Smoothing: 0 (USB2+H05261)
Correct for Electrical Dark: No (USB2+H05261)
Strobe/Lamp Enabled: No (USB2+H05261)
Correct for Detector Non-linearity: No (USB2+H05261)
Correct for Stray Light: No (USB2+H05261)
Number of Pixels in Processed Spectrum: 2048
>>>>>Begin Processed Spectral Data<<<<<
365.73	191.92
365.92	191.92
366.12	191.92
366.32	77.24
366.52	60.85
366.72	25.75
366.91	0.00
367.11	147.45
367.31	0.00
367.51	7.02
367.70	39.79
367.90	16.38
368.10	14.04
368.30	0.00
368.49	100.64
368.69	72.56
368.89	58.51
369.09	42.13
369.28	56.17
369.48	56.17
369.68	70.22
369.87	126.39
370.07	91.28
370.27	149.79
370.47	217.67
370.66	362.78
370.86	430.66
371.06	442.36
371.25	440.02
371.45	428.32
371.65	531.30
371.84	493.85
372.04	400.23
372.24	479.81
372.44	484.49
372.63	461.09
372.83	510.24
373.03	461.09
373.22	428.32
373.42	456.40
373.62	566.41
373.81	603.86
374.01	475.13
374.21	498.53
374.40	512.58
374.60	564.07
374.79	557.05
374.99	573.43
375.19	493.85
375.38	582.79
375.58	552.37
375.78	596.84
375.97	568.75
376.17	617.90
376.37	596.84
376.56	580.45
376.76	571.09
376.95	547.69
377.15	690.46
377.35	528.96
377.54	596.84
377.74	512.58
377.93	505.56
378.13	561.73
378.33	660.03
378.52	655.35
378.72	671.73
378.91	587.47
379.11	617.90
379.31	711.52
379.50	610.88
379.70	587.47
379.89	606.20
380.09	655.35
380.28	699.82
380.48	592.16
380.68	599.18
380.87	617.90
381.07	737.27
381.26	683.44
381.46	706.84
381.65	657.69
381.85	617.90
382.04	706.84
382.24	676.41
382.43	695.14
382.63	662.37
382.83	655.35
383.02	667.05
383.22	709.18
383.41	732.59
383.61	718.54
383.80	812.17
384.00	791.10
384.19	657.69
384.39	741.95
384.58	702.16
384.78	814.51
384.97	713.86
385.17	746.63
385.36	716.20
385.56	791.10
385.75	791.10
385.95	833.23
386.14	814.51
386.34	706.84
386.53	800.46
386.72	798.12
386.92	821.53
387.11	826.21
387.31	847.27
387.50	840.25
387.70	800.46
387.89	781.74
388.09	854.30
388.28	821.53
388.48	873.02
388.67	786.42
388.86	793.44
389.06	840.25
389.25	908.13
389.45	816.85
389.64	856.64
389.84	830.89
390.03	938.55
390.22	912.81
390.42	978.34
390.61	891.74
390.81	866.00
391.00	959.62
391.19	950.26
391.39	959.62
391.58	999.41
391.78	947.92
391.97	997.07
392.16	940.90
392.36	961.96
392.55	943.24
392.75	936.21
392.94	926.85
393.13	945.58
393.33	903.45
393.52	1001.75
393.71	1013.45
393.91	1022.81
394.10	999.41
394.29	1095.37
394.49	1034.52
394.68	1123.46
394.88	1041.54
395.07	1116.44
395.26	1128.14
395.46	1060.26
395.65	1174.95
395.84	1107.07
396.04	1165.59
396.23	1156.22
396.42	1114.10
396.62	1064.94
396.81	1081.33
397.00	1125.80
397.19	1207.72
397.39	1186.65
397.58	1252.19
397.77	1233.46
397.97	1268.57
398.16	1263.89
398.35	1296.66
398.55	1270.91
398.74	1266.23
398.93	1238.14
399.12	1268.57
399.32	1263.89
399.51	1329.42
399.70	1441.77
399.90	1401.98
400.09	1404.32
400.28	1394.96
400.47	1371.55
400.67	1411.34
400.86	1357.51
401.05	1448.79
401.24	1404.32
401.44	1474.54
401.63	1586.88
401.82	1406.66
402.01	1448.79
402.21	1544.75
402.40	1598.59
402.59	1500.28
402.78	1544.75
402.97	1549.43
403.17	1563.48
403.36	1589.22
403.55	1596.25
403.74	1645.40
403.93	1666.46
404.13	1610.29
404.32	1673.48
404.51	1607.95
404.70	1650.08
404.89	1643.06
405.09	1764.76
405.28	1762.42
405.47	1694.55
405.66	1706.25
405.85	1654.76
406.05	1703.91
406.24	1830.30
406.43	1724.97
406.62	1783.49
406.81	1760.08
407.00	1797.53
407.20	1806.89
407.39	1781.15
407.58	1926.26
407.77	1895.83
407.96	1919.24
408.15	1916.90
408.34	1977.75
408.54	1970.73
408.73	1919.24
408.92	1982.43
409.11	2026.90
409.30	1975.41
409.49	2024.56
409.68	1980.09
409.87	1956.69
410.07	2169.68
410.26	2101.80
410.45	2097.12
410.64	2101.80
410.83	2129.89
411.02	2211.81
411.21	2307.77
411.40	2267.98
411.59	2270.32
411.78	2275.00
411.98	2324.15
412.17	2293.72
412.36	2377.98
412.55	2417.77
412.74	2312.45
412.93	2424.80
413.12	2363.94
413.31	2605.02
413.50	2455.22
413.69	2509.05
413.88	2541.82
414.07	2450.54
414.26	2490.33
414.45	2511.39
414.64	2647.15
414.83	2644.81
415.02	2579.27
415.22	2684.59
415.41	2630.76
415.60	2668.21
415.79	2754.81
415.98	2743.11
416.17	2782.90
416.36	2801.62
416.55	2850.77
416.74	2862.48
416.93	2848.43
417.12	2909.29
417.31	2911.63
417.50	2963.12
417.69	3033.33
417.88	2972.48
418.07	2986.52
418.26	2946.73
418.45	3005.25
418.64	3288.45
418.83	3159.72
419.02	3171.43
419.21	3131.64
419.39	3309.52
419.58	3183.13
419.77	3234.62
419.96	3180.79
420.15	3332.92
420.34	3234.62
420.53	3251.00
420.72	3365.69
420.91	3288.45
421.10	3321.22
421.29	3379.73
421.48	3356.33
421.67	3414.84
421.86	3389.10
422.05	3314.20
422.24	3389.10
422.43	3419.52
422.61	3372.71
422.80	3466.33
422.99	3428.88
423.18	3522.51
423.37	3485.06
423.56	3620.81
423.75	3492.08
423.94	3517.83
424.13	3260.37
424.32	3396.12
424.50	3487.40
424.69	3496.76
424.88	3606.77
425.07	3442.93
425.26	3501.44
425.45	3552.93
425.64	3538.89
425.83	3433.57
426.01	3489.74
426.20	3520.17
426.39	3634.85
426.58	3571.66
426.77	3440.59
426.96	3517.83
427.15	3403.14
427.33	3693.37
427.52	3564.64
427.71	3705.07
427.90	3627.83
428.09	3756.56
428.28	3822.09
428.46	3676.98
428.65	3756.56
428.84	3721.45
429.03	3763.58
429.22	3754.22
429.40	3765.92
429.59	3716.77
429.78	3616.13
429.97	3578.68
430.16	3667.62
430.34	3819.75
430.53	3904.01
430.72	3892.31
430.91	3918.06
431.10	3864.22
431.28	3985.93
431.47	4060.83
431.66	4084.23
431.85	4105.30
432.03	4084.23
432.22	4205.94
432.41	4149.77
432.60	4152.11
432.79	4231.69
432.97	4095.94
433.16	4154.45
433.35	3969.55
433.54	4238.71
433.72	4224.67
433.91	4308.93
434.10	4283.18
434.28	4182.54
434.47	4273.82
434.66	4355.74
434.85	4414.25
435.03	4308.93
435.22	4304.25
435.41	4479.79
435.59	4580.43
435.78	4465.74
435.97	4688.09
436.16	4599.15
436.34	4498.51
436.53	4601.49
436.72	4561.70
436.90	4498.51
437.09	4720.86
437.28	4634.26
437.46	4622.56
437.65	4638.94
437.84	4507.87
438.02	4624.90
438.21	4594.47
438.40	4498.51
438.58	4849.59
438.77	4802.78
438.96	4968.96
439.14	4880.02
439.33	5163.22
439.52	4903.42
439.70	4997.04
439.89	4912.78
440.08	5055.56
440.26	5114.07
440.45	5029.81
440.63	5142.16
440.82	5242.80
441.01	5308.34
441.19	5380.89
441.38	5364.51
441.57	5277.91
441.75	5474.51
441.94	5572.82
442.12	5767.08
442.31	5631.33
442.50	5610.26
442.68	5462.81
442.87	5526.00
443.05	5607.92
443.24	5795.17
443.43	5720.27
443.61	5781.12
443.80	5846.66
443.98	5537.71
444.17	5486.22
444.35	5785.80
444.54	5696.86
444.73	5802.19
444.91	5802.19
445.10	5916.87
445.28	5680.48
445.47	5788.14
445.65	5689.84
445.84	5678.14
446.02	5912.19
446.21	5844.32
446.39	5708.57
446.58	5919.21
446.77	5830.27
446.95	5783.46
447.14	5792.83
447.32	5912.19
447.51	5687.50
447.69	5895.81
447.88	5841.98
448.06	5900.49
448.25	5942.62
448.43	6083.05
448.62	5937.94
448.80	5977.73
448.99	6155.61
449.17	6209.44
449.36	5994.11
449.54	6256.25
449.73	6153.27
449.91	6321.79
450.10	6225.82
450.28	6352.21
450.46	6349.87
450.65	6305.40
450.83	6134.54
451.02	6319.45
451.20	6237.53
451.39	6380.30
451.57	6195.40
451.76	6455.20
451.94	6307.74
452.13	6494.99
452.31	6448.18
452.49	6384.98
452.68	6296.04
452.86	6354.55
453.05	6373.28
453.23	6612.01
453.42	6389.66
453.60	6420.09
453.78	6588.61
453.97	6431.79
454.15	6579.25
454.34	6555.84
454.52	6796.92
454.70	6820.32
454.89	6724.36
455.07	6691.59
455.26	6682.23
455.44	6743.08
455.62	6745.42
455.81	6672.87
455.99	6853.09
456.17	6808.62
456.36	6803.94
456.54	7023.95
456.73	7150.34
456.91	7417.16
457.09	7234.60
457.28	7148.00
457.46	6986.50
457.64	7148.00
457.83	7162.04
458.01	6939.69
458.19	7293.11
458.38	7236.94
458.56	7353.96
458.74	7180.76
458.93	7194.81
459.11	7318.86
459.29	7234.60
459.48	7297.79
459.66	7363.33
459.84	7281.41
460.03	7688.66
460.21	7529.50
460.39	7456.95
460.57	7585.68
460.76	7524.82
460.94	7515.46
461.12	7784.62
461.31	7529.50
461.49	7665.25
461.67	7485.03
461.85	7779.94
462.04	7742.49
462.22	8226.98
462.40	7815.05
462.59	7920.37
462.77	7929.74
462.95	7983.57
463.13	7803.35
463.32	7871.22
463.50	8060.80
463.68	8114.64
463.86	7985.91
464.05	7866.54
464.23	7810.37
464.41	8219.96
464.59	7941.44
464.78	8402.52
464.96	8180.17
465.14	7960.16
465.32	8159.11
465.50	8170.81
465.69	8402.52
465.87	8140.38
466.05	8180.17
466.23	8266.77
466.41	8149.75
466.60	8283.16
466.78	8435.29
466.96	8212.94
467.14	8458.70
467.32	8418.91
467.51	8557.00
467.69	8217.62
467.87	8287.84
468.05	8540.61
468.23	8482.10
468.41	8271.45
468.60	8446.99
468.78	8564.02
468.96	8395.50
469.14	8655.30
469.32	8781.69
469.50	8552.32
469.69	8744.24
469.87	8861.27
470.05	8793.39
470.23	8854.25
470.41	8854.25
470.59	9039.15
470.77	9020.42
470.95	8800.41
471.14	9172.56
471.32	8933.82
471.50	9217.03
471.68	9242.78
471.86	9338.74
472.04	9261.50
472.22	9544.70
472.40	9359.80
472.58	9151.49
472.77	9350.44
472.95	9401.93
473.13	9717.90
473.31	9350.44
473.49	9434.70
473.67	9504.92
473.85	9504.92
474.03	9748.33
474.21	9643.01
474.39	10040.90
474.57	9748.33
474.75	9795.14
474.93	9799.82
475.12	9996.43
475.30	10235.16
475.48	9846.63
475.66	10038.56
475.84	10228.14
476.02	10171.97
476.20	10143.88
476.38	10523.05
476.56	10836.68
476.74	10619.01
476.92	10583.90
477.10	10527.73
477.28	10726.68
477.46	10794.55
477.64	10841.36
477.82	10995.84
478.00	11428.84
478.18	11281.38
478.36	11520.12
478.54	11328.19
478.72	11419.47
478.90	11545.86
479.08	11648.85
479.26	12053.76
479.44	11950.78
479.62	11875.88
479.80	11847.79
479.98	11960.14
480.16	12046.74
480.34	12170.79
480.52	12362.71
480.70	12425.90
480.88	12292.49
481.06	12671.66
481.24	12666.98
481.41	12692.73
481.59	12858.90
481.77	13048.49
481.95	12926.78
482.13	13011.04
482.31	13036.78
482.49	13376.16
482.67	13502.55
482.85	13614.90
483.03	13516.59
483.21	13727.24
483.39	13968.32
483.57	13886.40
483.74	13914.48
483.92	14125.13
484.10	13944.91
484.28	14546.43
484.46	14452.81
484.64	14775.80
484.82	14427.06
485.00	14724.31
485.18	14958.36
485.35	14782.82
485.53	14911.55
485.71	14710.27
485.89	15073.05
486.07	15213.48
486.25	15208.80
486.43	15199.44
486.61	15618.39
486.78	15660.52
486.96	16032.67
487.14	16336.94
487.32	15929.69
487.50	16194.17
487.68	16259.70
487.85	16549.93
488.03	16769.94
488.21	16697.38
488.39	16975.91
488.57	17172.51
488.75	17076.55
488.92	17273.15
489.10	17591.47
489.28	17767.01
489.46	17593.81
489.64	17397.20
489.81	18157.88
489.99	18071.28
490.17	18169.58
490.35	18572.15
490.53	18331.08
490.70	18466.83
490.88	18860.04
491.06	18796.84
491.24	18710.24
491.41	18869.40
491.59	19150.26
491.77	19236.86
491.95	19374.95
492.13	19468.58
492.30	19587.94
492.48	19363.25
492.66	19377.30
492.84	19814.98
493.01	20030.30
493.19	19967.11
493.37	20442.24
493.54	20287.76
493.72	20449.26
493.90	20432.88
494.08	21137.38
494.25	21205.25
494.43	21149.08
494.61	21184.19
494.79	21139.72
494.96	21088.23
495.14	21254.40
495.32	21472.07
495.49	21443.99
495.67	21514.20
495.85	21940.18
496.02	21874.65
496.20	21994.01
496.38	22183.60
496.55	22466.80
496.73	22806.18
496.91	22424.67
497.09	22628.30
497.26	23051.94
497.44	22852.99
497.62	23063.64
497.79	23073.00
497.97	22785.12
498.14	23637.07
498.32	23861.76
498.50	23384.29
498.67	23784.52
498.85	23669.84
499.03	23531.75
499.20	23955.38
499.38	23999.85
499.56	24016.24
499.73	23878.15
499.91	24659.88
500.08	24166.03
500.26	24369.66
500.44	24304.12
500.61	24381.36
500.79	24592.01
500.97	24828.40
501.14	24917.34
501.32	24917.34
501.49	24886.92
501.67	25097.56
501.84	25104.59
502.02	25289.49
502.20	25163.10
502.37	25450.99
502.55	25462.69
502.72	25710.78
502.90	25940.16
503.07	25640.57
503.25	25886.32
503.43	25816.11
503.60	25762.28
503.78	25977.61
503.95	25949.52
504.13	26148.46
504.30	26366.13
504.48	26326.35
504.65	26448.05
504.83	26712.53
505.01	26911.48
505.18	26698.49
505.36	26735.94
505.53	27143.19
505.71	27197.02
505.88	27080.00
506.06	26864.67
506.23	27166.60
506.41	27105.74
506.58	27351.50
506.76	27503.64
506.93	27718.96
507.11	27566.83
507.28	27770.46
507.46	27562.15
507.63	27737.69
507.81	27946.00
507.98	27744.71
508.16	27875.78
508.33	28056.00
508.50	28025.57
508.68	28032.60
508.85	28341.55
509.03	27995.15
509.20	28683.27
509.38	29191.16
509.55	28898.59
509.73	28907.96
509.90	29125.63
510.08	28795.61
510.25	28905.62
510.42	29179.46
510.60	29326.91
510.77	29163.08
510.95	29563.31
511.12	29338.62
511.30	29308.19
511.47	29436.92
511.64	29809.06
511.82	29624.16
511.99	29701.40
512.17	29975.24
512.34	30043.12
512.51	30094.61
512.69	30082.91
512.86	30202.27
513.04	30235.04
513.21	30298.23
513.38	30443.35
513.56	30452.71
513.73	30670.38
513.90	30302.92
514.08	30401.22
514.25	30703.15
514.43	30576.76
514.60	30944.22
514.77	30813.15
514.95	31321.05
515.12	31082.31
515.29	30759.32
515.47	31683.83
515.64	31711.92
515.81	31164.23
515.99	31250.83
516.16	31318.71
516.33	31524.68
516.51	31770.43
516.68	31543.40
516.85	31323.39
517.03	31505.95
517.20	31866.39
517.37	31798.52
517.54	32109.81
517.72	32229.18
517.89	32208.11
518.06	32266.63
518.24	32044.27
518.41	32212.79
518.58	32030.23
518.75	31995.12
518.93	32481.95
519.10	32311.10
519.27	32706.65
519.45	32968.79
519.62	32559.19
519.79	32666.86
519.96	33139.65
520.14	32945.38
520.31	32856.44
520.48	33017.94
520.65	33511.79
520.83	32996.87
521.00	33062.41
521.17	33376.04
521.34	33172.41
521.52	33694.35
521.69	33202.84
521.86	33792.65
522.03	33586.69
522.20	34012.66
522.38	33858.19
522.55	34052.45
522.72	33811.38
522.89	34132.03
523.07	34323.96
523.24	33827.76
523.41	34197.57
523.58	33930.75
523.75	34319.28
523.92	34485.45
524.10	34501.84
524.27	34733.55
524.44	34553.33
524.61	34923.13
524.78	34930.16
524.96	34567.37
525.13	35000.37
525.30	35145.48
525.47	35150.17
525.64	34906.75
525.81	35264.85
525.98	34941.86
526.16	35049.52
526.33	34902.07
526.50	35456.78
526.67	34817.81
526.84	35445.07
527.01	34852.92
527.18	35297.62
527.36	35571.46
527.53	35562.10
527.70	35927.22
527.87	35667.42
528.04	35672.10
528.21	35524.65
528.38	35508.27
528.55	35716.58
528.72	36105.10
528.89	35995.10
529.07	36051.27
529.24	35988.08
529.41	36875.14
529.58	36271.28
529.75	36400.01
529.92	36367.24
530.09	36863.44
530.26	36760.45
530.43	36416.40
530.60	36383.63
530.77	36715.98
530.94	36935.99
531.11	36636.41
531.28	36943.02
531.46	36596.62
531.63	37111.53
531.80	37125.58
531.97	37083.45
532.14	36849.39
532.31	36966.42
532.48	37186.43
532.65	37357.29
532.82	36730.03
532.99	37399.42
533.16	37099.83
533.33	37486.02
533.50	37546.87
533.67	37874.55
533.84	37200.47
534.01	37940.08
534.18	37848.80
534.35	37935.40
534.52	37668.58
534.69	37495.38
534.86	37813.70
535.03	37673.26
535.20	37986.89
535.37	38073.49
535.54	38326.27
535.71	38204.56
535.88	38298.19
536.05	38256.06
536.22	38323.93
536.38	38199.88
536.55	38263.08
536.72	38171.80
536.89	37993.92
537.06	38555.64
537.23	38534.58
537.40	38387.13
537.57	38361.38
537.74	38424.57
537.91	38951.20
538.08	38843.53
538.25	38188.18
538.42	39070.56
538.59	39049.50
538.75	38656.29
538.92	38696.08
539.09	38969.92
539.26	38663.31
539.43	38909.07
539.60	39206.31
539.77	38855.23
539.94	39108.01
540.11	39159.50
540.28	39164.18
540.44	39304.62
540.61	39019.07
540.78	39119.71
540.95	39316.32
541.12	38937.15
541.29	39447.39
541.46	39463.77
541.62	39648.68
541.79	39248.44
541.96	39119.71
542.13	39662.72
542.30	39269.51
542.47	39538.67
542.63	39398.24
542.80	39353.77
542.97	39931.88
543.14	40329.77
543.31	40032.52
543.48	40257.21
543.64	40828.30
543.81	40556.80
543.98	40554.46
544.15	40374.24
544.32	40765.11
544.48	40694.89
544.65	40650.42
544.82	40547.44
544.99	40095.72
545.16	40758.09
545.32	39929.54
545.49	40311.05
545.66	40952.35
545.83	41132.57
546.00	40964.06
546.16	41261.30
546.33	40861.07
546.50	40498.29
546.67	41109.17
546.83	40135.51
547.00	40947.67
547.17	40950.01
547.34	41102.15
547.50	41170.02
547.67	41336.20
547.84	41212.15
548.00	41462.59
548.17	41097.47
548.34	41069.38
548.51	41755.16
548.67	41680.26
548.84	41280.03
549.01	41303.43
549.18	41373.65
549.34	41855.80
549.51	41652.17
549.68	41626.43
549.84	41315.14
550.01	41572.60
550.18	41778.56
550.34	41603.02
550.51	41357.27
550.68	41759.84
550.84	41670.90
551.01	41354.93
551.18	41691.96
551.34	42146.03
551.51	41940.06
551.68	41710.69
551.84	42263.05
552.01	41816.01
552.18	41876.86
552.34	41944.74
552.51	42347.31
552.68	42029.00
552.84	42237.31
553.01	42412.85
553.18	42347.31
553.34	42244.33
553.51	42117.94
553.67	42160.07
553.84	42429.23
554.01	42183.48
554.17	42913.72
554.34	42501.79
554.51	42178.79
554.67	42162.41
554.84	42515.83
555.00	42223.26
555.17	42232.63
555.33	42773.29
555.50	42377.74
555.67	42342.63
555.83	42948.83
556.00	42801.38
556.16	43126.71
556.33	42885.64
556.50	42555.62
556.66	42698.39
556.83	42815.42
556.99	43049.47
557.16	42880.95
557.32	43557.37
557.49	42740.52
557.65	42351.99
557.82	42890.32
557.98	42742.86
558.15	43051.81
558.32	42721.80
558.48	42885.64
558.65	43035.43
558.81	42925.42
558.98	43168.84
559.14	43049.47
559.31	42714.78
559.47	43199.27
559.64	43072.88
559.80	43482.47
559.97	43056.50
560.13	43201.61
560.30	42859.89
560.46	43325.66
560.63	43220.33
560.79	43122.03
560.96	43449.70
561.12	43452.05
561.29	43381.83
561.45	43346.72
561.61	43693.12
561.78	43119.69
561.94	43058.84
562.11	43210.97
562.27	43583.12
562.44	43365.45
562.60	43849.94
562.77	43489.49
562.93	43288.21
563.10	43501.20
563.26	43908.45
563.42	43791.42
563.59	43466.09
563.75	43512.90
563.92	43742.27
564.08	43908.45
564.24	43976.33
564.41	43917.81
564.57	43831.21
564.74	43629.93
564.90	43423.96
565.07	44037.18
565.23	43597.16
565.39	44055.90
565.56	44081.65
565.72	43999.73
565.88	43894.41
566.05	43601.84
566.21	44154.21
566.38	43786.74
566.54	43906.11
566.70	43969.30
566.87	44130.80
567.03	43636.95
567.19	43978.67
567.36	43627.59
567.52	43693.12
567.68	44332.09
567.85	44062.93
568.01	43849.94
568.17	43491.83
568.34	43913.13
568.50	43569.07
568.66	43749.29
568.83	44198.68
568.99	43538.65
569.15	44229.10
569.32	43906.11
569.48	43555.03
569.64	44306.34
569.81	44245.49
569.97	44154.21
570.13	44086.33
570.30	43969.30
570.46	43775.04
570.62	43634.61
570.78	44114.42
570.95	44357.83
571.11	44556.78
571.27	44217.40
571.43	43934.20
571.60	44165.91
571.76	44481.88
571.92	44030.16
572.09	44156.55
572.25	43793.76
572.41	44114.42
572.57	44346.13
572.74	45104.46
572.90	44189.31
573.06	44280.60
573.22	44292.30
573.38	44453.79
573.55	43924.83
573.71	44411.67
573.87	44194.00
574.03	43718.87
574.20	44006.75
574.36	44388.26
574.52	44158.89
574.68	44327.41
574.84	44430.39
575.01	44341.45
575.17	44191.65
575.33	44149.53
575.49	44355.49
575.65	44392.94
575.82	44137.82
575.98	43957.60
576.14	44704.23
576.30	44559.12
576.46	44186.97
576.62	44039.52
576.79	44215.06
576.95	44065.27
577.11	44149.53
577.27	44287.62
577.43	44767.43
577.59	44463.16
577.75	44233.78
577.92	43793.76
578.08	43805.47
578.24	43814.83
578.40	44287.62
578.56	44156.55
578.72	44210.38
578.88	44521.67
579.04	44596.57
579.21	44004.41
579.37	44226.76
579.53	44821.26
579.69	44542.74
579.85	44458.48
580.01	44315.70
580.17	44921.90
580.33	44706.57
580.49	44643.38
580.65	44514.65
580.82	44596.57
580.98	44194.00
581.14	44325.07
581.30	44701.89
581.46	44205.70
581.62	44605.93
581.78	44652.74
581.94	44568.48
582.10	44484.22
582.26	44652.74
582.42	44685.51
582.58	44273.57
582.74	44446.77
582.90	44121.44
583.06	44409.32
583.22	44634.02
583.38	44793.17
583.54	44346.13
583.70	44465.50
583.86	44367.20
584.02	44140.16
584.18	44371.88
584.34	44430.39
584.50	44854.03
584.66	44383.58
584.82	44086.33
584.98	44680.83
585.14	44528.69
585.30	44376.56
585.46	44481.88
585.62	44388.26
585.78	44498.26
585.94	44524.01
586.10	44233.78
586.26	44402.30
586.42	44612.95
586.58	44783.81
586.74	44449.11
586.90	44493.58
587.06	44376.56
587.22	44292.30
587.38	44053.56
587.54	44893.82
587.70	44858.71
587.86	44549.76
588.02	44758.06
588.18	44584.86
588.34	44439.75
588.49	44493.58
588.65	44149.53
588.81	44753.38
588.97	44149.53
589.13	44584.86
589.29	44264.21
589.45	44968.71
589.61	44959.35
589.77	44502.95
589.93	44615.29
590.08	44786.15
590.24	44992.12
590.40	44760.40
