SpectraSuite Data File
++++++++++++++++++++++++++++++++++++
Date: Fri Oct 25 11:23:21 EDT 2013
User: price-jones
Dark Spectrum Present: No
Reference Spectrum Present: No
Number of Sampled Component Spectra: 1
Spectrometers: USB2+H05261
Integration Time (usec): 100000 (USB2+H05261)
Spectra Averaged: 1 (USB2+H05261)
Boxcar Smoothing: 0 (USB2+H05261)
Correct for Electrical Dark: No (USB2+H05261)
Strobe/Lamp Enabled: No (USB2+H05261)
Correct for Detector Non-linearity: No (USB2+H05261)
Correct for Stray Light: No (USB2+H05261)
Number of Pixels in Processed Spectrum: 2048
>>>>>Begin Processed Spectral Data<<<<<
365.73	222.35
365.92	222.35
366.12	222.35
366.32	70.22
366.52	131.07
366.72	140.43
366.91	201.29
367.11	166.18
367.31	126.39
367.51	152.13
367.70	91.28
367.90	72.56
368.10	140.43
368.30	145.11
368.49	65.54
368.69	138.09
368.89	119.37
369.09	147.45
369.28	135.75
369.48	145.11
369.68	126.39
369.87	229.37
370.07	220.01
370.27	208.31
370.47	292.57
370.66	578.11
370.86	627.26
371.06	650.67
371.25	688.12
371.45	662.37
371.65	589.82
371.84	704.50
372.04	704.50
372.24	767.70
372.44	678.76
372.63	734.93
372.83	770.04
373.03	770.04
373.22	732.59
373.42	781.74
373.62	760.67
373.81	755.99
374.01	868.34
374.21	753.65
374.40	854.30
374.60	844.93
374.79	835.57
374.99	858.98
375.19	809.83
375.38	837.91
375.58	819.19
375.78	770.04
375.97	814.51
376.17	866.00
376.37	863.66
376.56	910.47
376.76	809.83
376.95	798.12
377.15	854.30
377.35	905.79
377.54	915.15
377.74	896.43
377.93	912.81
378.13	856.64
378.33	990.05
378.52	896.43
378.72	968.98
378.91	959.62
379.11	931.53
379.31	940.90
379.50	978.34
379.70	1062.60
379.89	945.58
380.09	994.73
380.28	997.07
380.48	1001.75
380.68	1069.62
380.87	898.77
381.07	952.60
381.26	1034.52
381.46	1004.09
381.65	1036.86
381.85	1015.79
382.04	980.68
382.24	1111.75
382.43	1093.03
382.63	992.39
382.83	1074.31
383.02	1078.99
383.22	1036.86
383.41	1046.22
383.61	1125.80
383.80	1093.03
384.00	1055.58
384.19	1071.97
384.39	1095.37
384.58	1149.20
384.78	1165.59
384.97	1149.20
385.17	1156.22
385.36	1196.01
385.56	1217.08
385.75	1200.69
385.95	1226.44
386.14	1203.04
386.34	1165.59
386.53	1252.19
386.72	1331.76
386.92	1196.01
387.11	1284.95
387.31	1259.21
387.50	1249.85
387.70	1217.08
387.89	1228.78
388.09	1240.48
388.28	1296.66
388.48	1277.93
388.67	1341.13
388.86	1352.83
389.06	1394.96
389.25	1329.42
389.45	1430.07
389.64	1385.60
389.84	1362.19
390.03	1284.95
390.22	1355.17
390.42	1427.73
390.61	1352.83
390.81	1376.24
391.00	1481.56
391.19	1437.09
391.39	1474.54
391.58	1420.71
391.78	1483.90
391.97	1418.36
392.16	1591.56
392.36	1561.14
392.55	1554.12
392.75	1514.33
392.94	1528.37
393.13	1479.22
393.33	1497.94
393.52	1554.12
393.71	1549.43
393.91	1570.50
394.10	1530.71
394.29	1549.43
394.49	1619.65
394.68	1722.63
394.88	1678.16
395.07	1640.72
395.26	1664.12
395.46	1568.16
395.65	1703.91
395.84	1579.86
396.04	1755.40
396.23	1640.72
396.42	1799.87
396.62	1912.22
396.81	1724.97
397.00	1741.36
397.19	1769.44
397.39	1886.47
397.58	1858.39
397.77	1762.42
397.97	1832.64
398.16	1919.24
398.35	1947.33
398.55	1926.26
398.74	1874.77
398.93	1989.46
399.12	1952.01
399.32	1874.77
399.51	1994.14
399.70	2036.27
399.90	2080.74
400.09	2076.06
400.28	2083.08
400.47	1998.82
400.67	2036.27
400.86	2010.52
401.05	2040.95
401.24	2188.40
401.44	2066.69
401.63	2134.57
401.82	2087.76
402.01	2097.12
402.21	2293.72
402.40	2186.06
402.59	2186.06
402.78	2289.04
402.97	2190.74
403.17	2314.79
403.36	2319.47
403.55	2326.49
403.74	2392.03
403.93	2370.96
404.13	2462.24
404.32	2401.39
404.51	2356.92
404.70	2417.77
404.89	2525.44
405.09	2504.37
405.28	2555.86
405.47	2544.16
405.66	2445.86
405.85	2436.50
406.05	2647.15
406.24	2541.82
406.43	2597.99
406.62	2656.51
406.81	2675.23
407.00	2558.21
407.20	2651.83
407.39	2626.08
407.58	2785.24
407.77	2658.85
407.96	2656.51
408.15	2717.36
408.34	2675.23
408.54	2771.19
408.73	2773.53
408.92	2813.32
409.11	2895.24
409.30	2885.88
409.49	3042.70
409.68	2949.08
409.87	2951.42
410.07	3035.67
410.26	3180.79
410.45	3049.72
410.64	3082.49
410.83	2984.18
411.02	3145.68
411.21	3185.47
411.40	3124.62
411.59	3236.96
411.78	3213.56
411.98	3234.62
412.17	3314.20
412.36	3482.72
412.55	3407.82
412.74	3419.52
412.93	3449.95
413.12	3321.22
413.31	3559.95
413.50	3503.78
413.69	3669.96
413.88	3609.11
414.07	3501.44
414.26	3590.38
414.45	3845.50
414.64	3765.92
414.83	3878.27
415.02	3784.65
415.22	3882.95
415.41	3868.91
415.60	3861.88
415.79	3948.48
415.98	4030.40
416.17	3906.35
416.36	3955.51
416.55	4021.04
416.74	4086.58
416.93	4152.11
417.12	4224.67
417.31	4198.92
417.50	4243.39
417.69	4421.27
417.88	4311.27
418.07	4339.35
418.26	4269.14
418.45	4404.89
418.64	4442.34
418.83	4484.47
419.02	4557.02
419.21	4631.92
419.39	4465.74
419.58	4638.94
419.77	4519.57
419.96	4477.44
420.15	4461.06
420.34	4667.03
420.53	4667.03
420.72	4830.87
420.91	4730.22
421.10	4964.28
421.29	4842.57
421.48	4732.56
421.67	4922.15
421.86	4835.55
422.05	4830.87
422.24	4950.23
422.43	5081.30
422.61	4917.47
422.80	4931.51
422.99	4966.62
423.18	4940.87
423.37	5149.18
423.56	4933.85
423.75	4987.68
423.94	4849.59
424.13	4589.79
424.32	4849.59
424.50	5116.41
424.69	5259.18
424.88	5275.57
425.07	5006.41
425.26	4833.21
425.45	5067.26
425.64	5062.58
425.83	5039.17
426.01	5064.92
426.20	5156.20
426.39	5041.51
426.58	5078.96
426.77	5111.73
426.96	5158.54
427.15	5093.01
427.33	5195.99
427.52	5263.86
427.71	5261.52
427.90	5275.57
428.09	5282.59
428.28	5305.99
428.46	5364.51
428.65	5425.36
428.84	5509.62
429.03	5563.45
429.22	5465.15
429.40	5479.19
429.59	5549.41
429.78	5406.64
429.97	5465.15
430.16	5474.51
430.34	5710.91
430.53	5666.44
430.72	5657.07
430.91	5818.57
431.10	5731.97
431.28	5813.89
431.47	5961.34
431.66	5783.46
431.85	5884.11
432.03	5870.06
432.22	6129.86
432.41	6122.84
432.60	5984.75
432.79	5991.77
432.97	6076.03
433.16	6080.71
433.35	6120.50
433.54	6054.97
433.72	6115.82
433.91	6176.67
434.10	6104.12
434.28	6190.72
434.47	6274.98
434.66	6242.21
434.85	6310.08
435.03	6317.11
435.22	6193.06
435.41	6408.39
435.59	6562.86
435.78	6466.90
435.97	6490.31
436.16	6612.01
436.34	6373.28
436.53	6581.59
436.72	6576.91
436.90	6558.18
437.09	6654.14
437.28	6593.29
437.46	6665.85
437.65	6707.98
437.84	6752.45
438.02	6827.34
438.21	6876.49
438.40	6883.52
438.58	7101.19
438.77	7229.91
438.96	6991.18
439.14	7332.90
439.33	6935.01
439.52	7211.19
439.70	7335.24
439.89	7571.63
440.08	7375.03
440.26	7351.62
440.45	7279.07
440.63	7489.71
440.82	7822.07
441.01	7473.33
441.19	7651.21
441.38	7831.43
441.57	7721.43
441.75	7946.12
441.94	8074.85
442.12	7925.05
442.31	8056.12
442.50	8093.57
442.68	7995.27
442.87	8231.66
443.05	8147.40
443.24	8304.22
443.43	8032.72
443.61	8198.90
443.80	8355.71
443.98	7852.50
444.17	7793.98
444.35	8299.54
444.54	8468.06
444.73	8346.35
444.91	8257.41
445.10	8407.20
445.28	8322.94
445.47	8362.73
445.65	8271.45
445.84	8439.97
446.02	8573.38
446.21	8442.31
446.39	8276.13
446.58	8432.95
446.77	8395.50
446.95	8280.82
447.14	8692.75
447.32	8755.94
447.51	8641.26
447.69	8535.93
447.88	8524.23
448.06	8617.85
448.25	8505.51
448.43	8636.58
448.62	8699.77
448.80	8547.64
448.99	8542.96
449.17	8840.20
449.36	8753.60
449.54	8887.01
449.73	9329.38
449.91	9142.13
450.10	8924.46
450.28	9055.53
450.46	9252.14
450.65	8945.53
450.83	9158.52
451.02	9036.81
451.20	9488.53
451.39	9357.46
451.57	9034.47
451.76	9238.09
451.94	9170.22
452.13	9420.66
452.31	9334.06
452.49	9364.48
452.68	9474.49
452.86	9605.56
453.05	9680.46
453.23	9530.66
453.42	9549.39
453.60	9462.79
453.78	9776.42
453.97	9699.18
454.15	9366.82
454.34	9521.30
454.52	9788.12
454.70	9813.87
454.89	9879.40
455.07	9781.10
455.26	9785.78
455.44	10031.54
455.62	10092.39
455.81	9980.04
455.99	9865.36
456.17	10078.35
456.36	10162.61
456.54	10031.54
456.73	10382.62
456.91	10406.02
457.09	10544.11
457.28	10548.79
457.46	10485.60
457.64	10705.61
457.83	10532.41
458.01	10501.98
458.19	10824.98
458.38	10743.06
458.56	10885.83
458.74	10822.64
458.93	10829.66
459.11	10768.80
459.29	10759.44
459.48	11016.90
459.66	11077.76
459.84	11145.63
460.03	11126.91
460.21	11063.71
460.39	10796.89
460.57	10939.66
460.76	11206.48
460.94	11428.84
461.12	11330.53
461.31	11152.65
461.49	11019.24
461.67	11419.47
461.85	11557.57
462.04	11412.45
462.22	11517.78
462.40	11728.42
462.59	11566.93
462.77	11749.49
462.95	11838.43
463.13	11655.87
463.32	11793.96
463.50	12100.57
463.68	11978.86
463.86	11932.05
464.05	11812.68
464.23	11882.90
464.41	11782.26
464.59	11983.54
464.78	11882.90
464.96	12304.20
465.14	11941.41
465.32	12191.85
465.50	12241.00
465.69	12306.54
465.87	12409.52
466.05	12276.11
466.23	12201.21
466.41	12358.03
466.60	12374.41
466.78	12482.08
466.96	12273.77
467.14	12407.18
467.32	12388.46
467.51	12585.06
467.69	12334.62
467.87	12145.04
468.05	12865.92
468.23	12748.90
468.41	12718.47
468.60	12812.09
468.78	12879.97
468.96	12702.09
469.14	12844.86
469.32	12992.31
469.50	12730.17
469.69	13046.15
469.87	13055.51
470.05	13296.58
470.23	13518.93
470.41	13238.07
470.59	13441.70
470.77	13188.92
470.95	13387.86
471.14	13540.00
471.32	13296.58
471.50	13879.38
471.68	13872.36
471.86	13902.78
472.04	14047.90
472.22	14043.21
472.40	13923.85
472.58	14019.81
472.77	13991.72
472.95	14457.49
473.13	14951.34
473.31	14200.03
473.49	14286.63
473.67	14368.55
473.85	14310.04
474.03	15040.28
474.21	14583.88
474.39	14757.08
474.57	14923.26
474.75	14892.83
474.93	14937.30
475.12	15262.63
475.30	15321.15
475.48	15157.31
475.66	15382.00
475.84	15248.59
476.02	15452.22
476.20	15578.61
476.38	15836.06
476.56	16133.31
476.74	16182.46
476.92	15992.88
477.10	16002.24
477.28	16407.16
477.46	16002.24
477.64	16145.02
477.82	16718.45
478.00	17226.34
478.18	17053.14
478.36	17144.42
478.54	17106.98
478.72	17186.55
478.90	17584.44
479.08	17895.74
479.26	17745.94
479.44	18012.76
479.62	18078.30
479.80	18090.00
479.98	18366.18
480.16	18633.00
480.34	18242.14
480.52	18527.68
480.70	18691.52
480.88	18691.52
481.06	18953.66
481.24	19213.46
481.41	19250.91
481.59	19412.40
481.77	19576.24
481.95	19775.19
482.13	19964.77
482.31	19653.48
482.49	20514.80
482.67	20369.68
482.85	20664.59
483.03	20601.40
483.21	20727.78
483.39	21263.77
483.57	20943.11
483.74	21214.62
483.92	21649.96
484.10	21429.94
484.28	21820.81
484.46	22113.38
484.64	22473.82
484.82	22221.05
485.00	22609.58
485.18	22951.29
485.35	23143.22
485.53	23058.96
485.71	23147.90
485.89	23573.88
486.07	23543.45
486.25	23667.50
486.43	23775.16
486.61	24004.53
486.78	24077.09
486.96	24177.73
487.14	24961.81
487.32	24734.78
487.50	24819.04
487.68	25324.60
487.85	25390.13
488.03	25947.18
488.21	25853.56
488.39	26258.47
488.57	25972.92
488.75	26726.58
488.92	26618.91
489.10	27213.41
489.28	26827.22
489.46	27414.69
489.64	27405.33
489.81	27583.21
489.99	27917.91
490.17	28027.92
490.35	28360.27
490.53	28739.44
490.70	28678.58
490.88	28369.63
491.06	29083.50
491.24	28968.81
491.41	29549.26
491.59	29874.60
491.77	29820.77
491.95	29394.79
492.13	30064.18
492.30	30408.24
492.48	30265.47
492.66	30462.07
492.84	30827.20
493.01	31250.83
493.19	30850.60
493.37	31079.97
493.54	31653.40
493.72	32023.21
493.90	31417.01
494.08	32063.00
494.25	32505.36
494.43	32439.82
494.61	32732.39
494.79	32404.72
494.96	32879.85
495.14	33071.77
495.32	33649.88
495.49	33706.05
495.67	33322.21
495.85	33745.84
496.02	33837.12
496.20	34007.98
496.38	34155.44
496.55	34639.93
496.73	35051.86
496.91	35026.12
497.09	34918.45
497.26	35112.72
497.44	35077.61
497.62	35494.22
497.79	36229.15
497.97	35896.80
498.14	36088.72
498.32	36680.88
498.50	36552.15
498.67	36811.95
498.85	36732.37
499.03	36985.15
499.20	37394.74
499.38	37436.87
499.56	37287.07
499.73	37537.51
499.91	37570.28
500.08	38302.87
500.26	37696.67
500.44	37883.91
500.61	38057.11
500.79	38080.52
500.97	38609.48
501.14	38916.09
501.32	39143.12
501.49	39009.71
501.67	39019.07
501.84	39098.65
502.02	39168.87
502.20	39267.17
502.37	39964.65
502.55	39648.68
502.72	39810.17
502.90	39959.97
503.07	40016.14
503.25	40556.80
503.43	40399.99
503.60	40549.78
503.78	40584.89
503.95	40659.79
504.13	40737.02
504.30	41277.69
504.48	40807.24
504.65	41258.96
504.83	41202.79
505.01	41951.76
505.18	41757.50
505.36	42302.84
505.53	41523.44
505.71	41792.61
505.88	42150.71
506.06	41820.69
506.23	42202.20
506.41	42328.59
506.58	42375.40
506.76	42745.20
506.93	43318.64
507.11	42845.85
507.28	43070.54
507.46	43054.15
507.63	43306.93
507.81	43650.99
507.98	42892.66
508.16	43693.12
508.33	43543.33
508.50	43887.39
508.68	43721.21
508.85	44465.50
509.03	44194.00
509.20	44545.08
509.38	44474.86
509.55	44713.59
509.73	44484.22
509.90	44996.80
510.08	45219.15
510.25	45113.83
510.42	44896.16
510.60	45408.73
510.77	45397.03
510.95	45773.86
511.12	45694.28
511.30	45675.55
511.47	45635.77
511.64	45958.76
511.82	46265.37
511.99	45951.74
512.17	46124.94
512.34	46546.23
512.51	46731.14
512.69	46604.75
512.86	46277.07
513.04	46967.53
513.21	46843.48
513.38	47026.04
513.56	47716.50
513.73	46927.74
513.90	47168.82
514.08	47402.87
514.25	47779.70
514.43	48020.77
514.60	47695.44
514.77	47835.87
514.95	48032.47
515.12	47899.06
515.29	48060.56
515.47	48147.16
515.64	48280.57
515.81	48093.33
515.99	48971.03
516.16	49162.95
516.33	48636.33
516.51	48980.39
516.68	49141.89
516.85	48949.96
517.03	49113.80
517.20	49394.67
517.37	49174.66
517.54	49282.32
517.72	49141.89
517.89	49226.15
518.06	49507.01
518.24	49476.58
518.41	49621.70
518.58	49778.51
518.75	49525.74
518.93	49638.08
519.10	49822.98
519.27	50284.07
519.45	49883.84
519.62	49998.52
519.79	50141.30
519.96	50145.98
520.14	50415.14
520.31	50272.37
520.48	50731.11
520.65	50707.71
520.83	51192.20
521.00	50721.75
521.17	50806.01
521.34	51042.40
521.52	51239.01
521.69	50983.89
521.86	51276.46
522.03	51391.14
522.20	51601.79
522.38	52074.58
522.55	51821.80
522.72	51814.78
522.89	51728.18
523.07	52200.97
523.24	51817.12
523.41	51966.91
523.58	51838.18
523.75	52067.56
523.92	52158.84
524.10	52275.87
524.27	52261.82
524.44	52465.45
524.61	52093.30
524.78	52624.60
524.96	52538.01
525.13	52526.30
525.30	52758.02
525.47	52587.16
525.64	52678.44
525.81	52781.42
525.98	52846.96
526.16	52772.06
526.33	52999.09
526.50	53399.32
526.67	53228.46
526.84	53546.78
527.01	53394.64
527.18	53392.30
527.36	53279.96
527.53	53310.38
527.70	53584.22
527.87	53516.35
528.04	53368.90
528.21	53602.95
528.38	53829.98
528.55	54089.78
528.72	53450.81
528.89	53853.39
529.07	53635.72
529.24	53565.50
529.41	53935.30
529.58	53808.92
529.75	53890.83
529.92	54033.61
530.09	54218.51
530.26	54145.95
530.43	54157.66
530.60	54021.90
530.77	54213.83
530.94	54546.18
531.11	54461.93
531.28	54597.68
531.46	54607.04
531.63	54532.14
531.80	54646.83
531.97	54824.71
532.14	54955.78
532.31	54829.39
532.48	54965.14
532.65	55030.68
532.82	54805.98
532.99	55009.61
533.16	54894.92
533.33	54990.89
533.50	55077.49
533.67	55136.00
533.84	55070.46
534.01	55384.10
534.18	55086.85
534.35	55311.54
534.52	55210.90
534.69	55234.30
534.86	55302.18
535.03	55421.55
535.20	55297.50
535.37	55503.46
535.54	55835.82
535.71	55498.78
535.88	55681.34
536.05	55938.80
536.22	55739.86
536.38	55877.95
536.55	55744.54
536.72	55828.80
536.89	55959.87
537.06	55899.01
537.23	55917.74
537.40	55992.64
537.57	56055.83
537.74	56081.58
537.91	56226.69
538.08	56074.55
538.25	55819.44
538.42	55980.93
538.59	56390.53
538.75	56275.84
538.92	56196.26
539.09	56626.92
539.26	56329.67
539.43	56437.34
539.60	56336.69
539.77	56678.41
539.94	56610.54
540.11	56596.49
540.28	56633.94
540.44	56802.46
540.61	56800.12
540.78	56535.64
540.95	56526.28
541.12	56509.89
541.29	56697.14
541.46	56786.08
541.62	56669.05
541.79	56999.07
541.96	56566.07
542.13	56568.41
542.30	57209.71
542.47	56978.00
542.63	57006.09
542.80	56985.02
542.97	57183.97
543.14	57567.82
543.31	57195.67
543.48	57446.11
543.64	57675.48
543.81	57525.69
543.98	57506.96
544.15	57532.71
544.32	57567.82
544.48	57743.36
544.65	57420.36
544.82	57429.72
544.99	57799.53
545.16	57792.51
545.32	57659.10
545.49	58052.31
545.66	58103.80
545.83	57902.51
546.00	57811.23
546.16	58003.16
546.33	57799.53
546.50	57762.08
546.67	57944.64
546.83	57654.42
547.00	58042.95
547.17	57944.64
547.34	58169.33
547.50	58258.27
547.67	58365.94
547.84	58195.08
548.00	58365.94
548.17	58326.15
548.34	58403.39
548.51	58412.75
548.67	58424.45
548.84	58337.85
549.01	58368.28
549.18	58475.94
549.34	58632.76
549.51	58681.91
549.68	58562.54
549.84	58555.52
550.01	58618.72
550.18	58562.54
550.34	58595.31
550.51	58550.84
550.68	58642.12
550.84	58410.41
551.01	58656.17
551.18	58688.93
551.34	58880.86
551.51	58604.67
551.68	59040.01
551.84	58717.02
552.01	58824.68
552.18	58852.77
552.34	58953.41
552.51	59079.80
552.68	58679.57
552.84	58742.77
553.01	59157.04
553.18	59063.42
553.34	59086.82
553.51	58918.31
553.67	58899.58
553.84	59154.70
554.01	59058.74
554.17	59327.90
554.34	59386.41
554.51	59337.26
554.67	59306.83
554.84	58995.54
555.00	59166.40
555.17	59297.47
555.33	59145.34
555.50	59175.76
555.67	58965.12
555.83	59332.58
556.00	59355.99
556.16	59681.32
556.33	59517.48
556.50	59416.84
556.66	59580.68
556.83	59402.80
556.99	59788.98
557.16	59606.42
557.32	59723.45
557.49	59772.60
557.65	59625.15
557.82	59531.53
557.98	59697.70
558.15	59585.36
558.32	59646.21
558.48	59552.59
558.65	59639.19
558.81	59838.14
558.98	59700.04
559.14	59920.05
559.31	59950.48
559.47	59854.52
559.64	59807.71
559.80	60067.51
559.97	59873.24
560.13	59847.50
560.30	59927.08
560.46	59941.12
560.63	60006.65
560.79	59915.37
560.96	60104.96
561.12	60037.08
561.29	60062.83
561.45	59898.99
561.61	60114.32
561.78	59964.52
561.94	60079.21
562.11	60109.64
562.27	60240.71
562.44	60233.69
562.60	60303.90
562.77	60278.16
562.93	59999.63
563.10	60301.56
563.26	60109.64
563.42	60498.17
563.59	60219.64
563.75	60364.76
563.92	60205.60
564.08	60296.88
564.24	60640.94
564.41	60252.41
564.57	60346.03
564.74	60322.63
564.90	60341.35
565.07	60617.53
565.23	60439.65
565.39	60219.64
565.56	60362.42
565.72	60236.03
565.88	60484.12
566.05	60402.21
566.21	60402.21
566.38	60449.02
566.54	60451.36
566.70	60619.88
566.87	60640.94
567.03	60371.78
567.19	60652.64
567.36	60404.55
567.52	60404.55
567.68	60846.91
567.85	60437.31
568.01	60594.13
568.17	60617.53
568.34	60570.72
568.50	60629.24
568.66	60556.68
568.83	60647.96
568.99	60619.88
569.15	60594.13
569.32	60713.50
569.48	60554.34
569.64	60753.29
569.81	60654.98
569.97	60587.11
570.13	60863.29
570.30	60488.80
570.46	60608.17
570.62	60762.65
570.78	60680.73
570.95	60568.38
571.11	60959.25
571.27	60647.96
571.43	60830.52
571.60	60879.67
571.76	60851.59
571.92	60804.78
572.09	60905.42
572.25	60975.64
572.41	60793.07
572.57	60750.94
572.74	61057.56
572.90	60910.10
573.06	60919.46
573.22	60865.63
573.38	60926.49
573.55	60793.07
573.71	61116.07
573.87	61045.85
574.03	60706.47
574.20	60985.00
574.36	61083.30
574.52	60898.40
574.68	61024.79
574.84	61139.47
575.01	61036.49
575.17	60884.36
575.33	60959.25
575.49	60828.18
575.65	60612.85
575.82	61087.98
575.98	61118.41
576.14	61174.58
576.30	61052.87
576.46	60956.91
576.62	60994.36
576.79	60858.61
576.95	60793.07
577.11	61172.24
577.27	60874.99
577.43	61146.50
577.59	60713.50
577.75	60891.38
577.92	60914.78
578.08	61233.10
578.24	60996.70
578.40	61076.28
578.56	61357.14
578.72	60996.70
578.88	61151.18
579.04	61235.44
579.21	61087.98
579.37	61120.75
579.53	61282.25
579.69	60872.65
579.85	60942.87
580.01	61006.06
580.17	61069.26
580.33	61141.81
580.49	61031.81
580.65	61111.39
580.82	61099.68
580.98	60942.87
581.14	60851.59
581.30	60985.00
581.46	61010.74
581.62	61097.34
581.78	61146.50
581.94	61169.90
582.10	60968.61
582.26	61336.08
582.42	61172.24
582.58	61195.65
582.74	61235.44
582.90	61104.37
583.06	61092.66
583.22	61132.45
583.38	61216.71
583.54	61223.73
583.70	61207.35
583.86	61235.44
584.02	61073.94
584.18	61265.86
584.34	61219.05
584.50	60999.04
584.66	61036.49
584.82	60884.36
584.98	61485.87
585.14	61080.96
585.30	61020.11
585.46	61190.97
585.62	61307.99
585.78	61261.18
585.94	61071.60
586.10	61279.91
586.26	61319.70
586.42	61289.27
586.58	61305.65
586.74	61446.08
586.90	61165.22
587.06	61146.50
587.22	61286.93
587.38	61277.57
587.54	61340.76
587.70	61532.68
587.86	61432.04
588.02	61427.36
588.18	61382.89
588.34	61310.33
588.49	61366.51
