SpectraSuite Data File
++++++++++++++++++++++++++++++++++++
Date: Fri Oct 25 11:23:54 EDT 2013
User: price-jones
Dark Spectrum Present: No
Reference Spectrum Present: No
Number of Sampled Component Spectra: 1
Spectrometers: USB2+H05261
Integration Time (usec): 100000 (USB2+H05261)
Spectra Averaged: 1 (USB2+H05261)
Boxcar Smoothing: 0 (USB2+H05261)
Correct for Electrical Dark: No (USB2+H05261)
Strobe/Lamp Enabled: No (USB2+H05261)
Correct for Detector Non-linearity: No (USB2+H05261)
Correct for Stray Light: No (USB2+H05261)
Number of Pixels in Processed Spectrum: 2048
>>>>>Begin Processed Spectral Data<<<<<
365.73	212.99
365.92	212.99
366.12	212.99
366.32	133.41
366.52	124.05
366.72	161.50
366.91	88.94
367.11	107.66
367.31	77.24
367.51	95.96
367.70	163.84
367.90	142.77
368.10	140.43
368.30	67.88
368.49	175.54
368.69	152.13
368.89	124.05
369.09	163.84
369.28	163.84
369.48	196.60
369.68	156.82
369.87	229.37
370.07	201.29
370.27	234.05
370.47	273.84
370.66	580.45
370.86	554.71
371.06	624.92
371.25	706.84
371.45	645.99
371.65	683.44
371.84	676.41
372.04	720.88
372.24	725.57
372.44	718.54
372.63	772.38
372.83	711.52
373.03	727.91
373.22	704.50
373.42	711.52
373.62	739.61
373.81	737.27
374.01	751.31
374.21	809.83
374.40	786.42
374.60	819.19
374.79	788.76
374.99	814.51
375.19	870.68
375.38	812.17
375.58	856.64
375.78	866.00
375.97	856.64
376.17	880.04
376.37	931.53
376.56	844.93
376.76	791.10
376.95	863.66
377.15	894.08
377.35	877.70
377.54	966.64
377.74	922.17
377.93	858.98
378.13	933.87
378.33	994.73
378.52	917.49
378.72	910.47
378.91	929.19
379.11	917.49
379.31	1004.09
379.50	922.17
379.70	994.73
379.89	894.08
380.09	842.59
380.28	964.30
380.48	1025.15
380.68	858.98
380.87	994.73
381.07	952.60
381.26	973.66
381.46	1074.31
381.65	1071.97
381.85	1039.20
382.04	1050.90
382.24	1060.26
382.43	990.05
382.63	1067.28
382.83	1135.16
383.02	1015.79
383.22	1130.48
383.41	1076.65
383.61	1123.46
383.80	1144.52
384.00	1135.16
384.19	1097.71
384.39	1100.05
384.58	1114.10
384.78	1123.46
384.97	1181.97
385.17	1210.06
385.36	1172.61
385.56	1284.95
385.75	1259.21
385.95	1221.76
386.14	1270.91
386.34	1228.78
386.53	1181.97
386.72	1137.50
386.92	1217.08
387.11	1224.10
387.31	1343.47
387.50	1167.93
387.70	1240.48
387.89	1324.74
388.09	1327.08
388.28	1247.51
388.48	1268.57
388.67	1294.32
388.86	1306.02
389.06	1315.38
389.25	1434.75
389.45	1401.98
389.64	1334.11
389.84	1380.92
390.03	1418.36
390.22	1390.28
390.42	1362.19
390.61	1441.77
390.81	1437.09
391.00	1427.73
391.19	1416.02
391.39	1453.47
391.58	1425.39
391.78	1394.96
391.97	1453.47
392.16	1472.20
392.36	1474.54
392.55	1511.99
392.75	1519.01
392.94	1572.84
393.13	1526.03
393.33	1586.88
393.52	1598.59
393.71	1605.61
393.91	1572.84
394.10	1596.25
394.29	1549.43
394.49	1603.27
394.68	1636.03
394.88	1591.56
395.07	1636.03
395.26	1591.56
395.46	1572.84
395.65	1755.40
395.84	1652.42
396.04	1750.72
396.23	1706.25
396.42	1703.91
396.62	1694.55
396.81	1732.00
397.00	1708.59
397.19	1724.97
397.39	1832.64
397.58	1842.00
397.77	1792.85
397.97	1846.68
398.16	1799.87
398.35	1856.04
398.55	1928.60
398.74	1811.57
398.93	1933.28
399.12	1849.02
399.32	1884.13
399.51	1785.83
399.70	2146.27
399.90	1989.46
400.09	1991.80
400.28	1977.75
400.47	1930.94
400.67	2024.56
400.86	2036.27
401.05	2008.18
401.24	2097.12
401.44	2066.69
401.63	2129.89
401.82	2085.42
402.01	2054.99
402.21	2069.03
402.40	2139.25
402.59	2275.00
402.78	2232.87
402.97	2214.15
403.17	2235.21
403.36	2284.36
403.55	2251.60
403.74	2352.24
403.93	2291.38
404.13	2361.60
404.32	2305.43
404.51	2401.39
404.70	2443.52
404.89	2399.05
405.09	2525.44
405.28	2548.84
405.47	2530.12
405.66	2462.24
405.85	2480.97
406.05	2504.37
406.24	2544.16
406.43	2586.29
406.62	2574.59
406.81	2752.47
407.00	2583.95
407.20	2581.61
407.39	2626.08
407.58	2796.94
407.77	2712.68
407.96	2787.58
408.15	2684.59
408.34	2658.85
408.54	2775.88
408.73	2752.47
408.92	2810.98
409.11	2839.07
409.30	2932.69
409.49	2932.69
409.68	2888.22
409.87	2864.82
410.07	2920.99
410.26	2963.12
410.45	2977.16
410.64	2984.18
410.83	3028.65
411.02	3136.32
411.21	3183.13
411.40	3112.91
411.59	3218.24
411.78	3117.59
411.98	3166.74
412.17	3241.64
412.36	3260.37
412.55	3372.71
412.74	3332.92
412.93	3351.65
413.12	3501.44
413.31	3534.21
413.50	3478.04
413.69	3466.33
413.88	3496.76
414.07	3574.00
414.26	3510.80
414.45	3630.17
414.64	3641.87
414.83	3822.09
415.02	3871.25
415.22	3824.44
415.41	3763.58
415.60	3833.80
415.79	3936.78
415.98	3927.42
416.17	3920.40
416.36	3978.91
416.55	3974.23
416.74	3969.55
416.93	4025.72
417.12	4163.81
417.31	4168.49
417.50	4241.05
417.69	4409.57
417.88	4311.27
418.07	4119.34
418.26	4334.67
418.45	4383.82
418.64	4503.19
418.83	4402.55
419.02	4353.40
419.21	4533.62
419.39	4395.53
419.58	4322.97
419.77	4404.89
419.96	4713.84
420.15	4655.33
420.34	4423.61
420.53	4667.03
420.72	4828.53
420.91	4688.09
421.10	4580.43
421.29	4638.94
421.48	4674.05
421.67	4638.94
421.86	4795.76
422.05	4842.57
422.24	4772.35
422.43	4842.57
422.61	4840.23
422.80	4985.34
422.99	4917.47
423.18	4980.66
423.37	5191.31
423.56	4929.17
423.75	4980.66
423.94	4788.74
424.13	4650.64
424.32	4645.96
424.50	4753.63
424.69	5093.01
424.88	5128.11
425.07	4961.94
425.26	4875.34
425.45	5034.49
425.64	4968.96
425.83	4952.57
426.01	5071.94
426.20	5165.56
426.39	5027.47
426.58	5102.37
426.77	5067.26
426.96	5142.16
427.15	5163.22
427.33	5146.84
427.52	5226.42
427.71	5273.23
427.90	5177.26
428.09	5256.84
428.28	5357.49
428.46	5317.70
428.65	5315.36
428.84	5533.03
429.03	5523.66
429.22	5317.70
429.40	5434.72
429.59	5540.05
429.78	5266.21
429.97	5305.99
430.16	5385.57
430.34	5544.73
430.53	5624.31
430.72	5689.84
430.91	5600.90
431.10	5666.44
431.28	5750.70
431.47	5757.72
431.66	5823.25
431.85	5874.74
432.03	5923.90
432.22	6026.88
432.41	5806.87
432.60	5797.51
432.79	5860.70
432.97	5973.05
433.16	5933.26
433.35	6200.08
433.54	6218.80
433.72	5961.34
433.91	6101.78
434.10	6176.67
434.28	6270.30
434.47	6296.04
434.66	6396.68
434.85	6413.07
435.03	6389.66
435.22	6333.49
435.41	6356.90
435.59	6221.14
435.78	6406.05
435.97	6452.86
436.16	6436.47
436.34	6546.48
436.53	6499.67
436.72	6651.80
436.90	6541.80
437.09	6558.18
437.28	6399.02
437.46	6593.29
437.65	6635.42
437.84	6651.80
438.02	6672.87
438.21	6773.51
438.40	6635.42
438.58	6944.37
438.77	7049.69
438.96	6949.05
439.14	6932.67
439.33	7112.89
439.52	7143.32
439.70	7243.96
439.89	7393.75
440.08	7248.64
440.26	7531.84
440.45	7279.07
440.63	7538.87
440.82	7606.74
441.01	7463.97
441.19	7667.60
441.38	7569.29
441.57	7655.89
441.75	7630.15
441.94	8035.06
442.12	8016.33
442.31	8095.91
442.50	7864.20
442.68	7889.95
442.87	7873.56
443.05	8044.42
443.24	8116.98
443.43	8372.10
443.61	8238.69
443.80	8451.67
443.98	8093.57
444.17	7833.77
444.35	8222.30
444.54	8365.07
444.73	8231.66
444.91	8336.99
445.10	8486.78
445.28	8451.67
445.47	8332.31
445.65	8255.07
445.84	8526.57
446.02	8486.78
446.21	8292.52
446.39	8341.67
446.58	8671.68
446.77	8594.45
446.95	8388.48
447.14	8308.90
447.32	8465.72
447.51	8533.59
447.69	8561.68
447.88	8496.14
448.06	8512.53
448.25	8468.06
448.43	8446.99
448.62	8557.00
448.80	8697.43
448.99	8699.77
449.17	8704.45
449.36	8573.38
449.54	8809.78
449.73	8978.30
449.91	9027.45
450.10	8940.85
450.28	8795.73
450.46	9114.05
450.65	8945.53
450.83	8861.27
451.02	8915.10
451.20	9139.79
451.39	9184.26
451.57	9118.73
451.76	8952.55
451.94	9294.27
452.13	9228.73
452.31	9369.16
452.49	9212.35
452.68	9298.95
452.86	9301.29
453.05	9518.96
453.23	9366.82
453.42	9210.01
453.60	9167.88
453.78	9401.93
453.97	9451.08
454.15	9427.68
454.34	9500.23
454.52	9715.56
454.70	9671.09
454.89	9776.42
455.07	9856.00
455.26	9790.46
455.44	9921.53
455.62	9792.80
455.81	9926.21
455.99	10111.11
456.17	10195.37
456.36	9954.30
456.54	10195.37
456.73	10209.42
456.91	10457.51
457.09	10303.04
457.28	10504.32
457.46	10551.14
457.64	10546.45
457.83	10562.84
458.01	10429.43
458.19	10504.32
458.38	10787.53
458.56	10721.99
458.74	10616.67
458.93	10597.95
459.11	10478.58
459.29	10740.72
459.48	10736.04
459.66	10984.13
459.84	10911.58
460.03	11211.17
460.21	10920.94
460.39	11098.82
460.57	10965.41
460.76	11089.46
460.94	11082.44
461.12	11192.44
461.31	11253.30
461.49	10977.11
461.67	11073.07
461.85	11541.18
462.04	11346.92
462.22	11618.42
462.40	11403.09
462.59	11445.22
462.77	11592.67
462.95	11578.63
463.13	11709.70
463.32	11583.31
463.50	11548.20
463.68	11927.37
463.86	11960.14
464.05	11920.35
464.23	11875.88
464.41	11831.41
464.59	11971.84
464.78	12105.25
464.96	11864.18
465.14	11669.91
465.32	12149.72
465.50	12025.67
465.69	12173.13
465.87	12348.67
466.05	11913.33
466.23	11988.22
466.41	12318.24
466.60	12566.34
466.78	12346.33
466.96	12241.00
467.14	12219.94
467.32	12432.93
467.51	12489.10
467.69	12168.45
467.87	12545.27
468.05	12411.86
468.23	12620.17
468.41	12402.50
468.60	12627.19
468.78	13006.36
468.96	12774.64
469.14	12835.50
469.32	13160.83
469.50	12479.74
469.69	13088.28
469.87	13064.87
470.05	13146.79
470.23	13205.30
470.41	13343.39
470.59	13371.48
470.77	13102.32
470.95	13336.37
471.14	13577.45
471.32	13458.08
471.50	13575.11
471.68	13376.16
471.86	13781.07
472.04	13731.92
472.22	13944.91
472.40	13584.47
472.58	13818.52
472.77	13851.29
472.95	13994.06
473.13	14815.59
473.31	14059.60
473.49	14265.57
473.67	14221.10
473.85	14228.12
474.03	14771.12
474.21	14696.22
474.39	14754.74
474.57	14654.09
474.75	14930.28
474.93	15129.22
475.12	14871.76
475.30	15037.94
475.48	15197.10
475.66	15176.03
475.84	15178.37
476.02	15449.88
476.20	15461.58
476.38	15611.37
476.56	15917.98
476.74	15800.96
476.92	15969.48
477.10	15917.98
477.28	16292.47
477.46	16479.71
477.64	16489.07
477.82	16566.31
478.00	17130.38
478.18	16758.24
478.36	17060.16
478.54	17238.05
478.72	17219.32
478.90	17387.84
479.08	17486.14
479.26	17891.06
479.44	17881.69
479.62	17860.63
479.80	18291.29
479.98	18143.83
480.16	18796.84
480.34	18398.95
480.52	18665.77
480.70	18647.05
480.88	18251.50
481.06	18771.10
481.24	18913.87
481.41	19187.71
481.59	19288.35
481.77	19482.62
481.95	19337.51
482.13	19770.51
482.31	19901.58
482.49	20229.25
482.67	20264.36
482.85	20336.91
483.03	20643.52
483.21	20809.70
483.39	21001.63
483.57	20940.77
483.74	21226.32
483.92	21109.29
484.10	21486.12
484.28	21542.29
484.46	21776.34
484.64	22391.91
484.82	21935.50
485.00	22487.87
485.18	22773.41
485.35	22824.90
485.53	22794.48
485.71	23077.68
485.89	23630.05
486.07	23623.03
486.25	23583.24
486.43	23690.90
486.61	23690.90
486.78	24325.19
486.96	24222.20
487.14	24528.81
487.32	24622.44
487.50	24922.02
487.68	25132.67
487.85	25226.29
488.03	25507.16
488.21	25879.30
488.39	26040.80
488.57	26054.84
488.75	26125.06
488.92	26532.31
489.10	26415.29
489.28	27002.76
489.46	27491.93
489.64	27168.94
489.81	27594.92
489.99	27552.79
490.17	27442.78
490.35	27793.86
490.53	28215.16
490.70	28154.30
490.88	28439.85
491.06	28973.49
491.24	29219.25
491.41	29060.09
491.59	29223.93
491.77	29326.91
491.95	29792.68
492.13	29947.15
492.30	30026.73
492.48	30036.09
492.66	30380.15
492.84	30546.33
493.01	30665.70
493.19	30738.26
493.37	31140.83
493.54	31321.05
493.72	31557.44
493.90	31079.97
494.08	31711.92
494.25	31763.41
494.43	31945.97
494.61	32334.50
494.79	32580.26
494.96	32788.56
495.14	32584.94
495.32	33511.79
495.49	33008.58
495.67	33064.75
495.85	33425.19
496.02	33916.70
496.20	33820.74
496.38	33703.71
496.55	33972.88
496.73	35180.59
496.91	34686.74
497.09	34836.53
497.26	34911.43
497.44	34558.01
497.62	35646.36
497.79	35501.25
497.97	35398.26
498.14	35814.88
498.32	36510.02
498.50	36287.67
498.67	36470.23
498.85	36568.53
499.03	36833.01
499.20	37127.92
499.38	36790.88
499.56	37191.11
499.73	37174.73
499.91	37165.37
500.08	37745.82
500.26	37708.37
500.44	38012.64
500.61	38064.13
500.79	38040.73
500.97	38258.40
501.14	38916.09
501.32	38628.20
501.49	38623.52
501.67	38707.78
501.84	38719.48
502.02	38948.85
502.20	38909.07
502.37	39304.62
502.55	38974.60
502.72	40006.78
502.90	39896.77
503.07	39763.36
503.25	39702.51
503.43	39985.71
503.60	40416.37
503.78	40442.12
503.95	40282.96
504.13	40807.24
504.30	40781.49
504.48	40470.20
504.65	40650.42
504.83	41280.03
505.01	41457.91
505.18	41127.89
505.36	41345.56
505.53	41251.94
505.71	42064.11
505.88	41806.65
506.06	41474.29
506.23	41914.31
506.41	41696.64
506.58	42405.83
506.76	41844.10
506.93	42560.30
507.11	42110.92
507.28	42628.18
507.46	42623.50
507.63	43023.73
507.81	43466.09
507.98	43365.45
508.16	42960.53
508.33	43564.39
508.50	43489.49
508.68	43342.04
508.85	44098.03
509.03	43604.18
509.20	44378.90
509.38	44470.18
509.55	44493.58
509.73	44453.79
509.90	44542.74
510.08	44755.72
510.25	45067.02
510.42	44910.20
510.60	44821.26
510.77	45165.32
510.95	45720.02
511.12	45024.89
511.30	44971.05
511.47	45425.12
511.64	45209.79
511.82	46089.83
511.99	45834.71
512.17	45961.10
512.34	45972.80
512.51	46344.95
512.69	46169.41
512.86	46330.90
513.04	46473.68
513.21	47002.64
513.38	46674.96
513.56	46658.58
513.73	46515.81
513.90	46944.12
514.08	47075.19
514.25	47271.80
514.43	47217.97
514.60	47559.69
514.77	47391.17
514.95	47744.59
515.12	47426.28
515.29	47636.92
515.47	48037.16
515.64	48191.63
515.81	47852.25
515.99	48186.95
516.16	48636.33
516.33	48168.22
516.51	49055.29
516.68	48575.48
516.85	48374.19
517.03	49071.67
517.20	49305.73
517.37	48744.00
517.54	48842.30
517.72	48868.05
517.89	49230.83
518.06	49326.79
518.24	49071.67
518.41	49460.20
518.58	49511.69
518.75	49439.14
518.93	49888.52
519.10	49081.03
519.27	50167.04
519.45	49897.88
519.62	50050.02
519.79	50312.16
519.96	49918.95
520.14	49804.26
520.31	50272.37
520.48	50391.73
520.65	50438.54
520.83	50866.86
521.00	50581.32
521.17	50688.98
521.34	50813.03
521.52	50464.29
521.69	50820.05
521.86	50958.14
522.03	51164.11
522.20	51330.29
522.38	51664.99
522.55	51138.36
522.72	51512.85
522.89	51613.49
523.07	51730.52
523.24	51774.99
523.41	51744.56
523.58	51571.36
523.75	51962.23
523.92	51807.76
524.10	51821.80
524.27	52233.74
524.44	51955.21
524.61	52165.86
524.78	52268.84
524.96	52303.95
525.13	52484.17
525.30	52444.38
525.47	52903.13
525.64	52334.38
525.81	52711.20
525.98	52772.06
526.16	52708.86
526.33	52713.55
526.50	52992.07
526.67	52753.33
526.84	52795.46
527.01	52975.69
527.18	53001.43
527.36	52846.96
527.53	52973.34
527.70	53366.55
527.87	53151.23
528.04	53261.23
528.21	53518.69
528.38	53216.76
528.55	53532.73
528.72	53514.01
528.89	53542.10
529.07	53366.55
529.24	53476.56
529.41	53616.99
529.58	53455.50
529.75	53609.97
529.92	53872.11
530.09	53544.44
530.26	54152.97
530.43	53808.92
530.60	53867.43
530.77	53663.80
530.94	53813.60
531.11	54042.97
531.28	54096.80
531.46	54185.74
531.63	54546.18
531.80	54328.52
531.97	54244.26
532.14	54630.44
532.31	54639.81
532.48	54424.48
532.65	54480.65
532.82	54452.56
532.99	54611.72
533.16	54656.19
533.33	54644.49
533.50	55227.28
533.67	54829.39
533.84	55056.42
534.01	54700.66
534.18	55007.27
534.35	55473.04
534.52	55089.19
534.69	55054.08
534.86	55290.48
535.03	55140.68
535.20	55037.70
535.37	55466.02
535.54	55377.08
535.71	55236.64
535.88	55686.03
536.05	55587.72
536.22	55444.95
536.38	55669.64
536.55	55690.71
536.72	55657.94
536.89	55402.82
537.06	55585.38
537.23	55711.77
537.40	55763.26
537.57	55737.52
537.74	55739.86
537.91	56189.24
538.08	56013.70
538.25	55655.60
538.42	55976.25
538.59	56198.60
538.75	55964.55
538.92	56161.15
539.09	56397.55
539.26	56353.08
539.43	55896.67
539.60	56329.67
539.77	56219.67
539.94	56292.22
540.11	56383.51
540.28	56348.40
540.44	56535.64
540.61	56498.19
540.78	56540.32
540.95	56147.11
541.12	56549.68
541.29	56467.76
541.46	56317.97
541.62	56528.62
541.79	56687.78
541.96	56439.68
542.13	56542.66
542.30	56533.30
542.47	56980.34
542.63	56982.68
542.80	56959.28
542.97	57190.99
543.14	57331.42
543.31	57069.28
543.48	57441.43
543.64	57308.02
543.81	57443.77
543.98	57371.21
544.15	57319.72
544.32	57577.18
544.48	57315.04
544.65	57368.87
544.82	57556.11
544.99	56994.39
545.16	57579.52
545.32	57579.52
545.49	57656.76
545.66	57574.84
545.83	57605.26
546.00	57865.06
546.16	57748.04
546.33	57602.92
546.50	57506.96
546.67	57799.53
546.83	57551.43
547.00	57705.91
547.17	57778.46
547.34	57549.09
547.50	58141.25
547.67	57968.05
547.84	58047.63
548.00	57991.45
548.17	58031.24
548.34	58101.46
548.51	58017.20
548.67	58143.59
548.84	58085.07
549.01	58239.55
549.18	58082.73
549.34	58248.91
549.51	58307.43
549.68	58478.28
549.84	58525.10
550.01	58658.51
550.18	58145.93
550.34	58468.92
550.51	58494.67
550.68	58370.62
550.84	58330.83
551.01	58681.91
551.18	58707.66
551.34	58583.61
551.51	58522.76
551.68	58763.83
551.84	58614.04
552.01	58597.65
552.18	58761.49
552.34	58475.94
552.51	58871.49
552.68	58614.04
552.84	58824.68
553.01	58852.77
553.18	58930.01
553.34	59002.56
553.51	58768.51
553.67	58946.39
553.84	58918.31
554.01	59061.08
554.17	59000.22
554.34	59086.82
554.51	59025.97
554.67	58955.75
554.84	58927.67
555.00	59044.69
555.17	59000.22
555.33	59037.67
555.50	59065.76
555.67	59058.74
555.83	59089.16
556.00	59323.22
556.16	59568.97
556.33	59210.87
556.50	59311.52
556.66	59449.61
556.83	59185.13
556.99	59510.46
557.16	59482.37
557.32	59255.34
557.49	59608.76
557.65	59227.26
557.82	59522.16
557.98	59475.35
558.15	59260.02
558.32	59503.44
558.48	59402.80
558.65	59508.12
558.81	59618.13
558.98	59566.63
559.14	59657.91
559.31	59592.38
559.47	59664.94
559.64	59723.45
559.80	59863.88
559.97	59812.39
560.13	59737.49
560.30	59742.17
560.46	59826.43
560.63	59568.97
560.79	59866.22
560.96	59803.03
561.12	59997.29
561.29	59964.52
561.45	59884.95
561.61	59805.37
561.78	59894.31
561.94	59810.05
562.11	59929.42
562.27	60268.79
562.44	59931.76
562.60	60189.22
562.77	60151.77
562.93	59735.15
563.10	60011.34
563.26	59753.88
563.42	60339.01
563.59	60072.19
563.75	60196.24
563.92	60093.25
564.08	59833.46
564.24	60343.69
564.41	60126.02
564.57	60119.00
564.74	60074.53
564.90	60114.32
565.07	60135.38
565.23	60177.51
565.39	60053.47
565.56	60149.43
565.72	59985.59
565.88	60076.87
566.05	60278.16
566.21	60278.16
566.38	60385.82
566.54	60182.19
566.70	60547.32
566.87	60629.24
567.03	60252.41
567.19	60430.29
567.36	60486.46
567.52	60343.69
567.68	60444.33
567.85	60362.42
568.01	60509.87
568.17	60404.55
568.34	60636.26
568.50	60236.03
568.66	60238.37
568.83	60509.87
568.99	60322.63
569.15	60374.12
569.32	60437.31
569.48	60362.42
569.64	60612.85
569.81	60456.04
569.97	60247.73
570.13	60577.75
570.30	60530.93
570.46	60472.42
570.62	60612.85
570.78	60612.85
570.95	60411.57
571.11	60619.88
571.27	60577.75
571.43	60523.91
571.60	60694.77
571.76	60570.72
571.92	60615.19
572.09	60690.09
572.25	60441.99
572.41	60589.45
572.57	60530.93
572.74	60886.70
572.90	60753.29
573.06	60769.67
573.22	60685.41
573.38	60552.00
573.55	60772.01
573.71	61020.11
573.87	60844.57
574.03	60374.12
574.20	60711.16
574.36	60654.98
574.52	60657.32
574.68	60795.42
574.84	60917.12
575.01	60863.29
575.17	60622.22
575.33	60774.35
575.49	60720.52
575.65	60786.05
575.82	60776.69
575.98	60926.49
576.14	60910.10
576.30	61038.83
576.46	60947.55
576.62	60626.90
576.79	60760.31
576.95	60879.67
577.11	60797.76
577.27	60793.07
577.43	60762.65
577.59	60851.59
577.75	60870.31
577.92	60793.07
578.08	60732.22
578.24	60900.74
578.40	61057.56
578.56	61223.73
578.72	60917.12
578.88	61153.52
579.04	61209.69
579.21	60942.87
579.37	61123.09
579.53	61141.81
579.69	60856.27
579.85	60912.44
580.01	60973.30
580.17	60900.74
580.33	60903.08
580.49	61197.99
580.65	61024.79
580.82	60905.42
580.98	60729.88
581.14	60748.60
581.30	60956.91
581.46	60928.83
581.62	60903.08
581.78	60889.04
581.94	61022.45
582.10	60903.08
582.26	60802.44
582.42	60994.36
582.58	61085.64
582.74	61106.71
582.90	60903.08
583.06	61127.77
583.22	60736.90
583.38	61010.74
583.54	61139.47
583.70	61071.60
583.86	61172.24
584.02	60928.83
584.18	61022.45
584.34	60891.38
584.50	61106.71
584.66	61071.60
584.82	60938.19
584.98	61071.60
585.14	61200.33
585.30	60893.72
585.46	61041.17
585.62	61109.05
585.78	61176.92
585.94	60816.48
586.10	60966.27
586.26	61034.15
586.42	61050.53
586.58	61226.07
586.74	60961.59
586.90	60975.64
587.06	61036.49
587.22	61200.33
587.38	61048.19
587.54	61263.52
587.70	61141.81
587.86	61123.09
588.02	61010.74
588.18	61118.41
588.34	61169.90
588.49	61024.79
