SpectraSuite Data File
++++++++++++++++++++++++++++++++++++
Date: Fri Oct 25 11:34:18 EDT 2013
User: price-jones
Dark Spectrum Present: No
Reference Spectrum Present: No
Number of Sampled Component Spectra: 1
Spectrometers: USB2+H05261
Integration Time (usec): 100000 (USB2+H05261)
Spectra Averaged: 1 (USB2+H05261)
Boxcar Smoothing: 0 (USB2+H05261)
Correct for Electrical Dark: No (USB2+H05261)
Strobe/Lamp Enabled: No (USB2+H05261)
Correct for Detector Non-linearity: No (USB2+H05261)
Correct for Stray Light: No (USB2+H05261)
Number of Pixels in Processed Spectrum: 2048
>>>>>Begin Processed Spectral Data<<<<<
365.73	269.16
365.92	269.16
366.12	269.16
366.32	191.92
366.52	194.26
366.72	201.29
366.91	241.08
367.11	173.20
367.31	138.09
367.51	189.58
367.70	217.67
367.90	170.86
368.10	189.58
368.30	205.97
368.49	170.86
368.69	210.65
368.89	208.31
369.09	252.78
369.28	243.42
369.48	266.82
369.68	175.54
369.87	222.35
370.07	285.55
370.27	273.84
370.47	346.40
370.66	428.32
370.86	463.43
371.06	559.39
371.25	599.18
371.45	601.52
371.65	521.94
371.84	557.05
372.04	585.13
372.24	573.43
372.44	571.09
372.63	566.41
372.83	552.37
373.03	627.26
373.22	650.67
373.42	571.09
373.62	564.07
373.81	664.71
374.01	636.63
374.21	615.56
374.40	622.58
374.60	608.54
374.79	617.90
374.99	634.29
375.19	610.88
375.38	580.45
375.58	667.05
375.78	664.71
375.97	629.60
376.17	650.67
376.37	648.33
376.56	638.97
376.76	664.71
376.95	695.14
377.15	547.69
377.35	580.45
377.54	706.84
377.74	681.10
377.93	594.50
378.13	669.39
378.33	690.46
378.52	723.23
378.72	678.76
378.91	678.76
379.11	706.84
379.31	711.52
379.50	692.80
379.70	627.26
379.89	760.67
380.09	732.59
380.28	772.38
380.48	697.48
380.68	758.33
380.87	727.91
381.07	741.95
381.26	702.16
381.46	706.84
381.65	807.48
381.85	772.38
382.04	814.51
382.24	699.82
382.43	744.29
382.63	823.87
382.83	763.01
383.02	847.27
383.22	788.76
383.41	802.80
383.61	795.78
383.80	781.74
384.00	753.65
384.19	816.85
384.39	779.40
384.58	821.53
384.78	840.25
384.97	802.80
385.17	821.53
385.36	737.27
385.56	779.40
385.75	777.06
385.95	908.13
386.14	901.11
386.34	816.85
386.53	931.53
386.72	767.70
386.92	788.76
387.11	903.45
387.31	875.36
387.50	882.38
387.70	866.00
387.89	849.61
388.09	858.98
388.28	873.02
388.48	926.85
388.67	987.71
388.86	849.61
389.06	877.70
389.25	898.77
389.45	968.98
389.64	983.02
389.84	985.37
390.03	1008.77
390.22	931.53
390.42	1027.50
390.61	922.17
390.81	866.00
391.00	961.96
391.19	1041.54
391.39	961.96
391.58	919.83
391.78	1015.79
391.97	1020.47
392.16	1039.20
392.36	1095.37
392.55	1032.18
392.75	983.02
392.94	983.02
393.13	990.05
393.33	1020.47
393.52	1043.88
393.71	1125.80
393.91	1013.45
394.10	1050.90
394.29	1053.24
394.49	1036.86
394.68	1083.67
394.88	1118.78
395.07	1146.86
395.26	1118.78
395.46	1137.50
395.65	1132.82
395.84	1224.10
396.04	1301.34
396.23	1212.40
396.42	1132.82
396.62	1217.08
396.81	1188.99
397.00	1153.88
397.19	1179.63
397.39	1207.72
397.58	1238.14
397.77	1196.01
397.97	1226.44
398.16	1188.99
398.35	1245.16
398.55	1249.85
398.74	1224.10
398.93	1343.47
399.12	1350.49
399.32	1334.11
399.51	1291.98
399.70	1287.29
399.90	1252.19
400.09	1310.70
400.28	1338.79
400.47	1322.40
400.67	1366.87
400.86	1437.09
401.05	1313.04
401.24	1423.05
401.44	1308.36
401.63	1479.22
401.82	1451.13
402.01	1371.55
402.21	1444.11
402.40	1490.92
402.59	1390.28
402.78	1390.28
402.97	1455.81
403.17	1469.86
403.36	1504.96
403.55	1521.35
403.74	1591.56
403.93	1586.88
404.13	1568.16
404.32	1521.35
404.51	1572.84
404.70	1577.52
404.89	1603.27
405.09	1624.33
405.28	1607.95
405.47	1561.14
405.66	1612.63
405.85	1647.74
406.05	1703.91
406.24	1699.23
406.43	1727.32
406.62	1762.42
406.81	1748.38
407.00	1708.59
407.20	1631.35
407.39	1727.32
407.58	1771.79
407.77	1762.42
407.96	1778.81
408.15	1898.17
408.34	1863.07
408.54	1813.92
408.73	1933.28
408.92	1877.11
409.11	2026.90
409.30	1975.41
409.49	1895.83
409.68	1842.00
409.87	1933.28
410.07	2022.22
410.26	1961.37
410.45	2054.99
410.64	2043.29
410.83	2097.12
411.02	2181.38
411.21	2165.00
411.40	2120.53
411.59	2106.48
411.78	2069.03
411.98	2104.14
412.17	2218.83
412.36	2228.19
412.55	2111.16
412.74	2345.22
412.93	2368.62
413.12	2190.74
413.31	2321.81
413.50	2340.54
413.69	2399.05
413.88	2422.45
414.07	2415.43
414.26	2427.14
414.45	2340.54
414.64	2438.84
414.83	2558.21
415.02	2473.95
415.22	2516.08
415.41	2520.76
415.60	2518.42
415.79	2478.63
415.98	2614.38
416.17	2717.36
416.36	2736.09
416.55	2703.32
416.74	2654.17
416.93	2731.41
417.12	2764.17
417.31	2815.66
417.50	2775.88
417.69	2897.58
417.88	2780.56
418.07	2862.48
418.26	2920.99
418.45	2874.18
418.64	2949.08
418.83	2977.16
419.02	2827.37
419.21	3150.36
419.39	3070.78
419.58	3063.76
419.77	2942.05
419.96	3054.40
420.15	3096.53
420.34	3000.57
420.53	3038.02
420.72	3206.53
420.91	3185.47
421.10	3145.68
421.29	3204.19
421.48	3206.53
421.67	3075.46
421.86	3220.58
422.05	3225.26
422.24	3246.32
422.43	3290.79
422.61	3260.37
422.80	3255.69
422.99	3293.13
423.18	3267.39
423.37	3459.31
423.56	3253.34
423.75	3246.32
423.94	3246.32
424.13	3105.89
424.32	3220.58
424.50	3323.56
424.69	3314.20
424.88	3426.54
425.07	3297.81
425.26	3353.99
425.45	3361.01
425.64	3368.03
425.83	3339.94
426.01	3283.77
426.20	3363.35
426.39	3377.39
426.58	3424.20
426.77	3335.26
426.96	3353.99
427.15	3503.78
427.33	3599.74
427.52	3597.40
427.71	3613.79
427.90	3461.65
428.09	3620.81
428.28	3557.61
428.46	3531.87
428.65	3644.21
428.84	3686.34
429.03	3751.88
429.22	3719.11
429.40	3770.60
429.59	3616.13
429.78	3524.85
429.97	3485.06
430.16	3644.21
430.34	3700.39
430.53	3840.82
430.72	3836.14
430.91	3831.46
431.10	3747.20
431.28	3831.46
431.47	3875.93
431.66	3911.04
431.85	3798.69
432.03	3852.52
432.22	4018.70
432.41	3976.57
432.60	3904.01
432.79	3974.23
432.97	3990.61
433.16	3899.33
433.35	3978.91
433.54	4077.21
433.72	4145.09
433.91	4152.11
434.10	4117.00
434.28	4093.60
434.47	4203.60
434.66	4205.94
434.85	4175.52
435.03	4217.65
435.22	4264.46
435.41	4337.01
435.59	4189.56
435.78	4264.46
435.97	4353.40
436.16	4297.22
436.34	4152.11
436.53	4496.17
436.72	4393.19
436.90	4224.67
437.09	4461.06
437.28	4402.55
437.46	4507.87
437.65	4360.42
437.84	4482.13
438.02	4505.53
438.21	4362.76
438.40	4477.44
438.58	4615.54
438.77	4779.37
438.96	4643.62
439.14	4702.14
439.33	4718.52
439.52	4667.03
439.70	4805.12
439.89	4936.19
440.08	4868.31
440.26	4847.25
440.45	4847.25
440.63	4910.44
440.82	5083.64
441.01	4938.53
441.19	4964.28
441.38	5163.22
441.57	5163.22
441.75	5062.58
441.94	5268.55
442.12	5322.38
442.31	5336.42
442.50	5406.64
442.68	5334.08
442.87	5380.89
443.05	5406.64
443.24	5502.60
443.43	5371.53
443.61	5411.32
443.80	5568.13
443.98	5322.38
444.17	5324.72
444.35	5310.68
444.54	5476.85
444.73	5584.52
444.91	5490.90
445.10	5535.37
445.28	5453.45
445.47	5355.15
445.65	5303.65
445.84	5636.01
446.02	5638.35
446.21	5603.24
446.39	5462.81
446.58	5568.13
446.77	5621.97
446.95	5486.22
447.14	5451.11
447.32	5614.95
447.51	5467.49
447.69	5577.50
447.88	5469.83
448.06	5476.85
448.25	5645.37
448.43	5640.69
448.62	5741.33
448.80	5500.26
448.99	5830.27
449.17	5856.02
449.36	5755.38
449.54	5930.92
449.73	5930.92
449.91	5923.90
450.10	5921.56
450.28	5963.68
450.46	5949.64
450.65	5886.45
450.83	5998.79
451.02	6078.37
451.20	6237.53
451.39	6078.37
451.57	5961.34
451.76	5940.28
451.94	6043.26
452.13	6090.07
452.31	5930.92
452.49	5996.45
452.68	6078.37
452.86	5956.66
453.05	6146.25
453.23	6303.06
453.42	6200.08
453.60	5944.96
453.78	6270.30
453.97	6143.91
454.15	6244.55
454.34	6176.67
454.52	6305.40
454.70	6303.06
454.89	6387.32
455.07	6282.00
455.26	6406.05
455.44	6497.33
455.62	6431.79
455.81	6590.95
455.99	6527.75
456.17	6576.91
456.36	6443.49
456.54	6726.70
456.73	6799.26
456.91	6752.45
457.09	6710.32
457.28	6787.55
457.46	6691.59
457.64	6773.51
457.83	6736.06
458.01	6712.66
458.19	7012.24
458.38	6920.96
458.56	7009.90
458.74	6991.18
458.93	6946.71
459.11	7103.53
459.29	7040.33
459.48	7162.04
459.66	7030.97
459.84	7190.13
460.03	7321.20
460.21	7206.51
460.39	7321.20
460.57	7122.25
460.76	7068.42
460.94	7309.49
461.12	7222.89
461.31	7152.68
461.49	7286.09
461.67	7482.69
461.85	7379.71
462.04	7248.64
462.22	7826.75
462.40	7487.37
462.59	7681.64
462.77	7407.80
462.95	7447.58
463.13	7456.95
463.32	7513.12
463.50	7625.47
463.68	7517.80
463.86	7487.37
464.05	7573.97
464.23	7552.91
464.41	7716.75
464.59	7585.68
464.78	7988.25
464.96	7852.50
465.14	7730.79
465.32	7719.09
465.50	7793.98
465.69	7829.09
465.87	7751.85
466.05	7714.41
466.23	7971.86
466.41	7936.76
466.60	7953.14
466.78	7953.14
466.96	7887.61
467.14	7990.59
467.32	7976.55
467.51	8159.11
467.69	7978.89
467.87	8131.02
468.05	8109.96
468.23	8039.74
468.41	8109.96
468.60	8226.98
468.78	8154.43
468.96	8264.43
469.14	8241.03
469.32	8423.59
469.50	8173.15
469.69	8587.43
469.87	8381.46
470.05	8297.20
470.23	8545.30
470.41	8559.34
470.59	8702.11
470.77	8585.08
470.95	8432.95
471.14	8940.85
471.32	8692.75
471.50	8737.22
471.68	8580.40
471.86	8795.73
472.04	8851.91
472.22	8842.54
472.40	8954.89
472.58	8697.43
472.77	9043.83
472.95	9266.18
473.13	9490.87
473.31	9029.79
473.49	9146.81
473.67	9048.51
473.85	9123.41
474.03	9268.52
474.21	9226.39
474.39	9460.45
474.57	9502.58
474.75	9481.51
474.93	9823.23
475.12	9624.28
475.30	9806.84
475.48	9605.56
475.66	9949.62
475.84	9720.24
476.02	9832.59
476.20	10064.30
476.38	10094.73
476.56	10193.03
476.74	10204.74
476.92	10410.70
477.10	10235.16
477.28	10101.75
477.46	10223.46
477.64	10485.60
477.82	10649.44
478.00	10897.53
478.18	10787.53
478.36	10909.24
478.54	10911.58
478.72	10986.47
478.90	11052.01
479.08	11138.61
479.26	11538.84
479.44	11389.05
479.62	11309.47
479.80	11613.74
479.98	11646.51
480.16	11676.93
480.34	11744.81
480.52	11754.17
480.70	11885.24
480.88	11733.11
481.06	12226.96
481.24	12163.76
481.41	12243.34
481.59	12086.53
481.77	12624.85
481.95	12538.25
482.13	12718.47
482.31	12795.71
482.49	12915.08
482.67	12746.56
482.85	13071.89
483.03	13099.98
483.21	13048.49
483.39	13439.36
483.57	13221.69
483.74	13401.91
483.92	13535.32
484.10	13448.72
484.28	13785.76
484.46	13816.18
484.64	14356.85
484.82	13942.57
485.00	13956.61
485.18	14361.53
485.35	14703.25
485.53	14424.72
485.71	14518.34
485.89	15192.42
486.07	14733.67
486.25	14995.81
486.43	15007.52
486.61	15215.82
486.78	15386.68
486.96	15421.79
487.14	15386.68
487.32	15662.86
487.50	15999.90
487.68	15768.19
487.85	16084.16
488.03	16201.19
488.21	16177.78
488.39	16182.46
488.57	16645.89
488.75	16758.24
488.92	16870.58
489.10	17078.89
489.28	17102.29
489.46	17123.36
489.64	17282.52
489.81	17671.04
489.99	17631.26
490.17	17809.14
490.35	18031.49
490.53	18094.68
490.70	18263.20
490.88	17919.14
491.06	18321.71
491.24	18422.36
491.41	18555.77
491.59	18738.33
491.77	18600.24
491.95	19126.86
492.13	19005.15
492.30	18906.85
492.48	19276.65
492.66	19370.27
492.84	19356.23
493.01	19491.98
493.19	19707.31
493.37	19702.63
493.54	19840.72
493.72	20128.61
493.90	19885.19
494.08	19964.77
494.25	20128.61
494.43	20262.02
494.61	20503.09
494.79	20765.23
494.96	20755.87
495.14	21062.48
495.32	20912.69
495.49	21191.21
495.67	20975.88
495.85	21188.87
496.02	21362.07
496.20	21577.40
496.38	21823.16
496.55	21654.64
496.73	22029.12
496.91	22157.85
497.09	22277.22
497.26	22155.51
497.44	22094.66
497.62	22284.24
497.79	22754.69
497.97	22424.67
498.14	22801.50
498.32	22934.91
498.50	22913.84
498.67	23140.88
498.85	23180.67
499.03	23339.82
499.20	23616.01
499.38	23506.00
499.56	23583.24
499.73	23758.78
499.91	23983.47
500.08	23924.96
500.26	23690.90
500.44	23861.76
500.61	23882.83
500.79	23922.62
500.97	24238.59
501.14	24624.78
501.32	24489.03
501.49	24418.81
501.67	24629.46
501.84	24917.34
502.02	24676.27
502.20	25144.38
502.37	24655.20
502.55	24753.51
502.72	24968.84
502.90	24856.49
503.07	24973.52
503.25	25427.58
503.43	25270.76
503.60	25387.79
503.78	25631.21
503.95	25926.11
504.13	25848.88
504.30	25624.18
504.48	25773.98
504.65	26094.63
504.83	26251.45
505.01	26281.88
505.18	26223.36
505.36	26443.37
505.53	26242.09
505.71	26700.83
505.88	26656.36
506.06	26382.52
506.23	26700.83
506.41	26738.28
506.58	26955.95
506.76	27115.11
506.93	26965.31
507.11	27122.13
507.28	27407.67
507.46	27159.58
507.63	27283.62
507.81	27426.40
507.98	27129.15
508.16	27557.47
508.33	27953.02
508.50	27721.30
508.68	27878.12
508.85	28056.00
509.03	27917.91
509.20	28173.03
509.38	28306.44
509.55	28196.43
509.73	28477.30
509.90	28629.43
510.08	28467.94
510.25	28624.75
510.42	29027.32
510.60	28905.62
510.77	28737.10
510.95	29116.26
511.12	28961.79
511.30	29132.65
511.47	28924.34
511.64	29001.58
511.82	29074.13
511.99	29329.25
512.17	29701.40
512.34	29394.79
512.51	29738.85
512.69	29783.32
512.86	29708.42
513.04	30183.55
513.21	29933.11
513.38	29633.52
513.56	30342.70
513.73	29912.05
513.90	30319.30
514.08	30253.76
514.25	30323.98
514.43	30595.48
514.60	30904.43
514.77	30583.78
514.95	30820.17
515.12	30705.49
515.29	30937.20
515.47	31037.84
515.64	31208.70
515.81	30773.36
515.99	31014.44
516.16	31311.69
516.33	31367.86
516.51	31470.84
516.68	31714.26
516.85	31077.63
517.03	32006.83
517.20	31784.48
517.37	31693.19
517.54	31660.43
517.72	31758.73
517.89	31952.99
518.06	31828.95
518.24	31910.86
518.41	31988.10
518.58	32163.64
518.75	31732.98
518.93	32559.19
519.10	32112.15
519.27	32184.71
519.45	32261.94
519.62	32650.47
519.79	32851.76
519.96	32596.64
520.14	32690.26
520.31	32886.87
520.48	32919.63
520.65	32872.82
520.83	33202.84
521.00	33483.70
521.17	33085.81
521.34	33247.31
521.52	33762.23
521.69	33392.42
521.86	33596.05
522.03	33771.59
522.20	33991.60
522.38	33823.08
522.55	34012.66
522.72	33715.42
522.89	33783.29
523.07	34031.39
523.24	34223.31
523.41	34235.02
523.58	34237.36
523.75	34448.00
523.92	34405.88
524.10	34263.10
524.27	34883.34
524.44	34553.33
524.61	34902.07
524.78	34852.92
524.96	34862.28
525.13	34785.04
525.30	35393.58
525.47	35337.41
525.64	34593.12
525.81	35150.17
525.98	35016.75
526.16	35255.49
526.33	34909.09
526.50	35143.14
526.67	35421.67
526.84	35185.27
527.01	35122.08
527.18	35227.40
527.36	35772.75
527.53	35494.22
527.70	35763.39
527.87	36165.96
528.04	35957.65
528.21	35845.30
528.38	36016.16
528.55	36264.26
528.72	35620.61
528.89	36418.74
529.07	36095.74
529.24	35697.85
529.41	36510.02
529.58	36229.15
529.75	36053.61
529.92	36362.56
530.09	36240.86
530.26	36563.85
530.43	36053.61
530.60	36313.41
530.77	36100.42
530.94	36596.62
531.11	36542.78
531.28	36479.59
531.46	37151.32
531.63	36833.01
531.80	36879.82
531.97	37261.33
532.14	37273.03
532.31	37200.47
532.48	37448.57
532.65	37242.60
532.82	37167.71
532.99	37380.70
533.16	37195.79
533.33	37663.90
533.50	38045.41
533.67	37418.14
533.84	37514.11
534.01	37691.99
534.18	37479.00
534.35	37986.89
534.52	38106.26
534.69	38169.46
534.86	37766.88
535.03	37759.86
535.20	38314.57
535.37	38150.73
535.54	38417.55
535.71	38312.23
535.88	38132.01
536.05	38422.23
536.22	38672.67
536.38	38569.69
536.55	38319.25
536.72	38590.75
536.89	38352.02
537.06	38359.04
537.23	38576.71
537.40	38614.16
537.57	38925.45
537.74	38464.36
537.91	39257.81
538.08	38768.63
538.25	38572.03
538.42	39213.34
538.59	39229.72
538.75	38990.98
538.92	39210.99
539.09	39419.30
539.26	39260.15
539.43	39555.05
539.60	39538.67
539.77	39199.29
539.94	39526.97
540.11	39491.86
540.28	39718.89
540.44	39028.43
540.61	39423.98
540.78	39388.88
540.95	39831.24
541.12	39686.12
541.29	39379.51
541.46	39887.41
541.62	39461.43
541.79	39651.02
541.96	39409.94
542.13	39515.26
542.30	39803.15
542.47	40004.44
542.63	40179.98
542.80	40390.62
542.97	40821.28
543.14	40638.72
543.31	40421.05
543.48	40774.47
543.64	40924.27
543.81	40971.08
543.98	40697.24
544.15	40437.44
544.32	40907.88
544.48	40961.72
544.65	40769.79
544.82	41577.28
544.99	40472.54
545.16	41045.97
545.32	41029.59
545.49	41471.95
545.66	41214.49
545.83	41392.37
546.00	41216.83
546.16	41287.05
546.33	41287.05
546.50	41104.49
546.67	41530.47
546.83	40596.59
547.00	41188.75
547.17	41539.83
547.34	41221.52
547.50	41752.82
547.67	42251.35
547.84	41848.78
548.00	41785.58
548.17	42230.29
548.34	41177.04
548.51	42078.15
548.67	42007.94
548.84	42117.94
549.01	41876.86
549.18	41631.11
549.34	41986.87
549.51	42609.45
549.68	42078.15
549.84	41764.52
550.01	42382.42
550.18	41670.90
550.34	41965.81
550.51	42148.37
550.68	42398.80
550.84	41968.15
551.01	42209.22
551.18	42096.88
551.34	42178.79
551.51	42501.79
551.68	42373.06
551.84	42452.64
552.01	42417.53
552.18	42232.63
552.34	42454.98
552.51	43007.34
552.68	42707.76
552.84	42728.82
553.01	42707.76
553.18	42843.51
553.34	42913.72
553.51	42976.92
553.67	43220.33
553.84	43042.45
554.01	43414.60
554.17	42906.70
554.34	42665.63
554.51	43012.02
554.67	43391.19
554.84	43054.15
555.00	43615.88
555.17	42920.74
555.33	43557.37
555.50	43119.69
555.67	43325.66
555.83	43061.18
556.00	43517.58
556.16	44013.77
556.33	43817.17
556.50	43175.86
556.66	43405.23
556.83	43342.04
556.99	43510.56
557.16	43639.29
557.32	43648.65
557.49	43655.67
557.65	43779.72
557.82	43566.73
557.98	43746.95
558.15	43765.68
558.32	43885.04
558.48	43882.70
558.65	43854.62
558.81	43847.60
558.98	43777.38
559.14	44037.18
559.31	43971.64
559.47	44086.33
559.64	44692.53
559.80	43709.50
559.97	44425.71
560.13	43625.25
560.30	44016.11
560.46	44584.86
560.63	44421.03
560.79	44170.59
560.96	44442.09
561.12	44516.99
561.29	44128.46
561.45	44194.00
561.61	44109.74
561.78	44172.93
561.94	44074.63
562.11	44708.91
562.27	44460.82
562.44	44151.87
562.60	44444.43
562.77	43992.71
562.93	44268.89
563.10	44727.64
563.26	44428.05
563.42	44779.13
563.59	44346.13
563.75	44664.44
563.92	44699.55
564.08	44357.83
564.24	44931.26
564.41	44521.67
564.57	44964.03
564.74	44568.48
564.90	44868.07
565.07	44882.11
565.23	44353.15
565.39	44584.86
565.56	44755.72
565.72	44744.02
565.88	44652.74
566.05	45174.68
566.21	45036.59
566.38	45062.33
566.54	44996.80
566.70	44924.24
566.87	44762.75
567.03	44734.66
567.19	45020.20
567.36	45212.13
567.52	44949.99
567.68	44919.56
567.85	45155.96
568.01	45270.64
568.17	44914.88
568.34	44910.20
568.50	45476.61
568.66	44978.07
568.83	45111.49
568.99	44748.70
569.15	44996.80
569.32	45251.92
569.48	45312.77
569.64	45773.86
569.81	45478.95
569.97	45177.02
570.13	45209.79
570.30	45251.92
570.46	45123.19
570.62	45317.45
570.78	45340.86
570.95	45624.06
571.11	45612.36
571.27	45329.16
571.43	45174.68
571.60	45420.44
571.76	45624.06
571.92	45003.82
572.09	44863.39
572.25	44900.84
572.41	45038.93
572.57	45193.40
572.74	45776.20
572.90	45244.90
573.06	45586.61
573.22	45322.13
573.38	45792.58
573.55	45284.68
573.71	45961.10
573.87	45560.87
574.03	45457.88
574.20	45595.98
574.36	45495.33
574.52	45787.90
574.68	46120.26
574.84	45935.35
575.01	45909.61
575.17	45982.16
575.33	45743.43
575.49	45635.77
575.65	45698.96
575.82	45516.40
575.98	45483.63
576.14	45940.04
576.30	45876.84
576.46	45813.65
576.62	45710.66
576.79	45727.05
576.95	45317.45
577.11	45336.18
577.27	45670.87
577.43	45743.43
577.59	45315.11
577.75	45216.81
577.92	45195.74
578.08	45429.80
578.24	45631.08
578.40	45961.10
578.56	45935.35
578.72	45897.91
578.88	45764.49
579.04	45853.44
579.21	45684.92
579.37	45729.39
579.53	45581.93
579.69	46031.32
579.85	45558.53
580.01	45874.50
580.17	45670.87
580.33	46176.43
580.49	45350.22
580.65	46087.49
580.82	45556.19
580.98	45933.01
581.14	45495.33
581.30	45949.40
581.46	46014.93
581.62	46113.23
581.78	45673.21
581.94	46052.38
582.10	46195.15
582.26	45886.20
582.42	45972.80
582.58	46110.89
582.74	45937.69
582.90	45860.46
583.06	45865.14
583.22	45654.49
583.38	46368.35
583.54	45968.12
583.70	45736.41
583.86	46160.05
584.02	45907.27
584.18	46281.75
584.34	46155.36
584.50	46375.37
584.66	45834.71
584.82	46075.79
584.98	46237.28
585.14	46066.42
585.30	45848.75
585.46	46129.62
585.62	45663.85
585.78	46326.22
585.94	45921.31
586.10	45923.65
586.26	46101.53
586.42	45624.06
586.58	46204.52
586.74	45867.48
586.90	46131.96
587.06	46244.30
587.22	46237.28
587.38	46199.83
587.54	46246.65
587.70	46349.63
587.86	46246.65
588.02	45808.96
588.18	45848.75
588.34	46012.59
588.49	46319.20
588.65	46230.26
588.81	46012.59
588.97	46457.29
589.13	46155.36
589.29	46281.75
589.45	46237.28
589.61	46092.17
589.77	46494.74
589.93	46033.66
590.08	46529.85
