SpectraSuite Data File
++++++++++++++++++++++++++++++++++++
Date: Fri Oct 25 11:34:26 EDT 2013
User: price-jones
Dark Spectrum Present: No
Reference Spectrum Present: No
Number of Sampled Component Spectra: 1
Spectrometers: USB2+H05261
Integration Time (usec): 100000 (USB2+H05261)
Spectra Averaged: 1 (USB2+H05261)
Boxcar Smoothing: 0 (USB2+H05261)
Correct for Electrical Dark: No (USB2+H05261)
Strobe/Lamp Enabled: No (USB2+H05261)
Correct for Detector Non-linearity: No (USB2+H05261)
Correct for Stray Light: No (USB2+H05261)
Number of Pixels in Processed Spectrum: 2048
>>>>>Begin Processed Spectral Data<<<<<
365.73	299.59
365.92	299.59
366.12	299.59
366.32	245.76
366.52	198.95
366.72	168.52
366.91	145.11
367.11	210.65
367.31	187.24
367.51	152.13
367.70	168.52
367.90	196.60
368.10	201.29
368.30	145.11
368.49	117.03
368.69	180.22
368.89	205.97
369.09	175.54
369.28	163.84
369.48	189.58
369.68	266.82
369.87	313.63
370.07	227.03
370.27	290.23
370.47	325.33
370.66	428.32
370.86	472.79
371.06	575.77
371.25	559.39
371.45	540.66
371.65	479.81
371.84	465.77
372.04	498.53
372.24	580.45
372.44	519.60
372.63	575.77
372.83	540.66
373.03	636.63
373.22	608.54
373.42	571.09
373.62	664.71
373.81	580.45
374.01	676.41
374.21	695.14
374.40	638.97
374.60	615.56
374.79	660.03
374.99	596.84
375.19	627.26
375.38	667.05
375.58	571.09
375.78	662.37
375.97	674.07
376.17	648.33
376.37	730.25
376.56	662.37
376.76	634.29
376.95	660.03
377.15	678.76
377.35	720.88
377.54	634.29
377.74	716.20
377.93	655.35
378.13	655.35
378.33	734.93
378.52	622.58
378.72	664.71
378.91	699.82
379.11	683.44
379.31	716.20
379.50	657.69
379.70	723.23
379.89	725.57
380.09	734.93
380.28	674.07
380.48	690.46
380.68	758.33
380.87	713.86
381.07	711.52
381.26	786.42
381.46	840.25
381.65	798.12
381.85	812.17
382.04	774.72
382.24	802.80
382.43	772.38
382.63	763.01
382.83	851.96
383.02	758.33
383.22	821.53
383.41	744.29
383.61	765.36
383.80	812.17
384.00	746.63
384.19	727.91
384.39	777.06
384.58	866.00
384.78	823.87
384.97	760.67
385.17	805.14
385.36	858.98
385.56	880.04
385.75	849.61
385.95	795.78
386.14	809.83
386.34	863.66
386.53	912.81
386.72	861.32
386.92	837.91
387.11	828.55
387.31	894.08
387.50	788.76
387.70	877.70
387.89	823.87
388.09	837.91
388.28	943.24
388.48	891.74
388.67	858.98
388.86	931.53
389.06	882.38
389.25	924.51
389.45	863.66
389.64	835.57
389.84	901.11
390.03	987.71
390.22	917.49
390.42	968.98
390.61	936.21
390.81	940.90
391.00	980.68
391.19	1125.80
391.39	954.94
391.58	1022.81
391.78	968.98
391.97	1062.60
392.16	1069.62
392.36	1004.09
392.55	952.60
392.75	1032.18
392.94	1036.86
393.13	1057.92
393.33	978.34
393.52	1050.90
393.71	1025.15
393.91	1053.24
394.10	978.34
394.29	1062.60
394.49	1053.24
394.68	1060.26
394.88	1146.86
395.07	1093.03
395.26	1114.10
395.46	1153.88
395.65	1167.93
395.84	1083.67
396.04	1165.59
396.23	1135.16
396.42	1146.86
396.62	1153.88
396.81	1233.46
397.00	1153.88
397.19	1193.67
397.39	1219.42
397.58	1228.78
397.77	1212.40
397.97	1238.14
398.16	1214.74
398.35	1287.29
398.55	1210.06
398.74	1252.19
398.93	1231.12
399.12	1200.69
399.32	1282.61
399.51	1289.64
399.70	1373.89
399.90	1268.57
400.09	1369.21
400.28	1390.28
400.47	1289.64
400.67	1341.13
400.86	1348.15
401.05	1338.79
401.24	1378.58
401.44	1397.30
401.63	1359.85
401.82	1378.58
402.01	1390.28
402.21	1458.15
402.40	1404.32
402.59	1462.83
402.78	1458.15
402.97	1448.79
403.17	1462.83
403.36	1432.41
403.55	1495.60
403.74	1591.56
403.93	1596.25
404.13	1528.37
404.32	1490.92
404.51	1535.39
404.70	1614.97
404.89	1664.12
405.09	1652.42
405.28	1589.22
405.47	1619.65
405.66	1685.19
405.85	1645.40
406.05	1701.57
406.24	1715.61
406.43	1706.25
406.62	1724.97
406.81	1870.09
407.00	1654.76
407.20	1713.27
407.39	1671.14
407.58	1689.87
407.77	1884.13
407.96	1753.06
408.15	1783.49
408.34	1956.69
408.54	1795.19
408.73	1820.94
408.92	1825.62
409.11	1870.09
409.30	2001.16
409.49	1863.07
409.68	1879.45
409.87	1994.14
410.07	1923.92
410.26	1933.28
410.45	1966.05
410.64	2043.29
410.83	2106.48
411.02	2122.87
411.21	2090.10
411.40	2015.20
411.59	2003.50
411.78	2143.93
411.98	2129.89
412.17	2207.13
412.36	2202.44
412.55	2179.04
412.74	2108.82
412.93	2305.43
413.12	2284.36
413.31	2263.30
413.50	2436.50
413.69	2380.32
413.88	2352.24
414.07	2385.01
414.26	2443.52
414.45	2382.67
414.64	2436.50
414.83	2389.69
415.02	2513.74
415.22	2495.01
415.41	2495.01
415.60	2497.35
415.79	2527.78
415.98	2595.65
416.17	2562.89
416.36	2649.49
416.55	2626.08
416.74	2558.21
416.93	2693.96
417.12	2672.89
417.31	2715.02
417.50	2810.98
417.69	2834.39
417.88	2752.47
418.07	2848.43
418.26	2843.75
418.45	2892.90
418.64	2995.89
418.83	2965.46
419.02	2888.22
419.21	2970.14
419.39	2918.65
419.58	2953.76
419.77	2892.90
419.96	3070.78
420.15	3052.06
420.34	3063.76
420.53	3049.72
420.72	3087.17
420.91	3145.68
421.10	3145.68
421.29	3187.81
421.48	3131.64
421.67	3204.19
421.86	3166.74
422.05	3117.59
422.24	3304.84
422.43	3211.22
422.61	3112.91
422.80	3417.18
422.99	3290.79
423.18	3272.07
423.37	3426.54
423.56	3208.87
423.75	3332.92
423.94	3265.05
424.13	3110.57
424.32	3105.89
424.50	3260.37
424.69	3344.63
424.88	3363.35
425.07	3286.11
425.26	3262.71
425.45	3304.84
425.64	3353.99
425.83	3377.39
426.01	3353.99
426.20	3307.18
426.39	3435.91
426.58	3386.76
426.77	3335.26
426.96	3351.65
427.15	3522.51
427.33	3405.48
427.52	3440.59
427.71	3459.31
427.90	3499.10
428.09	3578.68
428.28	3503.78
428.46	3522.51
428.65	3489.74
428.84	3618.47
429.03	3695.71
429.22	3501.44
429.40	3527.19
429.59	3702.73
429.78	3445.27
429.97	3435.91
430.16	3688.68
430.34	3625.49
430.53	3737.84
430.72	3625.49
430.91	3644.21
431.10	3707.41
431.28	3829.12
431.47	3772.94
431.66	3836.14
431.85	3913.38
432.03	3950.82
432.22	3953.16
432.41	3918.06
432.60	3934.44
432.79	4030.40
432.97	3962.53
433.16	3943.80
433.35	4044.45
433.54	3911.04
433.72	4025.72
433.91	4032.74
434.10	4112.32
434.28	4035.08
434.47	4044.45
434.66	4217.65
434.85	4072.53
435.03	4215.30
435.22	4105.30
435.41	4294.88
435.59	4219.99
435.78	4297.22
435.97	4224.67
436.16	4131.05
436.34	4191.90
436.53	4280.84
436.72	4339.35
436.90	4299.56
437.09	4287.86
437.28	4201.26
437.46	4376.80
437.65	4358.08
437.84	4461.06
438.02	4414.25
438.21	4489.15
438.40	4432.97
438.58	4542.98
438.77	4636.60
438.96	4617.88
439.14	4662.35
439.33	4629.58
439.52	4685.75
439.70	4681.07
439.89	4685.75
440.08	4919.81
440.26	4873.00
440.45	4877.68
440.63	4887.04
440.82	4856.61
441.01	4847.25
441.19	5015.77
441.38	5055.56
441.57	5088.32
441.75	5142.16
441.94	5191.31
442.12	5235.78
442.31	5362.17
442.50	5282.59
442.68	5069.60
442.87	5256.84
443.05	5233.44
443.24	5397.28
443.43	5263.86
443.61	5296.63
443.80	5530.69
443.98	5160.88
444.17	4954.91
444.35	5387.91
444.54	5453.45
444.73	5397.28
444.91	5378.55
445.10	5614.95
445.28	5441.75
445.47	5383.23
445.65	5397.28
445.84	5598.56
446.02	5500.26
446.21	5554.09
446.39	5467.49
446.58	5526.00
446.77	5596.22
446.95	5434.72
447.14	5509.62
447.32	5528.35
447.51	5427.70
447.69	5383.23
447.88	5404.30
448.06	5680.48
448.25	5533.03
448.43	5605.58
448.62	5818.57
448.80	5722.61
448.99	5563.45
449.17	5661.76
449.36	5682.82
449.54	5664.10
449.73	5895.81
449.91	5820.91
450.10	5778.78
450.28	5764.74
450.46	5881.77
450.65	5898.15
450.83	5970.71
451.02	5912.19
451.20	5968.37
451.39	5977.73
451.57	5987.09
451.76	6015.18
451.94	5905.17
452.13	6092.41
452.31	6099.44
452.49	5900.49
452.68	6073.69
452.86	6043.26
453.05	6111.14
453.23	6155.61
453.42	6094.76
453.60	6150.93
453.78	6274.98
453.97	6249.23
454.15	5907.51
454.34	6181.35
454.52	6179.01
454.70	6256.25
454.89	6272.64
455.07	6284.34
455.26	6237.53
455.44	6410.73
455.62	6417.75
455.81	6289.02
455.99	6483.28
456.17	6312.42
456.36	6548.82
456.54	6537.12
456.73	6630.74
456.91	6726.70
457.09	6780.53
457.28	6820.32
457.46	6609.67
457.64	6778.19
457.83	6829.68
458.01	6825.00
458.19	6923.30
458.38	6895.22
458.56	6846.07
458.74	6862.45
458.93	6794.58
459.11	6862.45
459.29	6848.41
459.48	6949.05
459.66	6995.86
459.84	7143.32
460.03	7171.40
460.21	7040.33
460.39	7131.61
460.57	6937.35
460.76	7180.76
460.94	7169.06
461.12	7140.97
461.31	7262.68
461.49	7286.09
461.67	7236.94
461.85	7360.98
462.04	7183.10
462.22	7784.62
462.40	7527.16
462.59	7290.77
462.77	7346.94
462.95	7564.61
463.13	7440.56
463.32	7716.75
463.50	7566.95
463.68	7599.72
463.86	7634.83
464.05	7487.37
464.23	7545.89
464.41	7700.36
464.59	7442.90
464.78	7829.09
464.96	7611.42
465.14	7566.95
465.32	7683.98
465.50	7810.37
465.69	7716.75
465.87	7709.72
466.05	7990.59
466.23	7742.49
466.41	7850.16
466.60	7950.80
466.78	7911.01
466.96	7885.26
467.14	7918.03
467.32	7880.58
467.51	8184.85
467.69	7903.99
467.87	7999.95
468.05	8004.63
468.23	7962.50
468.41	8039.74
468.60	8016.33
468.78	8084.21
468.96	8105.28
469.14	8131.02
469.32	8198.90
469.50	7906.33
469.69	8336.99
469.87	8210.60
470.05	8362.73
470.23	8446.99
470.41	8549.98
470.59	8334.65
470.77	8395.50
470.95	8615.51
471.14	8650.62
471.32	8336.99
471.50	8699.77
471.68	8636.58
471.86	8730.20
472.04	8791.05
472.22	8919.78
472.40	8777.01
472.58	8898.72
472.77	8950.21
472.95	8980.64
473.13	9200.65
473.31	8968.93
473.49	8924.46
473.67	9142.13
473.85	9217.03
474.03	9254.48
474.21	9242.78
474.39	9420.66
474.57	9420.66
474.75	9598.54
474.93	9554.07
475.12	9465.13
475.30	9729.61
475.48	9488.53
475.66	9657.05
475.84	9619.60
476.02	9921.53
476.20	9809.19
476.38	9884.08
476.56	9954.30
476.74	10050.26
476.92	10092.39
477.10	10115.80
477.28	10352.19
477.46	10249.21
477.64	10324.10
477.82	10675.18
478.00	10658.80
478.18	10654.12
478.36	10904.56
478.54	10864.77
478.72	10703.27
478.90	10869.45
479.08	11274.36
479.26	11197.12
479.44	11096.48
479.62	11204.14
479.80	11283.72
479.98	11609.06
480.16	11733.11
480.34	11632.46
480.52	11875.88
480.70	11740.13
480.88	11681.61
481.06	12072.48
481.24	11915.67
481.41	11749.49
481.59	12168.45
481.77	12149.72
481.95	12374.41
482.13	12556.97
482.31	12388.46
482.49	12739.54
482.67	12786.35
482.85	12751.24
483.03	13156.15
483.21	13076.57
483.39	13270.84
483.57	13497.87
483.74	13373.82
483.92	13532.98
484.10	13413.61
484.28	13575.11
484.46	14157.90
484.64	13954.27
484.82	13940.23
485.00	13949.59
485.18	14214.07
485.35	14391.95
485.53	14572.18
485.71	14480.89
485.89	14956.02
486.07	14532.39
486.25	14824.95
486.43	14946.66
486.61	14925.60
486.78	15133.90
486.96	15255.61
487.14	15218.16
487.32	15442.85
487.50	15817.34
487.68	15819.68
487.85	15892.24
488.03	16152.04
488.21	16290.13
488.39	16245.66
488.57	16479.71
488.75	16517.16
488.92	16683.34
489.10	16786.32
489.28	16835.47
489.46	17121.02
489.64	16856.54
489.81	17406.56
489.99	17549.34
490.17	17490.82
490.35	17703.81
490.53	17565.72
490.70	18026.81
490.88	17699.13
491.06	18136.81
491.24	18075.96
491.41	18382.57
491.59	18438.74
491.77	18438.74
491.95	18415.34
492.13	18506.62
492.30	18590.88
492.48	18909.19
492.66	19161.97
492.84	19012.17
493.01	19119.84
493.19	19562.20
493.37	19449.85
493.54	19585.60
493.72	19983.49
493.90	19810.29
494.08	19962.43
494.25	20170.74
494.43	19901.58
494.61	20322.87
494.79	20257.34
494.96	20542.88
495.14	20498.41
495.32	20798.00
495.49	20620.12
495.67	21092.91
495.85	21092.91
496.02	21118.65
496.20	21542.29
496.38	21259.09
496.55	21476.76
496.73	22033.80
496.91	22001.04
497.09	21951.88
497.26	21820.81
497.44	22033.80
497.62	22047.85
497.79	22471.48
497.97	22443.40
498.14	22576.81
498.32	22885.76
498.50	22651.70
498.67	22955.97
498.85	22771.07
499.03	23253.22
499.20	23248.54
499.38	23601.96
499.56	23229.82
499.73	23330.46
499.91	23391.31
500.08	23513.02
500.26	23510.68
500.44	23721.33
500.61	23508.34
500.79	23859.42
500.97	24140.29
501.14	24107.52
501.32	24374.34
501.49	24283.06
501.67	24084.11
501.84	24372.00
502.02	24638.82
502.20	24400.08
502.37	24510.09
502.55	24423.49
502.72	24943.09
502.90	24772.23
503.07	24470.30
503.25	25083.52
503.43	24725.42
503.60	25041.39
503.78	25163.10
503.95	25310.55
504.13	25472.05
504.30	25593.76
504.48	25469.71
504.65	25713.13
504.83	25886.32
505.01	25816.11
505.18	25956.54
505.36	26153.15
505.53	26045.48
505.71	26370.82
505.88	26352.09
506.06	26354.43
506.23	26787.43
506.41	26665.72
506.58	26485.50
506.76	26307.62
506.93	26869.35
507.11	26859.99
507.28	27054.25
507.46	27030.85
507.63	26871.69
507.81	27260.22
507.98	26984.04
508.16	27515.34
508.33	27538.74
508.50	27735.35
508.68	27527.04
508.85	27901.53
509.03	27744.71
509.20	27990.47
509.38	28137.92
509.55	28142.60
509.73	27992.81
509.90	28196.43
510.08	28247.93
510.25	27971.74
510.42	28582.62
510.60	28439.85
510.77	28575.60
510.95	28854.12
511.12	28767.52
511.30	28528.79
511.47	28730.08
511.64	28807.31
511.82	28987.53
511.99	29097.54
512.17	28898.59
512.34	28879.87
512.51	29230.95
512.69	29497.77
512.86	29345.64
513.04	29872.26
513.21	29539.90
513.38	29572.67
513.56	29888.64
513.73	29956.52
513.90	29914.39
514.08	29926.09
514.25	30209.29
514.43	30546.33
514.60	30043.12
514.77	30431.65
514.95	30391.86
515.12	30288.87
515.29	30415.26
515.47	30558.03
515.64	30820.17
515.81	30522.93
515.99	30747.62
516.16	31304.67
516.33	31056.57
516.51	31267.22
516.68	30916.14
516.85	31311.69
517.03	31325.73
517.20	31569.15
517.37	31035.50
517.54	31534.04
517.72	31637.02
517.89	31756.39
518.06	31814.90
518.24	31473.18
518.41	31512.97
518.58	31798.52
518.75	31578.51
518.93	32170.66
519.10	31861.71
519.27	32074.70
519.45	31981.08
519.62	32100.45
519.79	32718.35
519.96	32126.19
520.14	32645.79
520.31	32016.19
520.48	32336.84
520.65	32601.32
520.83	32568.55
521.00	32936.02
521.17	32959.42
521.34	33120.92
521.52	33216.88
521.69	33029.64
521.86	33205.18
522.03	33078.79
522.20	33055.39
522.38	33577.33
522.55	33448.60
522.72	33202.84
522.89	33851.17
523.07	33832.44
523.24	33745.84
523.41	33811.38
523.58	33757.55
523.75	34068.84
523.92	33916.70
524.10	33872.23
524.27	34363.75
524.44	34225.65
524.61	34415.24
524.78	34155.44
524.96	34595.46
525.13	34705.46
525.30	34298.21
525.47	34710.14
525.64	34532.26
525.81	35061.22
525.98	35166.55
526.16	34820.15
526.33	34588.44
526.50	35147.82
526.67	34986.33
526.84	35019.10
527.01	35316.34
527.18	35299.96
527.36	34946.54
527.53	35063.57
527.70	35498.91
527.87	35611.25
528.04	35147.82
528.21	35445.07
528.38	35508.27
528.55	35463.80
528.72	35880.41
528.89	35433.37
529.07	35835.94
529.24	35688.49
529.41	35969.35
529.58	36144.89
529.75	35964.67
529.92	35765.73
530.09	35913.18
530.26	35875.73
530.43	36692.58
530.60	35381.88
530.77	36224.47
530.94	36254.90
531.11	36533.42
531.28	36723.01
531.46	36624.70
531.63	36432.78
531.80	36807.26
531.97	36486.61
532.14	36580.23
532.31	36510.02
532.48	36669.17
532.65	37134.94
532.82	37102.17
532.99	36449.16
533.16	37268.35
533.33	37193.45
533.50	37385.38
533.67	37479.00
533.84	36961.74
534.01	37401.76
534.18	37043.66
534.35	37790.29
534.52	37731.78
534.69	37338.57
534.86	37638.15
535.03	37280.05
535.20	37518.79
535.37	38174.14
535.54	38211.59
535.71	37897.95
535.88	38293.50
536.05	37818.38
536.22	38569.69
536.38	37862.85
536.55	38010.30
536.72	37794.97
536.89	38054.77
537.06	38160.09
537.23	38302.87
537.40	38249.03
537.57	37949.45
537.74	38459.68
537.91	38363.72
538.08	38597.77
538.25	38340.32
538.42	38794.38
538.59	38555.64
538.75	38143.71
538.92	38911.41
539.09	38974.60
539.26	38199.88
539.43	38623.52
539.60	39344.41
539.77	39037.80
539.94	38820.13
540.11	39049.50
540.28	39344.41
540.44	39147.80
540.61	38888.00
540.78	39131.42
540.95	38923.11
541.12	39391.22
541.29	39185.25
541.46	39648.68
541.62	39108.01
541.79	39253.12
541.96	38993.32
542.13	39257.81
542.30	39707.19
542.47	39620.59
542.63	39431.01
542.80	39697.83
542.97	39864.00
543.14	39744.64
543.31	40009.12
543.48	39842.94
543.64	40673.83
543.81	40128.48
543.98	40526.38
544.15	40168.27
544.32	40495.95
544.48	40502.97
544.65	40332.11
544.82	41057.68
544.99	40566.16
545.16	40552.12
545.32	40517.01
545.49	40804.90
545.66	40926.61
545.83	40818.94
546.00	40814.26
546.16	41020.23
546.33	40666.81
546.50	40339.13
546.67	40982.78
546.83	40673.83
547.00	41010.87
547.17	40788.52
547.34	41151.30
547.50	40928.95
547.67	41305.77
547.84	40964.06
548.00	41268.33
548.17	41598.34
548.34	40765.11
548.51	41401.74
548.67	41530.47
548.84	41308.11
549.01	41148.96
549.18	41301.09
549.34	41453.23
549.51	41820.69
549.68	41596.00
549.84	41560.89
550.01	41970.49
550.18	41879.21
550.34	41617.07
550.51	41633.45
550.68	42094.53
550.84	41942.40
551.01	42089.85
551.18	41813.67
551.34	42061.77
551.51	41841.76
551.68	41811.33
551.84	41827.71
552.01	42349.65
552.18	42450.30
552.34	41853.46
552.51	42265.39
552.68	41778.56
552.84	41968.15
553.01	42361.36
553.18	42117.94
553.34	42267.73
553.51	42590.73
553.67	42227.95
553.84	42941.81
554.01	42504.13
554.17	42281.78
554.34	42782.65
554.51	42717.12
554.67	43171.18
554.84	42895.00
555.00	42244.33
555.17	42618.81
555.33	42941.81
555.50	42768.61
555.67	42665.63
555.83	42836.48
556.00	42843.51
556.16	43751.63
556.33	43447.36
556.50	43096.28
556.66	42981.60
556.83	42777.97
556.99	43562.05
557.16	43445.02
557.32	43316.29
557.49	43508.22
557.65	43180.54
557.82	43136.07
557.98	43339.70
558.15	42916.06
558.32	43515.24
558.48	43742.27
558.65	43447.36
558.81	43318.64
558.98	43590.14
559.14	43201.61
559.31	43416.94
559.47	43365.45
559.64	43842.92
559.80	43639.29
559.97	43969.30
560.13	43819.51
560.30	43686.10
560.46	43704.82
560.63	44025.48
560.79	43920.15
560.96	44044.20
561.12	43676.74
561.29	43700.14
561.45	44346.13
561.61	43742.27
561.78	44067.61
561.94	43892.07
562.11	43606.52
562.27	43861.64
562.44	43847.60
562.60	44151.87
562.77	44006.75
562.93	43917.81
563.10	44210.38
563.26	44135.48
563.42	44655.08
563.59	43892.07
563.75	44325.07
563.92	43964.62
564.08	44009.09
564.24	44198.68
564.41	44126.12
564.57	44123.78
564.74	44023.14
564.90	44229.10
565.07	44514.65
565.23	44278.25
565.39	44177.61
565.56	44596.57
565.72	44203.36
565.88	44116.76
566.05	44102.71
566.21	44587.21
566.38	44282.94
566.54	44353.15
566.70	44524.01
566.87	44526.35
567.03	44339.11
567.19	44584.86
567.36	44484.22
567.52	44435.07
567.68	44568.48
567.85	44823.60
568.01	44804.88
568.17	44594.23
568.34	44570.82
568.50	44676.15
568.66	44776.79
568.83	44746.36
568.99	44844.66
569.15	44512.31
569.32	44339.11
569.48	44360.17
569.64	45102.12
569.81	45059.99
569.97	44905.52
570.13	44868.07
570.30	44460.82
570.46	44758.06
570.62	44933.60
570.78	45031.91
570.95	44622.31
571.11	45022.54
571.27	44425.71
571.43	44676.15
571.60	45017.86
571.76	44828.28
571.92	44907.86
572.09	45059.99
572.25	44528.69
572.41	44744.02
572.57	45095.10
572.74	45380.65
572.90	45043.61
573.06	45057.65
573.22	45151.27
573.38	44992.12
573.55	45244.90
573.71	45701.30
573.87	44837.64
574.03	44774.45
574.20	45595.98
574.36	45408.73
574.52	45198.09
574.68	45188.72
574.84	45099.78
575.01	45572.57
575.17	45148.93
575.33	44980.42
575.49	44746.36
575.65	45324.47
575.82	44872.75
575.98	45160.64
576.14	45336.18
576.30	45375.97
576.46	45303.41
576.62	45029.57
576.79	45359.58
576.95	45024.89
577.11	45050.63
577.27	45221.49
577.43	45366.60
577.59	45155.96
577.75	45104.46
577.92	45062.33
578.08	45404.05
578.24	45432.14
578.40	45298.73
578.56	45251.92
578.72	45127.87
578.88	45251.92
579.04	45240.21
579.21	45390.01
579.37	45240.21
579.53	45556.19
579.69	45312.77
579.85	45104.46
580.01	45226.17
580.17	45385.33
580.33	45258.94
580.49	45385.33
580.65	45289.37
580.82	45462.57
580.98	45102.12
581.14	45457.88
581.30	45027.23
581.46	45422.78
581.62	45322.13
581.78	45432.14
581.94	45675.55
582.10	45397.03
582.26	45525.76
582.42	45439.16
582.58	45390.01
582.74	45968.12
582.90	45614.70
583.06	45605.34
583.22	45429.80
583.38	45614.70
583.54	45514.06
583.70	45434.48
583.86	45729.39
584.02	45603.00
584.18	45806.62
584.34	45607.68
584.50	45741.09
584.66	45853.44
584.82	45420.44
584.98	45670.87
585.14	45745.77
585.30	45478.95
585.46	45448.52
585.62	45113.83
585.78	45570.23
585.94	45214.47
586.10	45738.75
586.26	45350.22
586.42	45059.99
586.58	45427.46
586.74	45268.30
586.90	45504.70
587.06	45944.72
587.22	45862.80
587.38	45392.35
587.54	45684.92
587.70	45560.87
587.86	45794.92
588.02	45965.78
588.18	45397.03
588.34	45991.53
588.49	45591.30
588.65	45357.24
588.81	45663.85
588.97	45635.77
589.13	45673.21
589.29	45649.81
589.45	45825.35
589.61	45476.61
589.77	45808.96
589.93	45794.92
590.08	45792.58
