SpectraSuite Data File
++++++++++++++++++++++++++++++++++++
Date: Fri Oct 25 10:48:36 EDT 2013
User: price-jones
Dark Spectrum Present: No
Reference Spectrum Present: No
Number of Sampled Component Spectra: 1
Spectrometers: USB2+H05261
Integration Time (usec): 100000 (USB2+H05261)
Spectra Averaged: 1 (USB2+H05261)
Boxcar Smoothing: 0 (USB2+H05261)
Correct for Electrical Dark: No (USB2+H05261)
Strobe/Lamp Enabled: No (USB2+H05261)
Correct for Detector Non-linearity: No (USB2+H05261)
Correct for Stray Light: No (USB2+H05261)
Number of Pixels in Processed Spectrum: 2048
>>>>>Begin Processed Spectral Data<<<<<
365.73	95.96
365.92	95.96
366.12	95.96
366.32	63.19
366.52	30.43
366.72	49.15
366.91	114.69
367.11	93.62
367.31	0.00
367.51	0.00
367.70	0.00
367.90	65.54
368.10	37.45
368.30	70.22
368.49	0.00
368.69	14.04
368.89	133.41
369.09	42.13
369.28	35.11
369.48	39.79
369.68	56.17
369.87	88.94
370.07	77.24
370.27	154.48
370.47	255.12
370.66	440.02
370.86	388.53
371.06	575.77
371.25	540.66
371.45	416.62
371.65	489.17
371.84	472.79
372.04	461.09
372.24	631.94
372.44	496.19
372.63	547.69
372.83	510.24
373.03	521.94
373.22	489.17
373.42	585.13
373.62	559.39
373.81	568.75
374.01	641.31
374.21	585.13
374.40	645.99
374.60	620.24
374.79	653.01
374.99	641.31
375.19	601.52
375.38	603.86
375.58	638.97
375.78	638.97
375.97	631.94
376.17	763.01
376.37	552.37
376.56	697.48
376.76	671.73
376.95	669.39
377.15	690.46
377.35	716.20
377.54	779.40
377.74	727.91
377.93	697.48
378.13	723.23
378.33	720.88
378.52	688.12
378.72	683.44
378.91	671.73
379.11	765.36
379.31	669.39
379.50	704.50
379.70	779.40
379.89	802.80
380.09	681.10
380.28	751.31
380.48	849.61
380.68	737.27
380.87	741.95
381.07	755.99
381.26	842.59
381.46	767.70
381.65	748.97
381.85	795.78
382.04	739.61
382.24	737.27
382.43	737.27
382.63	800.46
382.83	744.29
383.02	767.70
383.22	809.83
383.41	744.29
383.61	702.16
383.80	788.76
384.00	760.67
384.19	858.98
384.39	880.04
384.58	847.27
384.78	840.25
384.97	880.04
385.17	851.96
385.36	884.72
385.56	976.00
385.75	861.32
385.95	763.01
386.14	898.77
386.34	821.53
386.53	791.10
386.72	873.02
386.92	924.51
387.11	1011.11
387.31	976.00
387.50	884.72
387.70	905.79
387.89	997.07
388.09	964.30
388.28	884.72
388.48	964.30
388.67	936.21
388.86	999.41
389.06	926.85
389.25	1057.92
389.45	1034.52
389.64	1069.62
389.84	1062.60
390.03	1123.46
390.22	1008.77
390.42	1057.92
390.61	1111.75
390.81	1135.16
391.00	1064.94
391.19	1139.84
391.39	1109.41
391.58	1128.14
391.78	1076.65
391.97	997.07
392.16	1118.78
392.36	1055.58
392.55	1158.57
392.75	1015.79
392.94	990.05
393.13	1076.65
393.33	1046.22
393.52	1029.84
393.71	1128.14
393.91	1224.10
394.10	1137.50
394.29	1186.65
394.49	1266.23
394.68	1205.38
394.88	1219.42
395.07	1373.89
395.26	1385.60
395.46	1303.68
395.65	1392.62
395.84	1256.87
396.04	1256.87
396.23	1273.25
396.42	1158.57
396.62	1268.57
396.81	1308.36
397.00	1261.55
397.19	1350.49
397.39	1446.45
397.58	1493.26
397.77	1397.30
397.97	1392.62
398.16	1561.14
398.35	1486.24
398.55	1598.59
398.74	1584.54
398.93	1685.19
399.12	1502.62
399.32	1514.33
399.51	1579.86
399.70	1661.78
399.90	1708.59
400.09	1722.63
400.28	1732.00
400.47	1746.04
400.67	1769.44
400.86	1802.21
401.05	1757.74
401.24	1729.66
401.44	1881.79
401.63	1806.89
401.82	1694.55
402.01	1851.36
402.21	1870.09
402.40	1823.28
402.59	1813.92
402.78	1842.00
402.97	1905.20
403.17	1872.43
403.36	1844.34
403.55	1921.58
403.74	2008.18
403.93	2129.89
404.13	1954.35
404.32	2080.74
404.51	2012.86
404.70	1982.43
404.89	2080.74
405.09	2132.23
405.28	1989.46
405.47	1996.48
405.66	2057.33
405.85	2139.25
406.05	2047.97
406.24	2069.03
406.43	2188.40
406.62	2148.61
406.81	2303.09
407.00	2200.10
407.20	2050.31
407.39	2183.72
407.58	2314.79
407.77	2193.08
407.96	2380.32
408.15	2352.24
408.34	2305.43
408.54	2466.92
408.73	2392.03
408.92	2373.30
409.11	2373.30
409.30	2401.39
409.49	2389.69
409.68	2480.97
409.87	2415.43
410.07	2417.77
410.26	2445.86
410.45	2462.24
410.64	2576.93
410.83	2609.70
411.02	2607.36
411.21	2708.00
411.40	2672.89
411.59	2693.96
411.78	2644.81
411.98	2672.89
412.17	2843.75
412.36	2810.98
412.55	2820.35
412.74	2810.98
412.93	2869.50
413.12	2815.66
413.31	3126.96
413.50	2984.18
413.69	2920.99
413.88	3105.89
414.07	3042.70
414.26	2991.20
414.45	3180.79
414.64	3201.85
414.83	3117.59
415.02	3206.53
415.22	3150.36
415.41	3452.29
415.60	3246.32
415.79	3318.88
415.98	3499.10
416.17	3389.10
416.36	3487.40
416.55	3475.70
416.74	3358.67
416.93	3520.17
417.12	3300.16
417.31	3592.72
417.50	3499.10
417.69	3578.68
417.88	3611.45
418.07	3688.68
418.26	3597.40
418.45	3623.15
418.64	3655.92
418.83	3798.69
419.02	3698.05
419.21	3894.65
419.39	3749.54
419.58	3658.26
419.77	3702.73
419.96	3908.69
420.15	3845.50
420.34	3871.25
420.53	4056.15
420.72	4058.49
420.91	3983.59
421.10	3978.91
421.29	4035.08
421.48	3971.89
421.67	3981.25
421.86	4067.85
422.05	4030.40
422.24	3936.78
422.43	3918.06
422.61	3974.23
422.80	4119.34
422.99	4091.26
423.18	4250.41
423.37	4208.28
423.56	3985.93
423.75	4138.07
423.94	4058.49
424.13	3845.50
424.32	3925.08
424.50	4121.68
424.69	4173.18
424.88	4109.98
425.07	4100.62
425.26	4051.47
425.45	4112.32
425.64	4107.64
425.83	4042.11
426.01	4051.47
426.20	4126.36
426.39	4152.11
426.58	3955.51
426.77	4163.81
426.96	4227.01
427.15	4353.40
427.33	4229.35
427.52	4236.37
427.71	4351.06
427.90	4156.79
428.09	4374.46
428.28	4301.90
428.46	4248.07
428.65	4280.84
428.84	4416.59
429.03	4491.49
429.22	4287.86
429.40	4322.97
429.59	4236.37
429.78	4189.56
429.97	4093.60
430.16	4271.48
430.34	4283.18
430.53	4318.29
430.72	4376.80
430.91	4491.49
431.10	4484.47
431.28	4821.50
431.47	4908.10
431.66	4688.09
431.85	4786.40
432.03	4793.42
432.22	4975.98
432.41	4734.90
432.60	4973.64
432.79	4805.12
432.97	4952.57
433.16	4678.73
433.35	4842.57
433.54	4849.59
433.72	4917.47
433.91	4999.38
434.10	4884.70
434.28	5036.83
434.47	5109.39
434.66	5270.89
434.85	5097.69
435.03	5266.21
435.22	5221.74
435.41	5425.36
435.59	5231.10
435.78	5397.28
435.97	5291.95
436.16	5275.57
436.34	5439.40
436.53	5371.53
436.72	5509.62
436.90	5212.37
437.09	5458.13
437.28	5231.10
437.46	5362.17
437.65	5472.17
437.84	5352.81
438.02	5423.02
438.21	5390.25
438.40	5399.62
438.58	5558.77
438.77	5542.39
438.96	5694.52
439.14	5746.02
439.33	5982.41
439.52	5795.17
439.70	5893.47
439.89	6003.47
440.08	5858.36
440.26	5940.28
440.45	6094.76
440.63	6176.67
440.82	6106.46
441.01	6331.15
441.19	6363.92
441.38	6387.32
441.57	6333.49
441.75	6509.03
441.94	6483.28
442.12	6427.11
442.31	6731.38
442.50	6513.71
442.68	6630.74
442.87	6619.04
443.05	6497.33
443.24	6754.79
443.43	6590.95
443.61	6691.59
443.80	6815.64
443.98	6581.59
444.17	6274.98
444.35	6675.21
444.54	7124.59
444.73	6801.60
444.91	6628.40
445.10	6911.60
445.28	6555.84
445.47	6637.76
445.65	6546.48
445.84	6923.30
446.02	6970.12
446.21	6906.92
446.39	6832.02
446.58	7094.16
446.77	7033.31
446.95	6960.75
447.14	6946.71
447.32	7094.16
447.51	6944.37
447.69	6890.54
447.88	7030.97
448.06	7059.06
448.25	7014.59
448.43	7112.89
448.62	6855.43
448.80	7005.22
448.99	7133.95
449.17	7040.33
449.36	7222.89
449.54	7248.64
449.73	7386.73
449.91	7508.44
450.10	7449.93
450.28	7494.40
450.46	7433.54
450.65	7499.08
450.83	7534.18
451.02	7562.27
451.20	7606.74
451.39	7557.59
451.57	7508.44
451.76	7405.46
451.94	7573.97
452.13	7590.36
452.31	7372.69
452.49	7330.56
452.68	7578.65
452.86	7360.98
453.05	7676.96
453.23	7819.73
453.42	7852.50
453.60	7934.42
453.78	7824.41
453.97	7674.62
454.15	7765.90
454.34	7555.25
454.52	7859.52
454.70	7606.74
454.89	7822.07
455.07	7974.21
455.26	7953.14
455.44	8231.66
455.62	7971.86
455.81	8077.19
455.99	8217.62
456.17	8135.70
456.36	8154.43
456.54	8112.30
456.73	8442.31
456.91	8475.08
457.09	8449.33
457.28	8732.54
457.46	8367.42
457.64	8585.08
457.83	8411.89
458.01	8290.18
458.19	8552.32
458.38	8564.02
458.56	8744.24
458.74	8716.16
458.93	8531.25
459.11	8395.50
459.29	8690.41
459.48	8819.14
459.66	8528.91
459.84	8615.51
460.03	8929.14
460.21	8737.22
460.39	8870.63
460.57	9001.70
460.76	8917.44
460.94	9135.11
461.12	8748.92
461.31	8987.66
461.49	8894.04
461.67	8922.12
461.85	9132.77
462.04	9177.24
462.22	9736.63
462.40	9338.74
462.59	9104.68
462.77	9263.84
462.95	9252.14
463.13	9282.56
463.32	9315.33
463.50	9404.27
463.68	9434.70
463.86	9415.98
464.05	9317.67
464.23	9479.17
464.41	9661.73
464.59	9387.89
464.78	9528.32
464.96	9643.01
465.14	9467.47
465.32	9701.52
465.50	9617.26
465.69	9699.18
465.87	9769.40
466.05	9472.15
466.23	9528.32
466.41	9458.10
466.60	9841.95
466.78	9626.62
466.96	9633.64
467.14	9610.24
467.32	9659.39
467.51	10024.51
467.69	9654.71
467.87	9912.17
468.05	9879.40
468.23	9909.83
468.41	9710.88
468.60	10022.17
468.78	10122.82
468.96	9764.72
469.14	10237.50
469.32	10193.03
469.50	9919.19
469.69	10162.61
469.87	10127.50
470.05	10001.11
470.23	10195.37
470.41	10132.18
470.59	10485.60
470.77	10324.10
470.95	10298.36
471.14	10750.08
471.32	10399.00
471.50	10712.63
471.68	10885.83
471.86	10527.73
472.04	10946.69
472.22	10977.11
472.40	10607.31
472.58	10827.32
472.77	10677.52
472.95	10984.13
473.13	11164.36
473.31	10850.72
473.49	11061.37
473.67	11030.94
473.85	11403.09
474.03	11470.97
474.21	11477.99
474.39	11377.34
474.57	11562.25
474.75	11489.69
474.93	11548.20
475.12	11660.55
475.30	11822.05
475.48	11606.72
475.66	11910.99
475.84	11761.19
476.02	11864.18
476.20	11899.28
476.38	12184.83
476.56	12489.10
476.74	12126.32
476.92	12341.64
477.10	12461.01
477.28	12510.16
477.46	12505.48
477.64	12732.51
477.82	12781.67
478.00	13327.01
478.18	13172.54
478.36	13107.00
478.54	13088.28
478.72	13228.71
478.90	13427.65
479.08	13572.77
479.26	13703.84
479.44	13909.80
479.62	13834.91
479.80	13860.65
479.98	13893.42
480.16	14380.25
480.34	14146.20
480.52	14272.59
480.70	14415.36
480.88	14176.62
481.06	14516.00
481.24	14459.83
481.41	14740.69
481.59	14909.21
481.77	15028.58
481.95	15136.24
482.13	15302.42
482.31	15304.76
482.49	15353.91
482.67	15321.15
482.85	15555.20
483.03	15646.48
483.21	15871.17
483.39	16002.24
483.57	15768.19
483.74	16182.46
483.92	16044.37
484.10	16217.57
484.28	16269.06
484.46	16737.17
484.64	17018.04
484.82	16641.21
485.00	17256.77
485.18	17163.15
485.35	17062.51
485.53	16601.42
485.71	16695.04
485.89	17263.79
486.07	17025.06
486.25	17022.72
486.43	17624.23
486.61	17743.60
486.78	17900.42
486.96	18010.42
487.14	18195.32
487.32	18473.85
487.50	18913.87
487.68	18831.95
487.85	19204.10
488.03	19377.30
488.21	19206.44
488.39	19758.80
488.57	19339.85
488.75	19576.24
488.92	19793.91
489.10	20100.52
489.28	20205.84
489.46	20346.28
489.64	20470.33
489.81	20947.79
489.99	20790.98
490.17	21034.39
490.35	21022.69
490.53	20926.73
490.70	21483.78
490.88	21280.15
491.06	21947.20
491.24	21329.30
491.41	21521.23
491.59	21717.83
491.77	21523.57
491.95	21844.22
492.13	21830.18
492.30	22394.25
492.48	22349.78
492.66	22604.89
492.84	22560.42
493.01	22698.52
493.19	22918.53
493.37	23175.98
493.54	23058.96
493.72	23435.78
493.90	23428.76
494.08	23793.89
494.25	24208.16
494.43	23936.66
494.61	24407.11
494.79	24180.07
494.96	24208.16
495.14	24313.48
495.32	24348.59
495.49	24510.09
495.67	24699.67
495.85	25053.09
496.02	24821.38
496.20	25156.08
496.38	25539.93
496.55	25338.64
496.73	26012.71
496.91	25757.60
497.09	25860.58
497.26	25729.51
497.44	25900.37
497.62	26305.28
497.79	26455.08
497.97	26274.85
498.14	26232.72
498.32	26508.91
498.50	26977.01
498.67	27007.44
498.85	26918.50
499.03	27145.53
499.20	27087.02
499.38	27358.52
499.56	27515.34
499.73	27498.95
499.91	27716.62
500.08	27475.55
500.26	27468.53
500.44	27718.96
500.61	27770.46
500.79	27756.41
500.97	27765.78
501.14	28306.44
501.32	28184.73
501.49	28360.27
501.67	28243.24
501.84	28594.32
502.02	28278.35
502.20	28643.48
502.37	29076.48
502.55	28765.18
502.72	29298.83
502.90	29294.14
503.07	28957.11
503.25	29219.25
503.43	28996.90
503.60	29280.10
503.78	29294.14
503.95	29352.66
504.13	29703.74
504.30	29621.82
504.48	29530.54
504.65	30195.25
504.83	30443.35
505.01	30366.11
505.18	29797.36
505.36	30588.46
505.53	30429.30
505.71	31133.81
505.88	30991.03
506.06	30719.53
506.23	30696.13
506.41	30518.25
506.58	30981.67
506.76	31079.97
506.93	31068.27
507.11	31381.90
507.28	31405.31
507.46	31152.53
507.63	31517.65
507.81	31292.96
507.98	31494.25
508.16	31875.76
508.33	31391.26
508.50	31810.22
508.68	31798.52
508.85	32154.28
509.03	31590.21
509.20	32390.67
509.38	32254.92
509.55	32657.49
509.73	32479.61
509.90	32388.33
510.08	32346.20
510.25	32341.52
510.42	32821.33
510.60	32985.17
510.77	33205.18
510.95	33317.53
511.12	33031.98
511.30	33708.40
511.47	33713.08
511.64	33514.13
511.82	33404.13
511.99	33888.62
512.17	33813.72
512.34	33336.25
512.51	33947.13
512.69	33755.21
512.86	33874.57
513.04	34679.72
513.21	34125.01
513.38	34218.63
513.56	33804.36
513.73	33876.91
513.90	34340.34
514.08	34338.00
514.25	34192.89
514.43	34370.77
514.60	34494.82
514.77	34499.50
514.95	34801.43
515.12	34888.03
515.29	34983.99
515.47	35297.62
515.64	35117.40
515.81	34972.28
515.99	35131.44
516.16	35000.37
516.33	34775.68
516.51	34953.56
516.68	34295.87
516.85	34359.06
517.03	34962.92
517.20	35000.37
517.37	35433.37
517.54	35651.04
517.72	35566.78
517.89	35358.47
518.06	35374.86
518.24	35426.35
518.41	35416.99
518.58	35924.88
518.75	35409.96
518.93	36313.41
519.10	36315.75
519.27	36201.07
519.45	36224.47
519.62	36521.72
519.79	36704.28
519.96	36442.14
520.14	36692.58
520.31	36472.57
520.48	36613.00
520.65	37081.11
520.83	36505.34
521.00	36851.73
521.17	37095.15
521.34	37015.57
521.52	37666.24
521.69	37544.53
521.86	37656.88
522.03	37799.65
522.20	37308.14
522.38	37839.44
522.55	37647.52
522.72	37881.57
522.89	37497.72
523.07	37986.89
523.24	37504.74
523.41	38174.14
523.58	37886.25
523.75	38618.84
523.92	38656.29
524.10	38548.62
524.27	38586.07
524.44	38873.96
524.61	38962.90
524.78	38597.77
524.96	38808.42
525.13	38635.22
525.30	39281.21
525.47	39323.34
525.64	38759.27
525.81	39222.70
525.98	38803.74
526.16	38625.86
526.33	38574.37
526.50	39040.14
526.67	38574.37
526.84	38401.17
527.01	38953.54
527.18	39241.42
527.36	39765.70
527.53	39332.70
527.70	39782.09
527.87	39463.77
528.04	39672.08
528.21	40032.52
528.38	39288.23
528.55	40062.95
528.72	40030.18
528.89	40266.58
529.07	39983.37
529.24	40013.80
529.41	40261.90
529.58	40067.63
529.75	40041.88
529.92	39999.76
530.09	40402.33
530.26	40435.10
530.43	40610.64
530.60	40809.58
530.77	40732.34
530.94	41216.83
531.11	40746.39
531.28	40697.24
531.46	41352.58
531.63	41380.67
531.80	40395.31
531.97	40804.90
532.14	40837.67
532.31	40367.22
532.48	40718.30
532.65	41273.01
532.82	40697.24
532.99	40928.95
533.16	41212.15
533.33	41298.75
533.50	41481.31
533.67	41385.35
533.84	41235.56
534.01	41635.79
534.18	41450.89
534.35	42141.35
534.52	41329.18
534.69	42005.59
534.86	42010.28
535.03	41507.06
535.20	42220.92
535.37	42073.47
535.54	42281.78
535.71	42213.90
535.88	42401.14
536.05	41958.78
536.22	41928.36
536.38	42270.08
536.55	42211.56
536.72	41787.92
536.89	41729.41
537.06	42272.42
537.23	42478.38
537.40	42721.80
537.57	42197.52
537.74	42515.83
537.91	43103.31
538.08	42796.70
538.25	42192.84
538.42	42452.64
538.59	43234.38
538.75	42447.96
538.92	42726.48
539.09	43147.78
539.26	42913.72
539.43	42429.23
539.60	43243.74
539.77	42703.07
539.94	42883.30
540.11	42923.08
540.28	42794.36
540.44	42916.06
540.61	42880.95
540.78	43122.03
540.95	42962.87
541.12	42972.24
541.29	43124.37
541.46	42962.87
541.62	43192.25
541.79	43372.47
541.96	42925.42
542.13	43185.22
542.30	43634.61
542.47	43232.04
542.63	43711.84
542.80	43559.71
542.97	43737.59
543.14	44301.66
543.31	43777.38
543.48	44034.84
543.64	44388.26
543.81	44315.70
543.98	44397.62
544.15	44191.65
544.32	44292.30
544.48	44802.53
544.65	44191.65
544.82	44275.91
544.99	44215.06
545.16	44355.49
545.32	44018.46
545.49	44535.71
545.66	44598.91
545.83	44786.15
546.00	44774.45
546.16	44886.79
546.33	44744.02
546.50	44458.48
546.67	44524.01
546.83	44378.90
547.00	45008.50
547.17	44481.88
547.34	44821.26
547.50	44900.84
547.67	44669.12
547.84	45067.02
548.00	45242.56
548.17	44975.73
548.34	44641.04
548.51	45144.25
548.67	45399.37
548.84	45162.98
549.01	45244.90
549.18	45102.12
549.34	45223.83
549.51	45251.92
549.68	45076.38
549.84	45270.64
550.01	45436.82
550.18	45312.77
550.34	45312.77
550.51	45270.64
550.68	45483.63
550.84	44879.77
551.01	45305.75
551.18	45249.58
551.34	45614.70
551.51	45677.90
551.68	46089.83
551.84	46087.49
552.01	45530.44
552.18	45832.37
552.34	45333.84
552.51	45841.73
552.68	45514.06
552.84	45977.48
553.01	46300.48
553.18	45890.88
553.34	45799.60
553.51	45827.69
553.67	46043.02
553.84	45991.53
554.01	46092.17
554.17	46511.13
554.34	46307.50
554.51	46295.80
554.67	46373.03
554.84	46291.12
555.00	45549.17
555.17	45778.54
555.33	46363.67
555.50	46146.00
555.67	46239.62
555.83	46265.37
556.00	46424.53
556.16	46480.70
556.33	46174.09
556.50	46387.08
556.66	46241.96
556.83	46061.74
556.99	46382.40
557.16	46457.29
557.32	46504.10
557.49	46707.73
557.65	46330.90
557.82	45869.82
557.98	46375.37
558.15	46747.52
558.32	46440.91
558.48	46131.96
558.65	46660.92
558.81	46581.34
558.98	46630.49
559.14	46471.34
559.31	46401.12
559.47	46277.07
559.64	46693.69
559.80	46808.37
559.97	46422.19
560.13	46454.95
560.30	47009.66
560.46	47122.01
560.63	46529.85
560.79	47075.19
560.96	46909.02
561.12	46864.55
561.29	46829.44
561.45	46429.21
561.61	46869.23
561.78	47016.68
561.94	46431.55
562.11	46983.91
562.27	46651.56
562.44	46700.71
562.60	46911.36
562.77	47000.30
562.93	47150.09
563.10	47051.79
563.26	46672.62
563.42	47241.37
563.59	46684.33
563.75	47023.70
563.92	47203.92
564.08	46976.89
564.24	46742.84
564.41	47405.21
564.57	46672.62
564.74	47215.63
564.90	47007.32
565.07	46768.58
565.23	47131.37
565.39	46862.21
565.56	47145.41
565.72	46548.57
565.88	47281.16
566.05	47206.26
566.21	46759.22
566.38	47105.62
566.54	47206.26
566.70	47487.13
566.87	47641.60
567.03	47056.47
567.19	47466.06
567.36	47065.83
567.52	47271.80
567.68	47358.40
567.85	47002.64
568.01	47065.83
568.17	47192.22
568.34	47285.84
568.50	47517.56
568.66	46843.48
568.83	47327.97
568.99	47166.48
569.15	47288.18
569.32	47168.82
569.48	46976.89
569.64	47732.89
569.81	47751.61
569.97	47129.03
570.13	47306.91
570.30	47089.24
570.46	47037.75
570.62	46857.52
570.78	46951.15
570.95	46878.59
571.11	47601.82
571.27	47136.05
571.43	47292.86
571.60	47660.33
571.76	47419.25
571.92	47337.33
572.09	47217.97
572.25	47164.14
572.41	46810.71
572.57	47484.79
572.74	48123.75
572.90	47643.94
573.06	47650.97
573.22	47597.13
573.38	47299.89
573.55	47428.62
573.71	47522.24
573.87	47318.61
574.03	47150.09
574.20	47559.69
574.36	47012.00
574.52	47440.32
574.68	47615.86
574.84	47536.28
575.01	47339.68
575.17	47332.65
575.33	47442.66
575.49	47461.38
575.65	47657.99
575.82	47262.44
575.98	47037.75
576.14	47475.43
576.30	47367.76
576.46	47770.33
576.62	46986.25
576.79	47311.59
576.95	47299.89
577.11	47033.07
577.27	47618.20
577.43	47531.60
577.59	47114.98
577.75	47433.30
577.92	47021.36
578.08	47065.83
578.24	46791.99
578.40	47140.73
578.56	46988.60
578.72	47210.95
578.88	47580.75
579.04	47686.07
579.21	47327.97
579.37	47594.79
579.53	47372.44
579.69	47573.73
579.85	47082.22
580.01	47779.70
580.17	47260.10
580.33	47824.17
580.49	47873.32
580.65	47098.60
580.82	47667.35
580.98	47426.28
581.14	47655.65
581.30	47732.89
581.46	47545.64
581.62	47590.11
581.78	47463.72
581.94	47690.76
582.10	47819.49
582.26	47847.57
582.42	47243.71
582.58	47578.41
582.74	47746.93
582.90	47615.86
583.06	47775.02
583.22	47456.70
583.38	47536.28
583.54	47372.44
583.70	47672.03
583.86	47618.20
584.02	47026.04
584.18	47428.62
584.34	47531.60
584.50	48051.20
584.66	47737.57
584.82	47175.84
584.98	47753.95
585.14	47510.53
585.30	47262.44
585.46	47587.77
585.62	47295.21
585.78	47547.98
585.94	46691.35
586.10	47105.62
586.26	47428.62
586.42	47384.15
586.58	47730.54
586.74	47470.75
586.90	47576.07
587.06	47241.37
587.22	47573.73
587.38	47473.09
587.54	47613.52
587.70	47798.42
587.86	47555.00
588.02	47669.69
588.18	47363.08
588.34	47372.44
588.49	47012.00
588.65	47007.32
588.81	46939.44
588.97	47070.51
589.13	46726.46
589.29	47154.77
589.45	47021.36
589.61	47353.72
589.77	47571.39
