SpectraSuite Data File
++++++++++++++++++++++++++++++++++++
Date: Fri Oct 25 11:22:43 EDT 2013
User: price-jones
Dark Spectrum Present: No
Reference Spectrum Present: No
Number of Sampled Component Spectra: 1
Spectrometers: USB2+H05261
Integration Time (usec): 100000 (USB2+H05261)
Spectra Averaged: 1 (USB2+H05261)
Boxcar Smoothing: 0 (USB2+H05261)
Correct for Electrical Dark: No (USB2+H05261)
Strobe/Lamp Enabled: No (USB2+H05261)
Correct for Detector Non-linearity: No (USB2+H05261)
Correct for Stray Light: No (USB2+H05261)
Number of Pixels in Processed Spectrum: 2048
>>>>>Begin Processed Spectral Data<<<<<
365.73	180.22
365.92	180.22
366.12	180.22
366.32	152.13
366.52	95.96
366.72	107.66
366.91	63.19
367.11	86.60
367.31	49.15
367.51	60.85
367.70	173.20
367.90	149.79
368.10	128.73
368.30	126.39
368.49	77.24
368.69	180.22
368.89	145.11
369.09	168.52
369.28	142.77
369.48	142.77
369.68	131.07
369.87	203.63
370.07	154.48
370.27	154.48
370.47	325.33
370.66	629.60
370.86	653.01
371.06	664.71
371.25	610.88
371.45	636.63
371.65	704.50
371.84	580.45
372.04	653.01
372.24	716.20
372.44	748.97
372.63	765.36
372.83	748.97
373.03	767.70
373.22	709.18
373.42	835.57
373.62	748.97
373.81	802.80
374.01	837.91
374.21	774.72
374.40	826.21
374.60	819.19
374.79	795.78
374.99	725.57
375.19	791.10
375.38	758.33
375.58	873.02
375.78	856.64
375.97	901.11
376.17	866.00
376.37	840.25
376.56	868.34
376.76	833.23
376.95	985.37
377.15	833.23
377.35	835.57
377.54	777.06
377.74	858.98
377.93	884.72
378.13	882.38
378.33	997.07
378.52	985.37
378.72	901.11
378.91	1006.43
379.11	908.13
379.31	922.17
379.50	889.40
379.70	933.87
379.89	990.05
380.09	985.37
380.28	933.87
380.48	952.60
380.68	905.79
380.87	1046.22
381.07	968.98
381.26	987.71
381.46	971.32
381.65	971.32
381.85	894.08
382.04	1074.31
382.24	1036.86
382.43	1018.13
382.63	1034.52
382.83	1057.92
383.02	1177.29
383.22	1160.91
383.41	1130.48
383.61	1076.65
383.80	1111.75
384.00	1074.31
384.19	1069.62
384.39	1095.37
384.58	1116.44
384.78	1191.33
384.97	1186.65
385.17	1261.55
385.36	1135.16
385.56	1181.97
385.75	1217.08
385.95	1177.29
386.14	1177.29
386.34	1217.08
386.53	1231.12
386.72	1203.04
386.92	1177.29
387.11	1149.20
387.31	1193.67
387.50	1256.87
387.70	1306.02
387.89	1275.59
388.09	1231.12
388.28	1284.95
388.48	1294.32
388.67	1303.68
388.86	1329.42
389.06	1306.02
389.25	1362.19
389.45	1303.68
389.64	1329.42
389.84	1336.45
390.03	1348.15
390.22	1430.07
390.42	1392.62
390.61	1399.64
390.81	1334.11
391.00	1460.49
391.19	1430.07
391.39	1409.00
391.58	1465.18
391.78	1516.67
391.97	1483.90
392.16	1519.01
392.36	1472.20
392.55	1593.90
392.75	1500.28
392.94	1486.24
393.13	1511.99
393.33	1528.37
393.52	1535.39
393.71	1629.01
393.91	1500.28
394.10	1589.22
394.29	1586.88
394.49	1605.61
394.68	1675.82
394.88	1598.59
395.07	1675.82
395.26	1678.16
395.46	1633.69
395.65	1717.95
395.84	1621.99
396.04	1722.63
396.23	1736.68
396.42	1764.76
396.62	1746.04
396.81	1795.19
397.00	1724.97
397.19	1802.21
397.39	1846.68
397.58	1886.47
397.77	1771.79
397.97	1905.20
398.16	1844.34
398.35	1893.49
398.55	1914.56
398.74	1923.92
398.93	1961.37
399.12	1968.39
399.32	1914.56
399.51	1930.94
399.70	1994.14
399.90	1935.62
400.09	2050.31
400.28	1961.37
400.47	1980.09
400.67	2127.55
400.86	2057.33
401.05	2141.59
401.24	2078.40
401.44	2125.21
401.63	2155.63
401.82	2092.44
402.01	2111.16
402.21	2125.21
402.40	2195.42
402.59	2200.10
402.78	2352.24
402.97	2342.88
403.17	2232.87
403.36	2345.22
403.55	2272.66
403.74	2431.82
403.93	2363.94
404.13	2291.38
404.32	2373.30
404.51	2385.01
404.70	2314.79
404.89	2312.45
405.09	2445.86
405.28	2443.52
405.47	2420.11
405.66	2579.27
405.85	2516.08
406.05	2485.65
406.24	2607.36
406.43	2562.89
406.62	2626.08
406.81	2712.68
407.00	2703.32
407.20	2726.72
407.39	2623.74
407.58	2642.46
407.77	2764.17
407.96	2803.96
408.15	2796.94
408.34	2708.00
408.54	2700.98
408.73	2750.13
408.92	2827.37
409.11	2904.60
409.30	2904.60
409.49	2963.12
409.68	2928.01
409.87	2984.18
410.07	3038.02
410.26	3038.02
410.45	3056.74
410.64	3038.02
410.83	3005.25
411.02	3164.40
411.21	3173.77
411.40	3281.43
411.59	3269.73
411.78	3239.30
411.98	3279.09
412.17	3330.58
412.36	3321.22
412.55	3368.03
412.74	3447.61
412.93	3368.03
413.12	3410.16
413.31	3700.39
413.50	3459.31
413.69	3407.82
413.88	3648.90
414.07	3564.64
414.26	3648.90
414.45	3691.02
414.64	3618.47
414.83	3681.66
415.02	3801.03
415.22	3892.31
415.41	3819.75
415.60	3875.93
415.79	3885.29
415.98	3894.65
416.17	3999.98
416.36	4105.30
416.55	4021.04
416.74	4051.47
416.93	4039.76
417.12	4112.32
417.31	4191.90
417.50	4166.15
417.69	4402.55
417.88	4421.27
418.07	4320.63
418.26	4287.86
418.45	4266.80
418.64	4456.38
418.83	4397.87
419.02	4414.25
419.21	4627.24
419.39	4477.44
419.58	4596.81
419.77	4435.32
419.96	4603.83
420.15	4491.49
420.34	4667.03
420.53	4484.47
420.72	4702.14
420.91	4683.41
421.10	4746.61
421.29	4629.58
421.48	4660.01
421.67	4812.14
421.86	4779.37
422.05	4854.27
422.24	4877.68
422.43	4835.55
422.61	4947.89
422.80	4910.44
422.99	4940.87
423.18	5158.54
423.37	5067.26
423.56	4992.36
423.75	4821.50
423.94	4748.95
424.13	4594.47
424.32	4793.42
424.50	4819.16
424.69	5050.88
424.88	5160.88
425.07	4983.00
425.26	4889.38
425.45	5090.67
425.64	4992.36
425.83	4931.51
426.01	5177.26
426.20	5022.79
426.39	5088.32
426.58	5160.88
426.77	4973.64
426.96	5165.56
427.15	5041.51
427.33	5191.31
427.52	5174.92
427.71	5214.71
427.90	5313.02
428.09	5416.00
428.28	5502.60
428.46	5378.55
428.65	5282.59
428.84	5434.72
429.03	5584.52
429.22	5343.44
429.40	5423.02
429.59	5310.68
429.78	5224.08
429.97	5399.62
430.16	5533.03
430.34	5692.18
430.53	5533.03
430.72	5764.74
430.91	5650.05
431.10	5729.63
431.28	5706.23
431.47	5671.12
431.66	5825.59
431.85	5701.54
432.03	5994.11
432.22	6080.71
432.41	5940.28
432.60	5895.81
432.79	6015.18
432.97	6015.18
433.16	6069.01
433.35	6008.16
433.54	5858.36
433.72	6190.72
433.91	5989.43
434.10	6305.40
434.28	6113.48
434.47	6221.14
434.66	6279.66
434.85	6253.91
435.03	6256.25
435.22	6399.02
435.41	6469.24
435.59	6410.73
435.78	6441.15
435.97	6499.67
436.16	6375.62
436.34	6494.99
436.53	6527.75
436.72	6658.82
436.90	6513.71
437.09	6590.95
437.28	6466.90
437.46	6782.87
437.65	6736.06
437.84	6715.00
438.02	6600.31
438.21	6906.92
438.40	6588.61
438.58	7082.46
438.77	7105.87
438.96	7047.35
439.14	7075.44
439.33	7297.79
439.52	7225.23
439.70	7293.11
439.89	7246.30
440.08	7410.14
440.26	7407.80
440.45	7419.50
440.63	7590.36
440.82	7630.15
441.01	7468.65
441.19	7566.95
441.38	7508.44
441.57	7843.14
441.75	7833.77
441.94	8070.17
442.12	7864.20
442.31	7955.48
442.50	8056.12
442.68	8039.74
442.87	8138.04
443.05	8116.98
443.24	8168.47
443.43	7920.37
443.61	8264.43
443.80	8388.48
443.98	7985.91
444.17	7882.92
444.35	8126.34
444.54	8582.74
444.73	8381.46
444.91	8205.92
445.10	8411.89
445.28	8318.26
445.47	8241.03
445.65	8411.89
445.84	8325.29
446.02	8369.76
446.21	8332.31
446.39	8421.25
446.58	8524.23
446.77	8482.10
446.95	8191.88
447.14	8360.39
447.32	8650.62
447.51	8479.76
447.69	8617.85
447.88	8542.96
448.06	8486.78
448.25	8603.81
448.43	8767.65
448.62	8468.06
448.80	8751.26
448.99	8732.54
449.17	8753.60
449.36	8641.26
449.54	8908.08
449.73	8915.10
449.91	8844.88
450.10	8903.40
450.28	9184.26
450.46	9090.64
450.65	9020.42
450.83	9092.98
451.02	9062.55
451.20	9245.12
451.39	9067.24
451.57	9181.92
451.76	9202.99
451.94	9397.25
452.13	9364.48
452.31	9364.48
452.49	9097.66
452.68	9364.48
452.86	9336.40
453.05	9619.60
453.23	9385.55
453.42	9488.53
453.60	9123.41
453.78	9591.52
453.97	9556.41
454.15	9460.45
454.34	9607.90
454.52	9659.39
454.70	9818.55
454.89	9699.18
455.07	9724.93
455.26	9881.74
455.44	9841.95
455.62	9851.31
455.81	10005.79
455.99	10073.67
456.17	10146.22
456.36	10134.52
456.54	10129.84
456.73	10237.50
456.91	10485.60
457.09	10314.74
457.28	10546.45
457.46	10394.32
457.64	10609.65
457.83	10546.45
458.01	10436.45
458.19	10899.87
458.38	10616.67
458.56	10757.10
458.74	10691.57
458.93	10628.37
459.11	10710.29
459.29	10754.76
459.48	10927.96
459.66	10888.17
459.84	11005.20
460.03	11037.97
460.21	10883.49
460.39	10963.07
460.57	11112.86
460.76	10988.82
460.94	11169.04
461.12	11098.82
461.31	11440.54
461.49	11131.59
461.67	11346.92
461.85	11410.11
462.04	11353.94
462.22	11744.81
462.40	11625.44
462.59	11386.71
462.77	11611.40
462.95	11541.18
463.13	11690.98
463.32	11777.58
463.50	11859.49
463.68	11812.68
463.86	11796.30
464.05	11557.57
464.23	11815.02
464.41	11964.82
464.59	11838.43
464.78	12290.15
464.96	12028.01
465.14	11857.15
465.32	12002.27
465.50	12226.96
465.69	12245.68
465.87	12093.55
466.05	12042.06
466.23	12367.39
466.41	12236.32
466.60	12596.76
466.78	12154.40
466.96	12348.67
467.14	12233.98
467.32	12334.62
467.51	12549.95
467.69	12262.07
467.87	12400.16
468.05	12798.05
468.23	12444.63
468.41	12472.71
468.60	12650.60
468.78	12645.91
468.96	12556.97
469.14	12854.22
469.32	12980.61
469.50	12631.87
469.69	13151.47
469.87	13074.23
470.05	13128.06
470.23	13273.18
470.41	13043.81
470.59	13235.73
470.77	13228.71
470.95	13296.58
471.14	13479.15
471.32	13406.59
471.50	13617.24
471.68	13675.75
471.86	13514.25
472.04	13937.89
472.22	14001.08
472.40	13855.97
472.58	13900.44
472.77	14010.45
472.95	14232.80
473.13	14719.63
473.31	14087.68
473.49	14136.84
473.67	14284.29
473.85	14422.38
474.03	14773.46
474.21	14759.42
474.39	14869.42
474.57	14888.15
474.75	14820.27
474.93	14939.64
475.12	14771.12
475.30	15049.64
475.48	15040.28
475.66	15267.31
475.84	15419.45
476.02	15473.28
476.20	15735.42
476.38	15627.76
476.56	16163.74
476.74	16046.71
476.92	15775.21
477.10	15932.03
477.28	16432.90
477.46	16535.88
477.64	16547.59
477.82	16563.97
478.00	17076.55
478.18	16676.32
478.36	16896.33
478.54	17092.93
478.72	17207.62
478.90	17144.42
479.08	17666.36
479.26	18012.76
479.44	17680.41
479.62	17912.12
479.80	18209.37
479.98	18003.40
480.16	18497.25
480.34	18249.16
480.52	18757.05
480.70	18490.23
480.88	18356.82
481.06	18794.50
481.24	18801.52
481.41	19309.42
481.59	19459.21
481.77	19594.96
481.95	19648.80
482.13	19822.00
482.31	19695.61
482.49	20245.63
482.67	20236.27
482.85	20397.77
483.03	20702.04
483.21	20673.95
483.39	20910.35
483.57	20830.77
483.74	21455.69
483.92	21404.20
484.10	21132.70
484.28	21921.46
484.46	22120.40
484.64	22443.40
484.82	22422.33
485.00	22174.24
485.18	22714.90
485.35	22813.20
485.53	22955.97
485.71	23061.30
485.89	23456.85
486.07	23468.55
486.25	23440.47
486.43	23885.17
486.61	24086.45
486.78	24313.48
486.96	24407.11
487.14	24924.36
487.32	24566.26
487.50	25067.14
487.68	25177.14
487.85	25296.51
488.03	25914.41
488.21	25902.71
488.39	26122.72
488.57	26380.18
488.75	26223.36
488.92	26665.72
489.10	26822.54
489.28	26827.22
489.46	26878.71
489.64	27122.13
489.81	27946.00
489.99	27475.55
490.17	27831.31
490.35	28524.11
490.53	28369.63
490.70	28608.37
490.88	28442.19
491.06	29020.30
491.24	28891.57
491.41	29366.70
491.59	29406.49
491.77	29507.13
491.95	29488.41
492.13	29699.06
492.30	30132.06
492.48	29757.57
492.66	30387.18
492.84	30089.93
493.01	30831.88
493.19	31005.08
493.37	30838.90
493.54	30899.75
493.72	31978.74
493.90	31723.62
494.08	31840.65
494.25	32100.45
494.43	31990.44
494.61	32734.73
494.79	32634.09
494.96	32933.68
495.14	33064.75
495.32	33493.07
495.49	33336.25
495.67	33518.81
495.85	33326.89
496.02	33582.01
496.20	33652.22
496.38	34265.44
496.55	34045.43
496.73	34747.59
496.91	34586.10
497.09	34869.30
497.26	35021.44
497.44	35028.46
497.62	35538.69
497.79	35882.75
497.97	35669.76
498.14	35515.29
498.32	36084.04
498.50	36484.27
498.67	36308.73
498.85	36222.13
499.03	37041.32
499.20	37027.28
499.38	37048.34
499.56	37359.63
499.73	37266.01
499.91	37469.64
500.08	37500.06
500.26	37137.28
500.44	37694.33
500.61	38220.95
500.79	37546.87
500.97	38157.75
501.14	38333.29
501.32	38848.21
501.49	38572.03
501.67	38934.81
501.84	39290.57
502.02	38972.26
502.20	39126.74
502.37	39917.84
502.55	39131.42
502.72	39627.61
502.90	39730.59
503.07	39611.23
503.25	40051.25
503.43	39957.63
503.60	40320.41
503.78	40514.67
503.95	40425.73
504.13	40985.12
504.30	40692.55
504.48	40664.47
504.65	41062.36
504.83	41078.74
505.01	41043.63
505.18	41331.52
505.36	41848.78
505.53	41392.37
505.71	42071.13
505.88	41972.83
506.06	41586.64
506.23	42466.68
506.41	41706.01
506.58	41773.88
506.76	42309.86
506.93	42471.36
507.11	42618.81
507.28	42611.79
507.46	43051.81
507.63	43054.15
507.81	43335.02
507.98	42831.80
508.16	43360.76
508.33	43625.25
508.50	43973.98
508.68	43908.45
508.85	43978.67
509.03	43381.83
509.20	44163.57
509.38	44313.36
509.55	44694.87
509.73	44502.95
509.90	44561.46
510.08	44643.38
510.25	44800.19
510.42	45001.48
510.60	44837.64
510.77	45708.32
510.95	45059.99
511.12	45345.54
511.30	45151.27
511.47	45631.08
511.64	45823.01
511.82	46227.92
511.99	45909.61
512.17	46064.08
512.34	46010.25
512.51	46398.78
512.69	46810.71
512.86	46480.70
513.04	46880.93
513.21	46799.01
513.38	46848.16
513.56	46808.37
513.73	47012.00
513.90	47290.52
514.08	47040.09
514.25	47653.31
514.43	48048.86
514.60	47585.43
514.77	47767.99
514.95	48196.31
515.12	47798.42
515.29	47878.00
515.47	48114.39
515.64	48318.02
515.81	48161.20
515.99	48357.81
516.16	48758.04
516.33	48318.02
516.51	48823.58
516.68	48928.90
516.85	49064.65
517.03	49200.40
517.20	48793.15
517.37	49233.17
517.54	48889.11
517.72	48839.96
517.89	49265.94
518.06	49483.61
518.24	49059.97
518.41	49205.08
518.58	49429.77
518.75	49581.91
518.93	49553.82
519.10	49755.11
519.27	49977.46
519.45	49846.39
519.62	50429.18
519.79	50330.88
519.96	50220.87
520.14	50162.36
520.31	50078.10
520.48	50525.14
520.65	50738.13
520.83	50836.44
521.00	50614.08
521.17	50628.13
521.34	50763.88
521.52	50948.78
521.69	51114.96
521.86	51028.36
522.03	51363.06
522.20	51386.46
522.38	51763.29
522.55	51583.07
522.72	51831.16
522.89	51444.98
523.07	51796.06
523.24	51550.30
523.41	51796.06
523.58	51566.68
523.75	52114.37
523.92	51915.42
524.10	52264.16
524.27	52053.51
524.44	52215.01
524.61	51966.91
524.78	52404.59
524.96	52217.35
525.13	52563.75
525.30	52491.19
525.47	52561.41
525.64	52594.18
525.81	52355.44
525.98	52720.57
526.16	52610.56
526.33	52608.22
526.50	52828.23
526.67	52912.49
526.84	53279.96
527.01	52793.12
527.18	52573.11
527.36	53359.53
527.53	53347.83
527.70	53291.66
527.87	53345.49
528.04	53434.43
528.21	53352.51
528.38	53343.15
528.55	53736.36
528.72	53502.31
528.89	53645.08
529.07	53605.29
529.24	53661.46
529.41	54000.84
529.58	53853.39
529.75	53717.64
529.92	53729.34
530.09	53907.22
530.26	54085.10
530.43	54169.36
530.60	53602.95
530.77	53963.39
530.94	54216.17
531.11	54087.44
531.28	54471.29
531.46	54183.40
531.63	54520.44
531.80	54536.82
531.97	54464.27
532.14	54431.50
532.31	54784.92
532.48	54410.43
532.65	54923.01
532.82	54773.22
532.99	54630.44
533.16	55035.36
533.33	54845.77
533.50	55021.31
533.67	54805.98
533.84	54763.85
534.01	55208.56
534.18	55166.43
534.35	55285.79
534.52	55117.28
534.69	55454.31
534.86	55234.30
535.03	55306.86
535.20	55213.24
535.37	55475.38
535.54	55498.78
535.71	55573.68
535.88	55618.15
536.05	55650.92
536.22	55519.85
536.38	55643.90
536.55	55681.34
536.72	55671.98
536.89	55585.38
537.06	55824.12
537.23	55756.24
537.40	55791.35
537.57	55805.39
537.74	55756.24
537.91	55955.19
538.08	56104.98
538.25	55821.78
538.42	55924.76
538.59	56437.34
538.75	55927.10
538.92	56170.52
539.09	56360.10
539.26	56154.13
539.43	56313.29
539.60	56259.46
539.77	56301.59
539.94	56435.00
540.11	56463.08
540.28	56580.11
540.44	56420.95
540.61	56250.09
540.78	56327.33
540.95	56596.49
541.12	56683.09
541.29	56718.20
541.46	56694.80
541.62	56626.92
541.79	56671.39
541.96	56463.08
542.13	56694.80
542.30	56889.06
542.47	56786.08
542.63	56980.34
542.80	57195.67
542.97	57223.76
543.14	57378.23
543.31	57134.82
543.48	57113.75
543.64	57579.52
543.81	57392.28
543.98	57422.70
544.15	57385.25
544.32	57574.84
544.48	57621.65
544.65	57614.63
544.82	57432.07
544.99	57331.42
545.16	57614.63
545.32	57378.23
545.49	57712.93
545.66	57804.21
545.83	57689.52
546.00	57733.99
546.16	57841.66
546.33	57563.14
546.50	57736.34
546.67	57673.14
546.83	57535.05
547.00	57741.02
547.17	57773.78
547.34	57895.49
547.50	58021.88
547.67	58354.24
547.84	57925.92
548.00	57939.96
548.17	58433.81
548.34	58234.87
548.51	58417.43
548.67	58330.83
548.84	58279.34
549.01	58159.97
549.18	58293.38
549.34	58239.55
549.51	58253.59
549.68	58314.45
549.84	58288.70
550.01	58520.41
550.18	58316.79
550.34	58611.70
550.51	58656.17
550.68	58468.92
550.84	58468.92
551.01	58513.39
551.18	58623.40
551.34	58522.76
551.51	58499.35
551.68	58602.33
551.84	58649.14
552.01	58592.97
552.18	58724.04
552.34	58602.33
552.51	58700.64
552.68	58768.51
552.84	58742.77
553.01	58988.52
553.18	58983.84
553.34	59042.35
553.51	58850.43
553.67	59089.16
553.84	59206.19
554.01	58913.62
554.17	59138.32
554.34	59135.98
554.51	59234.28
554.67	59421.52
554.84	58904.26
555.00	59255.34
555.17	58958.09
555.33	59131.29
555.50	58953.41
555.67	59126.61
555.83	59215.55
556.00	59229.60
556.16	59536.21
556.33	59454.29
556.50	59391.09
556.66	59339.60
556.83	59072.78
556.99	59655.57
557.16	59440.24
557.32	59559.61
557.49	59587.70
557.65	59379.39
557.82	59426.20
557.98	59316.20
558.15	59554.93
558.32	59707.07
558.48	59391.09
558.65	59398.12
558.81	59629.83
558.98	59779.62
559.14	59730.47
559.31	59690.68
559.47	59838.14
559.64	59777.28
559.80	59870.90
559.97	59906.01
560.13	59737.49
560.30	59725.79
560.46	59709.41
560.63	59856.86
560.79	59763.24
560.96	59964.52
561.12	59931.76
561.29	59966.87
561.45	60121.34
561.61	60116.66
561.78	59751.54
561.94	60006.65
562.11	59800.69
562.27	59819.41
562.44	60048.78
562.60	60149.43
562.77	60046.44
562.93	59842.82
563.10	60144.75
563.26	59934.10
563.42	60385.82
563.59	60147.09
563.75	60104.96
563.92	60177.51
564.08	60158.79
564.24	60186.88
564.41	60357.74
564.57	60287.52
564.74	60116.66
564.90	60308.58
565.07	60030.06
565.23	60243.05
565.39	60409.23
565.56	60231.35
565.72	60252.41
565.88	60142.41
566.05	60111.98
566.21	60285.18
566.38	60303.90
566.54	60434.97
566.70	60486.46
566.87	60591.79
567.03	60306.24
567.19	60477.10
567.36	60430.29
567.52	60322.63
567.68	60472.42
567.85	60547.32
568.01	60645.62
568.17	60423.27
568.34	60449.02
568.50	60507.53
568.66	60371.78
568.83	60631.58
568.99	60381.14
569.15	60540.30
569.32	60481.78
569.48	60285.18
569.64	60736.90
569.81	60456.04
569.97	60427.95
570.13	60444.33
570.30	60320.29
570.46	60535.62
570.62	60741.58
570.78	60701.79
570.95	60598.81
571.11	60800.10
571.27	60570.72
571.43	60530.93
571.60	60907.76
571.76	60783.71
571.92	60647.96
572.09	60711.16
572.25	60608.17
572.41	60772.01
572.57	60673.71
572.74	60818.82
572.90	60776.69
573.06	60774.35
573.22	60802.44
573.38	60750.94
573.55	60566.04
573.71	61031.81
573.87	60830.52
574.03	60736.90
574.20	60715.84
574.36	60594.13
574.52	60811.80
574.68	60764.99
574.84	60914.78
575.01	60762.65
575.17	60669.03
575.33	60884.36
575.49	60786.05
575.65	60802.44
575.82	60973.30
575.98	60884.36
576.14	61087.98
576.30	60926.49
576.46	60851.59
576.62	60856.27
576.79	60947.55
576.95	60626.90
577.11	61038.83
577.27	60977.98
577.43	60987.34
577.59	60846.91
577.75	60849.25
577.92	60781.37
578.08	60870.31
578.24	60921.80
578.40	60959.25
578.56	61008.40
578.72	60919.46
578.88	61020.11
579.04	61268.20
579.21	61169.90
579.37	61162.88
579.53	61200.33
579.69	60858.61
579.85	60959.25
580.01	61050.53
580.17	60893.72
580.33	61050.53
580.49	61050.53
580.65	61017.77
580.82	61041.17
580.98	60697.11
581.14	60860.95
581.30	61024.79
581.46	60921.80
581.62	61029.47
581.78	60924.14
581.94	61139.47
582.10	60963.93
582.26	60956.91
582.42	61095.00
582.58	60849.25
582.74	60947.55
582.90	61017.77
583.06	61010.74
583.22	60823.50
583.38	60968.61
583.54	61148.84
583.70	61078.62
583.86	61125.43
584.02	60867.97
584.18	61193.31
584.34	61087.98
584.50	60975.64
584.66	61027.13
584.82	60912.44
584.98	61073.94
585.14	61052.87
585.30	60907.76
585.46	61038.83
585.62	61169.90
585.78	61144.16
585.94	60956.91
586.10	60872.65
586.26	60963.93
586.42	61291.61
586.58	61186.28
586.74	61097.34
586.90	61165.22
587.06	61240.12
587.22	61291.61
587.38	61038.83
587.54	61265.86
587.70	61432.04
587.86	61130.11
588.02	61319.70
588.18	61359.48
588.34	61286.93
588.49	61043.51
