SpectraSuite Data File
++++++++++++++++++++++++++++++++++++
Date: Fri Oct 25 10:48:34 EDT 2013
User: price-jones
Dark Spectrum Present: No
Reference Spectrum Present: No
Number of Sampled Component Spectra: 1
Spectrometers: USB2+H05261
Integration Time (usec): 100000 (USB2+H05261)
Spectra Averaged: 1 (USB2+H05261)
Boxcar Smoothing: 0 (USB2+H05261)
Correct for Electrical Dark: No (USB2+H05261)
Strobe/Lamp Enabled: No (USB2+H05261)
Correct for Detector Non-linearity: No (USB2+H05261)
Correct for Stray Light: No (USB2+H05261)
Number of Pixels in Processed Spectrum: 2048
>>>>>Begin Processed Spectral Data<<<<<
365.73	189.58
365.92	189.58
366.12	189.58
366.32	35.11
366.52	28.09
366.72	2.34
366.91	25.75
367.11	11.70
367.31	32.77
367.51	53.83
367.70	74.90
367.90	46.81
368.10	95.96
368.30	72.56
368.49	23.41
368.69	72.56
368.89	25.75
369.09	86.60
369.28	119.37
369.48	98.30
369.68	102.98
369.87	107.66
370.07	35.11
370.27	170.86
370.47	276.18
370.66	428.32
370.86	433.00
371.06	470.45
371.25	524.28
371.45	435.34
371.65	493.85
371.84	535.98
372.04	470.45
372.24	496.19
372.44	552.37
372.63	521.94
372.83	479.81
373.03	601.52
373.22	571.09
373.42	617.90
373.62	505.56
373.81	519.60
374.01	552.37
374.21	599.18
374.40	601.52
374.60	613.22
374.79	610.88
374.99	627.26
375.19	578.11
375.38	571.09
375.58	688.12
375.78	702.16
375.97	648.33
376.17	770.04
376.37	615.56
376.56	606.20
376.76	601.52
376.95	641.31
377.15	664.71
377.35	692.80
377.54	699.82
377.74	662.37
377.93	624.92
378.13	690.46
378.33	671.73
378.52	688.12
378.72	777.06
378.91	709.18
379.11	723.23
379.31	683.44
379.50	643.65
379.70	791.10
379.89	753.65
380.09	760.67
380.28	781.74
380.48	758.33
380.68	755.99
380.87	723.23
381.07	774.72
381.26	755.99
381.46	674.07
381.65	706.84
381.85	741.95
382.04	767.70
382.24	739.61
382.43	744.29
382.63	755.99
382.83	716.20
383.02	781.74
383.22	807.48
383.41	746.63
383.61	779.40
383.80	812.17
384.00	791.10
384.19	842.59
384.39	772.38
384.58	781.74
384.78	786.42
384.97	837.91
385.17	791.10
385.36	837.91
385.56	844.93
385.75	816.85
385.95	877.70
386.14	905.79
386.34	851.96
386.53	917.49
386.72	894.08
386.92	954.94
387.11	929.19
387.31	938.55
387.50	809.83
387.70	844.93
387.89	905.79
388.09	971.32
388.28	837.91
388.48	828.55
388.67	997.07
388.86	959.62
389.06	1013.45
389.25	917.49
389.45	1011.11
389.64	903.45
389.84	1048.56
390.03	992.39
390.22	1060.26
390.42	940.90
390.61	1067.28
390.81	1027.50
391.00	1104.73
391.19	1095.37
391.39	1088.35
391.58	1116.44
391.78	1015.79
391.97	1116.44
392.16	1102.39
392.36	1100.05
392.55	1046.22
392.75	1036.86
392.94	1039.20
393.13	994.73
393.33	1158.57
393.52	1184.31
393.71	1198.35
393.91	1090.69
394.10	1116.44
394.29	1224.10
394.49	1266.23
394.68	1179.63
394.88	1275.59
395.07	1338.79
395.26	1357.51
395.46	1233.46
395.65	1273.25
395.84	1249.85
396.04	1376.24
396.23	1193.67
396.42	1214.74
396.62	1259.21
396.81	1259.21
397.00	1270.91
397.19	1406.66
397.39	1397.30
397.58	1366.87
397.77	1465.18
397.97	1432.41
398.16	1521.35
398.35	1528.37
398.55	1533.05
398.74	1561.14
398.93	1511.99
399.12	1558.80
399.32	1481.56
399.51	1579.86
399.70	1549.43
399.90	1607.95
400.09	1561.14
400.28	1720.29
400.47	1577.52
400.67	1748.38
400.86	1732.00
401.05	1729.66
401.24	1746.04
401.44	1741.36
401.63	1657.10
401.82	1799.87
402.01	1746.04
402.21	1778.81
402.40	1844.34
402.59	1813.92
402.78	1792.85
402.97	1827.96
403.17	1799.87
403.36	1923.92
403.55	1900.52
403.74	1959.03
403.93	1966.05
404.13	1902.86
404.32	1996.48
404.51	2062.01
404.70	2040.95
404.89	1834.98
405.09	2078.40
405.28	2115.84
405.47	2010.52
405.66	2024.56
405.85	2108.82
406.05	2033.93
406.24	2050.31
406.43	2132.23
406.62	2193.08
406.81	2230.53
407.00	2120.53
407.20	2139.25
407.39	2195.42
407.58	2176.70
407.77	2251.60
407.96	2349.90
408.15	2300.75
408.34	2202.44
408.54	2356.92
408.73	2455.22
408.92	2399.05
409.11	2349.90
409.30	2387.35
409.49	2298.41
409.68	2333.51
409.87	2333.51
410.07	2389.69
410.26	2595.65
410.45	2450.54
410.64	2621.40
410.83	2534.80
411.02	2663.53
411.21	2672.89
411.40	2651.83
411.59	2768.85
411.78	2712.68
411.98	2782.90
412.17	2665.87
412.36	2785.24
412.55	2878.86
412.74	2803.96
412.93	2836.73
413.12	2818.00
413.31	3042.70
413.50	2925.67
413.69	2911.63
413.88	3000.57
414.07	3009.93
414.26	3009.93
414.45	3028.65
414.64	3126.96
414.83	3239.30
415.02	3197.17
415.22	3143.34
415.41	3119.93
415.60	3358.67
415.79	3279.09
415.98	3400.80
416.17	3384.41
416.36	3393.78
416.55	3485.06
416.74	3316.54
416.93	3346.97
417.12	3346.97
417.31	3365.69
417.50	3384.41
417.69	3555.27
417.88	3389.10
418.07	3548.25
418.26	3435.91
418.45	3613.79
418.64	3637.19
418.83	3777.62
419.02	3698.05
419.21	3768.26
419.39	3684.00
419.58	3592.72
419.77	3686.34
419.96	3812.73
420.15	3831.46
420.34	3646.55
420.53	3892.31
420.72	3941.46
420.91	4070.19
421.10	4058.49
421.29	3882.95
421.48	3925.08
421.67	3974.23
421.86	3911.04
422.05	3925.08
422.24	4018.70
422.43	4107.64
422.61	3882.95
422.80	3995.29
422.99	4124.02
423.18	3913.38
423.37	4067.85
423.56	4117.00
423.75	4107.64
423.94	3946.14
424.13	3686.34
424.32	3925.08
424.50	4053.81
424.69	4109.98
424.88	4098.28
425.07	4105.30
425.26	4044.45
425.45	4077.21
425.64	4002.32
425.83	4058.49
426.01	4056.15
426.20	4297.22
426.39	4219.99
426.58	4102.96
426.77	4077.21
426.96	4063.17
427.15	4269.14
427.33	4194.24
427.52	4257.43
427.71	4170.83
427.90	4262.12
428.09	4339.35
428.28	4201.26
428.46	4273.82
428.65	4241.05
428.84	4498.51
429.03	4432.97
429.22	4159.13
429.40	4227.01
429.59	4283.18
429.78	4051.47
429.97	4072.53
430.16	4074.87
430.34	4124.02
430.53	4234.03
430.72	4318.29
430.91	4376.80
431.10	4531.28
431.28	4723.20
431.47	4924.49
431.66	4812.14
431.85	4699.80
432.03	4681.07
432.22	4826.18
432.41	4669.37
432.60	4781.71
432.79	4828.53
432.97	4858.95
433.16	4891.72
433.35	4901.08
433.54	4959.60
433.72	4770.01
433.91	4835.55
434.10	4746.61
434.28	4910.44
434.47	5027.47
434.66	5198.33
434.85	5057.90
435.03	5116.41
435.22	5076.62
435.41	5336.42
435.59	5242.80
435.78	5364.51
435.97	5268.55
436.16	5352.81
436.34	5369.19
436.53	5266.21
436.72	5509.62
436.90	5324.72
437.09	5247.48
437.28	5282.59
437.46	5369.19
437.65	5490.90
437.84	5277.91
438.02	5430.04
438.21	5448.77
438.40	5385.57
438.58	5600.90
438.77	5603.24
438.96	5549.41
439.14	5762.40
439.33	5827.93
439.52	5689.84
439.70	5949.64
439.89	5973.05
440.08	5837.30
440.26	5998.79
440.45	5872.40
440.63	6115.82
440.82	6321.79
441.01	6101.78
441.19	6143.91
441.38	6335.83
441.57	6279.66
441.75	6394.34
441.94	6422.43
442.12	6424.77
442.31	6572.22
442.50	6548.82
442.68	6682.23
442.87	6668.19
443.05	6504.35
443.24	6817.98
443.43	6677.55
443.61	6597.97
443.80	6871.81
443.98	6541.80
444.17	6429.45
444.35	6698.61
444.54	6738.40
444.73	6661.16
444.91	6693.93
445.10	6658.82
445.28	6691.59
445.47	6731.38
445.65	6565.20
445.84	6644.78
446.02	6693.93
446.21	6712.66
446.39	6799.26
446.58	6881.18
446.77	6911.60
446.95	6836.70
447.14	6881.18
447.32	6970.12
447.51	6937.35
447.69	6890.54
447.88	6864.79
448.06	6923.30
448.25	6949.05
448.43	6953.73
448.62	6899.90
448.80	7000.54
448.99	7087.14
449.17	7199.49
449.36	7094.16
449.54	7094.16
449.73	7335.24
449.91	7391.41
450.10	7588.02
450.28	7550.57
450.46	7302.47
450.65	7365.67
450.83	7363.33
451.02	7225.23
451.20	7400.77
451.39	7389.07
451.57	7363.33
451.76	7630.15
451.94	7524.82
452.13	7485.03
452.31	7328.22
452.49	7330.56
452.68	7410.14
452.86	7377.37
453.05	7616.10
453.23	7606.74
453.42	7494.40
453.60	7595.04
453.78	7801.01
453.97	7733.13
454.15	7531.84
454.34	7627.81
454.52	7873.56
454.70	7829.09
454.89	7801.01
455.07	7620.78
455.26	7836.11
455.44	8229.32
455.62	8023.36
455.81	7999.95
455.99	8028.04
456.17	8198.90
456.36	8051.44
456.54	8280.82
456.73	8264.43
456.91	8304.22
457.09	8355.71
457.28	8510.19
457.46	8278.47
457.64	8531.25
457.83	8322.94
458.01	8287.84
458.19	8627.21
458.38	8428.27
458.56	8465.72
458.74	8568.70
458.93	8688.07
459.11	8564.02
459.29	8365.07
459.48	8688.07
459.66	8446.99
459.84	8674.03
460.03	8730.20
460.21	8613.17
460.39	8814.46
460.57	8917.44
460.76	8898.72
460.94	8912.76
461.12	8987.66
461.31	8926.80
461.49	8950.21
461.67	8919.78
461.85	9076.60
462.04	8959.57
462.22	9516.62
462.40	9607.90
462.59	9224.05
462.77	9345.76
462.95	9214.69
463.13	9217.03
463.32	9217.03
463.50	9240.44
463.68	9289.59
463.86	9240.44
464.05	9064.89
464.23	9167.88
464.41	9212.35
464.59	9240.44
464.78	9408.95
464.96	9352.78
465.14	9385.55
465.32	9549.39
465.50	9652.37
465.69	9692.16
465.87	9511.94
466.05	9453.42
466.23	9418.32
466.41	9315.33
466.60	9589.17
466.78	9710.88
466.96	9638.33
467.14	9554.07
467.32	9441.72
467.51	9928.55
467.69	9462.79
467.87	9713.22
468.05	9973.02
468.23	9762.37
468.41	9865.36
468.60	9933.23
468.78	9977.70
468.96	9736.63
469.14	9921.53
469.32	10026.86
469.50	9778.76
469.69	9949.62
469.87	10022.17
470.05	10050.26
470.23	9816.21
470.41	10106.43
470.59	10389.64
470.77	10153.24
470.95	10085.37
471.14	10401.34
471.32	10253.89
471.50	10597.95
471.68	10562.84
471.86	10621.35
472.04	10565.18
472.22	10888.17
472.40	10492.62
472.58	10747.74
472.77	10832.00
472.95	10967.75
473.13	11162.01
473.31	10885.83
473.49	11000.52
473.67	10897.53
473.85	11183.08
474.03	11506.07
474.21	11180.74
474.39	11587.99
474.57	11318.83
474.75	11513.10
474.93	11618.42
475.12	11552.88
475.30	11796.30
475.48	11515.44
475.66	11637.14
475.84	11506.07
476.02	11875.88
476.20	11733.11
476.38	11953.12
476.56	12205.89
476.74	12243.34
476.92	12058.44
477.10	12453.99
477.28	12358.03
477.46	12290.15
477.64	12643.57
477.82	12987.63
478.00	12985.29
478.18	12964.23
478.36	12996.99
478.54	12950.18
478.72	13294.24
478.90	13202.96
479.08	13390.20
479.26	13692.13
479.44	13537.66
479.62	13844.27
479.80	13642.98
479.98	13958.96
480.16	14139.18
480.34	13956.61
480.52	14375.57
480.70	14026.83
480.88	14143.86
481.06	14216.41
481.24	14600.26
481.41	14707.93
481.59	14771.12
481.77	14476.21
481.95	14642.39
482.13	15152.63
482.31	14937.30
482.49	15758.83
482.67	15344.55
482.85	15360.94
483.03	15576.27
483.21	15981.18
483.39	15719.04
483.57	15807.98
483.74	16088.84
483.92	16123.95
484.10	15784.57
484.28	16189.49
484.46	16657.59
484.64	16629.51
484.82	16468.01
485.00	16545.25
485.18	16893.99
485.35	16748.87
485.53	16510.14
485.71	16432.90
485.89	16791.00
486.07	17032.08
486.25	17001.65
486.43	17284.86
486.61	17397.20
486.78	17717.86
486.96	17596.15
487.14	18333.42
487.32	17867.65
487.50	18483.21
487.68	18738.33
487.85	19047.28
488.03	18534.70
488.21	19183.03
488.39	19218.14
488.57	19194.73
488.75	19365.59
488.92	19814.98
489.10	20238.61
489.28	19995.20
489.46	20381.38
489.64	20161.37
489.81	20758.21
489.99	20577.99
490.17	20886.94
490.35	20931.41
490.53	20755.87
490.70	21006.31
490.88	21057.80
491.06	21509.52
491.24	21263.77
491.41	21348.03
491.59	21607.83
491.77	21317.60
491.95	21816.13
492.13	21879.33
492.30	22363.82
492.48	22443.40
492.66	22258.49
492.84	22656.39
493.01	22817.88
493.19	22644.68
493.37	22761.71
493.54	22941.93
493.72	23108.11
493.90	23316.42
494.08	23669.84
494.25	23828.99
494.43	24044.32
494.61	23845.38
494.79	24217.52
494.96	24250.29
495.14	23981.13
495.32	24226.89
495.49	24449.24
495.67	24561.58
495.85	24931.39
496.02	24968.84
496.20	25214.59
496.38	24856.49
496.55	25488.43
496.73	25654.61
496.91	25284.81
497.09	25788.02
497.26	25743.55
497.44	25778.66
497.62	26157.83
497.79	26242.09
497.97	25832.49
498.14	25930.80
498.32	26405.92
498.50	26298.26
498.67	26527.63
498.85	26920.84
499.03	26981.70
499.20	27178.30
499.38	26841.26
499.56	27337.46
499.73	27175.96
499.91	27077.66
500.08	27391.29
500.26	27096.38
500.44	27817.27
500.61	27718.96
500.79	27599.60
500.97	27763.43
501.14	27709.60
501.32	27552.79
501.49	28098.13
501.67	28058.34
501.84	28304.10
502.02	28018.55
502.20	28552.20
502.37	28945.41
502.55	28236.22
502.72	29013.28
502.90	28776.89
503.07	28531.13
503.25	28933.70
503.43	28622.41
503.60	29139.67
503.78	29177.12
503.95	29027.32
504.13	29319.89
504.30	29450.96
504.48	29415.85
504.65	29680.33
504.83	29792.68
505.01	29860.55
505.18	30096.95
505.36	30609.53
505.53	30682.08
505.71	30885.71
505.88	30408.24
506.06	30352.07
506.23	30572.08
506.41	30108.65
506.58	30492.50
506.76	30492.50
506.93	30834.22
507.11	31103.38
507.28	30803.79
507.46	30749.96
507.63	31175.94
507.81	31381.90
507.98	30885.71
508.16	31344.45
508.33	31527.02
508.50	31536.38
508.68	32109.81
508.85	31477.86
509.03	31906.18
509.20	32063.00
509.38	31765.75
509.55	32655.15
509.73	32224.50
509.90	32034.91
510.08	32449.19
510.25	31782.13
510.42	32526.42
510.60	32603.66
510.77	32711.33
510.95	32875.16
511.12	32484.30
511.30	33060.07
511.47	33352.63
511.64	33259.01
511.82	33324.55
511.99	33202.84
512.17	33362.00
512.34	33291.78
512.51	33195.82
512.69	33642.86
512.86	33661.58
513.04	33848.83
513.21	33795.00
513.38	33593.71
513.56	33809.04
513.73	33640.52
513.90	33851.17
514.08	33961.17
514.25	34335.66
514.43	34452.69
514.60	34064.16
514.77	33916.70
514.95	34497.16
515.12	34216.29
515.29	34602.48
515.47	34909.09
515.64	34993.35
515.81	34869.30
515.99	34675.04
516.16	34286.51
516.33	34656.31
516.51	34675.04
516.68	34361.40
516.85	33979.90
517.03	34639.93
517.20	34724.19
517.37	35463.80
517.54	35414.65
517.72	35445.07
517.89	35154.85
518.06	35243.79
518.24	35213.36
518.41	35407.62
518.58	35332.73
518.75	35552.74
518.93	35786.79
519.10	35789.13
519.27	36226.81
519.45	36077.02
519.62	36257.24
519.79	36203.41
519.96	36418.74
520.14	36765.14
520.31	36467.89
520.48	36240.86
520.65	36554.49
520.83	37125.58
521.00	36989.83
521.17	37214.52
521.34	37118.56
521.52	36982.80
521.69	37167.71
521.86	37256.65
522.03	36849.39
522.20	37291.76
522.38	37464.96
522.55	37785.61
522.72	37455.59
522.89	37560.92
523.07	37851.14
523.24	37633.47
523.41	37633.47
523.58	37832.42
523.75	38356.70
523.92	38157.75
524.10	38492.45
524.27	38256.06
524.44	38763.95
524.61	38508.83
524.78	38242.01
524.96	38529.90
525.13	39009.71
525.30	38834.17
525.47	39122.05
525.64	38373.08
525.81	38672.67
525.98	38417.55
526.16	38469.04
526.33	38096.90
526.50	38618.84
526.67	38473.73
526.84	38794.38
527.01	38337.98
527.18	38859.91
527.36	38990.98
527.53	39206.31
527.70	39966.99
527.87	39475.48
528.04	39309.30
528.21	39908.47
528.38	39901.45
528.55	39831.24
528.72	39772.72
528.89	39725.91
529.07	39786.77
529.24	39512.92
529.41	39449.73
529.58	39889.75
529.75	39557.39
529.92	39833.58
530.09	39913.16
530.26	40109.76
530.43	40416.37
530.60	40388.28
530.77	40306.37
530.94	40554.46
531.11	40509.99
531.28	40648.08
531.46	40156.57
531.63	40737.02
531.80	40528.72
531.97	40694.89
532.14	40683.19
532.31	40177.64
532.48	40348.50
532.65	40818.94
532.82	40545.10
532.99	40737.02
533.16	40540.42
533.33	40809.58
533.50	41045.97
533.67	41315.14
533.84	41015.55
534.01	40971.08
534.18	41212.15
534.35	41565.57
534.52	41439.18
534.69	41411.10
534.86	41996.23
535.03	41261.30
535.20	41308.11
535.37	41979.85
535.54	42061.77
535.71	41495.36
535.88	41996.23
536.05	41745.80
536.22	41881.55
536.38	42085.17
536.55	41319.82
536.72	41701.32
536.89	41799.63
537.06	42139.00
537.23	42033.68
537.40	41530.47
537.57	42272.42
537.74	42007.94
537.91	42595.41
538.08	42024.32
538.25	42298.16
538.42	42066.45
538.59	42447.96
538.75	42075.81
538.92	42363.70
539.09	42443.27
539.26	42141.35
539.43	42373.06
539.60	42387.10
539.77	42356.67
539.94	42199.86
540.11	41933.04
540.28	42178.79
540.44	42899.68
540.61	42258.37
540.78	42576.69
540.95	42543.92
541.12	43068.20
541.29	42564.98
541.46	42906.70
541.62	42880.95
541.79	43225.01
541.96	42719.46
542.13	42939.47
542.30	43070.54
542.47	42843.51
542.63	43285.87
542.80	43271.82
542.97	43936.54
543.14	43393.53
543.31	43929.51
543.48	43917.81
543.64	44355.49
543.81	44095.69
543.98	44144.84
544.15	43917.81
544.32	44301.66
544.48	44713.59
544.65	44304.00
544.82	44259.53
544.99	43903.77
545.16	44074.63
545.32	43814.83
545.49	44481.88
545.66	44552.10
545.83	44395.28
546.00	44322.72
546.16	44109.74
546.33	44313.36
546.50	43936.54
546.67	44172.93
546.83	43634.61
547.00	44399.96
547.17	44774.45
547.34	44360.17
547.50	44533.37
547.67	44533.37
547.84	44666.78
548.00	45280.00
548.17	44612.95
548.34	44863.39
548.51	45006.16
548.67	44954.67
548.84	44767.43
549.01	44566.14
549.18	44753.38
549.34	45003.82
549.51	44811.90
549.68	44959.35
549.84	45350.22
550.01	45485.97
550.18	45038.93
550.34	45111.49
550.51	44854.03
550.68	45137.23
550.84	44542.74
551.01	45167.66
551.18	44945.31
551.34	45235.53
551.51	45167.66
551.68	45551.51
551.84	45394.69
552.01	44935.95
552.18	45207.45
552.34	45226.17
552.51	45041.27
552.68	45373.63
552.84	45710.66
553.01	46174.09
553.18	45305.75
553.34	45343.20
553.51	45734.07
553.67	45979.82
553.84	46101.53
554.01	45818.33
554.17	45902.59
554.34	46284.09
554.51	45462.57
554.67	45874.50
554.84	45490.65
555.00	45811.31
555.17	45600.66
555.33	45839.39
555.50	45930.67
555.67	45876.84
555.83	45642.79
556.00	46024.29
556.16	46557.94
556.33	46136.64
556.50	45785.56
556.66	46106.21
556.83	45862.80
556.99	46138.98
557.16	46518.15
557.32	46124.94
557.49	46436.23
557.65	45614.70
557.82	45951.74
557.98	45951.74
558.15	46539.21
558.32	46073.45
558.48	46286.43
558.65	46316.86
558.81	46223.24
558.98	46518.15
559.14	45911.95
559.31	46178.77
559.47	46340.27
559.64	46581.34
559.80	46031.32
559.97	46298.14
560.13	46241.96
560.30	45897.91
560.46	46026.63
560.63	46227.92
560.79	46892.63
560.96	46960.51
561.12	47047.11
561.29	46581.34
561.45	46358.99
561.61	46579.00
561.78	46370.69
561.94	46429.21
562.11	46333.24
562.27	46600.07
562.44	46986.25
562.60	46689.01
562.77	46806.03
562.93	46436.23
563.10	46941.78
563.26	46248.99
563.42	46618.79
563.59	46333.24
563.75	46670.28
563.92	46862.21
564.08	46660.92
564.24	47334.99
564.41	46918.38
564.57	46686.67
564.74	46747.52
564.90	46885.61
565.07	46834.12
565.23	46749.86
565.39	46562.62
565.56	46866.89
565.72	46630.49
565.88	46820.08
566.05	47136.05
566.21	46780.29
566.38	47089.24
566.54	47014.34
566.70	47089.24
566.87	46770.93
567.03	46962.85
567.19	47344.36
567.36	47423.93
567.52	46749.86
567.68	46979.23
567.85	46934.76
568.01	46993.28
568.17	46520.49
568.34	47229.67
568.50	46866.89
568.66	47124.35
568.83	46986.25
568.99	46618.79
569.15	46902.00
569.32	46862.21
569.48	46721.77
569.64	47430.96
569.81	47173.50
569.97	46698.37
570.13	47054.13
570.30	47171.16
570.46	46710.07
570.62	46522.83
570.78	47044.77
570.95	46841.14
571.11	47264.78
571.27	46794.33
571.43	47124.35
571.60	47363.08
571.76	46920.72
571.92	47227.33
572.09	46918.38
572.25	46981.57
572.41	47187.54
572.57	47122.01
572.74	47435.64
572.90	47042.43
573.06	47578.41
573.22	47178.18
573.38	47168.82
573.55	47082.22
573.71	47248.39
573.87	47323.29
574.03	47327.97
574.20	47274.14
574.36	47107.96
574.52	47232.01
574.68	46997.96
574.84	47056.47
575.01	47093.92
575.17	47222.65
575.33	47019.02
575.49	47236.69
575.65	47655.65
575.82	47334.99
575.98	47271.80
576.14	47026.04
576.30	47423.93
576.46	47353.72
576.62	46894.97
576.79	47320.95
576.95	46571.98
577.11	47124.35
577.27	47440.32
577.43	47323.29
577.59	46948.81
577.75	46672.62
577.92	46478.36
578.08	46522.83
578.24	46845.82
578.40	46871.57
578.56	47124.35
578.72	46937.10
578.88	47234.35
579.04	47285.84
579.21	46822.42
579.37	46461.97
579.53	46941.78
579.69	47054.13
579.85	47529.26
580.01	47313.93
580.17	47405.21
580.33	47199.24
580.49	47292.86
580.65	47320.95
580.82	47356.06
580.98	47407.55
581.14	46773.27
581.30	47466.06
581.46	46923.06
581.62	47283.50
581.78	47089.24
581.94	47477.77
582.10	47449.68
582.26	47199.24
582.42	47262.44
582.58	47351.38
582.74	47445.00
582.90	47636.92
583.06	47814.80
583.22	47367.76
583.38	47295.21
583.54	47442.66
583.70	47461.38
583.86	47241.37
584.02	46897.31
584.18	47182.86
584.34	47531.60
584.50	47718.84
584.66	47342.02
584.82	46997.96
584.98	47585.43
585.14	47517.56
585.30	47248.39
585.46	47133.71
585.62	47129.03
585.78	47461.38
585.94	46710.07
586.10	47264.78
586.26	46885.61
586.42	47566.71
586.58	47295.21
586.74	47374.78
586.90	47243.71
587.06	46791.99
587.22	47334.99
587.38	47166.48
587.54	47454.36
587.70	47262.44
587.86	46974.55
588.02	47239.03
588.18	47545.64
588.34	47089.24
588.49	47047.11
588.65	46700.71
588.81	46548.57
588.97	46618.79
589.13	46625.81
589.29	47208.61
589.45	47353.72
589.61	46937.10
589.77	47054.13
