SpectraSuite Data File
++++++++++++++++++++++++++++++++++++
Date: Fri Oct 25 10:47:09 EDT 2013
User: price-jones
Dark Spectrum Present: No
Reference Spectrum Present: No
Number of Sampled Component Spectra: 1
Spectrometers: USB2+H05261
Integration Time (usec): 100000 (USB2+H05261)
Spectra Averaged: 1 (USB2+H05261)
Boxcar Smoothing: 0 (USB2+H05261)
Correct for Electrical Dark: No (USB2+H05261)
Strobe/Lamp Enabled: No (USB2+H05261)
Correct for Detector Non-linearity: No (USB2+H05261)
Correct for Stray Light: No (USB2+H05261)
Number of Pixels in Processed Spectrum: 2048
>>>>>Begin Processed Spectral Data<<<<<
365.73	93.62
365.92	93.62
366.12	93.62
366.32	79.58
366.52	60.85
366.72	39.79
366.91	30.43
367.11	0.00
367.31	9.36
367.51	11.70
367.70	56.17
367.90	28.09
368.10	63.19
368.30	18.72
368.49	49.15
368.69	42.13
368.89	14.04
369.09	84.26
369.28	100.64
369.48	72.56
369.68	84.26
369.87	102.98
370.07	39.79
370.27	152.13
370.47	175.54
370.66	341.72
370.86	451.72
371.06	423.64
371.25	526.62
371.45	388.53
371.65	470.45
371.84	456.40
372.04	383.85
372.24	430.66
372.44	461.09
372.63	468.11
372.83	503.22
373.03	561.73
373.22	507.90
373.42	449.38
373.62	517.26
373.81	484.49
374.01	489.17
374.21	512.58
374.40	566.41
374.60	559.39
374.79	615.56
374.99	526.62
375.19	552.37
375.38	566.41
375.58	517.26
375.78	587.47
375.97	589.82
376.17	620.24
376.37	589.82
376.56	587.47
376.76	533.64
376.95	615.56
377.15	582.79
377.35	592.16
377.54	624.92
377.74	526.62
377.93	636.63
378.13	589.82
378.33	587.47
378.52	617.90
378.72	643.65
378.91	550.03
379.11	564.07
379.31	603.86
379.50	575.77
379.70	716.20
379.89	692.80
380.09	564.07
380.28	550.03
380.48	617.90
380.68	615.56
380.87	648.33
381.07	751.31
381.26	688.12
381.46	674.07
381.65	650.67
381.85	613.22
382.04	674.07
382.24	765.36
382.43	730.25
382.63	671.73
382.83	697.48
383.02	704.50
383.22	706.84
383.41	655.35
383.61	655.35
383.80	800.46
384.00	631.94
384.19	767.70
384.39	657.69
384.58	795.78
384.78	770.04
384.97	697.48
385.17	807.48
385.36	791.10
385.56	720.88
385.75	784.08
385.95	774.72
386.14	779.40
386.34	744.29
386.53	781.74
386.72	727.91
386.92	795.78
387.11	866.00
387.31	830.89
387.50	844.93
387.70	770.04
387.89	786.42
388.09	772.38
388.28	896.43
388.48	753.65
388.67	767.70
388.86	795.78
389.06	877.70
389.25	875.36
389.45	945.58
389.64	922.17
389.84	856.64
390.03	912.81
390.22	1001.75
390.42	983.02
390.61	887.06
390.81	915.15
391.00	903.45
391.19	912.81
391.39	964.30
391.58	940.90
391.78	903.45
391.97	1015.79
392.16	936.21
392.36	1029.84
392.55	926.85
392.75	931.53
392.94	847.27
393.13	1036.86
393.33	826.21
393.52	884.72
393.71	1039.20
393.91	1020.47
394.10	992.39
394.29	1041.54
394.49	985.37
394.68	1048.56
394.88	1015.79
395.07	1076.65
395.26	1048.56
395.46	1078.99
395.65	1064.94
395.84	1170.27
396.04	1130.48
396.23	1167.93
396.42	1043.88
396.62	1181.97
396.81	1144.52
397.00	1100.05
397.19	1149.20
397.39	1174.95
397.58	1252.19
397.77	1224.10
397.97	1245.16
398.16	1198.35
398.35	1259.21
398.55	1273.25
398.74	1261.55
398.93	1366.87
399.12	1338.79
399.32	1341.13
399.51	1369.21
399.70	1373.89
399.90	1345.81
400.09	1350.49
400.28	1350.49
400.47	1296.66
400.67	1411.34
400.86	1418.36
401.05	1404.32
401.24	1394.96
401.44	1479.22
401.63	1432.41
401.82	1497.94
402.01	1441.77
402.21	1537.73
402.40	1523.69
402.59	1476.88
402.78	1540.07
402.97	1446.45
403.17	1533.05
403.36	1589.22
403.55	1535.39
403.74	1519.01
403.93	1542.41
404.13	1523.69
404.32	1586.88
404.51	1533.05
404.70	1640.72
404.89	1624.33
405.09	1732.00
405.28	1678.16
405.47	1708.59
405.66	1659.44
405.85	1720.29
406.05	1659.44
406.24	1788.17
406.43	1778.81
406.62	1706.25
406.81	1886.47
407.00	1816.26
407.20	1739.02
407.39	1874.77
407.58	1856.04
407.77	1832.64
407.96	1827.96
408.15	1907.54
408.34	1893.49
408.54	1996.48
408.73	2080.74
408.92	2003.50
409.11	1912.22
409.30	1928.60
409.49	2141.59
409.68	2148.61
409.87	2108.82
410.07	2024.56
410.26	2078.40
410.45	2094.78
410.64	2080.74
410.83	2146.27
411.02	2183.72
411.21	2307.77
411.40	2181.38
411.59	2333.51
411.78	2256.28
411.98	2218.83
412.17	2279.68
412.36	2296.07
412.55	2354.58
412.74	2392.03
412.93	2427.14
413.12	2317.13
413.31	2478.63
413.50	2464.58
413.69	2457.56
413.88	2532.46
414.07	2548.84
414.26	2452.88
414.45	2572.25
414.64	2579.27
414.83	2513.74
415.02	2696.30
415.22	2771.19
415.41	2665.87
415.60	2700.98
415.79	2630.76
415.98	2754.81
416.17	2773.53
416.36	2843.75
416.55	2822.69
416.74	2925.67
416.93	2885.88
417.12	2834.39
417.31	2885.88
417.50	3019.29
417.69	3143.34
417.88	3012.27
418.07	2998.23
418.26	2916.31
418.45	3115.25
418.64	3091.85
418.83	3143.34
419.02	3042.70
419.21	3073.12
419.39	3178.45
419.58	3124.62
419.77	3166.74
419.96	3246.32
420.15	3215.90
420.34	3180.79
420.53	3124.62
420.72	3211.22
420.91	3304.84
421.10	3356.33
421.29	3356.33
421.48	3311.86
421.67	3304.84
421.86	3276.75
422.05	3267.39
422.24	3339.94
422.43	3330.58
422.61	3349.31
422.80	3529.53
422.99	3501.44
423.18	3459.31
423.37	3644.21
423.56	3468.67
423.75	3419.52
423.94	3454.63
424.13	3194.83
424.32	3239.30
424.50	3543.57
424.69	3492.08
424.88	3620.81
425.07	3424.20
425.26	3463.99
425.45	3377.39
425.64	3475.70
425.83	3468.67
426.01	3545.91
426.20	3613.79
426.39	3583.36
426.58	3487.40
426.77	3564.64
426.96	3480.38
427.15	3648.90
427.33	3555.27
427.52	3667.62
427.71	3775.28
427.90	3693.37
428.09	3716.77
428.28	3737.84
428.46	3700.39
428.65	3637.19
428.84	3850.18
429.03	3854.86
429.22	3679.32
429.40	3707.41
429.59	3801.03
429.78	3557.61
429.97	3597.40
430.16	3576.34
430.34	3754.22
430.53	3904.01
430.72	3805.71
430.91	3866.56
431.10	3728.47
431.28	3885.29
431.47	4152.11
431.66	4081.89
431.85	4037.42
432.03	4072.53
432.22	4222.33
432.41	4035.08
432.60	4184.88
432.79	4257.43
432.97	4257.43
433.16	4138.07
433.35	4133.39
433.54	4203.60
433.72	4388.50
433.91	4224.67
434.10	4264.46
434.28	4161.47
434.47	4390.84
434.66	4283.18
434.85	4344.03
435.03	4250.41
435.22	4243.39
435.41	4526.60
435.59	4390.84
435.78	4519.57
435.97	4482.13
436.16	4585.11
436.34	4547.66
436.53	4550.00
436.72	4582.77
436.90	4533.62
437.09	4627.24
437.28	4615.54
437.46	4561.70
437.65	4683.41
437.84	4795.76
438.02	4617.88
438.21	4657.67
438.40	4528.94
438.58	4875.34
438.77	4919.81
438.96	4746.61
439.14	4952.57
439.33	5011.09
439.52	4812.14
439.70	4980.66
439.89	5053.22
440.08	4985.34
440.26	5050.88
440.45	4978.32
440.63	5137.48
440.82	5336.42
441.01	5334.08
441.19	5233.44
441.38	5362.17
441.57	5308.34
441.75	5371.53
441.94	5427.70
442.12	5514.30
442.31	5633.67
442.50	5666.44
442.68	5530.69
442.87	5516.64
443.05	5628.99
443.24	5781.12
443.43	5680.48
443.61	5624.31
443.80	5844.32
443.98	5526.00
444.17	5425.36
444.35	5804.53
444.54	5774.10
444.73	5783.46
444.91	5650.05
445.10	5696.86
445.28	5811.55
445.47	5533.03
445.65	5598.56
445.84	5678.14
446.02	5762.40
446.21	5724.95
446.39	5638.35
446.58	5788.14
446.77	5844.32
446.95	5867.72
447.14	5841.98
447.32	5856.02
447.51	5774.10
447.69	5872.40
447.88	5905.17
448.06	6120.50
448.25	5755.38
448.43	6024.54
448.62	5933.26
448.80	5783.46
448.99	6054.97
449.17	6015.18
449.36	5956.66
449.54	5982.41
449.73	6120.50
449.91	6066.67
450.10	6141.57
450.28	6174.33
450.46	6314.77
450.65	6115.82
450.83	6289.02
451.02	6216.46
451.20	6291.36
451.39	6289.02
451.57	6171.99
451.76	6232.85
451.94	6230.51
452.13	6555.84
452.31	6457.54
452.49	6260.93
452.68	6581.59
452.86	6478.60
453.05	6174.33
453.23	6518.39
453.42	6389.66
453.60	6415.41
453.78	6525.41
453.97	6431.79
454.15	6511.37
454.34	6651.80
454.52	6675.21
454.70	6696.27
454.89	6649.46
455.07	6597.97
455.26	6572.22
455.44	6799.26
455.62	6588.61
455.81	6843.73
455.99	6857.77
456.17	6724.36
456.36	6895.22
456.54	6920.96
456.73	6904.58
456.91	7037.99
457.09	7140.97
457.28	7384.39
457.46	6984.16
457.64	7155.02
457.83	6953.73
458.01	7101.19
458.19	7239.28
458.38	7119.91
458.56	7283.75
458.74	7297.79
458.93	7082.46
459.11	7286.09
459.29	7297.79
459.48	7386.73
459.66	7363.33
459.84	7417.16
460.03	7470.99
460.21	7639.51
460.39	7545.89
460.57	7543.55
460.76	7461.63
460.94	7648.87
461.12	7583.34
461.31	7620.78
461.49	7616.10
461.67	7634.83
461.85	7768.24
462.04	7765.90
462.22	8290.18
462.40	7831.43
462.59	7906.33
462.77	7756.54
462.95	7847.82
463.13	7873.56
463.32	7915.69
463.50	7950.80
463.68	7939.10
463.86	8025.70
464.05	7838.45
464.23	7770.58
464.41	8079.53
464.59	8016.33
464.78	8119.32
464.96	7999.95
465.14	8037.40
465.32	8336.99
465.50	8191.88
465.69	8248.05
465.87	8262.09
466.05	8086.55
466.23	7981.23
466.41	8273.79
466.60	8479.76
466.78	8269.11
466.96	8166.13
467.14	8175.49
467.32	8409.54
467.51	8531.25
467.69	8152.09
467.87	8285.50
468.05	8439.97
468.23	8360.39
468.41	8250.39
468.60	8549.98
468.78	8575.72
468.96	8496.14
469.14	8744.24
469.32	8683.39
469.50	8446.99
469.69	8692.75
469.87	8805.10
470.05	8699.77
470.23	8821.48
470.41	8791.05
470.59	8788.71
470.77	8748.92
470.95	8922.12
471.14	9170.22
471.32	9006.38
471.50	8950.21
471.68	9144.47
471.86	9205.33
472.04	9116.39
472.22	9413.63
472.40	9186.60
472.58	8971.27
472.77	9334.06
472.95	9263.84
473.13	9675.77
473.31	9472.15
473.49	9312.99
473.67	9507.26
473.85	9635.99
474.03	9762.37
474.21	9811.53
474.39	9944.94
474.57	9715.56
474.75	9916.85
474.93	9940.26
475.12	10017.49
475.30	10092.39
475.48	10331.12
475.66	10251.55
475.84	10120.48
476.02	10118.14
476.20	10111.11
476.38	10317.08
476.56	10604.97
476.74	10511.35
476.92	10551.14
477.10	10588.58
477.28	10691.57
477.46	10555.82
477.64	10771.15
477.82	11000.52
478.00	11143.29
478.18	11248.61
478.36	11138.61
478.54	11421.81
478.72	11466.28
478.90	11396.07
479.08	11585.65
479.26	11812.68
479.44	11885.24
479.62	11831.41
479.80	11915.67
479.98	12072.48
480.16	12446.97
480.34	12243.34
480.52	12133.34
480.70	12304.20
480.88	12053.76
481.06	12674.00
481.24	12432.93
481.41	12812.09
481.59	12917.42
481.77	12741.88
481.95	13043.81
482.13	13060.19
482.31	13107.00
482.49	13467.44
482.67	13193.60
482.85	13254.45
483.03	13664.05
483.21	13635.96
483.39	13729.58
483.57	13998.74
483.74	13802.14
483.92	14377.91
484.10	13989.38
484.28	14260.88
484.46	14307.69
484.64	14878.79
484.82	14618.99
485.00	14597.92
485.18	14993.47
485.35	14881.13
485.53	14972.41
485.71	14897.51
485.89	15026.24
486.07	15028.58
486.25	15176.03
486.43	15145.61
486.61	15726.06
486.78	15779.89
486.96	15896.92
487.14	16027.99
487.32	16042.03
487.50	16100.55
487.68	16409.50
487.85	16327.58
488.03	16542.91
488.21	16765.26
488.39	16657.59
488.57	17029.74
488.75	17015.69
488.92	17322.30
489.10	17231.02
489.28	17439.33
489.46	17710.83
489.64	17619.55
489.81	18097.02
489.99	18082.98
490.17	17848.93
490.35	18504.28
490.53	18441.08
490.70	18700.88
490.88	18534.70
491.06	18633.00
491.24	18583.85
491.41	18855.36
491.59	18860.04
491.77	19026.21
491.95	19054.30
492.13	19234.52
492.30	19543.47
492.48	19655.82
492.66	19768.16
492.84	19843.06
493.01	19854.76
493.19	19728.38
493.37	20154.35
493.54	20163.72
493.72	20404.79
493.90	20205.84
494.08	20669.27
494.25	20858.85
494.43	20954.82
494.61	21238.02
494.79	21191.21
494.96	21071.84
495.14	21415.90
495.32	21355.05
495.49	21577.40
495.67	21579.74
495.85	21642.93
496.02	21841.88
496.20	22230.41
496.38	21869.97
496.55	22387.22
496.73	22817.88
496.91	22288.92
497.09	22560.42
497.26	22775.75
497.44	22874.06
497.62	22668.09
497.79	23096.41
497.97	23019.17
498.14	23037.89
498.32	23503.66
498.50	23426.42
498.67	23569.19
498.85	23482.59
499.03	23915.59
499.20	23793.89
499.38	23779.84
499.56	24278.38
499.73	24196.46
499.91	24093.47
500.08	24219.86
500.26	24034.96
500.44	24453.92
500.61	24685.63
500.79	24620.10
500.97	24627.12
501.14	24940.75
501.32	25083.52
501.49	24790.95
501.67	25074.16
501.84	25200.55
502.02	25333.96
502.20	25348.00
502.37	25612.48
502.55	25240.34
502.72	25582.06
502.90	25680.36
503.07	25689.72
503.25	25710.78
503.43	25455.67
503.60	26008.03
503.78	26211.66
503.95	25961.22
504.13	26202.30
504.30	26436.35
504.48	26382.52
504.65	26483.16
504.83	26431.67
505.01	26536.99
505.18	26534.65
505.36	26738.28
505.53	26836.58
505.71	27061.27
505.88	26981.70
506.06	27122.13
506.23	27407.67
506.41	26845.94
506.58	27201.71
506.76	26855.31
506.93	27438.10
507.11	27402.99
507.28	27917.91
507.46	27281.28
507.63	27707.26
507.81	28039.62
507.98	27489.59
508.16	27835.99
508.33	28067.70
508.50	28002.17
508.68	28233.88
508.85	28446.87
509.03	28306.44
509.20	28617.73
509.38	28922.00
509.55	28858.81
509.73	28905.62
509.90	28599.01
510.08	28617.73
510.25	28886.89
510.42	29261.38
510.60	29240.31
510.77	29677.99
510.95	29607.78
511.12	29132.65
511.30	29591.39
511.47	29879.28
511.64	29654.59
511.82	29825.45
511.99	29453.30
512.17	30115.67
512.34	29886.30
512.51	30038.44
512.69	30036.09
512.86	30195.25
513.04	30419.94
513.21	30529.95
513.38	30441.01
513.56	30866.98
513.73	29795.02
513.90	30377.81
514.08	30642.29
514.25	30656.34
514.43	30534.63
514.60	30703.15
514.77	30848.26
514.95	31463.82
515.12	31335.09
515.29	30820.17
515.47	31075.29
515.64	30986.35
515.81	31154.87
515.99	31311.69
516.16	31454.46
516.33	31388.92
516.51	31740.00
516.68	31262.54
516.85	31136.15
517.03	31646.38
517.20	31721.28
517.37	31466.16
517.54	31660.43
517.72	31632.34
517.89	31768.09
518.06	32044.27
518.24	32266.63
518.41	31763.41
518.58	32236.20
518.75	32123.85
518.93	32465.57
519.10	32467.91
519.27	32161.30
519.45	32837.72
519.62	32638.77
519.79	32776.86
519.96	33226.24
520.14	32994.53
520.31	32418.76
520.48	33383.06
520.65	33017.94
520.83	33394.76
521.00	33682.65
521.17	33181.77
521.34	33539.88
521.52	33310.50
521.69	33366.68
521.86	33617.11
522.03	33743.50
522.20	33970.54
522.38	33811.38
522.55	33933.09
522.72	33982.24
522.89	33853.51
523.07	34796.74
523.24	33804.36
523.41	34244.38
523.58	34218.63
523.75	34366.09
523.92	34288.85
524.10	34223.31
524.27	34660.99
524.44	34448.00
524.61	34452.69
524.78	34953.56
524.96	34866.96
525.13	34864.62
525.30	35077.61
525.47	35487.20
525.64	35129.10
525.81	35323.36
525.98	35426.35
526.16	34932.50
526.33	34726.53
526.50	35463.80
526.67	35318.68
526.84	35365.49
527.01	35204.00
527.18	35349.11
527.36	35388.90
527.53	35791.47
527.70	36009.14
527.87	35828.92
528.04	35611.25
528.21	35611.25
528.38	35548.06
528.55	35920.20
528.72	35887.43
528.89	36259.58
529.07	36203.41
529.24	36182.34
529.41	36320.43
529.58	36308.73
529.75	36282.98
529.92	36591.94
530.09	36540.44
530.26	36638.75
530.43	36591.94
530.60	35992.76
530.77	36542.78
530.94	36840.03
531.11	36847.05
531.28	36730.03
531.46	36971.10
531.63	37085.79
531.80	36854.08
531.97	37038.98
532.14	36575.55
532.31	36877.48
532.48	37228.56
532.65	37333.89
532.82	36692.58
532.99	37226.22
533.16	36814.29
533.33	37254.31
533.50	37308.14
533.67	37263.67
533.84	37858.17
534.01	37563.26
534.18	37156.00
534.35	37865.19
534.52	37673.26
534.69	38291.16
534.86	38003.28
535.03	38036.05
535.20	38368.40
535.37	38445.64
535.54	38162.43
535.71	37839.44
535.88	38312.23
536.05	38188.18
536.22	38464.36
536.38	38543.94
536.55	38197.54
536.72	38218.61
536.89	37841.78
537.06	38220.95
537.23	38345.00
537.40	38782.68
537.57	38904.38
537.74	38450.32
537.91	39189.93
538.08	38651.61
538.25	38536.92
538.42	38689.06
538.59	38885.66
538.75	38181.16
538.92	38965.24
539.09	38983.96
539.26	38827.15
539.43	38792.04
539.60	39171.21
539.77	38869.28
539.94	39304.62
540.11	39164.18
540.28	39126.74
540.44	38967.58
540.61	38635.22
540.78	39138.44
540.95	38888.00
541.12	38658.63
541.29	39178.23
541.46	39337.38
541.62	39147.80
541.79	40212.74
541.96	39288.23
542.13	39643.99
542.30	39571.44
542.47	39276.53
542.63	39452.07
542.80	39845.28
542.97	40299.34
543.14	40114.44
543.31	39955.29
543.48	40072.31
543.64	40924.27
543.81	39901.45
543.98	40278.28
544.15	40428.07
544.32	40849.37
544.48	40840.01
544.65	40517.01
544.82	40278.28
544.99	40229.13
545.16	40811.92
545.32	40142.53
545.49	40669.15
545.66	40378.92
545.83	40465.52
546.00	41111.51
546.16	40818.94
546.33	40641.06
546.50	40910.22
546.67	40697.24
546.83	40385.94
547.00	40879.80
547.17	40399.99
547.34	40697.24
547.50	40968.74
547.67	41427.48
547.84	40720.64
548.00	41324.50
548.17	41591.32
548.34	41174.70
548.51	40947.67
548.67	41308.11
548.84	41191.09
549.01	41095.13
549.18	41488.34
549.34	41298.75
549.51	41556.21
549.68	41408.76
549.84	41689.62
550.01	41645.15
550.18	41617.07
550.34	41490.68
550.51	41617.07
550.68	41570.25
550.84	41467.27
551.01	41993.89
551.18	41478.97
551.34	41780.90
551.51	41603.02
551.68	42087.51
551.84	42021.98
552.01	41633.45
552.18	41984.53
552.34	41652.17
552.51	42478.38
552.68	41811.33
552.84	42143.69
553.01	42244.33
553.18	42108.58
553.34	41986.87
553.51	42197.52
553.67	42337.95
553.84	42562.64
554.01	42347.31
554.17	42216.24
554.34	42845.85
554.51	42405.83
554.67	42653.92
554.84	42560.30
555.00	42487.74
555.17	42277.10
555.33	42792.01
555.50	42607.11
555.67	42438.59
555.83	42724.14
556.00	42623.50
556.16	43117.35
556.33	42993.30
556.50	42581.37
556.66	42724.14
556.83	42792.01
556.99	42806.06
557.16	43384.17
557.32	42895.00
557.49	42808.40
557.65	42607.11
557.82	42799.04
557.98	42829.46
558.15	42679.67
558.32	42948.83
558.48	42974.58
558.65	43105.65
558.81	42972.24
558.98	43117.35
559.14	43063.52
559.31	43079.90
559.47	42684.35
559.64	43267.14
559.80	43014.37
559.97	43262.46
560.13	43316.29
560.30	42862.23
560.46	42820.10
560.63	43136.07
560.79	43171.18
560.96	43496.52
561.12	43189.91
561.29	43498.86
561.45	43529.28
561.61	43480.13
561.78	43487.15
561.94	43468.43
562.11	43129.05
562.27	43365.45
562.44	43636.95
562.60	43241.40
562.77	43842.92
562.93	43679.08
563.10	43433.32
563.26	43232.04
563.42	43573.75
563.59	43737.59
563.75	43892.07
563.92	43615.88
564.08	43351.40
564.24	43636.95
564.41	43859.30
564.57	43545.67
564.74	43796.10
564.90	43587.80
565.07	43786.74
565.23	43349.06
565.39	43447.36
565.56	43753.97
565.72	43484.81
565.88	43978.67
566.05	43562.05
566.21	43775.04
566.38	43901.43
566.54	43522.26
566.70	43777.38
566.87	44346.13
567.03	43723.55
567.19	44039.52
567.36	44058.24
567.52	43665.03
567.68	44271.23
567.85	43601.84
568.01	43985.69
568.17	43416.94
568.34	43976.33
568.50	43948.24
568.66	43835.89
568.83	43983.35
568.99	43796.10
569.15	44128.46
569.32	43517.58
569.48	44161.23
569.64	44088.67
569.81	44252.51
569.97	44046.54
570.13	44282.94
570.30	44039.52
570.46	43859.30
570.62	43466.09
570.78	43803.13
570.95	43690.78
571.11	44390.60
571.27	43622.90
571.43	43742.27
571.60	44149.53
571.76	43805.47
571.92	43592.48
572.09	43681.42
572.25	44044.20
572.41	43885.04
572.57	43976.33
572.74	44598.91
572.90	44339.11
573.06	43796.10
573.22	44079.31
573.38	43924.83
573.55	43826.53
573.71	44016.11
573.87	43936.54
574.03	44109.74
574.20	44135.48
574.36	44046.54
574.52	44098.03
574.68	44172.93
574.84	44395.28
575.01	44224.42
575.17	44179.95
575.33	43878.02
575.49	44304.00
575.65	44266.55
575.82	44776.79
575.98	44034.84
576.14	44769.77
576.30	44137.82
576.46	43831.21
576.62	44062.93
576.79	44664.44
576.95	44126.12
577.11	44245.49
577.27	44252.51
577.43	44016.11
577.59	44250.17
577.75	44243.15
577.92	44236.12
578.08	44388.26
578.24	44531.03
578.40	44376.56
578.56	43981.01
578.72	44271.23
578.88	44170.59
579.04	44528.69
579.21	44222.08
579.37	43842.92
579.53	44411.67
579.69	43859.30
579.85	43934.20
580.01	44556.78
580.17	44205.70
580.33	44465.50
580.49	44725.30
580.65	44390.60
580.82	44748.70
580.98	44156.55
581.14	43803.13
581.30	44825.94
581.46	44116.76
581.62	44547.42
581.78	44711.25
581.94	45064.67
582.10	44526.35
582.26	44839.98
582.42	44381.24
582.58	44301.66
582.74	44355.49
582.90	44697.21
583.06	44957.01
583.22	44353.15
583.38	44671.46
583.54	44577.84
583.70	44154.21
583.86	44334.43
584.02	44456.14
584.18	44243.15
584.34	44563.80
584.50	44362.51
584.66	44470.18
584.82	44041.86
584.98	44935.95
585.14	44416.35
585.30	44275.91
585.46	44404.64
585.62	44060.58
585.78	44318.04
585.94	44086.33
586.10	44507.63
586.26	44629.34
586.42	44149.53
586.58	44280.60
586.74	44692.53
586.90	44315.70
587.06	44582.52
587.22	44502.95
587.38	44437.41
587.54	44612.95
587.70	44746.36
587.86	44516.99
588.02	44416.35
588.18	44725.30
588.34	44776.79
588.49	44362.51
588.65	44271.23
588.81	44172.93
588.97	44449.11
589.13	44264.21
589.29	44732.32
589.45	44725.30
589.61	44825.94
589.77	44474.86
589.93	44804.88
590.08	45209.79
590.24	44657.42
590.40	44570.82
