SpectraSuite Data File
++++++++++++++++++++++++++++++++++++
Date: Fri Oct 25 10:43:46 EDT 2013
User: price-jones
Dark Spectrum Present: No
Reference Spectrum Present: No
Number of Sampled Component Spectra: 1
Spectrometers: USB2+H05261
Integration Time (usec): 100000 (USB2+H05261)
Spectra Averaged: 1 (USB2+H05261)
Boxcar Smoothing: 0 (USB2+H05261)
Correct for Electrical Dark: No (USB2+H05261)
Strobe/Lamp Enabled: No (USB2+H05261)
Correct for Detector Non-linearity: No (USB2+H05261)
Correct for Stray Light: No (USB2+H05261)
Number of Pixels in Processed Spectrum: 2048
>>>>>Begin Processed Spectral Data<<<<<
365.73	79.58
365.92	79.58
366.12	79.58
366.32	51.49
366.52	44.47
366.72	23.41
366.91	0.00
367.11	0.00
367.31	0.00
367.51	7.02
367.70	4.68
367.90	14.04
368.10	58.51
368.30	21.06
368.49	32.77
368.69	37.45
368.89	7.02
369.09	53.83
369.28	53.83
369.48	156.82
369.68	56.17
369.87	7.02
370.07	110.01
370.27	117.03
370.47	133.41
370.66	381.51
370.86	463.43
371.06	400.23
371.25	442.36
371.45	416.62
371.65	533.64
371.84	461.09
372.04	414.27
372.24	428.32
372.44	493.85
372.63	550.03
372.83	507.90
373.03	512.58
373.22	559.39
373.42	512.58
373.62	592.16
373.81	571.09
374.01	566.41
374.21	498.53
374.40	486.83
374.60	580.45
374.79	589.82
374.99	664.71
375.19	540.66
375.38	660.03
375.58	580.45
375.78	592.16
375.97	650.67
376.17	561.73
376.37	540.66
376.56	578.11
376.76	606.20
376.95	571.09
377.15	688.12
377.35	676.41
377.54	566.41
377.74	660.03
377.93	655.35
378.13	662.37
378.33	685.78
378.52	615.56
378.72	657.69
378.91	676.41
379.11	660.03
379.31	622.58
379.50	655.35
379.70	706.84
379.89	657.69
380.09	746.63
380.28	674.07
380.48	718.54
380.68	683.44
380.87	657.69
381.07	645.99
381.26	723.23
381.46	718.54
381.65	683.44
381.85	681.10
382.04	638.97
382.24	706.84
382.43	690.46
382.63	683.44
382.83	823.87
383.02	706.84
383.22	755.99
383.41	741.95
383.61	671.73
383.80	748.97
384.00	678.76
384.19	772.38
384.39	765.36
384.58	774.72
384.78	774.72
384.97	774.72
385.17	758.33
385.36	842.59
385.56	795.78
385.75	758.33
385.95	903.45
386.14	889.40
386.34	788.76
386.53	772.38
386.72	774.72
386.92	779.40
387.11	866.00
387.31	873.02
387.50	828.55
387.70	894.08
387.89	945.58
388.09	938.55
388.28	861.32
388.48	828.55
388.67	889.40
388.86	896.43
389.06	887.06
389.25	1004.09
389.45	952.60
389.64	947.92
389.84	964.30
390.03	1032.18
390.22	1015.79
390.42	1034.52
390.61	1020.47
390.81	990.05
391.00	1053.24
391.19	1011.11
391.39	992.39
391.58	1076.65
391.78	1020.47
391.97	1053.24
392.16	980.68
392.36	1067.28
392.55	1039.20
392.75	1022.81
392.94	1006.43
393.13	994.73
393.33	1039.20
393.52	1025.15
393.71	1156.22
393.91	1034.52
394.10	1111.75
394.29	1181.97
394.49	1170.27
394.68	1142.18
394.88	1142.18
395.07	1111.75
395.26	1184.31
395.46	1287.29
395.65	1294.32
395.84	1252.19
396.04	1153.88
396.23	1118.78
396.42	1139.84
396.62	1200.69
396.81	1210.06
397.00	1200.69
397.19	1224.10
397.39	1273.25
397.58	1401.98
397.77	1437.09
397.97	1380.92
398.16	1437.09
398.35	1427.73
398.55	1446.45
398.74	1483.90
398.93	1437.09
399.12	1434.75
399.32	1448.79
399.51	1460.49
399.70	1598.59
399.90	1427.73
400.09	1474.54
400.28	1734.34
400.47	1561.14
400.67	1591.56
400.86	1605.61
401.05	1643.06
401.24	1708.59
401.44	1621.99
401.63	1743.70
401.82	1692.21
402.01	1600.93
402.21	1743.70
402.40	1572.84
402.59	1753.06
402.78	1760.08
402.97	1699.23
403.17	1769.44
403.36	1830.30
403.55	1776.47
403.74	1874.77
403.93	1739.02
404.13	1825.62
404.32	1802.21
404.51	1874.77
404.70	1937.96
404.89	1820.94
405.09	1933.28
405.28	1888.81
405.47	1853.70
405.66	1926.26
405.85	1834.98
406.05	1959.03
406.24	1914.56
406.43	1980.09
406.62	2043.29
406.81	2080.74
407.00	2001.16
407.20	2087.76
407.39	1998.82
407.58	2129.89
407.77	2188.40
407.96	2167.34
408.15	2279.68
408.34	2186.06
408.54	2225.85
408.73	2228.19
408.92	2319.47
409.11	2321.81
409.30	2326.49
409.49	2258.62
409.68	2284.36
409.87	2253.94
410.07	2324.15
410.26	2377.98
410.45	2284.36
410.64	2485.65
410.83	2480.97
411.02	2455.22
411.21	2450.54
411.40	2483.31
411.59	2597.99
411.78	2597.99
411.98	2544.16
412.17	2623.74
412.36	2691.62
412.55	2696.30
412.74	2778.22
412.93	2729.06
413.12	2651.83
413.31	2846.09
413.50	2878.86
413.69	2902.26
413.88	2916.31
414.07	2909.29
414.26	2988.86
414.45	2881.20
414.64	2956.10
414.83	2949.08
415.02	3019.29
415.22	3096.53
415.41	3131.64
415.60	3213.56
415.79	3052.06
415.98	3267.39
416.17	3255.69
416.36	3243.98
416.55	3201.85
416.74	3115.25
416.93	3199.51
417.12	3218.24
417.31	3192.49
417.50	3389.10
417.69	3346.97
417.88	3323.56
418.07	3300.16
418.26	3412.50
418.45	3541.23
418.64	3527.19
418.83	3468.67
419.02	3499.10
419.21	3627.83
419.39	3578.68
419.58	3424.20
419.77	3407.82
419.96	3515.48
420.15	3611.45
420.34	3485.06
420.53	3651.24
420.72	3644.21
420.91	3789.33
421.10	3676.98
421.29	3836.14
421.48	3667.62
421.67	3700.39
421.86	3618.47
422.05	3805.71
422.24	3765.92
422.43	3812.73
422.61	3758.90
422.80	3833.80
422.99	3866.56
423.18	3866.56
423.37	3861.88
423.56	3871.25
423.75	3999.98
423.94	3948.48
424.13	3578.68
424.32	3803.37
424.50	3904.01
424.69	4025.72
424.88	3861.88
425.07	3894.65
425.26	3894.65
425.45	3936.78
425.64	3885.29
425.83	3873.59
426.01	3969.55
426.20	3906.35
426.39	3946.14
426.58	3918.06
426.77	3971.89
426.96	3829.12
427.15	3889.97
427.33	3997.64
427.52	4152.11
427.71	4021.04
427.90	4236.37
428.09	4161.47
428.28	4049.13
428.46	4081.89
428.65	4025.72
428.84	4180.20
429.03	4217.65
429.22	4100.62
429.40	4107.64
429.59	4121.68
429.78	3761.24
429.97	3925.08
430.16	3950.82
430.34	3992.95
430.53	4086.58
430.72	4198.92
430.91	4196.58
431.10	4383.82
431.28	4444.68
431.47	4510.21
431.66	4526.60
431.85	4425.95
432.03	4617.88
432.22	4552.34
432.41	4491.49
432.60	4571.07
432.79	4620.22
432.97	4692.77
433.16	4819.16
433.35	4617.88
433.54	4550.00
433.72	4486.81
433.91	4655.33
434.10	4702.14
434.28	4624.90
434.47	4486.81
434.66	4868.31
434.85	4931.51
435.03	4940.87
435.22	4901.08
435.41	5090.67
435.59	4971.30
435.78	5128.11
435.97	5022.79
436.16	5057.90
436.34	4966.62
436.53	5025.13
436.72	5142.16
436.90	5048.54
437.09	5167.90
437.28	4971.30
437.46	5200.67
437.65	4973.64
437.84	5081.30
438.02	5053.22
438.21	5214.71
438.40	5104.71
438.58	5247.48
438.77	5451.11
438.96	5383.23
439.14	5441.75
439.33	5341.10
439.52	5514.30
439.70	5582.18
439.89	5682.82
440.08	5666.44
440.26	5610.26
440.45	5687.50
440.63	5774.10
440.82	5774.10
441.01	5746.02
441.19	5998.79
441.38	6043.26
441.57	6064.33
441.75	6106.46
441.94	6015.18
442.12	6171.99
442.31	6286.68
442.50	6232.85
442.68	6129.86
442.87	6211.78
443.05	6258.59
443.24	6253.91
443.43	6284.34
443.61	6450.52
443.80	6466.90
443.98	6193.06
444.17	6420.09
444.35	6284.34
444.54	6534.78
444.73	6321.79
444.91	6335.83
445.10	6324.13
445.28	6272.64
445.47	6197.74
445.65	6399.02
445.84	6417.75
446.02	6452.86
446.21	6373.28
446.39	6504.35
446.58	6663.51
446.77	6649.46
446.95	6480.94
447.14	6506.69
447.32	6602.65
447.51	6436.47
447.69	6434.13
447.88	6654.14
448.06	6750.10
448.25	6731.38
448.43	6832.02
448.62	6616.69
448.80	6703.29
448.99	6651.80
449.17	6832.02
449.36	6696.27
449.54	6846.07
449.73	6909.26
449.91	7119.91
450.10	7030.97
450.28	7098.84
450.46	6963.09
450.65	7082.46
450.83	7080.12
451.02	7103.53
451.20	7187.79
451.39	7269.70
451.57	7143.32
451.76	6967.77
451.94	7187.79
452.13	7096.50
452.31	7115.23
452.49	7054.37
452.68	6935.01
452.86	7145.66
453.05	7157.36
453.23	7211.19
453.42	7419.50
453.60	7126.93
453.78	7351.62
453.97	7410.14
454.15	7187.79
454.34	7377.37
454.52	7335.24
454.70	7260.34
454.89	7555.25
455.07	7452.27
455.26	7463.97
455.44	7489.71
455.62	7669.94
455.81	7592.70
455.99	7524.82
456.17	7625.47
456.36	7812.71
456.54	7784.62
456.73	7997.61
456.91	7894.63
457.09	8131.02
457.28	8210.60
457.46	7882.92
457.64	7906.33
457.83	7885.26
458.01	7929.74
458.19	8084.21
458.38	8152.09
458.56	8266.77
458.74	8266.77
458.93	8006.97
459.11	8128.68
459.29	8418.91
459.48	8407.20
459.66	8109.96
459.84	8107.62
460.03	8278.47
460.21	8435.29
460.39	8442.31
460.57	8444.65
460.76	8421.25
460.94	8753.60
461.12	8601.47
461.31	8657.64
461.49	8587.43
461.67	8662.32
461.85	8741.90
462.04	8760.63
462.22	8685.73
462.40	8870.63
462.59	8809.78
462.77	8575.72
462.95	8688.07
463.13	8936.17
463.32	8716.16
463.50	8807.44
463.68	8844.88
463.86	8847.22
464.05	8896.38
464.23	8863.61
464.41	8858.93
464.59	8716.16
464.78	8971.27
464.96	8910.42
465.14	8851.91
465.32	9018.08
465.50	9050.85
465.69	9177.24
465.87	9224.05
466.05	9301.29
466.23	8943.19
466.41	9179.58
466.60	9467.47
466.78	9020.42
466.96	9004.04
467.14	9315.33
467.32	9479.17
467.51	9418.32
467.69	9200.65
467.87	9205.33
468.05	9427.68
468.23	9240.44
468.41	9392.57
468.60	9561.09
468.78	9518.96
468.96	9430.02
469.14	9437.04
469.32	9687.48
469.50	9221.71
469.69	9525.98
469.87	9809.19
470.05	9767.06
470.23	9659.39
470.41	9792.80
470.59	9907.49
470.77	9701.52
470.95	9982.38
471.14	10134.52
471.32	10019.83
471.50	10139.20
471.68	10108.77
471.86	10279.63
472.04	10190.69
472.22	10546.45
472.40	10492.62
472.58	10331.12
472.77	10359.21
472.95	10555.82
473.13	10619.01
473.31	10335.81
473.49	10253.89
473.67	10389.64
473.85	10396.66
474.03	10846.04
474.21	11042.65
474.39	10881.15
474.57	10995.84
474.75	10979.45
474.93	10998.18
475.12	10892.85
475.30	11028.60
475.48	11066.05
475.66	11260.32
475.84	10864.77
476.02	11281.38
476.20	11211.17
476.38	11559.91
476.56	11672.25
476.74	11630.12
476.92	11473.31
477.10	11571.61
477.28	11829.07
477.46	11983.54
477.64	12100.57
477.82	12262.07
478.00	12334.62
478.18	12404.84
478.36	12484.42
478.54	12617.83
478.72	12538.25
478.90	12765.28
479.08	12961.89
479.26	12861.24
479.44	12779.32
479.62	13156.15
479.80	12910.40
479.98	13149.13
480.16	13689.79
480.34	13495.53
480.52	13404.25
480.70	13572.77
480.88	13432.33
481.06	13701.50
481.24	13895.76
481.41	14101.73
481.59	13909.80
481.77	14120.45
481.95	14244.50
482.13	14335.78
482.31	14464.51
482.49	15063.69
482.67	14523.02
482.85	14822.61
483.03	15164.33
483.21	14822.61
483.39	15365.62
483.57	15206.46
483.74	15342.21
483.92	15697.97
484.10	14998.15
484.28	15494.35
484.46	16072.46
484.64	16290.13
484.82	15894.58
485.00	15929.69
485.18	16156.72
485.35	16376.73
485.53	15836.06
485.71	15791.59
485.89	16252.68
486.07	16304.17
486.25	16753.55
486.43	16741.85
486.61	17011.01
486.78	16898.67
486.96	17067.19
487.14	17305.92
487.32	17579.76
487.50	17788.07
487.68	17869.99
487.85	18127.45
488.03	18256.18
488.21	18574.49
488.39	18363.84
488.57	18740.67
488.75	18654.07
488.92	18806.20
489.10	18960.68
489.28	19110.47
489.46	19580.92
489.64	19527.09
489.81	19758.80
489.99	20329.89
490.17	20231.59
490.35	20212.87
490.53	20252.66
490.70	20037.33
490.88	20170.74
491.06	20524.16
491.24	20400.11
491.41	20613.10
491.59	20453.94
491.77	20329.89
491.95	20868.22
492.13	20872.90
492.30	21296.53
492.48	21378.45
492.66	21495.48
492.84	21446.33
493.01	21731.87
493.19	22012.74
493.37	22024.44
493.54	22232.75
493.72	22120.40
493.90	22207.00
494.08	22614.26
494.25	22719.58
494.43	22885.76
494.61	23374.93
494.79	22867.03
494.96	23178.33
495.14	23033.21
495.32	23157.26
495.49	23311.74
495.67	23508.34
495.85	23508.34
496.02	24058.37
496.20	24500.73
496.38	24140.29
496.55	24098.16
496.73	24685.63
496.91	24741.80
497.09	25029.69
497.26	24655.20
497.44	25142.03
497.62	24865.85
497.79	24938.41
497.97	24872.87
498.14	25422.90
498.32	25336.30
498.50	25446.30
498.67	25436.94
498.85	25626.53
499.03	25858.24
499.20	25703.76
499.38	25900.37
499.56	26246.77
499.73	26045.48
499.91	26288.90
500.08	26567.42
500.26	26052.50
500.44	26368.48
500.61	26625.93
500.79	26043.14
500.97	26679.77
501.14	26792.11
501.32	26586.15
501.49	26806.16
501.67	27012.12
501.84	26899.78
502.02	27185.32
502.20	27559.81
502.37	27625.34
502.55	27257.88
502.72	27772.80
502.90	27417.04
503.07	27536.40
503.25	27548.11
503.43	27562.15
503.60	27920.25
503.78	27667.47
503.95	27740.03
504.13	28173.03
504.30	28313.46
504.48	28250.27
504.65	28608.37
504.83	28514.75
505.01	28950.09
505.18	28713.69
505.36	28978.17
505.53	28868.17
505.71	29282.44
505.88	29495.43
506.06	29738.85
506.23	29422.87
506.41	29640.54
506.58	29228.61
506.76	29780.98
506.93	30073.54
507.11	29455.64
507.28	29560.97
507.46	29802.04
507.63	29902.68
507.81	29617.14
507.98	29727.14
508.16	30178.87
508.33	30239.72
508.50	30419.94
508.68	30558.03
508.85	30787.41
509.03	30541.65
509.20	30754.64
509.38	30794.43
509.55	31065.93
509.73	30724.21
509.90	30897.41
510.08	30883.37
510.25	31360.84
510.42	31349.14
510.60	31225.09
510.77	31166.57
510.95	31583.19
511.12	31150.19
511.30	31747.03
511.47	31988.10
511.64	32236.20
511.82	32133.21
511.99	31576.17
512.17	32180.03
512.34	32116.83
512.51	32371.95
512.69	32439.82
512.86	32568.55
513.04	32582.60
513.21	32306.41
513.38	32336.84
513.56	32348.54
513.73	32760.48
513.90	32882.19
514.08	32334.50
514.25	33132.62
514.43	33046.02
514.60	32830.69
514.77	32847.08
514.95	33347.95
515.12	33104.54
515.29	33156.03
515.47	33567.96
515.64	33996.28
515.81	33804.36
515.99	33666.27
516.16	33574.98
516.33	32968.79
516.51	33439.23
516.68	32835.38
516.85	33053.05
517.03	33151.35
517.20	33755.21
517.37	33930.75
517.54	34022.03
517.72	34066.50
517.89	33593.71
518.06	34029.05
518.24	33626.48
518.41	33780.95
518.58	34141.39
518.75	34455.03
518.93	34440.98
519.10	34651.63
519.27	34873.98
519.45	34756.96
519.62	35129.10
519.79	35311.66
519.96	35014.41
520.14	34965.26
520.31	34642.27
520.48	34916.11
520.65	35070.59
520.83	35168.89
521.00	35709.55
521.17	35491.88
521.34	35803.17
521.52	35606.57
521.69	36062.97
521.86	36177.66
522.03	35887.43
522.20	35583.16
522.38	36060.63
522.55	35913.18
522.72	35988.08
522.89	35810.20
523.07	36407.03
523.24	36119.15
523.41	36737.05
523.58	36381.29
523.75	37191.11
523.92	36652.79
524.10	36802.58
524.27	37249.63
524.44	36741.73
524.61	36844.71
524.78	37153.66
524.96	37223.88
525.13	37315.16
525.30	37645.18
525.47	37511.77
525.64	37174.73
525.81	37464.96
525.98	36886.84
526.16	37209.84
526.33	36961.74
526.50	37319.84
526.67	36987.49
526.84	37378.36
527.01	37172.39
527.18	37596.03
527.36	38082.86
527.53	38096.90
527.70	38171.80
527.87	38209.25
528.04	37926.04
528.21	38387.13
528.38	38356.70
528.55	38249.03
528.72	38618.84
528.89	38747.57
529.07	38408.19
529.24	38396.49
529.41	38415.21
529.58	38359.04
529.75	38335.63
529.92	38515.86
530.09	38801.40
530.26	38494.79
530.43	38859.91
530.60	38815.44
530.77	38852.89
530.94	38965.24
531.11	39276.53
531.28	39124.40
531.46	39608.89
531.63	39316.32
531.80	39180.57
531.97	38834.17
532.14	39473.13
532.31	39136.10
532.48	39140.78
532.65	38995.67
532.82	39061.20
532.99	39250.78
533.16	39526.97
533.33	39459.09
533.50	39842.94
533.67	39325.68
533.84	39573.78
534.01	39695.49
534.18	39213.34
534.35	39950.60
534.52	39636.97
534.69	40165.93
534.86	40273.60
535.03	39861.66
535.20	40140.19
535.37	40898.52
535.54	40425.73
535.71	40772.13
535.88	40245.51
536.05	40360.20
536.22	40456.16
536.38	40053.59
536.55	40659.79
536.72	40500.63
536.89	40280.62
537.06	40219.77
537.23	40718.30
537.40	40636.38
537.57	40533.40
537.74	40935.97
537.91	41336.20
538.08	41050.66
538.25	40699.58
538.42	40917.25
538.59	40699.58
538.75	40514.67
538.92	40662.13
539.09	41153.64
539.26	41144.28
539.43	41024.91
539.60	41191.09
539.77	40982.78
539.94	40959.38
540.11	40919.59
540.28	41050.66
540.44	41308.11
540.61	41020.23
540.78	41408.76
540.95	41483.66
541.12	41095.13
541.29	41191.09
541.46	41584.30
541.62	41469.61
541.79	41584.30
541.96	41153.64
542.13	41163.00
542.30	41542.17
542.47	41785.58
542.63	41682.60
542.80	41965.81
542.97	42464.34
543.14	42246.67
543.31	42300.50
543.48	42080.49
543.64	42588.39
543.81	42754.57
543.98	42277.10
544.15	42270.08
544.32	42401.14
544.48	42787.33
544.65	42564.98
544.82	42450.30
544.99	42740.52
545.16	42171.77
545.32	42506.47
545.49	43477.79
545.66	42981.60
545.83	43143.09
546.00	42866.91
546.16	42457.32
546.33	43056.50
546.50	42153.05
546.67	43077.56
546.83	42473.70
547.00	42639.88
547.17	42920.74
547.34	43182.88
547.50	42803.72
547.67	43215.65
547.84	43489.49
548.00	43234.38
548.17	43704.82
548.34	43653.33
548.51	43863.98
548.67	43716.53
548.84	43143.09
549.01	43178.20
549.18	43372.47
549.34	43255.44
549.51	43742.27
549.68	43878.02
549.84	43882.70
550.01	43936.54
550.18	43742.27
550.34	43732.91
550.51	43529.28
550.68	43557.37
550.84	43313.95
551.01	43732.91
551.18	43559.71
551.34	43580.78
551.51	44013.77
551.68	44032.50
551.84	43913.13
552.01	43552.69
552.18	44189.31
552.34	44128.46
552.51	44083.99
552.68	44023.14
552.84	43976.33
553.01	43978.67
553.18	43863.98
553.34	44453.79
553.51	44210.38
553.67	44439.75
553.84	44399.96
554.01	44254.85
554.17	44570.82
554.34	44491.24
554.51	44720.62
554.67	44435.07
554.84	44287.62
555.00	44044.20
555.17	44542.74
555.33	44559.12
555.50	44568.48
555.67	44605.93
555.83	44467.84
556.00	44444.43
556.16	44903.18
556.33	44598.91
556.50	44753.38
556.66	45036.59
556.83	44339.11
556.99	44198.68
557.16	44795.51
557.32	44879.77
557.49	44847.00
557.65	44547.42
557.82	44264.21
557.98	45052.97
558.15	44814.24
558.32	45268.30
558.48	44587.21
558.65	44676.15
558.81	44968.71
558.98	44793.17
559.14	44645.72
559.31	44641.04
559.47	44861.05
559.64	44807.22
559.80	44814.24
559.97	45081.06
560.13	44746.36
560.30	45050.63
560.46	44912.54
560.63	44971.05
560.79	45371.28
560.96	44996.80
561.12	45375.97
561.29	45078.72
561.45	45123.19
561.61	44910.20
561.78	44992.12
561.94	44767.43
562.11	45474.27
562.27	45069.36
562.44	45064.67
562.60	45057.65
562.77	45212.13
562.93	45366.60
563.10	45621.72
563.26	44818.92
563.42	45277.66
563.59	45357.24
563.75	45212.13
563.92	45364.26
564.08	45422.78
564.24	45673.21
564.41	45160.64
564.57	45427.46
564.74	45148.93
564.90	45619.38
565.07	44996.80
565.23	45366.60
565.39	45507.04
565.56	45228.51
565.72	44928.92
565.88	45600.66
566.05	45317.45
566.21	45888.54
566.38	45364.26
566.54	45336.18
566.70	45420.44
566.87	45794.92
567.03	45928.33
567.19	45827.69
567.36	45883.86
567.52	45724.71
567.68	45546.82
567.85	45467.25
568.01	45399.37
568.17	45249.58
568.34	45745.77
568.50	45029.57
568.66	45404.05
568.83	45724.71
568.99	45200.43
569.15	45464.91
569.32	45282.34
569.48	45528.10
569.64	45439.16
569.81	45780.88
569.97	45612.36
570.13	45598.32
570.30	45361.92
570.46	45219.15
570.62	45390.01
570.78	44673.81
570.95	45460.23
571.11	45427.46
571.27	45610.02
571.43	45492.99
571.60	45448.52
571.76	45418.10
571.92	45668.53
572.09	45797.26
572.25	45488.31
572.41	45935.35
572.57	46183.45
572.74	46213.88
572.90	45628.74
573.06	45682.58
573.22	45925.99
573.38	45691.94
573.55	45949.40
573.71	45705.98
573.87	45272.98
574.03	45488.31
574.20	46141.32
574.36	45839.39
574.52	45525.76
574.68	45895.56
574.84	45909.61
575.01	45322.13
575.17	45860.46
575.33	44968.71
575.49	45574.91
575.65	46279.41
575.82	46410.48
575.98	45544.48
576.14	45907.27
576.30	45867.48
576.46	45607.68
576.62	45507.04
576.79	45684.92
576.95	45303.41
577.11	45743.43
577.27	46199.83
577.43	45418.10
577.59	45272.98
577.75	45284.68
577.92	45418.10
578.08	45354.90
578.24	45287.03
578.40	45610.02
578.56	45872.16
578.72	46073.45
578.88	45701.30
579.04	46155.36
579.21	45488.31
579.37	45481.29
579.53	45998.55
579.69	45528.10
579.85	45879.18
580.01	46419.84
580.17	46124.94
580.33	45991.53
580.49	46050.04
580.65	45958.76
580.82	45418.10
580.98	45897.91
581.14	45736.41
581.30	45790.24
581.46	46197.49
581.62	46136.64
581.78	45818.33
581.94	46253.67
582.10	45937.69
582.26	46073.45
582.42	46073.45
582.58	45790.24
582.74	45492.99
582.90	46115.58
583.06	46089.83
583.22	46059.40
583.38	46066.42
583.54	46293.46
583.70	46298.14
583.86	46316.86
584.02	45865.14
584.18	46019.61
584.34	46054.72
584.50	45771.52
584.66	45647.47
584.82	45844.07
584.98	46368.35
585.14	45794.92
585.30	45872.16
585.46	45577.25
585.62	45595.98
585.78	45354.90
585.94	45502.35
586.10	45846.41
586.26	45668.53
586.42	45813.65
586.58	45977.48
586.74	46314.52
586.90	45715.34
587.06	46043.02
587.22	46218.56
587.38	45736.41
587.54	45951.74
587.70	46047.70
587.86	46288.77
588.02	45652.15
588.18	46113.23
588.34	45530.44
588.49	45368.94
588.65	45586.61
588.81	45656.83
588.97	45640.45
589.13	45242.56
589.29	45628.74
589.45	45914.29
589.61	46010.25
589.77	46185.79
589.93	46003.23
590.08	46307.50
