SpectraSuite Data File
++++++++++++++++++++++++++++++++++++
Date: Fri Oct 25 10:47:21 EDT 2013
User: price-jones
Dark Spectrum Present: No
Reference Spectrum Present: No
Number of Sampled Component Spectra: 1
Spectrometers: USB2+H05261
Integration Time (usec): 100000 (USB2+H05261)
Spectra Averaged: 1 (USB2+H05261)
Boxcar Smoothing: 0 (USB2+H05261)
Correct for Electrical Dark: No (USB2+H05261)
Strobe/Lamp Enabled: No (USB2+H05261)
Correct for Detector Non-linearity: No (USB2+H05261)
Correct for Stray Light: No (USB2+H05261)
Number of Pixels in Processed Spectrum: 2048
>>>>>Begin Processed Spectral Data<<<<<
365.73	166.18
365.92	166.18
366.12	166.18
366.32	56.17
366.52	28.09
366.72	28.09
366.91	0.00
367.11	37.45
367.31	0.00
367.51	72.56
367.70	18.72
367.90	11.70
368.10	11.70
368.30	0.00
368.49	0.00
368.69	79.58
368.89	58.51
369.09	37.45
369.28	53.83
369.48	72.56
369.68	65.54
369.87	107.66
370.07	128.73
370.27	205.97
370.47	243.42
370.66	393.21
370.86	454.06
371.06	477.47
371.25	458.74
371.45	423.64
371.65	486.83
371.84	477.47
372.04	430.66
372.24	442.36
372.44	512.58
372.63	468.11
372.83	491.51
373.03	491.51
373.22	486.83
373.42	514.92
373.62	575.77
373.81	552.37
374.01	524.28
374.21	561.73
374.40	557.05
374.60	613.22
374.79	486.83
374.99	521.94
375.19	589.82
375.38	540.66
375.58	692.80
375.78	606.20
375.97	571.09
376.17	543.00
376.37	606.20
376.56	608.54
376.76	456.40
376.95	599.18
377.15	631.94
377.35	573.43
377.54	669.39
377.74	554.71
377.93	599.18
378.13	631.94
378.33	631.94
378.52	678.76
378.72	709.18
378.91	645.99
379.11	622.58
379.31	624.92
379.50	580.45
379.70	643.65
379.89	697.48
380.09	587.47
380.28	606.20
380.48	641.31
380.68	629.60
380.87	702.16
381.07	739.61
381.26	697.48
381.46	634.29
381.65	739.61
381.85	650.67
382.04	657.69
382.24	641.31
382.43	683.44
382.63	676.41
382.83	678.76
383.02	713.86
383.22	784.08
383.41	645.99
383.61	709.18
383.80	795.78
384.00	741.95
384.19	645.99
384.39	741.95
384.58	676.41
384.78	774.72
384.97	781.74
385.17	784.08
385.36	830.89
385.56	739.61
385.75	730.25
385.95	779.40
386.14	641.31
386.34	781.74
386.53	786.42
386.72	774.72
386.92	765.36
387.11	777.06
387.31	812.17
387.50	805.14
387.70	833.23
387.89	891.74
388.09	840.25
388.28	784.08
388.48	819.19
388.67	863.66
388.86	788.76
389.06	912.81
389.25	847.27
389.45	915.15
389.64	905.79
389.84	905.79
390.03	919.83
390.22	903.45
390.42	910.47
390.61	973.66
390.81	894.08
391.00	978.34
391.19	1018.13
391.39	976.00
391.58	957.28
391.78	1008.77
391.97	1029.84
392.16	905.79
392.36	957.28
392.55	964.30
392.75	922.17
392.94	952.60
393.13	1060.26
393.33	1020.47
393.52	1008.77
393.71	973.66
393.91	959.62
394.10	1004.09
394.29	1034.52
394.49	1020.47
394.68	1078.99
394.88	1123.46
395.07	1167.93
395.26	1165.59
395.46	1086.01
395.65	1123.46
395.84	1093.03
396.04	1242.82
396.23	1053.24
396.42	1039.20
396.62	1196.01
396.81	1163.25
397.00	1170.27
397.19	1184.31
397.39	1144.52
397.58	1181.97
397.77	1193.67
397.97	1331.76
398.16	1207.72
398.35	1254.53
398.55	1327.08
398.74	1362.19
398.93	1313.04
399.12	1359.85
399.32	1240.48
399.51	1343.47
399.70	1329.42
399.90	1317.72
400.09	1448.79
400.28	1334.11
400.47	1427.73
400.67	1376.24
400.86	1540.07
401.05	1416.02
401.24	1488.58
401.44	1406.66
401.63	1420.71
401.82	1453.47
402.01	1371.55
402.21	1472.20
402.40	1479.22
402.59	1610.29
402.78	1519.01
402.97	1444.11
403.17	1598.59
403.36	1488.58
403.55	1554.12
403.74	1612.63
403.93	1610.29
404.13	1776.47
404.32	1621.99
404.51	1633.69
404.70	1636.03
404.89	1675.82
405.09	1724.97
405.28	1757.74
405.47	1722.63
405.66	1760.08
405.85	1689.87
406.05	1703.91
406.24	1844.34
406.43	1771.79
406.62	1886.47
406.81	1785.83
407.00	1837.32
407.20	1823.28
407.39	1853.70
407.58	1947.33
407.77	1846.68
407.96	1886.47
408.15	2008.18
408.34	1933.28
408.54	1952.01
408.73	1921.58
408.92	2026.90
409.11	2017.54
409.30	2008.18
409.49	1987.11
409.68	1956.69
409.87	1954.35
410.07	2101.80
410.26	2078.40
410.45	2083.08
410.64	2136.91
410.83	2197.76
411.02	2132.23
411.21	2160.31
411.40	2270.32
411.59	2200.10
411.78	2148.61
411.98	2228.19
412.17	2363.94
412.36	2370.96
412.55	2319.47
412.74	2326.49
412.93	2307.77
413.12	2382.67
413.31	2452.88
413.50	2417.77
413.69	2394.37
413.88	2532.46
414.07	2520.76
414.26	2572.25
414.45	2686.94
414.64	2658.85
414.83	2583.95
415.02	2708.00
415.22	2679.91
415.41	2785.24
415.60	2818.00
415.79	2672.89
415.98	2939.71
416.17	2700.98
416.36	2881.20
416.55	2796.94
416.74	2892.90
416.93	2920.99
417.12	2818.00
417.31	3007.59
417.50	2953.76
417.69	3094.19
417.88	3218.24
418.07	3047.38
418.26	2944.39
418.45	3164.40
418.64	3225.26
418.83	3211.22
419.02	3110.57
419.21	3180.79
419.39	3267.39
419.58	3117.59
419.77	3162.06
419.96	3169.09
420.15	3274.41
420.34	3243.98
420.53	3251.00
420.72	3283.77
420.91	3356.33
421.10	3304.84
421.29	3475.70
421.48	3346.97
421.67	3396.12
421.86	3351.65
422.05	3463.99
422.24	3323.56
422.43	3403.14
422.61	3494.42
422.80	3473.36
422.99	3515.48
423.18	3384.41
423.37	3412.50
423.56	3552.93
423.75	3370.37
423.94	3393.78
424.13	3241.64
424.32	3339.94
424.50	3452.29
424.69	3517.83
424.88	3618.47
425.07	3468.67
425.26	3524.85
425.45	3550.59
425.64	3421.86
425.83	3496.76
426.01	3712.09
426.20	3485.06
426.39	3524.85
426.58	3386.76
426.77	3562.30
426.96	3566.98
427.15	3471.01
427.33	3688.68
427.52	3702.73
427.71	3623.15
427.90	3784.65
428.09	3684.00
428.28	3721.45
428.46	3604.42
428.65	3719.11
428.84	3843.16
429.03	3812.73
429.22	3742.52
429.40	3822.09
429.59	3709.75
429.78	3611.45
429.97	3543.57
430.16	3428.88
430.34	3616.13
430.53	3761.24
430.72	3878.27
430.91	3850.18
431.10	4011.68
431.28	3983.59
431.47	4152.11
431.66	4243.39
431.85	4093.60
432.03	4072.53
432.22	4074.87
432.41	4119.34
432.60	4138.07
432.79	4177.86
432.97	4250.41
433.16	4369.78
433.35	4231.69
433.54	4301.90
433.72	4201.26
433.91	4337.01
434.10	4386.16
434.28	4400.21
434.47	4299.56
434.66	4360.42
434.85	4344.03
435.03	4376.80
435.22	4482.13
435.41	4545.32
435.59	4449.36
435.78	4442.34
435.97	4461.06
436.16	4559.36
436.34	4606.17
436.53	4475.10
436.72	4641.28
436.90	4524.26
437.09	4627.24
437.28	4557.02
437.46	4491.49
437.65	4545.32
437.84	4692.77
438.02	4587.45
438.21	4788.74
438.40	4652.98
438.58	4922.15
438.77	4758.31
438.96	4807.46
439.14	4840.23
439.33	4973.64
439.52	5055.56
439.70	4999.38
439.89	5041.51
440.08	5081.30
440.26	5130.45
440.45	5254.50
440.63	5104.71
440.82	5387.91
441.01	5254.50
441.19	5214.71
441.38	5593.88
441.57	5303.65
441.75	5474.51
441.94	5600.90
442.12	5598.56
442.31	5640.69
442.50	5659.42
442.68	5425.36
442.87	5753.04
443.05	5497.92
443.24	5673.46
443.43	5769.42
443.61	5872.40
443.80	5959.00
443.98	5593.88
444.17	5530.69
444.35	5790.49
444.54	5750.70
444.73	5928.58
444.91	5701.54
445.10	5767.08
445.28	5617.29
445.47	5598.56
445.65	5778.78
445.84	5790.49
446.02	5771.76
446.21	5959.00
446.39	5902.83
446.58	5954.32
446.77	5944.96
446.95	5827.93
447.14	5921.56
447.32	5973.05
447.51	5799.85
447.69	5743.67
447.88	5914.53
448.06	5940.28
448.25	6019.86
448.43	5942.62
448.62	6054.97
448.80	5966.03
448.99	6108.80
449.17	6113.48
449.36	5959.00
449.54	6265.61
449.73	6153.27
449.91	6195.40
450.10	6331.15
450.28	6396.68
450.46	6452.86
450.65	6415.41
450.83	6443.49
451.02	6293.70
451.20	6485.62
451.39	6359.24
451.57	6368.60
451.76	6328.81
451.94	6527.75
452.13	6494.99
452.31	6282.00
452.49	6436.47
452.68	6382.64
452.86	6368.60
453.05	6635.42
453.23	6504.35
453.42	6469.24
453.60	6597.97
453.78	6712.66
453.97	6619.04
454.15	6661.16
454.34	6539.46
454.52	6710.32
454.70	6707.98
454.89	6689.25
455.07	6771.17
455.26	6822.66
455.44	6848.41
455.62	6867.13
455.81	6857.77
455.99	6932.67
456.17	6949.05
456.36	7049.69
456.54	7014.59
456.73	6960.75
456.91	7239.28
457.09	7192.47
457.28	7316.51
457.46	7019.27
457.64	7452.27
457.83	7171.40
458.01	6977.14
458.19	7485.03
458.38	7386.73
458.56	7398.43
458.74	7276.73
458.93	7536.52
459.11	7412.48
459.29	7592.70
459.48	7386.73
459.66	7442.90
459.84	7557.59
460.03	7765.90
460.21	7456.95
460.39	7419.50
460.57	7435.88
460.76	7618.44
460.94	7613.76
461.12	7691.00
461.31	7805.69
461.49	7468.65
461.67	7817.39
461.85	7950.80
462.04	7644.19
462.22	8098.25
462.40	7999.95
462.59	8011.65
462.77	8016.33
462.95	7976.55
463.13	8011.65
463.32	7925.05
463.50	8006.97
463.68	8046.76
463.86	8142.72
464.05	8187.19
464.23	7988.25
464.41	8149.75
464.59	7932.08
464.78	8276.13
464.96	8152.09
465.14	7845.48
465.32	8180.17
465.50	8219.96
465.69	8430.61
465.87	8259.75
466.05	8290.18
466.23	8329.97
466.41	8229.32
466.60	8491.46
466.78	8304.22
466.96	8287.84
467.14	8315.92
467.32	8292.52
467.51	8425.93
467.69	8461.04
467.87	8615.51
468.05	8610.83
468.23	8294.86
468.41	8358.05
468.60	8456.36
468.78	8557.00
468.96	8404.86
469.14	8571.04
469.32	8798.07
469.50	8582.74
469.69	8634.24
469.87	8912.76
470.05	8765.31
470.23	9048.51
470.41	8905.74
470.59	8837.86
470.77	9055.53
470.95	9062.55
471.14	9062.55
471.32	8966.59
471.50	9207.67
471.68	9184.26
471.86	9301.29
472.04	9350.44
472.22	9537.68
472.40	9123.41
472.58	9401.93
472.77	9312.99
472.95	9504.92
473.13	9657.05
473.31	9329.38
473.49	9430.02
473.67	9563.43
473.85	9799.82
474.03	9942.60
474.21	9753.01
474.39	10120.48
474.57	9856.00
474.75	10087.71
474.93	10024.51
475.12	10143.88
475.30	10022.17
475.48	10059.62
475.66	10132.18
475.84	10178.99
476.02	10403.68
476.20	10310.06
476.38	10321.76
476.56	10752.42
476.74	10714.97
476.92	10513.69
477.10	10530.07
477.28	10743.06
477.46	10792.21
477.64	10988.82
477.82	11087.12
478.00	11253.30
478.18	11346.92
478.36	11059.03
478.54	11655.87
478.72	11653.53
478.90	11604.38
479.08	11616.08
479.26	11749.49
479.44	11854.81
479.62	12081.85
479.80	11808.00
479.98	12231.64
480.16	12334.62
480.34	12287.81
480.52	12346.33
480.70	12592.08
480.88	12329.94
481.06	12243.34
481.24	12500.80
481.41	12837.84
481.59	12975.93
481.77	13177.22
481.95	12826.14
482.13	13153.81
482.31	13298.92
482.49	13624.26
482.67	13420.63
482.85	13458.08
483.03	13645.32
483.21	14024.49
483.39	13717.88
483.57	14026.83
483.74	14099.39
483.92	14122.79
484.10	14073.64
484.28	14410.68
484.46	14761.76
484.64	14998.15
484.82	14530.05
485.00	14679.84
485.18	14586.22
485.35	15201.78
485.53	14944.32
485.71	15056.67
485.89	15290.72
486.07	15487.32
486.25	15159.65
486.43	15328.17
486.61	15442.85
486.78	15492.01
486.96	16079.48
487.14	16631.85
487.32	16037.35
487.50	16290.13
487.68	16493.76
487.85	16610.78
488.03	16922.07
488.21	17135.06
488.39	16842.50
488.57	17146.76
488.75	16980.59
488.92	17598.49
489.10	17479.12
489.28	17570.40
489.46	17860.63
489.64	17926.16
489.81	18239.79
489.99	18047.87
490.17	18438.74
490.35	18569.81
490.53	18799.18
490.70	18862.38
490.88	18902.17
491.06	19028.56
491.24	19178.35
491.41	18998.13
491.59	19171.33
491.77	19030.90
491.95	19398.36
492.13	19721.35
492.30	19569.22
492.48	19646.46
492.66	19924.98
492.84	19585.60
493.01	19950.73
493.19	20046.69
493.37	20493.73
493.54	20374.36
493.72	20498.41
493.90	20552.24
494.08	21188.87
494.25	21315.26
494.43	21001.63
494.61	21287.17
494.79	21427.60
494.96	21252.06
495.14	21532.93
495.32	21827.84
495.49	21561.02
495.67	21813.79
495.85	22171.89
496.02	22244.45
496.20	22485.53
496.38	22377.86
496.55	22473.82
496.73	22993.42
496.91	22576.81
497.09	22607.23
497.26	22712.56
497.44	22380.20
497.62	22860.01
497.79	23683.88
497.97	22885.76
498.14	23065.98
498.32	23606.64
498.50	23171.30
498.67	23901.55
498.85	23866.44
499.03	24006.87
499.20	24051.34
499.38	23885.17
499.56	24091.13
499.73	24498.39
499.91	24147.31
500.08	24458.60
500.26	24151.99
500.44	24589.67
500.61	24840.11
500.79	24357.96
500.97	24783.93
501.14	24896.28
501.32	25090.54
501.49	25188.85
501.67	24987.56
501.84	25408.86
502.02	25149.06
502.20	25724.83
502.37	25413.54
502.55	25467.37
502.72	25462.69
502.90	25790.36
503.07	25790.36
503.25	26038.46
503.43	25879.30
503.60	26089.95
503.78	25827.81
503.95	26185.91
504.13	26300.60
504.30	26639.98
504.48	26429.33
504.65	26628.27
504.83	26787.43
505.01	26787.43
505.18	26759.34
505.36	27639.39
505.53	27065.96
505.71	27168.94
505.88	27358.52
506.06	26897.44
506.23	27257.88
506.41	27599.60
506.58	27555.13
506.76	27583.21
506.93	27620.66
507.11	27770.46
507.28	27543.42
507.46	28060.68
507.63	27868.76
507.81	28233.88
507.98	27899.19
508.16	28098.13
508.33	28608.37
508.50	28364.95
508.68	28222.18
508.85	29048.39
509.03	28610.71
509.20	28851.78
509.38	28861.15
509.55	28903.28
509.73	29439.26
509.90	28924.34
510.08	28907.96
510.25	28999.24
510.42	29312.87
510.60	29528.20
510.77	29443.94
510.95	29642.88
511.12	29167.76
511.30	29605.44
511.47	29780.98
511.64	30071.20
511.82	30075.88
511.99	29944.81
512.17	30146.10
512.34	29514.16
512.51	30033.75
512.69	30649.32
512.86	30061.84
513.04	30588.46
513.21	30181.21
513.38	30356.75
513.56	30579.10
513.73	30242.06
513.90	30981.67
514.08	30841.24
514.25	31367.86
514.43	31030.82
514.60	31037.84
514.77	31248.49
514.95	31555.10
515.12	31182.96
515.29	31473.18
515.47	31606.59
515.64	31428.71
515.81	31346.79
515.99	31225.09
516.16	31477.86
516.33	31763.41
516.51	31653.40
516.68	31534.04
516.85	31377.22
517.03	31758.73
517.20	31681.49
517.37	32091.09
517.54	32456.21
517.72	32182.37
517.89	32346.20
518.06	32002.14
518.24	31711.92
518.41	31810.22
518.58	32161.30
518.75	32294.71
518.93	33003.89
519.10	32645.79
519.27	32678.56
519.45	32634.09
519.62	33076.45
519.79	33116.24
519.96	32961.76
520.14	33090.49
520.31	33294.12
520.48	33167.73
520.65	33214.54
520.83	33436.89
521.00	33865.21
521.17	33560.94
521.34	33392.42
521.52	33722.44
521.69	34019.69
521.86	33551.58
522.03	33832.44
522.20	34108.63
522.38	34066.50
522.55	33806.70
522.72	34415.24
522.89	34061.82
523.07	34026.71
523.24	34108.63
523.41	34087.56
523.58	34082.88
523.75	34419.92
523.92	34714.83
524.10	34763.98
524.27	34838.87
524.44	34801.43
524.61	34948.88
524.78	34892.71
524.96	35241.45
525.13	35667.42
525.30	35196.98
525.47	35477.84
525.64	34998.03
525.81	35412.31
525.98	35208.68
526.16	35459.12
526.33	35597.21
526.50	35510.61
526.67	35332.73
526.84	35091.65
527.01	35115.06
527.18	35672.10
527.36	35592.53
527.53	35768.07
527.70	36250.22
527.87	35913.18
528.04	36137.87
528.21	36123.83
528.38	36114.47
528.55	36233.83
528.72	36315.75
528.89	36598.96
529.07	36123.83
529.24	36538.10
529.41	36503.00
529.58	36495.97
529.75	36699.60
529.92	36896.20
530.09	36442.14
530.26	36907.91
530.43	37170.05
530.60	36708.96
530.77	36924.29
530.94	37446.23
531.11	37069.40
531.28	37104.51
531.46	37092.81
531.63	37397.08
531.80	37134.94
531.97	37577.30
532.14	37392.40
532.31	36762.79
532.48	37172.39
532.65	37771.57
532.82	37521.13
532.99	37123.24
533.16	37429.85
533.33	37865.19
533.50	37937.74
533.67	37764.54
533.84	37200.47
534.01	37989.24
534.18	37846.46
534.35	37820.72
534.52	38148.39
534.69	38258.40
534.86	38206.90
535.03	38220.95
535.20	38363.72
535.37	38223.29
535.54	38845.87
535.71	38239.67
535.88	38326.27
536.05	38253.72
536.22	38361.38
536.38	38347.34
536.55	38490.11
536.72	38347.34
536.89	38618.84
537.06	38213.93
537.23	38557.99
537.40	38466.70
537.57	38735.87
537.74	38869.28
537.91	38693.74
538.08	38932.47
538.25	38815.44
538.42	39126.74
538.59	38913.75
538.75	38649.27
538.92	39063.54
539.09	39182.91
539.26	39360.79
539.43	39318.66
539.60	39005.03
539.77	39400.58
539.94	39346.75
540.11	39454.41
540.28	39079.92
540.44	39117.37
540.61	39421.64
540.78	39442.71
540.95	39683.78
541.12	39157.16
541.29	39473.13
541.46	39646.33
541.62	39695.49
541.79	40006.78
541.96	39407.60
542.13	39894.43
542.30	39754.00
542.47	39613.57
542.63	40027.84
542.80	40051.25
542.97	40030.18
543.14	40407.01
543.31	40210.40
543.48	40418.71
543.64	40982.78
543.81	40821.28
543.98	40535.74
544.15	40472.54
544.32	40495.95
544.48	41034.27
544.65	40685.53
544.82	40360.20
544.99	40678.51
545.16	40624.68
545.32	40224.45
545.49	40942.99
545.66	40917.25
545.83	41163.00
546.00	41160.66
546.16	40891.50
546.33	41060.02
546.50	40662.13
546.67	41256.62
546.83	40612.98
547.00	40950.01
547.17	41095.13
547.34	40971.08
547.50	41008.53
547.67	41757.50
547.84	41450.89
548.00	41610.04
548.17	41745.80
548.34	41816.01
548.51	41544.51
548.67	41621.75
548.84	41493.02
549.01	41841.76
549.18	41593.66
549.34	41556.21
549.51	41652.17
549.68	41741.11
549.84	42263.05
550.01	42279.44
550.18	41713.03
550.34	41626.43
550.51	42000.91
550.68	41886.23
550.84	41502.38
551.01	41806.65
551.18	42012.62
551.34	42040.70
551.51	42052.41
551.68	42007.94
551.84	42454.98
552.01	42160.07
552.18	42122.62
552.34	41956.44
552.51	42204.54
552.68	42047.72
552.84	41996.23
553.01	42590.73
553.18	42494.77
553.34	42541.58
553.51	42354.33
553.67	42693.71
553.84	42522.85
554.01	42272.42
554.17	42953.51
554.34	42787.33
554.51	42691.37
554.67	43093.94
554.84	42689.03
555.00	42770.95
555.17	42735.84
555.33	42459.66
555.50	42728.82
555.67	42621.16
555.83	42892.66
556.00	43077.56
556.16	43232.04
556.33	43107.99
556.50	42792.01
556.66	43070.54
556.83	42749.88
556.99	43585.46
557.16	43313.95
557.32	43112.67
557.49	43702.48
557.65	42843.51
557.82	42792.01
557.98	43330.34
558.15	43136.07
558.32	43035.43
558.48	43129.05
558.65	43370.13
558.81	42822.44
558.98	43363.11
559.14	43225.01
559.31	43501.20
559.47	43386.51
559.64	43831.21
559.80	43629.93
559.97	43423.96
560.13	43281.19
560.30	43239.06
560.46	43758.66
560.63	43686.10
560.79	43269.48
560.96	43854.62
561.12	43454.39
561.29	43634.61
561.45	43295.23
561.61	44098.03
561.78	43442.68
561.94	43328.00
562.11	43487.15
562.27	43662.69
562.44	43632.27
562.60	43772.70
562.77	44091.01
562.93	43421.62
563.10	43849.94
563.26	43548.01
563.42	43718.87
563.59	43791.42
563.75	43885.04
563.92	43889.73
564.08	44112.08
564.24	43920.15
564.41	43786.74
564.57	43894.41
564.74	44027.82
564.90	44177.61
565.07	44226.76
565.23	43363.11
565.39	43477.79
565.56	44121.44
565.72	44301.66
565.88	44032.50
566.05	43744.61
566.21	44128.46
566.38	43796.10
566.54	43943.56
566.70	43866.32
566.87	44301.66
567.03	44177.61
567.19	44233.78
567.36	44601.25
567.52	43828.87
567.68	44109.74
567.85	43840.57
568.01	44135.48
568.17	44095.69
568.34	44208.04
568.50	44390.60
568.66	43957.60
568.83	44556.78
568.99	43622.90
569.15	44222.08
569.32	44362.51
569.48	43941.22
569.64	44402.30
569.81	44186.97
569.97	44048.88
570.13	44528.69
570.30	44062.93
570.46	43306.93
570.62	44144.84
570.78	44217.40
570.95	43863.98
571.11	44474.86
571.27	44376.56
571.43	44027.82
571.60	44247.83
571.76	43859.30
571.92	44318.04
572.09	44208.04
572.25	44238.47
572.41	43725.89
572.57	44168.25
572.74	44870.41
572.90	44095.69
573.06	44374.22
573.22	44023.14
573.38	44282.94
573.55	44182.29
573.71	44449.11
573.87	44509.97
574.03	43761.00
574.20	44147.18
574.36	44339.11
574.52	44486.56
574.68	44704.23
574.84	44170.59
575.01	44383.58
575.17	44100.37
575.33	44243.15
575.49	44280.60
575.65	44711.25
575.82	44999.14
575.98	44528.69
576.14	44800.19
576.30	44552.10
576.46	44315.70
576.62	44378.90
576.79	44285.28
576.95	44179.95
577.11	44186.97
577.27	44584.86
577.43	45036.59
577.59	44605.93
577.75	44657.42
577.92	44355.49
578.08	44081.65
578.24	44320.38
578.40	44308.68
578.56	44439.75
578.72	44542.74
578.88	44615.29
579.04	44521.67
579.21	44577.84
579.37	44226.76
579.53	44786.15
579.69	43803.13
579.85	44687.85
580.01	44732.32
580.17	44626.99
580.33	45422.78
580.49	44959.35
580.65	44825.94
580.82	44744.02
580.98	44605.93
581.14	44570.82
581.30	44921.90
581.46	44947.65
581.62	44385.92
581.78	44774.45
581.94	45043.61
582.10	44126.12
582.26	44556.78
582.42	44439.75
582.58	44678.49
582.74	44638.70
582.90	44966.37
583.06	44367.20
583.22	44491.24
583.38	44868.07
583.54	44701.89
583.70	44657.42
583.86	44685.51
584.02	44261.87
584.18	44528.69
584.34	44947.65
584.50	44577.84
584.66	44535.71
584.82	44336.77
584.98	44809.56
585.14	44921.90
585.30	44657.42
585.46	44601.25
585.62	44360.17
585.78	44343.79
585.94	44334.43
586.10	44727.64
586.26	45036.59
586.42	44882.11
586.58	44889.13
586.74	44886.79
586.90	44650.40
587.06	44371.88
587.22	44856.37
587.38	44428.05
587.54	45249.58
587.70	45102.12
587.86	44584.86
588.02	44828.28
588.18	44832.96
588.34	44769.77
588.49	44617.63
588.65	44732.32
588.81	44519.33
588.97	44423.37
589.13	44472.52
589.29	44357.83
589.45	44650.40
589.61	44666.78
589.77	44959.35
589.93	45067.02
590.08	45216.81
590.24	44917.22
