SpectraSuite Data File
++++++++++++++++++++++++++++++++++++
Date: Fri Oct 25 11:22:48 EDT 2013
User: price-jones
Dark Spectrum Present: No
Reference Spectrum Present: No
Number of Sampled Component Spectra: 1
Spectrometers: USB2+H05261
Integration Time (usec): 100000 (USB2+H05261)
Spectra Averaged: 1 (USB2+H05261)
Boxcar Smoothing: 0 (USB2+H05261)
Correct for Electrical Dark: No (USB2+H05261)
Strobe/Lamp Enabled: No (USB2+H05261)
Correct for Detector Non-linearity: No (USB2+H05261)
Correct for Stray Light: No (USB2+H05261)
Number of Pixels in Processed Spectrum: 2048
>>>>>Begin Processed Spectral Data<<<<<
365.73	205.97
365.92	205.97
366.12	205.97
366.32	133.41
366.52	161.50
366.72	189.58
366.91	107.66
367.11	67.88
367.31	70.22
367.51	117.03
367.70	49.15
367.90	163.84
368.10	32.77
368.30	91.28
368.49	131.07
368.69	105.32
368.89	119.37
369.09	117.03
369.28	182.56
369.48	133.41
369.68	182.56
369.87	205.97
370.07	201.29
370.27	128.73
370.47	308.95
370.66	559.39
370.86	676.41
371.06	664.71
371.25	704.50
371.45	638.97
371.65	732.59
371.84	692.80
372.04	669.39
372.24	746.63
372.44	634.29
372.63	732.59
372.83	695.14
373.03	690.46
373.22	791.10
373.42	676.41
373.62	807.48
373.81	774.72
374.01	915.15
374.21	777.06
374.40	730.25
374.60	866.00
374.79	770.04
374.99	851.96
375.19	767.70
375.38	786.42
375.58	777.06
375.78	837.91
375.97	940.90
376.17	908.13
376.37	863.66
376.56	926.85
376.76	938.55
376.95	840.25
377.15	830.89
377.35	903.45
377.54	908.13
377.74	870.68
377.93	837.91
378.13	926.85
378.33	919.83
378.52	924.51
378.72	964.30
378.91	954.94
379.11	947.92
379.31	903.45
379.50	880.04
379.70	1036.86
379.89	987.71
380.09	1039.20
380.28	971.32
380.48	973.66
380.68	997.07
380.87	1015.79
381.07	992.39
381.26	1034.52
381.46	985.37
381.65	1076.65
381.85	1006.43
382.04	1046.22
382.24	1142.18
382.43	1076.65
382.63	1081.33
382.83	1081.33
383.02	1064.94
383.22	1057.92
383.41	1160.91
383.61	1071.97
383.80	1107.07
384.00	1149.20
384.19	1160.91
384.39	1130.48
384.58	1081.33
384.78	1163.25
384.97	1144.52
385.17	1203.04
385.36	1062.60
385.56	1076.65
385.75	1093.03
385.95	1219.42
386.14	1151.54
386.34	1214.74
386.53	1179.63
386.72	1226.44
386.92	1268.57
387.11	1181.97
387.31	1240.48
387.50	1291.98
387.70	1226.44
387.89	1277.93
388.09	1296.66
388.28	1317.72
388.48	1324.74
388.67	1273.25
388.86	1334.11
389.06	1324.74
389.25	1294.32
389.45	1357.51
389.64	1409.00
389.84	1423.05
390.03	1329.42
390.22	1430.07
390.42	1301.34
390.61	1306.02
390.81	1327.08
391.00	1394.96
391.19	1488.58
391.39	1387.94
391.58	1444.11
391.78	1397.30
391.97	1453.47
392.16	1444.11
392.36	1509.65
392.55	1483.90
392.75	1481.56
392.94	1582.20
393.13	1469.86
393.33	1523.69
393.52	1455.81
393.71	1563.48
393.91	1558.80
394.10	1565.82
394.29	1598.59
394.49	1551.78
394.68	1710.93
394.88	1703.91
395.07	1666.46
395.26	1654.76
395.46	1666.46
395.65	1689.87
395.84	1687.53
396.04	1785.83
396.23	1661.78
396.42	1732.00
396.62	1729.66
396.81	1760.08
397.00	1764.76
397.19	1706.25
397.39	1774.13
397.58	1771.79
397.77	1827.96
397.97	1795.19
398.16	1844.34
398.35	1898.17
398.55	1785.83
398.74	1816.26
398.93	1870.09
399.12	1907.54
399.32	1909.88
399.51	1952.01
399.70	1959.03
399.90	1930.94
400.09	1966.05
400.28	2052.65
400.47	1994.14
400.67	2136.91
400.86	2040.95
401.05	2148.61
401.24	2127.55
401.44	2083.08
401.63	2078.40
401.82	2099.46
402.01	2092.44
402.21	2211.81
402.40	2211.81
402.59	2284.36
402.78	2211.81
402.97	2253.94
403.17	2282.02
403.36	2223.51
403.55	2260.96
403.74	2221.17
403.93	2359.26
404.13	2335.85
404.32	2399.05
404.51	2396.71
404.70	2406.07
404.89	2356.92
405.09	2523.10
405.28	2338.20
405.47	2415.43
405.66	2607.36
405.85	2431.82
406.05	2495.01
406.24	2532.46
406.43	2593.31
406.62	2614.38
406.81	2640.12
407.00	2553.52
407.20	2562.89
407.39	2539.48
407.58	2722.04
407.77	2693.96
407.96	2761.83
408.15	2787.58
408.34	2705.66
408.54	2668.21
408.73	2850.77
408.92	2820.35
409.11	2846.09
409.30	2857.79
409.49	2860.13
409.68	2925.67
409.87	3061.42
410.07	3049.72
410.26	2918.65
410.45	3138.66
410.64	2986.52
410.83	3164.40
411.02	3138.66
411.21	3052.06
411.40	2981.84
411.59	3251.00
411.78	3206.53
411.98	3253.34
412.17	3396.12
412.36	3267.39
412.55	3300.16
412.74	3496.76
412.93	3358.67
413.12	3251.00
413.31	3653.58
413.50	3550.59
413.69	3501.44
413.88	3634.85
414.07	3562.30
414.26	3665.28
414.45	3674.64
414.64	3494.42
414.83	3761.24
415.02	3651.24
415.22	3889.97
415.41	3768.26
415.60	3878.27
415.79	3854.86
415.98	4049.13
416.17	3936.78
416.36	4011.68
416.55	4030.40
416.74	4121.68
416.93	4229.35
417.12	4227.01
417.31	4184.88
417.50	4215.30
417.69	4241.05
417.88	4219.99
418.07	4229.35
418.26	4299.56
418.45	4365.10
418.64	4517.23
418.83	4486.81
419.02	4491.49
419.21	4622.56
419.39	4514.89
419.58	4454.04
419.77	4423.61
419.96	4416.59
420.15	4688.09
420.34	4599.15
420.53	4669.37
420.72	4657.67
420.91	4655.33
421.10	4702.14
421.29	4676.39
421.48	4770.01
421.67	4781.71
421.86	4851.93
422.05	4880.02
422.24	4784.06
422.43	4847.25
422.61	4929.17
422.80	5048.54
422.99	4884.70
423.18	5004.07
423.37	5001.72
423.56	4835.55
423.75	4830.87
423.94	4868.31
424.13	4592.13
424.32	4809.80
424.50	5057.90
424.69	5083.64
424.88	5069.60
425.07	4936.19
425.26	5123.43
425.45	4873.00
425.64	4933.85
425.83	4945.55
426.01	5128.11
426.20	5078.96
426.39	5217.05
426.58	5027.47
426.77	5135.14
426.96	5188.97
427.15	5085.98
427.33	5139.82
427.52	5291.95
427.71	5291.95
427.90	5289.61
428.09	5151.52
428.28	5322.38
428.46	5329.40
428.65	5296.63
428.84	5568.13
429.03	5458.13
429.22	5446.43
429.40	5549.41
429.59	5636.01
429.78	5399.62
429.97	5315.36
430.16	5586.86
430.34	5572.82
430.53	5523.66
430.72	5678.14
430.91	5659.42
431.10	5497.92
431.28	5872.40
431.47	5919.21
431.66	5802.19
431.85	5750.70
432.03	5785.80
432.22	5907.51
432.41	5834.96
432.60	6038.58
432.79	5961.34
432.97	5921.56
433.16	5851.34
433.35	5891.13
433.54	5935.60
433.72	6181.35
433.91	6003.47
434.10	6207.10
434.28	6078.37
434.47	6242.21
434.66	6242.21
434.85	6274.98
435.03	6462.22
435.22	6422.43
435.41	6612.01
435.59	6445.84
435.78	6473.92
435.97	6579.25
436.16	6546.48
436.34	6569.88
436.53	6623.72
436.72	6497.33
436.90	6228.17
437.09	6726.70
437.28	6633.08
437.46	6771.17
437.65	6710.32
437.84	6815.64
438.02	6661.16
438.21	6888.20
438.40	6649.46
438.58	7012.24
438.77	6972.46
438.96	6825.00
439.14	7194.81
439.33	7023.95
439.52	7164.38
439.70	7360.98
439.89	7447.58
440.08	7356.30
440.26	7279.07
440.45	7440.56
440.63	7316.51
440.82	7557.59
441.01	7550.57
441.19	7489.71
441.38	7815.05
441.57	7906.33
441.75	7761.22
441.94	8079.53
442.12	7985.91
442.31	8285.50
442.50	8037.40
442.68	7981.23
442.87	8044.42
443.05	8182.51
443.24	8348.69
443.43	7929.74
443.61	8187.19
443.80	8313.58
443.98	7990.59
444.17	7700.36
444.35	8114.64
444.54	8351.03
444.73	8439.97
444.91	8386.14
445.10	8372.10
445.28	8278.47
445.47	8161.45
445.65	8451.67
445.84	8524.23
446.02	8519.55
446.21	8421.25
446.39	8528.91
446.58	8594.45
446.77	8521.89
446.95	8285.50
447.14	8512.53
447.32	8592.11
447.51	8306.56
447.69	8601.47
447.88	8596.79
448.06	8446.99
448.25	8505.51
448.43	8662.32
448.62	8409.54
448.80	8512.53
448.99	8760.63
449.17	8938.51
449.36	8613.17
449.54	9004.04
449.73	9174.90
449.91	9069.58
450.10	8854.25
450.28	9179.58
450.46	9104.68
450.65	9177.24
450.83	9219.37
451.02	9018.08
451.20	9383.21
451.39	9156.18
451.57	8872.97
451.76	8980.64
451.94	9011.06
452.13	9156.18
452.31	9427.68
452.49	9303.63
452.68	9310.65
452.86	9366.82
453.05	9411.29
453.23	9310.65
453.42	9455.76
453.60	9465.13
453.78	9509.60
453.97	9467.47
454.15	9607.90
454.34	9533.00
454.52	9905.15
454.70	9624.28
454.89	9640.67
455.07	9708.54
455.26	9582.15
455.44	9886.42
455.62	9856.00
455.81	9877.06
455.99	9956.64
456.17	9982.38
456.36	10174.31
456.54	10139.20
456.73	10340.49
456.91	10459.85
457.09	10328.78
457.28	10485.60
457.46	10237.50
457.64	10670.50
457.83	10363.89
458.01	10443.47
458.19	10761.78
458.38	10780.51
458.56	10799.23
458.74	10633.05
458.93	10686.89
459.11	10609.65
459.29	10647.10
459.48	10832.00
459.66	10960.73
459.84	10750.08
460.03	11096.48
460.21	11119.89
460.39	10932.64
460.57	11154.99
460.76	11176.06
460.94	11073.07
461.12	11124.57
461.31	11304.79
461.49	11131.59
461.67	11255.64
461.85	11543.52
462.04	11307.13
462.22	12086.53
462.40	11789.28
462.59	11576.29
462.77	11548.20
462.95	11662.89
463.13	11609.06
463.32	11810.34
463.50	11777.58
463.68	11812.68
463.86	11889.92
464.05	11672.25
464.23	11901.62
464.41	11901.62
464.59	11843.11
464.78	12135.68
464.96	12018.65
465.14	11857.15
465.32	12035.03
465.50	12065.46
465.69	12135.68
465.87	12119.29
466.05	11983.54
466.23	12367.39
466.41	12365.05
466.60	12711.45
466.78	12105.25
466.96	11999.93
467.14	12212.92
467.32	12493.78
467.51	12720.81
467.69	12287.81
467.87	12599.10
468.05	12781.67
468.23	12407.18
468.41	12571.02
468.60	12535.91
468.78	12917.42
468.96	12685.70
469.14	12954.87
469.32	13020.40
469.50	12482.08
469.69	13015.72
469.87	13181.90
470.05	13153.81
470.23	13160.83
470.41	13202.96
470.59	13221.69
470.77	13174.88
470.95	13392.55
471.14	13598.51
471.32	13095.30
471.50	13598.51
471.68	13521.27
471.86	13537.66
472.04	14106.41
472.22	14026.83
472.40	13764.69
472.58	13944.91
472.77	13619.58
472.95	14253.86
473.13	14593.24
473.31	14017.47
473.49	14015.13
473.67	14050.24
473.85	14317.06
474.03	14560.47
474.21	14651.75
474.39	14918.57
474.57	14869.42
474.75	15140.93
474.93	14827.29
475.12	14974.75
475.30	15220.50
475.48	15173.69
475.66	15103.48
475.84	15126.88
476.02	15353.91
476.20	15796.28
476.38	15730.74
476.56	16189.49
476.74	16086.50
476.92	15857.13
477.10	16016.29
477.28	16149.70
477.46	16262.04
477.64	16563.97
477.82	16563.97
478.00	16996.97
478.18	16805.05
478.36	16973.56
478.54	17191.23
478.72	17308.26
478.90	17266.13
479.08	17539.97
479.26	18026.81
479.44	17722.54
479.62	18036.17
479.80	18075.96
479.98	18230.43
480.16	18721.95
480.34	18637.69
480.52	18775.78
480.70	18445.76
480.88	18558.11
481.06	18888.12
481.24	19023.87
481.41	19314.10
481.59	19176.01
481.77	19908.60
481.95	19578.58
482.13	19981.15
482.31	19866.47
482.49	20259.68
482.67	20292.44
482.85	20428.20
483.03	20781.62
483.21	21092.91
483.39	20950.14
483.57	21013.33
483.74	21273.13
483.92	21809.11
484.10	21310.58
484.28	21860.60
484.46	21961.25
484.64	22312.33
484.82	22066.57
485.00	22541.70
485.18	22841.29
485.35	23094.07
485.53	22958.31
485.71	23014.49
485.89	23786.86
486.07	23468.55
486.25	23494.30
486.43	23824.31
486.61	23639.41
486.78	24250.29
486.96	24198.80
487.14	24648.18
487.32	24727.76
487.50	25083.52
487.68	25142.03
487.85	25399.49
488.03	25589.08
488.21	25996.33
488.39	25975.27
488.57	26314.64
488.75	25972.92
488.92	26621.25
489.10	26988.72
489.28	26979.36
489.46	27129.15
489.64	27417.04
489.81	27894.50
489.99	27859.40
490.17	28048.98
490.35	28140.26
490.53	28215.16
490.70	28243.24
490.88	28570.92
491.06	28622.41
491.24	28634.11
491.41	28884.55
491.59	29057.75
491.77	29766.93
491.95	29869.92
492.13	29914.39
492.30	30307.60
492.48	30085.25
492.66	30305.26
492.84	30340.36
493.01	30883.37
493.19	30663.36
493.37	31395.95
493.54	31278.92
493.72	31592.55
493.90	31683.83
494.08	31735.32
494.25	32238.54
494.43	31974.06
494.61	32947.72
494.79	32800.27
494.96	32535.79
495.14	32854.10
495.32	33193.48
495.49	33523.49
495.67	33453.28
495.85	33598.39
496.02	33855.85
496.20	33963.51
496.38	34705.46
496.55	33895.64
496.73	34962.92
496.91	35133.78
497.09	34820.15
497.26	35101.01
497.44	34909.09
497.62	35655.72
497.79	35805.52
497.97	35681.47
498.14	35959.99
498.32	36254.90
498.50	36315.75
498.67	36638.75
498.85	36528.74
499.03	36772.16
499.20	36919.61
499.38	37202.82
499.56	37088.13
499.73	37528.15
499.91	37654.54
500.08	37635.81
500.26	37511.77
500.44	37935.40
500.61	38188.18
500.79	37839.44
500.97	38258.40
501.14	38522.88
501.32	39002.69
501.49	38646.93
501.67	38703.10
501.84	39213.34
502.02	39119.71
502.20	39311.64
502.37	39533.99
502.55	39533.99
502.72	39782.09
502.90	39576.12
503.07	39910.82
503.25	40140.19
503.43	39871.03
503.60	40547.44
503.78	40177.64
503.95	40428.07
504.13	40683.19
504.30	40950.01
504.48	40935.97
504.65	40994.48
504.83	40762.77
505.01	41399.40
505.18	41345.56
505.36	41663.88
505.53	41663.88
505.71	41441.53
505.88	42134.32
506.06	41151.30
506.23	42050.06
506.41	42237.31
506.58	42424.55
506.76	42190.50
506.93	42775.63
507.11	42763.93
507.28	42600.09
507.46	42892.66
507.63	43115.01
507.81	43540.99
507.98	43271.82
508.16	43295.23
508.33	43536.30
508.50	43484.81
508.68	44004.41
508.85	43962.28
509.03	43999.73
509.20	44210.38
509.38	44301.66
509.55	44741.68
509.73	44753.38
509.90	44584.86
510.08	44746.36
510.25	44898.50
510.42	44842.32
510.60	45567.89
510.77	45401.71
510.95	45551.51
511.12	45186.38
511.30	45078.72
511.47	45682.58
511.64	45516.40
511.82	46253.67
511.99	45591.30
512.17	46141.32
512.34	46150.68
512.51	46560.28
512.69	46469.00
512.86	46696.03
513.04	46588.36
513.21	46747.52
513.38	46794.33
513.56	46887.95
513.73	46981.57
513.90	47159.45
514.08	47271.80
514.25	47379.46
514.43	47849.91
514.60	47915.45
514.77	47679.05
514.95	48271.21
515.12	48123.75
515.29	47873.32
515.47	48032.47
515.64	48458.45
515.81	48329.72
515.99	48243.12
516.16	48741.66
516.33	48179.93
516.51	48753.36
516.68	48868.05
516.85	48762.72
517.03	49139.55
517.20	49326.79
517.37	48507.60
517.54	49008.48
517.72	49319.77
517.89	49432.11
518.06	49083.37
518.24	49172.31
518.41	49722.34
518.58	49631.06
518.75	49357.22
518.93	49811.28
519.10	49551.48
519.27	49851.07
519.45	49951.71
519.62	50035.97
519.79	50138.96
519.96	49656.81
520.14	50511.10
520.31	50129.59
520.48	50574.30
520.65	50639.83
520.83	50848.14
521.00	51096.24
521.17	50698.34
521.34	50696.00
521.52	51189.86
521.69	50927.72
521.86	51192.20
522.03	51379.44
522.20	51496.47
522.38	51627.54
522.55	51709.46
522.72	51828.82
522.89	51751.59
523.07	51674.35
523.24	51753.93
523.41	51592.43
523.58	51742.22
523.75	51885.00
523.92	51772.65
524.10	52002.02
524.27	52430.34
524.44	52240.76
524.61	52432.68
524.78	52364.81
524.96	52317.99
525.13	52636.31
525.30	52507.58
525.47	52697.16
525.64	52767.38
525.81	52797.80
525.98	52861.00
526.16	52872.70
526.33	53230.80
526.50	53139.52
526.67	52774.40
526.84	52999.09
527.01	52975.69
527.18	53518.69
527.36	53015.47
527.53	53022.50
527.70	53570.18
527.87	53331.45
528.04	53279.96
528.21	53684.87
528.38	53291.66
528.55	53844.02
528.72	53518.69
528.89	53429.75
529.07	53425.07
529.24	53656.78
529.41	53755.08
529.58	53736.36
529.75	53605.29
529.92	53888.49
530.09	53970.41
530.26	53876.79
530.43	54087.44
530.60	53897.86
530.77	53893.18
530.94	54314.47
531.11	54068.72
531.28	54073.40
531.46	54417.46
531.63	54199.79
531.80	54536.82
531.97	54583.63
532.14	54454.90
532.31	54534.48
532.48	54700.66
532.65	54667.89
532.82	54583.63
532.99	54805.98
533.16	54698.32
533.33	54944.08
533.50	55175.79
533.67	55028.34
533.84	54855.14
534.01	55004.93
534.18	55147.70
534.35	55386.44
534.52	55295.16
534.69	55255.37
534.86	55501.12
535.03	55037.70
535.20	55189.83
535.37	55426.23
535.54	55484.74
535.71	55426.23
535.88	55454.31
536.05	55608.79
536.22	55875.61
536.38	55646.24
536.55	55920.08
536.72	55702.41
536.89	55927.10
537.06	55580.70
537.23	55941.14
537.40	55870.93
537.57	56037.11
537.74	56011.36
537.91	56303.93
538.08	56051.15
538.25	55812.41
538.42	55891.99
538.59	56231.37
538.75	56179.88
538.92	56025.40
539.09	56444.36
539.26	56224.35
539.43	56083.92
539.60	56299.25
539.77	56388.19
539.94	56589.47
540.11	56486.49
540.28	56488.83
540.44	56725.22
540.61	56545.00
540.78	56484.15
540.95	56420.95
541.12	56343.72
541.29	56495.85
541.46	56725.22
541.62	56872.68
541.79	56713.52
541.96	56631.60
542.13	56708.84
542.30	56750.97
542.47	56879.70
542.63	56807.14
542.80	56889.06
542.97	57174.61
543.14	57361.85
543.31	56973.32
543.48	57282.27
543.64	57471.85
543.81	57265.89
543.98	57532.71
544.15	57549.09
544.32	57483.56
544.48	57652.08
544.65	57439.09
544.82	57551.43
544.99	57352.49
545.16	57766.76
545.32	57570.16
545.49	57602.92
545.66	57895.49
545.83	57771.44
546.00	57897.83
546.16	57705.91
546.33	57806.55
546.50	57724.63
546.67	57958.69
546.83	57502.28
547.00	57984.43
547.17	57975.07
547.34	57986.77
547.50	58033.58
547.67	58358.92
547.84	58099.12
548.00	58351.90
548.17	58340.19
548.34	58258.27
548.51	58328.49
548.67	58485.31
548.84	58246.57
549.01	58169.33
549.18	58431.47
549.34	58431.47
549.51	58611.70
549.68	58497.01
549.84	58298.06
550.01	58663.19
550.18	58358.92
550.34	58553.18
550.51	58447.86
550.68	58394.03
550.84	58019.54
551.01	58864.47
551.18	58401.05
551.34	58724.04
551.51	58649.14
551.68	58749.79
551.84	58571.91
552.01	58712.34
552.18	58862.13
552.34	58562.54
552.51	58941.71
552.68	58780.21
552.84	58852.77
553.01	59138.32
553.18	58953.41
553.34	58997.88
553.51	59051.72
553.67	58937.03
553.84	59110.23
554.01	58941.71
554.17	59028.31
554.34	59164.06
554.51	59072.78
554.67	59220.23
554.84	59077.46
555.00	59194.49
555.17	59100.87
555.33	59253.00
555.50	58979.16
555.67	59135.98
555.83	59323.22
556.00	59199.17
556.16	59402.80
556.33	59477.69
556.50	59267.05
556.66	59360.67
556.83	59325.56
556.99	59629.83
557.16	59648.55
557.32	59545.57
557.49	59653.23
557.65	59576.00
557.82	59550.25
557.98	59491.74
558.15	59426.20
558.32	59533.87
558.48	59269.39
558.65	59440.24
558.81	59840.48
558.98	59522.16
559.14	59557.27
559.31	59760.90
559.47	60013.68
559.64	59910.69
559.80	59714.09
559.97	59884.95
560.13	59746.86
560.30	59770.26
560.46	59915.37
560.63	59906.01
560.79	59906.01
560.96	60032.40
561.12	59978.57
561.29	59992.61
561.45	59880.27
561.61	59833.46
561.78	60053.47
561.94	59941.12
562.11	59898.99
562.27	60069.85
562.44	60111.98
562.60	60013.68
562.77	60006.65
562.93	59978.57
563.10	60081.55
563.26	59978.57
563.42	60339.01
563.59	60360.08
563.75	60221.98
563.92	60116.66
564.08	60020.70
564.24	60303.90
564.41	60282.84
564.57	60186.88
564.74	60313.26
564.90	60203.26
565.07	60182.19
565.23	60231.35
565.39	60191.56
565.56	60303.90
565.72	60090.91
565.88	60240.71
566.05	60360.08
566.21	60221.98
566.38	60301.56
566.54	60486.46
566.70	60556.68
566.87	60327.31
567.03	60196.24
567.19	60858.61
567.36	60537.96
567.52	60378.80
567.68	60554.34
567.85	60374.12
568.01	60439.65
568.17	60467.74
568.34	60566.04
568.50	60528.59
568.66	60367.10
568.83	60367.10
568.99	60453.70
569.15	60451.36
569.32	60598.81
569.48	60495.83
569.64	60720.52
569.81	60617.53
569.97	60430.29
570.13	60512.21
570.30	60388.16
570.46	60566.04
570.62	60650.30
570.78	60603.49
570.95	60685.41
571.11	60587.11
571.27	60601.15
571.43	60706.47
571.60	60736.90
571.76	60683.07
571.92	60690.09
572.09	60779.03
572.25	60722.86
572.41	60573.06
572.57	60652.64
572.74	60921.80
572.90	60858.61
573.06	60626.90
573.22	60544.98
573.38	60596.47
573.55	60662.00
573.71	61003.72
573.87	60975.64
574.03	60701.79
574.20	60673.71
574.36	60608.17
574.52	60870.31
574.68	60938.19
574.84	61134.79
575.01	60821.16
575.17	60823.50
575.33	60779.03
575.49	60980.32
575.65	60924.14
575.82	60659.66
575.98	60800.10
576.14	61080.96
576.30	61057.56
576.46	60772.01
576.62	60795.42
576.79	60903.08
576.95	60736.90
577.11	61130.11
577.27	60940.53
577.43	61057.56
577.59	60687.75
577.75	60760.31
577.92	60804.78
578.08	60970.96
578.24	60711.16
578.40	61062.24
578.56	61006.06
578.72	60954.57
578.88	61085.64
579.04	61151.18
579.21	60977.98
579.37	60985.00
579.53	60935.85
579.69	60912.44
579.85	60942.87
580.01	60903.08
580.17	61179.26
580.33	60982.66
580.49	60996.70
580.65	60912.44
580.82	60961.59
580.98	60996.70
581.14	60874.99
581.30	61095.00
581.46	61027.13
581.62	60999.04
581.78	60940.53
581.94	61099.68
582.10	60994.36
582.26	60980.32
582.42	60961.59
582.58	61179.26
582.74	60954.57
582.90	61003.72
583.06	61127.77
583.22	60882.02
583.38	60994.36
583.54	61024.79
583.70	61183.94
583.86	61080.96
584.02	60867.97
584.18	61146.50
584.34	61106.71
584.50	61237.78
584.66	61080.96
584.82	60985.00
584.98	61261.18
585.14	61254.16
585.30	60987.34
585.46	60985.00
585.62	61277.57
585.78	61160.54
585.94	60940.53
586.10	61139.47
586.26	61022.45
586.42	61343.10
586.58	61179.26
586.74	61123.09
586.90	61120.75
587.06	61073.94
587.22	61256.50
587.38	61242.46
587.54	61221.39
587.70	61415.66
587.86	61389.91
588.02	61179.26
588.18	61263.52
588.34	61085.64
588.49	61312.67
