SpectraSuite Data File
++++++++++++++++++++++++++++++++++++
Date: Fri Oct 25 11:34:30 EDT 2013
User: price-jones
Dark Spectrum Present: No
Reference Spectrum Present: No
Number of Sampled Component Spectra: 1
Spectrometers: USB2+H05261
Integration Time (usec): 100000 (USB2+H05261)
Spectra Averaged: 1 (USB2+H05261)
Boxcar Smoothing: 0 (USB2+H05261)
Correct for Electrical Dark: No (USB2+H05261)
Strobe/Lamp Enabled: No (USB2+H05261)
Correct for Detector Non-linearity: No (USB2+H05261)
Correct for Stray Light: No (USB2+H05261)
Number of Pixels in Processed Spectrum: 2048
>>>>>Begin Processed Spectral Data<<<<<
365.73	313.63
365.92	313.63
366.12	313.63
366.32	215.33
366.52	224.69
366.72	212.99
366.91	159.16
367.11	196.60
367.31	182.56
367.51	149.79
367.70	187.24
367.90	196.60
368.10	156.82
368.30	156.82
368.49	175.54
368.69	205.97
368.89	210.65
369.09	177.88
369.28	201.29
369.48	166.18
369.68	168.52
369.87	231.71
370.07	248.10
370.27	231.71
370.47	395.55
370.66	395.55
370.86	535.98
371.06	512.58
371.25	566.41
371.45	498.53
371.65	554.71
371.84	557.05
372.04	505.56
372.24	571.09
372.44	662.37
372.63	573.43
372.83	568.75
373.03	575.77
373.22	601.52
373.42	613.22
373.62	627.26
373.81	676.41
374.01	617.90
374.21	566.41
374.40	615.56
374.60	629.60
374.79	643.65
374.99	709.18
375.19	653.01
375.38	657.69
375.58	615.56
375.78	758.33
375.97	629.60
376.17	674.07
376.37	732.59
376.56	692.80
376.76	636.63
376.95	617.90
377.15	622.58
377.35	699.82
377.54	566.41
377.74	711.52
377.93	688.12
378.13	744.29
378.33	671.73
378.52	657.69
378.72	645.99
378.91	683.44
379.11	674.07
379.31	751.31
379.50	697.48
379.70	702.16
379.89	702.16
380.09	664.71
380.28	667.05
380.48	723.23
380.68	692.80
380.87	692.80
381.07	732.59
381.26	770.04
381.46	716.20
381.65	770.04
381.85	779.40
382.04	800.46
382.24	744.29
382.43	772.38
382.63	737.27
382.83	704.50
383.02	758.33
383.22	807.48
383.41	711.52
383.61	837.91
383.80	819.19
384.00	781.74
384.19	812.17
384.39	823.87
384.58	770.04
384.78	791.10
384.97	809.83
385.17	784.08
385.36	788.76
385.56	903.45
385.75	873.02
385.95	840.25
386.14	847.27
386.34	807.48
386.53	858.98
386.72	868.34
386.92	884.72
387.11	866.00
387.31	880.04
387.50	837.91
387.70	849.61
387.89	809.83
388.09	814.51
388.28	821.53
388.48	905.79
388.67	992.39
388.86	929.19
389.06	936.21
389.25	903.45
389.45	908.13
389.64	809.83
389.84	887.06
390.03	945.58
390.22	910.47
390.42	978.34
390.61	961.96
390.81	964.30
391.00	957.28
391.19	1020.47
391.39	947.92
391.58	964.30
391.78	952.60
391.97	992.39
392.16	950.26
392.36	1055.58
392.55	992.39
392.75	1004.09
392.94	1097.71
393.13	1060.26
393.33	1146.86
393.52	1076.65
393.71	1086.01
393.91	1011.11
394.10	1088.35
394.29	1050.90
394.49	1025.15
394.68	1060.26
394.88	976.00
395.07	1123.46
395.26	1095.37
395.46	1144.52
395.65	1184.31
395.84	1174.95
396.04	1137.50
396.23	1088.35
396.42	1165.59
396.62	1135.16
396.81	1158.57
397.00	1128.14
397.19	1132.82
397.39	1256.87
397.58	1139.84
397.77	1153.88
397.97	1205.38
398.16	1151.54
398.35	1125.80
398.55	1196.01
398.74	1254.53
398.93	1277.93
399.12	1191.33
399.32	1299.00
399.51	1219.42
399.70	1303.68
399.90	1294.32
400.09	1362.19
400.28	1439.43
400.47	1364.53
400.67	1336.45
400.86	1329.42
401.05	1409.00
401.24	1324.74
401.44	1423.05
401.63	1336.45
401.82	1418.36
402.01	1406.66
402.21	1399.64
402.40	1432.41
402.59	1444.11
402.78	1488.58
402.97	1451.13
403.17	1544.75
403.36	1497.94
403.55	1540.07
403.74	1537.73
403.93	1526.03
404.13	1558.80
404.32	1507.30
404.51	1516.67
404.70	1462.83
404.89	1549.43
405.09	1689.87
405.28	1598.59
405.47	1572.84
405.66	1661.78
405.85	1582.20
406.05	1636.03
406.24	1701.57
406.43	1732.00
406.62	1724.97
406.81	1729.66
407.00	1713.27
407.20	1671.14
407.39	1652.42
407.58	1769.44
407.77	1774.13
407.96	1739.02
408.15	1879.45
408.34	1750.72
408.54	1891.15
408.73	1774.13
408.92	1865.41
409.11	1809.23
409.30	1884.13
409.49	1984.77
409.68	1916.90
409.87	1858.39
410.07	2069.03
410.26	1944.99
410.45	1919.24
410.64	2073.71
410.83	2066.69
411.02	2033.93
411.21	2176.70
411.40	2094.78
411.59	2143.93
411.78	2127.55
411.98	2062.01
412.17	2087.76
412.36	2193.08
412.55	2218.83
412.74	2186.06
412.93	2256.28
413.12	2223.51
413.31	2319.47
413.50	2319.47
413.69	2232.87
413.88	2373.30
414.07	2244.57
414.26	2326.49
414.45	2392.03
414.64	2363.94
414.83	2562.89
415.02	2485.65
415.22	2499.69
415.41	2506.71
415.60	2513.74
415.79	2560.55
415.98	2537.14
416.17	2710.34
416.36	2513.74
416.55	2595.65
416.74	2644.81
416.93	2640.12
417.12	2722.04
417.31	2750.13
417.50	2752.47
417.69	2752.47
417.88	2810.98
418.07	2862.48
418.26	2771.19
418.45	2820.35
418.64	2998.23
418.83	2904.60
419.02	2902.26
419.21	2911.63
419.39	2902.26
419.58	2970.14
419.77	2935.03
419.96	3052.06
420.15	2953.76
420.34	3066.10
420.53	2995.89
420.72	3269.73
420.91	3019.29
421.10	3129.30
421.29	3115.25
421.48	3150.36
421.67	3178.45
421.86	3063.76
422.05	3133.98
422.24	3227.60
422.43	3288.45
422.61	3136.32
422.80	3363.35
422.99	3164.40
423.18	3356.33
423.37	3377.39
423.56	3316.54
423.75	3222.92
423.94	3096.53
424.13	3077.80
424.32	3197.17
424.50	3133.98
424.69	3531.87
424.88	3459.31
425.07	3248.66
425.26	3236.96
425.45	3318.88
425.64	3393.78
425.83	3243.98
426.01	3449.95
426.20	3293.13
426.39	3290.79
426.58	3236.96
426.77	3382.07
426.96	3410.16
427.15	3297.81
427.33	3449.95
427.52	3456.97
427.71	3550.59
427.90	3559.95
428.09	3487.40
428.28	3438.25
428.46	3578.68
428.65	3599.74
428.84	3599.74
429.03	3604.42
429.22	3508.46
429.40	3637.19
429.59	3583.36
429.78	3433.57
429.97	3581.02
430.16	3686.34
430.34	3698.05
430.53	3634.85
430.72	3602.08
430.91	3714.43
431.10	3581.02
431.28	3726.13
431.47	3871.25
431.66	3852.52
431.85	3775.28
432.03	3824.44
432.22	3899.33
432.41	3906.35
432.60	3969.55
432.79	3875.93
432.97	3794.01
433.16	3831.46
433.35	3829.12
433.54	3918.06
433.72	3803.37
433.91	3955.51
434.10	4002.32
434.28	4007.00
434.47	3943.80
434.66	4112.32
434.85	4102.96
435.03	4138.07
435.22	4124.02
435.41	4156.79
435.59	4278.50
435.78	4175.52
435.97	4297.22
436.16	4219.99
436.34	4018.70
436.53	4262.12
436.72	4301.90
436.90	4159.13
437.09	4339.35
437.28	4259.78
437.46	4379.14
437.65	4372.12
437.84	4369.78
438.02	4447.02
438.21	4369.78
438.40	4451.70
438.58	4477.44
438.77	4624.90
438.96	4587.45
439.14	4741.93
439.33	4669.37
439.52	4566.39
439.70	4716.18
439.89	4889.38
440.08	4779.37
440.26	4774.69
440.45	4723.20
440.63	4968.96
440.82	5022.79
441.01	4992.36
441.19	4858.95
441.38	4908.10
441.57	5048.54
441.75	5121.09
441.94	5107.05
442.12	5025.13
442.31	5186.63
442.50	5324.72
442.68	5186.63
442.87	5195.99
443.05	5303.65
443.24	5462.81
443.43	5364.51
443.61	5233.44
443.80	5483.88
443.98	5331.74
444.17	5139.82
444.35	5212.37
444.54	5371.53
444.73	5399.62
444.91	5434.72
445.10	5518.98
445.28	5455.79
445.47	5446.43
445.65	5294.29
445.84	5535.37
446.02	5682.82
446.21	5416.00
446.39	5392.59
446.58	5420.68
446.77	5516.64
446.95	5357.49
447.14	5568.13
447.32	5502.60
447.51	5376.21
447.69	5526.00
447.88	5509.62
448.06	5483.88
448.25	5441.75
448.43	5708.57
448.62	5558.77
448.80	5661.76
448.99	5537.71
449.17	5657.07
449.36	5439.40
449.54	5804.53
449.73	5708.57
449.91	5867.72
450.10	5715.59
450.28	5734.31
450.46	6022.20
450.65	5877.09
450.83	5834.96
451.02	5809.21
451.20	5968.37
451.39	5940.28
451.57	5825.59
451.76	5912.19
451.94	5881.77
452.13	6101.78
452.31	5959.00
452.49	5858.36
452.68	6022.20
452.86	5891.13
453.05	6038.58
453.23	6148.59
453.42	5912.19
453.60	5956.66
453.78	6293.70
453.97	6108.80
454.15	6157.95
454.34	6036.24
454.52	6289.02
454.70	6143.91
454.89	6300.72
455.07	6342.85
455.26	6274.98
455.44	6307.74
455.62	6406.05
455.81	6368.60
455.99	6537.12
456.17	6293.70
456.36	6424.77
456.54	6579.25
456.73	6736.06
456.91	6677.55
457.09	6825.00
457.28	6761.81
457.46	6583.93
457.64	6691.59
457.83	6747.76
458.01	6916.28
458.19	6935.01
458.38	6752.45
458.56	7028.63
458.74	6904.58
458.93	6815.64
459.11	6846.07
459.29	6829.68
459.48	6944.37
459.66	6956.07
459.84	7094.16
460.03	7204.17
460.21	7150.34
460.39	6895.22
460.57	7180.76
460.76	7075.44
460.94	7000.54
461.12	7211.19
461.31	7164.38
461.49	6986.50
461.67	7169.06
461.85	7258.00
462.04	7176.08
462.22	7735.47
462.40	7286.09
462.59	7304.81
462.77	7398.43
462.95	7531.84
463.13	7328.22
463.32	7393.75
463.50	7459.29
463.68	7641.85
463.86	7548.23
464.05	7513.12
464.23	7461.63
464.41	7602.06
464.59	7442.90
464.78	7709.72
464.96	7674.62
465.14	7520.14
465.32	7793.98
465.50	7894.63
465.69	7817.39
465.87	7801.01
466.05	7866.54
466.23	7705.04
466.41	7878.24
466.60	7936.76
466.78	7789.30
466.96	7667.60
467.14	7698.02
467.32	8013.99
467.51	8016.33
467.69	7826.75
467.87	8142.72
468.05	7911.01
468.23	7845.48
468.41	8004.63
468.60	8018.68
468.78	8105.28
468.96	7976.55
469.14	8112.30
469.32	8140.38
469.50	8028.04
469.69	8243.37
469.87	8428.27
470.05	8374.44
470.23	8465.72
470.41	8320.60
470.59	8369.76
470.77	8348.69
470.95	8407.20
471.14	8634.24
471.32	8458.70
471.50	8557.00
471.68	8674.03
471.86	8823.82
472.04	8706.79
472.22	8823.82
472.40	8648.28
472.58	8695.09
472.77	8901.06
472.95	8938.51
473.13	9238.09
473.31	8908.08
473.49	9121.07
473.67	9015.74
473.85	9125.75
474.03	9214.69
474.21	9355.12
474.39	9394.91
474.57	9217.03
474.75	9439.38
474.93	9399.59
475.12	9453.42
475.30	9458.10
475.48	9699.18
475.66	9643.01
475.84	9664.07
476.02	9584.49
476.20	9813.87
476.38	9926.21
476.56	9874.72
476.74	10026.86
476.92	9846.63
477.10	10073.67
477.28	10265.59
477.46	10167.29
477.64	10345.17
477.82	10441.13
478.00	10604.97
478.18	10703.27
478.36	10698.59
478.54	10775.83
478.72	10850.72
478.90	10874.13
479.08	11152.65
479.26	11190.10
479.44	11108.18
479.62	11265.00
479.80	11197.12
479.98	11442.88
480.16	11798.64
480.34	11662.89
480.52	11796.30
480.70	11522.46
480.88	11681.61
481.06	11611.40
481.24	11927.37
481.41	11901.62
481.59	11939.07
481.77	12180.15
481.95	12079.50
482.13	12468.03
482.31	12521.87
482.49	12903.37
482.67	12821.45
482.85	13081.25
483.03	12821.45
483.21	12971.25
483.39	13238.07
483.57	13118.70
483.74	13125.72
483.92	13322.33
484.10	13137.43
484.28	13425.31
484.46	13792.78
484.64	14071.30
484.82	13767.03
485.00	13937.89
485.18	14195.35
485.35	14345.14
485.53	14263.22
485.71	14403.66
485.89	14651.75
486.07	14707.93
486.25	14586.22
486.43	14766.44
486.61	14991.13
486.78	14932.62
486.96	15105.82
487.14	15253.27
487.32	15356.25
487.50	15400.72
487.68	15651.16
487.85	15709.68
488.03	15871.17
488.21	16346.30
488.39	16065.44
488.57	16208.21
488.75	16229.27
488.92	16547.59
489.10	16627.17
489.28	16781.64
489.46	16816.75
489.64	16961.86
489.81	17341.03
489.99	17301.24
490.17	17387.84
490.35	17664.02
490.53	17628.92
490.70	17741.26
490.88	17589.13
491.06	18150.85
491.24	17832.54
491.41	17893.40
491.59	18094.68
491.77	18431.72
491.95	18408.31
492.13	18565.13
492.30	18696.20
492.48	18764.07
492.66	18766.42
492.84	19234.52
493.01	19314.10
493.19	19009.83
493.37	19168.99
493.54	19637.09
493.72	19910.94
493.90	19407.72
494.08	19880.51
494.25	19922.64
494.43	19962.43
494.61	20231.59
494.79	20306.49
494.96	20095.84
495.14	20484.37
495.32	20908.01
495.49	20840.13
495.67	20709.06
495.85	20753.53
496.02	20957.16
496.20	21067.16
496.38	21319.94
496.55	21235.68
496.73	21879.33
496.91	21472.07
497.09	21490.80
497.26	21785.71
497.44	21666.34
497.62	21640.59
497.79	22106.36
497.97	22078.27
498.14	22349.78
498.32	22363.82
498.50	22513.61
498.67	22548.72
498.85	22562.76
499.03	23054.28
499.20	22939.59
499.38	23145.56
499.56	23019.17
499.73	23084.70
499.91	23300.03
500.08	23250.88
500.26	23204.07
500.44	23396.00
500.61	23445.15
500.79	23489.62
500.97	23747.08
501.14	24046.66
501.32	24159.01
501.49	24109.86
501.67	24320.51
501.84	24414.13
502.02	24109.86
502.20	23915.59
502.37	24503.07
502.55	24212.84
502.72	24556.90
502.90	24362.64
503.07	24566.26
503.25	24559.24
503.43	24802.66
503.60	24819.04
503.78	25282.47
503.95	25186.50
504.13	25326.94
504.30	25067.14
504.48	25317.57
504.65	25626.53
504.83	25654.61
505.01	25678.02
505.18	25556.31
505.36	26167.19
505.53	25975.27
505.71	26045.48
505.88	26033.78
506.06	26015.05
506.23	26335.71
506.41	26527.63
506.58	26347.41
506.76	26567.42
506.93	26487.84
507.11	26225.70
507.28	26656.36
507.46	26459.76
507.63	27065.96
507.81	27168.94
507.98	26754.66
508.16	27077.66
508.33	27108.08
508.50	27276.60
508.68	27655.77
508.85	27920.25
509.03	27278.94
509.20	27370.22
509.38	27882.80
509.55	27672.15
509.73	28044.30
509.90	28158.99
510.08	27817.27
510.25	28360.27
510.42	28116.86
510.60	27906.21
510.77	28184.73
510.95	28940.72
511.12	28294.74
511.30	28400.06
511.47	28994.56
511.64	28870.51
511.82	28828.38
511.99	29071.79
512.17	28622.41
512.34	29139.67
512.51	29560.97
512.69	29434.58
512.86	29603.10
513.04	29312.87
513.21	29558.63
513.38	29617.14
513.56	29752.89
513.73	29797.36
513.90	29472.03
514.08	29174.78
514.25	29989.28
514.43	30370.79
514.60	29890.98
514.77	30349.73
514.95	29982.26
515.12	30040.78
515.29	30253.76
515.47	30125.04
515.64	30536.97
515.81	30448.03
515.99	30113.33
516.16	31096.36
516.33	30843.58
516.51	30927.84
516.68	31147.85
516.85	31098.70
517.03	31035.50
517.20	31012.10
517.37	31117.42
517.54	31449.78
517.72	31236.79
517.89	31079.97
518.06	31475.52
518.24	31178.28
518.41	31494.25
518.58	31711.92
518.75	31133.81
518.93	31660.43
519.10	31590.21
519.27	31723.62
519.45	32011.51
519.62	31845.33
519.79	31983.42
519.96	32294.71
520.14	32098.11
520.31	31821.92
520.48	32378.97
520.65	32460.89
520.83	32652.81
521.00	32669.20
521.17	32669.20
521.34	32531.11
521.52	32711.33
521.69	32861.12
521.86	32919.63
522.03	33333.91
522.20	33434.55
522.38	33539.88
522.55	33582.01
522.72	33242.63
522.89	33493.07
523.07	33919.04
523.24	33607.75
523.41	33336.25
523.58	33551.58
523.75	33610.09
523.92	33715.42
524.10	33259.01
524.27	33619.46
524.44	34003.30
524.61	34054.79
524.78	33703.71
524.96	34312.25
525.13	34312.25
525.30	34438.64
525.47	34719.51
525.64	34499.50
525.81	34597.80
525.98	34539.29
526.16	34618.86
526.33	34506.52
526.50	35005.05
526.67	34429.28
526.84	34410.56
527.01	34693.76
527.18	34881.00
527.36	34904.41
527.53	35108.04
527.70	35543.38
527.87	35398.26
528.04	35026.12
528.21	35793.81
528.38	35105.70
528.55	35517.63
528.72	35395.92
528.89	35627.63
529.07	35761.05
529.24	35297.62
529.41	35704.87
529.58	35534.01
529.75	35447.41
529.92	35826.58
530.09	35665.08
530.26	35585.50
530.43	35683.81
530.60	35583.16
530.77	36002.12
530.94	36077.02
531.11	36114.47
531.28	36381.29
531.46	36215.11
531.63	36119.15
531.80	36477.25
531.97	36130.85
532.14	36430.44
532.31	36486.61
532.48	36900.89
532.65	36872.80
532.82	36313.41
532.99	36769.82
533.16	36428.10
533.33	36851.73
533.50	36814.29
533.67	37251.97
533.84	37202.82
534.01	36833.01
534.18	36793.22
534.35	36945.36
534.52	37158.34
534.69	37256.65
534.86	37326.86
535.03	37092.81
535.20	37567.94
535.37	37483.68
535.54	37610.07
535.71	37233.24
535.88	37619.43
536.05	38003.28
536.22	37736.46
536.38	37130.26
536.55	37881.57
536.72	37411.12
536.89	37780.93
537.06	37827.74
537.23	38033.71
537.40	37687.31
537.57	37366.65
537.74	37965.83
537.91	38171.80
538.08	38082.86
538.25	38094.56
538.42	38361.38
538.59	38424.57
538.75	37890.93
538.92	38352.02
539.09	39093.97
539.26	38579.05
539.43	38637.56
539.60	39108.01
539.77	38553.30
539.94	38623.52
540.11	38836.51
540.28	39047.16
540.44	38827.15
540.61	38880.98
540.78	38160.09
540.95	38742.89
541.12	38773.31
541.29	38911.41
541.46	39243.76
541.62	39009.71
541.79	39234.40
541.96	38745.23
542.13	38937.15
542.30	39194.61
542.47	39454.41
542.63	39646.33
542.80	39674.42
542.97	39583.14
543.14	39388.88
543.31	39754.00
543.48	39831.24
543.64	40306.37
543.81	39840.60
543.98	40172.96
544.15	39686.12
544.32	40285.30
544.48	40575.53
544.65	40105.08
544.82	40304.02
544.99	39716.55
545.16	39892.09
545.32	39962.31
545.49	40355.52
545.66	40687.87
545.83	40917.25
546.00	40669.15
546.16	40446.80
546.33	40886.82
546.50	40542.76
546.67	40732.34
546.83	40158.91
547.00	40374.24
547.17	40240.83
547.34	40772.13
547.50	40620.00
547.67	41195.77
547.84	40671.49
548.00	40982.78
548.17	41315.14
548.34	40905.54
548.51	41464.93
548.67	41022.57
548.84	41535.15
549.01	41258.96
549.18	41085.76
549.34	40938.31
549.51	41172.36
549.68	41535.15
549.84	41137.26
550.01	41764.52
550.18	41071.72
550.34	41598.34
550.51	41390.03
550.68	41698.98
550.84	41184.07
551.01	41724.73
551.18	41853.46
551.34	41687.28
551.51	41972.83
551.68	42127.30
551.84	41471.95
552.01	41439.18
552.18	41918.99
552.34	41537.49
552.51	42286.46
552.68	42047.72
552.84	42178.79
553.01	42106.24
553.18	41799.63
553.34	42085.17
553.51	41563.23
553.67	41825.37
553.84	42316.89
554.01	42099.22
554.17	42256.03
554.34	42572.00
554.51	42394.12
554.67	42260.71
554.84	42808.40
555.00	42443.27
555.17	42279.44
555.33	42536.90
555.50	42557.96
555.67	42740.52
555.83	42714.78
556.00	43002.66
556.16	43161.82
556.33	42887.98
556.50	42827.12
556.66	42660.94
556.83	42602.43
556.99	43122.03
557.16	43236.72
557.32	42866.91
557.49	42986.28
557.65	42649.24
557.82	42801.38
557.98	43012.02
558.15	43051.81
558.32	42979.26
558.48	42799.04
558.65	42586.05
558.81	43229.69
558.98	42653.92
559.14	43098.62
559.31	43386.51
559.47	43482.47
559.64	43281.19
559.80	43496.52
559.97	43325.66
560.13	43196.93
560.30	43208.63
560.46	43751.63
560.63	43398.21
560.79	43725.89
560.96	43681.42
561.12	43519.92
561.29	43540.99
561.45	43885.04
561.61	43522.26
561.78	43517.58
561.94	43302.25
562.11	43232.04
562.27	43000.32
562.44	43824.19
562.60	43681.42
562.77	43814.83
562.93	43466.09
563.10	44343.79
563.26	43896.75
563.42	44224.42
563.59	43545.67
563.75	43730.57
563.92	44100.37
564.08	43608.86
564.24	44121.44
564.41	44032.50
564.57	43985.69
564.74	43868.66
564.90	43920.15
565.07	43948.24
565.23	44060.58
565.39	43973.98
565.56	43999.73
565.72	43707.16
565.88	44182.29
566.05	44147.18
566.21	44198.68
566.38	43945.90
566.54	44165.91
566.70	43885.04
566.87	44126.12
567.03	43992.71
567.19	44259.53
567.36	44229.10
567.52	44062.93
567.68	44533.37
567.85	44828.28
568.01	44240.81
568.17	43927.17
568.34	44477.20
568.50	43995.05
568.66	44095.69
568.83	44514.65
568.99	44299.32
569.15	44205.70
569.32	44142.50
569.48	44421.03
569.64	44751.04
569.81	44229.10
569.97	44463.16
570.13	44842.32
570.30	44091.01
570.46	44280.60
570.62	44865.73
570.78	44079.31
570.95	44612.95
571.11	45092.76
571.27	44346.13
571.43	44098.03
571.60	44758.06
571.76	44428.05
571.92	44271.23
572.09	44210.38
572.25	44449.11
572.41	44271.23
572.57	44538.05
572.74	45151.27
572.90	44484.22
573.06	44559.12
573.22	44790.83
573.38	45202.77
573.55	44964.03
573.71	44760.40
573.87	44552.10
574.03	44940.63
574.20	45118.51
574.36	44603.59
574.52	44978.07
574.68	44629.34
574.84	44765.09
575.01	45177.02
575.17	44704.23
575.33	44966.37
575.49	44355.49
575.65	44765.09
575.82	44893.82
575.98	44905.52
576.14	44987.44
576.30	44638.70
576.46	45015.52
576.62	45010.84
576.79	44472.52
576.95	44355.49
577.11	44849.35
577.27	44886.79
577.43	45050.63
577.59	44811.90
577.75	45294.05
577.92	44767.43
578.08	45031.91
578.24	45095.10
578.40	45392.35
578.56	44830.62
578.72	45081.06
578.88	45031.91
579.04	44952.33
579.21	45045.95
579.37	45003.82
579.53	44914.88
579.69	45240.21
579.85	44999.14
580.01	44898.50
580.17	44886.79
580.33	45184.04
580.49	45003.82
580.65	45134.89
580.82	45230.85
580.98	44980.42
581.14	44795.51
581.30	45106.80
581.46	44643.38
581.62	44921.90
581.78	45062.33
581.94	44961.69
582.10	45155.96
582.26	45287.03
582.42	45455.54
582.58	45041.27
582.74	45027.23
582.90	45036.59
583.06	45357.24
583.22	44804.88
583.38	45193.40
583.54	45460.23
583.70	45567.89
583.86	45272.98
584.02	45244.90
584.18	45600.66
584.34	45689.60
584.50	45450.86
584.66	45394.69
584.82	45495.33
584.98	45478.95
585.14	45542.14
585.30	44980.42
585.46	45275.32
585.62	45310.43
585.78	44985.10
585.94	45184.04
586.10	45200.43
586.26	45233.19
586.42	44980.42
586.58	45228.51
586.74	44996.80
586.90	45294.05
587.06	45296.39
587.22	45490.65
587.38	45298.73
587.54	45759.81
587.70	45757.47
587.86	45233.19
588.02	45233.19
588.18	45390.01
588.34	45200.43
588.49	45584.27
588.65	45219.15
588.81	45006.16
588.97	45207.45
589.13	45593.64
589.29	45078.72
589.45	45837.05
589.61	45682.58
589.77	45563.21
589.93	45256.60
590.08	45848.75
