SpectraSuite Data File
++++++++++++++++++++++++++++++++++++
Date: Fri Oct 25 11:25:33 EDT 2013
User: price-jones
Dark Spectrum Present: No
Reference Spectrum Present: No
Number of Sampled Component Spectra: 1
Spectrometers: USB2+H05261
Integration Time (usec): 100000 (USB2+H05261)
Spectra Averaged: 1 (USB2+H05261)
Boxcar Smoothing: 0 (USB2+H05261)
Correct for Electrical Dark: No (USB2+H05261)
Strobe/Lamp Enabled: No (USB2+H05261)
Correct for Detector Non-linearity: No (USB2+H05261)
Correct for Stray Light: No (USB2+H05261)
Number of Pixels in Processed Spectrum: 2048
>>>>>Begin Processed Spectral Data<<<<<
365.73	262.14
365.92	262.14
366.12	262.14
366.32	156.82
366.52	156.82
366.72	173.20
366.91	175.54
367.11	126.39
367.31	135.75
367.51	107.66
367.70	135.75
367.90	161.50
368.10	100.64
368.30	88.94
368.49	173.20
368.69	154.48
368.89	168.52
369.09	159.16
369.28	149.79
369.48	191.92
369.68	196.60
369.87	187.24
370.07	196.60
370.27	259.80
370.47	311.29
370.66	620.24
370.86	617.90
371.06	653.01
371.25	716.20
371.45	678.76
371.65	748.97
371.84	627.26
372.04	676.41
372.24	631.94
372.44	716.20
372.63	699.82
372.83	770.04
373.03	720.88
373.22	620.24
373.42	863.66
373.62	786.42
373.81	809.83
374.01	819.19
374.21	758.33
374.40	858.98
374.60	812.17
374.79	748.97
374.99	828.55
375.19	826.21
375.38	770.04
375.58	821.53
375.78	840.25
375.97	784.08
376.17	901.11
376.37	784.08
376.56	861.32
376.76	875.36
376.95	779.40
377.15	968.98
377.35	957.28
377.54	830.89
377.74	910.47
377.93	826.21
378.13	898.77
378.33	961.96
378.52	983.02
378.72	1022.81
378.91	943.24
379.11	999.41
379.31	929.19
379.50	891.74
379.70	830.89
379.89	987.71
380.09	1034.52
380.28	1006.43
380.48	959.62
380.68	1100.05
380.87	968.98
381.07	973.66
381.26	1034.52
381.46	999.41
381.65	1018.13
381.85	950.26
382.04	1078.99
382.24	1102.39
382.43	1060.26
382.63	1074.31
382.83	1100.05
383.02	1128.14
383.22	1090.69
383.41	1109.41
383.61	1149.20
383.80	1151.54
384.00	1146.86
384.19	1121.12
384.39	1118.78
384.58	1214.74
384.78	1050.90
384.97	1184.31
385.17	1083.67
385.36	1086.01
385.56	1146.86
385.75	1181.97
385.95	1064.94
386.14	1156.22
386.34	1212.40
386.53	1228.78
386.72	1205.38
386.92	1226.44
387.11	1249.85
387.31	1313.04
387.50	1245.16
387.70	1219.42
387.89	1275.59
388.09	1240.48
388.28	1158.57
388.48	1235.80
388.67	1252.19
388.86	1306.02
389.06	1294.32
389.25	1334.11
389.45	1289.64
389.64	1341.13
389.84	1308.36
390.03	1387.94
390.22	1418.36
390.42	1369.21
390.61	1324.74
390.81	1329.42
391.00	1430.07
391.19	1458.15
391.39	1406.66
391.58	1490.92
391.78	1467.52
391.97	1488.58
392.16	1430.07
392.36	1530.71
392.55	1495.60
392.75	1502.62
392.94	1530.71
393.13	1495.60
393.33	1596.25
393.52	1575.18
393.71	1551.78
393.91	1547.09
394.10	1619.65
394.29	1631.35
394.49	1675.82
394.68	1661.78
394.88	1668.80
395.07	1685.19
395.26	1668.80
395.46	1694.55
395.65	1701.57
395.84	1767.10
396.04	1790.51
396.23	1675.82
396.42	1757.74
396.62	1727.32
396.81	1776.47
397.00	1743.70
397.19	1771.79
397.39	1792.85
397.58	1755.40
397.77	1790.51
397.97	1820.94
398.16	1804.55
398.35	1856.04
398.55	1886.47
398.74	1863.07
398.93	2003.50
399.12	1893.49
399.32	1820.94
399.51	2085.42
399.70	1959.03
399.90	1989.46
400.09	1952.01
400.28	2043.29
400.47	1912.22
400.67	2057.33
400.86	2083.08
401.05	2026.90
401.24	2050.31
401.44	2045.63
401.63	2092.44
401.82	2085.42
402.01	2143.93
402.21	2045.63
402.40	2176.70
402.59	2176.70
402.78	2132.23
402.97	2267.98
403.17	2246.91
403.36	2275.00
403.55	2146.27
403.74	2373.30
403.93	2366.28
404.13	2377.98
404.32	2232.87
404.51	2298.41
404.70	2455.22
404.89	2443.52
405.09	2443.52
405.28	2406.07
405.47	2497.35
405.66	2532.46
405.85	2555.86
406.05	2569.91
406.24	2476.29
406.43	2551.18
406.62	2628.42
406.81	2644.81
407.00	2635.44
407.20	2572.25
407.39	2679.91
407.58	2546.50
407.77	2703.32
407.96	2616.72
408.15	2677.57
408.34	2745.45
408.54	2827.37
408.73	2834.39
408.92	2785.24
409.11	2829.71
409.30	2754.81
409.49	2867.16
409.68	2862.48
409.87	2855.45
410.07	2977.16
410.26	2953.76
410.45	2935.03
410.64	2918.65
410.83	3042.70
411.02	3103.55
411.21	3094.19
411.40	3166.74
411.59	3225.26
411.78	3131.64
411.98	3234.62
412.17	3342.28
412.36	3405.48
412.55	3269.73
412.74	3482.72
412.93	3485.06
413.12	3356.33
413.31	3517.83
413.50	3398.46
413.69	3506.12
413.88	3651.24
414.07	3557.61
414.26	3669.96
414.45	3609.11
414.64	3569.32
414.83	3728.47
415.02	3831.46
415.22	3901.67
415.41	3684.00
415.60	3889.97
415.79	3786.99
415.98	4028.06
416.17	3896.99
416.36	3999.98
416.55	3971.89
416.74	4060.83
416.93	4065.51
417.12	4161.47
417.31	4053.81
417.50	4149.77
417.69	4215.30
417.88	4297.22
418.07	4215.30
418.26	4329.99
418.45	4409.57
418.64	4442.34
418.83	4517.23
419.02	4320.63
419.21	4463.40
419.39	4524.26
419.58	4454.04
419.77	4496.17
419.96	4627.24
420.15	4498.51
420.34	4519.57
420.53	4514.89
420.72	4685.75
420.91	4580.43
421.10	4678.73
421.29	4760.65
421.48	4657.67
421.67	4767.67
421.86	4737.24
422.05	4835.55
422.24	4685.75
422.43	4746.61
422.61	4798.10
422.80	4772.35
422.99	4931.51
423.18	4971.30
423.37	5029.81
423.56	4851.93
423.75	4828.53
423.94	4713.84
424.13	4641.28
424.32	4779.37
424.50	4990.02
424.69	5137.48
424.88	5050.88
425.07	5041.51
425.26	4819.16
425.45	4959.60
425.64	5064.92
425.83	4865.97
426.01	5181.95
426.20	5123.43
426.39	5123.43
426.58	5039.17
426.77	5149.18
426.96	4994.70
427.15	5102.37
427.33	5144.50
427.52	4990.02
427.71	5163.22
427.90	5289.61
428.09	5291.95
428.28	5352.81
428.46	5469.83
428.65	5329.40
428.84	5474.51
429.03	5518.98
429.22	5291.95
429.40	5476.85
429.59	5521.32
429.78	5329.40
429.97	5385.57
430.16	5315.36
430.34	5411.32
430.53	5692.18
430.72	5678.14
430.91	5643.03
431.10	5661.76
431.28	5554.09
431.47	5633.67
431.66	5708.57
431.85	5657.07
432.03	5879.43
432.22	5926.24
432.41	5865.38
432.60	5710.91
432.79	5942.62
432.97	5888.79
433.16	5893.47
433.35	5806.87
433.54	6122.84
433.72	6235.19
433.91	6085.39
434.10	6132.20
434.28	5980.07
434.47	6047.94
434.66	6242.21
434.85	6225.82
435.03	6181.35
435.22	6153.27
435.41	6289.02
435.59	6373.28
435.78	6438.81
435.97	6483.28
436.16	6249.23
436.34	6373.28
436.53	6427.11
436.72	6637.76
436.90	6375.62
437.09	6607.33
437.28	6410.73
437.46	6560.52
437.65	6654.14
437.84	6827.34
438.02	6785.21
438.21	6675.21
438.40	6679.89
438.58	6836.70
438.77	7049.69
438.96	6745.42
439.14	7033.31
439.33	7056.72
439.52	7073.10
439.70	7302.47
439.89	7302.47
440.08	7520.14
440.26	7349.28
440.45	7496.74
440.63	7234.60
440.82	7524.82
441.01	7351.62
441.19	7679.30
441.38	7779.94
441.57	7597.38
441.75	7777.60
441.94	8030.38
442.12	8030.38
442.31	8088.89
442.50	7988.25
442.68	7836.11
442.87	7929.74
443.05	7943.78
443.24	8049.10
443.43	8081.87
443.61	8243.37
443.80	8477.42
443.98	7974.21
444.17	7946.12
444.35	8166.13
444.54	8355.71
444.73	8147.40
444.91	8278.47
445.10	8400.18
445.28	8402.52
445.47	8234.00
445.65	8266.77
445.84	8437.63
446.02	8238.69
446.21	8241.03
446.39	8248.05
446.58	8311.24
446.77	8341.67
446.95	8266.77
447.14	8266.77
447.32	8503.17
447.51	8631.90
447.69	8468.06
447.88	8486.78
448.06	8566.36
448.25	8449.33
448.43	8531.25
448.62	8496.14
448.80	8610.83
448.99	8734.88
449.17	8638.92
449.36	8802.75
449.54	8526.57
449.73	8807.44
449.91	8912.76
450.10	8922.12
450.28	9013.40
450.46	9029.79
450.65	9231.07
450.83	8959.57
451.02	8943.19
451.20	9118.73
451.39	9062.55
451.57	9125.75
451.76	8910.42
451.94	9100.00
452.13	9284.91
452.31	9233.41
452.49	9111.71
452.68	9371.50
452.86	9392.57
453.05	9369.16
453.23	9420.66
453.42	9097.66
453.60	9284.91
453.78	9591.52
453.97	9383.21
454.15	9554.07
454.34	9460.45
454.52	9720.24
454.70	9661.73
454.89	9909.83
455.07	9612.58
455.26	9881.74
455.44	10017.49
455.62	9994.09
455.81	9722.59
455.99	9867.70
456.17	10228.14
456.36	9933.23
456.54	10022.17
456.73	10253.89
456.91	10459.85
457.09	10438.79
457.28	10611.99
457.46	10214.10
457.64	10462.19
457.83	10331.12
458.01	10501.98
458.19	10630.71
458.38	10572.20
458.56	10607.31
458.74	10780.51
458.93	10544.11
459.11	10534.75
459.29	10799.23
459.48	10991.16
459.66	10949.03
459.84	10658.80
460.03	10925.62
460.21	11002.86
460.39	10829.66
460.57	10714.97
460.76	11037.97
460.94	11108.18
461.12	11414.79
461.31	11213.51
461.49	11353.94
461.67	11059.03
461.85	11253.30
462.04	11403.09
462.22	11578.63
462.40	11592.67
462.59	11496.71
462.77	11550.54
462.95	11648.85
463.13	11353.94
463.32	11529.48
463.50	11763.53
463.68	11922.69
463.86	11847.79
464.05	11496.71
464.23	11520.12
464.41	11789.28
464.59	11545.86
464.78	12138.02
464.96	11852.47
465.14	11889.92
465.32	12023.33
465.50	12084.19
465.69	11936.73
465.87	12049.08
466.05	12044.40
466.23	11997.59
466.41	12189.51
466.60	12255.04
466.78	12278.45
466.96	12276.11
467.14	12170.79
467.32	12217.60
467.51	12606.13
467.69	12184.83
467.87	12095.89
468.05	12601.44
468.23	12723.15
468.41	12325.26
468.60	12250.36
468.78	12603.78
468.96	12664.64
469.14	12910.40
469.32	12975.93
469.50	12582.72
469.69	12982.95
469.87	12957.21
470.05	13149.13
470.23	13160.83
470.41	12842.52
470.59	13268.50
470.77	13116.36
470.95	13139.77
471.14	13598.51
471.32	13050.83
471.50	13516.59
471.68	13514.25
471.86	13720.22
472.04	13612.56
472.22	14120.45
472.40	13830.23
472.58	13774.05
472.77	13860.65
472.95	14024.49
473.13	14689.20
473.31	13867.67
473.49	13881.72
473.67	14174.28
473.85	14141.52
474.03	14553.45
474.21	14724.31
474.39	14600.26
474.57	14597.92
474.75	14707.93
474.93	14937.30
475.12	15035.60
475.30	15066.03
475.48	14881.13
475.66	15147.95
475.84	15049.64
476.02	15374.98
476.20	15311.78
476.38	15522.43
476.56	16116.93
476.74	15929.69
476.92	15632.44
477.10	16009.26
477.28	16053.73
477.46	15946.07
477.64	16236.30
477.82	16358.00
478.00	16730.15
478.18	16622.48
478.36	16973.56
478.54	17153.79
478.72	17167.83
478.90	17429.97
479.08	17336.35
479.26	17481.46
479.44	17633.60
479.62	17614.87
479.80	18036.17
479.98	18153.20
480.16	18443.42
480.34	18113.41
480.52	18487.89
480.70	18640.03
480.88	18389.59
481.06	18707.90
481.24	18382.57
481.41	18991.11
481.59	18995.79
481.77	19597.31
481.95	19594.96
482.13	19630.07
482.31	19513.05
482.49	20430.54
482.67	20077.12
482.85	20556.93
483.03	20655.23
483.21	20755.87
483.39	20870.56
483.57	20720.76
483.74	21291.85
483.92	21153.76
484.10	21142.06
484.28	21326.96
484.46	21935.50
484.64	22459.78
484.82	21970.61
485.00	22256.15
485.18	22705.54
485.35	22977.04
485.53	22724.26
485.71	22899.80
485.89	23498.98
486.07	23246.20
486.25	23236.84
486.43	23548.13
486.61	23810.27
486.78	24037.30
486.96	23903.89
487.14	24566.26
487.32	24503.07
487.50	24898.62
487.68	24823.72
487.85	25530.56
488.03	25340.98
488.21	25549.29
488.39	25895.69
488.57	25865.26
488.75	26270.17
488.92	26340.39
489.10	26424.65
489.28	26651.68
489.46	26719.56
489.64	27065.96
489.81	27227.45
489.99	27339.80
490.17	27740.03
490.35	27632.36
490.53	28065.36
490.70	28198.77
490.88	27992.81
491.06	28673.90
491.24	28519.43
491.41	29069.45
491.59	29263.72
491.77	29347.98
491.95	29443.94
492.13	29729.48
492.30	29881.62
492.48	30033.75
492.66	29958.86
492.84	30326.32
493.01	30820.17
493.19	30295.89
493.37	30941.88
493.54	30934.86
493.72	31323.39
493.90	31634.68
494.08	31524.68
494.25	31913.20
494.43	31948.31
494.61	32165.98
494.79	32137.90
494.96	32299.39
495.14	32690.26
495.32	32802.61
495.49	33139.65
495.67	32905.59
495.85	33649.88
496.02	33940.11
496.20	34167.14
496.38	33811.38
496.55	34029.05
496.73	34780.36
496.91	34558.01
497.09	34436.30
497.26	34368.43
497.44	35117.40
497.62	34789.72
497.79	35847.64
497.97	35229.74
498.14	35782.11
498.32	36086.38
498.50	35882.75
498.67	36224.47
498.85	36463.21
499.03	36521.72
499.20	36659.81
499.38	36643.43
499.56	36989.83
499.73	36996.85
499.91	37467.30
500.08	37291.76
500.26	37034.30
500.44	37455.59
500.61	37486.02
500.79	38106.26
500.97	38270.10
501.14	38759.27
501.32	38169.46
501.49	38160.09
501.67	38429.26
501.84	38658.63
502.02	38469.04
502.20	38918.43
502.37	38983.96
502.55	39400.58
502.72	39229.72
502.90	39438.03
503.07	39105.67
503.25	39559.73
503.43	39751.66
503.60	39838.26
503.78	39838.26
503.95	40390.62
504.13	40442.12
504.30	40421.05
504.48	40226.79
504.65	40636.38
504.83	40704.26
505.01	41003.85
505.18	41336.20
505.36	41127.89
505.53	41265.99
505.71	41612.38
505.88	41530.47
506.06	41148.96
506.23	41963.46
506.41	41773.88
506.58	42066.45
506.76	42197.52
506.93	42398.80
507.11	42335.61
507.28	42396.46
507.46	42871.59
507.63	42656.26
507.81	42703.07
507.98	42747.54
508.16	42892.66
508.33	43203.95
508.50	43203.95
508.68	43049.47
508.85	43704.82
509.03	43789.08
509.20	43941.22
509.38	43665.03
509.55	44353.15
509.73	44254.85
509.90	44575.50
510.08	44208.04
510.25	44289.96
510.42	44292.30
510.60	44868.07
510.77	44680.83
510.95	45280.00
511.12	45120.85
511.30	45375.97
511.47	45469.59
511.64	45104.46
511.82	45862.80
511.99	45474.27
512.17	45944.72
512.34	45682.58
512.51	45879.18
512.69	46415.16
512.86	46377.72
513.04	46394.10
513.21	46143.66
513.38	46190.47
513.56	47019.02
513.73	46710.07
513.90	47070.51
514.08	46925.40
514.25	47063.49
514.43	46913.70
514.60	46986.25
514.77	47253.08
514.95	47372.44
515.12	47334.99
515.29	47349.04
515.47	47583.09
515.64	47746.93
515.81	47917.79
515.99	47798.42
516.16	48484.20
516.33	48203.33
516.51	48783.79
516.68	48418.66
516.85	48605.91
517.03	48933.58
517.20	48765.06
517.37	48732.29
517.54	48706.55
517.72	48889.11
517.89	48935.92
518.06	48996.77
518.24	48898.47
518.41	49244.87
518.58	49076.35
518.75	49139.55
518.93	49038.90
519.10	49167.63
519.27	49532.76
519.45	49343.17
519.62	49687.23
519.79	49813.62
519.96	49806.60
520.14	49998.52
520.31	49808.94
520.48	50192.79
520.65	50171.72
520.83	50506.42
521.00	50176.40
521.17	50255.98
521.34	50504.08
521.52	50728.77
521.69	50820.05
521.86	50749.84
522.03	50997.93
522.20	51011.98
522.38	51124.32
522.55	51384.12
522.72	51482.42
522.89	51019.00
523.07	51557.32
523.24	51157.09
523.41	51374.76
523.58	51416.89
523.75	51681.37
523.92	51618.17
524.10	51730.52
524.27	51828.82
524.44	51866.27
524.61	52135.43
524.78	51943.51
524.96	52121.39
525.13	52273.52
525.30	52308.63
525.47	52346.08
525.64	52465.45
525.81	52533.32
525.98	52722.91
526.16	52477.15
526.33	52367.15
526.50	52830.57
526.67	52470.13
526.84	52884.40
527.01	52741.63
527.18	52814.19
527.36	52989.73
527.53	53088.03
527.70	53193.36
527.87	52947.60
528.04	52954.62
528.21	53050.58
528.38	53284.64
528.55	53209.74
528.72	53216.76
528.89	53460.18
529.07	53081.01
529.24	53141.86
529.41	53551.46
529.58	53436.77
529.75	53275.27
529.92	53380.60
530.09	53806.58
530.26	53642.74
530.43	53935.30
530.60	53808.92
530.77	53935.30
530.94	54232.55
531.11	53879.13
531.28	53977.43
531.46	53792.53
531.63	54183.40
531.80	54035.95
531.97	54225.53
532.14	54309.79
532.31	54632.78
532.48	54440.86
532.65	54506.40
532.82	54419.80
532.99	54656.19
533.16	54609.38
533.33	54522.78
533.50	54688.96
533.67	54740.45
533.84	54569.59
534.01	54628.10
534.18	54585.97
534.35	55215.58
534.52	55182.81
534.69	55196.85
534.86	55126.64
535.03	55199.19
535.20	54948.76
535.37	55304.52
535.54	55049.40
535.71	54803.64
535.88	55274.09
536.05	55379.42
536.22	55309.20
536.38	55395.80
536.55	55561.98
536.72	55407.50
536.89	55524.53
537.06	55416.86
537.23	55648.58
537.40	55601.77
537.57	55496.44
537.74	55620.49
537.91	55903.70
538.08	55653.26
538.25	55423.89
538.42	55908.38
538.59	56097.96
538.75	55906.04
538.92	55999.66
539.09	56048.81
539.26	55966.89
539.43	56051.15
539.60	56065.19
539.77	56229.03
539.94	56271.16
540.11	56278.18
540.28	56278.18
540.44	56402.23
540.61	56097.96
540.78	56392.87
540.95	56296.91
541.12	56367.12
541.29	56175.20
541.46	56601.18
541.62	56502.87
541.79	56420.95
541.96	56395.21
542.13	56442.02
542.30	56535.64
542.47	56863.32
542.63	56772.03
542.80	56966.30
542.97	56814.16
543.14	56917.15
543.31	57144.18
543.48	56935.87
543.64	57429.72
543.81	57303.34
543.98	57249.50
544.15	57265.89
544.32	57263.55
544.48	57457.81
544.65	57429.72
544.82	57317.38
544.99	57284.61
545.16	57373.55
545.32	57303.34
545.49	57574.84
545.66	57553.77
545.83	57364.19
546.00	57469.51
546.16	57448.45
546.33	57701.23
546.50	57418.02
546.67	57752.72
546.83	57326.74
547.00	57638.03
547.17	57516.32
547.34	57883.79
547.50	57755.06
547.67	57942.30
547.84	57930.60
548.00	57881.45
548.17	57991.45
548.34	58073.37
548.51	58169.33
548.67	58000.82
548.84	58052.31
549.01	58094.44
549.18	58042.95
549.34	58206.78
549.51	58129.54
549.68	58316.79
549.84	58164.65
550.01	58340.19
550.18	58136.57
550.34	58447.86
550.51	58293.38
550.68	58295.72
550.84	58110.82
551.01	58305.09
551.18	58630.42
551.34	58351.90
551.51	58426.79
551.68	58504.03
551.84	58344.87
552.01	58494.67
552.18	58513.39
552.34	58333.17
552.51	58742.77
552.68	58419.77
552.84	58684.25
553.01	58614.04
553.18	58899.58
553.34	58768.51
553.51	58658.51
553.67	58759.15
553.84	58908.94
554.01	58738.08
554.17	58972.14
554.34	59084.48
554.51	58616.38
554.67	59030.65
554.84	58855.11
555.00	58883.20
555.17	58677.23
555.33	58946.39
555.50	58960.44
555.67	58941.71
555.83	58695.95
556.00	59173.42
556.16	59121.93
556.33	59236.62
556.50	58965.12
556.66	59327.90
556.83	59049.38
556.99	59320.88
557.16	59430.88
557.32	59426.20
557.49	59360.67
557.65	59199.17
557.82	59337.26
557.98	59341.94
558.15	59447.27
558.32	59402.80
558.48	59161.72
558.65	59332.58
558.81	59604.08
558.98	59566.63
559.14	59426.20
559.31	59398.12
559.47	59475.35
559.64	59599.40
559.80	59737.49
559.97	59648.55
560.13	59421.52
560.30	59510.46
560.46	59723.45
560.63	59657.91
560.79	59515.14
560.96	59531.53
561.12	59744.51
561.29	59702.38
561.45	59693.02
561.61	59678.98
561.78	59765.58
561.94	59650.89
562.11	59784.30
562.27	59716.43
562.44	59716.43
562.60	59852.18
562.77	59882.61
562.93	59812.39
563.10	60018.36
563.26	59779.62
563.42	60027.72
563.59	59891.97
563.75	59842.82
563.92	59896.65
564.08	60004.31
564.24	60016.02
564.41	59898.99
564.57	60013.68
564.74	60041.76
564.90	59920.05
565.07	59948.14
565.23	59973.89
565.39	59936.44
565.56	60221.98
565.72	60072.19
565.88	60107.30
566.05	59887.29
566.21	60072.19
566.38	60189.22
566.54	60224.32
566.70	60423.27
566.87	60083.89
567.03	60027.72
567.19	60317.95
567.36	60245.39
567.52	60123.68
567.68	60369.44
567.85	60030.06
568.01	60355.39
568.17	60186.88
568.34	60360.08
568.50	60203.26
568.66	60306.24
568.83	60212.62
568.99	60266.45
569.15	60383.48
569.32	60374.12
569.48	60322.63
569.64	60402.21
569.81	60437.31
569.97	60280.50
570.13	60425.61
570.30	60289.86
570.46	60456.04
570.62	60437.31
570.78	60432.63
570.95	60378.80
571.11	60493.49
571.27	60285.18
571.43	60570.72
571.60	60416.25
571.76	60392.84
571.92	60397.52
572.09	60629.24
572.25	60219.64
572.41	60467.74
572.57	60406.89
572.74	60570.72
572.90	60449.02
573.06	60573.06
573.22	60566.04
573.38	60619.88
573.55	60514.55
573.71	60715.84
573.87	60683.07
574.03	60495.83
574.20	60690.09
574.36	60367.10
574.52	60542.64
574.68	60764.99
574.84	60746.26
575.01	60823.50
575.17	60741.58
575.33	60434.97
575.49	60418.59
575.65	60605.83
575.82	60809.46
575.98	60701.79
576.14	60804.78
576.30	60795.42
576.46	60666.69
576.62	60498.17
576.79	60507.53
576.95	60467.74
577.11	60638.60
577.27	60589.45
577.43	60886.70
577.59	60769.67
577.75	60647.96
577.92	60687.75
578.08	60676.05
578.24	60743.92
578.40	60851.59
578.56	60732.22
578.72	60872.65
578.88	60968.61
579.04	60755.63
579.21	60779.03
579.37	60828.18
579.53	60882.02
579.69	60612.85
579.85	60701.79
580.01	60715.84
580.17	60596.47
580.33	60952.23
580.49	60781.37
580.65	60760.31
580.82	60790.73
580.98	60793.07
581.14	60781.37
581.30	60809.46
581.46	60650.30
581.62	60858.61
581.78	60727.54
581.94	60790.73
582.10	60587.11
582.26	60727.54
582.42	60720.52
582.58	60935.85
582.74	60692.43
582.90	60790.73
583.06	60879.67
583.22	60743.92
583.38	60732.22
583.54	60877.33
583.70	60903.08
583.86	60963.93
584.02	60884.36
584.18	60926.49
584.34	60858.61
584.50	60783.71
584.66	60800.10
584.82	60767.33
584.98	61179.26
585.14	61073.94
585.30	60690.09
585.46	60935.85
585.62	60931.17
585.78	60975.64
585.94	60818.82
586.10	60779.03
586.26	60968.61
586.42	61069.26
586.58	61080.96
586.74	60725.20
586.90	61006.06
587.06	60961.59
587.22	61080.96
587.38	60980.32
587.54	61095.00
587.70	61230.75
587.86	61132.45
588.02	61102.03
588.18	61076.28
588.34	60924.14
588.49	61003.72
