SpectraSuite Data File
++++++++++++++++++++++++++++++++++++
Date: Fri Oct 25 11:24:01 EDT 2013
User: price-jones
Dark Spectrum Present: No
Reference Spectrum Present: No
Number of Sampled Component Spectra: 1
Spectrometers: USB2+H05261
Integration Time (usec): 100000 (USB2+H05261)
Spectra Averaged: 1 (USB2+H05261)
Boxcar Smoothing: 0 (USB2+H05261)
Correct for Electrical Dark: No (USB2+H05261)
Strobe/Lamp Enabled: No (USB2+H05261)
Correct for Detector Non-linearity: No (USB2+H05261)
Correct for Stray Light: No (USB2+H05261)
Number of Pixels in Processed Spectrum: 2048
>>>>>Begin Processed Spectral Data<<<<<
365.73	229.37
365.92	229.37
366.12	229.37
366.32	119.37
366.52	84.26
366.72	149.79
366.91	163.84
367.11	170.86
367.31	98.30
367.51	140.43
367.70	217.67
367.90	128.73
368.10	154.48
368.30	128.73
368.49	105.32
368.69	140.43
368.89	25.75
369.09	163.84
369.28	208.31
369.48	107.66
369.68	163.84
369.87	166.18
370.07	201.29
370.27	238.73
370.47	294.91
370.66	528.96
370.86	559.39
371.06	631.94
371.25	641.31
371.45	723.23
371.65	716.20
371.84	650.67
372.04	727.91
372.24	678.76
372.44	699.82
372.63	770.04
372.83	772.38
373.03	727.91
373.22	777.06
373.42	795.78
373.62	737.27
373.81	798.12
374.01	851.96
374.21	821.53
374.40	805.14
374.60	847.27
374.79	805.14
374.99	830.89
375.19	868.34
375.38	903.45
375.58	856.64
375.78	854.30
375.97	858.98
376.17	882.38
376.37	884.72
376.56	901.11
376.76	929.19
376.95	968.98
377.15	884.72
377.35	894.08
377.54	866.00
377.74	844.93
377.93	943.24
378.13	912.81
378.33	908.13
378.52	964.30
378.72	947.92
378.91	964.30
379.11	875.36
379.31	952.60
379.50	866.00
379.70	968.98
379.89	880.04
380.09	959.62
380.28	985.37
380.48	1062.60
380.68	978.34
380.87	1004.09
381.07	966.64
381.26	945.58
381.46	961.96
381.65	1076.65
381.85	1088.35
382.04	1076.65
382.24	992.39
382.43	1027.50
382.63	1046.22
382.83	997.07
383.02	1160.91
383.22	1203.04
383.41	1057.92
383.61	1149.20
383.80	1219.42
384.00	1137.50
384.19	1137.50
384.39	1116.44
384.58	1165.59
384.78	1135.16
384.97	1158.57
385.17	1205.38
385.36	1186.65
385.56	1210.06
385.75	1093.03
385.95	1142.18
386.14	1137.50
386.34	1247.51
386.53	1200.69
386.72	1121.12
386.92	1231.12
387.11	1177.29
387.31	1181.97
387.50	1177.29
387.70	1233.46
387.89	1214.74
388.09	1252.19
388.28	1177.29
388.48	1214.74
388.67	1275.59
388.86	1341.13
389.06	1228.78
389.25	1313.04
389.45	1327.08
389.64	1336.45
389.84	1434.75
390.03	1451.13
390.22	1392.62
390.42	1331.76
390.61	1455.81
390.81	1437.09
391.00	1308.36
391.19	1519.01
391.39	1469.86
391.58	1504.96
391.78	1425.39
391.97	1551.78
392.16	1497.94
392.36	1563.48
392.55	1563.48
392.75	1556.46
392.94	1563.48
393.13	1519.01
393.33	1462.83
393.52	1528.37
393.71	1596.25
393.91	1519.01
394.10	1654.76
394.29	1586.88
394.49	1699.23
394.68	1739.02
394.88	1687.53
395.07	1610.29
395.26	1741.36
395.46	1593.90
395.65	1713.27
395.84	1748.38
396.04	1816.26
396.23	1781.15
396.42	1778.81
396.62	1860.73
396.81	1750.72
397.00	1783.49
397.19	1865.41
397.39	1853.70
397.58	1818.60
397.77	1788.17
397.97	1851.36
398.16	1795.19
398.35	1867.75
398.55	1956.69
398.74	1912.22
398.93	1919.24
399.12	1944.99
399.32	1909.88
399.51	1900.52
399.70	2097.12
399.90	2026.90
400.09	1963.71
400.28	2062.01
400.47	1968.39
400.67	2092.44
400.86	2026.90
401.05	2083.08
401.24	2172.02
401.44	2282.02
401.63	2064.35
401.82	2083.08
402.01	2073.71
402.21	2090.10
402.40	2305.43
402.59	2242.23
402.78	2179.04
402.97	2303.09
403.17	2207.13
403.36	2298.41
403.55	2246.91
403.74	2317.13
403.93	2377.98
404.13	2366.28
404.32	2326.49
404.51	2394.37
404.70	2396.71
404.89	2338.20
405.09	2532.46
405.28	2459.90
405.47	2441.18
405.66	2450.54
405.85	2471.61
406.05	2478.63
406.24	2523.10
406.43	2567.57
406.62	2637.78
406.81	2677.57
407.00	2663.53
407.20	2555.86
407.39	2586.29
407.58	2710.34
407.77	2789.92
407.96	2752.47
408.15	2752.47
408.34	2750.13
408.54	2740.77
408.73	2745.45
408.92	2958.44
409.11	2920.99
409.30	2888.22
409.49	3038.02
409.68	2869.50
409.87	2890.56
410.07	2939.71
410.26	2939.71
410.45	2825.03
410.64	2881.20
410.83	2972.48
411.02	3143.34
411.21	3091.85
411.40	3112.91
411.59	3243.98
411.78	3227.60
411.98	3159.72
412.17	3290.79
412.36	3232.28
412.55	3377.39
412.74	3356.33
412.93	3475.70
413.12	3426.54
413.31	3548.25
413.50	3494.42
413.69	3482.72
413.88	3653.58
414.07	3620.81
414.26	3721.45
414.45	3655.92
414.64	3602.08
414.83	3794.01
415.02	3791.67
415.22	3749.54
415.41	3892.31
415.60	3801.03
415.79	4032.74
415.98	3901.67
416.17	3981.25
416.36	3941.46
416.55	3946.14
416.74	4070.19
416.93	4095.94
417.12	4166.15
417.31	4126.36
417.50	4252.75
417.69	4283.18
417.88	4311.27
418.07	4348.72
418.26	4266.80
418.45	4315.95
418.64	4606.17
418.83	4454.04
419.02	4400.21
419.21	4538.30
419.39	4505.53
419.58	4421.27
419.77	4451.70
419.96	4491.49
420.15	4648.30
420.34	4624.90
420.53	4519.57
420.72	4610.86
420.91	4617.88
421.10	4819.16
421.29	4662.35
421.48	4718.52
421.67	4830.87
421.86	4835.55
422.05	4844.91
422.24	4704.48
422.43	4830.87
422.61	4992.36
422.80	4952.57
422.99	4882.36
423.18	4922.15
423.37	5001.72
423.56	4905.76
423.75	5027.47
423.94	4844.91
424.13	4608.51
424.32	4915.12
424.50	4994.70
424.69	5238.12
424.88	4999.38
425.07	4830.87
425.26	4877.68
425.45	4880.02
425.64	5083.64
425.83	4924.49
426.01	4985.34
426.20	5111.73
426.39	5123.43
426.58	5097.69
426.77	5132.79
426.96	5256.84
427.15	5102.37
427.33	5130.45
427.52	5203.01
427.71	5228.76
427.90	5298.97
428.09	5219.39
428.28	5320.04
428.46	5322.38
428.65	5270.89
428.84	5500.26
429.03	5483.88
429.22	5376.21
429.40	5472.17
429.59	5474.51
429.78	5371.53
429.97	5317.70
430.16	5472.17
430.34	5596.22
430.53	5530.69
430.72	5659.42
430.91	5528.35
431.10	5596.22
431.28	5661.76
431.47	5708.57
431.66	5919.21
431.85	5816.23
432.03	5884.11
432.22	5991.77
432.41	6008.16
432.60	5942.62
432.79	5905.17
432.97	6157.95
433.16	5907.51
433.35	6057.31
433.54	6108.80
433.72	6108.80
433.91	6258.59
434.10	6277.32
434.28	6120.50
434.47	6228.17
434.66	6043.26
434.85	6171.99
435.03	6586.27
435.22	6335.83
435.41	6647.12
435.59	6525.41
435.78	6476.26
435.97	6661.16
436.16	6289.02
436.34	6544.14
436.53	6492.65
436.72	6729.04
436.90	6399.02
437.09	6785.21
437.28	6462.22
437.46	6738.40
437.65	6768.83
437.84	6808.62
438.02	6707.98
438.21	6862.45
438.40	6689.25
438.58	7016.93
438.77	6834.36
438.96	7012.24
439.14	7030.97
439.33	7293.11
439.52	7311.83
439.70	7307.15
439.89	7255.66
440.08	7379.71
440.26	7372.69
440.45	7286.09
440.63	7428.86
440.82	7770.58
441.01	7712.07
441.19	7623.12
441.38	7611.42
441.57	7733.13
441.75	7695.68
441.94	8006.97
442.12	7903.99
442.31	8149.75
442.50	8138.04
442.68	7976.55
442.87	8088.89
443.05	8053.78
443.24	8074.85
443.43	8245.71
443.61	8257.41
443.80	8498.49
443.98	7999.95
444.17	7843.14
444.35	8290.18
444.54	8641.26
444.73	8294.86
444.91	8400.18
445.10	8301.88
445.28	8259.75
445.47	8463.38
445.65	8329.97
445.84	8454.02
446.02	8512.53
446.21	8416.57
446.39	8231.66
446.58	8657.64
446.77	8617.85
446.95	8395.50
447.14	8428.27
447.32	8484.44
447.51	8311.24
447.69	8458.70
447.88	8449.33
448.06	8601.47
448.25	8493.80
448.43	8549.98
448.62	8828.50
448.80	8716.16
448.99	8730.20
449.17	8868.29
449.36	8678.71
449.54	8931.48
449.73	8966.59
449.91	8987.66
450.10	8961.91
450.28	9092.98
450.46	9160.86
450.65	9018.08
450.83	9132.77
451.02	9188.94
451.20	9205.33
451.39	9219.37
451.57	9032.13
451.76	9135.11
451.94	9212.35
452.13	9266.18
452.31	9245.12
452.49	9263.84
452.68	9497.89
452.86	9350.44
453.05	9404.27
453.23	9525.98
453.42	9394.91
453.60	9336.40
453.78	9537.68
453.97	9408.95
454.15	9610.24
454.34	9423.00
454.52	9687.48
454.70	9860.68
454.89	9607.90
455.07	9867.70
455.26	9870.04
455.44	10141.54
455.62	9987.07
455.81	9799.82
455.99	10129.84
456.17	10061.96
456.36	10008.13
456.54	10265.59
456.73	10274.95
456.91	10361.55
457.09	10434.11
457.28	10494.96
457.46	10186.01
457.64	10562.84
457.83	10553.48
458.01	10406.02
458.19	10817.96
458.38	10621.35
458.56	10731.36
458.74	10717.31
458.93	10740.72
459.11	10736.04
459.29	10619.01
459.48	10714.97
459.66	10738.38
459.84	11087.12
460.03	10998.18
460.21	10932.64
460.39	10864.77
460.57	11157.33
460.76	11171.38
460.94	10981.79
461.12	11360.96
461.31	11194.78
461.49	10963.07
461.67	11265.00
461.85	11461.60
462.04	11426.50
462.22	11339.90
462.40	11545.86
462.59	11470.97
462.77	11433.52
462.95	11719.06
463.13	11751.83
463.32	11756.51
463.50	11721.40
463.68	11815.02
463.86	12098.23
464.05	11597.35
464.23	11620.76
464.41	11655.87
464.59	11709.70
464.78	12013.97
464.96	12210.57
465.14	11613.74
465.32	11988.22
465.50	12020.99
465.69	12233.98
465.87	12166.10
466.05	12145.04
466.23	12051.42
466.41	12126.32
466.60	12435.27
466.78	12336.96
466.96	12306.54
467.14	12353.35
467.32	12470.37
467.51	12868.27
467.69	12049.08
467.87	12615.49
468.05	12608.47
468.23	12411.86
468.41	12278.45
468.60	12709.11
468.78	12847.20
468.96	12762.94
469.14	12788.69
469.32	13027.42
469.50	12805.07
469.69	13036.78
469.87	13088.28
470.05	13034.44
470.23	13334.03
470.41	13107.00
470.59	13228.71
470.77	13329.35
470.95	13186.58
471.14	13673.41
471.32	13123.38
471.50	13598.51
471.68	13448.72
471.86	13525.96
472.04	13853.63
472.22	14183.65
472.40	13738.94
472.58	13724.90
472.77	14026.83
472.95	14122.79
473.13	14644.73
473.31	14052.58
473.49	14267.91
473.67	14136.84
473.85	14541.75
474.03	14693.88
474.21	14586.22
474.39	14691.54
474.57	14572.18
474.75	14941.98
474.93	14883.47
475.12	15129.22
475.30	15218.16
475.48	15019.22
475.66	15194.76
475.84	15370.30
476.02	15510.73
476.20	15576.27
476.38	15695.63
476.56	16070.12
476.74	15807.98
476.92	15887.56
477.10	15690.95
477.28	16217.57
477.46	16304.17
477.64	16617.80
477.82	16765.26
478.00	16982.93
478.18	16809.73
478.36	16985.27
478.54	17125.70
478.72	17366.78
478.90	17495.50
479.08	17614.87
479.26	17617.21
479.44	17521.25
479.62	17895.74
479.80	18071.28
479.98	18300.65
480.16	18710.24
480.34	18363.84
480.52	18794.50
480.70	18548.75
480.88	18759.39
481.06	18918.55
481.24	18668.11
481.41	19054.30
481.59	19332.82
481.77	19594.96
481.95	19515.39
482.13	19665.18
482.31	19763.48
482.49	20376.70
482.67	19882.85
482.85	20325.21
483.03	20783.96
483.21	20741.83
483.39	21191.21
483.57	20905.66
483.74	21198.23
483.92	21589.10
484.10	21254.40
484.28	21563.36
484.46	22235.09
484.64	22345.09
484.82	21865.28
485.00	22480.85
485.18	22899.80
485.35	23075.34
485.53	22621.28
485.71	23108.11
485.89	23477.91
486.07	23414.72
486.25	23421.74
486.43	23239.18
486.61	23892.19
486.78	24182.42
486.96	24269.01
487.14	24643.50
487.32	24718.40
487.50	25088.20
487.68	25074.16
487.85	25568.01
488.03	25883.98
488.21	25963.56
488.39	26099.31
488.57	26160.17
488.75	26118.04
488.92	26862.33
489.10	26714.87
489.28	27037.87
489.46	27587.89
489.64	27239.15
489.81	27768.12
489.99	27557.47
490.17	28039.62
490.35	28393.04
490.53	28467.94
490.70	28491.34
490.88	28381.34
491.06	28826.04
491.24	28989.88
491.41	28811.99
491.59	29167.76
491.77	29256.70
491.95	29685.01
492.13	29783.32
492.30	30267.81
492.48	30249.08
492.66	30464.41
492.84	30541.65
493.01	30712.51
493.19	30820.17
493.37	30794.43
493.54	31316.37
493.72	31351.48
493.90	31440.42
494.08	31887.46
494.25	31920.23
494.43	31770.43
494.61	32488.98
494.79	32598.98
494.96	32409.40
495.14	33097.52
495.32	33249.65
495.49	33500.09
495.67	33074.11
495.85	33710.74
496.02	33846.49
496.20	34328.64
496.38	34455.03
496.55	34260.76
496.73	35019.10
496.91	34558.01
497.09	34586.10
497.26	34822.49
497.44	35119.74
497.62	34993.35
497.79	35674.45
497.97	35669.76
498.14	36020.84
498.32	36112.13
498.50	36266.60
498.67	36446.82
498.85	36615.34
499.03	36790.88
499.20	36779.18
499.38	37064.72
499.56	37584.32
499.73	36868.12
499.91	37642.84
500.08	37729.44
500.26	37642.84
500.44	38000.94
500.61	37912.00
500.79	38176.48
500.97	38169.46
501.14	38696.08
501.32	39012.05
501.49	38651.61
501.67	38780.34
501.84	38841.19
502.02	39096.31
502.20	39206.31
502.37	39541.01
502.55	39679.10
502.72	39658.04
502.90	40079.33
503.07	39629.95
503.25	40053.59
503.43	39800.81
503.60	39754.00
503.78	40226.79
503.95	40439.78
504.13	41322.16
504.30	40910.22
504.48	40680.85
504.65	41151.30
504.83	40945.33
505.01	41577.28
505.18	41525.78
505.36	41731.75
505.53	41368.97
505.71	41958.78
505.88	41916.65
506.06	41584.30
506.23	42564.98
506.41	42017.30
506.58	42190.50
506.76	42436.25
506.93	42618.81
507.11	42389.44
507.28	42916.06
507.46	42773.29
507.63	42773.29
507.81	43276.51
507.98	42555.62
508.16	43047.13
508.33	43854.62
508.50	43512.90
508.68	44037.18
508.85	44355.49
509.03	43791.42
509.20	44271.23
509.38	44339.11
509.55	44802.53
509.73	44732.32
509.90	44821.26
510.08	44786.15
510.25	44891.48
510.42	44804.88
510.60	45111.49
510.77	45244.90
510.95	45581.93
511.12	45265.96
511.30	45546.82
511.47	45677.90
511.64	45373.63
511.82	45834.71
511.99	45705.98
512.17	46253.67
512.34	46202.18
512.51	46494.74
512.69	46284.09
512.86	46513.47
513.04	46604.75
513.21	47051.79
513.38	46735.82
513.56	46969.87
513.73	47086.90
513.90	47316.27
514.08	47173.50
514.25	47243.71
514.43	47791.40
514.60	47356.06
514.77	47608.84
514.95	47894.38
515.12	47803.10
515.29	47777.36
515.47	48158.86
515.64	47887.36
515.81	48198.65
515.99	48266.53
516.16	48736.98
516.33	48739.32
516.51	48945.28
516.68	48395.26
516.85	48376.53
517.03	49024.86
517.20	48956.99
517.37	48940.60
517.54	48900.81
517.72	48949.96
517.89	48900.81
518.06	49392.33
518.24	49448.50
518.41	49441.48
518.58	49729.36
518.75	49317.43
518.93	50167.04
519.10	49476.58
519.27	49911.92
519.45	50057.04
519.62	50099.17
519.79	50288.75
519.96	50220.87
520.14	50272.37
520.31	49979.80
520.48	50543.87
520.65	50197.47
520.83	50312.16
521.00	50876.22
521.17	50918.35
521.34	50735.79
521.52	51114.96
521.69	51187.52
521.86	51377.10
522.03	51416.89
522.20	51363.06
522.38	51590.09
522.55	51423.91
522.72	51477.74
522.89	51599.45
523.07	51842.87
523.24	51393.48
523.41	51849.89
523.58	51360.72
523.75	52203.31
523.92	51985.64
524.10	52332.04
524.27	51990.32
524.44	51983.30
524.61	52259.48
524.78	52229.05
524.96	52325.02
525.13	52343.74
525.30	52587.16
525.47	52739.29
525.64	52301.61
525.81	52364.81
525.98	52921.85
526.16	52535.66
526.33	52774.40
526.50	53235.48
526.67	53205.06
526.84	53242.51
527.01	52802.49
527.18	52837.59
527.36	52978.03
527.53	53326.77
527.70	53741.04
527.87	53593.59
528.04	53066.97
528.21	53521.03
528.38	53492.94
528.55	53710.61
528.72	53275.27
528.89	53792.53
529.07	53490.60
529.24	53263.57
529.41	53703.59
529.58	53701.25
529.75	53652.10
529.92	54120.21
530.09	53659.12
530.26	53939.99
530.43	54330.86
530.60	53858.07
530.77	54089.78
530.94	54162.34
531.11	54129.57
531.28	54302.77
531.46	54382.35
531.63	54452.56
531.80	54066.38
531.97	54539.16
532.14	54831.73
532.31	54443.20
532.48	54803.64
532.65	54733.43
532.82	54658.53
532.99	54677.25
533.16	54862.16
533.33	54864.50
533.50	55035.36
533.67	54766.20
533.84	54738.11
534.01	55037.70
534.18	54841.09
534.35	55414.52
534.52	55463.67
534.69	55341.97
534.86	55594.74
535.03	54946.42
535.20	55246.00
535.37	55402.82
535.54	55253.03
535.71	55412.18
535.88	55447.29
536.05	55594.74
536.22	55561.98
536.38	55660.28
536.55	55728.16
536.72	55730.50
536.89	55650.92
537.06	55536.23
537.23	56088.60
537.40	55578.36
537.57	55861.57
537.74	55828.80
537.91	55985.61
538.08	56069.87
538.25	55779.65
538.42	55875.61
538.59	56343.72
538.75	55863.91
538.92	56296.91
539.09	56287.54
539.26	56224.35
539.43	56163.50
539.60	56378.82
539.77	56530.96
539.94	56498.19
540.11	56378.82
540.28	56540.32
540.44	56353.08
540.61	56516.92
540.78	56612.88
540.95	56678.41
541.12	56348.40
541.29	56655.01
541.46	56767.35
541.62	56828.21
541.79	56802.46
541.96	56369.46
542.13	56484.15
542.30	56701.82
542.47	56935.87
542.63	56992.04
542.80	56849.27
542.97	57006.09
543.14	57448.45
543.31	57303.34
543.48	57139.50
543.64	57549.09
543.81	57418.02
543.98	57291.63
544.15	57469.51
544.32	57581.86
544.48	57549.09
544.65	57509.30
544.82	57460.15
544.99	57415.68
545.16	57584.20
545.32	57340.78
545.49	57719.95
545.66	57935.28
545.83	57738.68
546.00	57886.13
546.16	57677.82
546.33	57558.45
546.50	57570.16
546.67	57724.63
546.83	57776.12
547.00	57834.64
547.17	57776.12
547.34	57949.32
547.50	57958.69
547.67	58164.65
547.84	58080.39
548.00	58085.07
548.17	58506.37
548.34	58302.74
548.51	58323.81
548.67	58391.68
548.84	58162.31
549.01	58206.78
549.18	58326.15
549.34	58197.42
549.51	58274.66
549.68	58494.67
549.84	58335.51
550.01	58513.39
550.18	58206.78
550.34	58368.28
550.51	58710.00
550.68	58478.28
550.84	58260.62
551.01	58824.68
551.18	58684.25
551.34	58557.86
551.51	58852.77
551.68	58520.41
551.84	58616.38
552.01	58511.05
552.18	58796.60
552.34	58747.45
552.51	58726.38
552.68	58522.76
552.84	59007.25
553.01	58897.24
553.18	58962.78
553.34	59021.29
553.51	58827.02
553.67	58705.32
553.84	59037.67
554.01	59126.61
554.17	59138.32
554.34	59044.69
554.51	59112.57
554.67	59119.59
554.84	59054.06
555.00	59028.31
555.17	58932.35
555.33	59180.45
555.50	58983.84
555.67	59117.25
555.83	59054.06
556.00	59260.02
556.16	59360.67
556.33	59283.43
556.50	59475.35
556.66	59566.63
556.83	59224.92
556.99	59461.31
557.16	59566.63
557.32	59519.82
557.49	59547.91
557.65	59276.41
557.82	59292.79
557.98	59386.41
558.15	59297.47
558.32	59568.97
558.48	59384.07
558.65	59709.41
558.81	59622.81
558.98	59742.17
559.14	59608.76
559.31	59936.44
559.47	59896.65
559.64	59908.35
559.80	59814.73
559.97	59718.77
560.13	59784.30
560.30	59821.75
560.46	59880.27
560.63	59840.48
560.79	59667.28
560.96	59952.82
561.12	59798.35
561.29	59756.22
561.45	59959.84
561.61	59814.73
561.78	59852.18
561.94	59976.23
562.11	59906.01
562.27	59929.42
562.44	59880.27
562.60	60175.17
562.77	59973.89
562.93	59922.40
563.10	60154.11
563.26	59915.37
563.42	60383.48
563.59	59980.91
563.75	59994.95
563.92	60093.25
564.08	60044.10
564.24	60090.91
564.41	60121.34
564.57	60301.56
564.74	60154.11
564.90	60163.47
565.07	60090.91
565.23	60383.48
565.39	60278.16
565.56	60346.03
565.72	60172.83
565.88	60285.18
566.05	60327.31
566.21	60292.20
566.38	60128.36
566.54	60317.95
566.70	60350.71
566.87	60484.12
567.03	60285.18
567.19	60699.45
567.36	60530.93
567.52	60238.37
567.68	60654.98
567.85	60449.02
568.01	60460.72
568.17	60287.52
568.34	60589.45
568.50	60317.95
568.66	60341.35
568.83	60350.71
568.99	60425.61
569.15	60575.40
569.32	60603.49
569.48	60603.49
569.64	60544.98
569.81	60544.98
569.97	60381.14
570.13	60601.15
570.30	60589.45
570.46	60746.26
570.62	60446.68
570.78	60561.36
570.95	60657.32
571.11	60683.07
571.27	60537.96
571.43	60835.20
571.60	60720.52
571.76	60687.75
571.92	60694.77
572.09	60725.20
572.25	60568.38
572.41	60563.70
572.57	60764.99
572.74	60898.40
572.90	60647.96
573.06	60715.84
573.22	60776.69
573.38	60617.53
573.55	60823.50
573.71	61017.77
573.87	60725.20
574.03	60725.20
574.20	60835.20
574.36	60814.14
574.52	60928.83
574.68	60692.43
574.84	60846.91
575.01	60914.78
575.17	60732.22
575.33	60659.66
575.49	60800.10
575.65	60713.50
575.82	60926.49
575.98	60961.59
576.14	61237.78
576.30	60949.89
576.46	60790.73
576.62	60666.69
576.79	60910.10
576.95	60659.66
577.11	60952.23
577.27	61071.60
577.43	60804.78
577.59	60837.54
577.75	60664.35
577.92	60825.84
578.08	60954.57
578.24	60905.42
578.40	61029.47
578.56	61169.90
578.72	60938.19
578.88	61003.72
579.04	60992.02
579.21	61069.26
579.37	61102.03
579.53	61085.64
579.69	60949.89
579.85	60879.67
580.01	60853.93
580.17	60804.78
580.33	60874.99
580.49	60982.66
580.65	60795.42
580.82	60954.57
580.98	60842.23
581.14	60949.89
581.30	60931.17
581.46	60992.02
581.62	60839.89
581.78	60856.27
581.94	60954.57
582.10	60910.10
582.26	61057.56
582.42	60949.89
582.58	60718.18
582.74	60961.59
582.90	61153.52
583.06	60891.38
583.22	60795.42
583.38	60956.91
583.54	61071.60
583.70	60928.83
583.86	61172.24
584.02	60626.90
584.18	61190.97
584.34	61066.92
584.50	61176.92
584.66	61106.71
584.82	61017.77
584.98	61024.79
585.14	61038.83
585.30	60992.02
585.46	61087.98
585.62	61221.39
585.78	61228.41
585.94	61027.13
586.10	61038.83
586.26	61223.73
586.42	61230.75
586.58	61462.47
586.74	61256.50
586.90	60999.04
587.06	60905.42
587.22	61286.93
587.38	61153.52
587.54	61300.97
587.70	61165.22
587.86	61221.39
588.02	61013.08
588.18	61275.22
588.34	61095.00
588.49	61155.86
