SpectraSuite Data File
++++++++++++++++++++++++++++++++++++
Date: Fri Oct 25 10:47:19 EDT 2013
User: price-jones
Dark Spectrum Present: No
Reference Spectrum Present: No
Number of Sampled Component Spectra: 1
Spectrometers: USB2+H05261
Integration Time (usec): 100000 (USB2+H05261)
Spectra Averaged: 1 (USB2+H05261)
Boxcar Smoothing: 0 (USB2+H05261)
Correct for Electrical Dark: No (USB2+H05261)
Strobe/Lamp Enabled: No (USB2+H05261)
Correct for Detector Non-linearity: No (USB2+H05261)
Correct for Stray Light: No (USB2+H05261)
Number of Pixels in Processed Spectrum: 2048
>>>>>Begin Processed Spectral Data<<<<<
365.73	184.90
365.92	184.90
366.12	184.90
366.32	95.96
366.52	42.13
366.72	67.88
366.91	72.56
367.11	60.85
367.31	7.02
367.51	86.60
367.70	46.81
367.90	35.11
368.10	46.81
368.30	0.00
368.49	18.72
368.69	42.13
368.89	86.60
369.09	32.77
369.28	53.83
369.48	81.92
369.68	128.73
369.87	107.66
370.07	88.94
370.27	145.11
370.47	220.01
370.66	313.63
370.86	423.64
371.06	414.27
371.25	486.83
371.45	404.91
371.65	407.25
371.84	507.90
372.04	372.15
372.24	465.77
372.44	514.92
372.63	505.56
372.83	503.22
373.03	444.70
373.22	456.40
373.42	465.77
373.62	500.87
373.81	451.72
374.01	575.77
374.21	545.34
374.40	533.64
374.60	547.69
374.79	451.72
374.99	594.50
375.19	657.69
375.38	608.54
375.58	538.32
375.78	552.37
375.97	587.47
376.17	589.82
376.37	552.37
376.56	641.31
376.76	573.43
376.95	603.86
377.15	627.26
377.35	613.22
377.54	547.69
377.74	587.47
377.93	662.37
378.13	561.73
378.33	648.33
378.52	610.88
378.72	582.79
378.91	685.78
379.11	585.13
379.31	655.35
379.50	568.75
379.70	575.77
379.89	650.67
380.09	650.67
380.28	594.50
380.48	643.65
380.68	690.46
380.87	601.52
381.07	753.65
381.26	697.48
381.46	617.90
381.65	690.46
381.85	624.92
382.04	653.01
382.24	706.84
382.43	716.20
382.63	727.91
382.83	535.98
383.02	683.44
383.22	662.37
383.41	589.82
383.61	669.39
383.80	718.54
384.00	713.86
384.19	706.84
384.39	690.46
384.58	695.14
384.78	746.63
384.97	765.36
385.17	795.78
385.36	774.72
385.56	713.86
385.75	674.07
385.95	823.87
386.14	842.59
386.34	720.88
386.53	730.25
386.72	755.99
386.92	760.67
387.11	798.12
387.31	798.12
387.50	821.53
387.70	781.74
387.89	774.72
388.09	856.64
388.28	828.55
388.48	812.17
388.67	854.30
388.86	826.21
389.06	758.33
389.25	809.83
389.45	887.06
389.64	870.68
389.84	833.23
390.03	908.13
390.22	877.70
390.42	837.91
390.61	910.47
390.81	887.06
391.00	894.08
391.19	940.90
391.39	912.81
391.58	905.79
391.78	940.90
391.97	983.02
392.16	926.85
392.36	943.24
392.55	940.90
392.75	894.08
392.94	884.72
393.13	917.49
393.33	959.62
393.52	924.51
393.71	1053.24
393.91	971.32
394.10	997.07
394.29	1034.52
394.49	1067.28
394.68	1064.94
394.88	1067.28
395.07	1102.39
395.26	1109.41
395.46	1074.31
395.65	1123.46
395.84	1130.48
396.04	1053.24
396.23	1095.37
396.42	1135.16
396.62	1055.58
396.81	1111.75
397.00	1109.41
397.19	1214.74
397.39	1181.97
397.58	1179.63
397.77	1153.88
397.97	1240.48
398.16	1240.48
398.35	1226.44
398.55	1121.12
398.74	1261.55
398.93	1275.59
399.12	1299.00
399.32	1238.14
399.51	1261.55
399.70	1263.89
399.90	1306.02
400.09	1371.55
400.28	1437.09
400.47	1446.45
400.67	1359.85
400.86	1451.13
401.05	1343.47
401.24	1376.24
401.44	1434.75
401.63	1416.02
401.82	1467.52
402.01	1401.98
402.21	1439.43
402.40	1441.77
402.59	1446.45
402.78	1432.41
402.97	1462.83
403.17	1593.90
403.36	1460.49
403.55	1530.71
403.74	1542.41
403.93	1519.01
404.13	1554.12
404.32	1678.16
404.51	1558.80
404.70	1680.50
404.89	1696.89
405.09	1610.29
405.28	1682.85
405.47	1685.19
405.66	1783.49
405.85	1760.08
406.05	1671.14
406.24	1776.47
406.43	1743.70
406.62	1842.00
406.81	1708.59
407.00	1830.30
407.20	1797.53
407.39	1851.36
407.58	1881.79
407.77	1823.28
407.96	1778.81
408.15	1757.74
408.34	1877.11
408.54	1809.23
408.73	1842.00
408.92	1949.67
409.11	1984.77
409.30	1940.30
409.49	2073.71
409.68	1944.99
409.87	1902.86
410.07	2043.29
410.26	2083.08
410.45	1949.67
410.64	2099.46
410.83	2139.25
411.02	2134.57
411.21	2125.21
411.40	2186.06
411.59	2197.76
411.78	2209.47
411.98	2136.91
412.17	2209.47
412.36	2263.30
412.55	2298.41
412.74	2368.62
412.93	2328.83
413.12	2305.43
413.31	2408.41
413.50	2314.79
413.69	2354.58
413.88	2569.91
414.07	2445.86
414.26	2518.42
414.45	2560.55
414.64	2530.12
414.83	2708.00
415.02	2677.57
415.22	2569.91
415.41	2736.09
415.60	2768.85
415.79	2789.92
415.98	2693.96
416.17	2768.85
416.36	2792.26
416.55	2818.00
416.74	2733.75
416.93	2766.51
417.12	2883.54
417.31	2932.69
417.50	2923.33
417.69	2984.18
417.88	2888.22
418.07	2965.46
418.26	3049.72
418.45	3035.67
418.64	3019.29
418.83	2928.01
419.02	3101.21
419.21	3075.46
419.39	3075.46
419.58	3087.17
419.77	2946.73
419.96	3192.49
420.15	3220.58
420.34	3227.60
420.53	3112.91
420.72	3293.13
420.91	3251.00
421.10	3377.39
421.29	3274.41
421.48	3225.26
421.67	3234.62
421.86	3190.15
422.05	3342.28
422.24	3361.01
422.43	3424.20
422.61	3368.03
422.80	3309.52
422.99	3246.32
423.18	3452.29
423.37	3419.52
423.56	3421.86
423.75	3316.54
423.94	3368.03
424.13	3262.71
424.32	3316.54
424.50	3396.12
424.69	3499.10
424.88	3548.25
425.07	3468.67
425.26	3344.63
425.45	3426.54
425.64	3396.12
425.83	3538.89
426.01	3545.91
426.20	3463.99
426.39	3318.88
426.58	3531.87
426.77	3342.28
426.96	3562.30
427.15	3555.27
427.33	3595.06
427.52	3571.66
427.71	3667.62
427.90	3623.15
428.09	3571.66
428.28	3700.39
428.46	3875.93
428.65	3688.68
428.84	3721.45
429.03	3712.09
429.22	3719.11
429.40	3679.32
429.59	3672.30
429.78	3595.06
429.97	3574.00
430.16	3618.47
430.34	3702.73
430.53	3794.01
430.72	3695.71
430.91	3871.25
431.10	3803.37
431.28	3829.12
431.47	4053.81
431.66	4100.62
431.85	3889.97
432.03	4156.79
432.22	4147.43
432.41	4072.53
432.60	4030.40
432.79	4067.85
432.97	4250.41
433.16	4166.15
433.35	4065.51
433.54	4049.13
433.72	4154.45
433.91	4189.56
434.10	4266.80
434.28	4252.75
434.47	4241.05
434.66	4315.95
434.85	4358.08
435.03	4306.59
435.22	4252.75
435.41	4367.44
435.59	4463.40
435.78	4287.86
435.97	4404.89
436.16	4524.26
436.34	4402.55
436.53	4416.59
436.72	4475.10
436.90	4477.44
437.09	4650.64
437.28	4470.42
437.46	4580.43
437.65	4660.01
437.84	4592.13
438.02	4760.65
438.21	4505.53
438.40	4435.32
438.58	4657.67
438.77	4720.86
438.96	4678.73
439.14	4924.49
439.33	4830.87
439.52	4938.53
439.70	4983.00
439.89	4868.31
440.08	4938.53
440.26	5018.11
440.45	4952.57
440.63	5011.09
440.82	5163.22
441.01	5139.82
441.19	5158.54
441.38	5298.97
441.57	5345.78
441.75	5329.40
441.94	5437.06
442.12	5483.88
442.31	5338.76
442.50	5408.98
442.68	5603.24
442.87	5504.94
443.05	5570.48
443.24	5598.56
443.43	5533.03
443.61	5518.98
443.80	5720.27
443.98	5575.16
444.17	5418.34
444.35	5621.97
444.54	5731.97
444.73	5624.31
444.91	5715.59
445.10	5619.63
445.28	5516.64
445.47	5565.79
445.65	5633.67
445.84	5577.50
446.02	5596.22
446.21	5682.82
446.39	5605.58
446.58	5792.83
446.77	5809.21
446.95	5678.14
447.14	5771.76
447.32	5806.87
447.51	5628.99
447.69	5867.72
447.88	5778.78
448.06	5846.66
448.25	5853.68
448.43	5628.99
448.62	5879.43
448.80	5753.04
448.99	5900.49
449.17	5870.06
449.36	5853.68
449.54	5884.11
449.73	6047.94
449.91	6071.35
450.10	6223.48
450.28	6153.27
450.46	6129.86
450.65	6162.63
450.83	6331.15
451.02	6363.92
451.20	6200.08
451.39	6101.78
451.57	6340.51
451.76	6092.41
451.94	6293.70
452.13	6305.40
452.31	6347.53
452.49	6256.25
452.68	6291.36
452.86	6300.72
453.05	6363.92
453.23	6354.55
453.42	6326.47
453.60	6459.88
453.78	6424.77
453.97	6438.81
454.15	6375.62
454.34	6190.72
454.52	6560.52
454.70	6523.07
454.89	6572.22
455.07	6698.61
455.26	6637.76
455.44	6626.06
455.62	6757.13
455.81	6867.13
455.99	6668.19
456.17	6801.60
456.36	6930.33
456.54	6825.00
456.73	6916.28
456.91	7185.44
457.09	7213.53
457.28	7218.21
457.46	6935.01
457.64	7293.11
457.83	7124.59
458.01	7117.57
458.19	7164.38
458.38	7222.89
458.56	7358.64
458.74	7269.70
458.93	7119.91
459.11	7386.73
459.29	7152.68
459.48	7417.16
459.66	7117.57
459.84	7358.64
460.03	7562.27
460.21	7456.95
460.39	7389.07
460.57	7501.42
460.76	7513.12
460.94	7438.22
461.12	7426.52
461.31	7517.80
461.49	7531.84
461.67	7651.21
461.85	7845.48
462.04	7573.97
462.22	8152.09
462.40	7847.82
462.59	7658.23
462.77	7637.17
462.95	7791.64
463.13	7903.99
463.32	7845.48
463.50	7911.01
463.68	7714.41
463.86	7932.08
464.05	7702.70
464.23	7908.67
464.41	7915.69
464.59	7758.88
464.78	8067.83
464.96	8241.03
465.14	7889.95
465.32	8131.02
465.50	8093.57
465.69	8189.53
465.87	8102.93
466.05	8105.28
466.23	7927.39
466.41	8201.24
466.60	8329.97
466.78	7939.10
466.96	8093.57
467.14	8100.59
467.32	8327.63
467.51	8341.67
467.69	8051.44
467.87	8299.54
468.05	8196.56
468.23	8175.49
468.41	8278.47
468.60	8313.58
468.78	8336.99
468.96	8163.79
469.14	8468.06
469.32	8641.26
469.50	8449.33
469.69	8514.87
469.87	8596.79
470.05	8580.40
470.23	8669.34
470.41	8755.94
470.59	8725.52
470.77	8781.69
470.95	8912.76
471.14	9034.47
471.32	8856.59
471.50	9062.55
471.68	9001.70
471.86	9184.26
472.04	9142.13
472.22	9193.62
472.40	8959.57
472.58	9280.22
472.77	9254.48
472.95	9266.18
473.13	9495.55
473.31	9308.31
473.49	9268.52
473.67	9256.82
473.85	9439.38
474.03	9481.51
474.21	9685.14
474.39	9554.07
474.57	9399.59
474.75	9727.27
474.93	9753.01
475.12	9865.36
475.30	10068.98
475.48	9856.00
475.66	10136.86
475.84	10050.26
476.02	10153.24
476.20	10146.22
476.38	10246.87
476.56	10457.51
476.74	10434.11
476.92	10604.97
477.10	10277.29
477.28	10523.05
477.46	10607.31
477.64	10939.66
477.82	10724.33
478.00	11164.36
478.18	11265.00
478.36	11047.33
478.54	11463.94
478.72	11475.65
478.90	11470.97
479.08	11548.20
479.26	11618.42
479.44	11648.85
479.62	11300.11
479.80	11765.87
479.98	11974.18
480.16	12086.53
480.34	11950.78
480.52	12072.48
480.70	11957.80
480.88	12056.10
481.06	12269.09
481.24	12051.42
481.41	12793.37
481.59	12617.83
481.77	12732.51
481.95	12545.27
482.13	12917.42
482.31	12945.50
482.49	13214.66
482.67	12847.20
482.85	13451.06
483.03	13495.53
483.21	13561.06
483.39	13823.20
483.57	13675.75
483.74	13612.56
483.92	13975.34
484.10	13785.76
484.28	14122.79
484.46	14314.72
484.64	14623.67
484.82	14494.94
485.00	14387.27
485.18	14609.62
485.35	14719.63
485.53	14822.61
485.71	14897.51
485.89	14974.75
486.07	14684.52
486.25	15339.87
486.43	15382.00
486.61	15452.22
486.78	15648.82
486.96	15550.52
487.14	15983.52
487.32	15857.13
487.50	16159.06
487.68	16053.73
487.85	16287.79
488.03	16486.73
488.21	16676.32
488.39	16603.76
488.57	16755.90
488.75	16898.67
488.92	17090.59
489.10	17261.45
489.28	17298.90
489.46	17699.13
489.64	17362.09
489.81	17818.50
489.99	17837.22
490.17	17869.99
490.35	18141.49
490.53	18183.62
490.70	18492.57
490.88	18562.79
491.06	18207.03
491.24	18235.11
491.41	18663.43
491.59	19023.87
491.77	18633.00
491.95	19084.73
492.13	19019.19
492.30	19037.92
492.48	19243.88
492.66	19351.55
492.84	19719.01
493.01	19805.61
493.19	19758.80
493.37	20116.90
493.54	20074.77
493.72	20526.50
493.90	20280.74
494.08	20631.82
494.25	20898.64
494.43	20809.70
494.61	21006.31
494.79	20933.75
494.96	20629.48
495.14	20933.75
495.32	21317.60
495.49	21326.96
495.67	21497.82
495.85	21359.73
496.02	21837.20
496.20	21745.92
496.38	22061.89
496.55	21902.73
496.73	22487.87
496.91	22490.21
497.09	22171.89
497.26	22684.47
497.44	22537.02
497.62	22693.83
497.79	22675.11
497.97	22808.52
498.14	22787.46
498.32	22958.31
498.50	23173.64
498.67	23087.04
498.85	23585.58
499.03	23747.08
499.20	24189.44
499.38	23529.41
499.56	23791.55
499.73	23999.85
499.91	23969.43
500.08	24283.06
500.26	23941.34
500.44	24210.50
500.61	24322.85
500.79	24276.04
500.97	24346.25
501.14	24561.58
501.32	24517.11
501.49	24718.40
501.67	24610.73
501.84	25167.78
502.02	24592.01
502.20	25343.32
502.37	25273.10
502.55	25268.42
502.72	25067.14
502.90	25310.55
503.07	25331.62
503.25	25582.06
503.43	25411.20
503.60	25699.08
503.78	25743.55
503.95	25930.80
504.13	25865.26
504.30	26324.01
504.48	25865.26
504.65	26066.55
504.83	26256.13
505.01	26527.63
505.18	26099.31
505.36	26810.84
505.53	26632.96
505.71	26850.63
505.88	27049.57
506.06	26902.12
506.23	26478.48
506.41	26639.98
506.58	26920.84
506.76	27360.86
506.93	27241.50
507.11	27220.43
507.28	27070.64
507.46	27227.45
507.63	27145.53
507.81	28093.45
507.98	27126.81
508.16	27505.98
508.33	27871.10
508.50	27878.12
508.68	28360.27
508.85	28318.14
509.03	27927.27
509.20	28489.00
509.38	28704.33
509.55	28587.30
509.73	28458.57
509.90	28467.94
510.08	28491.34
510.25	28467.94
510.42	28622.41
510.60	28692.63
510.77	29142.01
510.95	29233.29
511.12	28807.31
511.30	28992.22
511.47	29369.04
511.64	29565.65
511.82	29699.06
511.99	29523.52
512.17	29397.13
512.34	29607.78
512.51	29914.39
512.69	30036.09
512.86	29773.95
513.04	30094.61
513.21	30029.07
513.38	30057.16
513.56	29982.26
513.73	29977.58
513.90	30103.97
514.08	30457.39
514.25	30150.78
514.43	30654.00
514.60	30438.67
514.77	30190.57
514.95	31112.74
515.12	30487.82
515.29	30890.39
515.47	30930.18
515.64	31208.70
515.81	31037.84
515.99	31056.57
516.16	31124.44
516.33	31243.81
516.51	31735.32
516.68	31140.83
516.85	31126.78
517.03	31061.25
517.20	31711.92
517.37	31307.01
517.54	31648.72
517.72	31611.28
517.89	31522.34
518.06	31857.03
518.24	31910.86
518.41	31889.80
518.58	31758.73
518.75	32048.96
518.93	32449.19
519.10	32369.61
519.27	32142.58
519.45	32140.24
519.62	32437.48
519.79	32615.37
519.96	32411.74
520.14	32802.61
520.31	32835.38
520.48	32762.82
520.65	32610.68
520.83	32917.29
521.00	33275.40
521.17	33017.94
521.34	32931.34
521.52	32931.34
521.69	33153.69
521.86	33284.76
522.03	34047.77
522.20	33333.91
522.38	33839.47
522.55	33727.12
522.72	33560.94
522.89	33865.21
523.07	33942.45
523.24	33907.34
523.41	34045.43
523.58	33715.42
523.75	34188.21
523.92	34089.90
524.10	34113.31
524.27	34356.72
524.44	34527.58
524.61	34085.22
524.78	34515.88
524.96	34806.11
525.13	34756.96
525.30	34916.11
525.47	34689.08
525.64	34857.60
525.81	34871.64
525.98	34974.63
526.16	35005.05
526.33	35044.84
526.50	35091.65
526.67	34848.24
526.84	34689.08
527.01	34787.38
527.18	34885.68
527.36	35152.51
527.53	35204.00
527.70	35936.59
527.87	35496.56
528.04	35644.02
528.21	35424.01
528.38	35751.68
528.55	35468.48
528.72	35501.25
528.89	36006.80
529.07	35800.83
529.24	36189.36
529.41	35915.52
529.58	35857.01
529.75	35985.74
529.92	36027.87
530.09	36385.97
530.26	36264.26
530.43	36259.58
530.60	36226.81
530.77	35983.40
530.94	36273.62
531.11	36870.46
531.28	36538.10
531.46	36580.23
531.63	36598.96
531.80	36535.76
531.97	37074.09
532.14	36893.86
532.31	36404.69
532.48	36788.54
532.65	36790.88
532.82	36779.18
532.99	37273.03
533.16	36655.13
533.33	37095.15
533.50	37261.33
533.67	37429.85
533.84	37443.89
534.01	37071.75
534.18	37406.44
534.35	37432.19
534.52	37317.50
534.69	37376.01
534.86	37750.50
535.03	37195.79
535.20	37464.96
535.37	38253.72
535.54	37886.25
535.71	37422.83
535.88	37713.05
536.05	37525.81
536.22	37631.13
536.38	37804.33
536.55	37792.63
536.72	38473.73
536.89	37572.62
537.06	38122.65
537.23	38022.00
537.40	37614.75
537.57	38188.18
537.74	38586.07
537.91	38696.08
538.08	38190.52
538.25	38141.37
538.42	38141.37
538.59	38728.84
538.75	38164.78
538.92	38499.47
539.09	38960.56
539.26	39147.80
539.43	38770.97
539.60	39103.33
539.77	38848.21
539.94	39126.74
540.11	38628.20
540.28	39143.12
540.44	38953.54
540.61	38789.70
540.78	38600.12
540.95	39068.22
541.12	38534.58
541.29	38646.93
541.46	38845.87
541.62	38918.43
541.79	39035.45
541.96	39019.07
542.13	39442.71
542.30	39119.71
542.47	39299.94
542.63	39515.26
542.80	39697.83
542.97	39880.39
543.14	39700.17
543.31	39688.46
543.48	39615.91
543.64	39864.00
543.81	40191.68
543.98	39812.51
544.15	39922.52
544.32	40023.16
544.48	40657.45
544.65	40460.84
544.82	40404.67
544.99	39875.71
545.16	40292.32
545.32	39854.64
545.49	40170.61
545.66	40577.87
545.83	40285.30
546.00	40531.06
546.16	40603.61
546.33	40481.91
546.50	40301.68
546.67	40397.65
546.83	40282.96
547.00	40884.48
547.17	40423.39
547.34	40367.22
547.50	40451.48
547.67	40863.41
547.84	40926.61
548.00	41013.21
548.17	41060.02
548.34	40954.69
548.51	41439.18
548.67	41144.28
548.84	41081.08
549.01	41001.50
549.18	41015.55
549.34	41053.00
549.51	41294.07
549.68	41532.81
549.84	41680.26
550.01	41647.49
550.18	41064.70
550.34	41160.66
550.51	41322.16
550.68	41212.15
550.84	40994.48
551.01	41326.84
551.18	41823.03
551.34	41471.95
551.51	41673.24
551.68	41645.15
551.84	41787.92
552.01	41488.34
552.18	41670.90
552.34	41523.44
552.51	41996.23
552.68	41656.85
552.84	42167.09
553.01	42089.85
553.18	42003.25
553.34	41720.05
553.51	41659.20
553.67	42108.58
553.84	42293.48
554.01	42337.95
554.17	42499.45
554.34	42525.19
554.51	42047.72
554.67	42124.96
554.84	42223.26
555.00	41717.71
555.17	42043.04
555.33	42476.04
555.50	42316.89
555.67	41970.49
555.83	42300.50
556.00	42508.81
556.16	43009.68
556.33	42309.86
556.50	42185.82
556.66	42763.93
556.83	42295.82
556.99	42564.98
557.16	43016.71
557.32	42637.54
557.49	42637.54
557.65	42408.17
557.82	42665.63
557.98	42548.60
558.15	42946.49
558.32	42892.66
558.48	42101.56
558.65	42557.96
558.81	42993.30
558.98	42651.58
559.14	42658.60
559.31	42560.30
559.47	43164.16
559.64	42391.78
559.80	43210.97
559.97	43433.32
560.13	42649.24
560.30	42876.27
560.46	42703.07
560.63	42712.44
560.79	43168.84
560.96	43281.19
561.12	43072.88
561.29	42967.55
561.45	42754.57
561.61	42733.50
561.78	43098.62
561.94	42845.85
562.11	43349.06
562.27	42972.24
562.44	42995.64
562.60	43374.81
562.77	43529.28
562.93	42897.34
563.10	43618.22
563.26	42981.60
563.42	43290.55
563.59	43068.20
563.75	43325.66
563.92	43655.67
564.08	43459.07
564.24	43578.43
564.41	43615.88
564.57	43445.02
564.74	43484.81
564.90	43533.96
565.07	43262.46
565.23	43363.11
565.39	43194.59
565.56	43346.72
565.72	43157.14
565.88	43452.05
566.05	43676.74
566.21	43587.80
566.38	43372.47
566.54	43648.65
566.70	43770.36
566.87	43468.43
567.03	43473.11
567.19	43964.62
567.36	43473.11
567.52	43583.12
567.68	43512.90
567.85	43576.09
568.01	43653.33
568.17	43498.86
568.34	43999.73
568.50	43924.83
568.66	43669.72
568.83	43693.12
568.99	43690.78
569.15	44161.23
569.32	43660.35
569.48	43632.27
569.64	43725.89
569.81	43882.70
569.97	43328.00
570.13	43697.80
570.30	43552.69
570.46	43489.49
570.62	43548.01
570.78	43761.00
570.95	43892.07
571.11	43959.94
571.27	43758.66
571.43	43681.42
571.60	44172.93
571.76	44025.48
571.92	43576.09
572.09	43714.19
572.25	43557.37
572.41	43749.29
572.57	43606.52
572.74	44285.28
572.90	44217.40
573.06	43950.58
573.22	44158.89
573.38	44018.46
573.55	43810.15
573.71	44247.83
573.87	43742.27
574.03	43721.21
574.20	43941.22
574.36	43810.15
574.52	44098.03
574.68	44238.47
574.84	44521.67
575.01	43702.48
575.17	44229.10
575.33	43758.66
575.49	43578.43
575.65	44409.32
575.82	44720.62
575.98	43999.73
576.14	44051.22
576.30	44025.48
576.46	43700.14
576.62	43948.24
576.79	43650.99
576.95	43484.81
577.11	43983.35
577.27	43889.73
577.43	44402.30
577.59	43793.76
577.75	44053.56
577.92	43494.18
578.08	43966.96
578.24	43690.78
578.40	44123.78
578.56	44100.37
578.72	44250.17
578.88	44243.15
579.04	44346.13
579.21	43915.47
579.37	43847.60
579.53	43903.77
579.69	43475.45
579.85	44076.97
580.01	43782.06
580.17	44058.24
580.33	44322.72
580.49	44009.09
580.65	44402.30
580.82	44088.67
580.98	43838.23
581.14	44107.40
581.30	44299.32
581.46	44102.71
581.62	44144.84
581.78	44095.69
581.94	44325.07
582.10	44062.93
582.26	44151.87
582.42	44404.64
582.58	44069.95
582.74	44126.12
582.90	44411.67
583.06	44023.14
583.22	44713.59
583.38	43952.92
583.54	44289.96
583.70	44002.07
583.86	44170.59
584.02	43976.33
584.18	44083.99
584.34	43910.79
584.50	44144.84
584.66	44165.91
584.82	43985.69
584.98	44336.77
585.14	44219.74
585.30	44018.46
585.46	44083.99
585.62	43983.35
585.78	44474.86
585.94	44158.89
586.10	43730.57
586.26	44121.44
586.42	44079.31
586.58	44341.45
586.74	44376.56
586.90	43962.28
587.06	44257.19
587.22	44797.85
587.38	44261.87
587.54	44692.53
587.70	44739.34
587.86	44390.60
588.02	44477.20
588.18	44891.48
588.34	44226.76
588.49	44067.61
588.65	43929.51
588.81	44119.10
588.97	44165.91
589.13	44484.22
589.29	44163.57
589.45	44201.02
589.61	43941.22
589.77	44694.87
589.93	44732.32
590.08	44500.61
590.24	44470.18
590.40	44362.51
