SpectraSuite Data File
++++++++++++++++++++++++++++++++++++
Date: Fri Oct 25 10:43:57 EDT 2013
User: price-jones
Dark Spectrum Present: No
Reference Spectrum Present: No
Number of Sampled Component Spectra: 1
Spectrometers: USB2+H05261
Integration Time (usec): 100000 (USB2+H05261)
Spectra Averaged: 1 (USB2+H05261)
Boxcar Smoothing: 0 (USB2+H05261)
Correct for Electrical Dark: No (USB2+H05261)
Strobe/Lamp Enabled: No (USB2+H05261)
Correct for Detector Non-linearity: No (USB2+H05261)
Correct for Stray Light: No (USB2+H05261)
Number of Pixels in Processed Spectrum: 2048
>>>>>Begin Processed Spectral Data<<<<<
365.73	114.69
365.92	114.69
366.12	114.69
366.32	7.02
366.52	0.00
366.72	0.00
366.91	70.22
367.11	65.54
367.31	0.00
367.51	39.79
367.70	37.45
367.90	60.85
368.10	21.06
368.30	39.79
368.49	0.00
368.69	28.09
368.89	49.15
369.09	9.36
369.28	86.60
369.48	110.01
369.68	98.30
369.87	74.90
370.07	84.26
370.27	107.66
370.47	196.60
370.66	388.53
370.86	362.78
371.06	517.26
371.25	418.96
371.45	404.91
371.65	496.19
371.84	444.70
372.04	376.83
372.24	458.74
372.44	547.69
372.63	442.36
372.83	545.34
373.03	564.07
373.22	437.68
373.42	571.09
373.62	610.88
373.81	538.32
374.01	519.60
374.21	592.16
374.40	500.87
374.60	613.22
374.79	514.92
374.99	571.09
375.19	571.09
375.38	519.60
375.58	624.92
375.78	517.26
375.97	615.56
376.17	671.73
376.37	653.01
376.56	566.41
376.76	575.77
376.95	599.18
377.15	648.33
377.35	711.52
377.54	695.14
377.74	634.29
377.93	627.26
378.13	763.01
378.33	713.86
378.52	638.97
378.72	690.46
378.91	634.29
379.11	645.99
379.31	603.86
379.50	671.73
379.70	678.76
379.89	758.33
380.09	667.05
380.28	685.78
380.48	688.12
380.68	681.10
380.87	791.10
381.07	697.48
381.26	777.06
381.46	725.57
381.65	690.46
381.85	676.41
382.04	807.48
382.24	657.69
382.43	730.25
382.63	699.82
382.83	727.91
383.02	702.16
383.22	767.70
383.41	737.27
383.61	746.63
383.80	760.67
384.00	828.55
384.19	772.38
384.39	767.70
384.58	861.32
384.78	805.14
384.97	844.93
385.17	760.67
385.36	840.25
385.56	770.04
385.75	795.78
385.95	788.76
386.14	870.68
386.34	861.32
386.53	833.23
386.72	800.46
386.92	875.36
387.11	849.61
387.31	910.47
387.50	898.77
387.70	884.72
387.89	887.06
388.09	929.19
388.28	870.68
388.48	987.71
388.67	938.55
388.86	945.58
389.06	1004.09
389.25	922.17
389.45	994.73
389.64	985.37
389.84	954.94
390.03	999.41
390.22	966.64
390.42	997.07
390.61	952.60
390.81	1008.77
391.00	1135.16
391.19	1111.75
391.39	1036.86
391.58	1008.77
391.78	1032.18
391.97	1057.92
392.16	1029.84
392.36	1109.41
392.55	1032.18
392.75	987.71
392.94	983.02
393.13	1032.18
393.33	961.96
393.52	1039.20
393.71	1116.44
393.91	1060.26
394.10	1093.03
394.29	1111.75
394.49	1341.13
394.68	1217.08
394.88	1294.32
395.07	1268.57
395.26	1275.59
395.46	1172.61
395.65	1170.27
395.84	1256.87
396.04	1193.67
396.23	1181.97
396.42	1128.14
396.62	1231.12
396.81	1224.10
397.00	1261.55
397.19	1273.25
397.39	1313.04
397.58	1432.41
397.77	1390.28
397.97	1469.86
398.16	1427.73
398.35	1472.20
398.55	1528.37
398.74	1490.92
398.93	1542.41
399.12	1504.96
399.32	1591.56
399.51	1586.88
399.70	1633.69
399.90	1572.84
400.09	1652.42
400.28	1598.59
400.47	1579.86
400.67	1645.40
400.86	1680.50
401.05	1727.32
401.24	1706.25
401.44	1764.76
401.63	1858.39
401.82	1816.26
402.01	1776.47
402.21	1823.28
402.40	1729.66
402.59	1802.21
402.78	1879.45
402.97	1837.32
403.17	1856.04
403.36	1921.58
403.55	1888.81
403.74	1877.11
403.93	1893.49
404.13	1914.56
404.32	1865.41
404.51	1881.79
404.70	1959.03
404.89	1928.60
405.09	1996.48
405.28	1961.37
405.47	2052.65
405.66	2045.63
405.85	2139.25
406.05	2029.24
406.24	2083.08
406.43	2033.93
406.62	2186.06
406.81	2148.61
407.00	2078.40
407.20	2069.03
407.39	2073.71
407.58	2218.83
407.77	2251.60
407.96	2232.87
408.15	2242.23
408.34	2359.26
408.54	2275.00
408.73	2286.70
408.92	2363.94
409.11	2413.09
409.30	2333.51
409.49	2258.62
409.68	2406.07
409.87	2342.88
410.07	2305.43
410.26	2377.98
410.45	2457.56
410.64	2445.86
410.83	2509.05
411.02	2576.93
411.21	2595.65
411.40	2621.40
411.59	2693.96
411.78	2710.34
411.98	2684.59
412.17	2771.19
412.36	2759.49
412.55	2773.53
412.74	2700.98
412.93	2740.77
413.12	2710.34
413.31	3061.42
413.50	2925.67
413.69	2972.48
413.88	2946.73
414.07	3028.65
414.26	2953.76
414.45	2991.20
414.64	3091.85
414.83	2998.23
415.02	3068.44
415.22	3208.87
415.41	3262.71
415.60	3265.05
415.79	3269.73
415.98	3438.25
416.17	3279.09
416.36	3337.60
416.55	3253.34
416.74	3452.29
416.93	3339.94
417.12	3400.80
417.31	3435.91
417.50	3428.88
417.69	3482.72
417.88	3571.66
418.07	3494.42
418.26	3564.64
418.45	3616.13
418.64	3772.94
418.83	3618.47
419.02	3634.85
419.21	3662.94
419.39	3672.30
419.58	3529.53
419.77	3693.37
419.96	3719.11
420.15	3742.52
420.34	3676.98
420.53	3747.20
420.72	3955.51
420.91	3796.35
421.10	3812.73
421.29	3896.99
421.48	3983.59
421.67	4042.11
421.86	3946.14
422.05	3779.97
422.24	3887.63
422.43	3859.54
422.61	3927.42
422.80	4065.51
422.99	3901.67
423.18	3920.40
423.37	4025.72
423.56	4056.15
423.75	3995.29
423.94	3936.78
424.13	3721.45
424.32	3974.23
424.50	4067.85
424.69	4100.62
424.88	3983.59
425.07	3981.25
425.26	3955.51
425.45	4035.08
425.64	4016.36
425.83	4095.94
426.01	4203.60
426.20	4159.13
426.39	4063.17
426.58	4009.34
426.77	4124.02
426.96	4091.26
427.15	4095.94
427.33	4269.14
427.52	4173.18
427.71	4201.26
427.90	4285.52
428.09	4222.33
428.28	4304.25
428.46	4241.05
428.65	4458.72
428.84	4493.83
429.03	4334.67
429.22	4248.07
429.40	4315.95
429.59	4208.28
429.78	3990.61
429.97	4072.53
430.16	4170.83
430.34	4133.39
430.53	4276.16
430.72	4339.35
430.91	4250.41
431.10	4507.87
431.28	4599.15
431.47	4734.90
431.66	4762.99
431.85	4601.49
432.03	4734.90
432.22	4662.35
432.41	4807.46
432.60	4884.70
432.79	4985.34
432.97	4901.08
433.16	4964.28
433.35	4709.16
433.54	4685.75
433.72	4676.39
433.91	4863.63
434.10	4788.74
434.28	4931.51
434.47	4917.47
434.66	5062.58
434.85	5181.95
435.03	5097.69
435.22	5100.03
435.41	5256.84
435.59	5060.24
435.78	5240.46
435.97	5172.58
436.16	5221.74
436.34	5397.28
436.53	5313.02
436.72	5212.37
436.90	5125.77
437.09	5291.95
437.28	5109.39
437.46	5247.48
437.65	5540.05
437.84	5308.34
438.02	5355.15
438.21	5205.35
438.40	5153.86
438.58	5467.49
438.77	5523.66
438.96	5561.11
439.14	5678.14
439.33	5769.42
439.52	5738.99
439.70	5710.91
439.89	5867.72
440.08	5799.85
440.26	5982.41
440.45	5839.64
440.63	5907.51
440.82	6218.80
441.01	6153.27
441.19	6256.25
441.38	6132.20
441.57	6230.51
441.75	6258.59
441.94	6209.44
442.12	6619.04
442.31	6583.93
442.50	6494.99
442.68	6494.99
442.87	6464.56
443.05	6366.26
443.24	6649.46
443.43	6572.22
443.61	6789.89
443.80	6792.23
443.98	6431.79
444.17	6455.20
444.35	6630.74
444.54	6658.82
444.73	6628.40
444.91	6696.27
445.10	6590.95
445.28	6551.16
445.47	6436.47
445.65	6689.25
445.84	6551.16
446.02	6712.66
446.21	6778.19
446.39	6675.21
446.58	6913.94
446.77	6825.00
446.95	6682.23
447.14	6775.85
447.32	6993.52
447.51	6878.83
447.69	6942.03
447.88	6958.41
448.06	6820.32
448.25	7063.74
448.43	6967.77
448.62	6906.92
448.80	6817.98
448.99	6967.77
449.17	7002.88
449.36	7056.72
449.54	7073.10
449.73	7239.28
449.91	7314.17
450.10	7204.17
450.28	7360.98
450.46	7314.17
450.65	7398.43
450.83	7339.92
451.02	7215.87
451.20	7363.33
451.39	7131.61
451.57	7407.80
451.76	7260.34
451.94	7496.74
452.13	7417.16
452.31	7148.00
452.49	7241.62
452.68	7368.01
452.86	7225.23
453.05	7459.29
453.23	7555.25
453.42	7426.52
453.60	7506.10
453.78	7611.42
453.97	7557.59
454.15	7503.76
454.34	7496.74
454.52	7639.51
454.70	7662.91
454.89	7838.45
455.07	7861.86
455.26	7810.37
455.44	7960.16
455.62	7896.97
455.81	7880.58
455.99	8067.83
456.17	7922.71
456.36	7967.18
456.54	8212.94
456.73	8308.90
456.91	8210.60
457.09	8145.06
457.28	8425.93
457.46	8285.50
457.64	8107.62
457.83	8348.69
458.01	8138.04
458.19	8407.20
458.38	8475.08
458.56	8451.67
458.74	8252.73
458.93	8362.73
459.11	8423.59
459.29	8568.70
459.48	8617.85
459.66	8355.71
459.84	8545.30
460.03	8697.43
460.21	8791.05
460.39	8683.39
460.57	8861.27
460.76	8704.45
460.94	8957.23
461.12	8982.98
461.31	9034.47
461.49	8802.75
461.67	8924.46
461.85	8931.48
462.04	9060.21
462.22	9128.09
462.40	9097.66
462.59	9121.07
462.77	9032.13
462.95	9039.15
463.13	9263.84
463.32	9100.00
463.50	9240.44
463.68	9170.22
463.86	9076.60
464.05	9036.81
464.23	9233.41
464.41	9193.62
464.59	9177.24
464.78	9521.30
464.96	9404.27
465.14	9284.91
465.32	9259.16
465.50	9432.36
465.69	9525.98
465.87	9266.18
466.05	9317.67
466.23	9446.40
466.41	9504.92
466.60	9664.07
466.78	9640.67
466.96	9355.12
467.14	9549.39
467.32	9626.62
467.51	9715.56
467.69	9441.72
467.87	9404.27
468.05	9760.03
468.23	9771.74
468.41	9708.54
468.60	9760.03
468.78	9760.03
468.96	9902.81
469.14	9694.50
469.32	9856.00
469.50	9872.38
469.69	10052.60
469.87	9858.34
470.05	10209.42
470.23	10085.37
470.41	9944.94
470.59	10153.24
470.77	10136.86
470.95	10450.49
471.14	10235.16
471.32	10242.18
471.50	10534.75
471.68	10649.44
471.86	10607.31
472.04	10581.56
472.22	10630.71
472.40	10509.01
472.58	10691.57
472.77	10541.77
472.95	10806.25
473.13	10960.73
473.31	10794.55
473.49	10670.50
473.67	10934.98
473.85	11143.29
474.03	11042.65
474.21	11232.23
474.39	11346.92
474.57	11316.49
474.75	11325.85
474.93	11349.26
475.12	11363.30
475.30	11665.23
475.48	11482.67
475.66	11620.76
475.84	11412.45
476.02	11506.07
476.20	11875.88
476.38	11836.09
476.56	12168.45
476.74	11918.01
476.92	11974.18
477.10	11988.22
477.28	12297.17
477.46	12259.73
477.64	12695.07
477.82	12498.46
478.00	12812.09
478.18	12542.93
478.36	13081.25
478.54	13270.84
478.72	12908.05
478.90	13245.09
479.08	13371.48
479.26	13654.69
479.44	13514.25
479.62	13383.18
479.80	13554.04
479.98	13549.36
480.16	13996.40
480.34	13919.17
480.52	13956.61
480.70	14185.99
480.88	13778.73
481.06	14169.60
481.24	14139.18
481.41	14501.96
481.59	14726.65
481.77	14920.92
481.95	14787.50
482.13	14853.04
482.31	14764.10
482.49	15178.37
482.67	15274.34
482.85	15424.13
483.03	15227.53
483.21	15386.68
483.39	15681.59
483.57	15726.06
483.74	15473.28
483.92	16112.25
484.10	15618.39
484.28	16233.96
484.46	16545.25
484.64	16755.90
484.82	16458.65
485.00	16524.18
485.18	16659.93
485.35	16681.00
485.53	16463.33
485.71	16671.64
485.89	16723.13
486.07	16664.61
486.25	17027.40
486.43	17326.99
486.61	17247.41
486.78	17689.77
486.96	17734.24
487.14	17928.50
487.32	17858.29
487.50	18375.55
487.68	18485.55
487.85	18684.50
488.03	19314.10
488.21	19307.08
488.39	18948.98
488.57	19084.73
488.75	19393.68
488.92	19342.19
489.10	19723.69
489.28	19941.36
489.46	19850.08
489.64	19826.68
489.81	20566.29
489.99	20769.91
490.17	20327.55
490.35	20664.59
490.53	20664.59
490.70	20964.18
490.88	20968.86
491.06	21298.88
491.24	21172.49
491.41	21209.93
491.59	21076.52
491.77	21221.64
491.95	21350.37
492.13	21603.14
492.30	21928.48
492.48	22314.67
492.66	22239.77
492.84	22181.26
493.01	22668.09
493.19	22787.46
493.37	22958.31
493.54	22508.93
493.72	22923.21
493.90	23021.51
494.08	23524.72
494.25	23419.40
494.43	23435.78
494.61	23868.78
494.79	24173.05
494.96	23679.20
495.14	24372.00
495.32	24432.85
495.49	24264.33
495.67	24137.94
495.85	24671.59
496.02	24758.19
496.20	25125.65
496.38	24978.20
496.55	24973.52
496.73	25523.54
496.91	25528.22
497.09	25790.36
497.26	25673.34
497.44	25514.18
497.62	25788.02
497.79	25734.19
497.97	25509.50
498.14	26059.52
498.32	26047.82
498.50	25841.85
498.67	26380.18
498.85	26340.39
499.03	26852.97
499.20	26972.33
499.38	26857.65
499.56	26859.99
499.73	26951.27
499.91	27089.36
500.08	27344.48
500.26	26953.61
500.44	27021.48
500.61	27410.01
500.79	27061.27
500.97	27435.76
501.14	27608.96
501.32	27513.00
501.49	27466.19
501.67	27859.40
501.84	28079.41
502.02	28128.56
502.20	28393.04
502.37	28065.36
502.55	28402.40
502.72	28690.29
502.90	28645.82
503.07	28716.03
503.25	28931.36
503.43	28318.14
503.60	28826.04
503.78	28552.20
503.95	28760.50
504.13	28781.57
504.30	28727.74
504.48	29544.58
504.65	29549.26
504.83	29563.31
505.01	29490.75
505.18	29731.83
505.36	29895.66
505.53	29961.20
505.71	30508.88
505.88	30319.30
506.06	30017.37
506.23	30050.14
506.41	30103.97
506.58	30529.95
506.76	30597.82
506.93	30796.77
507.11	30960.61
507.28	30478.46
507.46	30492.50
507.63	30869.33
507.81	30551.01
507.98	30761.66
508.16	30925.50
508.33	31136.15
508.50	31580.85
508.68	31475.52
508.85	31721.28
509.03	31793.84
509.20	31590.21
509.38	31866.39
509.55	32063.00
509.73	31803.20
509.90	32250.24
510.08	31857.03
510.25	32238.54
510.42	32233.86
510.60	32531.11
510.77	32257.26
510.95	32439.82
511.12	32512.38
511.30	33076.45
511.47	33034.32
511.64	32755.80
511.82	32830.69
511.99	32788.56
512.17	33317.53
512.34	32685.58
512.51	33111.56
512.69	33008.58
512.86	33577.33
513.04	33333.91
513.21	33411.15
513.38	33261.35
513.56	33280.08
513.73	33558.60
513.90	33633.50
514.08	33605.41
514.25	33661.58
514.43	33668.61
514.60	34169.48
514.77	33832.44
514.95	34487.79
515.12	34059.48
515.29	34419.92
515.47	34157.78
515.64	34717.17
515.81	34253.74
515.99	34607.16
516.16	34204.59
516.33	34401.19
516.51	33851.17
516.68	33762.23
516.85	33507.11
517.03	34298.21
517.20	34408.22
517.37	34618.86
517.54	35330.39
517.72	34876.32
517.89	34555.67
518.06	34504.18
518.24	34583.76
518.41	34698.44
518.58	35005.05
518.75	35234.42
518.93	35194.64
519.10	34808.45
519.27	35674.45
519.45	35747.00
519.62	36275.96
519.79	35688.49
519.96	35929.56
520.14	36360.22
520.31	36088.72
520.48	35922.54
520.65	36308.73
520.83	36666.83
521.00	36540.44
521.17	36683.22
521.34	36580.23
521.52	36669.17
521.69	36793.22
521.86	36921.95
522.03	37071.75
522.20	37170.05
522.38	37083.45
522.55	37120.90
522.72	37125.58
522.89	36943.02
523.07	37195.79
523.24	37064.72
523.41	37736.46
523.58	37336.23
523.75	38073.49
523.92	37844.12
524.10	38094.56
524.27	37518.79
524.44	38223.29
524.61	37942.42
524.78	38113.28
524.96	38040.73
525.13	38185.84
525.30	38670.33
525.47	38656.29
525.64	38370.74
525.81	38333.29
525.98	38064.13
526.16	37919.02
526.33	37780.93
526.50	38188.18
526.67	37537.51
526.84	37605.39
527.01	37848.80
527.18	38808.42
527.36	39058.86
527.53	38731.18
527.70	39372.49
527.87	38897.36
528.04	39313.98
528.21	39370.15
528.38	39435.69
528.55	39309.30
528.72	39374.83
528.89	39695.49
529.07	39363.13
529.24	39328.02
529.41	39381.85
529.58	39049.50
529.75	39402.92
529.92	39363.13
530.09	40105.08
530.26	39899.11
530.43	40144.87
530.60	39838.26
530.77	39768.04
530.94	40182.32
531.11	40123.80
531.28	40776.81
531.46	40500.63
531.63	39992.73
531.80	40023.16
531.97	40231.47
532.14	39859.32
532.31	39859.32
532.48	40135.51
532.65	40662.13
532.82	40198.70
532.99	40509.99
533.16	39910.82
533.33	40549.78
533.50	40706.60
533.67	40360.20
533.84	40580.21
534.01	40727.66
534.18	40793.20
534.35	40884.48
534.52	40917.25
534.69	41158.32
534.86	41219.17
535.03	41270.67
535.20	41656.85
535.37	41659.20
535.54	41752.82
535.71	41617.07
535.88	41233.22
536.05	41319.82
536.22	41516.42
536.38	41514.08
536.55	41432.16
536.72	41476.63
536.89	41111.51
537.06	41495.36
537.23	41933.04
537.40	41738.77
537.57	41872.18
537.74	42096.88
537.91	42450.30
538.08	42120.28
538.25	41640.47
538.42	42045.38
538.59	42143.69
538.75	42080.49
538.92	41970.49
539.09	42384.76
539.26	42307.52
539.43	41865.16
539.60	42281.78
539.77	42274.76
539.94	42017.30
540.11	42227.95
540.28	42232.63
540.44	42251.35
540.61	41787.92
540.78	41944.74
540.95	41846.44
541.12	42426.89
541.29	42555.62
541.46	42251.35
541.62	42506.47
541.79	42368.38
541.96	42403.49
542.13	42394.12
542.30	42623.50
542.47	42792.01
542.63	42469.02
542.80	42892.66
542.97	42684.35
543.14	43267.14
543.31	43459.07
543.48	43360.76
543.64	43732.91
543.81	43330.34
543.98	43168.84
544.15	43725.89
544.32	43419.28
544.48	43894.41
544.65	43487.15
544.82	43636.95
544.99	43468.43
545.16	43660.35
545.32	43545.67
545.49	43856.96
545.66	43999.73
545.83	44083.99
546.00	43772.70
546.16	43938.88
546.33	43590.14
546.50	43613.54
546.67	44177.61
546.83	43297.57
547.00	43875.68
547.17	43676.74
547.34	43594.82
547.50	43555.03
547.67	43945.90
547.84	44102.71
548.00	44456.14
548.17	44451.45
548.34	44465.50
548.51	44538.05
548.67	44591.89
548.84	44318.04
549.01	44325.07
549.18	43983.35
549.34	44418.69
549.51	44596.57
549.68	44561.46
549.84	44355.49
550.01	44760.40
550.18	44622.31
550.34	44428.05
550.51	44666.78
550.68	44701.89
550.84	43952.92
551.01	44994.46
551.18	44697.21
551.34	44612.95
551.51	44786.15
551.68	44966.37
551.84	44701.89
552.01	45008.50
552.18	45045.95
552.34	44624.65
552.51	45048.29
552.68	44884.45
552.84	45057.65
553.01	44931.26
553.18	45514.06
553.34	44631.68
553.51	45153.62
553.67	45006.16
553.84	45544.48
554.01	45326.81
554.17	45289.37
554.34	45429.80
554.51	46050.04
554.67	45247.24
554.84	45556.19
555.00	45055.31
555.17	44875.09
555.33	45682.58
555.50	45549.17
555.67	45579.59
555.83	44842.32
556.00	45347.88
556.16	45975.14
556.33	45280.00
556.50	45251.92
556.66	45675.55
556.83	44952.33
556.99	45153.62
557.16	45930.67
557.32	45155.96
557.49	45399.37
557.65	45490.65
557.82	45673.21
557.98	45837.05
558.15	45516.40
558.32	46120.26
558.48	45537.46
558.65	45521.08
558.81	45464.91
558.98	45340.86
559.14	45624.06
559.31	45972.80
559.47	46066.42
559.64	46131.96
559.80	45584.27
559.97	45886.20
560.13	45544.48
560.30	45874.50
560.46	46122.60
560.63	46604.75
560.79	46101.53
560.96	46267.71
561.12	46050.04
561.29	46251.33
561.45	46176.43
561.61	45757.47
561.78	46253.67
561.94	45881.52
562.11	45663.85
562.27	45867.48
562.44	46366.01
562.60	46377.72
562.77	46113.23
562.93	46270.05
563.10	46230.26
563.26	46204.52
563.42	46164.73
563.59	45911.95
563.75	46085.15
563.92	46485.38
564.08	45867.48
564.24	46469.00
564.41	46265.37
564.57	46101.53
564.74	46183.45
564.90	45958.76
565.07	46391.76
565.23	46124.94
565.39	45794.92
565.56	45996.21
565.72	45743.43
565.88	46274.73
566.05	46190.47
566.21	46492.40
566.38	46272.39
566.54	46248.99
566.70	46602.41
566.87	46808.37
567.03	46532.19
567.19	46534.53
567.36	46454.95
567.52	46244.30
567.68	46476.02
567.85	46637.51
568.01	46270.05
568.17	46309.84
568.34	46651.56
568.50	46574.32
568.66	46415.16
568.83	46461.97
568.99	46099.19
569.15	46167.07
569.32	46522.83
569.48	46309.84
569.64	46852.84
569.81	46328.56
569.97	46382.40
570.13	46939.44
570.30	46253.67
570.46	46036.00
570.62	45731.73
570.78	45766.84
570.95	46239.62
571.11	46335.59
571.27	46223.24
571.43	46377.72
571.60	46431.55
571.76	46291.12
571.92	46494.74
572.09	46775.61
572.25	46323.88
572.41	46932.42
572.57	46768.58
572.74	46972.21
572.90	46801.35
573.06	46511.13
573.22	46349.63
573.38	46553.26
573.55	46499.42
573.71	46775.61
573.87	46909.02
574.03	46731.14
574.20	46717.09
574.36	46600.07
574.52	46527.51
574.68	46731.14
574.84	46525.17
575.01	46677.30
575.17	46174.09
575.33	46513.47
575.49	46616.45
575.65	46815.40
575.82	46564.96
575.98	46433.89
576.14	46806.03
576.30	46686.67
576.46	46258.35
576.62	46351.97
576.79	46817.74
576.95	46300.48
577.11	46918.38
577.27	46817.74
577.43	46791.99
577.59	46586.02
577.75	46401.12
577.92	46057.06
578.08	46433.89
578.24	46412.82
578.40	45970.46
578.56	46604.75
578.72	46085.15
578.88	46564.96
579.04	46529.85
579.21	46522.83
579.37	46417.50
579.53	46377.72
579.69	46586.02
579.85	46845.82
580.01	46787.31
580.17	46677.30
580.33	46731.14
580.49	46340.27
580.65	46834.12
580.82	46571.98
580.98	46319.20
581.14	46728.80
581.30	46752.20
581.46	46670.28
581.62	47117.32
581.78	46478.36
581.94	47112.64
582.10	46913.70
582.26	47019.02
582.42	46656.24
582.58	46518.15
582.74	46887.95
582.90	47117.32
583.06	47047.11
583.22	46836.46
583.38	46848.16
583.54	46962.85
583.70	47114.98
583.86	47072.85
584.02	46429.21
584.18	46859.87
584.34	46724.11
584.50	46869.23
584.66	46672.62
584.82	46667.94
584.98	46869.23
585.14	46979.23
585.30	46412.82
585.46	46689.01
585.62	46609.43
585.78	46174.09
585.94	46487.72
586.10	46698.37
586.26	46396.44
586.42	47311.59
586.58	46719.43
586.74	46838.80
586.90	46564.96
587.06	46595.38
587.22	46791.99
587.38	46382.40
587.54	47030.72
587.70	47016.68
587.86	47002.64
588.02	46899.65
588.18	46855.18
588.34	46658.58
588.49	45811.31
588.65	46110.89
588.81	45949.40
588.97	46312.18
589.13	46241.96
589.29	46653.90
589.45	46799.01
589.61	46780.29
589.77	46747.52
589.93	46457.29
