SpectraSuite Data File
++++++++++++++++++++++++++++++++++++
Date: Fri Oct 25 10:44:10 EDT 2013
User: price-jones
Dark Spectrum Present: No
Reference Spectrum Present: No
Number of Sampled Component Spectra: 1
Spectrometers: USB2+H05261
Integration Time (usec): 100000 (USB2+H05261)
Spectra Averaged: 1 (USB2+H05261)
Boxcar Smoothing: 0 (USB2+H05261)
Correct for Electrical Dark: No (USB2+H05261)
Strobe/Lamp Enabled: No (USB2+H05261)
Correct for Detector Non-linearity: No (USB2+H05261)
Correct for Stray Light: No (USB2+H05261)
Number of Pixels in Processed Spectrum: 2048
>>>>>Begin Processed Spectral Data<<<<<
365.73	156.82
365.92	156.82
366.12	156.82
366.32	56.17
366.52	56.17
366.72	37.45
366.91	70.22
367.11	28.09
367.31	0.00
367.51	23.41
367.70	35.11
367.90	60.85
368.10	0.00
368.30	0.00
368.49	0.00
368.69	44.47
368.89	44.47
369.09	91.28
369.28	0.00
369.48	56.17
369.68	58.51
369.87	91.28
370.07	84.26
370.27	177.88
370.47	212.99
370.66	341.72
370.86	463.43
371.06	404.91
371.25	351.08
371.45	383.85
371.65	475.13
371.84	461.09
372.04	390.87
372.24	479.81
372.44	465.77
372.63	517.26
372.83	458.74
373.03	557.05
373.22	547.69
373.42	528.96
373.62	531.30
373.81	596.84
374.01	557.05
374.21	543.00
374.40	491.51
374.60	557.05
374.79	568.75
374.99	575.77
375.19	638.97
375.38	638.97
375.58	676.41
375.78	578.11
375.97	587.47
376.17	718.54
376.37	671.73
376.56	667.05
376.76	678.76
376.95	624.92
377.15	596.84
377.35	631.94
377.54	627.26
377.74	582.79
377.93	580.45
378.13	638.97
378.33	678.76
378.52	690.46
378.72	706.84
378.91	606.20
379.11	657.69
379.31	681.10
379.50	676.41
379.70	664.71
379.89	702.16
380.09	643.65
380.28	711.52
380.48	678.76
380.68	713.86
380.87	702.16
381.07	732.59
381.26	681.10
381.46	753.65
381.65	765.36
381.85	622.58
382.04	723.23
382.24	678.76
382.43	751.31
382.63	755.99
382.83	669.39
383.02	809.83
383.22	725.57
383.41	730.25
383.61	711.52
383.80	746.63
384.00	676.41
384.19	821.53
384.39	744.29
384.58	847.27
384.78	786.42
384.97	847.27
385.17	760.67
385.36	791.10
385.56	835.57
385.75	774.72
385.95	814.51
386.14	868.34
386.34	800.46
386.53	866.00
386.72	777.06
386.92	877.70
387.11	847.27
387.31	910.47
387.50	823.87
387.70	866.00
387.89	856.64
388.09	821.53
388.28	887.06
388.48	868.34
388.67	938.55
388.86	924.51
389.06	983.02
389.25	961.96
389.45	945.58
389.64	994.73
389.84	1039.20
390.03	1046.22
390.22	983.02
390.42	999.41
390.61	961.96
390.81	966.64
391.00	1022.81
391.19	1034.52
391.39	1039.20
391.58	1069.62
391.78	1046.22
391.97	1109.41
392.16	1043.88
392.36	1039.20
392.55	1039.20
392.75	1036.86
392.94	1109.41
393.13	1053.24
393.33	1078.99
393.52	1093.03
393.71	1167.93
393.91	1097.71
394.10	1074.31
394.29	1093.03
394.49	1111.75
394.68	1217.08
394.88	1219.42
395.07	1336.45
395.26	1212.40
395.46	1210.06
395.65	1235.80
395.84	1240.48
396.04	1313.04
396.23	1200.69
396.42	1135.16
396.62	1128.14
396.81	1320.06
397.00	1270.91
397.19	1301.34
397.39	1296.66
397.58	1287.29
397.77	1383.26
397.97	1385.60
398.16	1420.71
398.35	1338.79
398.55	1430.07
398.74	1556.46
398.93	1521.35
399.12	1528.37
399.32	1472.20
399.51	1425.39
399.70	1556.46
399.90	1607.95
400.09	1528.37
400.28	1631.35
400.47	1511.99
400.67	1586.88
400.86	1652.42
401.05	1727.32
401.24	1708.59
401.44	1748.38
401.63	1692.21
401.82	1689.87
402.01	1631.35
402.21	1724.97
402.40	1682.85
402.59	1708.59
402.78	1699.23
402.97	1856.04
403.17	1743.70
403.36	1748.38
403.55	1792.85
403.74	1926.26
403.93	1921.58
404.13	1799.87
404.32	1837.32
404.51	1907.54
404.70	1926.26
404.89	1809.23
405.09	1996.48
405.28	1966.05
405.47	1893.49
405.66	1872.43
405.85	2012.86
406.05	1963.71
406.24	2059.67
406.43	1923.92
406.62	2050.31
406.81	2115.84
407.00	2050.31
407.20	1919.24
407.39	2062.01
407.58	2127.55
407.77	2108.82
407.96	2214.15
408.15	2246.91
408.34	2080.74
408.54	2279.68
408.73	2104.14
408.92	2307.77
409.11	2319.47
409.30	2373.30
409.49	2307.77
409.68	2279.68
409.87	2272.66
410.07	2324.15
410.26	2387.35
410.45	2387.35
410.64	2457.56
410.83	2443.52
411.02	2445.86
411.21	2464.58
411.40	2569.91
411.59	2729.06
411.78	2546.50
411.98	2480.97
412.17	2649.49
412.36	2572.25
412.55	2736.09
412.74	2726.72
412.93	2766.51
413.12	2775.88
413.31	2888.22
413.50	2806.30
413.69	2822.69
413.88	2792.26
414.07	2920.99
414.26	2928.01
414.45	2923.33
414.64	2892.90
414.83	2993.55
415.02	3073.12
415.22	2974.82
415.41	3089.51
415.60	3047.38
415.79	3159.72
415.98	3239.30
416.17	3265.05
416.36	3304.84
416.55	3384.41
416.74	3204.19
416.93	3272.07
417.12	3183.13
417.31	3262.71
417.50	3328.24
417.69	3302.50
417.88	3318.88
418.07	3389.10
418.26	3496.76
418.45	3576.34
418.64	3620.81
418.83	3557.61
419.02	3499.10
419.21	3445.27
419.39	3578.68
419.58	3641.87
419.77	3527.19
419.96	3639.53
420.15	3588.04
420.34	3672.30
420.53	3775.28
420.72	3801.03
420.91	3803.37
421.10	3901.67
421.29	3840.82
421.48	3784.65
421.67	3847.84
421.86	3864.22
422.05	3873.59
422.24	3744.86
422.43	3742.52
422.61	3775.28
422.80	3976.57
422.99	3873.59
423.18	3908.69
423.37	3875.93
423.56	3925.08
423.75	3817.41
423.94	3779.97
424.13	3719.11
424.32	3845.50
424.50	4042.11
424.69	3878.27
424.88	3929.76
425.07	3894.65
425.26	3758.90
425.45	3854.86
425.64	3899.33
425.83	3978.91
426.01	3985.93
426.20	4030.40
426.39	4039.76
426.58	3878.27
426.77	3873.59
426.96	3892.31
427.15	3815.07
427.33	4002.32
427.52	3992.95
427.71	4063.17
427.90	4184.88
428.09	4156.79
428.28	4231.69
428.46	4105.30
428.65	4187.22
428.84	4170.83
429.03	4313.61
429.22	4126.36
429.40	4093.60
429.59	4194.24
429.78	4039.76
429.97	3899.33
430.16	4037.42
430.34	4032.74
430.53	4133.39
430.72	4196.58
430.91	4060.83
431.10	4280.84
431.28	4388.50
431.47	4510.21
431.66	4601.49
431.85	4601.49
432.03	4580.43
432.22	4592.13
432.41	4603.83
432.60	4627.24
432.79	4655.33
432.97	4624.90
433.16	4718.52
433.35	4575.75
433.54	4739.58
433.72	4667.03
433.91	4664.69
434.10	4688.09
434.28	4683.41
434.47	4765.33
434.66	4816.82
434.85	4985.34
435.03	5025.13
435.22	4905.76
435.41	5102.37
435.59	5055.56
435.78	5090.67
435.97	5242.80
436.16	5097.69
436.34	5231.10
436.53	5207.69
436.72	5163.22
436.90	5029.81
437.09	5067.26
437.28	5095.35
437.46	5313.02
437.65	5198.33
437.84	5156.20
438.02	5057.90
438.21	5313.02
438.40	5081.30
438.58	5373.87
438.77	5439.40
438.96	5682.82
439.14	5556.43
439.33	5533.03
439.52	5509.62
439.70	5537.71
439.89	5703.89
440.08	5666.44
440.26	5731.97
440.45	5668.78
440.63	5888.79
440.82	5884.11
441.01	5919.21
441.19	5891.13
441.38	5921.56
441.57	6033.90
441.75	6125.18
441.94	6312.42
442.12	6160.29
442.31	6368.60
442.50	6277.32
442.68	6246.89
442.87	6169.65
443.05	6169.65
443.24	6452.86
443.43	6452.86
443.61	6349.87
443.80	6401.37
443.98	6239.87
444.17	6202.42
444.35	6670.53
444.54	6696.27
444.73	6595.63
444.91	6462.22
445.10	6349.87
445.28	6312.42
445.47	6476.26
445.65	6408.39
445.84	6499.67
446.02	6588.61
446.21	6743.08
446.39	6523.07
446.58	6546.48
446.77	6469.24
446.95	6523.07
447.14	6623.72
447.32	6616.69
447.51	6689.25
447.69	6595.63
447.88	6555.84
448.06	6637.76
448.25	6796.92
448.43	6654.14
448.62	6787.55
448.80	6588.61
448.99	6668.19
449.17	6768.83
449.36	6722.02
449.54	6984.16
449.73	7096.50
449.91	6958.41
450.10	7082.46
450.28	7250.98
450.46	7136.29
450.65	7126.93
450.83	7047.35
451.02	7012.24
451.20	7339.92
451.39	7143.32
451.57	7183.10
451.76	7187.79
451.94	7091.82
452.13	7227.57
452.31	7194.81
452.49	7122.25
452.68	7288.43
452.86	7140.97
453.05	7300.13
453.23	7307.15
453.42	7311.83
453.60	7274.38
453.78	7358.64
453.97	7073.10
454.15	7332.90
454.34	7272.04
454.52	7578.65
454.70	7520.14
454.89	7419.50
455.07	7478.01
455.26	7492.05
455.44	7627.81
455.62	7592.70
455.81	7796.32
455.99	7911.01
456.17	7913.35
456.36	7906.33
456.54	7857.18
456.73	8032.72
456.91	8205.92
457.09	8114.64
457.28	8313.58
457.46	8088.89
457.64	8077.19
457.83	8116.98
458.01	8021.02
458.19	8180.17
458.38	8044.42
458.56	8135.70
458.74	8234.00
458.93	8177.83
459.11	8093.57
459.29	8346.35
459.48	8262.09
459.66	8299.54
459.84	8351.03
460.03	8507.85
460.21	8229.32
460.39	8362.73
460.57	8336.99
460.76	8589.77
460.94	8697.43
461.12	8493.80
461.31	8737.22
461.49	8533.59
461.67	8610.83
461.85	8784.03
462.04	8713.81
462.22	8856.59
462.40	8978.30
462.59	8737.22
462.77	8865.95
462.95	8933.82
463.13	9118.73
463.32	8917.44
463.50	8945.53
463.68	8854.25
463.86	8830.84
464.05	8755.94
464.23	8805.10
464.41	9050.85
464.59	9057.87
464.78	9186.60
464.96	9067.24
465.14	8952.55
465.32	9048.51
465.50	9329.38
465.69	9322.35
465.87	9151.49
466.05	8975.95
466.23	9165.54
466.41	9174.90
466.60	9310.65
466.78	9298.95
466.96	9235.75
467.14	9249.80
467.32	9331.72
467.51	9521.30
467.69	9060.21
467.87	9345.76
468.05	9647.69
468.23	9500.23
468.41	9451.08
468.60	9380.87
468.78	9586.83
468.96	9495.55
469.14	9423.00
469.32	9806.84
469.50	9455.76
469.69	9692.16
469.87	9577.47
470.05	9631.30
470.23	9874.72
470.41	9788.12
470.59	10068.98
470.77	9827.91
470.95	10097.07
471.14	10235.16
471.32	9914.51
471.50	10352.19
471.68	10296.02
471.86	10209.42
472.04	10361.55
472.22	10445.81
472.40	10153.24
472.58	10452.83
472.77	10544.11
472.95	10693.91
473.13	10757.10
473.31	10494.96
473.49	10516.03
473.67	10869.45
473.85	10469.22
474.03	10925.62
474.21	10981.79
474.39	11084.78
474.57	11026.26
474.75	11052.01
474.93	11276.70
475.12	10832.00
475.30	11044.99
475.48	11126.91
475.66	11152.65
475.84	11470.97
476.02	11485.01
476.20	11044.99
476.38	11475.65
476.56	11880.56
476.74	11824.39
476.92	11779.92
477.10	11765.87
477.28	12039.72
477.46	11978.86
477.64	11967.16
477.82	12425.90
478.00	12659.96
478.18	12592.08
478.36	12341.64
478.54	12533.57
478.72	12823.80
478.90	12863.58
479.08	13055.51
479.26	13202.96
479.44	12807.41
479.62	13312.97
479.80	13287.22
479.98	13474.46
480.16	13420.63
480.34	13575.11
480.52	13797.46
480.70	13776.39
480.88	13479.15
481.06	13963.64
481.24	13991.72
481.41	14178.97
481.59	14389.61
481.77	14209.39
481.95	14569.83
482.13	14398.98
482.31	14457.49
482.49	14876.44
482.67	14794.53
482.85	14946.66
483.03	15183.06
483.21	15241.57
483.39	15199.44
483.57	15295.40
483.74	15669.89
483.92	15557.54
484.10	15316.47
484.28	15824.36
484.46	16051.39
484.64	16166.08
484.82	15864.15
485.00	16287.79
485.18	16248.00
485.35	16327.58
485.53	15988.20
485.71	16135.65
485.89	16383.75
486.07	16159.06
486.25	16755.90
486.43	16966.54
486.61	16758.24
486.78	17055.48
486.96	17359.75
487.14	17701.47
487.32	17638.28
487.50	17586.79
487.68	17921.48
487.85	18197.67
488.03	18134.47
488.21	18291.29
488.39	18483.21
488.57	18586.19
488.75	18750.03
488.92	19094.09
489.10	19452.19
489.28	19049.62
489.46	19548.15
489.64	19491.98
489.81	20018.60
489.99	20255.00
490.17	20039.67
490.35	20559.27
490.53	20182.44
490.70	20498.41
490.88	20496.07
491.06	21048.44
491.24	20627.14
491.41	20524.16
491.59	20748.85
491.77	20716.08
491.95	21013.33
492.13	21085.89
492.30	21315.26
492.48	21766.98
492.66	21649.96
492.84	21654.64
493.01	22064.23
493.19	21881.67
493.37	22419.99
493.54	21949.54
493.72	22445.74
493.90	22560.42
494.08	22881.08
494.25	22693.83
494.43	23222.80
494.61	23073.00
494.79	23836.02
494.96	23496.64
495.14	23239.18
495.32	23695.58
495.49	23758.78
495.67	23777.50
495.85	23833.68
496.02	24374.34
496.20	24219.86
496.38	23868.78
496.55	24322.85
496.73	24821.38
496.91	24868.19
497.09	25139.69
497.26	24971.18
497.44	24783.93
497.62	25025.01
497.79	25284.81
497.97	25174.80
498.14	25600.78
498.32	25998.67
498.50	25249.70
498.67	26001.01
498.85	26174.21
499.03	26349.75
499.20	25820.79
499.38	26366.13
499.56	26103.99
499.73	26375.50
499.91	26377.84
500.08	26595.51
500.26	26307.62
500.44	26614.23
500.61	26682.11
500.79	26724.24
500.97	27002.76
501.14	27152.55
501.32	26977.01
501.49	27328.10
501.67	27323.41
501.84	27459.16
502.02	27733.01
502.20	27548.11
502.37	27866.42
502.55	27536.40
502.72	27859.40
502.90	28285.37
503.07	27747.05
503.25	28168.35
503.43	27641.73
503.60	28154.30
503.78	27927.27
503.95	28102.81
504.13	28360.27
504.30	28582.62
504.48	28500.70
504.65	28989.88
504.83	28992.22
505.01	28861.15
505.18	29256.70
505.36	29158.39
505.53	29233.29
505.71	29708.42
505.88	29558.63
506.06	29312.87
506.23	29776.30
506.41	29617.14
506.58	30043.12
506.76	29706.08
506.93	29905.02
507.11	29701.40
507.28	30113.33
507.46	29759.91
507.63	30082.91
507.81	30253.76
507.98	30092.27
508.16	30188.23
508.33	30522.93
508.50	30703.15
508.68	30806.13
508.85	30918.48
509.03	30642.29
509.20	30876.35
509.38	30705.49
509.55	31009.76
509.73	31138.49
509.90	31241.47
510.08	31288.28
510.25	31091.68
510.42	31723.62
510.60	31395.95
510.77	31644.04
510.95	31852.35
511.12	31852.35
511.30	32023.21
511.47	32479.61
511.64	32421.10
511.82	32470.25
511.99	32046.62
512.17	32280.67
512.34	32428.12
512.51	32491.32
512.69	32577.92
512.86	32652.81
513.04	32989.85
513.21	32844.74
513.38	32617.71
513.56	32680.90
513.73	32828.35
513.90	33010.92
514.08	33031.98
514.25	32884.53
514.43	33263.69
514.60	33113.90
514.77	32727.71
514.95	33799.68
515.12	33572.64
515.29	33546.90
515.47	33844.15
515.64	33940.11
515.81	33841.81
515.99	34036.07
516.16	33647.54
516.33	33612.43
516.51	33523.49
516.68	33298.80
516.85	33591.37
517.03	33830.10
517.20	33848.83
517.37	34316.93
517.54	34459.71
517.72	34333.32
517.89	33699.03
518.06	34153.10
518.24	33867.55
518.41	34164.80
518.58	34384.81
518.75	34281.83
518.93	34616.52
519.10	34522.90
519.27	35108.04
519.45	34808.45
519.62	35304.64
519.79	34890.37
519.96	35545.72
520.14	35667.42
520.31	35370.18
520.48	35456.78
520.65	35438.05
520.83	35901.48
521.00	35814.88
521.17	35763.39
521.34	35849.99
521.52	35854.67
521.69	35906.16
521.86	36402.35
522.03	36212.77
522.20	36236.17
522.38	36271.28
522.55	36828.33
522.72	36037.23
522.89	36367.24
523.07	36767.48
523.24	36741.73
523.41	36870.46
523.58	36350.86
523.75	36697.26
523.92	36980.46
524.10	37048.34
524.27	37507.08
524.44	37516.45
524.61	37017.91
524.78	37619.43
524.96	37312.82
525.13	37329.20
525.30	37778.59
525.47	37801.99
525.64	37783.27
525.81	38050.09
525.98	37516.45
526.16	37490.70
526.33	37490.70
526.50	37741.14
526.67	36947.70
526.84	37188.77
527.01	36996.85
527.18	38059.45
527.36	38078.18
527.53	38132.01
527.70	38689.06
527.87	38543.94
528.04	38337.98
528.21	38176.48
528.38	38469.04
528.55	38658.63
528.72	38703.10
528.89	39136.10
529.07	38548.62
529.24	39002.69
529.41	38726.50
529.58	38714.80
529.75	38637.56
529.92	39274.19
530.09	38972.26
530.26	39438.03
530.43	39246.10
530.60	39264.83
530.77	38906.73
530.94	39407.60
531.11	39133.76
531.28	39349.09
531.46	39459.09
531.63	39543.35
531.80	39487.18
531.97	39103.33
532.14	39313.98
532.31	38740.55
532.48	39253.12
532.65	39583.14
532.82	39136.10
532.99	40002.10
533.16	39529.31
533.33	39868.69
533.50	40528.72
533.67	40154.23
533.84	39552.71
534.01	40067.63
534.18	39697.83
534.35	40381.26
534.52	40528.72
534.69	40313.39
534.86	40325.09
535.03	40474.88
535.20	40800.22
535.37	40828.30
535.54	40994.48
535.71	40612.98
535.88	40519.35
536.05	40554.46
536.22	41022.57
536.38	40809.58
536.55	40421.05
536.72	40699.58
536.89	40339.13
537.06	41057.68
537.23	40999.16
537.40	40985.12
537.57	41057.68
537.74	41244.92
537.91	41289.39
538.08	41240.24
538.25	41413.44
538.42	41273.01
538.59	41612.38
538.75	41237.90
538.92	41125.55
539.09	41392.37
539.26	41244.92
539.43	41481.31
539.60	41329.18
539.77	41141.94
539.94	41706.01
540.11	41357.27
540.28	41287.05
540.44	41956.44
540.61	41574.94
540.78	41624.09
540.95	41118.53
541.12	41750.48
541.29	41471.95
541.46	41942.40
541.62	41855.80
541.79	42237.31
541.96	41923.68
542.13	41865.16
542.30	41773.88
542.47	41963.46
542.63	41841.76
542.80	42380.08
542.97	42703.07
543.14	42754.57
543.31	42752.23
543.48	42380.08
543.64	43115.01
543.81	42607.11
543.98	43002.66
544.15	42909.04
544.32	43379.49
544.48	43213.31
544.65	42990.96
544.82	42780.31
544.99	42756.91
545.16	43257.78
545.32	42820.10
545.49	43407.58
545.66	43428.64
545.83	43494.18
546.00	43030.75
546.16	43232.04
546.33	42731.16
546.50	43086.92
546.67	43290.55
546.83	42944.15
547.00	43164.16
547.17	43185.22
547.34	43044.79
547.50	43456.73
547.67	43243.74
547.84	43311.61
548.00	43819.51
548.17	43536.30
548.34	43512.90
548.51	43643.97
548.67	43618.22
548.84	43564.39
549.01	43381.83
549.18	43746.95
549.34	43632.27
549.51	43908.45
549.68	43803.13
549.84	44020.80
550.01	43959.94
550.18	43728.23
550.34	44116.76
550.51	43606.52
550.68	43742.27
550.84	43639.29
551.01	44016.11
551.18	43807.81
551.34	43772.70
551.51	44023.14
551.68	44594.23
551.84	43973.98
552.01	44233.78
552.18	44374.22
552.34	44282.94
552.51	44463.16
552.68	44414.01
552.84	44435.07
553.01	44882.11
553.18	44877.43
553.34	44336.77
553.51	44285.28
553.67	44392.94
553.84	44493.58
554.01	44657.42
554.17	44769.77
554.34	44741.68
554.51	44399.96
554.67	45008.50
554.84	44959.35
555.00	44807.22
555.17	44973.39
555.33	45048.29
555.50	44636.36
555.67	44556.78
555.83	44767.43
556.00	44619.97
556.16	45390.01
556.33	44725.30
556.50	45031.91
556.66	44865.73
556.83	44816.58
556.99	45031.91
557.16	44971.05
557.32	45022.54
557.49	44961.69
557.65	44690.19
557.82	45172.34
557.98	45607.68
558.15	44978.07
558.32	45476.61
558.48	44912.54
558.65	45109.14
558.81	45085.74
558.98	44809.56
559.14	45057.65
559.31	44807.22
559.47	45591.30
559.64	45441.50
559.80	45193.40
559.97	45394.69
560.13	44837.64
560.30	45525.76
560.46	45076.38
560.63	45488.31
560.79	45378.31
560.96	46146.00
561.12	45485.97
561.29	45392.35
561.45	45553.85
561.61	45535.12
561.78	44964.03
561.94	45301.07
562.11	45603.00
562.27	45333.84
562.44	45560.87
562.60	45684.92
562.77	45492.99
562.93	45397.03
563.10	45722.37
563.26	45359.58
563.42	45399.37
563.59	45153.62
563.75	45633.42
563.92	45656.83
564.08	45368.94
564.24	46176.43
564.41	45921.31
564.57	45759.81
564.74	45549.17
564.90	45638.11
565.07	45780.88
565.23	45951.74
565.39	45713.00
565.56	45715.34
565.72	45579.59
565.88	46075.79
566.05	45038.93
566.21	46019.61
566.38	45537.46
566.54	46007.91
566.70	46164.73
566.87	46361.33
567.03	46064.08
567.19	45996.21
567.36	46059.40
567.52	45666.19
567.68	46237.28
567.85	45663.85
568.01	45691.94
568.17	46040.68
568.34	45703.64
568.50	46216.22
568.66	45708.32
568.83	46054.72
568.99	45542.14
569.15	45420.44
569.32	45476.61
569.48	45806.62
569.64	46157.70
569.81	46021.95
569.97	45682.58
570.13	46038.34
570.30	45436.82
570.46	45720.02
570.62	45450.86
570.78	45603.00
570.95	45347.88
571.11	46162.39
571.27	45570.23
571.43	45972.80
571.60	46054.72
571.76	45790.24
571.92	46061.74
572.09	45991.53
572.25	45720.02
572.41	45888.54
572.57	46017.27
572.74	46401.12
572.90	46532.19
573.06	46309.84
573.22	46108.55
573.38	46087.49
573.55	45869.82
573.71	46089.83
573.87	46265.37
574.03	45841.73
574.20	46052.38
574.36	46185.79
574.52	46230.26
574.68	46031.32
574.84	46213.88
575.01	46183.45
575.17	45773.86
575.33	46115.58
575.49	45989.19
575.65	46305.16
575.82	46265.37
575.98	45951.74
576.14	46237.28
576.30	46457.29
576.46	46113.23
576.62	45727.05
576.79	46031.32
576.95	45804.28
577.11	46064.08
577.27	46078.13
577.43	46131.96
577.59	45801.94
577.75	45907.27
577.92	45511.72
578.08	45668.53
578.24	45785.56
578.40	45918.97
578.56	46197.49
578.72	46007.91
578.88	46302.82
579.04	46295.80
579.21	46349.63
579.37	46555.60
579.53	46260.69
579.69	46206.86
579.85	46169.41
580.01	46040.68
580.17	45855.78
580.33	45874.50
580.49	46286.43
580.65	46103.87
580.82	46305.16
580.98	46246.65
581.14	46003.23
581.30	46501.76
581.46	46443.25
581.62	46012.59
581.78	46043.02
581.94	46232.60
582.10	46021.95
582.26	46436.23
582.42	46073.45
582.58	46225.58
582.74	46218.56
582.90	46387.08
583.06	46600.07
583.22	46237.28
583.38	46674.96
583.54	46459.63
583.70	46349.63
583.86	46564.96
584.02	46337.93
584.18	46700.71
584.34	46101.53
584.50	46440.91
584.66	46361.33
584.82	46075.79
584.98	46466.66
585.14	46328.56
585.30	46148.34
585.46	46326.22
585.62	46141.32
585.78	46234.94
585.94	46043.02
586.10	46267.71
586.26	46258.35
586.42	46506.44
586.58	46438.57
586.74	46426.87
586.90	46075.79
587.06	45865.14
587.22	46258.35
587.38	45949.40
587.54	46101.53
587.70	46106.21
587.86	46454.95
588.02	46373.03
588.18	46543.89
588.34	45940.04
588.49	45528.10
588.65	45399.37
588.81	46036.00
588.97	45813.65
589.13	46171.75
589.29	46241.96
589.45	45825.35
589.61	46188.13
589.77	46431.55
589.93	46305.16
