SpectraSuite Data File
++++++++++++++++++++++++++++++++++++
Date: Fri Oct 25 10:47:23 EDT 2013
User: price-jones
Dark Spectrum Present: No
Reference Spectrum Present: No
Number of Sampled Component Spectra: 1
Spectrometers: USB2+H05261
Integration Time (usec): 100000 (USB2+H05261)
Spectra Averaged: 1 (USB2+H05261)
Boxcar Smoothing: 0 (USB2+H05261)
Correct for Electrical Dark: No (USB2+H05261)
Strobe/Lamp Enabled: No (USB2+H05261)
Correct for Detector Non-linearity: No (USB2+H05261)
Correct for Stray Light: No (USB2+H05261)
Number of Pixels in Processed Spectrum: 2048
>>>>>Begin Processed Spectral Data<<<<<
365.73	161.50
365.92	161.50
366.12	161.50
366.32	46.81
366.52	25.75
366.72	46.81
366.91	32.77
367.11	16.38
367.31	88.94
367.51	46.81
367.70	4.68
367.90	121.71
368.10	28.09
368.30	9.36
368.49	25.75
368.69	0.00
368.89	60.85
369.09	16.38
369.28	86.60
369.48	37.45
369.68	42.13
369.87	46.81
370.07	166.18
370.27	138.09
370.47	184.90
370.66	353.42
370.86	409.59
371.06	400.23
371.25	547.69
371.45	442.36
371.65	472.79
371.84	407.25
372.04	454.06
372.24	454.06
372.44	528.96
372.63	557.05
372.83	526.62
373.03	435.34
373.22	528.96
373.42	507.90
373.62	514.92
373.81	507.90
374.01	524.28
374.21	517.26
374.40	519.60
374.60	641.31
374.79	566.41
374.99	557.05
375.19	587.47
375.38	519.60
375.58	489.17
375.78	493.85
375.97	599.18
376.17	645.99
376.37	552.37
376.56	571.09
376.76	601.52
376.95	559.39
377.15	538.32
377.35	622.58
377.54	645.99
377.74	624.92
377.93	641.31
378.13	648.33
378.33	664.71
378.52	622.58
378.72	678.76
378.91	589.82
379.11	648.33
379.31	671.73
379.50	592.16
379.70	648.33
379.89	617.90
380.09	624.92
380.28	716.20
380.48	718.54
380.68	653.01
380.87	582.79
381.07	676.41
381.26	669.39
381.46	713.86
381.65	690.46
381.85	629.60
382.04	760.67
382.24	650.67
382.43	676.41
382.63	695.14
382.83	641.31
383.02	709.18
383.22	648.33
383.41	732.59
383.61	699.82
383.80	716.20
384.00	655.35
384.19	732.59
384.39	725.57
384.58	739.61
384.78	795.78
384.97	713.86
385.17	716.20
385.36	807.48
385.56	739.61
385.75	753.65
385.95	802.80
386.14	798.12
386.34	772.38
386.53	767.70
386.72	826.21
386.92	823.87
387.11	863.66
387.31	802.80
387.50	772.38
387.70	809.83
387.89	847.27
388.09	863.66
388.28	863.66
388.48	835.57
388.67	830.89
388.86	943.24
389.06	882.38
389.25	903.45
389.45	964.30
389.64	887.06
389.84	894.08
390.03	968.98
390.22	877.70
390.42	987.71
390.61	828.55
390.81	968.98
391.00	976.00
391.19	1036.86
391.39	917.49
391.58	992.39
391.78	908.13
391.97	983.02
392.16	947.92
392.36	926.85
392.55	931.53
392.75	924.51
392.94	1006.43
393.13	917.49
393.33	1034.52
393.52	1013.45
393.71	1064.94
393.91	1057.92
394.10	1001.75
394.29	1036.86
394.49	1123.46
394.68	1069.62
394.88	1142.18
395.07	1095.37
395.26	1015.79
395.46	1078.99
395.65	1193.67
395.84	1104.73
396.04	1212.40
396.23	1142.18
396.42	1118.78
396.62	1116.44
396.81	1146.86
397.00	1160.91
397.19	1219.42
397.39	1156.22
397.58	1198.35
397.77	1240.48
397.97	1282.61
398.16	1315.38
398.35	1416.02
398.55	1306.02
398.74	1310.70
398.93	1362.19
399.12	1317.72
399.32	1430.07
399.51	1392.62
399.70	1399.64
399.90	1401.98
400.09	1441.77
400.28	1394.96
400.47	1437.09
400.67	1425.39
400.86	1446.45
401.05	1474.54
401.24	1460.49
401.44	1607.95
401.63	1490.92
401.82	1556.46
402.01	1586.88
402.21	1486.24
402.40	1577.52
402.59	1495.60
402.78	1621.99
402.97	1481.56
403.17	1621.99
403.36	1612.63
403.55	1626.67
403.74	1673.48
403.93	1610.29
404.13	1654.76
404.32	1652.42
404.51	1703.91
404.70	1706.25
404.89	1633.69
405.09	1724.97
405.28	1724.97
405.47	1832.64
405.66	1668.80
405.85	1832.64
406.05	1856.04
406.24	1825.62
406.43	1846.68
406.62	1898.17
406.81	1781.15
407.00	1790.51
407.20	1952.01
407.39	1888.81
407.58	1954.35
407.77	2047.97
407.96	2005.84
408.15	2008.18
408.34	1968.39
408.54	2022.22
408.73	1977.75
408.92	2005.84
409.11	2019.88
409.30	2104.14
409.49	2085.42
409.68	2038.61
409.87	1996.48
410.07	2080.74
410.26	2153.29
410.45	2122.87
410.64	2139.25
410.83	2186.06
411.02	2176.70
411.21	2406.07
411.40	2157.97
411.59	2275.00
411.78	2291.38
411.98	2303.09
412.17	2551.18
412.36	2410.75
412.55	2506.71
412.74	2408.41
412.93	2443.52
413.12	2375.64
413.31	2551.18
413.50	2497.35
413.69	2569.91
413.88	2602.68
414.07	2546.50
414.26	2572.25
414.45	2621.40
414.64	2616.72
414.83	2700.98
415.02	2633.10
415.22	2789.92
415.41	2803.96
415.60	2766.51
415.79	2803.96
415.98	2920.99
416.17	2825.03
416.36	2892.90
416.55	2860.13
416.74	3021.63
416.93	2977.16
417.12	2867.16
417.31	2988.86
417.50	2930.35
417.69	3075.46
417.88	3176.11
418.07	3117.59
418.26	3040.36
418.45	3082.49
418.64	3190.15
418.83	3180.79
419.02	3206.53
419.21	3386.76
419.39	3255.69
419.58	3199.51
419.77	3171.43
419.96	3234.62
420.15	3361.01
420.34	3288.45
420.53	3372.71
420.72	3447.61
420.91	3335.26
421.10	3386.76
421.29	3449.95
421.48	3407.82
421.67	3616.13
421.86	3379.73
422.05	3449.95
422.24	3492.08
422.43	3452.29
422.61	3475.70
422.80	3543.57
422.99	3604.42
423.18	3534.21
423.37	3627.83
423.56	3506.12
423.75	3419.52
423.94	3480.38
424.13	3293.13
424.32	3400.80
424.50	3552.93
424.69	3508.46
424.88	3674.64
425.07	3562.30
425.26	3403.14
425.45	3492.08
425.64	3592.72
425.83	3592.72
426.01	3770.60
426.20	3712.09
426.39	3534.21
426.58	3609.11
426.77	3688.68
426.96	3616.13
427.15	3620.81
427.33	3655.92
427.52	3712.09
427.71	3847.84
427.90	3655.92
428.09	3693.37
428.28	3653.58
428.46	3609.11
428.65	3716.77
428.84	3812.73
429.03	3957.85
429.22	3836.14
429.40	3761.24
429.59	3782.31
429.78	3655.92
429.97	3620.81
430.16	3712.09
430.34	3859.54
430.53	3861.88
430.72	4053.81
430.91	3794.01
431.10	3948.48
431.28	4046.79
431.47	4135.73
431.66	4196.58
431.85	4037.42
432.03	4095.94
432.22	4297.22
432.41	4299.56
432.60	4198.92
432.79	4325.31
432.97	4292.54
433.16	4280.84
433.35	4248.07
433.54	4257.43
433.72	4252.75
433.91	4386.16
434.10	4381.48
434.28	4297.22
434.47	4355.74
434.66	4390.84
434.85	4517.23
435.03	4514.89
435.22	4390.84
435.41	4418.93
435.59	4528.94
435.78	4575.75
435.97	4615.54
436.16	4812.14
436.34	4610.86
436.53	4648.30
436.72	4655.33
436.90	4606.17
437.09	4753.63
437.28	4690.43
437.46	4681.07
437.65	4692.77
437.84	4620.22
438.02	4690.43
438.21	4758.31
438.40	4683.41
438.58	4950.23
438.77	5085.98
438.96	4943.21
439.14	5043.85
439.33	5029.81
439.52	5139.82
439.70	5172.58
439.89	5205.35
440.08	5184.29
440.26	5034.49
440.45	5069.60
440.63	5315.36
440.82	5247.48
441.01	5268.55
441.19	5240.46
441.38	5584.52
441.57	5549.41
441.75	5533.03
441.94	5652.39
442.12	5518.98
442.31	5561.11
442.50	5750.70
442.68	5638.35
442.87	5636.01
443.05	5636.01
443.24	5973.05
443.43	5631.33
443.61	5846.66
443.80	5984.75
443.98	5760.06
444.17	5659.42
444.35	5706.23
444.54	5942.62
444.73	5867.72
444.91	5907.51
445.10	5905.17
445.28	5898.15
445.47	5872.40
445.65	5865.38
445.84	5856.02
446.02	6258.59
446.21	5881.77
446.39	5881.77
446.58	5905.17
446.77	5930.92
446.95	5818.57
447.14	5982.41
447.32	6071.35
447.51	6132.20
447.69	6094.76
447.88	6045.60
448.06	6080.71
448.25	5973.05
448.43	5989.43
448.62	6054.97
448.80	6181.35
448.99	6211.78
449.17	6186.04
449.36	6202.42
449.54	6333.49
449.73	6368.60
449.91	6396.68
450.10	6537.12
450.28	6569.88
450.46	6438.81
450.65	6420.09
450.83	6490.31
451.02	6218.80
451.20	6389.66
451.39	6562.86
451.57	6607.33
451.76	6274.98
451.94	6590.95
452.13	6539.46
452.31	6604.99
452.49	6408.39
452.68	6408.39
452.86	6590.95
453.05	6658.82
453.23	6635.42
453.42	6642.44
453.60	6675.21
453.78	6789.89
453.97	6642.44
454.15	6560.52
454.34	6663.51
454.52	6808.62
454.70	6909.26
454.89	6698.61
455.07	6759.47
455.26	7063.74
455.44	7094.16
455.62	6832.02
455.81	6869.47
455.99	7110.55
456.17	7063.74
456.36	7016.93
456.54	7070.76
456.73	7297.79
456.91	7379.71
457.09	7316.51
457.28	7527.16
457.46	7215.87
457.64	7332.90
457.83	7304.81
458.01	7314.17
458.19	7503.76
458.38	7517.80
458.56	7269.70
458.74	7595.04
458.93	7400.77
459.11	7377.37
459.29	7475.67
459.48	7566.95
459.66	7524.82
459.84	7655.89
460.03	7791.64
460.21	7545.89
460.39	7641.85
460.57	7700.36
460.76	7845.48
460.94	7765.90
461.12	7831.43
461.31	7861.86
461.49	8004.63
461.67	7964.84
461.85	8269.11
462.04	7896.97
462.22	8500.83
462.40	8039.74
462.59	7911.01
462.77	8086.55
462.95	8077.19
463.13	7943.78
463.32	8224.64
463.50	8091.23
463.68	8168.47
463.86	8191.88
464.05	8147.40
464.23	8079.53
464.41	8287.84
464.59	8224.64
464.78	8332.31
464.96	8390.82
465.14	8407.20
465.32	8383.80
465.50	8369.76
465.69	8430.61
465.87	8313.58
466.05	8416.57
466.23	8292.52
466.41	8425.93
466.60	8566.36
466.78	8407.20
466.96	8475.08
467.14	8493.80
467.32	8498.49
467.51	8683.39
467.69	8470.40
467.87	8727.86
468.05	8994.68
468.23	8702.11
468.41	8554.66
468.60	8596.79
468.78	8924.46
468.96	8652.96
469.14	8858.93
469.32	8994.68
469.50	8681.05
469.69	8779.35
469.87	8964.25
470.05	9071.92
470.23	8903.40
470.41	9092.98
470.59	9177.24
470.77	9064.89
470.95	9186.60
471.14	9263.84
471.32	8990.00
471.50	9444.06
471.68	9378.53
471.86	9568.11
472.04	9273.20
472.22	9619.60
472.40	9163.20
472.58	9504.92
472.77	9607.90
472.95	9483.85
473.13	10017.49
473.31	9722.59
473.49	9460.45
473.67	9727.27
473.85	9750.67
474.03	9937.91
474.21	9858.34
474.39	9996.43
474.57	10003.45
474.75	10090.05
474.93	10377.94
475.12	10244.52
475.30	10167.29
475.48	10380.28
475.66	10342.83
475.84	10399.00
476.02	10413.04
476.20	10560.50
476.38	10679.86
476.56	10897.53
476.74	10836.68
476.92	10586.24
477.10	10853.06
477.28	10951.37
477.46	11047.33
477.64	11337.56
477.82	11300.11
478.00	11393.73
478.18	11459.26
478.36	11363.30
478.54	11655.87
478.72	11639.48
478.90	11758.85
479.08	11920.35
479.26	11929.71
479.44	12161.42
479.62	11850.13
479.80	12177.81
479.98	12245.68
480.16	12540.59
480.34	12393.14
480.52	12727.83
480.70	12453.99
480.88	12432.93
481.06	12592.08
481.24	12545.27
481.41	12950.18
481.59	13116.36
481.77	13289.56
481.95	13242.75
482.13	13191.26
482.31	13298.92
482.49	13572.77
482.67	13689.79
482.85	13951.93
483.03	13893.42
483.21	14073.64
483.39	14071.30
483.57	14111.09
483.74	14384.93
483.92	14324.08
484.10	14347.48
484.28	14576.86
484.46	14824.95
484.64	14806.23
484.82	14663.46
485.00	15023.90
485.18	14799.21
485.35	15183.06
485.53	14993.47
485.71	15173.69
485.89	15477.96
486.07	15337.53
486.25	15576.27
486.43	15742.44
486.61	15962.45
486.78	15831.38
486.96	15981.18
487.14	16245.66
487.32	16423.54
487.50	16416.52
487.68	16673.98
487.85	16739.51
488.03	17064.85
488.21	17242.73
488.39	17291.88
488.57	17224.00
488.75	17305.92
488.92	17584.44
489.10	17860.63
489.28	17790.41
489.46	17963.61
489.64	18122.77
489.81	18382.57
489.99	18511.30
490.17	18740.67
490.35	18731.31
490.53	18637.69
490.70	18735.99
490.88	18829.61
491.06	19297.72
491.24	18991.11
491.41	19051.96
491.59	19215.80
491.77	19372.61
491.95	19955.41
492.13	19866.47
492.30	19693.27
492.48	20102.86
492.66	19999.88
492.84	20149.67
493.01	20456.28
493.19	20149.67
493.37	20446.92
493.54	20868.22
493.72	20926.73
493.90	20849.49
494.08	20996.95
494.25	21029.71
494.43	21156.10
494.61	21649.96
494.79	21596.12
494.96	21172.49
495.14	21654.64
495.32	21792.73
495.49	22181.26
495.67	22342.75
495.85	22267.86
496.02	22171.89
496.20	22551.06
496.38	22382.54
496.55	22616.60
496.73	23234.50
496.91	23094.07
497.09	23002.78
497.26	23309.40
497.44	23112.79
497.62	23236.84
497.79	23454.51
497.97	23112.79
498.14	23718.99
498.32	23386.63
498.50	23665.16
498.67	24107.52
498.85	23702.61
499.03	24102.84
499.20	24226.89
499.38	24264.33
499.56	24372.00
499.73	24470.30
499.91	24474.98
500.08	24847.13
500.26	24957.13
500.44	24730.10
500.61	24615.41
500.79	24650.52
500.97	24720.74
501.14	25167.78
501.32	25130.33
501.49	25539.93
501.67	25521.20
501.84	25558.65
502.02	25668.66
502.20	25991.65
502.37	26232.72
502.55	25944.84
502.72	26087.61
502.90	25872.28
503.07	26197.62
503.25	26169.53
503.43	26162.51
503.60	26389.54
503.78	26300.60
503.95	26551.04
504.13	26316.98
504.30	26955.95
504.48	26759.34
504.65	26939.57
504.83	27056.59
505.01	27440.44
505.18	27021.48
505.36	27211.07
505.53	27152.55
505.71	27604.28
505.88	27618.32
506.06	27552.79
506.23	27840.67
506.41	27723.65
506.58	28034.94
506.76	27768.12
506.93	27679.18
507.11	28091.11
507.28	28098.13
507.46	28032.60
507.63	27964.72
507.81	28161.33
507.98	27896.85
508.16	28411.76
508.33	28158.99
508.50	28978.17
508.68	28453.89
508.85	29113.92
509.03	28896.25
509.20	28769.86
509.38	29247.33
509.55	29015.62
509.73	29345.64
509.90	29411.17
510.08	29191.16
510.25	29633.52
510.42	29462.66
510.60	29799.70
510.77	29600.76
510.95	29951.84
511.12	30115.67
511.30	29984.60
511.47	30356.75
511.64	30253.76
511.82	30258.45
511.99	30216.32
512.17	30328.66
512.34	29890.98
512.51	30396.54
512.69	30661.02
512.86	30300.58
513.04	30527.61
513.21	30878.69
513.38	30920.82
513.56	30911.46
513.73	30771.02
513.90	30948.90
514.08	31026.14
514.25	31201.68
514.43	31208.70
514.60	31101.04
514.77	31262.54
514.95	31583.19
515.12	31307.01
515.29	31833.63
515.47	31590.21
515.64	31971.72
515.81	32140.24
515.99	31786.82
516.16	31714.26
516.33	31557.44
516.51	32285.35
516.68	31637.02
516.85	31613.62
517.03	31964.70
517.20	32072.36
517.37	32184.71
517.54	32390.67
517.72	32325.14
517.89	32280.67
518.06	32006.83
518.24	32545.15
518.41	32196.41
518.58	32596.64
518.75	32348.54
518.93	33067.09
519.10	32648.13
519.27	33432.21
519.45	33034.32
519.62	33385.40
519.79	33221.56
519.96	33539.88
520.14	33687.33
520.31	33305.82
520.48	33944.79
520.65	33364.34
520.83	33673.29
521.00	33727.12
521.17	34031.39
521.34	33827.76
521.52	34040.75
521.69	34153.10
521.86	34284.17
522.03	33802.02
522.20	34490.13
522.38	34242.04
522.55	34209.27
522.72	34323.96
522.89	34508.86
523.07	34597.80
523.24	34569.71
523.41	34663.33
523.58	34852.92
523.75	35220.38
523.92	34932.50
524.10	35019.10
524.27	35051.86
524.44	35147.82
524.61	35126.76
524.78	35402.94
524.96	35578.48
525.13	35384.22
525.30	35852.33
525.47	35931.90
525.64	35208.68
525.81	35416.99
525.98	35438.05
526.16	35468.48
526.33	35241.45
526.50	35800.83
526.67	35365.49
526.84	35817.22
527.01	35599.55
527.18	35711.89
527.36	35981.06
527.53	36355.54
527.70	36177.66
527.87	36353.20
528.04	36400.01
528.21	36306.39
528.38	36545.12
528.55	36935.99
528.72	36814.29
528.89	36744.07
529.07	36816.63
529.24	36966.42
529.41	36814.29
529.58	36495.97
529.75	36720.66
529.92	36781.52
530.09	37043.66
530.26	36720.66
530.43	37228.56
530.60	36409.37
530.77	37394.74
530.94	37258.99
531.11	36797.90
531.28	37614.75
531.46	37226.22
531.63	37713.05
531.80	37343.25
531.97	37553.90
532.14	37111.53
532.31	37621.77
532.48	37689.65
532.65	37675.60
532.82	37273.03
532.99	37453.25
533.16	37790.29
533.33	37703.69
533.50	38445.64
533.67	38022.00
533.84	37680.28
534.01	37794.97
534.18	37736.46
534.35	38314.57
534.52	38492.45
534.69	38234.99
534.86	38756.93
535.03	38520.54
535.20	38579.05
535.37	38658.63
535.54	39014.39
535.71	38171.80
535.88	38630.54
536.05	38436.28
536.22	39026.09
536.38	38562.67
536.55	38747.57
536.72	37998.60
536.89	38808.42
537.06	38600.12
537.23	38888.00
537.40	38590.75
537.57	39222.70
537.74	39091.63
537.91	39559.73
538.08	39196.95
538.25	38859.91
538.42	39178.23
538.59	39541.01
538.75	39225.04
538.92	39360.79
539.09	39931.88
539.26	39400.58
539.43	39445.05
539.60	39714.21
539.77	39255.46
539.94	39473.13
540.11	39391.22
540.28	39363.13
540.44	39735.27
540.61	39821.87
540.78	39541.01
540.95	39742.30
541.12	39763.36
541.29	39606.55
541.46	39550.37
541.62	39931.88
541.79	40318.07
541.96	39517.60
542.13	39974.01
542.30	40243.17
542.47	39924.86
542.63	40175.30
542.80	40390.62
542.97	40687.87
543.14	40842.35
543.31	40414.03
543.48	41043.63
543.64	41205.13
543.81	40896.18
543.98	40428.07
544.15	40502.97
544.32	41202.79
544.48	41516.42
544.65	40554.46
544.82	40683.19
544.99	40905.54
545.16	41090.44
545.32	41003.85
545.49	40952.35
545.66	40900.86
545.83	41111.51
546.00	41518.76
546.16	41577.28
546.33	40697.24
546.50	40849.37
546.67	41420.46
546.83	41179.39
547.00	41071.72
547.17	41188.75
547.34	41467.27
547.50	41357.27
547.67	41907.29
547.84	41530.47
548.00	41654.51
548.17	42026.66
548.34	41691.96
548.51	41727.07
548.67	41837.08
548.84	41853.46
549.01	41698.98
549.18	41698.98
549.34	42347.31
549.51	42218.58
549.68	42122.62
549.84	41729.41
550.01	42288.80
550.18	41956.44
550.34	42368.38
550.51	41844.10
550.68	42197.52
550.84	41628.77
551.01	42326.25
551.18	41947.08
551.34	41921.34
551.51	42501.79
551.68	42642.22
551.84	42103.90
552.01	42110.92
552.18	42562.64
552.34	42506.47
552.51	42649.24
552.68	42677.33
552.84	42759.25
553.01	42838.83
553.18	42398.80
553.34	42824.78
553.51	42649.24
553.67	42548.60
553.84	43089.26
554.01	42731.16
554.17	42965.21
554.34	42852.87
554.51	42911.38
554.67	42857.55
554.84	43267.14
555.00	42810.74
555.17	42618.81
555.33	43325.66
555.50	42848.19
555.67	42787.33
555.83	43257.78
556.00	43281.19
556.16	43999.73
556.33	43213.31
556.50	43278.85
556.66	43517.58
556.83	42721.80
556.99	43622.90
557.16	43423.96
557.32	43159.48
557.49	43217.99
557.65	43215.65
557.82	43505.88
557.98	43304.59
558.15	43629.93
558.32	43423.96
558.48	43283.53
558.65	43456.73
558.81	43306.93
558.98	43328.00
559.14	43360.76
559.31	43636.95
559.47	43339.70
559.64	43948.24
559.80	44102.71
559.97	43763.34
560.13	43571.41
560.30	43529.28
560.46	43777.38
560.63	43686.10
560.79	43756.32
560.96	44076.97
561.12	43763.34
561.29	43555.03
561.45	43693.12
561.61	43667.37
561.78	43761.00
561.94	43665.03
562.11	43948.24
562.27	43693.12
562.44	43887.39
562.60	44194.00
562.77	44332.09
562.93	43835.89
563.10	44371.88
563.26	43786.74
563.42	44130.80
563.59	43782.06
563.75	43894.41
563.92	44341.45
564.08	43983.35
564.24	44470.18
564.41	44154.21
564.57	43786.74
564.74	44051.22
564.90	44116.76
565.07	43693.12
565.23	43906.11
565.39	44179.95
565.56	44257.19
565.72	43868.66
565.88	44212.72
566.05	44058.24
566.21	43814.83
566.38	44184.63
566.54	44142.50
566.70	44121.44
566.87	44423.37
567.03	44102.71
567.19	44655.08
567.36	44612.95
567.52	44069.95
567.68	44215.06
567.85	44163.57
568.01	44423.37
568.17	44392.94
568.34	44308.68
568.50	44591.89
568.66	44194.00
568.83	44559.12
568.99	43995.05
569.15	44334.43
569.32	44142.50
569.48	43885.04
569.64	44362.51
569.81	44423.37
569.97	44311.02
570.13	44591.89
570.30	43875.68
570.46	44039.52
570.62	44144.84
570.78	44135.48
570.95	44336.77
571.11	44512.31
571.27	44336.77
571.43	44163.57
571.60	44554.44
571.76	44388.26
571.92	44184.63
572.09	44329.75
572.25	44587.21
572.41	44374.22
572.57	44444.43
572.74	44891.48
572.90	44308.68
573.06	44641.04
573.22	44711.25
573.38	44411.67
573.55	44388.26
573.71	44706.57
573.87	44554.44
574.03	43938.88
574.20	44479.54
574.36	44212.72
574.52	44575.50
574.68	44760.40
574.84	44603.59
575.01	44879.77
575.17	44465.50
575.33	44500.61
575.49	44376.56
575.65	44575.50
575.82	45132.55
575.98	44875.09
576.14	45144.25
576.30	45020.20
576.46	44547.42
576.62	44516.99
576.79	44631.68
576.95	44334.43
577.11	44746.36
577.27	44760.40
577.43	45048.29
577.59	44385.92
577.75	44486.56
577.92	44259.53
578.08	44617.63
578.24	44568.48
578.40	45015.52
578.56	45102.12
578.72	44416.35
578.88	44828.28
579.04	44994.46
579.21	44308.68
579.37	44603.59
579.53	44989.78
579.69	44217.40
579.85	44575.50
580.01	44538.05
580.17	44973.39
580.33	44418.69
580.49	44713.59
580.65	44657.42
580.82	45088.08
580.98	44760.40
581.14	44643.38
581.30	44739.34
581.46	44847.00
581.62	44786.15
581.78	44615.29
581.94	45153.62
582.10	45003.82
582.26	45280.00
582.42	45127.87
582.58	45085.74
582.74	44832.96
582.90	45251.92
583.06	44884.45
583.22	45331.50
583.38	44975.73
583.54	44725.30
583.70	44933.60
583.86	44851.69
584.02	44191.65
584.18	44673.81
584.34	45130.21
584.50	44594.23
584.66	44942.97
584.82	44706.57
584.98	45090.42
585.14	44463.16
585.30	44374.22
585.46	44453.79
585.62	45081.06
585.78	44655.08
585.94	44261.87
586.10	44835.30
586.26	44788.49
586.42	44875.09
586.58	44870.41
586.74	45050.63
586.90	44786.15
587.06	44671.46
587.22	45109.14
587.38	44554.44
587.54	45052.97
587.70	45015.52
587.86	45329.16
588.02	45109.14
588.18	45200.43
588.34	44830.62
588.49	44540.39
588.65	44596.57
588.81	44615.29
588.97	44179.95
589.13	44278.25
589.29	44978.07
589.45	44790.83
589.61	45027.23
589.77	45097.44
589.93	45287.03
590.08	45464.91
590.24	44802.53
