SpectraSuite Data File
++++++++++++++++++++++++++++++++++++
Date: Fri Oct 25 10:44:07 EDT 2013
User: price-jones
Dark Spectrum Present: No
Reference Spectrum Present: No
Number of Sampled Component Spectra: 1
Spectrometers: USB2+H05261
Integration Time (usec): 100000 (USB2+H05261)
Spectra Averaged: 1 (USB2+H05261)
Boxcar Smoothing: 0 (USB2+H05261)
Correct for Electrical Dark: No (USB2+H05261)
Strobe/Lamp Enabled: No (USB2+H05261)
Correct for Detector Non-linearity: No (USB2+H05261)
Correct for Stray Light: No (USB2+H05261)
Number of Pixels in Processed Spectrum: 2048
>>>>>Begin Processed Spectral Data<<<<<
365.73	145.11
365.92	145.11
366.12	145.11
366.32	72.56
366.52	0.00
366.72	65.54
366.91	9.36
367.11	16.38
367.31	0.00
367.51	0.00
367.70	0.00
367.90	4.68
368.10	63.19
368.30	51.49
368.49	46.81
368.69	39.79
368.89	16.38
369.09	7.02
369.28	51.49
369.48	49.15
369.68	86.60
369.87	44.47
370.07	159.16
370.27	161.50
370.47	161.50
370.66	339.38
370.86	437.68
371.06	479.81
371.25	496.19
371.45	430.66
371.65	526.62
371.84	447.04
372.04	465.77
372.24	468.11
372.44	472.79
372.63	517.26
372.83	491.51
373.03	521.94
373.22	451.72
373.42	486.83
373.62	521.94
373.81	500.87
374.01	550.03
374.21	610.88
374.40	564.07
374.60	543.00
374.79	578.11
374.99	575.77
375.19	610.88
375.38	564.07
375.58	524.28
375.78	631.94
375.97	629.60
376.17	667.05
376.37	599.18
376.56	643.65
376.76	671.73
376.95	531.30
377.15	681.10
377.35	648.33
377.54	676.41
377.74	667.05
377.93	660.03
378.13	671.73
378.33	704.50
378.52	695.14
378.72	664.71
378.91	664.71
379.11	603.86
379.31	695.14
379.50	582.79
379.70	716.20
379.89	748.97
380.09	653.01
380.28	662.37
380.48	692.80
380.68	671.73
380.87	690.46
381.07	774.72
381.26	741.95
381.46	711.52
381.65	664.71
381.85	641.31
382.04	706.84
382.24	676.41
382.43	706.84
382.63	699.82
382.83	744.29
383.02	662.37
383.22	753.65
383.41	671.73
383.61	690.46
383.80	802.80
384.00	688.12
384.19	786.42
384.39	835.57
384.58	772.38
384.78	835.57
384.97	866.00
385.17	779.40
385.36	741.95
385.56	767.70
385.75	760.67
385.95	856.64
386.14	723.23
386.34	791.10
386.53	802.80
386.72	901.11
386.92	929.19
387.11	1013.45
387.31	856.64
387.50	910.47
387.70	905.79
387.89	901.11
388.09	847.27
388.28	856.64
388.48	940.90
388.67	971.32
388.86	922.17
389.06	882.38
389.25	1015.79
389.45	971.32
389.64	985.37
389.84	1006.43
390.03	976.00
390.22	950.26
390.42	1032.18
390.61	908.13
390.81	994.73
391.00	1043.88
391.19	1083.67
391.39	1015.79
391.58	1123.46
391.78	1053.24
391.97	1011.11
392.16	1071.97
392.36	1132.82
392.55	1027.50
392.75	1036.86
392.94	1093.03
393.13	978.34
393.33	1036.86
393.52	959.62
393.71	1043.88
393.91	1151.54
394.10	1064.94
394.29	1104.73
394.49	1219.42
394.68	1275.59
394.88	1160.91
395.07	1343.47
395.26	1329.42
395.46	1245.16
395.65	1299.00
395.84	1200.69
396.04	1303.68
396.23	1186.65
396.42	1207.72
396.62	1181.97
396.81	1214.74
397.00	1310.70
397.19	1359.85
397.39	1287.29
397.58	1366.87
397.77	1458.15
397.97	1387.94
398.16	1474.54
398.35	1486.24
398.55	1411.34
398.74	1483.90
398.93	1540.07
399.12	1472.20
399.32	1521.35
399.51	1511.99
399.70	1605.61
399.90	1579.86
400.09	1575.18
400.28	1664.12
400.47	1544.75
400.67	1710.93
400.86	1753.06
401.05	1610.29
401.24	1596.25
401.44	1736.68
401.63	1650.08
401.82	1717.95
402.01	1706.25
402.21	1741.36
402.40	1825.62
402.59	1755.40
402.78	1776.47
402.97	1818.60
403.17	1916.90
403.36	1839.66
403.55	1757.74
403.74	1909.88
403.93	1820.94
404.13	1853.70
404.32	1837.32
404.51	1830.30
404.70	1891.15
404.89	1921.58
405.09	1898.17
405.28	1933.28
405.47	1961.37
405.66	2059.67
405.85	1968.39
406.05	2005.84
406.24	1956.69
406.43	2010.52
406.62	2052.65
406.81	2153.29
407.00	2019.88
407.20	2012.86
407.39	2062.01
407.58	2099.46
407.77	2118.18
407.96	2223.51
408.15	2298.41
408.34	2263.30
408.54	2361.60
408.73	2207.13
408.92	2338.20
409.11	2356.92
409.30	2326.49
409.49	2335.85
409.68	2300.75
409.87	2235.21
410.07	2434.16
410.26	2373.30
410.45	2452.88
410.64	2427.14
410.83	2511.39
411.02	2551.18
411.21	2593.31
411.40	2605.02
411.59	2572.25
411.78	2630.76
411.98	2750.13
412.17	2630.76
412.36	2740.77
412.55	2764.17
412.74	2750.13
412.93	2693.96
413.12	2722.04
413.31	2881.20
413.50	2848.43
413.69	2909.29
413.88	2888.22
414.07	3007.59
414.26	2923.33
414.45	3030.99
414.64	2939.71
414.83	3002.91
415.02	3045.04
415.22	3101.21
415.41	3187.81
415.60	3183.13
415.79	3204.19
415.98	3258.03
416.17	3222.92
416.36	3129.30
416.55	3115.25
416.74	3307.18
416.93	3204.19
417.12	3274.41
417.31	3258.03
417.50	3342.28
417.69	3332.92
417.88	3468.67
418.07	3447.61
418.26	3421.86
418.45	3435.91
418.64	3604.42
418.83	3494.42
419.02	3485.06
419.21	3543.57
419.39	3627.83
419.58	3538.89
419.77	3335.26
419.96	3768.26
420.15	3737.84
420.34	3730.81
420.53	3744.86
420.72	3768.26
420.91	3812.73
421.10	3641.87
421.29	3796.35
421.48	3756.56
421.67	3824.44
421.86	3796.35
422.05	3796.35
422.24	3882.95
422.43	3733.15
422.61	3768.26
422.80	3964.87
422.99	3845.50
423.18	3915.72
423.37	3981.25
423.56	3896.99
423.75	3950.82
423.94	3822.09
424.13	3728.47
424.32	3831.46
424.50	3995.29
424.69	3981.25
424.88	4051.47
425.07	3918.06
425.26	3885.29
425.45	3852.52
425.64	3815.07
425.83	3840.82
426.01	4147.43
426.20	4077.21
426.39	3992.95
426.58	3974.23
426.77	3957.85
426.96	4014.02
427.15	3934.44
427.33	4227.01
427.52	4002.32
427.71	3997.64
427.90	4023.38
428.09	3948.48
428.28	4196.58
428.46	4142.75
428.65	4241.05
428.84	4348.72
429.03	4241.05
429.22	4173.18
429.40	4180.20
429.59	4166.15
429.78	3967.21
429.97	3999.98
430.16	4002.32
430.34	4079.55
430.53	4166.15
430.72	4142.75
430.91	4184.88
431.10	4414.25
431.28	4500.85
431.47	4416.59
431.66	4688.09
431.85	4545.32
432.03	4617.88
432.22	4765.33
432.41	4685.75
432.60	4641.28
432.79	4793.42
432.97	4762.99
433.16	4571.07
433.35	4711.50
433.54	4578.09
433.72	4652.98
433.91	4798.10
434.10	4774.69
434.28	4674.05
434.47	5022.79
434.66	5053.22
434.85	4971.30
435.03	5053.22
435.22	4868.31
435.41	5210.03
435.59	5095.35
435.78	4985.34
435.97	5125.77
436.16	5055.56
436.34	5064.92
436.53	5144.50
436.72	5111.73
436.90	4917.47
437.09	5275.57
437.28	5151.52
437.46	5275.57
437.65	5069.60
437.84	5252.16
438.02	5203.01
438.21	5191.31
438.40	4983.00
438.58	5355.15
438.77	5371.53
438.96	5383.23
439.14	5490.90
439.33	5467.49
439.52	5603.24
439.70	5633.67
439.89	5589.20
440.08	5636.01
440.26	5757.72
440.45	5727.29
440.63	5951.98
440.82	5984.75
441.01	5776.44
441.19	6012.84
441.38	6066.67
441.57	6061.99
441.75	6237.53
441.94	6097.10
442.12	6237.53
442.31	6310.08
442.50	6171.99
442.68	6225.82
442.87	6270.30
443.05	6464.56
443.24	6466.90
443.43	6553.50
443.61	6457.54
443.80	6712.66
443.98	6237.53
444.17	6345.19
444.35	6466.90
444.54	6637.76
444.73	6630.74
444.91	6312.42
445.10	6487.96
445.28	6457.54
445.47	6406.05
445.65	6296.04
445.84	6436.47
446.02	6672.87
446.21	6686.91
446.39	6525.41
446.58	6715.00
446.77	6668.19
446.95	6511.37
447.14	6703.29
447.32	6722.02
447.51	6581.59
447.69	6579.25
447.88	6808.62
448.06	6782.87
448.25	6703.29
448.43	6771.17
448.62	6733.72
448.80	6803.94
448.99	6839.05
449.17	6839.05
449.36	6888.20
449.54	7098.84
449.73	6916.28
449.91	6960.75
450.10	7049.69
450.28	7262.68
450.46	7101.19
450.65	7208.85
450.83	7131.61
451.02	7136.29
451.20	7377.37
451.39	7169.06
451.57	7339.92
451.76	7328.22
451.94	7351.62
452.13	7290.77
452.31	7337.58
452.49	6920.96
452.68	7258.00
452.86	7197.15
453.05	7300.13
453.23	7428.86
453.42	7208.85
453.60	7431.20
453.78	7461.63
453.97	7316.51
454.15	7431.20
454.34	7613.76
454.52	7646.53
454.70	7454.61
454.89	7417.16
455.07	7470.99
455.26	7723.77
455.44	7768.24
455.62	7676.96
455.81	7793.98
455.99	7744.83
456.17	7658.23
456.36	7765.90
456.54	7950.80
456.73	7791.64
456.91	8093.57
457.09	8070.17
457.28	8278.47
457.46	7948.46
457.64	8025.70
457.83	8149.75
458.01	7911.01
458.19	8393.16
458.38	8292.52
458.56	8264.43
458.74	8446.99
458.93	8212.94
459.11	8152.09
459.29	8287.84
459.48	8299.54
459.66	8372.10
459.84	8446.99
460.03	8559.34
460.21	8535.93
460.39	8465.72
460.57	8390.82
460.76	8655.30
460.94	8678.71
461.12	8503.17
461.31	8709.13
461.49	8575.72
461.67	8524.23
461.85	8575.72
462.04	8664.66
462.22	9226.39
462.40	8954.89
462.59	8926.80
462.77	8854.25
462.95	8973.61
463.13	9078.94
463.32	8961.91
463.50	9116.39
463.68	9135.11
463.86	9046.17
464.05	8760.63
464.23	8777.01
464.41	9095.32
464.59	8879.99
464.78	9041.49
464.96	9153.84
465.14	9011.06
465.32	9219.37
465.50	9282.56
465.69	9214.69
465.87	9322.35
466.05	8987.66
466.23	9245.12
466.41	9282.56
466.60	9441.72
466.78	9207.67
466.96	9214.69
467.14	9282.56
467.32	9324.69
467.51	9558.75
467.69	9158.52
467.87	9537.68
468.05	9638.33
468.23	9259.16
468.41	9359.80
468.60	9418.32
468.78	9664.07
468.96	9465.13
469.14	9687.48
469.32	9942.60
469.50	9565.77
469.69	9769.40
469.87	9891.10
470.05	9973.02
470.23	9781.10
470.41	9689.82
470.59	10150.90
470.77	9806.84
470.95	9827.91
471.14	10207.08
471.32	10038.56
471.50	10251.55
471.68	10352.19
471.86	10204.74
472.04	10366.23
472.22	10523.05
472.40	10333.47
472.58	10530.07
472.77	10319.42
472.95	10630.71
473.13	10991.16
473.31	10469.22
473.49	10609.65
473.67	10661.14
473.85	10810.93
474.03	10984.13
474.21	10881.15
474.39	11187.76
474.57	10949.03
474.75	11267.34
474.93	11426.50
475.12	11206.48
475.30	11232.23
475.48	11185.42
475.66	11323.51
475.84	11122.23
476.02	11398.41
476.20	11487.35
476.38	11641.82
476.56	11847.79
476.74	11637.14
476.92	11714.38
477.10	11939.07
477.28	12107.59
477.46	11934.39
477.64	12187.17
477.82	12568.68
478.00	12631.87
478.18	12470.37
478.36	12587.40
478.54	12943.16
478.72	12545.27
478.90	13067.21
479.08	12908.05
479.26	12975.93
479.44	13226.37
479.62	13247.43
479.80	13144.45
479.98	13266.16
480.16	13706.18
480.34	13432.33
480.52	13823.20
480.70	13783.41
480.88	13790.44
481.06	13785.76
481.24	13870.01
481.41	14272.59
481.59	14319.40
481.77	14581.54
481.95	14665.80
482.13	14686.86
482.31	14609.62
482.49	14836.66
482.67	14909.21
482.85	14974.75
483.03	15150.29
483.21	15197.10
483.39	15573.92
483.57	15379.66
483.74	15651.16
483.92	15475.62
484.10	15328.17
484.28	15999.90
484.46	16187.14
484.64	16191.83
484.82	16105.23
485.00	16154.38
485.18	16105.23
485.35	16573.33
485.53	16367.37
485.71	16248.00
485.89	16498.44
486.07	16409.50
486.25	16683.34
486.43	16786.32
486.61	16854.20
486.78	17130.38
486.96	17219.32
487.14	17685.09
487.32	17844.24
487.50	17935.53
487.68	18087.66
487.85	18389.59
488.03	18499.59
488.21	18424.70
488.39	18520.66
488.57	18890.46
488.75	18937.27
488.92	18792.16
489.10	19293.04
489.28	19346.87
489.46	19508.37
489.64	19817.32
489.81	20004.56
489.99	20004.56
490.17	20229.25
490.35	20505.43
490.53	20191.80
490.70	20570.97
490.88	20362.66
491.06	20631.82
491.24	20531.18
491.41	20786.30
491.59	20826.09
491.77	20535.86
491.95	21088.23
492.13	21092.91
492.30	21668.68
492.48	21570.38
492.66	21825.50
492.84	21745.92
493.01	22085.30
493.19	22045.51
493.37	22136.79
493.54	22382.54
493.72	22576.81
493.90	22588.51
494.08	23077.68
494.25	23630.05
494.43	23594.94
494.61	23300.03
494.79	23623.03
494.96	23508.34
495.14	23274.29
495.32	23845.38
495.49	23644.09
495.67	23756.44
495.85	24177.73
496.02	24060.71
496.20	24505.41
496.38	24713.72
496.55	24608.39
496.73	25006.28
496.91	24924.36
497.09	24966.49
497.26	24828.40
497.44	25219.27
497.62	25436.94
497.79	25516.52
497.97	25312.89
498.14	25549.29
498.32	25509.50
498.50	25549.29
498.67	26162.51
498.85	26216.34
499.03	26005.69
499.20	26419.97
499.38	26221.02
499.56	26281.88
499.73	26408.26
499.91	26808.50
500.08	26958.29
500.26	26679.77
500.44	26630.62
500.61	26838.92
500.79	26651.68
500.97	26850.63
501.14	27023.83
501.32	27283.62
501.49	27101.06
501.67	27098.72
501.84	27498.95
502.02	27454.48
502.20	27304.69
502.37	27735.35
502.55	27754.07
502.72	28252.61
502.90	28004.51
503.07	27740.03
503.25	27899.19
503.43	27971.74
503.60	28025.57
503.78	28301.76
503.95	28027.92
504.13	28481.98
504.30	29017.96
504.48	28678.58
504.65	28760.50
504.83	28903.28
505.01	29137.33
505.18	29254.36
505.36	29731.83
505.53	29593.73
505.71	29790.34
505.88	29586.71
506.06	29577.35
506.23	29291.80
506.41	30017.37
506.58	29467.34
506.76	29923.75
506.93	30122.69
507.11	29710.76
507.28	30274.83
507.46	30089.93
507.63	29874.60
507.81	30223.34
507.98	30054.82
508.16	30555.69
508.33	30874.01
508.50	30831.88
508.68	30693.79
508.85	31182.96
509.03	31035.50
509.20	31295.30
509.38	31328.07
509.55	31323.39
509.73	31363.18
509.90	31285.94
510.08	31681.49
510.25	31295.30
510.42	31538.72
510.60	31632.34
510.77	31461.48
510.95	31985.76
511.12	32369.61
511.30	31847.67
511.47	32835.38
511.64	32517.06
511.82	32627.07
511.99	31821.92
512.17	32180.03
512.34	32285.35
512.51	32414.08
512.69	32840.06
512.86	33041.34
513.04	33057.73
513.21	33046.02
513.38	32830.69
513.56	33015.60
513.73	32481.95
513.90	32826.01
514.08	33284.76
514.25	33226.24
514.43	33156.03
514.60	33256.67
514.77	33177.09
514.95	33986.92
515.12	33450.94
515.29	33530.51
515.47	34192.89
515.64	34057.14
515.81	33858.19
515.99	33694.35
516.16	33993.94
516.33	33504.77
516.51	33406.47
516.68	33574.98
516.85	33553.92
517.03	33439.23
517.20	34068.84
517.37	34415.24
517.54	34153.10
517.72	34415.24
517.89	34270.12
518.06	34326.30
518.24	33949.47
518.41	34649.29
518.58	34710.14
518.75	34714.83
518.93	35147.82
519.10	35178.25
519.27	35243.79
519.45	35154.85
519.62	35318.68
519.79	35562.10
519.96	35101.01
520.14	35622.95
520.31	35489.54
520.48	35601.89
520.65	35482.52
520.83	35943.61
521.00	35835.94
521.17	36205.75
521.34	36367.24
521.52	36109.78
521.69	36172.98
521.86	36208.09
522.03	36318.09
522.20	36362.56
522.38	36374.27
522.55	36381.29
522.72	36631.72
522.89	36488.95
523.07	36472.57
523.24	36503.00
523.41	36577.89
523.58	36835.35
523.75	37493.04
523.92	37151.32
524.10	37713.05
524.27	37247.29
524.44	37165.37
524.61	37294.10
524.78	37560.92
524.96	37553.90
525.13	37703.69
525.30	38192.86
525.47	38040.73
525.64	37937.74
525.81	37947.11
525.98	37624.11
526.16	37097.49
526.33	37366.65
526.50	37401.76
526.67	37418.14
526.84	37631.13
527.01	37865.19
527.18	38249.03
527.36	38227.97
527.53	38227.97
527.70	38670.33
527.87	38462.02
528.04	38368.40
528.21	38555.64
528.38	38480.75
528.55	38689.06
528.72	39126.74
528.89	39023.75
529.07	39042.48
529.24	38565.01
529.41	39136.10
529.58	39225.04
529.75	38747.57
529.92	39091.63
530.09	39166.52
530.26	39166.52
530.43	39557.39
530.60	39234.40
530.77	39292.91
530.94	39812.51
531.11	39292.91
531.28	39285.89
531.46	39412.28
531.63	39222.70
531.80	39388.88
531.97	39395.90
532.14	39447.39
532.31	39250.78
532.48	39592.50
532.65	39903.79
532.82	39688.46
532.99	39714.21
533.16	39842.94
533.33	39831.24
533.50	40591.91
533.67	40114.44
533.84	39817.19
534.01	40390.62
534.18	40254.87
534.35	40589.57
534.52	40259.55
534.69	40350.84
534.86	40348.50
535.03	41223.86
535.20	40753.41
535.37	41008.53
535.54	40708.94
535.71	40692.55
535.88	40683.19
536.05	40311.05
536.22	40896.18
536.38	41015.55
536.55	40615.32
536.72	40865.75
536.89	40966.40
537.06	40854.05
537.23	41097.47
537.40	41067.04
537.57	41170.02
537.74	41425.14
537.91	41830.05
538.08	41134.92
538.25	40790.86
538.42	41542.17
538.59	41532.81
538.75	41221.52
538.92	41628.77
539.09	41404.08
539.26	41567.91
539.43	41078.74
539.60	41799.63
539.77	41460.25
539.94	41638.13
540.11	41139.60
540.28	41698.98
540.44	41333.86
540.61	41713.03
540.78	40959.38
540.95	41284.71
541.12	41518.76
541.29	41977.51
541.46	42071.13
541.62	42117.94
541.79	41970.49
541.96	41591.32
542.13	41979.85
542.30	42014.96
542.47	41766.86
542.63	41750.48
542.80	42195.18
542.97	42906.70
543.14	43122.03
543.31	43246.08
543.48	42834.14
543.64	43295.23
543.81	43040.11
543.98	42684.35
544.15	42698.39
544.32	42983.94
544.48	43414.60
544.65	43192.25
544.82	42960.53
544.99	42721.80
545.16	43093.94
545.32	43269.48
545.49	43906.11
545.66	43461.41
545.83	43313.95
546.00	43119.69
546.16	43395.87
546.33	43030.75
546.50	43110.33
546.67	43328.00
546.83	43271.82
547.00	43777.38
547.17	43320.98
547.34	43288.21
547.50	43707.16
547.67	43728.23
547.84	43491.83
548.00	43702.48
548.17	43751.63
548.34	43629.93
548.51	44079.31
548.67	44149.53
548.84	43791.42
549.01	43882.70
549.18	43978.67
549.34	43821.85
549.51	44102.71
549.68	44257.19
549.84	44289.96
550.01	44142.50
550.18	43948.24
550.34	43892.07
550.51	44179.95
550.68	44194.00
550.84	43540.99
551.01	44332.09
551.18	44346.13
551.34	44006.75
551.51	44521.67
551.68	44502.95
551.84	44697.21
552.01	44325.07
552.18	44196.34
552.34	44240.81
552.51	44201.02
552.68	44210.38
552.84	44879.77
553.01	44662.10
553.18	44793.17
553.34	44449.11
553.51	44554.44
553.67	44521.67
553.84	44905.52
554.01	44612.95
554.17	44849.35
554.34	45193.40
554.51	44732.32
554.67	45085.74
554.84	45188.72
555.00	44802.53
555.17	44861.05
555.33	44706.57
555.50	44528.69
555.67	44659.76
555.83	45076.38
556.00	45497.67
556.16	44903.18
556.33	44898.50
556.50	44919.56
556.66	44832.96
556.83	44713.59
556.99	45415.76
557.16	45151.27
557.32	45139.57
557.49	45720.02
557.65	45177.02
557.82	45181.70
557.98	45485.97
558.15	45134.89
558.32	45013.18
558.48	45120.85
558.65	45008.50
558.81	45050.63
558.98	45137.23
559.14	45106.80
559.31	45223.83
559.47	45469.59
559.64	45483.63
559.80	45565.55
559.97	44954.67
560.13	45024.89
560.30	45900.25
560.46	45322.13
560.63	45635.77
560.79	45780.88
560.96	45947.06
561.12	45748.11
561.29	45502.35
561.45	45354.90
561.61	45579.59
561.78	45198.09
561.94	45076.38
562.11	45579.59
562.27	45392.35
562.44	45170.00
562.60	45766.84
562.77	45521.08
562.93	45773.86
563.10	45808.96
563.26	45359.58
563.42	45778.54
563.59	45350.22
563.75	45724.71
563.92	45961.10
564.08	46225.58
564.24	45773.86
564.41	45633.42
564.57	45918.97
564.74	45743.43
564.90	45612.36
565.07	45549.17
565.23	46227.92
565.39	45883.86
565.56	45703.64
565.72	45514.06
565.88	45790.24
566.05	45933.01
566.21	45808.96
566.38	45645.13
566.54	45778.54
566.70	45860.46
566.87	46288.77
567.03	45640.45
567.19	45748.11
567.36	46164.73
567.52	46190.47
567.68	46066.42
567.85	45397.03
568.01	46274.73
568.17	46115.58
568.34	45867.48
568.50	45830.03
568.66	46026.63
568.83	45947.06
568.99	45666.19
569.15	45909.61
569.32	46096.85
569.48	46164.73
569.64	46546.23
569.81	46007.91
569.97	45825.35
570.13	45841.73
570.30	45998.55
570.46	45940.04
570.62	45378.31
570.78	45565.55
570.95	45923.65
571.11	46141.32
571.27	45661.51
571.43	45998.55
571.60	45918.97
571.76	46005.57
571.92	46127.28
572.09	46052.38
572.25	45979.82
572.41	46426.87
572.57	45991.53
572.74	46658.58
572.90	46305.16
573.06	46321.54
573.22	46146.00
573.38	46305.16
573.55	45736.41
573.71	46138.98
573.87	46061.74
574.03	46410.48
574.20	46087.49
574.36	46073.45
574.52	46281.75
574.68	46593.04
574.84	46223.24
575.01	46216.22
575.17	46153.02
575.33	45759.81
575.49	46237.28
575.65	46555.60
575.82	46497.08
575.98	45851.09
576.14	46356.65
576.30	46412.82
576.46	46593.04
576.62	46110.89
576.79	46358.99
576.95	45801.94
577.11	46054.72
577.27	46188.13
577.43	46665.60
577.59	45890.88
577.75	46068.76
577.92	45380.65
578.08	45893.22
578.24	45727.05
578.40	46110.89
578.56	46342.61
578.72	46220.90
578.88	46490.06
579.04	46274.73
579.21	46220.90
579.37	46312.18
579.53	46199.83
579.69	45801.94
579.85	46326.22
580.01	46089.83
580.17	46307.50
580.33	46174.09
580.49	46866.89
580.65	46389.42
580.82	46288.77
580.98	46382.40
581.14	45780.88
581.30	46260.69
581.46	46382.40
581.62	46401.12
581.78	46319.20
581.94	46635.17
582.10	46314.52
582.26	46684.33
582.42	45900.25
582.58	46129.62
582.74	46417.50
582.90	46506.44
583.06	46389.42
583.22	45921.31
583.38	46876.25
583.54	46461.97
583.70	46431.55
583.86	46590.70
584.02	45867.48
584.18	46293.46
584.34	46223.24
584.50	46298.14
584.66	46057.06
584.82	45860.46
584.98	46351.97
585.14	46153.02
585.30	46408.14
585.46	46403.46
585.62	46113.23
585.78	46312.18
585.94	46059.40
586.10	46466.66
586.26	46068.76
586.42	46841.14
586.58	45893.22
586.74	46476.02
586.90	46356.65
587.06	46511.13
587.22	46586.02
587.38	46138.98
587.54	46265.37
587.70	46508.79
587.86	46625.81
588.02	46417.50
588.18	46436.23
588.34	46209.20
588.49	46005.57
588.65	45925.99
588.81	45689.60
588.97	45584.27
589.13	45736.41
589.29	46005.57
589.45	46117.92
589.61	46487.72
589.77	46506.44
589.93	46958.17
