SpectraSuite Data File
++++++++++++++++++++++++++++++++++++
Date: Fri Oct 25 10:48:12 EDT 2013
User: price-jones
Dark Spectrum Present: No
Reference Spectrum Present: No
Number of Sampled Component Spectra: 1
Spectrometers: USB2+H05261
Integration Time (usec): 100000 (USB2+H05261)
Spectra Averaged: 1 (USB2+H05261)
Boxcar Smoothing: 0 (USB2+H05261)
Correct for Electrical Dark: No (USB2+H05261)
Strobe/Lamp Enabled: No (USB2+H05261)
Correct for Detector Non-linearity: No (USB2+H05261)
Correct for Stray Light: No (USB2+H05261)
Number of Pixels in Processed Spectrum: 2048
>>>>>Begin Processed Spectral Data<<<<<
365.73	142.77
365.92	142.77
366.12	142.77
366.32	72.56
366.52	93.62
366.72	121.71
366.91	79.58
367.11	25.75
367.31	14.04
367.51	25.75
367.70	53.83
367.90	147.45
368.10	56.17
368.30	91.28
368.49	84.26
368.69	93.62
368.89	93.62
369.09	110.01
369.28	65.54
369.48	142.77
369.68	117.03
369.87	126.39
370.07	117.03
370.27	124.05
370.47	278.52
370.66	360.44
370.86	409.59
371.06	395.55
371.25	418.96
371.45	433.00
371.65	519.60
371.84	498.53
372.04	433.00
372.24	475.13
372.44	470.45
372.63	472.79
372.83	477.47
373.03	458.74
373.22	477.47
373.42	465.77
373.62	500.87
373.81	575.77
374.01	617.90
374.21	594.50
374.40	517.26
374.60	610.88
374.79	552.37
374.99	545.34
375.19	550.03
375.38	547.69
375.58	594.50
375.78	545.34
375.97	512.58
376.17	655.35
376.37	575.77
376.56	664.71
376.76	571.09
376.95	660.03
377.15	603.86
377.35	676.41
377.54	596.84
377.74	699.82
377.93	601.52
378.13	596.84
378.33	653.01
378.52	533.64
378.72	713.86
378.91	603.86
379.11	669.39
379.31	601.52
379.50	610.88
379.70	589.82
379.89	664.71
380.09	730.25
380.28	685.78
380.48	589.82
380.68	695.14
380.87	739.61
381.07	664.71
381.26	711.52
381.46	727.91
381.65	655.35
381.85	723.23
382.04	704.50
382.24	660.03
382.43	638.97
382.63	702.16
382.83	702.16
383.02	711.52
383.22	697.48
383.41	669.39
383.61	781.74
383.80	798.12
384.00	737.27
384.19	807.48
384.39	711.52
384.58	765.36
384.78	781.74
384.97	699.82
385.17	676.41
385.36	718.54
385.56	753.65
385.75	851.96
385.95	737.27
386.14	866.00
386.34	826.21
386.53	767.70
386.72	809.83
386.92	847.27
387.11	814.51
387.31	823.87
387.50	849.61
387.70	840.25
387.89	746.63
388.09	779.40
388.28	903.45
388.48	898.77
388.67	891.74
388.86	903.45
389.06	873.02
389.25	931.53
389.45	833.23
389.64	922.17
389.84	940.90
390.03	964.30
390.22	938.55
390.42	954.94
390.61	887.06
390.81	968.98
391.00	901.11
391.19	940.90
391.39	943.24
391.58	1022.81
391.78	926.85
391.97	894.08
392.16	1018.13
392.36	992.39
392.55	987.71
392.75	954.94
392.94	990.05
393.13	945.58
393.33	964.30
393.52	954.94
393.71	1001.75
393.91	1102.39
394.10	1043.88
394.29	1086.01
394.49	1060.26
394.68	1093.03
394.88	1109.41
395.07	1048.56
395.26	1121.12
395.46	1064.94
395.65	1224.10
395.84	1132.82
396.04	1217.08
396.23	1100.05
396.42	1163.25
396.62	1125.80
396.81	1071.97
397.00	1107.07
397.19	1165.59
397.39	1118.78
397.58	1200.69
397.77	1158.57
397.97	1219.42
398.16	1371.55
398.35	1348.15
398.55	1224.10
398.74	1357.51
398.93	1387.94
399.12	1338.79
399.32	1299.00
399.51	1359.85
399.70	1406.66
399.90	1341.13
400.09	1366.87
400.28	1483.90
400.47	1331.76
400.67	1427.73
400.86	1446.45
401.05	1366.87
401.24	1486.24
401.44	1519.01
401.63	1600.93
401.82	1430.07
402.01	1493.26
402.21	1516.67
402.40	1502.62
402.59	1575.18
402.78	1572.84
402.97	1612.63
403.17	1586.88
403.36	1724.97
403.55	1661.78
403.74	1727.32
403.93	1666.46
404.13	1643.06
404.32	1664.12
404.51	1652.42
404.70	1668.80
404.89	1713.27
405.09	1804.55
405.28	1638.38
405.47	1783.49
405.66	1689.87
405.85	1757.74
406.05	1783.49
406.24	1781.15
406.43	1907.54
406.62	1884.13
406.81	1877.11
407.00	1797.53
407.20	1867.75
407.39	1933.28
407.58	1900.52
407.77	1949.67
407.96	1842.00
408.15	2029.24
408.34	1898.17
408.54	1968.39
408.73	2071.37
408.92	2024.56
409.11	2062.01
409.30	2043.29
409.49	1998.82
409.68	2029.24
409.87	2057.33
410.07	2076.06
410.26	2097.12
410.45	2136.91
410.64	2188.40
410.83	2218.83
411.02	2296.07
411.21	2279.68
411.40	2279.68
411.59	2420.11
411.78	2260.96
411.98	2352.24
412.17	2377.98
412.36	2370.96
412.55	2380.32
412.74	2401.39
412.93	2487.99
413.12	2373.30
413.31	2579.27
413.50	2492.67
413.69	2565.23
413.88	2520.76
414.07	2523.10
414.26	2616.72
414.45	2527.78
414.64	2668.21
414.83	2682.25
415.02	2738.43
415.22	2726.72
415.41	2822.69
415.60	2689.28
415.79	2829.71
415.98	2916.31
416.17	2820.35
416.36	2949.08
416.55	2871.84
416.74	2979.50
416.93	2773.53
417.12	2867.16
417.31	2925.67
417.50	2920.99
417.69	2970.14
417.88	3110.57
418.07	3056.74
418.26	3038.02
418.45	3117.59
418.64	3143.34
418.83	3152.70
419.02	3220.58
419.21	3208.87
419.39	3288.45
419.58	3199.51
419.77	3192.49
419.96	3286.11
420.15	3269.73
420.34	3141.00
420.53	3279.09
420.72	3351.65
420.91	3342.28
421.10	3375.05
421.29	3433.57
421.48	3440.59
421.67	3482.72
421.86	3419.52
422.05	3407.82
422.24	3368.03
422.43	3456.97
422.61	3421.86
422.80	3480.38
422.99	3494.42
423.18	3585.70
423.37	3620.81
423.56	3499.10
423.75	3541.23
423.94	3433.57
424.13	3375.05
424.32	3295.47
424.50	3597.40
424.69	3719.11
424.88	3609.11
425.07	3571.66
425.26	3492.08
425.45	3618.47
425.64	3550.59
425.83	3590.38
426.01	3712.09
426.20	3658.26
426.39	3641.87
426.58	3588.04
426.77	3740.18
426.96	3592.72
427.15	3655.92
427.33	3859.54
427.52	3599.74
427.71	3595.06
427.90	3735.50
428.09	3765.92
428.28	3660.60
428.46	3735.50
428.65	3798.69
428.84	3887.63
429.03	3941.46
429.22	3712.09
429.40	3672.30
429.59	3852.52
429.78	3684.00
429.97	3639.53
430.16	3763.58
430.34	3733.15
430.53	3892.31
430.72	3789.33
430.91	3978.91
431.10	4002.32
431.28	4173.18
431.47	4194.24
431.66	4187.22
431.85	4070.19
432.03	4149.77
432.22	4070.19
432.41	4180.20
432.60	4315.95
432.79	4266.80
432.97	4264.46
433.16	4297.22
433.35	4248.07
433.54	4327.65
433.72	4411.91
433.91	4236.37
434.10	4367.44
434.28	4322.97
434.47	4376.80
434.66	4454.04
434.85	4311.27
435.03	4458.72
435.22	4475.10
435.41	4664.69
435.59	4484.47
435.78	4538.30
435.97	4634.26
436.16	4517.23
436.34	4568.73
436.53	4758.31
436.72	4908.10
436.90	4655.33
437.09	4528.94
437.28	4510.21
437.46	4723.20
437.65	4706.82
437.84	4786.40
438.02	4791.08
438.21	4723.20
438.40	4748.95
438.58	4959.60
438.77	4957.25
438.96	4919.81
439.14	5029.81
439.33	5060.24
439.52	4954.91
439.70	5022.79
439.89	5156.20
440.08	5146.84
440.26	5284.93
440.45	5076.62
440.63	5205.35
440.82	5313.02
441.01	5305.99
441.19	5537.71
441.38	5334.08
441.57	5387.91
441.75	5455.79
441.94	5401.96
442.12	5558.77
442.31	5729.63
442.50	5731.97
442.68	5603.24
442.87	5760.06
443.05	5645.37
443.24	5755.38
443.43	5703.89
443.61	5774.10
443.80	5980.07
443.98	5593.88
444.17	5533.03
444.35	5951.98
444.54	5926.24
444.73	5680.48
444.91	5818.57
445.10	5764.74
445.28	5930.92
445.47	5806.87
445.65	5736.65
445.84	5788.14
446.02	5844.32
446.21	5968.37
446.39	5947.30
446.58	6052.63
446.77	6003.47
446.95	5844.32
447.14	6069.01
447.32	6120.50
447.51	5947.30
447.69	5832.62
447.88	6012.84
448.06	6139.23
448.25	6017.52
448.43	6050.28
448.62	6066.67
448.80	6141.57
448.99	6076.03
449.17	6171.99
449.36	6164.97
449.54	6296.04
449.73	6326.47
449.91	6361.58
450.10	6246.89
450.28	6359.24
450.46	6492.65
450.65	6562.86
450.83	6506.69
451.02	6382.64
451.20	6459.88
451.39	6560.52
451.57	6516.05
451.76	6396.68
451.94	6413.07
452.13	6509.03
452.31	6473.92
452.49	6401.37
452.68	6623.72
452.86	6576.91
453.05	6703.29
453.23	6836.70
453.42	6574.56
453.60	6452.86
453.78	6668.19
453.97	6637.76
454.15	6604.99
454.34	6729.04
454.52	6782.87
454.70	6822.66
454.89	6902.24
455.07	6857.77
455.26	6750.10
455.44	6942.03
455.62	6963.09
455.81	6862.45
455.99	7131.61
456.17	7070.76
456.36	6864.79
456.54	7180.76
456.73	7269.70
456.91	7281.41
457.09	7201.83
457.28	7449.93
457.46	7288.43
457.64	7325.88
457.83	7487.37
458.01	7164.38
458.19	7407.80
458.38	7339.92
458.56	7534.18
458.74	7510.78
458.93	7478.01
459.11	7489.71
459.29	7602.06
459.48	7620.78
459.66	7368.01
459.84	7552.91
460.03	7728.45
460.21	7496.74
460.39	7665.25
460.57	7681.64
460.76	7775.26
460.94	7824.41
461.12	7786.96
461.31	7658.23
461.49	7824.41
461.67	7751.85
461.85	7871.22
462.04	7885.26
462.22	8320.60
462.40	8128.68
462.59	8021.02
462.77	8067.83
462.95	8159.11
463.13	7955.48
463.32	7913.35
463.50	8030.38
463.68	8149.75
463.86	8133.36
464.05	8126.34
464.23	8236.35
464.41	8306.56
464.59	8030.38
464.78	8531.25
464.96	8257.41
465.14	8285.50
465.32	8395.50
465.50	8346.35
465.69	8489.12
465.87	8386.14
466.05	8360.39
466.23	8421.25
466.41	8196.56
466.60	8659.98
466.78	8493.80
466.96	8454.02
467.14	8533.59
467.32	8517.21
467.51	8713.81
467.69	8540.61
467.87	8503.17
468.05	8365.07
468.23	8444.65
468.41	8571.04
468.60	8446.99
468.78	8788.71
468.96	8697.43
469.14	8725.52
469.32	9100.00
469.50	8564.02
469.69	8879.99
469.87	9090.64
470.05	9046.17
470.23	8875.31
470.41	8933.82
470.59	9076.60
470.77	9064.89
470.95	9022.77
471.14	9165.54
471.32	8957.23
471.50	9408.95
471.68	9448.74
471.86	9640.67
472.04	9338.74
472.22	9617.26
472.40	9296.61
472.58	9200.65
472.77	9486.19
472.95	9624.28
473.13	9916.85
473.31	9439.38
473.49	9467.47
473.67	9846.63
473.85	9678.12
474.03	9937.91
474.21	9966.00
474.39	10389.64
474.57	10167.29
474.75	10120.48
474.93	10066.64
475.12	10003.45
475.30	10193.03
475.48	10396.66
475.66	10429.43
475.84	10221.12
476.02	10516.03
476.20	10195.37
476.38	10619.01
476.56	10665.82
476.74	10649.44
476.92	10736.04
477.10	10988.82
477.28	10869.45
477.46	11096.48
477.64	11140.95
477.82	11169.04
478.00	11414.79
478.18	11536.50
478.36	11501.39
478.54	11405.43
478.72	11440.54
478.90	11777.58
479.08	11770.55
479.26	11822.05
479.44	11831.41
479.62	11915.67
479.80	12098.23
479.98	12313.56
480.16	12463.35
480.34	12231.64
480.52	12617.83
480.70	12573.36
480.88	12587.40
481.06	12861.24
481.24	12711.45
481.41	12989.97
481.59	13078.91
481.77	13242.75
481.95	12999.34
482.13	13249.77
482.31	13277.86
482.49	13657.03
482.67	13420.63
482.85	13621.92
483.03	13841.93
483.21	13893.42
483.39	14024.49
483.57	14010.45
483.74	14197.69
483.92	14312.38
484.10	14260.88
484.28	14569.83
484.46	14728.99
484.64	14822.61
484.82	14607.28
485.00	14743.03
485.18	15183.06
485.35	15002.83
485.53	15005.17
485.71	15007.52
485.89	15412.43
486.07	15171.35
486.25	15618.39
486.43	15501.37
486.61	15660.52
486.78	16037.35
486.96	15833.72
487.14	16379.07
487.32	16379.07
487.50	16535.88
487.68	16594.40
487.85	17057.82
488.03	16954.84
488.21	17294.22
488.39	17041.44
488.57	17015.69
488.75	17617.21
488.92	17418.27
489.10	17642.96
489.28	17865.31
489.46	17947.23
489.64	18010.42
489.81	18476.19
489.99	18600.24
490.17	18368.52
490.35	18733.65
490.53	19133.88
490.70	18738.33
490.88	18850.67
491.06	19283.67
491.24	19000.47
491.41	19150.26
491.59	19112.81
491.77	19286.01
491.95	19534.11
492.13	19300.06
492.30	19744.76
492.48	19887.53
492.66	20018.60
492.84	19901.58
493.01	20503.09
493.19	20198.82
493.37	20159.03
493.54	20725.44
493.72	20980.56
493.90	21074.18
494.08	20891.62
494.25	21385.47
494.43	21214.62
494.61	21221.64
494.79	21708.47
494.96	21497.82
495.14	21666.34
495.32	21919.12
495.49	21720.17
495.67	21872.31
495.85	22595.53
496.02	22263.18
496.20	22396.59
496.38	22302.96
496.55	22927.89
496.73	23269.61
496.91	23023.85
497.09	23005.13
497.26	22979.38
497.44	22970.02
497.62	23178.33
497.79	23831.33
497.97	23779.84
498.14	23321.10
498.32	23833.68
498.50	23850.06
498.67	24151.99
498.85	23950.70
499.03	24205.82
499.20	24346.25
499.38	24474.98
499.56	24449.24
499.73	24374.34
499.91	24390.72
500.08	24563.92
500.26	24442.21
500.44	24655.20
500.61	24830.74
500.79	24627.12
500.97	25216.93
501.14	25158.42
501.32	25008.62
501.49	25095.22
501.67	25151.40
501.84	25427.58
502.02	25652.27
502.20	25902.71
502.37	25851.22
502.55	26073.57
502.72	25883.98
502.90	25846.54
503.07	26174.21
503.25	26368.48
503.43	26005.69
503.60	26272.51
503.78	26331.03
503.95	26291.24
504.13	26820.20
504.30	26497.20
504.48	26614.23
504.65	26965.31
504.83	26792.11
505.01	26588.49
505.18	26859.99
505.36	27311.71
505.53	27372.57
505.71	27220.43
505.88	27351.50
506.06	27180.64
506.23	27559.81
506.41	27271.92
506.58	27590.24
506.76	27976.42
506.93	27838.33
507.11	27798.54
507.28	28283.03
507.46	28177.71
507.63	28304.10
507.81	28039.62
507.98	27971.74
508.16	28304.10
508.33	28418.78
508.50	28577.94
508.68	28783.91
508.85	28952.43
509.03	28795.61
509.20	28971.15
509.38	28975.83
509.55	29198.18
509.73	29373.72
509.90	29247.33
510.08	29050.73
510.25	29509.47
510.42	29397.13
510.60	29497.77
510.77	29666.29
510.95	30033.75
511.12	29813.74
511.30	30260.79
511.47	30160.14
511.64	30375.47
511.82	30478.46
511.99	30015.03
512.17	30375.47
512.34	30169.51
512.51	30487.82
512.69	30235.04
512.86	30686.76
513.04	30993.37
513.21	30464.41
513.38	30815.49
513.56	30717.19
513.73	30448.03
513.90	30998.06
514.08	31082.31
514.25	31007.42
514.43	31241.47
514.60	31105.72
514.77	31161.89
514.95	31683.83
515.12	31487.23
515.29	31473.18
515.47	31611.28
515.64	32016.19
515.81	31765.75
515.99	31737.66
516.16	31683.83
516.33	31850.01
516.51	32009.17
516.68	31756.39
516.85	31665.11
517.03	31761.07
517.20	31772.77
517.37	32175.34
517.54	32322.80
517.72	32559.19
517.89	32053.64
518.06	32453.87
518.24	32219.81
518.41	32280.67
518.58	32425.78
518.75	32369.61
518.93	33076.45
519.10	32645.79
519.27	32863.46
519.45	33266.03
519.62	33336.25
519.79	33315.19
519.96	32954.74
520.14	33708.40
520.31	33099.86
520.48	33729.46
520.65	33511.79
520.83	33780.95
521.00	33457.96
521.17	33776.27
521.34	34162.46
521.52	34141.39
521.69	34110.97
521.86	34412.90
522.03	33869.89
522.20	34279.49
522.38	34319.28
522.55	34497.16
522.72	34120.33
522.89	34333.32
523.07	34251.40
523.24	34150.76
523.41	34925.47
523.58	34529.92
523.75	35175.91
523.92	35000.37
524.10	35138.46
524.27	34679.72
524.44	35037.82
524.61	34923.13
524.78	35166.55
524.96	34951.22
525.13	35597.21
525.30	35721.26
525.47	35498.91
525.64	35505.93
525.81	35559.76
525.98	35468.48
526.16	35395.92
526.33	34902.07
526.50	35854.67
526.67	36018.50
526.84	35761.05
527.01	36154.26
527.18	35934.24
527.36	36297.03
527.53	36203.41
527.70	36367.24
527.87	36587.25
528.04	36282.98
528.21	36631.72
528.38	36137.87
528.55	36664.49
528.72	36524.06
528.89	36823.65
529.07	36676.19
529.24	36273.62
529.41	36650.45
529.58	36849.39
529.75	36751.09
529.92	36818.97
530.09	37326.86
530.26	37106.85
530.43	37273.03
530.60	37099.83
530.77	37165.37
530.94	37694.33
531.11	37081.11
531.28	37053.02
531.46	37317.50
531.63	37504.74
531.80	37408.78
531.97	37507.08
532.14	37544.53
532.31	37242.60
532.48	37778.59
532.65	37457.93
532.82	37806.67
532.99	37904.98
533.16	37518.79
533.33	37954.13
533.50	38300.53
533.67	38005.62
533.84	37855.82
534.01	38230.31
534.18	37888.59
534.35	38169.46
534.52	37970.51
534.69	38356.70
534.86	38181.16
535.03	38115.62
535.20	39061.20
535.37	39009.71
535.54	38778.00
535.71	38813.10
535.88	38581.39
536.05	38775.66
536.22	38572.03
536.38	38911.41
536.55	38600.12
536.72	38944.17
536.89	38611.82
537.06	38658.63
537.23	38728.84
537.40	38859.91
537.57	38670.33
537.74	39044.82
537.91	39522.29
538.08	39147.80
538.25	38768.63
538.42	38831.83
538.59	39585.48
538.75	38766.29
538.92	39414.62
539.09	39218.02
539.26	39189.93
539.43	39718.89
539.60	39477.82
539.77	39503.56
539.94	39606.55
540.11	39241.42
540.28	39758.68
540.44	39782.09
540.61	39454.41
540.78	39325.68
540.95	39697.83
541.12	39557.39
541.29	39590.16
541.46	39943.58
541.62	39880.39
541.79	39974.01
541.96	39835.92
542.13	39761.02
542.30	40535.74
542.47	40184.66
542.63	39917.84
542.80	39859.32
542.97	40545.10
543.14	40875.12
543.31	40285.30
543.48	40954.69
543.64	41031.93
543.81	40847.03
543.98	40755.75
544.15	40870.43
544.32	41155.98
544.48	41188.75
544.65	40926.61
544.82	41212.15
544.99	40678.51
545.16	40790.86
545.32	41006.19
545.49	41366.63
545.66	40774.47
545.83	41294.07
546.00	41771.54
546.16	41106.83
546.33	41020.23
546.50	41193.43
546.67	41184.07
546.83	41193.43
547.00	41181.73
547.17	41481.31
547.34	41380.67
547.50	41649.83
547.67	41769.20
547.84	41057.68
548.00	42146.03
548.17	41614.72
548.34	41495.36
548.51	42436.25
548.67	42361.36
548.84	41979.85
549.01	41647.49
549.18	42181.13
549.34	41961.12
549.51	41874.52
549.68	41949.42
549.84	42279.44
550.01	42337.95
550.18	41570.25
550.34	42122.62
550.51	41942.40
550.68	41670.90
550.84	41982.19
551.01	42401.14
551.18	42092.19
551.34	42153.05
551.51	42272.42
551.68	42382.42
551.84	42478.38
552.01	42120.28
552.18	42572.00
552.34	42225.60
552.51	42759.25
552.68	42469.02
552.84	42993.30
553.01	42665.63
553.18	42663.28
553.34	42417.53
553.51	42572.00
553.67	42625.84
553.84	42848.19
554.01	42817.76
554.17	42724.14
554.34	42927.77
554.51	43161.82
554.67	42740.52
554.84	43208.63
555.00	42602.43
555.17	42756.91
555.33	43009.68
555.50	42923.08
555.67	43342.04
555.83	43318.64
556.00	43131.39
556.16	43573.75
556.33	43320.98
556.50	43833.55
556.66	43220.33
556.83	42859.89
556.99	43433.32
557.16	43655.67
557.32	43557.37
557.49	43524.60
557.65	42761.59
557.82	43213.31
557.98	43014.37
558.15	43332.68
558.32	43505.88
558.48	43285.87
558.65	43416.94
558.81	43367.79
558.98	43274.16
559.14	43714.19
559.31	43412.26
559.47	43435.66
559.64	44179.95
559.80	44472.52
559.97	43817.17
560.13	43452.05
560.30	43601.84
560.46	43449.70
560.63	43903.77
560.79	43908.45
560.96	43966.96
561.12	43906.11
561.29	43648.65
561.45	44095.69
561.61	43803.13
561.78	44067.61
561.94	43613.54
562.11	43711.84
562.27	43655.67
562.44	43608.86
562.60	44114.42
562.77	43988.03
562.93	44114.42
563.10	44027.82
563.26	43423.96
563.42	44093.35
563.59	44060.58
563.75	43964.62
563.92	44147.18
564.08	43878.02
564.24	44184.63
564.41	44154.21
564.57	44212.72
564.74	44350.81
564.90	44006.75
565.07	44018.46
565.23	44123.78
565.39	43978.67
565.56	44062.93
565.72	43971.64
565.88	43826.53
566.05	44247.83
566.21	44343.79
566.38	44034.84
566.54	44397.62
566.70	44278.25
566.87	44608.27
567.03	44374.22
567.19	44395.28
567.36	44296.98
567.52	44598.91
567.68	44411.67
567.85	44065.27
568.01	44301.66
568.17	44388.26
568.34	44289.96
568.50	44266.55
568.66	44074.63
568.83	44065.27
568.99	44144.84
569.15	44498.26
569.32	44275.91
569.48	44065.27
569.64	44648.06
569.81	44493.58
569.97	44521.67
570.13	44399.96
570.30	44114.42
570.46	44378.90
570.62	44318.04
570.78	44154.21
570.95	43922.49
571.11	44388.26
571.27	44233.78
571.43	44580.18
571.60	44905.52
571.76	44577.84
571.92	44722.96
572.09	44559.12
572.25	44381.24
572.41	44566.14
572.57	44877.43
572.74	45418.10
572.90	44456.14
573.06	44678.49
573.22	45010.84
573.38	44502.95
573.55	44383.58
573.71	44584.86
573.87	44697.21
574.03	44566.14
574.20	44847.00
574.36	44673.81
574.52	44502.95
574.68	44402.30
574.84	44711.25
575.01	44793.17
575.17	44847.00
575.33	44495.92
575.49	44224.42
575.65	44641.04
575.82	44994.46
575.98	44830.62
576.14	44891.48
576.30	45048.29
576.46	44313.36
576.62	44524.01
576.79	44449.11
576.95	44133.14
577.11	43973.98
577.27	44994.46
577.43	45036.59
577.59	44903.18
577.75	44414.01
577.92	44542.74
578.08	44119.10
578.24	44020.80
578.40	44357.83
578.56	44102.71
578.72	44737.00
578.88	44786.15
579.04	44509.97
579.21	45001.48
579.37	44531.03
579.53	44680.83
579.69	44821.26
579.85	44903.18
580.01	45095.10
580.17	45038.93
580.33	45045.95
580.49	44863.39
580.65	44928.92
580.82	44601.25
580.98	44598.91
581.14	44664.44
581.30	45202.77
581.46	44542.74
581.62	45067.02
581.78	45102.12
581.94	45055.31
582.10	44610.61
582.26	45165.32
582.42	45113.83
582.58	45022.54
582.74	44577.84
582.90	44671.46
583.06	45427.46
583.22	45216.81
583.38	44989.78
583.54	44905.52
583.70	44734.66
583.86	44694.87
584.02	44449.11
584.18	45148.93
584.34	44692.53
584.50	44931.26
584.66	44563.80
584.82	44933.60
584.98	45064.67
585.14	44999.14
585.30	45151.27
585.46	45212.13
585.62	44385.92
585.78	44886.79
585.94	44854.03
586.10	44868.07
586.26	44580.18
586.42	44748.70
586.58	45237.87
586.74	45209.79
586.90	44835.30
587.06	44725.30
587.22	44896.16
587.38	44856.37
587.54	44938.29
587.70	45228.51
587.86	44872.75
588.02	45301.07
588.18	45390.01
588.34	44793.17
588.49	44432.73
588.65	44765.09
588.81	44491.24
588.97	44935.95
589.13	44758.06
589.29	44842.32
589.45	44753.38
589.61	44914.88
589.77	44992.12
589.93	44734.66
590.08	44928.92
590.24	45366.60
