SpectraSuite Data File
++++++++++++++++++++++++++++++++++++
Date: Fri Oct 25 10:44:14 EDT 2013
User: price-jones
Dark Spectrum Present: No
Reference Spectrum Present: No
Number of Sampled Component Spectra: 1
Spectrometers: USB2+H05261
Integration Time (usec): 100000 (USB2+H05261)
Spectra Averaged: 1 (USB2+H05261)
Boxcar Smoothing: 0 (USB2+H05261)
Correct for Electrical Dark: No (USB2+H05261)
Strobe/Lamp Enabled: No (USB2+H05261)
Correct for Detector Non-linearity: No (USB2+H05261)
Correct for Stray Light: No (USB2+H05261)
Number of Pixels in Processed Spectrum: 2048
>>>>>Begin Processed Spectral Data<<<<<
365.73	131.07
365.92	131.07
366.12	131.07
366.32	65.54
366.52	28.09
366.72	51.49
366.91	37.45
367.11	21.06
367.31	51.49
367.51	16.38
367.70	32.77
367.90	4.68
368.10	77.24
368.30	58.51
368.49	21.06
368.69	72.56
368.89	39.79
369.09	0.00
369.28	0.00
369.48	18.72
369.68	42.13
369.87	117.03
370.07	100.64
370.27	114.69
370.47	161.50
370.66	411.93
370.86	393.21
371.06	559.39
371.25	531.30
371.45	425.98
371.65	414.27
371.84	440.02
372.04	449.38
372.24	510.24
372.44	442.36
372.63	451.72
372.83	533.64
373.03	456.40
373.22	468.11
373.42	524.28
373.62	507.90
373.81	580.45
374.01	585.13
374.21	557.05
374.40	521.94
374.60	608.54
374.79	650.67
374.99	533.64
375.19	582.79
375.38	638.97
375.58	559.39
375.78	524.28
375.97	510.24
376.17	716.20
376.37	545.34
376.56	594.50
376.76	624.92
376.95	622.58
377.15	531.30
377.35	550.03
377.54	606.20
377.74	603.86
377.93	627.26
378.13	702.16
378.33	664.71
378.52	662.37
378.72	648.33
378.91	688.12
379.11	676.41
379.31	706.84
379.50	622.58
379.70	674.07
379.89	657.69
380.09	608.54
380.28	627.26
380.48	720.88
380.68	683.44
380.87	709.18
381.07	552.37
381.26	674.07
381.46	695.14
381.65	697.48
381.85	685.78
382.04	688.12
382.24	645.99
382.43	645.99
382.63	713.86
382.83	706.84
383.02	805.14
383.22	774.72
383.41	697.48
383.61	723.23
383.80	788.76
384.00	697.48
384.19	777.06
384.39	763.01
384.58	807.48
384.78	725.57
384.97	828.55
385.17	805.14
385.36	737.27
385.56	655.35
385.75	699.82
385.95	847.27
386.14	851.96
386.34	830.89
386.53	814.51
386.72	837.91
386.92	938.55
387.11	828.55
387.31	880.04
387.50	894.08
387.70	915.15
387.89	931.53
388.09	870.68
388.28	898.77
388.48	821.53
388.67	968.98
388.86	966.64
389.06	896.43
389.25	985.37
389.45	908.13
389.64	873.02
389.84	924.51
390.03	1015.79
390.22	980.68
390.42	1041.54
390.61	1015.79
390.81	1032.18
391.00	1013.45
391.19	1090.69
391.39	950.26
391.58	1006.43
391.78	1001.75
391.97	1050.90
392.16	1050.90
392.36	938.55
392.55	973.66
392.75	1048.56
392.94	910.47
393.13	1034.52
393.33	976.00
393.52	1015.79
393.71	1088.35
393.91	1137.50
394.10	1095.37
394.29	1163.25
394.49	1121.12
394.68	1259.21
394.88	1221.76
395.07	1331.76
395.26	1128.14
395.46	1214.74
395.65	1188.99
395.84	1214.74
396.04	1287.29
396.23	1165.59
396.42	1177.29
396.62	1198.35
396.81	1198.35
397.00	1226.44
397.19	1240.48
397.39	1273.25
397.58	1404.32
397.77	1322.40
397.97	1434.75
398.16	1458.15
398.35	1561.14
398.55	1542.41
398.74	1423.05
398.93	1535.39
399.12	1441.77
399.32	1434.75
399.51	1523.69
399.70	1605.61
399.90	1523.69
400.09	1589.22
400.28	1621.99
400.47	1551.78
400.67	1664.12
400.86	1661.78
401.05	1603.27
401.24	1629.01
401.44	1671.14
401.63	1661.78
401.82	1818.60
402.01	1666.46
402.21	1788.17
402.40	1781.15
402.59	1636.03
402.78	1638.38
402.97	1743.70
403.17	1771.79
403.36	1790.51
403.55	1797.53
403.74	1802.21
403.93	1879.45
404.13	1842.00
404.32	1905.20
404.51	1893.49
404.70	1926.26
404.89	1980.09
405.09	1954.35
405.28	1935.62
405.47	1902.86
405.66	1994.14
405.85	1973.07
406.05	1891.15
406.24	2054.99
406.43	1980.09
406.62	2118.18
406.81	2132.23
407.00	2094.78
407.20	1963.71
407.39	2083.08
407.58	2179.04
407.77	2113.50
407.96	2064.35
408.15	2239.89
408.34	2193.08
408.54	2235.21
408.73	2249.25
408.92	2265.64
409.11	2317.13
409.30	2232.87
409.49	2333.51
409.68	2298.41
409.87	2211.81
410.07	2291.38
410.26	2289.04
410.45	2260.96
410.64	2462.24
410.83	2328.83
411.02	2464.58
411.21	2609.70
411.40	2602.68
411.59	2691.62
411.78	2656.51
411.98	2663.53
412.17	2651.83
412.36	2602.68
412.55	2745.45
412.74	2679.91
412.93	2771.19
413.12	2560.55
413.31	2841.41
413.50	2747.79
413.69	2834.39
413.88	2911.63
414.07	2925.67
414.26	2935.03
414.45	3009.93
414.64	2998.23
414.83	3002.91
415.02	3040.36
415.22	3098.87
415.41	3255.69
415.60	3194.83
415.79	3129.30
415.98	3262.71
416.17	3260.37
416.36	3124.62
416.55	3297.81
416.74	3368.03
416.93	3288.45
417.12	3251.00
417.31	3255.69
417.50	3295.47
417.69	3524.85
417.88	3449.95
418.07	3351.65
418.26	3473.36
418.45	3447.61
418.64	3536.55
418.83	3559.95
419.02	3463.99
419.21	3599.74
419.39	3562.30
419.58	3585.70
419.77	3449.95
419.96	3599.74
420.15	3653.58
420.34	3705.07
420.53	3705.07
420.72	3770.60
420.91	3728.47
421.10	3826.78
421.29	3794.01
421.48	3758.90
421.67	3854.86
421.86	3691.02
422.05	3749.54
422.24	3770.60
422.43	3763.58
422.61	3756.56
422.80	4049.13
422.99	3953.16
423.18	3934.44
423.37	3943.80
423.56	3997.64
423.75	3798.69
423.94	3786.99
424.13	3655.92
424.32	3644.21
424.50	4011.68
424.69	3983.59
424.88	3985.93
425.07	3899.33
425.26	3960.19
425.45	3840.82
425.64	3761.24
425.83	3887.63
426.01	4154.45
426.20	4046.79
426.39	3981.25
426.58	3906.35
426.77	3829.12
426.96	4100.62
427.15	3852.52
427.33	4018.70
427.52	4161.47
427.71	4098.28
427.90	4109.98
428.09	4201.26
428.28	4117.00
428.46	4149.77
428.65	4227.01
428.84	4297.22
429.03	4252.75
429.22	4107.64
429.40	4152.11
429.59	4142.75
429.78	3960.19
429.97	3899.33
430.16	4042.11
430.34	4074.87
430.53	4201.26
430.72	4393.19
430.91	4135.73
431.10	4339.35
431.28	4486.81
431.47	4732.56
431.66	4685.75
431.85	4315.95
432.03	4678.73
432.22	4547.66
432.41	4627.24
432.60	4643.62
432.79	4557.02
432.97	4816.82
433.16	4739.58
433.35	4676.39
433.54	4627.24
433.72	4678.73
433.91	4713.84
434.10	4587.45
434.28	4629.58
434.47	4880.02
434.66	4873.00
434.85	4854.27
435.03	4882.36
435.22	4865.97
435.41	5179.61
435.59	5046.20
435.78	4987.68
435.97	5097.69
436.16	5102.37
436.34	5064.92
436.53	5238.12
436.72	5167.90
436.90	4961.94
437.09	5128.11
437.28	5195.99
437.46	5170.24
437.65	5151.52
437.84	5263.86
438.02	5116.41
438.21	5137.48
438.40	5111.73
438.58	5399.62
438.77	5453.45
438.96	5420.68
439.14	5575.16
439.33	5668.78
439.52	5722.61
439.70	5699.20
439.89	5671.12
440.08	5668.78
440.26	5762.40
440.45	5661.76
440.63	5877.09
440.82	5914.53
441.01	5907.51
441.19	5940.28
441.38	6134.54
441.57	6059.65
441.75	6253.91
441.94	6284.34
442.12	6246.89
442.31	6424.77
442.50	6209.44
442.68	6331.15
442.87	6221.14
443.05	6335.83
443.24	6258.59
443.43	6265.61
443.61	6387.32
443.80	6766.49
443.98	6368.60
444.17	6279.66
444.35	6675.21
444.54	6530.09
444.73	6640.10
444.91	6333.49
445.10	6626.06
445.28	6487.96
445.47	6310.08
445.65	6349.87
445.84	6576.91
446.02	6616.69
446.21	6401.37
446.39	6516.05
446.58	6796.92
446.77	6677.55
446.95	6637.76
447.14	6700.95
447.32	6827.34
447.51	6555.84
447.69	6583.93
447.88	6679.89
448.06	6836.70
448.25	6548.82
448.43	6679.89
448.62	6530.09
448.80	6803.94
448.99	6672.87
449.17	6808.62
449.36	6817.98
449.54	6890.54
449.73	7110.55
449.91	6960.75
450.10	7126.93
450.28	7246.30
450.46	7159.70
450.65	7061.40
450.83	7173.74
451.02	7030.97
451.20	7363.33
451.39	7190.13
451.57	7126.93
451.76	7318.86
451.94	7185.44
452.13	7047.35
452.31	7187.79
452.49	7063.74
452.68	7295.45
452.86	7140.97
453.05	7332.90
453.23	7330.56
453.42	7419.50
453.60	7145.66
453.78	7480.35
453.97	7377.37
454.15	7393.75
454.34	7723.77
454.52	7681.64
454.70	7611.42
454.89	7372.69
455.07	7545.89
455.26	7655.89
455.44	7681.64
455.62	7562.27
455.81	7756.54
455.99	7695.68
456.17	7777.60
456.36	7967.18
456.54	7981.23
456.73	7903.99
456.91	7964.84
457.09	7932.08
457.28	8166.13
457.46	8175.49
457.64	8072.51
457.83	8236.35
458.01	7880.58
458.19	8292.52
458.38	8243.37
458.56	8184.85
458.74	8297.20
458.93	8189.53
459.11	8248.05
459.29	8557.00
459.48	8369.76
459.66	8234.00
459.84	8425.93
460.03	8512.53
460.21	8425.93
460.39	8454.02
460.57	8557.00
460.76	8451.67
460.94	8676.37
461.12	8622.53
461.31	8430.61
461.49	8533.59
461.67	8835.52
461.85	8889.35
462.04	8596.79
462.22	8992.34
462.40	8718.50
462.59	8978.30
462.77	8964.25
462.95	9018.08
463.13	8788.71
463.32	8908.08
463.50	8994.68
463.68	9102.34
463.86	8746.58
464.05	8954.89
464.23	9022.77
464.41	9184.26
464.59	8753.60
464.78	9177.24
464.96	9156.18
465.14	9022.77
465.32	9401.93
465.50	9235.75
465.69	9451.08
465.87	9146.81
466.05	9011.06
466.23	8957.23
466.41	8980.64
466.60	9247.46
466.78	9034.47
466.96	9200.65
467.14	9296.61
467.32	9308.31
467.51	9465.13
467.69	9114.05
467.87	9614.92
468.05	9467.47
468.23	9437.04
468.41	9551.73
468.60	9504.92
468.78	9596.20
468.96	9509.60
469.14	9696.84
469.32	9694.50
469.50	9584.49
469.69	9680.46
469.87	9626.62
470.05	9769.40
470.23	9771.74
470.41	9834.93
470.59	9851.31
470.77	9778.76
470.95	9696.84
471.14	10029.20
471.32	9919.19
471.50	10246.87
471.68	10174.31
471.86	10312.40
472.04	10492.62
472.22	10471.56
472.40	10274.95
472.58	10384.96
472.77	10532.41
472.95	10501.98
473.13	10864.77
473.31	10597.95
473.49	10747.74
473.67	10523.05
473.85	10771.15
474.03	10827.32
474.21	10813.28
474.39	11103.50
474.57	11049.67
474.75	10972.43
474.93	11052.01
475.12	10904.56
475.30	11147.97
475.48	11218.19
475.66	11218.19
475.84	11288.40
476.02	11367.98
476.20	11281.38
476.38	11714.38
476.56	11845.45
476.74	12044.40
476.92	11529.48
477.10	12004.61
477.28	12175.47
477.46	11805.66
477.64	11988.22
477.82	12233.98
478.00	12360.37
478.18	12444.63
478.36	12634.21
478.54	12746.56
478.72	12795.71
478.90	12774.64
479.08	13158.49
479.26	13404.25
479.44	12936.14
479.62	13022.74
479.80	13177.22
479.98	13486.17
480.16	13525.96
480.34	13394.89
480.52	13755.33
480.70	13820.86
480.88	13582.13
481.06	13654.69
481.24	14085.34
481.41	14155.56
481.59	14420.04
481.77	14204.71
481.95	14401.32
482.13	14497.28
482.31	14642.39
482.49	14841.34
482.67	14803.89
482.85	15133.90
483.03	15241.57
483.21	15286.04
483.39	15414.77
483.57	15300.08
483.74	15337.53
483.92	15559.88
484.10	15454.56
484.28	16081.82
484.46	16212.89
484.64	16212.89
484.82	15985.86
485.00	15939.05
485.18	16306.51
485.35	16844.84
485.53	16198.85
485.71	16255.02
485.89	16575.67
486.07	16367.37
486.25	16411.84
486.43	16765.26
486.61	16980.59
486.78	17467.42
486.96	17259.11
487.14	17776.37
487.32	17495.50
487.50	17923.82
487.68	18216.39
487.85	18270.22
488.03	18448.10
488.21	18513.64
488.39	18410.65
488.57	18925.57
488.75	18724.29
488.92	19094.09
489.10	19473.26
489.28	19431.13
489.46	19704.97
489.64	19819.66
489.81	19985.83
489.99	20009.24
490.17	20072.43
490.35	20383.73
490.53	20212.87
490.70	20393.09
490.88	20159.03
491.06	20659.91
491.24	20826.09
491.41	20879.92
491.59	20596.71
491.77	20802.68
491.95	21123.33
492.13	21074.18
492.30	21312.92
492.48	21387.82
492.66	21867.63
492.84	22071.25
493.01	22223.39
493.19	22305.31
493.37	22106.36
493.54	22429.35
493.72	22405.95
493.90	23042.57
494.08	23070.66
494.25	22972.36
494.43	22911.50
494.61	23468.55
494.79	23225.14
494.96	23311.74
495.14	23522.38
495.32	23620.69
495.49	23763.46
495.67	23704.95
495.85	23943.68
496.02	24271.36
496.20	24301.78
496.38	24505.41
496.55	24411.79
496.73	24781.59
496.91	24795.64
497.09	24844.79
497.26	25221.61
497.44	25071.82
497.62	25256.72
497.79	25741.21
497.97	25144.38
498.14	25249.70
498.32	25530.56
498.50	25612.48
498.67	26185.91
498.85	25989.31
499.03	26017.40
499.20	26157.83
499.38	26230.38
499.56	26246.77
499.73	26424.65
499.91	26499.55
500.08	26263.15
500.26	26340.39
500.44	26696.15
500.61	26691.47
500.79	26082.93
500.97	26953.61
501.14	27108.08
501.32	27290.65
501.49	27211.07
501.67	26972.33
501.84	27346.82
502.02	27410.01
502.20	27534.06
502.37	27901.53
502.55	27943.66
502.72	28081.75
502.90	28170.69
503.07	27885.14
503.25	28105.15
503.43	28037.28
503.60	28271.33
503.78	28041.96
503.95	27971.74
504.13	28774.55
504.30	28627.09
504.48	28847.10
504.65	28561.56
504.83	29359.68
505.01	29280.10
505.18	29006.26
505.36	29467.34
505.53	29434.58
505.71	29333.93
505.88	29640.54
506.06	29502.45
506.23	29530.54
506.41	29275.42
506.58	29654.59
506.76	29486.07
506.93	29652.25
507.11	30075.88
507.28	29766.93
507.46	29736.51
507.63	30003.33
507.81	30071.20
507.98	30183.55
508.16	30555.69
508.33	30459.73
508.50	30663.36
508.68	31178.28
508.85	31218.07
509.03	30780.39
509.20	31332.75
509.38	31257.85
509.55	31145.51
509.73	31648.72
509.90	31658.09
510.08	31566.81
510.25	31189.98
510.42	31271.90
510.60	31428.71
510.77	31873.42
510.95	31997.46
511.12	31676.81
511.30	32060.66
511.47	32496.00
511.64	32395.35
511.82	32512.38
511.99	31695.53
512.17	32311.10
512.34	32327.48
512.51	32278.33
512.69	33104.54
512.86	32814.31
513.04	33041.34
513.21	33057.73
513.38	32931.34
513.56	32746.44
513.73	32601.32
513.90	33099.86
514.08	32938.36
514.25	33067.09
514.43	33027.30
514.60	33610.09
514.77	33462.64
514.95	33511.79
515.12	33474.34
515.29	33869.89
515.47	33881.60
515.64	34019.69
515.81	33663.93
515.99	33900.32
516.16	33991.60
516.33	33560.94
516.51	33680.31
516.68	33579.67
516.85	33326.89
517.03	33738.82
517.20	34232.68
517.37	33759.89
517.54	34504.18
517.72	34328.64
517.89	33799.68
518.06	34223.31
518.24	34286.51
518.41	34087.56
518.58	34455.03
518.75	34511.20
518.93	34948.88
519.10	34939.52
519.27	34888.03
519.45	35089.31
519.62	35526.99
519.79	35323.36
519.96	35435.71
520.14	35239.11
520.31	34932.50
520.48	35821.90
520.65	35482.52
520.83	35969.35
521.00	36191.70
521.17	35786.79
521.34	36116.81
521.52	36187.02
521.69	36334.48
521.86	36444.48
522.03	36065.31
522.20	36605.98
522.38	36428.10
522.55	36685.56
522.72	36381.29
522.89	36341.50
523.07	36840.03
523.24	36596.62
523.41	36842.37
523.58	36458.52
523.75	37134.94
523.92	37443.89
524.10	37757.52
524.27	37329.20
524.44	37261.33
524.61	37481.34
524.78	37165.37
524.96	37352.61
525.13	37462.61
525.30	37888.59
525.47	37867.53
525.64	37691.99
525.81	37621.77
525.98	37462.61
526.16	37425.17
526.33	37123.24
526.50	37820.72
526.67	37268.35
526.84	37074.09
527.01	37404.10
527.18	37790.29
527.36	38195.20
527.53	38712.46
527.70	38770.97
527.87	37998.60
528.04	38260.74
528.21	38595.43
528.38	38433.94
528.55	38913.75
528.72	38731.18
528.89	38820.13
529.07	38981.62
529.24	38747.57
529.41	39014.39
529.58	38384.79
529.75	38724.16
529.92	38885.66
530.09	39171.21
530.26	39143.12
530.43	39164.18
530.60	39086.95
530.77	38794.38
530.94	39541.01
531.11	39363.13
531.28	39400.58
531.46	39473.13
531.63	39489.52
531.80	39672.08
531.97	39494.20
532.14	39175.89
532.31	39108.01
532.48	39489.52
532.65	39585.48
532.82	39482.50
532.99	39519.95
533.16	39583.14
533.33	39913.16
533.50	39962.31
533.67	40100.40
533.84	39992.73
534.01	40233.81
534.18	40044.23
534.35	40079.33
534.52	40203.38
534.69	40453.82
534.86	40734.68
535.03	40217.43
535.20	40942.99
535.37	41064.70
535.54	40861.07
535.71	40699.58
535.88	40945.33
536.05	40966.40
536.22	40926.61
536.38	40601.27
536.55	40622.34
536.72	40945.33
536.89	40664.47
537.06	40910.22
537.23	41495.36
537.40	40945.33
537.57	41240.24
537.74	41352.58
537.91	41226.20
538.08	41652.17
538.25	41404.08
538.42	41312.80
538.59	41436.84
538.75	41284.71
538.92	41074.06
539.09	41383.01
539.26	41553.87
539.43	41516.42
539.60	41572.60
539.77	41668.56
539.94	41570.25
540.11	41441.53
540.28	41783.24
540.44	41675.58
540.61	41769.20
540.78	41558.55
540.95	41055.34
541.12	41610.04
541.29	41624.09
541.46	41563.23
541.62	41893.25
541.79	42134.32
541.96	41661.54
542.13	42204.54
542.30	42038.36
542.47	42101.56
542.63	41984.53
542.80	42410.51
542.97	42990.96
543.14	42948.83
543.31	42660.94
543.48	42532.22
543.64	42925.42
543.81	42813.08
543.98	42408.17
544.15	42499.45
544.32	43107.99
544.48	43159.48
544.65	42906.70
544.82	42703.07
544.99	42422.21
545.16	42586.05
545.32	42864.57
545.49	43168.84
545.66	43426.30
545.83	43145.44
546.00	43672.06
546.16	43449.70
546.33	42815.42
546.50	42969.90
546.67	43236.72
546.83	42803.72
547.00	42997.98
547.17	43234.38
547.34	43524.60
547.50	43555.03
547.67	43454.39
547.84	43950.58
548.00	43555.03
548.17	44069.95
548.34	43889.73
548.51	44032.50
548.67	43643.97
548.84	43943.56
549.01	44109.74
549.18	44074.63
549.34	43739.93
549.51	43976.33
549.68	44123.78
549.84	44060.58
550.01	44231.44
550.18	43889.73
550.34	43868.66
550.51	43978.67
550.68	44018.46
550.84	43402.89
551.01	44495.92
551.18	43840.57
551.34	44053.56
551.51	44540.39
551.68	44556.78
551.84	44341.45
552.01	44383.58
552.18	44388.26
552.34	44301.66
552.51	44641.04
552.68	44425.71
552.84	44385.92
553.01	44563.80
553.18	44540.39
553.34	44119.10
553.51	44339.11
553.67	44701.89
553.84	44823.60
554.01	44856.37
554.17	44692.53
554.34	45064.67
554.51	44535.71
554.67	44854.03
554.84	44610.61
555.00	44596.57
555.17	44542.74
555.33	44739.34
555.50	44982.76
555.67	44973.39
555.83	44619.97
556.00	44781.47
556.16	45315.11
556.33	45006.16
556.50	44610.61
556.66	44655.08
556.83	44535.71
556.99	45272.98
557.16	45415.76
557.32	44811.90
557.49	45427.46
557.65	44947.65
557.82	44725.30
557.98	45059.99
558.15	45317.45
558.32	45067.02
558.48	44865.73
558.65	44935.95
558.81	44898.50
558.98	45193.40
559.14	45043.61
559.31	45050.63
559.47	44989.78
559.64	45911.95
559.80	45776.20
559.97	45874.50
560.13	45001.48
560.30	45191.06
560.46	45057.65
560.63	45441.50
560.79	45624.06
560.96	45778.54
561.12	45347.88
561.29	45904.93
561.45	45291.71
561.61	45539.80
561.78	45326.81
561.94	45518.74
562.11	45041.27
562.27	45202.77
562.44	45258.94
562.60	45951.74
562.77	45820.67
562.93	45284.68
563.10	45984.51
563.26	45333.84
563.42	45476.61
563.59	45408.73
563.75	45577.25
563.92	46045.36
564.08	45654.49
564.24	46040.68
564.41	46036.00
564.57	45720.02
564.74	45689.60
564.90	45797.26
565.07	45563.21
565.23	45883.86
565.39	45855.78
565.56	45715.34
565.72	45338.52
565.88	45907.27
566.05	46050.04
566.21	45537.46
566.38	46192.81
566.54	45642.79
566.70	46080.47
566.87	46143.66
567.03	45621.72
567.19	46064.08
567.36	46335.59
567.52	45907.27
567.68	45989.19
567.85	45785.56
568.01	46033.66
568.17	45745.77
568.34	46064.08
568.50	46010.25
568.66	45968.12
568.83	45834.71
568.99	45670.87
569.15	45991.53
569.32	45357.24
569.48	45724.71
569.64	46220.90
569.81	46092.17
569.97	45862.80
570.13	46108.55
570.30	45977.48
570.46	45682.58
570.62	45778.54
570.78	45219.15
570.95	45614.70
571.11	45886.20
571.27	45914.29
571.43	45509.38
571.60	45925.99
571.76	45705.98
571.92	45940.04
572.09	45694.28
572.25	46117.92
572.41	46043.02
572.57	46213.88
572.74	46555.60
572.90	46117.92
573.06	46122.60
573.22	46452.61
573.38	46033.66
573.55	45872.16
573.71	46059.40
573.87	46363.67
574.03	45750.45
574.20	46085.15
574.36	45893.22
574.52	46248.99
574.68	46216.22
574.84	45888.54
575.01	46284.09
575.17	45954.08
575.33	45965.78
575.49	45612.36
575.65	46061.74
575.82	46206.86
575.98	46045.36
576.14	46649.22
576.30	46424.53
576.46	45881.52
576.62	46239.62
576.79	46052.38
576.95	45947.06
577.11	46213.88
577.27	46316.86
577.43	46209.20
577.59	46017.27
577.75	45855.78
577.92	45717.68
578.08	45869.82
578.24	45949.40
578.40	46265.37
578.56	46129.62
578.72	46026.63
578.88	46148.34
579.04	46347.29
579.21	45954.08
579.37	46131.96
579.53	46239.62
579.69	46396.44
579.85	45942.38
580.01	46518.15
580.17	46424.53
580.33	46195.15
580.49	46532.19
580.65	46197.49
580.82	46309.84
580.98	45911.95
581.14	45605.34
581.30	46518.15
581.46	46258.35
581.62	46260.69
581.78	46122.60
581.94	46300.48
582.10	46314.52
582.26	46581.34
582.42	46143.66
582.58	46476.02
582.74	46363.67
582.90	46251.33
583.06	46349.63
583.22	46176.43
583.38	46747.52
583.54	46698.37
583.70	46590.70
583.86	46291.12
584.02	46057.06
584.18	46241.96
584.34	46068.76
584.50	46209.20
584.66	45872.16
584.82	46440.91
584.98	46408.14
585.14	46820.08
585.30	45965.78
585.46	46536.87
585.62	46129.62
585.78	46298.14
585.94	45638.11
586.10	46209.20
586.26	46253.67
586.42	46660.92
586.58	46527.51
586.74	46515.81
586.90	46057.06
587.06	46089.83
587.22	46368.35
587.38	46047.70
587.54	46225.58
587.70	46377.72
587.86	46230.26
588.02	46595.38
588.18	46714.75
588.34	45729.39
588.49	46080.47
588.65	45514.06
588.81	45546.82
588.97	45916.63
589.13	45755.13
589.29	45792.58
589.45	46452.61
589.61	46106.21
589.77	46167.07
589.93	46148.34
