SpectraSuite Data File
++++++++++++++++++++++++++++++++++++
Date: Fri Oct 25 11:22:35 EDT 2013
User: price-jones
Dark Spectrum Present: No
Reference Spectrum Present: No
Number of Sampled Component Spectra: 1
Spectrometers: USB2+H05261
Integration Time (usec): 100000 (USB2+H05261)
Spectra Averaged: 1 (USB2+H05261)
Boxcar Smoothing: 0 (USB2+H05261)
Correct for Electrical Dark: No (USB2+H05261)
Strobe/Lamp Enabled: No (USB2+H05261)
Correct for Detector Non-linearity: No (USB2+H05261)
Correct for Stray Light: No (USB2+H05261)
Number of Pixels in Processed Spectrum: 2048
>>>>>Begin Processed Spectral Data<<<<<
365.73	217.67
365.92	217.67
366.12	217.67
366.32	175.54
366.52	63.19
366.72	149.79
366.91	60.85
367.11	173.20
367.31	72.56
367.51	84.26
367.70	135.75
367.90	84.26
368.10	119.37
368.30	121.71
368.49	156.82
368.69	161.50
368.89	44.47
369.09	142.77
369.28	135.75
369.48	142.77
369.68	182.56
369.87	131.07
370.07	182.56
370.27	271.50
370.47	362.78
370.66	557.05
370.86	594.50
371.06	690.46
371.25	662.37
371.45	596.84
371.65	667.05
371.84	720.88
372.04	758.33
372.24	774.72
372.44	688.12
372.63	678.76
372.83	723.23
373.03	741.95
373.22	739.61
373.42	730.25
373.62	805.14
373.81	784.08
374.01	765.36
374.21	788.76
374.40	755.99
374.60	882.38
374.79	863.66
374.99	802.80
375.19	772.38
375.38	854.30
375.58	819.19
375.78	823.87
375.97	915.15
376.17	887.06
376.37	903.45
376.56	901.11
376.76	931.53
376.95	849.61
377.15	903.45
377.35	903.45
377.54	880.04
377.74	863.66
377.93	919.83
378.13	863.66
378.33	940.90
378.52	933.87
378.72	959.62
378.91	922.17
379.11	912.81
379.31	915.15
379.50	894.08
379.70	945.58
379.89	842.59
380.09	868.34
380.28	987.71
380.48	980.68
380.68	945.58
380.87	922.17
381.07	940.90
381.26	985.37
381.46	992.39
381.65	961.96
381.85	1088.35
382.04	1090.69
382.24	1064.94
382.43	1114.10
382.63	994.73
382.83	1043.88
383.02	1116.44
383.22	1074.31
383.41	997.07
383.61	1029.84
383.80	1102.39
384.00	1111.75
384.19	1153.88
384.39	1069.62
384.58	1191.33
384.78	1102.39
384.97	1088.35
385.17	1142.18
385.36	1146.86
385.56	1179.63
385.75	1198.35
385.95	1198.35
386.14	1137.50
386.34	1196.01
386.53	1135.16
386.72	1160.91
386.92	1233.46
387.11	1247.51
387.31	1301.34
387.50	1203.04
387.70	1233.46
387.89	1231.12
388.09	1284.95
388.28	1242.82
388.48	1245.16
388.67	1261.55
388.86	1228.78
389.06	1362.19
389.25	1317.72
389.45	1235.80
389.64	1289.64
389.84	1357.51
390.03	1425.39
390.22	1441.77
390.42	1373.89
390.61	1404.32
390.81	1439.43
391.00	1411.34
391.19	1404.32
391.39	1514.33
391.58	1446.45
391.78	1465.18
391.97	1469.86
392.16	1392.62
392.36	1476.88
392.55	1551.78
392.75	1570.50
392.94	1521.35
393.13	1514.33
393.33	1528.37
393.52	1579.86
393.71	1603.27
393.91	1631.35
394.10	1554.12
394.29	1645.40
394.49	1636.03
394.68	1696.89
394.88	1659.44
395.07	1661.78
395.26	1612.63
395.46	1624.33
395.65	1687.53
395.84	1671.14
396.04	1811.57
396.23	1860.73
396.42	1720.29
396.62	1703.91
396.81	1806.89
397.00	1767.10
397.19	1734.34
397.39	1710.93
397.58	1846.68
397.77	1762.42
397.97	1856.04
398.16	1881.79
398.35	1930.94
398.55	1916.90
398.74	1884.13
398.93	2005.84
399.12	1905.20
399.32	1961.37
399.51	1973.07
399.70	1973.07
399.90	1944.99
400.09	2064.35
400.28	2036.27
400.47	2026.90
400.67	2085.42
400.86	2237.55
401.05	2120.53
401.24	2132.23
401.44	2076.06
401.63	2148.61
401.82	2176.70
402.01	2146.27
402.21	2125.21
402.40	2202.44
402.59	2193.08
402.78	2244.57
402.97	2277.34
403.17	2338.20
403.36	2228.19
403.55	2218.83
403.74	2375.64
403.93	2335.85
404.13	2448.20
404.32	2375.64
404.51	2499.69
404.70	2455.22
404.89	2473.95
405.09	2511.39
405.28	2377.98
405.47	2574.59
405.66	2511.39
405.85	2459.90
406.05	2551.18
406.24	2553.52
406.43	2581.61
406.62	2588.63
406.81	2825.03
407.00	2668.21
407.20	2686.94
407.39	2661.19
407.58	2693.96
407.77	2682.25
407.96	2698.64
408.15	2768.85
408.34	2710.34
408.54	2864.82
408.73	2799.28
408.92	2785.24
409.11	2839.07
409.30	2895.24
409.49	2825.03
409.68	2991.20
409.87	2953.76
410.07	3007.59
410.26	2960.78
410.45	3059.08
410.64	3047.38
410.83	3098.87
411.02	3103.55
411.21	3222.92
411.40	3169.09
411.59	3239.30
411.78	3332.92
411.98	3115.25
412.17	3173.77
412.36	3314.20
412.55	3318.88
412.74	3426.54
412.93	3426.54
413.12	3417.18
413.31	3618.47
413.50	3468.67
413.69	3452.29
413.88	3578.68
414.07	3756.56
414.26	3639.53
414.45	3749.54
414.64	3707.41
414.83	3765.92
415.02	3838.48
415.22	3955.51
415.41	3875.93
415.60	3880.61
415.79	4004.66
415.98	3920.40
416.17	3988.27
416.36	3941.46
416.55	4177.86
416.74	3997.64
416.93	4011.68
417.12	4109.98
417.31	4339.35
417.50	4241.05
417.69	4393.19
417.88	4402.55
418.07	4304.25
418.26	4196.58
418.45	4461.06
418.64	4383.82
418.83	4484.47
419.02	4344.03
419.21	4610.86
419.39	4440.00
419.58	4627.24
419.77	4510.21
419.96	4800.44
420.15	4634.26
420.34	4779.37
420.53	4545.32
420.72	4641.28
420.91	4805.12
421.10	4744.27
421.29	4821.50
421.48	4718.52
421.67	4805.12
421.86	4711.50
422.05	4725.54
422.24	4772.35
422.43	4891.72
422.61	5029.81
422.80	5076.62
422.99	5013.43
423.18	5046.20
423.37	5048.54
423.56	5008.75
423.75	5018.11
423.94	4854.27
424.13	4603.83
424.32	4854.27
424.50	4980.66
424.69	5228.76
424.88	5053.22
425.07	4959.60
425.26	4858.95
425.45	4975.98
425.64	4964.28
425.83	5060.24
426.01	5137.48
426.20	5008.75
426.39	5116.41
426.58	5116.41
426.77	5102.37
426.96	5221.74
427.15	5151.52
427.33	5341.10
427.52	5135.14
427.71	5188.97
427.90	5287.27
428.09	5416.00
428.28	5401.96
428.46	5504.94
428.65	5486.22
428.84	5570.48
429.03	5636.01
429.22	5317.70
429.40	5530.69
429.59	5516.64
429.78	5444.09
429.97	5362.17
430.16	5458.13
430.34	5650.05
430.53	5715.59
430.72	5708.57
430.91	5696.86
431.10	5647.71
431.28	5748.36
431.47	5902.83
431.66	5762.40
431.85	5921.56
432.03	5940.28
432.22	6143.91
432.41	6047.94
432.60	5951.98
432.79	5956.66
432.97	6127.52
433.16	5902.83
433.35	5905.17
433.54	6122.84
433.72	6113.48
433.91	6186.04
434.10	6026.88
434.28	6214.12
434.47	6263.27
434.66	6246.89
434.85	6298.38
435.03	6377.96
435.22	6382.64
435.41	6548.82
435.59	6452.86
435.78	6457.54
435.97	6408.39
436.16	6333.49
436.34	6555.84
436.53	6736.06
436.72	6869.47
436.90	6469.24
437.09	6719.68
437.28	6532.44
437.46	6616.69
437.65	6761.81
437.84	6857.77
438.02	6661.16
438.21	6799.26
438.40	6768.83
438.58	6986.50
438.77	7005.22
438.96	6951.39
439.14	7105.87
439.33	7185.44
439.52	7304.81
439.70	7213.53
439.89	7225.23
440.08	7440.56
440.26	7445.24
440.45	7435.88
440.63	7538.87
440.82	7578.65
441.01	7480.35
441.19	7644.19
441.38	7843.14
441.57	7920.37
441.75	7840.79
441.94	7878.24
442.12	8044.42
442.31	8112.30
442.50	8152.09
442.68	8058.46
442.87	7971.86
443.05	8313.58
443.24	8325.29
443.43	8372.10
443.61	8215.28
443.80	8327.63
443.98	8023.36
444.17	7976.55
444.35	8311.24
444.54	8545.30
444.73	8397.84
444.91	8283.16
445.10	8393.16
445.28	8512.53
445.47	8264.43
445.65	8442.31
445.84	8564.02
446.02	8500.83
446.21	8566.36
446.39	8493.80
446.58	8479.76
446.77	8519.55
446.95	8241.03
447.14	8580.40
447.32	8784.03
447.51	8610.83
447.69	8353.37
447.88	8510.19
448.06	8505.51
448.25	8645.94
448.43	8690.41
448.62	8587.43
448.80	8622.53
448.99	8671.68
449.17	8833.18
449.36	8713.81
449.54	8835.52
449.73	9050.85
449.91	8994.68
450.10	8973.61
450.28	9102.34
450.46	9104.68
450.65	9128.09
450.83	9217.03
451.02	9109.36
451.20	9071.92
451.39	9006.38
451.57	9221.71
451.76	9034.47
451.94	9308.31
452.13	9226.39
452.31	9312.99
452.49	9158.52
452.68	9474.49
452.86	9551.73
453.05	9392.57
453.23	9720.24
453.42	9465.13
453.60	9497.89
453.78	9598.54
453.97	9525.98
454.15	9682.80
454.34	9628.96
454.52	9760.03
454.70	9713.22
454.89	9947.28
455.07	9830.25
455.26	9907.49
455.44	9886.42
455.62	10104.09
455.81	9991.75
455.99	10071.33
456.17	9958.98
456.36	10052.60
456.54	10401.34
456.73	10459.85
456.91	10661.14
457.09	10305.38
457.28	10640.08
457.46	10539.43
457.64	10773.49
457.83	10663.48
458.01	10700.93
458.19	10827.32
458.38	10679.86
458.56	10944.34
458.74	10780.51
458.93	10885.83
459.11	10874.13
459.29	10885.83
459.48	10967.75
459.66	10949.03
459.84	10988.82
460.03	11061.37
460.21	11101.16
460.39	11129.25
460.57	11014.56
460.76	11178.40
460.94	11328.19
461.12	11222.87
461.31	11248.61
461.49	11288.40
461.67	11239.25
461.85	11573.95
462.04	11386.71
462.22	12077.16
462.40	11707.36
462.59	11728.42
462.77	11527.14
462.95	11501.39
463.13	11763.53
463.32	11672.25
463.50	11864.18
463.68	12074.82
463.86	12149.72
464.05	11896.94
464.23	11749.49
464.41	11946.09
464.59	11889.92
464.78	12257.39
464.96	12042.06
465.14	11997.59
465.32	12049.08
465.50	12219.94
465.69	12222.28
465.87	12444.63
466.05	12079.50
466.23	12339.30
466.41	12322.92
466.60	12491.44
466.78	12182.49
466.96	12248.02
467.14	12280.79
467.32	12479.74
467.51	12475.06
467.69	12210.57
467.87	12538.25
468.05	12538.25
468.23	12592.08
468.41	12847.20
468.60	12840.18
468.78	12847.20
468.96	12854.22
469.14	12781.67
469.32	13156.15
469.50	12844.86
469.69	13177.22
469.87	13226.37
470.05	13408.93
470.23	13341.05
470.41	13261.48
470.59	13242.75
470.77	13348.08
470.95	13509.57
471.14	13748.31
471.32	13341.05
471.50	13830.23
471.68	13685.11
471.86	13586.81
472.04	13944.91
472.22	14363.87
472.40	13991.72
472.58	14029.17
472.77	14218.75
472.95	14317.06
473.13	14551.11
473.31	14146.20
473.49	14164.92
473.67	14567.49
473.85	14693.88
474.03	14703.25
474.21	14665.80
474.39	14752.40
474.57	14916.23
474.75	15002.83
474.93	15176.03
475.12	15112.84
475.30	15040.28
475.48	15293.06
475.66	15480.30
475.84	15342.21
476.02	15566.90
476.20	15592.65
476.38	15704.99
476.56	16222.25
476.74	15955.43
476.92	16189.49
477.10	15957.77
477.28	16358.00
477.46	16416.52
477.64	16610.78
477.82	17085.91
478.00	17036.76
478.18	16837.81
478.36	17069.53
478.54	17270.81
478.72	17645.30
478.90	17518.91
479.08	17823.18
479.26	17813.82
479.44	17972.97
479.62	18207.03
479.80	17928.50
479.98	18293.63
480.16	18515.98
480.34	18188.30
480.52	18588.53
480.70	18958.34
480.88	18548.75
481.06	19267.29
481.24	19168.99
481.41	19108.13
481.59	19360.91
481.77	19674.54
481.95	19988.18
482.13	19756.46
482.31	20081.80
482.49	20283.08
482.67	20458.62
482.85	20627.14
483.03	20774.60
483.21	20877.58
483.39	21135.04
483.57	21109.29
483.74	21500.16
483.92	21645.27
484.10	21766.98
484.28	21905.07
484.46	22185.94
484.64	22670.43
484.82	22354.46
485.00	22462.12
485.18	22562.76
485.35	23082.36
485.53	23185.35
485.71	23323.44
485.89	23686.22
486.07	23679.20
486.25	23597.28
486.43	23847.72
486.61	23861.76
486.78	24570.94
486.96	24357.96
487.14	24844.79
487.32	24821.38
487.50	25312.89
487.68	25104.59
487.85	25565.67
488.03	25879.30
488.21	26129.74
488.39	26029.10
488.57	26190.59
488.75	26319.32
488.92	26576.78
489.10	26562.74
489.28	26937.23
489.46	27339.80
489.64	26995.74
489.81	27775.14
489.99	28276.01
490.17	27859.40
490.35	28371.97
490.53	27866.42
490.70	28847.10
490.88	28645.82
491.06	29092.86
491.24	29289.46
491.41	29151.37
491.59	29493.09
491.77	29455.64
491.95	29935.45
492.13	29858.21
492.30	30726.55
492.48	30323.98
492.66	30403.56
492.84	30731.23
493.01	30925.50
493.19	31138.49
493.37	31122.10
493.54	31686.17
493.72	32173.00
493.90	31819.58
494.08	32215.13
494.25	32577.92
494.43	32409.40
494.61	32718.35
494.79	32886.87
494.96	32837.72
495.14	33481.36
495.32	33429.87
495.49	33670.95
495.67	33205.18
495.85	33851.17
496.02	34017.35
496.20	34660.99
496.38	34340.34
496.55	34576.73
496.73	34785.04
496.91	35117.40
497.09	35122.08
497.26	34944.20
497.44	35374.86
497.62	35550.40
497.79	36346.18
497.97	35943.61
498.14	36233.83
498.32	36275.96
498.50	36636.41
498.67	36758.11
498.85	36486.61
499.03	37406.44
499.20	36858.76
499.38	37191.11
499.56	37720.07
499.73	37736.46
499.91	38010.30
500.08	37811.35
500.26	37677.94
500.44	38110.94
500.61	38211.59
500.79	37975.19
500.97	38445.64
501.14	38775.66
501.32	38855.23
501.49	39138.44
501.67	39110.35
501.84	39304.62
502.02	39391.22
502.20	38810.76
502.37	39873.37
502.55	39337.38
502.72	39983.37
502.90	39674.42
503.07	39966.99
503.25	40271.26
503.43	40364.88
503.60	40594.25
503.78	40467.86
503.95	40643.40
504.13	41038.95
504.30	40914.90
504.48	40851.71
504.65	41249.60
504.83	41614.72
505.01	41134.92
505.18	41448.55
505.36	42181.13
505.53	42064.11
505.71	41846.44
505.88	42567.32
506.06	41888.57
506.23	42572.00
506.41	42351.99
506.58	43040.11
506.76	42848.19
506.93	43000.32
507.11	42623.50
507.28	42948.83
507.46	43454.39
507.63	43171.18
507.81	43681.42
507.98	43274.16
508.16	43641.63
508.33	43543.33
508.50	43840.57
508.68	44203.36
508.85	44240.81
509.03	43878.02
509.20	44531.03
509.38	44952.33
509.55	44924.24
509.73	44978.07
509.90	45078.72
510.08	44659.76
510.25	44924.24
510.42	44526.35
510.60	45516.40
510.77	45923.65
510.95	45890.88
511.12	45287.03
511.30	45474.27
511.47	45434.48
511.64	46218.56
511.82	45815.99
511.99	46057.06
512.17	46717.09
512.34	46050.04
512.51	46548.57
512.69	46899.65
512.86	46787.31
513.04	46791.99
513.21	47224.99
513.38	46906.68
513.56	47461.38
513.73	46990.94
513.90	47437.98
514.08	47222.65
514.25	47683.73
514.43	47737.57
514.60	48168.22
514.77	48062.90
514.95	47922.47
515.12	48257.17
515.29	48236.10
515.47	48182.27
515.64	48453.77
515.81	48685.48
515.99	48486.54
516.16	48795.49
516.33	48554.41
516.51	48875.07
516.68	48992.09
516.85	48882.09
517.03	48978.05
517.20	49366.58
517.37	49268.28
517.54	49469.56
517.72	49326.79
517.89	49560.84
518.06	49621.70
518.24	49111.46
518.41	49743.41
518.58	49811.28
518.75	49373.60
518.93	50178.75
519.10	49785.54
519.27	50246.62
519.45	49794.90
519.62	50113.21
519.79	50562.59
519.96	50314.50
520.14	50553.23
520.31	50487.70
520.48	50698.34
520.65	50955.80
520.83	51178.15
521.00	51178.15
521.17	51297.52
521.34	50880.91
521.52	50988.57
521.69	51084.53
521.86	51316.25
522.03	51255.39
522.20	51880.31
522.38	51957.55
522.55	51707.12
522.72	51599.45
522.89	51613.49
523.07	52093.30
523.24	51590.09
523.41	52238.42
523.58	51995.00
523.75	52119.05
523.92	52123.73
524.10	52158.84
524.27	52301.61
524.44	52488.85
524.61	52603.54
524.78	52594.18
524.96	52294.59
525.13	52814.19
525.30	52879.72
525.47	52758.02
525.64	52743.97
525.81	53064.63
525.98	53041.22
526.16	52898.45
526.33	53261.23
526.50	53279.96
526.67	53059.94
526.84	53364.21
527.01	53263.57
527.18	53270.59
527.36	53396.98
527.53	53176.97
527.70	53806.58
527.87	53322.08
528.04	53153.57
528.21	53762.11
528.38	53614.65
528.55	53897.86
528.72	53918.92
528.89	53834.66
529.07	53848.71
529.24	53705.93
529.41	54010.20
529.58	53806.58
529.75	54045.31
529.92	54148.29
530.09	54134.25
530.26	54365.96
530.43	54258.30
530.60	54035.95
530.77	54277.02
530.94	54506.40
531.11	54398.73
531.28	54326.17
531.46	54550.87
531.63	54761.51
531.80	54295.75
531.97	54857.48
532.14	54803.64
532.31	54883.22
532.48	55140.68
532.65	54993.23
532.82	54621.08
532.99	54979.18
533.16	54951.10
533.33	55374.73
533.50	55292.82
533.67	54962.80
533.84	54962.80
534.01	55189.83
534.18	55182.81
534.35	55695.39
534.52	55391.12
534.69	55501.12
534.86	55657.94
535.03	55384.10
535.20	55505.80
535.37	55430.91
535.54	55498.78
535.71	55611.13
535.88	55428.57
536.05	55756.24
536.22	55629.85
536.38	56058.17
536.55	55873.27
536.72	56030.08
536.89	55870.93
537.06	55777.31
537.23	56074.55
537.40	55655.60
537.57	56233.71
537.74	56093.28
537.91	56222.01
538.08	56222.01
538.25	55899.01
538.42	56289.88
538.59	56282.86
538.75	56247.75
538.92	56310.95
539.09	56362.44
539.26	56233.71
539.43	56371.80
539.60	56500.53
539.77	56364.78
539.94	56767.35
540.11	56821.19
540.28	56643.30
540.44	56683.09
540.61	56804.80
540.78	56722.88
540.95	56786.08
541.12	56870.34
541.29	56882.04
541.46	56825.87
541.62	56725.22
541.79	57092.69
541.96	56753.31
542.13	56842.25
542.30	56966.30
542.47	57261.21
542.63	57354.83
542.80	57228.44
542.97	57195.67
543.14	57277.59
543.31	57357.17
543.48	57469.51
543.64	57717.61
543.81	57439.09
543.98	57542.07
544.15	57642.71
544.32	57556.11
544.48	57783.15
544.65	57846.34
544.82	57467.17
544.99	57521.01
545.16	57705.91
545.32	57687.18
545.49	58035.92
545.66	58040.60
545.83	57932.94
546.00	58117.84
546.16	57925.92
546.33	57836.98
546.50	57790.17
546.67	57996.13
546.83	57867.40
547.00	58122.52
547.17	58035.92
547.34	58094.44
547.50	58092.10
547.67	58431.47
547.84	58410.41
548.00	58450.20
548.17	58660.85
548.34	58272.32
548.51	58632.76
548.67	58471.26
548.84	58326.15
549.01	58183.38
549.18	58412.75
549.34	58461.90
549.51	58592.97
549.68	58637.44
549.84	58644.46
550.01	58529.78
550.18	58550.84
550.34	58897.24
550.51	58855.11
550.68	58599.99
550.84	58480.63
551.01	58820.00
551.18	58841.07
551.34	58869.15
551.51	58864.47
551.68	58810.64
551.84	58820.00
552.01	58581.27
552.18	58859.79
552.34	58831.71
552.51	58798.94
552.68	58862.13
552.84	58913.62
553.01	59089.16
553.18	59077.46
553.34	59208.53
553.51	58979.16
553.67	58976.82
553.84	59159.38
554.01	59135.98
554.17	59164.06
554.34	59119.59
554.51	59255.34
554.67	59276.41
554.84	59433.22
555.00	59255.34
555.17	59103.21
555.33	59274.07
555.50	59201.51
555.67	59203.85
555.83	59180.45
556.00	59423.86
556.16	59625.15
556.33	59433.22
556.50	59760.90
556.66	59810.05
556.83	59323.22
556.99	59676.64
557.16	59643.87
557.32	59751.54
557.49	59711.75
557.65	59634.51
557.82	59690.68
557.98	59714.09
558.15	59538.55
558.32	59704.73
558.48	59496.42
558.65	59683.66
558.81	59962.18
558.98	60046.44
559.14	59796.01
559.31	59791.33
559.47	59945.80
559.64	59831.11
559.80	59973.89
559.97	60037.08
560.13	59868.56
560.30	59880.27
560.46	60023.04
560.63	59980.91
560.79	60006.65
560.96	60182.19
561.12	60093.25
561.29	60123.68
561.45	59973.89
561.61	60097.94
561.78	60032.40
561.94	59980.91
562.11	59980.91
562.27	60210.28
562.44	60324.97
562.60	60296.88
562.77	60027.72
562.93	59948.14
563.10	60282.84
563.26	60121.34
563.42	60493.49
563.59	60336.67
563.75	60205.60
563.92	60156.45
564.08	60212.62
564.24	60388.16
564.41	60231.35
564.57	60341.35
564.74	60350.71
564.90	60364.76
565.07	60509.87
565.23	60439.65
565.39	60306.24
565.56	60360.08
565.72	60512.21
565.88	60474.76
566.05	60383.48
566.21	60336.67
566.38	60474.76
566.54	60488.80
566.70	60741.58
566.87	60715.84
567.03	60369.44
567.19	60629.24
567.36	60612.85
567.52	60669.03
567.68	60823.50
567.85	60624.56
568.01	60523.91
568.17	60622.22
568.34	60645.62
568.50	60704.13
568.66	60741.58
568.83	60505.19
568.99	60589.45
569.15	60713.50
569.32	60713.50
569.48	60423.27
569.64	60624.56
569.81	60729.88
569.97	60601.15
570.13	60764.99
570.30	60626.90
570.46	60657.32
570.62	60846.91
570.78	60734.56
570.95	60898.40
571.11	60879.67
571.27	60844.57
571.43	60959.25
571.60	60989.68
571.76	61013.08
571.92	60947.55
572.09	60851.59
572.25	60863.29
572.41	60624.56
572.57	60963.93
572.74	60952.23
572.90	60779.03
573.06	60687.75
573.22	60769.67
573.38	60790.73
573.55	60839.89
573.71	60977.98
573.87	60767.33
574.03	60945.21
574.20	60980.32
574.36	60846.91
574.52	60945.21
574.68	60903.08
574.84	61106.71
575.01	61071.60
575.17	61085.64
575.33	61050.53
575.49	60982.66
575.65	61097.34
575.82	61123.09
575.98	60947.55
576.14	61219.05
576.30	61052.87
576.46	61013.08
576.62	60856.27
576.79	61127.77
576.95	60945.21
577.11	61120.75
577.27	61062.24
577.43	61216.71
577.59	60947.55
577.75	61006.06
577.92	61272.88
578.08	61052.87
578.24	61118.41
578.40	61050.53
578.56	61385.23
578.72	61167.56
578.88	61038.83
579.04	61102.03
579.21	61059.90
579.37	61179.26
579.53	61106.71
579.69	60940.53
579.85	61104.37
580.01	61165.22
580.17	61010.74
580.33	61146.50
580.49	61212.03
580.65	61116.07
580.82	60973.30
580.98	60903.08
581.14	61057.56
581.30	61144.16
581.46	61083.30
581.62	61167.56
581.78	61223.73
581.94	61123.09
582.10	61069.26
582.26	61230.75
582.42	61073.94
582.58	61162.88
582.74	61104.37
582.90	61226.07
583.06	61275.22
583.22	61134.79
583.38	61268.20
583.54	61261.18
583.70	61272.88
583.86	61350.12
584.02	61228.41
584.18	61153.52
584.34	61340.76
584.50	61347.78
584.66	61141.81
584.82	61008.40
584.98	61244.80
585.14	61319.70
585.30	61015.43
585.46	61312.67
585.62	61197.99
585.78	61399.27
585.94	61162.88
586.10	61027.13
586.26	61296.29
586.42	61244.80
586.58	61446.08
586.74	61378.21
586.90	61090.32
587.06	61174.58
587.22	61277.57
587.38	61340.76
587.54	61502.26
587.70	61345.44
587.86	61256.50
588.02	61399.27
588.18	61446.08
588.34	61462.47
588.49	61345.44
