SpectraSuite Data File
++++++++++++++++++++++++++++++++++++
Date: Fri Oct 25 10:47:39 EDT 2013
User: price-jones
Dark Spectrum Present: No
Reference Spectrum Present: No
Number of Sampled Component Spectra: 1
Spectrometers: USB2+H05261
Integration Time (usec): 100000 (USB2+H05261)
Spectra Averaged: 1 (USB2+H05261)
Boxcar Smoothing: 0 (USB2+H05261)
Correct for Electrical Dark: No (USB2+H05261)
Strobe/Lamp Enabled: No (USB2+H05261)
Correct for Detector Non-linearity: No (USB2+H05261)
Correct for Stray Light: No (USB2+H05261)
Number of Pixels in Processed Spectrum: 2048
>>>>>Begin Processed Spectral Data<<<<<
365.73	163.84
365.92	163.84
366.12	163.84
366.32	110.01
366.52	2.34
366.72	42.13
366.91	0.00
367.11	49.15
367.31	74.90
367.51	51.49
367.70	72.56
367.90	23.41
368.10	53.83
368.30	4.68
368.49	0.00
368.69	65.54
368.89	39.79
369.09	102.98
369.28	51.49
369.48	18.72
369.68	124.05
369.87	147.45
370.07	191.92
370.27	51.49
370.47	205.97
370.66	344.06
370.86	386.19
371.06	484.49
371.25	423.64
371.45	475.13
371.65	435.34
371.84	395.55
372.04	479.81
372.24	477.47
372.44	458.74
372.63	557.05
372.83	540.66
373.03	505.56
373.22	397.89
373.42	423.64
373.62	568.75
373.81	465.77
374.01	571.09
374.21	596.84
374.40	550.03
374.60	608.54
374.79	550.03
374.99	526.62
375.19	585.13
375.38	603.86
375.58	603.86
375.78	510.24
375.97	599.18
376.17	641.31
376.37	571.09
376.56	634.29
376.76	463.43
376.95	655.35
377.15	568.75
377.35	667.05
377.54	599.18
377.74	660.03
377.93	683.44
378.13	596.84
378.33	629.60
378.52	596.84
378.72	617.90
378.91	713.86
379.11	690.46
379.31	636.63
379.50	641.31
379.70	657.69
379.89	662.37
380.09	678.76
380.28	669.39
380.48	683.44
380.68	641.31
380.87	655.35
381.07	657.69
381.26	732.59
381.46	699.82
381.65	676.41
381.85	568.75
382.04	655.35
382.24	713.86
382.43	631.94
382.63	695.14
382.83	662.37
383.02	716.20
383.22	704.50
383.41	678.76
383.61	699.82
383.80	746.63
384.00	755.99
384.19	772.38
384.39	765.36
384.58	753.65
384.78	781.74
384.97	781.74
385.17	734.93
385.36	716.20
385.56	882.38
385.75	765.36
385.95	833.23
386.14	758.33
386.34	772.38
386.53	809.83
386.72	842.59
386.92	795.78
387.11	854.30
387.31	847.27
387.50	861.32
387.70	784.08
387.89	875.36
388.09	875.36
388.28	873.02
388.48	842.59
388.67	933.87
388.86	901.11
389.06	898.77
389.25	833.23
389.45	929.19
389.64	894.08
389.84	873.02
390.03	1036.86
390.22	1039.20
390.42	1029.84
390.61	940.90
390.81	1001.75
391.00	954.94
391.19	1015.79
391.39	985.37
391.58	901.11
391.78	938.55
391.97	1011.11
392.16	936.21
392.36	1027.50
392.55	945.58
392.75	1020.47
392.94	983.02
393.13	1011.11
393.33	964.30
393.52	1034.52
393.71	997.07
393.91	1001.75
394.10	1013.45
394.29	1029.84
394.49	1062.60
394.68	1069.62
394.88	1086.01
395.07	1207.72
395.26	1135.16
395.46	1179.63
395.65	1228.78
395.84	1088.35
396.04	1191.33
396.23	1102.39
396.42	1172.61
396.62	1151.54
396.81	1135.16
397.00	1181.97
397.19	1132.82
397.39	1277.93
397.58	1238.14
397.77	1235.80
397.97	1324.74
398.16	1268.57
398.35	1263.89
398.55	1306.02
398.74	1287.29
398.93	1387.94
399.12	1401.98
399.32	1266.23
399.51	1310.70
399.70	1392.62
399.90	1385.60
400.09	1315.38
400.28	1472.20
400.47	1392.62
400.67	1600.93
400.86	1493.26
401.05	1460.49
401.24	1526.03
401.44	1483.90
401.63	1507.30
401.82	1565.82
402.01	1432.41
402.21	1584.54
402.40	1458.15
402.59	1570.50
402.78	1519.01
402.97	1699.23
403.17	1720.29
403.36	1629.01
403.55	1584.54
403.74	1657.10
403.93	1799.87
404.13	1736.68
404.32	1736.68
404.51	1671.14
404.70	1809.23
404.89	1685.19
405.09	1792.85
405.28	1746.04
405.47	1771.79
405.66	1802.21
405.85	1881.79
406.05	1792.85
406.24	1732.00
406.43	1771.79
406.62	1734.34
406.81	1867.75
407.00	1937.96
407.20	1830.30
407.39	1926.26
407.58	2012.86
407.77	1959.03
407.96	2022.22
408.15	1984.77
408.34	2050.31
408.54	2050.31
408.73	2045.63
408.92	2078.40
409.11	2104.14
409.30	2099.46
409.49	2179.04
409.68	2148.61
409.87	2090.10
410.07	2155.63
410.26	2113.50
410.45	2249.25
410.64	2087.76
410.83	2258.62
411.02	2277.34
411.21	2328.83
411.40	2366.28
411.59	2338.20
411.78	2396.71
411.98	2296.07
412.17	2359.26
412.36	2270.32
412.55	2375.64
412.74	2413.09
412.93	2471.61
413.12	2548.84
413.31	2593.31
413.50	2469.27
413.69	2628.42
413.88	2696.30
414.07	2586.29
414.26	2668.21
414.45	2621.40
414.64	2733.75
414.83	2630.76
415.02	2750.13
415.22	2846.09
415.41	2794.60
415.60	2834.39
415.79	2909.29
415.98	2895.24
416.17	2923.33
416.36	2923.33
416.55	3016.95
416.74	2984.18
416.93	2998.23
417.12	3023.97
417.31	2946.73
417.50	3075.46
417.69	3234.62
417.88	3141.00
418.07	3052.06
418.26	3164.40
418.45	3143.34
418.64	3288.45
418.83	3166.74
419.02	3169.09
419.21	3281.43
419.39	3206.53
419.58	3199.51
419.77	3274.41
419.96	3342.28
420.15	3363.35
420.34	3286.11
420.53	3412.50
420.72	3417.18
420.91	3459.31
421.10	3424.20
421.29	3487.40
421.48	3393.78
421.67	3513.14
421.86	3445.27
422.05	3478.04
422.24	3508.46
422.43	3485.06
422.61	3489.74
422.80	3503.78
422.99	3595.06
423.18	3529.53
423.37	3545.91
423.56	3611.45
423.75	3468.67
423.94	3527.19
424.13	3487.40
424.32	3391.44
424.50	3611.45
424.69	3662.94
424.88	3705.07
425.07	3597.40
425.26	3590.38
425.45	3672.30
425.64	3658.26
425.83	3527.19
426.01	3637.19
426.20	3545.91
426.39	3644.21
426.58	3630.17
426.77	3684.00
426.96	3712.09
427.15	3702.73
427.33	3611.45
427.52	3707.41
427.71	3763.58
427.90	3763.58
428.09	3742.52
428.28	3805.71
428.46	3784.65
428.65	3871.25
428.84	3822.09
429.03	3922.74
429.22	3632.51
429.40	3784.65
429.59	3833.80
429.78	3625.49
429.97	3623.15
430.16	3786.99
430.34	3836.14
430.53	3948.48
430.72	3878.27
430.91	4004.66
431.10	3992.95
431.28	4201.26
431.47	4219.99
431.66	4290.20
431.85	4077.21
432.03	4105.30
432.22	4245.73
432.41	4135.73
432.60	4227.01
432.79	4337.01
432.97	4498.51
433.16	4248.07
433.35	4234.03
433.54	4334.67
433.72	4299.56
433.91	4365.10
434.10	4229.35
434.28	4388.50
434.47	4236.37
434.66	4547.66
434.85	4493.83
435.03	4451.70
435.22	4472.76
435.41	4699.80
435.59	4580.43
435.78	4695.11
435.97	4709.16
436.16	4685.75
436.34	4568.73
436.53	4622.56
436.72	4816.82
436.90	4603.83
437.09	4678.73
437.28	4709.16
437.46	4720.86
437.65	4699.80
437.84	4681.07
438.02	4814.48
438.21	4905.76
438.40	4711.50
438.58	4910.44
438.77	4924.49
438.96	5022.79
439.14	5121.09
439.33	5060.24
439.52	4999.38
439.70	5083.64
439.89	5172.58
440.08	5219.39
440.26	5228.76
440.45	5310.68
440.63	5408.98
440.82	5329.40
441.01	5455.79
441.19	5544.73
441.38	5558.77
441.57	5568.13
441.75	5659.42
441.94	5825.59
442.12	5495.58
442.31	5797.51
442.50	5689.84
442.68	5645.37
442.87	5820.91
443.05	5724.95
443.24	5907.51
443.43	5748.36
443.61	5987.09
443.80	5989.43
443.98	5970.71
444.17	5708.57
444.35	5933.26
444.54	6139.23
444.73	5846.66
444.91	6001.13
445.10	5872.40
445.28	5923.90
445.47	5877.09
445.65	5844.32
445.84	5823.25
446.02	6057.31
446.21	5884.11
446.39	5799.85
446.58	6019.86
446.77	5977.73
446.95	6010.50
447.14	6045.60
447.32	6061.99
447.51	6134.54
447.69	6085.39
447.88	6132.20
448.06	5902.83
448.25	6232.85
448.43	6155.61
448.62	6127.52
448.80	5940.28
448.99	6338.17
449.17	6347.53
449.36	6272.64
449.54	6476.26
449.73	6438.81
449.91	6546.48
450.10	6356.90
450.28	6574.56
450.46	6279.66
450.65	6347.53
450.83	6509.03
451.02	6487.96
451.20	6663.51
451.39	6530.09
451.57	6518.39
451.76	6469.24
451.94	6429.45
452.13	6707.98
452.31	6600.31
452.49	6363.92
452.68	6600.31
452.86	6586.27
453.05	6630.74
453.23	6794.58
453.42	6773.51
453.60	6773.51
453.78	6715.00
453.97	6672.87
454.15	6710.32
454.34	6700.95
454.52	6773.51
454.70	6761.81
454.89	6913.94
455.07	6853.09
455.26	6890.54
455.44	7131.61
455.62	7052.03
455.81	6949.05
455.99	7075.44
456.17	7082.46
456.36	7037.99
456.54	7155.02
456.73	7084.80
456.91	7463.97
457.09	7335.24
457.28	7623.12
457.46	7096.50
457.64	7258.00
457.83	7377.37
458.01	7225.23
458.19	7557.59
458.38	7478.01
458.56	7463.97
458.74	7403.11
458.93	7431.20
459.11	7583.34
459.29	7543.55
459.48	7611.42
459.66	7611.42
459.84	7637.17
460.03	7812.71
460.21	7747.17
460.39	7651.21
460.57	7873.56
460.76	7838.45
460.94	7719.09
461.12	7672.28
461.31	7967.18
461.49	7604.40
461.67	7735.47
461.85	8234.00
462.04	8109.96
462.22	8554.66
462.40	8063.15
462.59	8102.93
462.77	8049.10
462.95	8145.06
463.13	8077.19
463.32	8046.76
463.50	8269.11
463.68	8205.92
463.86	8475.08
464.05	8042.08
464.23	8308.90
464.41	8236.35
464.59	8112.30
464.78	8386.14
464.96	8236.35
465.14	8084.21
465.32	8510.19
465.50	8542.96
465.69	8461.04
465.87	8681.05
466.05	8472.74
466.23	8528.91
466.41	8379.12
466.60	8748.92
466.78	8496.14
466.96	8435.29
467.14	8528.91
467.32	8613.17
467.51	8554.66
467.69	8411.89
467.87	8301.88
468.05	8758.28
468.23	8767.65
468.41	8629.56
468.60	8842.54
468.78	8835.52
468.96	8652.96
469.14	8802.75
469.32	9048.51
469.50	8769.99
469.69	8863.61
469.87	9135.11
470.05	9090.64
470.23	8987.66
470.41	9128.09
470.59	9060.21
470.77	8870.63
470.95	9462.79
471.14	9303.63
471.32	9151.49
471.50	9425.34
471.68	9406.61
471.86	9696.84
472.04	9525.98
472.22	9582.15
472.40	9462.79
472.58	9516.62
472.77	9753.01
472.95	9589.17
473.13	9853.66
473.31	9635.99
473.49	9624.28
473.67	9486.19
473.85	9659.39
474.03	10167.29
474.21	10193.03
474.39	9973.02
474.57	10216.44
474.75	10190.69
474.93	10286.65
475.12	10389.64
475.30	10214.10
475.48	10380.28
475.66	10424.75
475.84	10326.44
476.02	10525.39
476.20	10523.05
476.38	10649.44
476.56	10986.47
476.74	10815.62
476.92	10651.78
477.10	10778.17
477.28	11136.27
477.46	11103.50
477.64	11211.17
477.82	11550.54
478.00	11447.56
478.18	11461.60
478.36	11632.46
478.54	11646.51
478.72	11683.95
478.90	11943.75
479.08	12039.72
479.26	11864.18
479.44	12320.58
479.62	12395.48
479.80	12123.98
479.98	12311.22
480.16	12526.55
480.34	12580.38
480.52	12594.42
480.70	12585.06
480.88	12566.34
481.06	12533.57
481.24	12802.73
481.41	12957.21
481.59	13165.51
481.77	13422.97
481.95	13277.86
482.13	13242.75
482.31	13186.58
482.49	13762.35
482.67	13818.52
482.85	13556.38
483.03	13877.04
483.21	14101.73
483.39	14293.65
483.57	14188.33
483.74	14183.65
483.92	14366.21
484.10	14270.25
484.28	14637.71
484.46	14787.50
484.64	15012.20
484.82	14637.71
485.00	15028.58
485.18	15527.11
485.35	15030.92
485.53	15154.97
485.71	15119.86
485.89	15400.72
486.07	15297.74
486.25	15482.64
486.43	15721.38
486.61	16255.02
486.78	16212.89
486.96	16140.33
487.14	16301.83
487.32	16311.19
487.50	16671.64
487.68	16676.32
487.85	17130.38
488.03	17352.73
488.21	17362.09
488.39	17212.30
488.57	17305.92
488.75	17425.29
488.92	17928.50
489.10	17900.42
489.28	17820.84
489.46	18412.99
489.64	18242.14
489.81	18284.26
489.99	18700.88
490.17	18827.27
490.35	18948.98
490.53	18853.02
490.70	18923.23
490.88	18906.85
491.06	19513.05
491.24	19122.18
491.41	19173.67
491.59	19374.95
491.77	19232.18
491.95	19475.60
492.13	19878.17
492.30	20011.58
492.48	20187.12
492.66	20053.71
492.84	20292.44
493.01	20418.83
493.19	20615.44
493.37	20568.63
493.54	20723.10
493.72	21097.59
493.90	21048.44
494.08	21324.62
494.25	21298.88
494.43	21305.90
494.61	21439.31
494.79	21436.97
494.96	21715.49
495.14	21825.50
495.32	21820.81
495.49	21940.18
495.67	22045.51
495.85	22352.12
496.02	22473.82
496.20	22698.52
496.38	22782.77
496.55	22909.16
496.73	23634.73
496.91	23358.55
497.09	23358.55
497.26	23466.21
497.44	23285.99
497.62	23180.67
497.79	23828.99
497.97	23367.91
498.14	23721.33
498.32	23644.09
498.50	23702.61
498.67	24404.77
498.85	24341.57
499.03	24446.90
499.20	24524.13
499.38	24374.34
499.56	24767.55
499.73	24685.63
499.91	24936.07
500.08	24989.90
500.26	24788.61
500.44	24922.02
500.61	25064.80
500.79	24877.55
500.97	25102.25
501.14	25465.03
501.32	25586.74
501.49	25460.35
501.67	25556.31
501.84	25303.53
502.02	25802.07
502.20	25673.34
502.37	26125.06
502.55	25823.13
502.72	26001.01
502.90	26352.09
503.07	25963.56
503.25	25862.92
503.43	26445.71
503.60	26438.69
503.78	26431.67
503.95	26438.69
504.13	26984.04
504.30	26693.81
504.48	26651.68
504.65	26747.64
504.83	26883.39
505.01	27101.06
505.18	27122.13
505.36	27358.52
505.53	27428.74
505.71	27814.93
505.88	28287.71
506.06	27681.52
506.23	27498.95
506.41	27374.91
506.58	27828.97
506.76	27637.05
506.93	28472.62
507.11	28163.67
507.28	28231.54
507.46	28215.16
507.63	28266.65
507.81	28414.10
507.98	28549.85
508.16	28671.56
508.33	28671.56
508.50	28964.13
508.68	28975.83
508.85	29205.20
509.03	28889.23
509.20	29090.52
509.38	29186.48
509.55	29565.65
509.73	29390.11
509.90	29230.95
510.08	29200.52
510.25	29055.41
510.42	29879.28
510.60	29322.23
510.77	30050.14
510.95	30033.75
511.12	29919.07
511.30	30237.38
511.47	30024.39
511.64	30338.02
511.82	30487.82
511.99	30157.80
512.17	30572.08
512.34	30155.46
512.51	30780.39
512.69	30658.68
512.86	30925.50
513.04	30562.72
513.21	31049.55
513.38	30857.62
513.56	30864.64
513.73	30974.65
513.90	31115.08
514.08	31260.20
514.25	31012.10
514.43	31290.62
514.60	31412.33
514.77	31232.11
514.95	31644.04
515.12	31655.75
515.29	31690.85
515.47	31807.88
515.64	31754.05
515.81	31964.70
515.99	31920.23
516.16	31737.66
516.33	31765.75
516.51	32032.57
516.68	31807.88
516.85	31627.66
517.03	32091.09
517.20	32102.79
517.37	32481.95
517.54	32655.15
517.72	32329.82
517.89	32552.17
518.06	32318.12
518.24	32463.23
518.41	32601.32
518.58	32683.24
518.75	32676.22
518.93	32921.98
519.10	33333.91
519.27	33326.89
519.45	33167.73
519.62	33516.47
519.79	33177.09
519.96	33572.64
520.14	33539.88
520.31	33362.00
520.48	33628.82
520.65	33731.80
520.83	33701.37
521.00	33776.27
521.17	34038.41
521.34	33928.41
521.52	34029.05
521.69	34607.16
521.86	34204.59
522.03	34246.72
522.20	34361.40
522.38	34419.92
522.55	34756.96
522.72	34136.71
522.89	34593.12
523.07	34731.21
523.24	34675.04
523.41	34700.78
523.58	34455.03
523.75	35351.45
523.92	35335.07
524.10	35091.65
524.27	35185.27
524.44	35297.62
524.61	35466.14
524.78	35463.80
524.96	35489.54
525.13	35835.94
525.30	35903.82
525.47	35880.41
525.64	35683.81
525.81	35386.56
525.98	35728.28
526.16	35442.73
526.33	35847.64
526.50	35548.06
526.67	35690.83
526.84	35693.17
527.01	35608.91
527.18	35786.79
527.36	36294.69
527.53	36046.59
527.70	36231.49
527.87	36428.10
528.04	36034.89
528.21	36491.29
528.38	36336.82
528.55	36828.33
528.72	36491.29
528.89	37041.32
529.07	36959.40
529.24	36650.45
529.41	36830.67
529.58	36699.60
529.75	36673.85
529.92	37099.83
530.09	37315.16
530.26	37294.10
530.43	37174.73
530.60	37198.13
530.77	37165.37
530.94	37439.21
531.11	37275.37
531.28	37790.29
531.46	37900.29
531.63	37542.19
531.80	37486.02
531.97	37862.85
532.14	37420.48
532.31	37368.99
532.48	37565.60
532.65	38230.31
532.82	37776.25
532.99	38110.94
533.16	37757.52
533.33	37991.58
533.50	38244.35
533.67	38326.27
533.84	37926.04
534.01	38033.71
534.18	38181.16
534.35	38476.07
534.52	38270.10
534.69	38574.37
534.86	38642.24
535.03	38520.54
535.20	38639.90
535.37	38508.83
535.54	39016.73
535.71	39016.73
535.88	38848.21
536.05	38799.06
536.22	38745.23
536.38	38583.73
536.55	38560.33
536.72	39173.55
536.89	38824.81
537.06	38939.49
537.23	39056.52
537.40	38972.26
537.57	39232.06
537.74	38988.64
537.91	39213.34
538.08	39667.40
538.25	39262.49
538.42	39351.43
538.59	39548.03
538.75	39178.23
538.92	39339.72
539.09	39592.50
539.26	39524.63
539.43	39653.36
539.60	39487.18
539.77	39805.49
539.94	40093.38
540.11	39496.54
540.28	39915.50
540.44	39704.85
540.61	39545.69
540.78	39803.15
540.95	39772.72
541.12	40137.85
541.29	39838.26
541.46	39768.04
541.62	40140.19
541.79	40126.14
541.96	39852.30
542.13	40423.39
542.30	40306.37
542.47	40217.43
542.63	39871.03
542.80	40505.31
542.97	40814.26
543.14	40397.65
543.31	40809.58
543.48	40711.28
543.64	41378.33
543.81	40767.45
543.98	41085.76
544.15	41256.62
544.32	40755.75
544.48	41317.48
544.65	40992.14
544.82	41200.45
544.99	40722.98
545.16	41233.22
545.32	41200.45
545.49	41453.23
545.66	41572.60
545.83	41347.90
546.00	41455.57
546.16	41518.76
546.33	41317.48
546.50	40617.66
546.67	41928.36
546.83	41282.37
547.00	41544.51
547.17	41387.69
547.34	40987.46
547.50	41202.79
547.67	41933.04
547.84	41900.27
548.00	42232.63
548.17	41881.55
548.34	41588.98
548.51	42146.03
548.67	42382.42
548.84	42127.30
549.01	41509.40
549.18	42155.39
549.34	42253.69
549.51	42136.66
549.68	42237.31
549.84	42197.52
550.01	42270.08
550.18	42038.36
550.34	41930.70
550.51	42012.62
550.68	42050.06
550.84	41752.82
551.01	42309.86
551.18	42185.82
551.34	42160.07
551.51	42314.55
551.68	42335.61
551.84	42693.71
552.01	41914.31
552.18	42665.63
552.34	42616.47
552.51	42852.87
552.68	42646.90
552.84	42801.38
553.01	43030.75
553.18	42480.72
553.34	42799.04
553.51	42841.17
553.67	42541.58
553.84	43346.72
554.01	43161.82
554.17	43014.37
554.34	43028.41
554.51	43302.25
554.67	42934.79
554.84	43056.50
555.00	42810.74
555.17	42501.79
555.33	43648.65
555.50	42941.81
555.67	43311.61
555.83	42862.23
556.00	43119.69
556.16	43854.62
556.33	43290.55
556.50	43260.12
556.66	43529.28
556.83	42892.66
556.99	43119.69
557.16	43175.86
557.32	43400.55
557.49	43367.79
557.65	43168.84
557.82	43531.62
557.98	43402.89
558.15	43768.02
558.32	43627.59
558.48	43536.30
558.65	43800.79
558.81	43629.93
558.98	43929.51
559.14	43629.93
559.31	43798.44
559.47	43468.43
559.64	44278.25
559.80	43863.98
559.97	43838.23
560.13	43646.31
560.30	43503.54
560.46	43805.47
560.63	43562.05
560.79	44273.57
560.96	44395.28
561.12	43885.04
561.29	43672.06
561.45	44051.22
561.61	43840.57
561.78	44105.06
561.94	43861.64
562.11	43683.76
562.27	43494.18
562.44	44383.58
562.60	44278.25
562.77	44123.78
562.93	43985.69
563.10	44264.21
563.26	43796.10
563.42	44095.69
563.59	44037.18
563.75	44289.96
563.92	44774.45
564.08	44444.43
564.24	44236.12
564.41	44196.34
564.57	44107.40
564.74	44163.57
564.90	44629.34
565.07	44236.12
565.23	44156.55
565.39	44247.83
565.56	44355.49
565.72	44299.32
565.88	44367.20
566.05	44034.84
566.21	44217.40
566.38	44282.94
566.54	44341.45
566.70	44449.11
566.87	44687.85
567.03	43978.67
567.19	44804.88
567.36	44524.01
567.52	44329.75
567.68	44388.26
567.85	44411.67
568.01	44690.19
568.17	44016.11
568.34	44949.99
568.50	44666.78
568.66	44678.49
568.83	44666.78
568.99	44744.02
569.15	44381.24
569.32	44629.34
569.48	44261.87
569.64	44587.21
569.81	44786.15
569.97	44112.08
570.13	43997.39
570.30	44603.59
570.46	44390.60
570.62	44243.15
570.78	44161.23
570.95	44598.91
571.11	44830.62
571.27	44147.18
571.43	44629.34
571.60	45303.41
571.76	44619.97
571.92	44109.74
572.09	44938.29
572.25	44893.82
572.41	44371.88
572.57	44989.78
572.74	44987.44
572.90	44879.77
573.06	44788.49
573.22	44783.81
573.38	44701.89
573.55	44381.24
573.71	44631.68
573.87	44933.60
574.03	44348.47
574.20	44547.42
574.36	44608.27
574.52	44835.30
574.68	44779.13
574.84	45099.78
575.01	44360.17
575.17	45062.33
575.33	44783.81
575.49	44552.10
575.65	45188.72
575.82	45031.91
575.98	44664.44
576.14	45148.93
576.30	44978.07
576.46	44816.58
576.62	44671.46
576.79	44872.75
576.95	44402.30
577.11	44973.39
577.27	44830.62
577.43	44814.24
577.59	45289.37
577.75	44755.72
577.92	44128.46
578.08	44397.62
578.24	44598.91
578.40	44746.36
578.56	44910.20
578.72	44273.57
578.88	45081.06
579.04	44999.14
579.21	44587.21
579.37	44875.09
579.53	44924.24
579.69	44725.30
579.85	44626.99
580.01	44725.30
580.17	44896.16
580.33	45158.30
580.49	44999.14
580.65	45120.85
580.82	44896.16
580.98	45062.33
581.14	44442.09
581.30	45521.08
581.46	45071.70
581.62	44830.62
581.78	45031.91
581.94	45069.36
582.10	45289.37
582.26	45177.02
582.42	44804.88
582.58	45074.04
582.74	45015.52
582.90	45301.07
583.06	45315.11
583.22	45198.09
583.38	45085.74
583.54	45022.54
583.70	44818.92
583.86	44942.97
584.02	44676.15
584.18	44765.09
584.34	45155.96
584.50	44535.71
584.66	44945.31
584.82	44957.01
584.98	45160.64
585.14	44882.11
585.30	45008.50
585.46	44638.70
585.62	44664.44
585.78	44928.92
585.94	44245.49
586.10	45123.19
586.26	44877.43
586.42	45034.25
586.58	44783.81
586.74	45230.85
586.90	44432.73
587.06	44727.64
587.22	45448.52
587.38	44701.89
587.54	45233.19
587.70	45631.08
587.86	45113.83
588.02	45174.68
588.18	45429.80
588.34	45254.26
588.49	44910.20
588.65	44825.94
588.81	44952.33
588.97	44671.46
589.13	44683.17
589.29	44973.39
589.45	45038.93
589.61	45001.48
589.77	45155.96
589.93	45256.60
590.08	45198.09
590.24	45457.88
