SpectraSuite Data File
++++++++++++++++++++++++++++++++++++
Date: Fri Oct 25 11:26:31 EDT 2013
User: price-jones
Dark Spectrum Present: No
Reference Spectrum Present: No
Number of Sampled Component Spectra: 1
Spectrometers: USB2+H05261
Integration Time (usec): 100000 (USB2+H05261)
Spectra Averaged: 1 (USB2+H05261)
Boxcar Smoothing: 0 (USB2+H05261)
Correct for Electrical Dark: No (USB2+H05261)
Strobe/Lamp Enabled: No (USB2+H05261)
Correct for Detector Non-linearity: No (USB2+H05261)
Correct for Stray Light: No (USB2+H05261)
Number of Pixels in Processed Spectrum: 2048
>>>>>Begin Processed Spectral Data<<<<<
365.73	255.12
365.92	255.12
366.12	255.12
366.32	159.16
366.52	121.71
366.72	224.69
366.91	84.26
367.11	114.69
367.31	145.11
367.51	93.62
367.70	133.41
367.90	138.09
368.10	124.05
368.30	93.62
368.49	133.41
368.69	166.18
368.89	124.05
369.09	110.01
369.28	196.60
369.48	124.05
369.68	175.54
369.87	212.99
370.07	182.56
370.27	245.76
370.47	304.27
370.66	538.32
370.86	575.77
371.06	596.84
371.25	744.29
371.45	690.46
371.65	720.88
371.84	791.10
372.04	627.26
372.24	777.06
372.44	734.93
372.63	774.72
372.83	723.23
373.03	753.65
373.22	725.57
373.42	842.59
373.62	842.59
373.81	793.44
374.01	924.51
374.21	767.70
374.40	777.06
374.60	884.72
374.79	821.53
374.99	868.34
375.19	784.08
375.38	880.04
375.58	847.27
375.78	863.66
375.97	894.08
376.17	866.00
376.37	861.32
376.56	882.38
376.76	833.23
376.95	912.81
377.15	856.64
377.35	976.00
377.54	901.11
377.74	835.57
377.93	938.55
378.13	861.32
378.33	901.11
378.52	961.96
378.72	987.71
378.91	894.08
379.11	959.62
379.31	1039.20
379.50	915.15
379.70	1029.84
379.89	966.64
380.09	889.40
380.28	1013.45
380.48	973.66
380.68	950.26
380.87	947.92
381.07	1043.88
381.26	999.41
381.46	1001.75
381.65	1001.75
381.85	1053.24
382.04	1111.75
382.24	1181.97
382.43	1097.71
382.63	1060.26
382.83	1123.46
383.02	1123.46
383.22	1137.50
383.41	1093.03
383.61	1097.71
383.80	1170.27
384.00	1104.73
384.19	1097.71
384.39	1160.91
384.58	1151.54
384.78	1100.05
384.97	1144.52
385.17	1083.67
385.36	1172.61
385.56	1205.38
385.75	1228.78
385.95	1242.82
386.14	1235.80
386.34	1259.21
386.53	1121.12
386.72	1186.65
386.92	1226.44
387.11	1193.67
387.31	1282.61
387.50	1268.57
387.70	1235.80
387.89	1284.95
388.09	1259.21
388.28	1270.91
388.48	1259.21
388.67	1263.89
388.86	1256.87
389.06	1240.48
389.25	1371.55
389.45	1345.81
389.64	1306.02
389.84	1444.11
390.03	1469.86
390.22	1448.79
390.42	1409.00
390.61	1284.95
390.81	1357.51
391.00	1399.64
391.19	1516.67
391.39	1434.75
391.58	1434.75
391.78	1448.79
391.97	1451.13
392.16	1390.28
392.36	1614.97
392.55	1666.46
392.75	1519.01
392.94	1621.99
393.13	1533.05
393.33	1516.67
393.52	1542.41
393.71	1511.99
393.91	1575.18
394.10	1579.86
394.29	1640.72
394.49	1591.56
394.68	1526.03
394.88	1563.48
395.07	1589.22
395.26	1710.93
395.46	1748.38
395.65	1657.10
395.84	1753.06
396.04	1849.02
396.23	1753.06
396.42	1741.36
396.62	1743.70
396.81	1860.73
397.00	1799.87
397.19	1788.17
397.39	1914.56
397.58	1802.21
397.77	1902.86
397.97	1891.15
398.16	1853.70
398.35	1811.57
398.55	1811.57
398.74	1888.81
398.93	1879.45
399.12	1975.41
399.32	1919.24
399.51	2003.50
399.70	2036.27
399.90	1947.33
400.09	1994.14
400.28	2080.74
400.47	2045.63
400.67	2122.87
400.86	2157.97
401.05	2097.12
401.24	2104.14
401.44	2073.71
401.63	2150.95
401.82	2195.42
402.01	2148.61
402.21	2160.31
402.40	2162.66
402.59	2127.55
402.78	2300.75
402.97	2265.64
403.17	2324.15
403.36	2204.78
403.55	2246.91
403.74	2347.56
403.93	2275.00
404.13	2415.43
404.32	2368.62
404.51	2359.26
404.70	2450.54
404.89	2422.45
405.09	2520.76
405.28	2422.45
405.47	2436.50
405.66	2642.46
405.85	2520.76
406.05	2509.05
406.24	2621.40
406.43	2644.81
406.62	2628.42
406.81	2597.99
407.00	2710.34
407.20	2616.72
407.39	2656.51
407.58	2785.24
407.77	2829.71
407.96	2773.53
408.15	2832.05
408.34	2715.02
408.54	2839.07
408.73	2834.39
408.92	2881.20
409.11	3000.57
409.30	2869.50
409.49	3005.25
409.68	2949.08
409.87	2946.73
410.07	3066.10
410.26	3035.67
410.45	3096.53
410.64	3122.27
410.83	3131.64
411.02	3105.89
411.21	3262.71
411.40	3105.89
411.59	3269.73
411.78	3309.52
411.98	3300.16
412.17	3145.68
412.36	3253.34
412.55	3276.75
412.74	3384.41
412.93	3456.97
413.12	3473.36
413.31	3492.08
413.50	3531.87
413.69	3496.76
413.88	3515.48
414.07	3676.98
414.26	3775.28
414.45	3679.32
414.64	3761.24
414.83	3674.64
415.02	3770.60
415.22	3913.38
415.41	3950.82
415.60	3911.04
415.79	3882.95
415.98	3861.88
416.17	3770.60
416.36	4063.17
416.55	4042.11
416.74	4011.68
416.93	4091.26
417.12	4018.70
417.31	4210.62
417.50	4107.64
417.69	4315.95
417.88	4301.90
418.07	4262.12
418.26	4311.27
418.45	4346.37
418.64	4332.33
418.83	4339.35
419.02	4482.13
419.21	4437.66
419.39	4486.81
419.58	4540.64
419.77	4503.19
419.96	4648.30
420.15	4664.69
420.34	4723.20
420.53	4664.69
420.72	4854.27
420.91	4784.06
421.10	4788.74
421.29	4880.02
421.48	4655.33
421.67	4894.06
421.86	4760.65
422.05	4891.72
422.24	4882.36
422.43	4732.56
422.61	4882.36
422.80	4884.70
422.99	4980.66
423.18	4985.34
423.37	4814.48
423.56	5116.41
423.75	4947.89
423.94	4765.33
424.13	4690.43
424.32	4770.01
424.50	5074.28
424.69	5069.60
424.88	5144.50
425.07	4805.12
425.26	4950.23
425.45	4816.82
425.64	5149.18
425.83	4933.85
426.01	5151.52
426.20	5116.41
426.39	5240.46
426.58	5193.65
426.77	5083.64
426.96	5205.35
427.15	5102.37
427.33	5254.50
427.52	5139.82
427.71	5273.23
427.90	5259.18
428.09	5231.10
428.28	5425.36
428.46	5324.72
428.65	5357.49
428.84	5565.79
429.03	5589.20
429.22	5277.91
429.40	5465.15
429.59	5554.09
429.78	5509.62
429.97	5289.61
430.16	5638.35
430.34	5598.56
430.53	5727.29
430.72	5589.20
430.91	5638.35
431.10	5399.62
431.28	5661.76
431.47	5860.70
431.66	5797.51
431.85	5809.21
432.03	5942.62
432.22	5987.09
432.41	5966.03
432.60	6064.33
432.79	5944.96
432.97	5970.71
433.16	6043.26
433.35	6129.86
433.54	6104.12
433.72	6232.85
433.91	6237.53
434.10	6111.14
434.28	6085.39
434.47	6071.35
434.66	6197.74
434.85	6284.34
435.03	6436.47
435.22	6373.28
435.41	6471.58
435.59	6497.33
435.78	6380.30
435.97	6485.62
436.16	6684.57
436.34	6450.52
436.53	6504.35
436.72	6689.25
436.90	6434.13
437.09	6677.55
437.28	6462.22
437.46	6640.10
437.65	6715.00
437.84	6675.21
438.02	6843.73
438.21	6832.02
438.40	6590.95
438.58	7028.63
438.77	7124.59
438.96	6888.20
439.14	7155.02
439.33	7222.89
439.52	7183.10
439.70	7356.30
439.89	7470.99
440.08	7375.03
440.26	7398.43
440.45	7393.75
440.63	7534.18
440.82	7665.25
441.01	7452.27
441.19	7775.26
441.38	7784.62
441.57	7667.60
441.75	7969.52
441.94	7957.82
442.12	8184.85
442.31	8056.12
442.50	7936.76
442.68	7946.12
442.87	8116.98
443.05	8121.66
443.24	8262.09
443.43	8149.75
443.61	8224.64
443.80	8409.54
443.98	7950.80
444.17	7871.22
444.35	8388.48
444.54	8362.73
444.73	8219.96
444.91	8346.35
445.10	8449.33
445.28	8404.86
445.47	8290.18
445.65	8259.75
445.84	8498.49
446.02	8608.49
446.21	8580.40
446.39	8547.64
446.58	8517.21
446.77	8559.34
446.95	8535.93
447.14	8458.70
447.32	8470.40
447.51	8278.47
447.69	8498.49
447.88	8482.10
448.06	8430.61
448.25	8468.06
448.43	8753.60
448.62	8727.86
448.80	8491.46
448.99	8617.85
449.17	8821.48
449.36	8540.61
449.54	8802.75
449.73	8781.69
449.91	9062.55
450.10	9083.62
450.28	8915.10
450.46	9238.09
450.65	9022.77
450.83	9125.75
451.02	9123.41
451.20	9235.75
451.39	9270.86
451.57	9186.60
451.76	9160.86
451.94	9357.46
452.13	9301.29
452.31	9380.87
452.49	9238.09
452.68	9385.55
452.86	9371.50
453.05	9521.30
453.23	9511.94
453.42	9425.34
453.60	9191.28
453.78	9666.41
453.97	9514.28
454.15	9621.94
454.34	9420.66
454.52	9694.50
454.70	9912.17
454.89	9863.02
455.07	9881.74
455.26	9764.72
455.44	10064.30
455.62	9949.62
455.81	10073.67
455.99	10122.82
456.17	10031.54
456.36	10104.09
456.54	10228.14
456.73	10415.38
456.91	10417.72
457.09	10394.32
457.28	10560.50
457.46	10333.47
457.64	10448.15
457.83	10579.22
458.01	10511.35
458.19	10878.81
458.38	10677.52
458.56	10721.99
458.74	10768.80
458.93	10630.71
459.11	10721.99
459.29	10705.61
459.48	10794.55
459.66	11000.52
459.84	10925.62
460.03	11225.21
460.21	11040.31
460.39	10923.28
460.57	11054.35
460.76	11197.12
460.94	11421.81
461.12	11040.31
461.31	11037.97
461.49	11227.55
461.67	11330.53
461.85	11552.88
462.04	11510.75
462.22	11452.24
462.40	11765.87
462.59	11585.65
462.77	11513.10
462.95	11651.19
463.13	11595.01
463.32	11651.19
463.50	11721.40
463.68	11815.02
463.86	11880.56
464.05	11740.13
464.23	11634.80
464.41	11756.51
464.59	11543.52
464.78	12175.47
464.96	12035.03
465.14	12009.29
465.32	12028.01
465.50	12262.07
465.69	12248.02
465.87	12189.51
466.05	12044.40
466.23	12315.90
466.41	12269.09
466.60	12444.63
466.78	12138.02
466.96	12416.54
467.14	12744.22
467.32	12629.53
467.51	12744.22
467.69	12156.74
467.87	12140.36
468.05	12472.71
468.23	12655.28
468.41	12664.64
468.60	12545.27
468.78	12844.86
468.96	12596.76
469.14	12739.54
469.32	13125.72
469.50	12636.55
469.69	12870.61
469.87	13179.56
470.05	13135.09
470.23	13380.84
470.41	13022.74
470.59	13315.31
470.77	13273.18
470.95	13385.52
471.14	13628.94
471.32	13301.26
471.50	13886.40
471.68	13884.06
471.86	13598.51
472.04	13467.44
472.22	13898.10
472.40	14022.15
472.58	14057.26
472.77	14038.53
472.95	14024.49
473.13	14478.55
473.31	14265.57
473.49	14335.78
473.67	14352.16
473.85	14235.14
474.03	14918.57
474.21	14890.49
474.39	14714.95
474.57	14675.16
474.75	15066.03
474.93	15147.95
475.12	14960.70
475.30	15091.77
475.48	15049.64
475.66	15300.08
475.84	15040.28
476.02	15339.87
476.20	15215.82
476.38	15833.72
476.56	16072.46
476.74	15920.32
476.92	15967.13
477.10	16011.60
477.28	16397.79
477.46	16208.21
477.64	16196.51
477.82	16933.78
478.00	16947.82
478.18	16582.70
478.36	17200.60
478.54	17109.32
478.72	17029.74
478.90	17343.37
479.08	17394.86
479.26	17790.41
479.44	17743.60
479.62	17642.96
479.80	18328.74
479.98	18452.78
480.16	18633.00
480.34	18590.88
480.52	18534.70
480.70	18469.17
480.88	18396.61
481.06	18649.39
481.24	18937.27
481.41	18934.93
481.59	19557.52
481.77	19503.68
481.95	19646.46
482.13	19735.40
482.31	19976.47
482.49	20091.16
482.67	20659.91
482.85	20428.20
483.03	20688.00
483.21	21186.53
483.39	20954.82
483.57	20823.75
483.74	21439.31
483.92	21638.25
484.10	21228.66
484.28	21591.44
484.46	22218.71
484.64	22448.08
484.82	22157.85
485.00	22104.02
485.18	22925.55
485.35	23065.98
485.53	22993.42
485.71	23082.36
485.89	23613.66
486.07	23290.67
486.25	23346.84
486.43	23690.90
486.61	23873.46
486.78	24086.45
486.96	24088.79
487.14	24545.20
487.32	24868.19
487.50	24945.43
487.68	25408.86
487.85	25558.65
488.03	25752.91
488.21	25869.94
488.39	25750.57
488.57	26073.57
488.75	26356.77
488.92	26792.11
489.10	26728.92
489.28	27096.38
489.46	27388.95
489.64	26883.39
489.81	27803.22
489.99	28030.26
490.17	27772.80
490.35	28079.41
490.53	28891.57
490.70	28325.16
490.88	28524.11
491.06	29130.31
491.24	28694.97
491.41	28896.25
491.59	29125.63
491.77	29111.58
491.95	29771.61
492.13	29729.48
492.30	30155.46
492.48	30480.80
492.66	30354.41
492.84	30375.47
493.01	30934.86
493.19	30801.45
493.37	30981.67
493.54	31236.79
493.72	31955.33
493.90	31552.76
494.08	32112.15
494.25	31988.10
494.43	31931.93
494.61	32786.22
494.79	32641.11
494.96	32531.11
495.14	32975.81
495.32	33195.82
495.49	33261.35
495.67	33010.92
495.85	33734.14
496.02	33553.92
496.20	34429.28
496.38	33921.38
496.55	34288.85
496.73	34962.92
496.91	35037.82
497.09	34852.92
497.26	35157.19
497.44	34988.67
497.62	35171.23
497.79	36060.63
497.97	35789.13
498.14	36205.75
498.32	36325.11
498.50	36191.70
498.67	36149.57
498.85	36313.41
499.03	36741.73
499.20	36872.80
499.38	36790.88
499.56	36910.25
499.73	37785.61
499.91	37558.58
500.08	37581.98
500.26	37380.70
500.44	37401.76
500.61	37846.46
500.79	37699.01
500.97	38054.77
501.14	38834.17
501.32	39021.41
501.49	38761.61
501.67	38403.51
501.84	38553.30
502.02	39299.94
502.20	39512.92
502.37	39117.37
502.55	39131.42
502.72	39356.11
502.90	39648.68
503.07	39901.45
503.25	40133.17
503.43	39749.32
503.60	39924.86
503.78	40411.69
503.95	40121.46
504.13	40734.68
504.30	40708.94
504.48	40187.00
504.65	40215.08
504.83	41036.61
505.01	41663.88
505.18	41387.69
505.36	41530.47
505.53	41525.78
505.71	41666.22
505.88	42089.85
506.06	41778.56
506.23	42429.23
506.41	41874.52
506.58	42382.42
506.76	42244.33
506.93	42906.70
507.11	42747.54
507.28	42871.59
507.46	42616.47
507.63	43203.95
507.81	43449.70
507.98	42892.66
508.16	43360.76
508.33	43641.63
508.50	43615.88
508.68	43725.89
508.85	43971.64
509.03	43976.33
509.20	43587.80
509.38	44774.45
509.55	44690.19
509.73	44435.07
509.90	44725.30
510.08	44708.91
510.25	44657.42
510.42	44926.58
510.60	45071.70
510.77	45357.24
510.95	45467.25
511.12	45130.21
511.30	45546.82
511.47	45284.68
511.64	45940.04
511.82	45820.67
511.99	45640.45
512.17	45769.18
512.34	45904.93
512.51	46279.41
512.69	46326.22
512.86	46459.63
513.04	46705.39
513.21	46960.51
513.38	46761.56
513.56	47037.75
513.73	47206.26
513.90	47112.64
514.08	46944.12
514.25	46986.25
514.43	47351.38
514.60	47000.30
514.77	47494.15
514.95	48254.82
515.12	47585.43
515.29	47585.43
515.47	47758.63
515.64	48580.16
515.81	48034.81
515.99	48526.33
516.16	48528.67
516.33	48727.61
516.51	48306.32
516.68	48493.56
516.85	48769.74
517.03	48832.94
517.20	49120.82
517.37	48910.17
517.54	48718.25
517.72	49144.23
517.89	49195.72
518.06	49202.74
518.24	49656.81
518.41	49607.65
518.58	49427.43
518.75	49439.14
518.93	49539.78
519.10	49469.56
519.27	49642.76
519.45	50202.15
519.62	50265.34
519.79	49787.88
519.96	50010.23
520.14	50291.09
520.31	50131.93
520.48	50508.76
520.65	50609.40
520.83	50595.36
521.00	50913.67
521.17	50651.53
521.34	50876.22
521.52	51063.47
521.69	51042.40
521.86	50815.37
522.03	51049.42
522.20	51416.89
522.38	51681.37
522.55	51501.15
522.72	51194.54
522.89	51377.10
523.07	51915.42
523.24	51608.81
523.41	51824.14
523.58	51704.77
523.75	52257.14
523.92	51985.64
524.10	51938.83
524.27	52027.77
524.44	52226.71
524.61	52413.96
524.78	52055.85
524.96	52271.18
525.13	52587.16
525.30	52493.54
525.47	52914.83
525.64	52385.87
525.81	52725.25
525.98	52842.27
526.16	52741.63
526.33	52926.53
526.50	52985.05
526.67	52963.98
526.84	53411.02
527.01	53097.39
527.18	53017.82
527.36	52907.81
527.53	53382.94
527.70	53368.90
527.87	53312.72
528.04	53310.38
528.21	53530.39
528.38	53659.12
528.55	53853.39
528.72	53418.05
528.89	53710.61
529.07	53563.16
529.24	53560.82
529.41	53846.36
529.58	53909.56
529.75	53738.70
529.92	53925.94
530.09	53860.41
530.26	54211.49
530.43	54127.23
530.60	53689.55
530.77	54003.18
530.94	54045.31
531.11	54071.06
531.28	54358.94
531.46	54157.66
531.63	54394.05
531.80	54138.93
531.97	54588.31
532.14	54550.87
532.31	54553.21
532.48	54482.99
532.65	54892.58
532.82	54810.67
532.99	54827.05
533.16	54817.69
533.33	54710.02
533.50	55201.53
533.67	54663.21
533.84	54855.14
534.01	54780.24
534.18	54986.21
534.35	55084.51
534.52	55405.16
534.69	55267.07
534.86	55164.09
535.03	55082.17
535.20	55290.48
535.37	55470.70
535.54	55508.14
535.71	55227.28
535.88	55379.42
536.05	55510.49
536.22	55505.80
536.38	55653.26
536.55	55697.73
536.72	55758.58
536.89	55772.63
537.06	55711.77
537.23	55831.14
537.40	55505.80
537.57	55882.63
537.74	55896.67
537.91	56165.84
538.08	56041.79
538.25	55810.07
538.42	55969.23
538.59	56088.60
538.75	55964.55
538.92	56451.38
539.09	56133.07
539.26	56196.26
539.43	56069.87
539.60	56317.97
539.77	56203.28
539.94	56516.92
540.11	56446.70
540.28	56512.23
540.44	56556.70
540.61	56343.72
540.78	56474.79
540.95	56505.21
541.12	56545.00
541.29	56711.18
541.46	56776.72
541.62	56786.08
541.79	56596.49
541.96	56362.44
542.13	56765.01
542.30	56891.40
542.47	56816.50
542.63	57088.01
542.80	57041.20
542.97	57195.67
543.14	57146.52
543.31	57212.06
543.48	57366.53
543.64	57537.39
543.81	57396.96
543.98	57371.21
544.15	57247.16
544.32	57844.00
544.48	57633.35
544.65	57675.48
544.82	57591.22
544.99	57422.70
545.16	57698.89
545.32	57385.25
545.49	57904.85
545.66	57865.06
545.83	57689.52
546.00	57834.64
546.16	57853.36
546.33	57750.38
546.50	57476.54
546.67	57558.45
546.83	57633.35
547.00	57773.78
547.17	57851.02
547.34	57872.09
547.50	57993.79
547.67	58113.16
547.84	58113.16
548.00	58295.72
548.17	58375.30
548.34	57991.45
548.51	58408.07
548.67	58174.02
548.84	58230.19
549.01	58171.67
549.18	58372.96
549.34	58197.42
549.51	58342.53
549.68	58227.85
549.84	58555.52
550.01	58457.22
550.18	58237.21
550.34	58539.14
550.51	58653.82
550.68	58651.48
550.84	58356.58
551.01	58480.63
551.18	58576.59
551.34	58614.04
551.51	58745.11
551.68	58663.19
551.84	58855.11
552.01	58742.77
552.18	58738.08
552.34	58379.98
552.51	58782.55
552.68	58567.23
552.84	58880.86
553.01	58913.62
553.18	58824.68
553.34	58892.56
553.51	58794.26
553.67	58988.52
553.84	59135.98
554.01	59023.63
554.17	59075.12
554.34	59056.40
554.51	59203.85
554.67	59147.68
554.84	59072.78
555.00	58887.88
555.17	59189.81
555.33	59199.17
555.50	58904.26
555.67	59051.72
555.83	58997.88
556.00	59229.60
556.16	59554.93
556.33	59480.03
556.50	59105.55
556.66	59449.61
556.83	59355.99
556.99	59458.97
557.16	59552.59
557.32	59524.50
557.49	59547.91
557.65	59283.43
557.82	59379.39
557.98	59522.16
558.15	59583.02
558.32	59627.49
558.48	59433.22
558.65	59615.79
558.81	59650.89
558.98	59545.57
559.14	59622.81
559.31	59592.38
559.47	59889.63
559.64	59721.11
559.80	59758.56
559.97	60060.49
560.13	59676.64
560.30	59798.35
560.46	59800.69
560.63	59978.57
560.79	59891.97
560.96	59987.93
561.12	59880.27
561.29	59643.87
561.45	59812.39
561.61	59756.22
561.78	59908.35
561.94	59976.23
562.11	59978.57
562.27	60023.04
562.44	60156.45
562.60	60083.89
562.77	60142.41
562.93	59934.10
563.10	60123.68
563.26	60107.30
563.42	60236.03
563.59	60051.12
563.75	60018.36
563.92	60069.85
564.08	60030.06
564.24	60191.56
564.41	60090.91
564.57	60245.39
564.74	60329.65
564.90	60109.64
565.07	60193.90
565.23	60126.02
565.39	60048.78
565.56	60212.62
565.72	60306.24
565.88	60329.65
566.05	60135.38
566.21	60247.73
566.38	60240.71
566.54	60322.63
566.70	60523.91
566.87	60505.19
567.03	60205.60
567.19	60402.21
567.36	60353.05
567.52	60388.16
567.68	60757.97
567.85	60549.66
568.01	60507.53
568.17	60388.16
568.34	60439.65
568.50	60561.36
568.66	60554.34
568.83	60626.90
568.99	60299.22
569.15	60594.13
569.32	60406.89
569.48	60339.01
569.64	60697.11
569.81	60369.44
569.97	60533.28
570.13	60512.21
570.30	60313.26
570.46	60360.08
570.62	60467.74
570.78	60521.57
570.95	60561.36
571.11	60650.30
571.27	60507.53
571.43	60470.08
571.60	60594.13
571.76	60818.82
571.92	60718.18
572.09	60662.00
572.25	60629.24
572.41	60748.60
572.57	60526.25
572.74	60750.94
572.90	60650.30
573.06	60720.52
573.22	60788.39
573.38	60687.75
573.55	60535.62
573.71	60940.53
573.87	60753.29
574.03	60659.66
574.20	60699.45
574.36	60685.41
574.52	60764.99
574.68	60879.67
574.84	60940.53
575.01	60982.66
575.17	60889.04
575.33	60626.90
575.49	60631.58
575.65	60919.46
575.82	60905.42
575.98	60786.05
576.14	61102.03
576.30	61017.77
576.46	60865.63
576.62	60800.10
576.79	60687.75
576.95	60708.82
577.11	60793.07
577.27	60917.12
577.43	60715.84
577.59	60931.17
577.75	60952.23
577.92	60715.84
578.08	60938.19
578.24	60851.59
578.40	61076.28
578.56	61031.81
578.72	61069.26
578.88	60933.51
579.04	61045.85
579.21	60853.93
579.37	61048.19
579.53	60924.14
579.69	60804.78
579.85	60776.69
580.01	60832.86
580.17	60889.04
580.33	61034.15
580.49	61146.50
580.65	60921.80
580.82	60776.69
580.98	60872.65
581.14	60858.61
581.30	60907.76
581.46	60837.54
581.62	60924.14
581.78	60757.97
581.94	61036.49
582.10	60947.55
582.26	61102.03
582.42	60910.10
582.58	60961.59
582.74	60912.44
582.90	61022.45
583.06	61006.06
583.22	60886.70
583.38	60985.00
583.54	61080.96
583.70	61010.74
583.86	60926.49
584.02	60987.34
584.18	61010.74
584.34	61015.43
584.50	60996.70
584.66	60940.53
584.82	60926.49
584.98	61230.75
585.14	61221.39
585.30	60996.70
585.46	61153.52
585.62	60893.72
585.78	61261.18
585.94	60657.32
586.10	60980.32
586.26	61179.26
586.42	61174.58
586.58	61155.86
586.74	61183.94
586.90	60992.02
587.06	61001.38
587.22	61167.56
587.38	61130.11
587.54	61296.29
587.70	61240.12
587.86	61155.86
588.02	61162.88
588.18	61076.28
588.34	61172.24
588.49	61052.87
