SpectraSuite Data File
++++++++++++++++++++++++++++++++++++
Date: Fri Oct 25 11:25:09 EDT 2013
User: price-jones
Dark Spectrum Present: No
Reference Spectrum Present: No
Number of Sampled Component Spectra: 1
Spectrometers: USB2+H05261
Integration Time (usec): 100000 (USB2+H05261)
Spectra Averaged: 1 (USB2+H05261)
Boxcar Smoothing: 0 (USB2+H05261)
Correct for Electrical Dark: No (USB2+H05261)
Strobe/Lamp Enabled: No (USB2+H05261)
Correct for Detector Non-linearity: No (USB2+H05261)
Correct for Stray Light: No (USB2+H05261)
Number of Pixels in Processed Spectrum: 2048
>>>>>Begin Processed Spectral Data<<<<<
365.73	259.80
365.92	259.80
366.12	259.80
366.32	201.29
366.52	180.22
366.72	201.29
366.91	95.96
367.11	201.29
367.31	63.19
367.51	84.26
367.70	131.07
367.90	170.86
368.10	138.09
368.30	95.96
368.49	119.37
368.69	114.69
368.89	159.16
369.09	149.79
369.28	147.45
369.48	170.86
369.68	170.86
369.87	175.54
370.07	205.97
370.27	212.99
370.47	330.02
370.66	615.56
370.86	645.99
371.06	662.37
371.25	669.39
371.45	617.90
371.65	702.16
371.84	688.12
372.04	704.50
372.24	683.44
372.44	767.70
372.63	660.03
372.83	706.84
373.03	716.20
373.22	692.80
373.42	767.70
373.62	805.14
373.81	751.31
374.01	779.40
374.21	753.65
374.40	805.14
374.60	826.21
374.79	828.55
374.99	802.80
375.19	858.98
375.38	814.51
375.58	868.34
375.78	896.43
375.97	954.94
376.17	901.11
376.37	795.78
376.56	891.74
376.76	922.17
376.95	837.91
377.15	936.21
377.35	870.68
377.54	985.37
377.74	917.49
377.93	863.66
378.13	997.07
378.33	952.60
378.52	943.24
378.72	1001.75
378.91	1004.09
379.11	983.02
379.31	922.17
379.50	945.58
379.70	973.66
379.89	980.68
380.09	994.73
380.28	896.43
380.48	997.07
380.68	1053.24
380.87	980.68
381.07	1025.15
381.26	959.62
381.46	1095.37
381.65	1011.11
381.85	959.62
382.04	1001.75
382.24	976.00
382.43	1114.10
382.63	1104.73
382.83	1001.75
383.02	1097.71
383.22	1022.81
383.41	1015.79
383.61	1097.71
383.80	1172.61
384.00	1034.52
384.19	1118.78
384.39	1078.99
384.58	1177.29
384.78	1146.86
384.97	1097.71
385.17	1135.16
385.36	1139.84
385.56	1198.35
385.75	1249.85
385.95	1160.91
386.14	1135.16
386.34	1205.38
386.53	1167.93
386.72	1181.97
386.92	1214.74
387.11	1179.63
387.31	1167.93
387.50	1277.93
387.70	1207.72
387.89	1149.20
388.09	1296.66
388.28	1315.38
388.48	1315.38
388.67	1357.51
388.86	1362.19
389.06	1231.12
389.25	1411.34
389.45	1371.55
389.64	1350.49
389.84	1434.75
390.03	1380.92
390.22	1390.28
390.42	1273.25
390.61	1348.15
390.81	1331.76
391.00	1446.45
391.19	1399.64
391.39	1425.39
391.58	1413.68
391.78	1409.00
391.97	1448.79
392.16	1530.71
392.36	1605.61
392.55	1535.39
392.75	1497.94
392.94	1516.67
393.13	1521.35
393.33	1547.09
393.52	1591.56
393.71	1586.88
393.91	1596.25
394.10	1530.71
394.29	1509.65
394.49	1516.67
394.68	1589.22
394.88	1605.61
395.07	1703.91
395.26	1554.12
395.46	1680.50
395.65	1741.36
395.84	1720.29
396.04	1694.55
396.23	1696.89
396.42	1757.74
396.62	1708.59
396.81	1842.00
397.00	1774.13
397.19	1785.83
397.39	1797.53
397.58	1886.47
397.77	1785.83
397.97	1834.98
398.16	1872.43
398.35	1942.64
398.55	1928.60
398.74	1900.52
398.93	1844.34
399.12	1867.75
399.32	1860.73
399.51	1926.26
399.70	1987.11
399.90	1963.71
400.09	1956.69
400.28	2062.01
400.47	2040.95
400.67	2113.50
400.86	2087.76
401.05	2010.52
401.24	2045.63
401.44	2054.99
401.63	2167.34
401.82	2118.18
402.01	2239.89
402.21	2235.21
402.40	2197.76
402.59	2181.38
402.78	2202.44
402.97	2136.91
403.17	2120.53
403.36	2359.26
403.55	2296.07
403.74	2340.54
403.93	2361.60
404.13	2293.72
404.32	2258.62
404.51	2324.15
404.70	2375.64
404.89	2436.50
405.09	2427.14
405.28	2420.11
405.47	2403.73
405.66	2497.35
405.85	2464.58
406.05	2551.18
406.24	2560.55
406.43	2588.63
406.62	2541.82
406.81	2663.53
407.00	2597.99
407.20	2605.02
407.39	2782.90
407.58	2708.00
407.77	2700.98
407.96	2693.96
408.15	2700.98
408.34	2663.53
408.54	2745.45
408.73	2843.75
408.92	2754.81
409.11	2904.60
409.30	2979.50
409.49	2839.07
409.68	2920.99
409.87	2923.33
410.07	2981.84
410.26	2930.35
410.45	2895.24
410.64	3033.33
410.83	3014.61
411.02	3164.40
411.21	3166.74
411.40	3122.27
411.59	3131.64
411.78	3028.65
411.98	3251.00
412.17	3173.77
412.36	3248.66
412.55	3382.07
412.74	3349.31
412.93	3379.73
413.12	3323.56
413.31	3639.53
413.50	3473.36
413.69	3501.44
413.88	3604.42
414.07	3578.68
414.26	3550.59
414.45	3641.87
414.64	3662.94
414.83	3634.85
415.02	3625.49
415.22	3744.86
415.41	3784.65
415.60	3798.69
415.79	3894.65
415.98	3985.93
416.17	3957.85
416.36	3887.63
416.55	3948.48
416.74	3950.82
416.93	4091.26
417.12	4189.56
417.31	4276.16
417.50	4156.79
417.69	4128.70
417.88	4191.90
418.07	4241.05
418.26	4205.94
418.45	4297.22
418.64	4341.69
418.83	4369.78
419.02	4475.10
419.21	4360.42
419.39	4437.66
419.58	4320.63
419.77	4388.50
419.96	4484.47
420.15	4603.83
420.34	4585.11
420.53	4608.51
420.72	4835.55
420.91	4634.26
421.10	4758.31
421.29	4755.97
421.48	4557.02
421.67	4758.31
421.86	4627.24
422.05	4739.58
422.24	4683.41
422.43	4849.59
422.61	4758.31
422.80	5020.45
422.99	4767.67
423.18	4861.29
423.37	5013.43
423.56	4835.55
423.75	4950.23
423.94	4833.21
424.13	4671.71
424.32	4697.46
424.50	4873.00
424.69	5064.92
424.88	5008.75
425.07	4919.81
425.26	4814.48
425.45	4999.38
425.64	4947.89
425.83	5081.30
426.01	5008.75
426.20	5151.52
426.39	5179.61
426.58	5055.56
426.77	4973.64
426.96	5156.20
427.15	5249.82
427.33	5139.82
427.52	5076.62
427.71	5018.11
427.90	5163.22
428.09	5294.29
428.28	5355.15
428.46	5373.87
428.65	5392.59
428.84	5474.51
429.03	5392.59
429.22	5486.22
429.40	5537.71
429.59	5514.30
429.78	5298.97
429.97	5203.01
430.16	5397.28
430.34	5619.63
430.53	5696.86
430.72	5530.69
430.91	5437.06
431.10	5771.76
431.28	5696.86
431.47	5675.80
431.66	5760.06
431.85	5692.18
432.03	5916.87
432.22	5813.89
432.41	5781.12
432.60	5909.85
432.79	5893.47
432.97	6017.52
433.16	6045.60
433.35	6080.71
433.54	5928.58
433.72	6085.39
433.91	6129.86
434.10	6181.35
434.28	6085.39
434.47	6155.61
434.66	6265.61
434.85	6146.25
435.03	6221.14
435.22	6291.36
435.41	6537.12
435.59	6303.06
435.78	6368.60
435.97	6375.62
436.16	6321.79
436.34	6403.71
436.53	6228.17
436.72	6427.11
436.90	6368.60
437.09	6494.99
437.28	6387.32
437.46	6471.58
437.65	6600.31
437.84	6813.30
438.02	6778.19
438.21	6773.51
438.40	6834.36
438.58	7070.76
438.77	6920.96
438.96	6911.60
439.14	7218.21
439.33	7162.04
439.52	7166.72
439.70	7185.44
439.89	7241.62
440.08	7241.62
440.26	7318.86
440.45	7253.32
440.63	7419.50
440.82	7695.68
441.01	7531.84
441.19	7639.51
441.38	7616.10
441.57	7585.68
441.75	7634.83
441.94	7948.46
442.12	7934.42
442.31	8028.04
442.50	7889.95
442.68	7906.33
442.87	7969.52
443.05	7983.57
443.24	8079.53
443.43	8086.55
443.61	8091.23
443.80	8430.61
443.98	7988.25
444.17	7709.72
444.35	8308.90
444.54	8327.63
444.73	8189.53
444.91	8416.57
445.10	8231.66
445.28	8201.24
445.47	8390.82
445.65	8308.90
445.84	8428.27
446.02	8444.65
446.21	8252.73
446.39	8304.22
446.58	8287.84
446.77	8552.32
446.95	8365.07
447.14	8589.77
447.32	8451.67
447.51	8407.20
447.69	8358.05
447.88	8465.72
448.06	8678.71
448.25	8599.13
448.43	8718.50
448.62	8348.69
448.80	8552.32
448.99	8777.01
449.17	8578.06
449.36	8674.03
449.54	8896.38
449.73	8891.70
449.91	9032.13
450.10	8844.88
450.28	8917.44
450.46	9069.58
450.65	8971.27
450.83	9167.88
451.02	8994.68
451.20	8865.95
451.39	9090.64
451.57	9259.16
451.76	8877.65
451.94	9170.22
452.13	9371.50
452.31	9312.99
452.49	9156.18
452.68	9296.61
452.86	9385.55
453.05	9238.09
453.23	9502.58
453.42	9282.56
453.60	9317.67
453.78	9736.63
453.97	9315.33
454.15	9404.27
454.34	9378.53
454.52	9745.99
454.70	9650.03
454.89	9572.79
455.07	9813.87
455.26	9731.95
455.44	9760.03
455.62	9848.97
455.81	9783.44
455.99	9813.87
456.17	9921.53
456.36	10087.71
456.54	9914.51
456.73	10176.65
456.91	10303.04
457.09	10464.54
457.28	10544.11
457.46	10125.16
457.64	10427.09
457.83	10464.54
458.01	10186.01
458.19	10649.44
458.38	10466.88
458.56	10707.95
458.74	10569.86
458.93	10597.95
459.11	10485.60
459.29	10862.43
459.48	10843.70
459.66	10878.81
459.84	10913.92
460.03	10920.94
460.21	10803.91
460.39	10902.22
460.57	11056.69
460.76	11157.33
460.94	11037.97
461.12	11052.01
461.31	11152.65
461.49	11180.74
461.67	11089.46
461.85	11403.09
462.04	11332.87
462.22	11630.12
462.40	11454.58
462.59	11592.67
462.77	11606.72
462.95	11763.53
463.13	11555.22
463.32	11623.10
463.50	11569.27
463.68	11613.74
463.86	11669.91
464.05	11606.72
464.23	11742.47
464.41	11946.09
464.59	11782.26
464.78	12109.93
464.96	11978.86
465.14	11831.41
465.32	12023.33
465.50	12152.06
465.69	12285.47
465.87	12065.46
466.05	12051.42
466.23	12093.55
466.41	12245.68
466.60	12437.61
466.78	12182.49
466.96	12006.95
467.14	12201.21
467.32	12386.12
467.51	12461.01
467.69	12028.01
467.87	12219.94
468.05	12383.77
468.23	12241.00
468.41	12549.95
468.60	12615.49
468.78	12564.00
468.96	12596.76
469.14	12526.55
469.32	13090.62
469.50	12456.33
469.69	12910.40
469.87	13137.43
470.05	12980.61
470.23	12798.05
470.41	13191.26
470.59	13245.09
470.77	13193.60
470.95	13074.23
471.14	13554.04
471.32	12975.93
471.50	13664.05
471.68	13479.15
471.86	13661.71
472.04	13525.96
472.22	13738.94
472.40	13425.31
472.58	13804.48
472.77	13916.83
472.95	14012.79
473.13	14668.14
473.31	14073.64
473.49	14303.01
473.67	13769.37
473.85	14359.19
474.03	14661.12
474.21	14600.26
474.39	14965.39
474.57	14780.48
474.75	15108.16
474.93	14934.96
475.12	14736.01
475.30	14934.96
475.48	14963.04
475.66	15122.20
475.84	15014.54
476.02	15159.65
476.20	15424.13
476.38	15733.08
476.56	15988.20
476.74	16081.82
476.92	15950.75
477.10	15609.03
477.28	16170.76
477.46	15988.20
477.64	16486.73
477.82	16526.52
478.00	16718.45
478.18	16868.24
478.36	16898.67
478.54	17212.30
478.72	17231.02
478.90	17298.90
479.08	17399.54
479.26	17451.03
479.44	17565.72
479.62	17949.57
479.80	18085.32
479.98	18101.70
480.16	18340.44
480.34	18326.39
480.52	18717.26
480.70	18459.81
480.88	18260.86
481.06	18820.25
481.24	18508.96
481.41	19295.38
481.59	19470.92
481.77	19133.88
481.95	19283.67
482.13	19552.84
482.31	19494.32
482.49	20077.12
482.67	19955.41
482.85	20119.24
483.03	20524.16
483.21	20524.16
483.39	20917.37
483.57	20952.48
483.74	20999.29
483.92	21418.24
484.10	21076.52
484.28	21713.15
484.46	21757.62
484.64	22286.58
484.82	21720.17
485.00	21804.43
485.18	22600.21
485.35	23058.96
485.53	22799.16
485.71	22876.40
485.89	23262.58
486.07	23199.39
486.25	23274.29
486.43	23410.04
486.61	23910.91
486.78	23770.48
486.96	24339.23
487.14	24311.14
487.32	24753.51
487.50	24584.99
487.68	24582.65
487.85	25528.22
488.03	25376.09
488.21	25408.86
488.39	25902.71
488.57	25998.67
488.75	26302.94
488.92	26324.01
489.10	26321.66
489.28	26340.39
489.46	26918.50
489.64	26874.03
489.81	27655.77
489.99	27578.53
490.17	27407.67
490.35	28102.81
490.53	27943.66
490.70	28259.63
490.88	28554.54
491.06	28814.34
491.24	28519.43
491.41	29027.32
491.59	28950.09
491.77	29216.91
491.95	29762.25
492.13	28966.47
492.30	29869.92
492.48	30050.14
492.66	29984.60
492.84	30085.25
493.01	30691.44
493.19	30529.95
493.37	30845.92
493.54	30813.15
493.72	31103.38
493.90	31222.75
494.08	31810.22
494.25	31707.24
494.43	32449.19
494.61	32112.15
494.79	32669.20
494.96	32093.43
495.14	32875.16
495.32	33251.99
495.49	33273.06
495.67	33123.26
495.85	33390.08
496.02	33570.30
496.20	34148.42
496.38	33837.12
496.55	33837.12
496.73	34668.02
496.91	34361.40
497.09	34766.32
497.26	34478.43
497.44	34756.96
497.62	35143.14
497.79	35737.64
497.97	35356.13
498.14	35508.27
498.32	35826.58
498.50	35761.05
498.67	36210.43
498.85	36535.76
499.03	36648.11
499.20	36524.06
499.38	36652.79
499.56	36802.58
499.73	36765.14
499.91	37092.81
500.08	37357.29
500.26	37343.25
500.44	37570.28
500.61	37684.97
500.79	37502.40
500.97	38003.28
501.14	38345.00
501.32	37970.51
501.49	38436.28
501.67	38675.01
501.84	38897.36
502.02	38759.27
502.20	39133.76
502.37	38906.73
502.55	39337.38
502.72	39505.90
502.90	39110.35
503.07	39370.15
503.25	39412.28
503.43	39943.58
503.60	39828.90
503.78	39999.76
503.95	40123.80
504.13	40264.24
504.30	40409.35
504.48	40315.73
504.65	40722.98
504.83	40907.88
505.01	40713.62
505.18	41081.08
505.36	41572.60
505.53	41317.48
505.71	41532.81
505.88	41319.82
506.06	41333.86
506.23	41748.14
506.41	41706.01
506.58	41680.26
506.76	42178.79
506.93	42553.28
507.11	42249.01
507.28	42241.99
507.46	42436.25
507.63	42579.03
507.81	42550.94
507.98	42754.57
508.16	42848.19
508.33	43269.48
508.50	43435.66
508.68	43192.25
508.85	43917.81
509.03	44069.95
509.20	43859.30
509.38	44215.06
509.55	43917.81
509.73	44083.99
509.90	44725.30
510.08	44456.14
510.25	44189.31
510.42	44423.37
510.60	45202.77
510.77	45265.96
510.95	44961.69
511.12	44638.70
511.30	45022.54
511.47	45029.57
511.64	45317.45
511.82	45542.14
511.99	45038.93
512.17	45595.98
512.34	45537.46
512.51	46522.83
512.69	46089.83
512.86	46038.34
513.04	46380.06
513.21	46651.56
513.38	46845.82
513.56	46759.22
513.73	46508.79
513.90	46504.10
514.08	46735.82
514.25	47166.48
514.43	47222.65
514.60	47154.77
514.77	47056.47
514.95	47363.08
515.12	47112.64
515.29	47334.99
515.47	48002.05
515.64	48048.86
515.81	47697.78
515.99	48107.37
516.16	48076.94
516.33	48280.57
516.51	48589.52
516.68	48177.59
516.85	48425.68
517.03	48729.95
517.20	49029.54
517.37	48514.62
517.54	48758.04
517.72	48732.29
517.89	48935.92
518.06	49095.08
518.24	48832.94
518.41	48748.68
518.58	49083.37
518.75	49181.68
518.93	49495.31
519.10	49315.09
519.27	49591.27
519.45	49439.14
519.62	49432.11
519.79	50047.68
519.96	49860.43
520.14	50010.23
520.31	49689.57
520.48	50232.58
520.65	49961.08
520.83	50429.18
521.00	50590.68
521.17	50127.25
521.34	50548.55
521.52	50684.30
521.69	50459.61
521.86	50965.17
522.03	51187.52
522.20	51164.11
522.38	51107.94
522.55	51278.80
522.72	51529.23
522.89	51011.98
523.07	51501.15
523.24	51061.13
523.41	51683.71
523.58	51227.31
523.75	51765.63
523.92	51672.01
524.10	51880.31
524.27	51742.22
524.44	51985.64
524.61	51896.70
524.78	52065.22
524.96	52233.74
525.13	52083.94
525.30	52437.36
525.47	52369.49
525.64	52561.41
525.81	52439.70
525.98	52385.87
526.16	52488.85
526.33	52556.73
526.50	52720.57
526.67	52271.18
526.84	52935.90
527.01	53099.73
527.18	52704.18
527.36	52528.64
527.53	53029.52
527.70	52938.24
527.87	53263.57
528.04	53076.33
528.21	53380.60
528.38	53347.83
528.55	53263.57
528.72	53317.40
528.89	53373.58
529.07	53167.61
529.24	53324.43
529.41	53389.96
529.58	53478.90
529.75	53429.75
529.92	53708.27
530.09	53631.04
530.26	53757.42
530.43	53876.79
530.60	53399.32
530.77	53694.23
530.94	53897.86
531.11	53829.98
531.28	53921.26
531.46	53965.73
531.63	54096.80
531.80	54122.55
531.97	54454.90
532.14	54291.07
532.31	54319.15
532.48	54321.49
532.65	54480.65
532.82	54450.22
532.99	54234.89
533.16	54368.30
533.33	54614.06
533.50	54782.58
533.67	54717.04
533.84	54759.17
534.01	54600.02
534.18	54749.81
534.35	55065.78
534.52	54976.84
534.69	54843.43
534.86	55117.28
535.03	54958.12
535.20	54965.14
535.37	55297.50
535.54	55360.69
535.71	55140.68
535.88	55391.12
536.05	55590.06
536.22	55253.03
536.38	55611.13
536.55	55398.14
536.72	55592.40
536.89	55182.81
537.06	55573.68
537.23	55863.91
537.40	55482.40
537.57	55489.42
537.74	55508.14
537.91	56060.51
538.08	55899.01
538.25	55449.63
538.42	55662.62
538.59	56081.58
538.75	55798.37
538.92	55819.44
539.09	56060.51
539.26	56074.55
539.43	55983.27
539.60	55917.74
539.77	56243.07
539.94	56247.75
540.11	55978.59
540.28	55992.64
540.44	56184.56
540.61	56247.75
540.78	56451.38
540.95	56444.36
541.12	56018.38
541.29	56212.65
541.46	56376.48
541.62	56481.81
541.79	56638.62
541.96	56247.75
542.13	56657.35
542.30	56488.83
542.47	56626.92
542.63	56783.74
542.80	56793.10
542.97	57036.51
543.14	57045.88
543.31	57020.13
543.48	57153.54
543.64	57453.13
543.81	57097.37
543.98	57244.82
544.15	57249.50
544.32	57411.00
544.48	57462.49
544.65	57071.62
544.82	57268.23
544.99	57272.91
545.16	57455.47
545.32	57411.00
545.49	57588.88
545.66	57523.35
545.83	57434.41
546.00	57539.73
546.16	57516.32
546.33	57471.85
546.50	57415.68
546.67	57612.29
546.83	57385.25
547.00	57698.89
547.17	57705.91
547.34	57506.96
547.50	57867.40
547.67	58040.60
547.84	57806.55
548.00	57949.32
548.17	57958.69
548.34	57748.04
548.51	58131.89
548.67	57989.11
548.84	57909.53
549.01	57900.17
549.18	58094.44
549.34	58176.36
549.51	58202.10
549.68	58382.32
549.84	58120.18
550.01	58312.11
550.18	58134.23
550.34	58328.49
550.51	58482.97
550.68	58356.58
550.84	58305.09
551.01	58354.24
551.18	58382.32
551.34	58396.37
551.51	58459.56
551.68	58478.28
551.84	58260.62
552.01	58506.37
552.18	58534.46
552.34	58398.71
552.51	58651.48
552.68	58365.94
552.84	58403.39
553.01	58808.30
553.18	58745.11
553.34	58745.11
553.51	58887.88
553.67	58688.93
553.84	58796.60
554.01	58866.81
554.17	58894.90
554.34	58747.45
554.51	58782.55
554.67	58997.88
554.84	59065.76
555.00	58946.39
555.17	58969.80
555.33	58932.35
555.50	58817.66
555.67	59002.56
555.83	58930.01
556.00	58770.85
556.16	59217.89
556.33	59201.51
556.50	59028.31
556.66	59037.67
556.83	58890.22
556.99	59274.07
557.16	59306.83
557.32	59332.58
557.49	59578.34
557.65	59189.81
557.82	59395.77
557.98	59262.36
558.15	59412.16
558.32	59316.20
558.48	59238.96
558.65	59433.22
558.81	59264.70
558.98	59201.51
559.14	59585.36
559.31	59601.74
559.47	59671.96
559.64	59482.37
559.80	59461.31
559.97	59482.37
560.13	59533.87
560.30	59496.42
560.46	59742.17
560.63	59767.92
560.79	59702.38
560.96	59767.92
561.12	59721.11
561.29	59737.49
561.45	59786.64
561.61	59536.21
561.78	59774.94
561.94	59494.08
562.11	59639.19
562.27	59884.95
562.44	59833.46
562.60	60072.19
562.77	59831.11
562.93	59608.76
563.10	59992.61
563.26	59688.34
563.42	59845.16
563.59	60023.04
563.75	59519.82
563.92	59777.28
564.08	59950.48
564.24	60196.24
564.41	60121.34
564.57	60051.12
564.74	59929.42
564.90	59994.95
565.07	60034.74
565.23	59955.16
565.39	60027.72
565.56	60221.98
565.72	60072.19
565.88	60144.75
566.05	59868.56
566.21	60114.32
566.38	60097.94
566.54	60142.41
566.70	60158.79
566.87	60229.01
567.03	60224.32
567.19	60451.36
567.36	60191.56
567.52	60046.44
567.68	60378.80
567.85	60079.21
568.01	60287.52
568.17	60285.18
568.34	60322.63
568.50	60289.86
568.66	60273.48
568.83	60196.24
568.99	60156.45
569.15	60226.66
569.32	60313.26
569.48	60360.08
569.64	60306.24
569.81	60432.63
569.97	60104.96
570.13	60275.82
570.30	60074.53
570.46	60512.21
570.62	60282.84
570.78	60331.99
570.95	60348.37
571.11	60589.45
571.27	60420.93
571.43	60420.93
571.60	60708.82
571.76	60514.55
571.92	60203.26
572.09	60509.87
572.25	60388.16
572.41	60292.20
572.57	60458.38
572.74	60678.39
572.90	60472.42
573.06	60580.09
573.22	60402.21
573.38	60533.28
573.55	60547.32
573.71	60636.26
573.87	60561.36
574.03	60512.21
574.20	60596.47
574.36	60505.19
574.52	60594.13
574.68	60640.94
574.84	60722.86
575.01	60570.72
575.17	60509.87
575.33	60472.42
575.49	60619.88
575.65	60640.94
575.82	60896.06
575.98	60643.28
576.14	60603.49
576.30	60790.73
576.46	60575.40
576.62	60669.03
576.79	60587.11
576.95	60725.20
577.11	60629.24
577.27	60825.84
577.43	60842.23
577.59	60732.22
577.75	60612.85
577.92	60540.30
578.08	60542.64
578.24	60664.35
578.40	60783.71
578.56	60764.99
578.72	60652.64
578.88	60764.99
579.04	60889.04
579.21	60652.64
579.37	60856.27
579.53	60994.36
579.69	60507.53
579.85	60554.34
580.01	60685.41
580.17	60619.88
580.33	60781.37
580.49	60823.50
580.65	60699.45
580.82	60540.30
580.98	60601.15
581.14	60654.98
581.30	60917.12
581.46	60654.98
581.62	60823.50
581.78	60561.36
581.94	60636.26
582.10	60844.57
582.26	60706.47
582.42	60666.69
582.58	60835.20
582.74	60701.79
582.90	60996.70
583.06	60917.12
583.22	60912.44
583.38	60793.07
583.54	60851.59
583.70	60982.66
583.86	60867.97
584.02	60654.98
584.18	60874.99
584.34	60907.76
584.50	60849.25
584.66	60603.49
584.82	60828.18
584.98	61160.54
585.14	61027.13
585.30	60624.56
585.46	60874.99
585.62	60973.30
585.78	60956.91
585.94	60767.33
586.10	60921.80
586.26	60891.38
586.42	61024.79
586.58	60896.06
586.74	60992.02
586.90	60814.14
587.06	60893.72
587.22	61102.03
587.38	60891.38
587.54	60985.00
587.70	61200.33
587.86	60832.86
588.02	60886.70
588.18	61127.77
588.34	60980.32
588.49	60907.76
