SpectraSuite Data File
++++++++++++++++++++++++++++++++++++
Date: Fri Oct 25 11:24:03 EDT 2013
User: price-jones
Dark Spectrum Present: No
Reference Spectrum Present: No
Number of Sampled Component Spectra: 1
Spectrometers: USB2+H05261
Integration Time (usec): 100000 (USB2+H05261)
Spectra Averaged: 1 (USB2+H05261)
Boxcar Smoothing: 0 (USB2+H05261)
Correct for Electrical Dark: No (USB2+H05261)
Strobe/Lamp Enabled: No (USB2+H05261)
Correct for Detector Non-linearity: No (USB2+H05261)
Correct for Stray Light: No (USB2+H05261)
Number of Pixels in Processed Spectrum: 2048
>>>>>Begin Processed Spectral Data<<<<<
365.73	229.37
365.92	229.37
366.12	229.37
366.32	161.50
366.52	117.03
366.72	91.28
366.91	105.32
367.11	53.83
367.31	156.82
367.51	112.35
367.70	105.32
367.90	124.05
368.10	196.60
368.30	105.32
368.49	252.78
368.69	117.03
368.89	159.16
369.09	180.22
369.28	128.73
369.48	88.94
369.68	114.69
369.87	238.73
370.07	243.42
370.27	224.69
370.47	327.68
370.66	568.75
370.86	601.52
371.06	571.09
371.25	620.24
371.45	660.03
371.65	671.73
371.84	638.97
372.04	685.78
372.24	683.44
372.44	767.70
372.63	758.33
372.83	765.36
373.03	765.36
373.22	786.42
373.42	734.93
373.62	732.59
373.81	723.23
374.01	744.29
374.21	821.53
374.40	793.44
374.60	809.83
374.79	826.21
374.99	863.66
375.19	861.32
375.38	842.59
375.58	830.89
375.78	964.30
375.97	830.89
376.17	919.83
376.37	898.77
376.56	917.49
376.76	887.06
376.95	812.17
377.15	901.11
377.35	952.60
377.54	929.19
377.74	875.36
377.93	894.08
378.13	915.15
378.33	947.92
378.52	933.87
378.72	931.53
378.91	992.39
379.11	971.32
379.31	976.00
379.50	954.94
379.70	1015.79
379.89	1008.77
380.09	1034.52
380.28	966.64
380.48	922.17
380.68	1004.09
380.87	959.62
381.07	1004.09
381.26	1125.80
381.46	1004.09
381.65	973.66
381.85	961.96
382.04	1057.92
382.24	947.92
382.43	976.00
382.63	992.39
382.83	1109.41
383.02	1102.39
383.22	1022.81
383.41	985.37
383.61	1128.14
383.80	1156.22
384.00	1128.14
384.19	1240.48
384.39	1146.86
384.58	1149.20
384.78	1130.48
384.97	1200.69
385.17	1217.08
385.36	1116.44
385.56	1158.57
385.75	1121.12
385.95	1097.71
386.14	1191.33
386.34	1200.69
386.53	1233.46
386.72	1153.88
386.92	1252.19
387.11	1123.46
387.31	1233.46
387.50	1247.51
387.70	1224.10
387.89	1329.42
388.09	1277.93
388.28	1301.34
388.48	1308.36
388.67	1430.07
388.86	1261.55
389.06	1254.53
389.25	1247.51
389.45	1401.98
389.64	1320.06
389.84	1399.64
390.03	1390.28
390.22	1357.51
390.42	1341.13
390.61	1362.19
390.81	1472.20
391.00	1409.00
391.19	1430.07
391.39	1380.92
391.58	1401.98
391.78	1359.85
391.97	1577.52
392.16	1444.11
392.36	1570.50
392.55	1493.26
392.75	1495.60
392.94	1479.22
393.13	1535.39
393.33	1603.27
393.52	1540.07
393.71	1591.56
393.91	1479.22
394.10	1591.56
394.29	1640.72
394.49	1523.69
394.68	1675.82
394.88	1675.82
395.07	1640.72
395.26	1542.41
395.46	1631.35
395.65	1750.72
395.84	1687.53
396.04	1799.87
396.23	1788.17
396.42	1720.29
396.62	1689.87
396.81	1804.55
397.00	1825.62
397.19	1764.76
397.39	1874.77
397.58	1886.47
397.77	1783.49
397.97	1858.39
398.16	1753.06
398.35	1834.98
398.55	1884.13
398.74	1870.09
398.93	1893.49
399.12	1842.00
399.32	1949.67
399.51	1893.49
399.70	1980.09
399.90	1872.43
400.09	2047.97
400.28	2165.00
400.47	1998.82
400.67	2127.55
400.86	2026.90
401.05	1998.82
401.24	2015.20
401.44	2193.08
401.63	2216.49
401.82	2190.74
402.01	2169.68
402.21	2186.06
402.40	2172.02
402.59	2265.64
402.78	2200.10
402.97	2225.85
403.17	2246.91
403.36	2235.21
403.55	2296.07
403.74	2436.50
403.93	2361.60
404.13	2363.94
404.32	2317.13
404.51	2345.22
404.70	2511.39
404.89	2401.39
405.09	2576.93
405.28	2459.90
405.47	2520.76
405.66	2504.37
405.85	2590.97
406.05	2565.23
406.24	2612.04
406.43	2483.31
406.62	2722.04
406.81	2579.27
407.00	2595.65
407.20	2562.89
407.39	2670.55
407.58	2710.34
407.77	2789.92
407.96	2621.40
408.15	2656.51
408.34	2679.91
408.54	2860.13
408.73	2810.98
408.92	2789.92
409.11	2846.09
409.30	2860.13
409.49	2874.18
409.68	2902.26
409.87	3000.57
410.07	3049.72
410.26	2977.16
410.45	2956.10
410.64	2960.78
410.83	3000.57
411.02	3045.04
411.21	3206.53
411.40	3155.04
411.59	3155.04
411.78	3234.62
411.98	3365.69
412.17	3281.43
412.36	3461.65
412.55	3435.91
412.74	3534.21
412.93	3431.23
413.12	3417.18
413.31	3592.72
413.50	3513.14
413.69	3445.27
413.88	3716.77
414.07	3578.68
414.26	3651.24
414.45	3660.60
414.64	3569.32
414.83	3786.99
415.02	3843.16
415.22	3920.40
415.41	3772.94
415.60	3782.31
415.79	3918.06
415.98	3920.40
416.17	4009.34
416.36	4002.32
416.55	4016.36
416.74	3983.59
416.93	4142.75
417.12	4191.90
417.31	4238.71
417.50	4269.14
417.69	4212.96
417.88	4227.01
418.07	4222.33
418.26	4376.80
418.45	4418.93
418.64	4545.32
418.83	4294.88
419.02	4479.79
419.21	4664.69
419.39	4491.49
419.58	4571.07
419.77	4582.77
419.96	4636.60
420.15	4634.26
420.34	4463.40
420.53	4669.37
420.72	4798.10
420.91	4723.20
421.10	4758.31
421.29	4734.90
421.48	4676.39
421.67	4830.87
421.86	4762.99
422.05	4828.53
422.24	4805.12
422.43	4727.88
422.61	5011.09
422.80	4983.00
422.99	4870.65
423.18	4917.47
423.37	5039.17
423.56	4919.81
423.75	5165.56
423.94	4952.57
424.13	4561.70
424.32	4664.69
424.50	4903.42
424.69	5165.56
424.88	5018.11
425.07	4877.68
425.26	4997.04
425.45	4868.31
425.64	5022.79
425.83	4968.96
426.01	5149.18
426.20	5046.20
426.39	5128.11
426.58	5123.43
426.77	5231.10
426.96	5256.84
427.15	5142.16
427.33	5153.86
427.52	5116.41
427.71	5226.42
427.90	5224.08
428.09	5282.59
428.28	5301.31
428.46	5268.55
428.65	5245.14
428.84	5483.88
429.03	5579.84
429.22	5373.87
429.40	5481.53
429.59	5790.49
429.78	5469.83
429.97	5231.10
430.16	5451.11
430.34	5516.64
430.53	5813.89
430.72	5633.67
430.91	5600.90
431.10	5535.37
431.28	5703.89
431.47	5781.12
431.66	5858.36
431.85	5944.96
432.03	5795.17
432.22	6083.05
432.41	6001.13
432.60	5902.83
432.79	5884.11
432.97	6010.50
433.16	5975.39
433.35	5959.00
433.54	6186.04
433.72	6157.95
433.91	5984.75
434.10	6141.57
434.28	6036.24
434.47	6181.35
434.66	6324.13
434.85	6417.75
435.03	6314.77
435.22	6335.83
435.41	6588.61
435.59	6282.00
435.78	6452.86
435.97	6394.34
436.16	6399.02
436.34	6506.69
436.53	6427.11
436.72	6707.98
436.90	6314.77
437.09	6588.61
437.28	6567.54
437.46	6537.12
437.65	6516.05
437.84	6691.59
438.02	6642.44
438.21	6810.96
438.40	6633.08
438.58	6817.98
438.77	6981.82
438.96	6965.43
439.14	7110.55
439.33	7054.37
439.52	7297.79
439.70	7258.00
439.89	7492.05
440.08	7510.78
440.26	7391.41
440.45	7435.88
440.63	7389.07
440.82	7489.71
441.01	7534.18
441.19	7508.44
441.38	7765.90
441.57	7873.56
441.75	7770.58
441.94	7803.35
442.12	8121.66
442.31	8032.72
442.50	8121.66
442.68	8107.62
442.87	8203.58
443.05	8163.79
443.24	8346.35
443.43	8210.60
443.61	8243.37
443.80	8369.76
443.98	8086.55
444.17	7960.16
444.35	8093.57
444.54	8416.57
444.73	8163.79
444.91	8346.35
445.10	8449.33
445.28	8400.18
445.47	8226.98
445.65	8313.58
445.84	8470.40
446.02	8608.49
446.21	8348.69
446.39	8414.23
446.58	8521.89
446.77	8622.53
446.95	8266.77
447.14	8503.17
447.32	8652.96
447.51	8531.25
447.69	8327.63
447.88	8564.02
448.06	8571.04
448.25	8741.90
448.43	8615.51
448.62	8676.37
448.80	8622.53
448.99	8741.90
449.17	8767.65
449.36	8706.79
449.54	8882.33
449.73	8875.31
449.91	9088.30
450.10	8905.74
450.28	9156.18
450.46	9125.75
450.65	9135.11
450.83	9245.12
451.02	9142.13
451.20	9284.91
451.39	9174.90
451.57	9114.05
451.76	9135.11
451.94	9270.86
452.13	9184.26
452.31	9408.95
452.49	9224.05
452.68	9287.25
452.86	9371.50
453.05	9668.75
453.23	9488.53
453.42	9518.96
453.60	9570.45
453.78	9547.05
453.97	9575.13
454.15	9362.14
454.34	9619.60
454.52	9687.48
454.70	9643.01
454.89	9820.89
455.07	10071.33
455.26	9914.51
455.44	9902.81
455.62	9762.37
455.81	9848.97
455.99	10111.11
456.17	10202.40
456.36	10071.33
456.54	10176.65
456.73	10307.72
456.91	10509.01
457.09	10389.64
457.28	10611.99
457.46	10499.64
457.64	10644.76
457.83	10565.18
458.01	10546.45
458.19	10621.35
458.38	10616.67
458.56	10754.76
458.74	10717.31
458.93	10789.87
459.11	10906.90
459.29	10817.96
459.48	10712.63
459.66	10843.70
459.84	10745.40
460.03	11012.22
460.21	10965.41
460.39	11016.90
460.57	11103.50
460.76	11183.08
460.94	11108.18
461.12	11016.90
461.31	11169.04
461.49	11213.51
461.67	11389.05
461.85	11719.06
462.04	11470.97
462.22	11674.59
462.40	11573.95
462.59	11520.12
462.77	11527.14
462.95	11833.75
463.13	11793.96
463.32	11513.10
463.50	11815.02
463.68	11632.46
463.86	11613.74
464.05	11705.02
464.23	11595.01
464.41	11971.84
464.59	11843.11
464.78	11960.14
464.96	11824.39
465.14	12056.10
465.32	11859.49
465.50	12264.41
465.69	12205.89
465.87	12170.79
466.05	12257.39
466.23	12222.28
466.41	12353.35
466.60	12547.61
466.78	12109.93
466.96	12332.28
467.14	12519.53
467.32	12388.46
467.51	12514.84
467.69	12252.70
467.87	12372.07
468.05	12800.39
468.23	12388.46
468.41	12449.31
468.60	12610.81
468.78	12641.23
468.96	12828.48
469.14	12957.21
469.32	12994.65
469.50	12666.98
469.69	12879.97
469.87	13224.03
470.05	13238.07
470.23	13294.24
470.41	13055.51
470.59	13261.48
470.77	13282.54
470.95	13598.51
471.14	13490.85
471.32	13287.22
471.50	13645.32
471.68	13624.26
471.86	13958.96
472.04	13720.22
472.22	14127.47
472.40	13811.50
472.58	13977.68
472.77	13963.64
472.95	14075.98
473.13	14614.30
473.31	14148.54
473.49	14040.87
473.67	14225.78
473.85	14235.14
474.03	14897.51
474.21	14656.43
474.39	14757.08
474.57	14850.70
474.75	14733.67
474.93	14988.79
475.12	15169.01
475.30	15250.93
475.48	15040.28
475.66	15190.08
475.84	15356.25
476.02	15489.67
476.20	15344.55
476.38	15587.97
476.56	16056.08
476.74	16039.69
476.92	15955.43
477.10	15810.32
477.28	16250.34
477.46	16145.02
477.64	16489.07
477.82	16882.28
478.00	16821.43
478.18	17015.69
478.36	16926.75
478.54	17116.34
478.72	17245.07
478.90	17460.40
479.08	17930.84
479.26	17539.97
479.44	17692.11
479.62	17825.52
479.80	18267.88
479.98	18349.80
480.16	18768.76
480.34	18120.43
480.52	18478.53
480.70	18728.97
480.88	18558.11
481.06	18806.20
481.24	18855.36
481.41	19332.82
481.59	19445.17
481.77	19480.28
481.95	19779.87
482.13	19763.48
482.31	19896.89
482.49	20180.10
482.67	20458.62
482.85	20615.44
483.03	20563.95
483.21	21013.33
483.39	20702.04
483.57	20793.32
483.74	21429.94
483.92	21509.52
484.10	21462.71
484.28	22031.46
484.46	22115.72
484.64	22642.34
484.82	21916.78
485.00	22590.85
485.18	22937.25
485.35	22916.19
485.53	23075.34
485.71	23267.27
485.89	23454.51
486.07	23349.18
486.25	23653.45
486.43	23459.19
486.61	23648.77
486.78	24306.46
486.96	24442.21
487.14	24519.45
487.32	24601.37
487.50	25090.54
487.68	25273.10
487.85	25156.08
488.03	25883.98
488.21	25921.43
488.39	26160.17
488.57	26216.34
488.75	26363.79
488.92	26403.58
489.10	26925.52
489.28	26813.18
489.46	27187.66
489.64	26986.38
489.81	27410.01
489.99	27819.61
490.17	28020.89
490.35	27915.57
490.53	28084.09
490.70	28575.60
490.88	28254.95
491.06	29074.13
491.24	28828.38
491.41	29184.14
491.59	29130.31
491.77	29570.33
491.95	29844.17
492.13	30202.27
492.30	30298.23
492.48	30005.67
492.66	30022.05
492.84	30628.25
493.01	30838.90
493.19	30714.85
493.37	31082.31
493.54	31171.25
493.72	31496.59
493.90	31246.15
494.08	31782.13
494.25	32144.92
494.43	32081.72
494.61	32458.55
494.79	32624.73
494.96	32591.96
495.14	32779.20
495.32	33186.46
495.49	33280.08
495.67	33579.67
495.85	33743.50
496.02	33865.21
496.20	34401.19
496.38	33958.83
496.55	34087.56
496.73	35154.85
496.91	34382.47
497.09	34773.34
497.26	35407.62
497.44	35349.11
497.62	35377.20
497.79	35625.29
497.97	35627.63
498.14	36121.49
498.32	36161.28
498.50	36297.03
498.67	36746.41
498.85	36863.44
499.03	36622.36
499.20	37020.25
499.38	37556.24
499.56	37235.58
499.73	37200.47
499.91	37710.71
500.08	37809.01
500.26	37476.66
500.44	37656.88
500.61	38380.10
500.79	37532.83
500.97	38246.69
501.14	38986.30
501.32	38836.51
501.49	38330.95
501.67	39161.84
501.84	39262.49
502.02	39302.28
502.20	39124.40
502.37	39388.88
502.55	39166.52
502.72	39412.28
502.90	39625.27
503.07	39697.83
503.25	39931.88
503.43	39971.67
503.60	40161.25
503.78	40371.90
503.95	40212.74
504.13	40856.39
504.30	40374.24
504.48	40989.80
504.65	41258.96
504.83	41137.26
505.01	41153.64
505.18	41270.67
505.36	41904.95
505.53	41383.01
505.71	41670.90
505.88	42024.32
506.06	41691.96
506.23	42309.86
506.41	42024.32
506.58	41886.23
506.76	42508.81
506.93	42579.03
507.11	42466.68
507.28	42691.37
507.46	42871.59
507.63	42906.70
507.81	43068.20
507.98	43042.45
508.16	43185.22
508.33	43426.30
508.50	43470.77
508.68	43634.61
508.85	43737.59
509.03	43812.49
509.20	44257.19
509.38	44706.57
509.55	44201.02
509.73	44388.26
509.90	44985.10
510.08	44364.85
510.25	44933.60
510.42	45303.41
510.60	44779.13
510.77	45471.93
510.95	45298.73
511.12	45125.53
511.30	45329.16
511.47	45413.41
511.64	45691.94
511.82	46260.69
511.99	45509.38
512.17	45808.96
512.34	46223.24
512.51	46515.81
512.69	46780.29
512.86	46642.20
513.04	46703.05
513.21	46674.96
513.38	47044.77
513.56	46960.51
513.73	46618.79
513.90	47178.18
514.08	47012.00
514.25	47578.41
514.43	47566.71
514.60	47711.82
514.77	47217.97
514.95	47592.45
515.12	47398.19
515.29	47927.15
515.47	48212.70
515.64	48334.40
515.81	48303.98
515.99	48243.12
516.16	48615.27
516.33	48353.13
516.51	49024.86
516.68	48694.85
516.85	48589.52
517.03	49109.12
517.20	49001.46
517.37	48961.67
517.54	49139.55
517.72	48839.96
517.89	49551.48
518.06	49698.94
518.24	49474.24
518.41	49352.54
518.58	49528.08
518.75	49340.83
518.93	49712.98
519.10	49989.16
519.27	49968.10
519.45	49839.37
519.62	50199.81
519.79	49911.92
519.96	50050.02
520.14	50337.90
520.31	50415.14
520.48	50480.67
520.65	50541.53
520.83	50958.14
521.00	50724.09
521.17	50480.67
521.34	50972.19
521.52	51079.85
521.69	50955.80
521.86	51058.79
522.03	51402.85
522.20	51409.87
522.38	51622.86
522.55	51388.80
522.72	51395.82
522.89	51533.92
523.07	51856.91
523.24	51599.45
523.41	51863.93
523.58	51587.75
523.75	51980.96
523.92	52034.79
524.10	52310.97
524.27	52217.35
524.44	52325.02
524.61	52250.12
524.78	52266.50
524.96	52027.77
525.13	52624.60
525.30	52748.65
525.47	52664.39
525.64	52582.48
525.81	52587.16
525.98	52697.16
526.16	52701.84
526.33	52900.79
526.50	53102.07
526.67	52547.37
526.84	53275.27
527.01	52910.15
527.18	52893.77
527.36	52975.69
527.53	53130.16
527.70	53497.62
527.87	53570.18
528.04	53638.06
528.21	53558.48
528.38	53530.39
528.55	53996.16
528.72	53539.75
528.89	53567.84
529.07	53471.88
529.24	53516.35
529.41	53736.36
529.58	53881.47
529.75	53984.46
529.92	53963.39
530.09	53893.18
530.26	53991.48
530.43	54108.50
530.60	53783.17
530.77	54113.19
530.94	54145.95
531.11	54267.66
531.28	54148.29
531.46	54138.93
531.63	54663.21
531.80	54349.58
531.97	54557.89
532.14	54555.55
532.31	54293.41
532.48	54597.68
532.65	54817.69
532.82	54712.36
532.99	55035.36
533.16	54588.31
533.33	54930.03
533.50	55164.09
533.67	54946.42
533.84	54768.54
534.01	54955.78
534.18	55288.13
534.35	55306.86
534.52	55208.56
534.69	55374.73
534.86	55655.60
535.03	55241.32
535.20	55297.50
535.37	55267.07
535.54	55561.98
535.71	55208.56
535.88	55519.85
536.05	55791.35
536.22	55873.27
536.38	55618.15
536.55	55573.68
536.72	55796.03
536.89	55648.58
537.06	55896.67
537.23	55781.99
537.40	55819.44
537.57	55657.94
537.74	56074.55
537.91	56161.15
538.08	56154.13
538.25	56053.49
538.42	56030.08
538.59	56266.48
538.75	56032.42
538.92	56133.07
539.09	56207.97
539.26	56479.47
539.43	56268.82
539.60	56271.16
539.77	56545.00
539.94	56390.53
540.11	56514.58
540.28	56488.83
540.44	56666.71
540.61	56500.53
540.78	56516.92
540.95	56615.22
541.12	56554.36
541.29	56626.92
541.46	56633.94
541.62	56608.20
541.79	56849.27
541.96	56683.09
542.13	56741.61
542.30	56748.63
542.47	56746.29
542.63	56715.86
542.80	56970.98
542.97	56987.36
543.14	57097.37
543.31	57223.76
543.48	57181.63
543.64	57455.47
543.81	57469.51
543.98	57336.10
544.15	57347.81
544.32	57673.14
544.48	57565.48
544.65	57532.71
544.82	57595.90
544.99	57338.44
545.16	57705.91
545.32	57570.16
545.49	57900.17
545.66	57822.93
545.83	57804.21
546.00	57839.32
546.16	57759.74
546.33	57766.76
546.50	57574.84
546.67	57921.24
546.83	57600.58
547.00	57858.04
547.17	57860.38
547.34	57794.85
547.50	57954.00
547.67	58358.92
547.84	58075.71
548.00	58356.58
548.17	58389.34
548.34	58246.57
548.51	58171.67
548.67	58487.65
548.84	58192.74
549.01	58204.44
549.18	58213.80
549.34	58417.43
549.51	58358.92
549.68	58365.94
549.84	58127.20
550.01	58607.01
550.18	58379.98
550.34	58702.98
550.51	58464.24
550.68	58520.41
550.84	58541.48
551.01	58450.20
551.18	58768.51
551.34	58569.57
551.51	58639.78
551.68	58693.61
551.84	58726.38
552.01	58522.76
552.18	58646.80
552.34	58604.67
552.51	58815.32
552.68	58457.22
552.84	58733.40
553.01	58955.75
553.18	58880.86
553.34	58951.07
553.51	58812.98
553.67	58754.47
553.84	59068.10
554.01	59021.29
554.17	59051.72
554.34	59166.40
554.51	59105.55
554.67	59325.56
554.84	59110.23
555.00	59054.06
555.17	59107.89
555.33	59098.53
555.50	59061.08
555.67	59128.95
555.83	59007.25
556.00	59278.75
556.16	59503.44
556.33	59430.88
556.50	59447.27
556.66	59526.84
556.83	59222.58
556.99	59557.27
557.16	59634.51
557.32	59601.74
557.49	59669.62
557.65	59348.96
557.82	59660.26
557.98	59391.09
558.15	59477.69
558.32	59791.33
558.48	59351.30
558.65	59676.64
558.81	59571.32
558.98	59625.15
559.14	59739.83
559.31	59655.57
559.47	59887.29
559.64	59669.62
559.80	59826.43
559.97	60095.60
560.13	59606.42
560.30	59669.62
560.46	59873.24
560.63	59831.11
560.79	59910.69
560.96	59917.71
561.12	59828.77
561.29	59861.54
561.45	60044.10
561.61	59840.48
561.78	59966.87
561.94	59971.55
562.11	59973.89
562.27	59927.08
562.44	59817.07
562.60	60030.06
562.77	60168.15
562.93	60011.34
563.10	60133.04
563.26	60041.76
563.42	60264.11
563.59	60020.70
563.75	60151.77
563.92	60191.56
564.08	60065.17
564.24	60282.84
564.41	60212.62
564.57	60243.05
564.74	60395.18
564.90	60395.18
565.07	60329.65
565.23	60154.11
565.39	60282.84
565.56	60198.58
565.72	60229.01
565.88	60376.46
566.05	60191.56
566.21	60381.14
566.38	60154.11
566.54	60289.86
566.70	60566.04
566.87	60521.57
567.03	60175.17
567.19	60626.90
567.36	60458.38
567.52	60444.33
567.68	60556.68
567.85	60451.36
568.01	60559.02
568.17	60376.46
568.34	60425.61
568.50	60392.84
568.66	60334.33
568.83	60519.23
568.99	60460.72
569.15	60432.63
569.32	60472.42
569.48	60362.42
569.64	60528.59
569.81	60570.72
569.97	60491.15
570.13	60561.36
570.30	60481.78
570.46	60423.27
570.62	60685.41
570.78	60577.75
570.95	60514.55
571.11	60612.85
571.27	60633.92
571.43	60692.43
571.60	60743.92
571.76	60636.26
571.92	60706.47
572.09	60694.77
572.25	60669.03
572.41	60523.91
572.57	60570.72
572.74	61043.51
572.90	60540.30
573.06	60846.91
573.22	60594.13
573.38	60699.45
573.55	60725.20
573.71	60912.44
573.87	60793.07
574.03	60570.72
574.20	60561.36
574.36	60863.29
574.52	60697.11
574.68	60811.80
574.84	60846.91
575.01	60860.95
575.17	60729.88
575.33	60699.45
575.49	60786.05
575.65	60860.95
575.82	60804.78
575.98	60704.13
576.14	60872.65
576.30	60886.70
576.46	60685.41
576.62	60844.57
576.79	60739.24
576.95	60669.03
577.11	60968.61
577.27	60959.25
577.43	60893.72
577.59	60860.95
577.75	60636.26
577.92	60762.65
578.08	60945.21
578.24	60935.85
578.40	60999.04
578.56	60987.34
578.72	61038.83
578.88	60963.93
579.04	61069.26
579.21	61073.94
579.37	61202.67
579.53	61069.26
579.69	60865.63
579.85	60853.93
580.01	61167.56
580.17	60940.53
580.33	60905.42
580.49	61069.26
580.65	61090.32
580.82	60844.57
580.98	61153.52
581.14	60856.27
581.30	61109.05
581.46	60818.82
581.62	61034.15
581.78	60973.30
581.94	60973.30
582.10	61092.66
582.26	61048.19
582.42	61050.53
582.58	61029.47
582.74	60985.00
582.90	61087.98
583.06	60992.02
583.22	60961.59
583.38	61104.37
583.54	61207.35
583.70	61076.28
583.86	61123.09
584.02	61097.34
584.18	61291.61
584.34	61090.32
584.50	61165.22
584.66	60821.16
584.82	60994.36
584.98	61300.97
585.14	61059.90
585.30	60898.40
585.46	61071.60
585.62	61113.73
585.78	61071.60
585.94	60910.10
586.10	61165.22
586.26	61099.68
586.42	61219.05
586.58	61179.26
586.74	61162.88
586.90	61410.98
587.06	61179.26
587.22	61359.48
587.38	61024.79
587.54	61300.97
587.70	61322.04
587.86	61249.48
588.02	61240.12
588.18	61345.44
588.34	61017.77
588.49	61020.11
