SpectraSuite Data File
++++++++++++++++++++++++++++++++++++
Date: Fri Oct 25 10:47:06 EDT 2013
User: price-jones
Dark Spectrum Present: No
Reference Spectrum Present: No
Number of Sampled Component Spectra: 1
Spectrometers: USB2+H05261
Integration Time (usec): 100000 (USB2+H05261)
Spectra Averaged: 1 (USB2+H05261)
Boxcar Smoothing: 0 (USB2+H05261)
Correct for Electrical Dark: No (USB2+H05261)
Strobe/Lamp Enabled: No (USB2+H05261)
Correct for Detector Non-linearity: No (USB2+H05261)
Correct for Stray Light: No (USB2+H05261)
Number of Pixels in Processed Spectrum: 2048
>>>>>Begin Processed Spectral Data<<<<<
365.73	124.05
365.92	124.05
366.12	124.05
366.32	58.51
366.52	30.43
366.72	79.58
366.91	44.47
367.11	21.06
367.31	46.81
367.51	16.38
367.70	21.06
367.90	49.15
368.10	18.72
368.30	63.19
368.49	105.32
368.69	4.68
368.89	46.81
369.09	105.32
369.28	88.94
369.48	72.56
369.68	114.69
369.87	56.17
370.07	65.54
370.27	107.66
370.47	205.97
370.66	351.08
370.86	386.19
371.06	463.43
371.25	456.40
371.45	395.55
371.65	425.98
371.84	379.17
372.04	437.68
372.24	512.58
372.44	484.49
372.63	489.17
372.83	484.49
373.03	484.49
373.22	484.49
373.42	503.22
373.62	559.39
373.81	510.24
374.01	575.77
374.21	568.75
374.40	547.69
374.60	526.62
374.79	545.34
374.99	545.34
375.19	493.85
375.38	620.24
375.58	573.43
375.78	561.73
375.97	589.82
376.17	594.50
376.37	531.30
376.56	634.29
376.76	622.58
376.95	631.94
377.15	624.92
377.35	624.92
377.54	571.09
377.74	582.79
377.93	610.88
378.13	599.18
378.33	620.24
378.52	674.07
378.72	561.73
378.91	603.86
379.11	617.90
379.31	566.41
379.50	571.09
379.70	683.44
379.89	697.48
380.09	634.29
380.28	739.61
380.48	688.12
380.68	645.99
380.87	655.35
381.07	699.82
381.26	667.05
381.46	634.29
381.65	627.26
381.85	653.01
382.04	608.54
382.24	685.78
382.43	690.46
382.63	631.94
382.83	692.80
383.02	765.36
383.22	765.36
383.41	713.86
383.61	748.97
383.80	716.20
384.00	748.97
384.19	720.88
384.39	746.63
384.58	746.63
384.78	755.99
384.97	833.23
385.17	699.82
385.36	816.85
385.56	734.93
385.75	751.31
385.95	891.74
386.14	891.74
386.34	748.97
386.53	802.80
386.72	784.08
386.92	767.70
387.11	800.46
387.31	744.29
387.50	798.12
387.70	875.36
387.89	844.93
388.09	863.66
388.28	812.17
388.48	875.36
388.67	837.91
388.86	828.55
389.06	866.00
389.25	896.43
389.45	854.30
389.64	875.36
389.84	898.77
390.03	1001.75
390.22	863.66
390.42	816.85
390.61	877.70
390.81	880.04
391.00	943.24
391.19	978.34
391.39	1006.43
391.58	954.94
391.78	950.26
391.97	968.98
392.16	959.62
392.36	1015.79
392.55	985.37
392.75	929.19
392.94	887.06
393.13	915.15
393.33	917.49
393.52	968.98
393.71	999.41
393.91	1006.43
394.10	985.37
394.29	1076.65
394.49	990.05
394.68	1198.35
394.88	1069.62
395.07	1093.03
395.26	1125.80
395.46	1132.82
395.65	1078.99
395.84	1055.58
396.04	1149.20
396.23	1093.03
396.42	1153.88
396.62	1123.46
396.81	1214.74
397.00	1177.29
397.19	1205.38
397.39	1149.20
397.58	1256.87
397.77	1245.16
397.97	1284.95
398.16	1228.78
398.35	1252.19
398.55	1259.21
398.74	1301.34
398.93	1317.72
399.12	1289.64
399.32	1373.89
399.51	1306.02
399.70	1352.83
399.90	1296.66
400.09	1427.73
400.28	1446.45
400.47	1294.32
400.67	1406.66
400.86	1331.76
401.05	1563.48
401.24	1437.09
401.44	1516.67
401.63	1455.81
401.82	1490.92
402.01	1540.07
402.21	1528.37
402.40	1472.20
402.59	1519.01
402.78	1469.86
402.97	1549.43
403.17	1523.69
403.36	1497.94
403.55	1626.67
403.74	1577.52
403.93	1661.78
404.13	1577.52
404.32	1659.44
404.51	1678.16
404.70	1577.52
404.89	1575.18
405.09	1783.49
405.28	1647.74
405.47	1600.93
405.66	1699.23
405.85	1680.50
406.05	1692.21
406.24	1753.06
406.43	1839.66
406.62	1825.62
406.81	1818.60
407.00	1825.62
407.20	1760.08
407.39	1851.36
407.58	1874.77
407.77	1916.90
407.96	1996.48
408.15	1923.92
408.34	1870.09
408.54	1914.56
408.73	1970.73
408.92	1921.58
409.11	2001.16
409.30	2141.59
409.49	2031.58
409.68	1973.07
409.87	2015.20
410.07	2132.23
410.26	2101.80
410.45	2010.52
410.64	2179.04
410.83	2270.32
411.02	2200.10
411.21	2146.27
411.40	2239.89
411.59	2366.28
411.78	2298.41
411.98	2333.51
412.17	2532.46
412.36	2305.43
412.55	2431.82
412.74	2422.45
412.93	2530.12
413.12	2399.05
413.31	2438.84
413.50	2544.16
413.69	2527.78
413.88	2621.40
414.07	2551.18
414.26	2548.84
414.45	2544.16
414.64	2630.76
414.83	2708.00
415.02	2689.28
415.22	2663.53
415.41	2775.88
415.60	2771.19
415.79	2801.62
415.98	2743.11
416.17	2820.35
416.36	2991.20
416.55	2843.75
416.74	2920.99
416.93	2822.69
417.12	2754.81
417.31	2965.46
417.50	3000.57
417.69	3091.85
417.88	3073.12
418.07	2946.73
418.26	3155.04
418.45	3169.09
418.64	3290.79
418.83	3213.56
419.02	3030.99
419.21	3082.49
419.39	3166.74
419.58	3066.10
419.77	3199.51
419.96	3281.43
420.15	3412.50
420.34	3363.35
420.53	3290.79
420.72	3433.57
420.91	3375.05
421.10	3386.76
421.29	3482.72
421.48	3314.20
421.67	3552.93
421.86	3400.80
422.05	3283.77
422.24	3300.16
422.43	3487.40
422.61	3471.01
422.80	3414.84
422.99	3468.67
423.18	3543.57
423.37	3475.70
423.56	3529.53
423.75	3585.70
423.94	3501.44
424.13	3433.57
424.32	3325.90
424.50	3440.59
424.69	3571.66
424.88	3648.90
425.07	3332.92
425.26	3426.54
425.45	3550.59
425.64	3503.78
425.83	3569.32
426.01	3534.21
426.20	3454.63
426.39	3602.08
426.58	3559.95
426.77	3592.72
426.96	3609.11
427.15	3599.74
427.33	3679.32
427.52	3473.36
427.71	3742.52
427.90	3585.70
428.09	3712.09
428.28	3864.22
428.46	3721.45
428.65	3637.19
428.84	3955.51
429.03	3840.82
429.22	3744.86
429.40	3735.50
429.59	3756.56
429.78	3604.42
429.97	3658.26
430.16	3777.62
430.34	3798.69
430.53	3859.54
430.72	3894.65
430.91	3817.41
431.10	3786.99
431.28	4131.05
431.47	4154.45
431.66	4175.52
431.85	4072.53
432.03	4224.67
432.22	4177.86
432.41	4133.39
432.60	4196.58
432.79	4306.59
432.97	4208.28
433.16	4205.94
433.35	4222.33
433.54	4306.59
433.72	4266.80
433.91	4386.16
434.10	4344.03
434.28	4273.82
434.47	4229.35
434.66	4437.66
434.85	4196.58
435.03	4337.01
435.22	4397.87
435.41	4645.96
435.59	4498.51
435.78	4578.09
435.97	4620.22
436.16	4608.51
436.34	4568.73
436.53	4631.92
436.72	4585.11
436.90	4526.60
437.09	4608.51
437.28	4444.68
437.46	4652.98
437.65	4608.51
437.84	4660.01
438.02	4613.20
438.21	4664.69
438.40	4599.15
438.58	4894.06
438.77	4833.21
438.96	5011.09
439.14	4924.49
439.33	5151.52
439.52	4990.02
439.70	4966.62
439.89	5203.01
440.08	5273.23
440.26	5195.99
440.45	4922.15
440.63	5256.84
440.82	5296.63
441.01	5181.95
441.19	5404.30
441.38	5359.83
441.57	5486.22
441.75	5476.85
441.94	5427.70
442.12	5596.22
442.31	5544.73
442.50	5647.71
442.68	5612.60
442.87	5624.31
443.05	5734.31
443.24	5935.60
443.43	5717.93
443.61	5760.06
443.80	5900.49
443.98	5554.09
444.17	5633.67
444.35	5830.27
444.54	5748.36
444.73	5837.30
444.91	5884.11
445.10	5612.60
445.28	5771.76
445.47	5666.44
445.65	5790.49
445.84	5795.17
446.02	5692.18
446.21	5980.07
446.39	5755.38
446.58	5963.68
446.77	5926.24
446.95	5949.64
447.14	6003.47
447.32	5921.56
447.51	5858.36
447.69	5860.70
447.88	5989.43
448.06	6047.94
448.25	5987.09
448.43	6008.16
448.62	5928.58
448.80	6026.88
448.99	6111.14
449.17	6087.73
449.36	6061.99
449.54	6221.14
449.73	6263.27
449.91	6258.59
450.10	6331.15
450.28	6457.54
450.46	6349.87
450.65	6363.92
450.83	6314.77
451.02	6408.39
451.20	6452.86
451.39	6497.33
451.57	6560.52
451.76	6392.00
451.94	6452.86
452.13	6377.96
452.31	6523.07
452.49	6368.60
452.68	6450.52
452.86	6401.37
453.05	6565.20
453.23	6654.14
453.42	6553.50
453.60	6513.71
453.78	6733.72
453.97	6487.96
454.15	6471.58
454.34	6878.83
454.52	6787.55
454.70	6672.87
454.89	6689.25
455.07	6684.57
455.26	6703.29
455.44	6946.71
455.62	6897.56
455.81	6853.09
455.99	6897.56
456.17	6869.47
456.36	6946.71
456.54	6883.52
456.73	7059.06
456.91	7206.51
457.09	7297.79
457.28	7314.17
457.46	7227.57
457.64	7171.40
457.83	7360.98
458.01	7346.94
458.19	7419.50
458.38	7419.50
458.56	7384.39
458.74	7424.18
458.93	7255.66
459.11	7405.46
459.29	7428.86
459.48	7475.67
459.66	7618.44
459.84	7454.61
460.03	7707.38
460.21	7669.94
460.39	7602.06
460.57	7588.02
460.76	7665.25
460.94	7805.69
461.12	7658.23
461.31	7747.17
461.49	7639.51
461.67	7817.39
461.85	7925.05
462.04	7882.92
462.22	8191.88
462.40	7932.08
462.59	7990.59
462.77	8013.99
462.95	8030.38
463.13	8142.72
463.32	7810.37
463.50	8105.28
463.68	8088.89
463.86	8081.87
464.05	7927.39
464.23	7880.58
464.41	8166.13
464.59	8023.36
464.78	8313.58
464.96	8079.53
465.14	8135.70
465.32	8322.94
465.50	8411.89
465.69	8154.43
465.87	8238.69
466.05	8217.62
466.23	8100.59
466.41	8367.42
466.60	8278.47
466.78	8292.52
466.96	8365.07
467.14	8306.56
467.32	8388.48
467.51	8678.71
467.69	8156.77
467.87	8397.84
468.05	8540.61
468.23	8409.54
468.41	8418.91
468.60	8575.72
468.78	8596.79
468.96	8662.32
469.14	8732.54
469.32	8861.27
469.50	8482.10
469.69	8879.99
469.87	8961.91
470.05	8844.88
470.23	8898.72
470.41	8723.18
470.59	8973.61
470.77	8868.29
470.95	8870.63
471.14	9158.52
471.32	9027.45
471.50	9259.16
471.68	9160.86
471.86	9341.08
472.04	9394.91
472.22	9406.61
472.40	9341.08
472.58	9397.25
472.77	9528.32
472.95	9657.05
473.13	9846.63
473.31	9458.10
473.49	9685.14
473.67	9706.20
473.85	9678.12
474.03	9930.89
474.21	9970.68
474.39	10059.62
474.57	10068.98
474.75	10188.35
474.93	9912.17
475.12	10148.56
475.30	10153.24
475.48	10108.77
475.66	10136.86
475.84	10256.23
476.02	10235.16
476.20	10345.17
476.38	10438.79
476.56	10696.25
476.74	10700.93
476.92	10684.55
477.10	10817.96
477.28	10707.95
477.46	11047.33
477.64	11087.12
477.82	11321.17
478.00	11276.70
478.18	11225.21
478.36	11616.08
478.54	11548.20
478.72	11353.94
478.90	11667.57
479.08	11726.08
479.26	11782.26
479.44	11967.16
479.62	11997.59
479.80	11932.05
479.98	11978.86
480.16	12542.93
480.34	12056.10
480.52	12311.22
480.70	12231.64
480.88	12233.98
481.06	12587.40
481.24	12315.90
481.41	12922.10
481.59	12879.97
481.77	13078.91
481.95	13036.78
482.13	13233.39
482.31	13214.66
482.49	13518.93
482.67	13406.59
482.85	13455.74
483.03	13692.13
483.21	13788.10
483.39	13970.66
483.57	14015.13
483.74	14157.90
483.92	14078.32
484.10	14176.62
484.28	14277.27
484.46	14579.20
484.64	14754.74
484.82	14424.72
485.00	14813.25
485.18	15066.03
485.35	15363.28
485.53	14871.76
485.71	14902.19
485.89	15236.89
486.07	15211.14
486.25	15456.90
486.43	15445.20
486.61	15653.50
486.78	15791.59
486.96	15723.72
487.14	16217.57
487.32	16245.66
487.50	16264.38
487.68	16659.93
487.85	16542.91
488.03	16950.16
488.21	16936.12
488.39	16919.73
488.57	17200.60
488.75	17289.54
488.92	17530.61
489.10	17638.28
489.28	17752.96
489.46	18001.06
489.64	17884.03
489.81	18183.62
489.99	18450.44
490.17	18506.62
490.35	18843.65
490.53	18501.93
490.70	18658.75
490.88	18817.91
491.06	18904.51
491.24	18958.34
491.41	18878.76
491.59	19290.70
491.77	19173.67
491.95	19164.31
492.13	19749.44
492.30	19674.54
492.48	19913.28
492.66	19917.96
492.84	19967.11
493.01	20137.97
493.19	19946.05
493.37	20500.75
493.54	20353.30
493.72	20535.86
493.90	20620.12
494.08	20849.49
494.25	21057.80
494.43	21219.30
494.61	21376.11
494.79	21558.67
494.96	21563.36
495.14	21420.58
495.32	21422.92
495.49	21544.63
495.67	21708.47
495.85	22274.88
496.02	22618.94
496.20	22347.44
496.38	22618.94
496.55	22352.12
496.73	22703.20
496.91	22705.54
497.09	22513.61
497.26	23117.47
497.44	22717.24
497.62	23314.08
497.79	23201.73
497.97	23541.11
498.14	23372.59
498.32	23396.00
498.50	23349.18
498.67	23882.83
498.85	23941.34
499.03	23936.66
499.20	24142.63
499.38	24098.16
499.56	24318.17
499.73	24109.86
499.91	24032.62
500.08	24341.57
500.26	24772.23
500.44	24465.62
500.61	25034.37
500.79	24592.01
500.97	24751.17
501.14	25235.66
501.32	25425.24
501.49	25118.63
501.67	25275.45
501.84	25535.24
502.02	25575.03
502.20	25537.59
502.37	25619.50
502.55	25612.48
502.72	25729.51
502.90	25965.90
503.07	25764.62
503.25	25373.75
503.43	26157.83
503.60	26494.86
503.78	26164.85
503.95	26319.32
504.13	26614.23
504.30	26572.10
504.48	26522.95
504.65	26740.62
504.83	26998.08
505.01	27005.10
505.18	26242.09
505.36	27323.41
505.53	27161.92
505.71	27473.21
505.88	27311.71
506.06	27208.73
506.23	27344.48
506.41	27428.74
506.58	27669.81
506.76	27445.12
506.93	27744.71
507.11	27639.39
507.28	27828.97
507.46	27819.61
507.63	27875.78
507.81	28067.70
507.98	28044.30
508.16	28411.76
508.33	28477.30
508.50	28371.97
508.68	28535.81
508.85	29130.31
509.03	28833.06
509.20	28577.94
509.38	29006.26
509.55	28563.90
509.73	28924.34
509.90	28891.57
510.08	28959.45
510.25	29390.11
510.42	29137.33
510.60	29577.35
510.77	29432.24
510.95	29345.64
511.12	29827.79
511.30	29652.25
511.47	29563.31
511.64	30024.39
511.82	30085.25
511.99	29888.64
512.17	30066.52
512.34	29682.67
512.51	30326.32
512.69	30649.32
512.86	30206.95
513.04	30906.77
513.21	30560.37
513.38	30518.25
513.56	30628.25
513.73	30279.51
513.90	30897.41
514.08	30602.50
514.25	30913.80
514.43	30969.97
514.60	31105.72
514.77	30876.35
514.95	31414.67
515.12	31285.94
515.29	31615.96
515.47	31620.64
515.64	31634.68
515.81	31239.13
515.99	31435.74
516.16	31505.95
516.33	31246.15
516.51	31850.01
516.68	31211.04
516.85	31599.57
517.03	31978.74
517.20	31908.52
517.37	32004.49
517.54	32182.37
517.72	32226.84
517.89	32271.31
518.06	32311.10
518.24	32264.28
518.41	32453.87
518.58	32100.45
518.75	32130.87
518.93	32570.90
519.10	33071.77
519.27	33060.07
519.45	32842.40
519.62	33207.52
519.79	32851.76
519.96	33237.95
520.14	33362.00
520.31	33085.81
520.48	33507.11
520.65	33336.25
520.83	33483.70
521.00	33425.19
521.17	33993.94
521.34	33626.48
521.52	33682.65
521.69	33486.04
521.86	33837.12
522.03	34101.61
522.20	33860.53
522.38	34288.85
522.55	33975.22
522.72	33928.41
522.89	33853.51
523.07	34242.04
523.24	34209.27
523.41	34581.42
523.58	34436.30
523.75	34632.91
523.92	34569.71
524.10	34731.21
524.27	34738.23
524.44	35037.82
524.61	34745.25
524.78	35068.25
524.96	35431.03
525.13	35159.53
525.30	35468.48
525.47	35721.26
525.64	35519.97
525.81	35248.47
525.98	35292.94
526.16	35133.78
526.33	35248.47
526.50	35255.49
526.67	35679.13
526.84	35435.71
527.01	35442.73
527.18	35332.73
527.36	35739.98
527.53	35955.31
527.70	36240.86
527.87	35957.65
528.04	35967.01
528.21	36194.04
528.38	36407.03
528.55	36229.15
528.72	36285.33
528.89	36381.29
529.07	36154.26
529.24	36350.86
529.41	36807.26
529.58	36233.83
529.75	36400.01
529.92	36629.38
530.09	36765.14
530.26	36456.18
530.43	36624.70
530.60	36676.19
530.77	36872.80
530.94	37282.39
531.11	37144.30
531.28	37184.09
531.46	37376.01
531.63	37163.03
531.80	37457.93
531.97	37319.84
532.14	37191.11
532.31	36870.46
532.48	37455.59
532.65	37289.42
532.82	37354.95
532.99	37563.26
533.16	37373.67
533.33	37652.20
533.50	37656.88
533.67	38103.92
533.84	37649.86
534.01	37757.52
534.18	37525.81
534.35	37972.85
534.52	37954.13
534.69	37766.88
534.86	38110.94
535.03	37787.95
535.20	38487.77
535.37	38466.70
535.54	38808.42
535.71	38265.42
535.88	38712.46
536.05	37684.97
536.22	38614.16
536.38	38691.40
536.55	38181.16
536.72	38487.77
536.89	38106.26
537.06	38738.21
537.23	38621.18
537.40	38628.20
537.57	38391.81
537.74	38653.95
537.91	38897.36
538.08	39201.63
538.25	38419.89
538.42	39194.61
538.59	39210.99
538.75	38766.29
538.92	38955.88
539.09	39007.37
539.26	39283.55
539.43	38878.64
539.60	39597.18
539.77	38864.60
539.94	39185.25
540.11	39297.59
540.28	39482.50
540.44	39313.98
540.61	39335.04
540.78	39519.95
540.95	39393.56
541.12	39328.02
541.29	39409.94
541.46	39201.63
541.62	39669.74
541.79	39957.63
541.96	39449.73
542.13	39643.99
542.30	39552.71
542.47	40521.69
542.63	40194.02
542.80	39962.31
542.97	40573.19
543.14	40552.12
543.31	40573.19
543.48	40547.44
543.64	40669.15
543.81	40549.78
543.98	40788.52
544.15	40399.99
544.32	40858.73
544.48	40924.27
544.65	40484.25
544.82	40704.26
544.99	40259.55
545.16	40875.12
545.32	40488.93
545.49	41193.43
545.66	41071.72
545.83	40598.93
546.00	41207.47
546.16	40982.78
546.33	40755.75
546.50	40821.28
546.67	41179.39
546.83	40329.77
547.00	41219.17
547.17	41090.44
547.34	41289.39
547.50	41317.48
547.67	41167.68
547.84	41242.58
548.00	41708.35
548.17	41490.68
548.34	41450.89
548.51	41724.73
548.67	41640.47
548.84	41614.72
549.01	41530.47
549.18	41373.65
549.34	41516.42
549.51	42045.38
549.68	42007.94
549.84	42284.12
550.01	41612.38
550.18	41787.92
550.34	41619.41
550.51	41467.27
550.68	41928.36
550.84	41741.11
551.01	42106.24
551.18	42014.96
551.34	41911.97
551.51	42195.18
551.68	42412.85
551.84	41794.95
552.01	41984.53
552.18	42190.50
552.34	42066.45
552.51	42630.52
552.68	42373.06
552.84	42564.98
553.01	42632.86
553.18	42515.83
553.34	42555.62
553.51	41954.10
553.67	42082.83
553.84	43339.70
554.01	42586.05
554.17	42707.76
554.34	42850.53
554.51	42518.17
554.67	42735.84
554.84	42944.15
555.00	42974.58
555.17	42541.58
555.33	42852.87
555.50	42878.61
555.67	42990.96
555.83	42773.29
556.00	42579.03
556.16	43000.32
556.33	43337.36
556.50	42740.52
556.66	43342.04
556.83	42462.00
556.99	43236.72
557.16	43023.73
557.32	43089.26
557.49	43274.16
557.65	42752.23
557.82	43089.26
557.98	42511.15
558.15	43016.71
558.32	43353.74
558.48	43524.60
558.65	43290.55
558.81	42983.94
558.98	43257.78
559.14	43157.14
559.31	43159.48
559.47	43744.61
559.64	43435.66
559.80	43131.39
559.97	43533.96
560.13	43250.76
560.30	43295.23
560.46	43318.64
560.63	43482.47
560.79	43407.58
560.96	44091.01
561.12	43503.54
561.29	43517.58
561.45	43379.49
561.61	43285.87
561.78	43688.44
561.94	43304.59
562.11	43728.23
562.27	43503.54
562.44	43328.00
562.60	43805.47
562.77	43636.95
562.93	43543.33
563.10	44304.00
563.26	43299.91
563.42	44013.77
563.59	43702.48
563.75	43899.09
563.92	44051.22
564.08	43533.96
564.24	44194.00
564.41	44144.84
564.57	43660.35
564.74	44154.21
564.90	44100.37
565.07	43976.33
565.23	43945.90
565.39	43873.34
565.56	43978.67
565.72	43681.42
565.88	43608.86
566.05	43789.08
566.21	43817.17
566.38	43892.07
566.54	44027.82
566.70	43882.70
566.87	44442.09
567.03	43962.28
567.19	44521.67
567.36	44502.95
567.52	44044.20
567.68	44306.34
567.85	44147.18
568.01	43936.54
568.17	43887.39
568.34	44074.63
568.50	44086.33
568.66	43854.62
568.83	43981.01
568.99	43922.49
569.15	43915.47
569.32	44119.10
569.48	43730.57
569.64	44215.06
569.81	44093.35
569.97	44086.33
570.13	44219.74
570.30	43922.49
570.46	44069.95
570.62	44226.76
570.78	43800.79
570.95	43920.15
571.11	44329.75
571.27	44334.43
571.43	44121.44
571.60	44215.06
571.76	44449.11
571.92	44212.72
572.09	44250.17
572.25	44662.10
572.41	44315.70
572.57	44273.57
572.74	45134.89
572.90	44266.55
573.06	44177.61
573.22	44287.62
573.38	44390.60
573.55	43938.88
573.71	44299.32
573.87	44198.68
574.03	44294.64
574.20	44479.54
574.36	44217.40
574.52	44608.27
574.68	44219.74
574.84	44601.25
575.01	44168.25
575.17	44676.15
575.33	44282.94
575.49	44020.80
575.65	44837.64
575.82	44610.61
575.98	44648.06
576.14	44545.08
576.30	44741.68
576.46	44601.25
576.62	44315.70
576.79	44423.37
576.95	43899.09
577.11	44453.79
577.27	44559.12
577.43	44629.34
577.59	44453.79
577.75	44680.83
577.92	44435.07
578.08	44079.31
578.24	44158.89
578.40	44561.46
578.56	44301.66
578.72	44341.45
578.88	44851.69
579.04	44697.21
579.21	44191.65
579.37	44261.87
579.53	44404.64
579.69	44374.22
579.85	44603.59
580.01	44772.11
580.17	44418.69
580.33	44851.69
580.49	45092.76
580.65	44524.01
580.82	44287.62
580.98	44734.66
581.14	44294.64
581.30	44617.63
581.46	44832.96
581.62	44353.15
581.78	44533.37
581.94	44828.28
582.10	44781.47
582.26	44648.06
582.42	44959.35
582.58	44844.66
582.74	44444.43
582.90	44875.09
583.06	44811.90
583.22	44783.81
583.38	44734.66
583.54	44889.13
583.70	44638.70
583.86	44748.70
584.02	44463.16
584.18	44196.34
584.34	44989.78
584.50	44538.05
584.66	44430.39
584.82	43908.45
584.98	45062.33
585.14	44659.76
585.30	44671.46
585.46	44692.53
585.62	44720.62
585.78	44528.69
585.94	44472.52
586.10	44737.00
586.26	44058.24
586.42	44762.75
586.58	45059.99
586.74	44980.42
586.90	44795.51
587.06	44404.64
587.22	44645.72
587.38	44395.28
587.54	44837.64
587.70	45057.65
587.86	44701.89
588.02	45216.81
588.18	45097.44
588.34	44879.77
588.49	44435.07
588.65	44023.14
588.81	44339.11
588.97	44793.17
589.13	44453.79
589.29	44931.26
589.45	44835.30
589.61	44491.24
589.77	45036.59
589.93	44720.62
590.08	44964.03
590.24	44919.56
