SpectraSuite Data File
++++++++++++++++++++++++++++++++++++
Date: Fri Oct 25 11:33:22 EDT 2013
User: price-jones
Dark Spectrum Present: No
Reference Spectrum Present: No
Number of Sampled Component Spectra: 1
Spectrometers: USB2+H05261
Integration Time (usec): 100000 (USB2+H05261)
Spectra Averaged: 1 (USB2+H05261)
Boxcar Smoothing: 0 (USB2+H05261)
Correct for Electrical Dark: No (USB2+H05261)
Strobe/Lamp Enabled: No (USB2+H05261)
Correct for Detector Non-linearity: No (USB2+H05261)
Correct for Stray Light: No (USB2+H05261)
Number of Pixels in Processed Spectrum: 2048
>>>>>Begin Processed Spectral Data<<<<<
365.73	262.14
365.92	262.14
366.12	262.14
366.32	259.80
366.52	173.20
366.72	177.88
366.91	243.42
367.11	161.50
367.31	189.58
367.51	191.92
367.70	182.56
367.90	203.63
368.10	170.86
368.30	203.63
368.49	224.69
368.69	182.56
368.89	182.56
369.09	196.60
369.28	259.80
369.48	271.50
369.68	203.63
369.87	276.18
370.07	322.99
370.27	276.18
370.47	355.76
370.66	517.26
370.86	566.41
371.06	601.52
371.25	519.60
371.45	486.83
371.65	610.88
371.84	510.24
372.04	535.98
372.24	554.71
372.44	585.13
372.63	594.50
372.83	608.54
373.03	631.94
373.22	596.84
373.42	606.20
373.62	636.63
373.81	638.97
374.01	617.90
374.21	629.60
374.40	606.20
374.60	662.37
374.79	573.43
374.99	662.37
375.19	631.94
375.38	690.46
375.58	624.92
375.78	678.76
375.97	636.63
376.17	683.44
376.37	671.73
376.56	706.84
376.76	671.73
376.95	667.05
377.15	683.44
377.35	667.05
377.54	688.12
377.74	578.11
377.93	655.35
378.13	641.31
378.33	800.46
378.52	655.35
378.72	753.65
378.91	751.31
379.11	751.31
379.31	674.07
379.50	720.88
379.70	763.01
379.89	781.74
380.09	746.63
380.28	681.10
380.48	641.31
380.68	667.05
380.87	755.99
381.07	725.57
381.26	786.42
381.46	751.31
381.65	678.76
381.85	753.65
382.04	704.50
382.24	704.50
382.43	755.99
382.63	753.65
382.83	788.76
383.02	798.12
383.22	767.70
383.41	802.80
383.61	851.96
383.80	851.96
384.00	784.08
384.19	805.14
384.39	816.85
384.58	744.29
384.78	863.66
384.97	863.66
385.17	826.21
385.36	765.36
385.56	917.49
385.75	858.98
385.95	814.51
386.14	821.53
386.34	802.80
386.53	922.17
386.72	870.68
386.92	802.80
387.11	882.38
387.31	922.17
387.50	870.68
387.70	774.72
387.89	884.72
388.09	980.68
388.28	922.17
388.48	908.13
388.67	908.13
388.86	912.81
389.06	926.85
389.25	901.11
389.45	1020.47
389.64	933.87
389.84	959.62
390.03	973.66
390.22	945.58
390.42	994.73
390.61	922.17
390.81	1043.88
391.00	973.66
391.19	1064.94
391.39	978.34
391.58	1006.43
391.78	983.02
391.97	997.07
392.16	992.39
392.36	959.62
392.55	1121.12
392.75	1137.50
392.94	870.68
393.13	1144.52
393.33	966.64
393.52	1008.77
393.71	1123.46
393.91	1097.71
394.10	1053.24
394.29	1146.86
394.49	1118.78
394.68	1132.82
394.88	1097.71
395.07	1123.46
395.26	1210.06
395.46	1193.67
395.65	1203.04
395.84	1191.33
396.04	1284.95
396.23	1121.12
396.42	1221.76
396.62	1315.38
396.81	1156.22
397.00	1266.23
397.19	1214.74
397.39	1226.44
397.58	1334.11
397.77	1224.10
397.97	1341.13
398.16	1282.61
398.35	1252.19
398.55	1200.69
398.74	1320.06
398.93	1352.83
399.12	1348.15
399.32	1320.06
399.51	1327.08
399.70	1313.04
399.90	1320.06
400.09	1310.70
400.28	1411.34
400.47	1404.32
400.67	1420.71
400.86	1467.52
401.05	1469.86
401.24	1425.39
401.44	1406.66
401.63	1490.92
401.82	1469.86
402.01	1540.07
402.21	1497.94
402.40	1486.24
402.59	1448.79
402.78	1516.67
402.97	1629.01
403.17	1530.71
403.36	1554.12
403.55	1551.78
403.74	1664.12
403.93	1600.93
404.13	1717.95
404.32	1579.86
404.51	1535.39
404.70	1614.97
404.89	1689.87
405.09	1792.85
405.28	1724.97
405.47	1664.12
405.66	1746.04
405.85	1764.76
406.05	1755.40
406.24	1736.68
406.43	1778.81
406.62	1832.64
406.81	1825.62
407.00	1776.47
407.20	1764.76
407.39	1860.73
407.58	1778.81
407.77	1856.04
407.96	1888.81
408.15	1907.54
408.34	1905.20
408.54	1893.49
408.73	2003.50
408.92	1944.99
409.11	2040.95
409.30	1984.77
409.49	1919.24
409.68	2012.86
409.87	1996.48
410.07	2024.56
410.26	2031.58
410.45	1881.79
410.64	2073.71
410.83	2050.31
411.02	2080.74
411.21	2181.38
411.40	2150.95
411.59	2153.29
411.78	2120.53
411.98	2230.53
412.17	2333.51
412.36	2335.85
412.55	2345.22
412.74	2352.24
412.93	2363.94
413.12	2354.58
413.31	2471.61
413.50	2438.84
413.69	2394.37
413.88	2492.67
414.07	2455.22
414.26	2438.84
414.45	2546.50
414.64	2551.18
414.83	2670.55
415.02	2527.78
415.22	2813.32
415.41	2796.94
415.60	2712.68
415.79	2686.94
415.98	2892.90
416.17	2672.89
416.36	2857.79
416.55	2864.82
416.74	2857.79
416.93	2745.45
417.12	2871.84
417.31	2956.10
417.50	2860.13
417.69	2963.12
417.88	3038.02
418.07	2909.29
418.26	2869.50
418.45	2925.67
418.64	3042.70
418.83	3054.40
419.02	3019.29
419.21	3091.85
419.39	3148.02
419.58	3063.76
419.77	3026.31
419.96	3141.00
420.15	3213.56
420.34	3180.79
420.53	3178.45
420.72	3126.96
420.91	3180.79
421.10	3178.45
421.29	3260.37
421.48	3332.92
421.67	3377.39
421.86	3337.60
422.05	3220.58
422.24	3243.98
422.43	3192.49
422.61	3342.28
422.80	3370.37
422.99	3410.16
423.18	3501.44
423.37	3480.38
423.56	3421.86
423.75	3531.87
423.94	3405.48
424.13	3283.77
424.32	3346.97
424.50	3428.88
424.69	3456.97
424.88	3552.93
425.07	3393.78
425.26	3377.39
425.45	3349.31
425.64	3393.78
425.83	3361.01
426.01	3599.74
426.20	3557.61
426.39	3503.78
426.58	3405.48
426.77	3557.61
426.96	3576.34
427.15	3534.21
427.33	3559.95
427.52	3599.74
427.71	3653.58
427.90	3487.40
428.09	3625.49
428.28	3726.13
428.46	3655.92
428.65	3695.71
428.84	3796.35
429.03	3997.64
429.22	3698.05
429.40	3698.05
429.59	3777.62
429.78	3700.39
429.97	3749.54
430.16	3772.94
430.34	3878.27
430.53	3941.46
430.72	4021.04
430.91	3894.65
431.10	3854.86
431.28	3943.80
431.47	4175.52
431.66	3999.98
431.85	4138.07
432.03	4035.08
432.22	4182.54
432.41	4032.74
432.60	3967.21
432.79	4049.13
432.97	4149.77
433.16	4173.18
433.35	4135.73
433.54	4224.67
433.72	4262.12
433.91	4283.18
434.10	4227.01
434.28	4093.60
434.47	4264.46
434.66	4334.67
434.85	4304.25
435.03	4327.65
435.22	4348.72
435.41	4458.72
435.59	4423.61
435.78	4538.30
435.97	4414.25
436.16	4428.29
436.34	4442.34
436.53	4437.66
436.72	4603.83
436.90	4475.10
437.09	4535.96
437.28	4430.63
437.46	4564.04
437.65	4734.90
437.84	4491.49
438.02	4704.48
438.21	4695.11
438.40	4660.01
438.58	4669.37
438.77	4835.55
438.96	4683.41
439.14	4896.40
439.33	4842.57
439.52	4884.70
439.70	4812.14
439.89	5041.51
440.08	4980.66
440.26	4999.38
440.45	4964.28
440.63	5226.42
440.82	5186.63
441.01	5249.82
441.19	5235.78
441.38	5303.65
441.57	5364.51
441.75	5294.29
441.94	5394.93
442.12	5535.37
442.31	5518.98
442.50	5364.51
442.68	5397.28
442.87	5460.47
443.05	5455.79
443.24	5607.92
443.43	5605.58
443.61	5612.60
443.80	5657.07
443.98	5661.76
444.17	5224.08
444.35	5605.58
444.54	5715.59
444.73	5741.33
444.91	5708.57
445.10	5710.91
445.28	5537.71
445.47	5706.23
445.65	5572.82
445.84	5540.05
446.02	5722.61
446.21	5820.91
446.39	5722.61
446.58	5827.93
446.77	5746.02
446.95	5584.52
447.14	5633.67
447.32	5928.58
447.51	5687.50
447.69	5664.10
447.88	5764.74
448.06	5696.86
448.25	5664.10
448.43	5811.55
448.62	5867.72
448.80	5954.32
448.99	6010.50
449.17	5949.64
449.36	5900.49
449.54	5944.96
449.73	5954.32
449.91	6118.16
450.10	6106.46
450.28	6076.03
450.46	6204.76
450.65	6071.35
450.83	6289.02
451.02	6106.46
451.20	6150.93
451.39	6097.10
451.57	6099.44
451.76	6244.55
451.94	6387.32
452.13	6284.34
452.31	6204.76
452.49	6125.18
452.68	6368.60
452.86	6279.66
453.05	6368.60
453.23	6509.03
453.42	6438.81
453.60	6389.66
453.78	6399.02
453.97	6333.49
454.15	6480.94
454.34	6553.50
454.52	6724.36
454.70	6527.75
454.89	6576.91
455.07	6558.18
455.26	6715.00
455.44	6799.26
455.62	6607.33
455.81	6705.63
455.99	6761.81
456.17	6766.49
456.36	6850.75
456.54	7030.97
456.73	7028.63
456.91	7096.50
457.09	7045.01
457.28	7194.81
457.46	6993.52
457.64	7187.79
457.83	7042.67
458.01	7080.12
458.19	7140.97
458.38	7194.81
458.56	7253.32
458.74	7246.30
458.93	7138.63
459.11	7253.32
459.29	7297.79
459.48	7250.98
459.66	7410.14
459.84	7503.76
460.03	7445.24
460.21	7314.17
460.39	7407.80
460.57	7428.86
460.76	7421.84
460.94	7492.05
461.12	7583.34
461.31	7630.15
461.49	7515.46
461.67	7646.53
461.85	7681.64
462.04	7524.82
462.22	8231.66
462.40	7786.96
462.59	7843.14
462.77	7770.58
462.95	7981.23
463.13	7770.58
463.32	7878.24
463.50	8084.21
463.68	7730.79
463.86	7964.84
464.05	7789.30
464.23	7878.24
464.41	7880.58
464.59	7864.20
464.78	8086.55
464.96	7957.82
465.14	8025.70
465.32	8119.32
465.50	8224.64
465.69	8159.11
465.87	8077.19
466.05	8339.33
466.23	8131.02
466.41	8177.83
466.60	8432.95
466.78	8126.34
466.96	8138.04
467.14	8304.22
467.32	8231.66
467.51	8542.96
467.69	8229.32
467.87	8491.46
468.05	8489.12
468.23	8432.95
468.41	8388.48
468.60	8414.23
468.78	8606.15
468.96	8519.55
469.14	8683.39
469.32	8870.63
469.50	8512.53
469.69	8837.86
469.87	8840.20
470.05	8638.92
470.23	8645.94
470.41	8765.31
470.59	8924.46
470.77	8802.75
470.95	8809.78
471.14	9125.75
471.32	8975.95
471.50	8994.68
471.68	8973.61
471.86	8992.34
472.04	9004.04
472.22	9324.69
472.40	9165.54
472.58	9078.94
472.77	9128.09
472.95	9544.70
473.13	9664.07
473.31	9270.86
473.49	9432.36
473.67	9514.28
473.85	9605.56
474.03	9678.12
474.21	9647.69
474.39	9717.90
474.57	9783.44
474.75	9940.26
474.93	10047.92
475.12	10061.96
475.30	10036.22
475.48	10260.91
475.66	10258.57
475.84	10057.28
476.02	10270.27
476.20	10415.38
476.38	10523.05
476.56	10731.36
476.74	10506.66
476.92	10518.37
477.10	10626.03
477.28	10721.99
477.46	10707.95
477.64	10611.99
477.82	11096.48
478.00	11154.99
478.18	11435.86
478.36	11302.45
478.54	11213.51
478.72	11630.12
478.90	11421.81
479.08	11770.55
479.26	11779.92
479.44	11829.07
479.62	11681.61
479.80	11847.79
479.98	12030.35
480.16	12250.36
480.34	12142.70
480.52	12241.00
480.70	12133.34
480.88	12297.17
481.06	12318.24
481.24	12430.59
481.41	12706.77
481.59	13015.72
481.77	13015.72
481.95	12704.43
482.13	13214.66
482.31	13125.72
482.49	13334.03
482.67	13296.58
482.85	13572.77
483.03	13682.77
483.21	13682.77
483.39	13937.89
483.57	13837.25
483.74	14017.47
483.92	14122.79
484.10	14078.32
484.28	14415.36
484.46	14473.87
484.64	14766.44
484.82	14569.83
485.00	14761.76
485.18	14892.83
485.35	15061.35
485.53	15288.38
485.71	15435.83
485.89	15716.70
486.07	15620.74
486.25	15489.67
486.43	15709.68
486.61	15894.58
486.78	15939.05
486.96	15789.25
487.14	16318.22
487.32	16252.68
487.50	16374.39
487.68	16547.59
487.85	16718.45
488.03	16854.20
488.21	17109.32
488.39	16849.52
488.57	17202.94
488.75	17521.25
488.92	17476.78
489.10	17617.21
489.28	17451.03
489.46	17804.46
489.64	17996.38
489.81	17937.87
489.99	18328.74
490.17	18347.46
490.35	18686.84
490.53	18415.34
490.70	18792.16
490.88	19119.84
491.06	19002.81
491.24	18848.33
491.41	19274.31
491.59	19314.10
491.77	19487.30
491.95	19431.13
492.13	19726.04
492.30	20018.60
492.48	19772.85
492.66	19875.83
492.84	19929.66
493.01	20390.75
493.19	19939.02
493.37	20465.64
493.54	20505.43
493.72	20786.30
493.90	20680.97
494.08	20819.07
494.25	21167.80
494.43	20950.14
494.61	21561.02
494.79	21521.23
494.96	21549.31
495.14	21647.61
495.32	21806.77
495.49	21811.45
495.67	21820.81
495.85	22197.64
496.02	22366.16
496.20	22593.19
496.38	22544.04
496.55	22302.96
496.73	23026.19
496.91	22930.23
497.09	22813.20
497.26	23187.69
497.44	22958.31
497.62	23349.18
497.79	23662.82
497.97	23136.20
498.14	23599.62
498.32	23878.15
498.50	23740.05
498.67	24243.27
498.85	24123.90
499.03	24159.01
499.20	24058.37
499.38	24046.66
499.56	24477.32
499.73	24348.59
499.91	24575.62
500.08	25067.14
500.26	24797.98
500.44	24968.84
500.61	25118.63
500.79	24835.42
500.97	25369.07
501.14	25446.30
501.32	25738.87
501.49	25472.05
501.67	25518.86
501.84	25481.41
502.02	25642.91
502.20	25947.18
502.37	26043.14
502.55	25860.58
502.72	25792.70
502.90	26068.89
503.07	26237.41
503.25	25996.33
503.43	26487.84
503.60	26684.45
503.78	26717.22
503.95	26611.89
504.13	26607.21
504.30	27077.66
504.48	26895.10
504.65	27087.02
504.83	27173.62
505.01	27393.63
505.18	27061.27
505.36	27468.53
505.53	27714.28
505.71	27779.82
505.88	27704.92
506.06	27395.97
506.23	28084.09
506.41	27690.88
506.58	28334.53
506.76	28393.04
506.93	28400.06
507.11	28390.70
507.28	28470.28
507.46	28332.18
507.63	28659.86
507.81	28638.80
507.98	28070.04
508.16	28311.12
508.33	28858.81
508.50	28704.33
508.68	29392.45
508.85	29230.95
509.03	29120.95
509.20	29029.66
509.38	29462.66
509.55	29689.70
509.73	29331.59
509.90	29610.12
510.08	29762.25
510.25	29890.98
510.42	29832.47
510.60	29851.19
510.77	29818.42
510.95	30316.96
511.12	30134.40
511.30	29839.49
511.47	30199.93
511.64	30291.21
511.82	30639.95
511.99	30391.86
512.17	30586.12
512.34	30616.55
512.51	31028.48
512.69	30719.53
512.86	30937.20
513.04	31110.40
513.21	31409.99
513.38	31239.13
513.56	31475.52
513.73	31419.35
513.90	31377.22
514.08	31297.64
514.25	31564.46
514.43	31903.84
514.60	31798.52
514.77	31758.73
514.95	31903.84
515.12	32315.78
515.29	32126.19
515.47	32018.53
515.64	32222.16
515.81	32236.20
515.99	32311.10
516.16	32465.57
516.33	32161.30
516.51	32847.08
516.68	32493.66
516.85	32301.73
517.03	32687.92
517.20	32879.85
517.37	32416.42
517.54	32641.11
517.72	32842.40
517.89	33415.83
518.06	32903.25
518.24	33383.06
518.41	33130.28
518.58	33146.67
518.75	33273.06
518.93	33797.34
519.10	33682.65
519.27	33991.60
519.45	34309.91
519.62	34054.79
519.79	33736.48
519.96	33893.30
520.14	34295.87
520.31	34206.93
520.48	34352.04
520.65	34115.65
520.83	34700.78
521.00	34815.47
521.17	34518.22
521.34	34754.61
521.52	34782.70
521.69	34995.69
521.86	34986.33
522.03	35358.47
522.20	35138.46
522.38	35697.85
522.55	34871.64
522.72	34937.18
522.89	35096.33
523.07	35576.14
523.24	36018.50
523.41	35381.88
523.58	35192.30
523.75	35796.15
523.92	35374.86
524.10	35875.73
524.27	35494.22
524.44	35555.08
524.61	36037.23
524.78	36030.21
524.96	36701.94
525.13	36514.70
525.30	36421.08
525.47	36065.31
525.64	36407.03
525.81	36271.28
525.98	36524.06
526.16	36732.37
526.33	36133.19
526.50	36933.65
526.67	36428.10
526.84	36800.24
527.01	36772.16
527.18	36737.05
527.36	36704.28
527.53	37479.00
527.70	37507.08
527.87	37385.38
528.04	37141.96
528.21	37326.86
528.38	37191.11
528.55	37652.20
528.72	37600.71
528.89	37404.10
529.07	37158.34
529.24	37289.42
529.41	37729.44
529.58	37738.80
529.75	37319.84
529.92	37675.60
530.09	38089.88
530.26	37801.99
530.43	38026.68
530.60	37689.65
530.77	37490.70
530.94	38398.83
531.11	37907.32
531.28	37904.98
531.46	38848.21
531.63	38160.09
531.80	38569.69
531.97	38763.95
532.14	38691.40
532.31	38639.90
532.48	38574.37
532.65	39124.40
532.82	38553.30
532.99	38714.80
533.16	38773.31
533.33	39037.80
533.50	39033.11
533.67	38817.78
533.84	38703.10
534.01	39005.03
534.18	39091.63
534.35	39477.82
534.52	39508.24
534.69	39323.34
534.86	39679.10
535.03	39555.05
535.20	39732.93
535.37	39105.67
535.54	39552.71
535.71	39669.74
535.88	39849.96
536.05	39924.86
536.22	40025.50
536.38	39557.39
536.55	40081.67
536.72	40229.13
536.89	40212.74
537.06	40016.14
537.23	40425.73
537.40	39938.90
537.57	40018.48
537.74	40517.01
537.91	40409.35
538.08	40257.21
538.25	40025.50
538.42	40119.12
538.59	40870.43
538.75	40449.14
538.92	40774.47
539.09	40739.36
539.26	40575.53
539.43	40547.44
539.60	41031.93
539.77	40121.46
539.94	40999.16
540.11	41006.19
540.28	41537.49
540.44	41242.58
540.61	40893.84
540.78	40980.44
540.95	41420.46
541.12	40928.95
541.29	40905.54
541.46	41406.42
541.62	41600.68
541.79	41329.18
541.96	40942.99
542.13	40994.48
542.30	41331.52
542.47	41689.62
542.63	41827.71
542.80	41663.88
542.97	41944.74
543.14	42466.68
543.31	42150.71
543.48	41649.83
543.64	42567.32
543.81	42581.37
543.98	42326.25
544.15	42459.66
544.32	42981.60
544.48	43054.15
544.65	42256.03
544.82	42904.36
544.99	42354.33
545.16	42436.25
545.32	42483.06
545.49	42543.92
545.66	42717.12
545.83	43131.39
546.00	43072.88
546.16	43117.35
546.33	42899.68
546.50	42169.43
546.67	42887.98
546.83	42920.74
547.00	43239.06
547.17	43026.07
547.34	42939.47
547.50	42920.74
547.67	43524.60
547.84	43161.82
548.00	43412.26
548.17	43868.66
548.34	43147.78
548.51	43491.83
548.67	43288.21
548.84	43398.21
549.01	43601.84
549.18	43365.45
549.34	43910.79
549.51	43669.72
549.68	44147.18
549.84	43442.68
550.01	43779.72
550.18	43601.84
550.34	43906.11
550.51	44325.07
550.68	43938.88
550.84	43854.62
551.01	44205.70
551.18	44037.18
551.34	43941.22
551.51	44252.51
551.68	44687.85
551.84	44278.25
552.01	43618.22
552.18	44114.42
552.34	44009.09
552.51	43945.90
552.68	44016.11
552.84	44411.67
553.01	44570.82
553.18	44289.96
553.34	44601.25
553.51	44233.78
553.67	44339.11
553.84	44945.31
554.01	44577.84
554.17	45045.95
554.34	44919.56
554.51	44519.33
554.67	44671.46
554.84	44884.45
555.00	44556.78
555.17	45109.14
555.33	44949.99
555.50	44690.19
555.67	45350.22
555.83	44996.80
556.00	44863.39
556.16	45654.49
556.33	45361.92
556.50	44942.97
556.66	45209.79
556.83	44942.97
556.99	45549.17
557.16	45415.76
557.32	45347.88
557.49	45764.49
557.65	45223.83
557.82	45170.00
557.98	45504.70
558.15	45127.87
558.32	45404.05
558.48	45652.15
558.65	45563.21
558.81	45687.26
558.98	45743.43
559.14	45390.01
559.31	45277.66
559.47	45375.97
559.64	45462.57
559.80	45745.77
559.97	45909.61
560.13	45422.78
560.30	45588.95
560.46	45769.18
560.63	45579.59
560.79	45862.80
560.96	45490.65
561.12	45755.13
561.29	46157.70
561.45	46234.94
561.61	46031.32
561.78	45991.53
561.94	45752.79
562.11	45925.99
562.27	45827.69
562.44	45961.10
562.60	46082.81
562.77	46169.41
562.93	45698.96
563.10	46216.22
563.26	45897.91
563.42	46387.08
563.59	46401.12
563.75	46129.62
563.92	46553.26
564.08	46380.06
564.24	46527.51
564.41	46270.05
564.57	46646.88
564.74	46010.25
564.90	45951.74
565.07	46377.72
565.23	46232.60
565.39	46602.41
565.56	46550.91
565.72	46614.11
565.88	46777.95
566.05	46567.30
566.21	46560.28
566.38	46525.17
566.54	47007.32
566.70	46586.02
566.87	46499.42
567.03	46295.80
567.19	46590.70
567.36	46780.29
567.52	46417.50
567.68	46937.10
567.85	46492.40
568.01	46457.29
568.17	46796.67
568.34	46777.95
568.50	46658.58
568.66	46361.33
568.83	46649.22
568.99	46628.15
569.15	46651.56
569.32	46497.08
569.48	46691.35
569.64	47239.03
569.81	46923.06
569.97	46827.10
570.13	47224.99
570.30	46504.10
570.46	47129.03
570.62	46955.83
570.78	46920.72
570.95	47098.60
571.11	47070.51
571.27	46784.97
571.43	46614.11
571.60	46696.03
571.76	46707.73
571.92	46759.22
572.09	46983.91
572.25	46927.74
572.41	46677.30
572.57	47246.05
572.74	47227.33
572.90	46824.76
573.06	47133.71
573.22	47423.93
573.38	47313.93
573.55	47583.09
573.71	47433.30
573.87	47594.79
574.03	46857.52
574.20	47489.47
574.36	47131.37
574.52	47220.31
574.68	47700.12
574.84	47133.71
575.01	47175.84
575.17	47194.56
575.33	47414.57
575.49	46930.08
575.65	47234.35
575.82	47360.74
575.98	47110.30
576.14	47702.46
576.30	47358.40
576.46	47339.68
576.62	47363.08
576.79	47700.12
576.95	46719.43
577.11	46981.57
577.27	47349.04
577.43	47545.64
577.59	47042.43
577.75	47000.30
577.92	47334.99
578.08	47442.66
578.24	47185.20
578.40	47426.28
578.56	47351.38
578.72	47501.17
578.88	47576.07
579.04	47349.04
579.21	47437.98
579.37	47536.28
579.53	47716.50
579.69	47253.08
579.85	47325.63
580.01	47290.52
580.17	47271.80
580.33	47950.56
580.49	47643.94
580.65	47566.71
580.82	47643.94
580.98	47257.76
581.14	47311.59
581.30	47140.73
581.46	47283.50
581.62	47171.16
581.78	47168.82
581.94	47295.21
582.10	47384.15
582.26	47803.10
582.42	47267.12
582.58	47402.87
582.74	47189.88
582.90	47248.39
583.06	47440.32
583.22	47744.59
583.38	47445.00
583.54	47592.45
583.70	47775.02
583.86	47599.47
584.02	47203.92
584.18	48086.31
584.34	47739.91
584.50	47835.87
584.66	47618.20
584.82	47756.29
584.98	47887.36
585.14	48182.27
585.30	47409.89
585.46	47885.02
585.62	47812.46
585.78	47547.98
585.94	47222.65
586.10	47833.53
586.26	47552.66
586.42	47648.63
586.58	47599.47
586.74	47601.82
586.90	47555.00
587.06	47952.90
587.22	47814.80
587.38	47281.16
587.54	47828.85
587.70	47901.40
587.86	48046.52
588.02	47351.38
588.18	47409.89
588.34	47519.90
588.49	47990.34
588.65	48179.93
588.81	47775.02
588.97	48044.18
589.13	47320.95
589.29	48046.52
589.45	48275.89
589.61	47709.48
589.77	48095.67
589.93	47906.08
590.08	48343.77
