SpectraSuite Data File
++++++++++++++++++++++++++++++++++++
Date: Fri Oct 25 11:23:06 EDT 2013
User: price-jones
Dark Spectrum Present: No
Reference Spectrum Present: No
Number of Sampled Component Spectra: 1
Spectrometers: USB2+H05261
Integration Time (usec): 100000 (USB2+H05261)
Spectra Averaged: 1 (USB2+H05261)
Boxcar Smoothing: 0 (USB2+H05261)
Correct for Electrical Dark: No (USB2+H05261)
Strobe/Lamp Enabled: No (USB2+H05261)
Correct for Detector Non-linearity: No (USB2+H05261)
Correct for Stray Light: No (USB2+H05261)
Number of Pixels in Processed Spectrum: 2048
>>>>>Begin Processed Spectral Data<<<<<
365.73	198.95
365.92	198.95
366.12	198.95
366.32	145.11
366.52	175.54
366.72	142.77
366.91	126.39
367.11	196.60
367.31	166.18
367.51	51.49
367.70	117.03
367.90	194.26
368.10	112.35
368.30	102.98
368.49	100.64
368.69	95.96
368.89	121.71
369.09	140.43
369.28	65.54
369.48	194.26
369.68	149.79
369.87	98.30
370.07	241.08
370.27	311.29
370.47	322.99
370.66	681.10
370.86	669.39
371.06	681.10
371.25	620.24
371.45	636.63
371.65	688.12
371.84	648.33
372.04	678.76
372.24	648.33
372.44	730.25
372.63	636.63
372.83	660.03
373.03	751.31
373.22	755.99
373.42	763.01
373.62	739.61
373.81	704.50
374.01	805.14
374.21	727.91
374.40	727.91
374.60	795.78
374.79	758.33
374.99	753.65
375.19	837.91
375.38	858.98
375.58	870.68
375.78	884.72
375.97	884.72
376.17	896.43
376.37	851.96
376.56	828.55
376.76	842.59
376.95	868.34
377.15	922.17
377.35	858.98
377.54	896.43
377.74	947.92
377.93	901.11
378.13	877.70
378.33	959.62
378.52	959.62
378.72	1008.77
378.91	1027.50
379.11	926.85
379.31	973.66
379.50	1001.75
379.70	940.90
379.89	903.45
380.09	884.72
380.28	990.05
380.48	985.37
380.68	912.81
380.87	1008.77
381.07	1001.75
381.26	1046.22
381.46	1090.69
381.65	1020.47
381.85	1090.69
382.04	1020.47
382.24	966.64
382.43	1114.10
382.63	1086.01
382.83	1097.71
383.02	1142.18
383.22	1121.12
383.41	1090.69
383.61	1076.65
383.80	1128.14
384.00	1097.71
384.19	1086.01
384.39	1114.10
384.58	1100.05
384.78	1191.33
384.97	1149.20
385.17	1144.52
385.36	1069.62
385.56	1270.91
385.75	1158.57
385.95	1181.97
386.14	1142.18
386.34	1235.80
386.53	1118.78
386.72	1156.22
386.92	1200.69
387.11	1315.38
387.31	1289.64
387.50	1254.53
387.70	1301.34
387.89	1308.36
388.09	1249.85
388.28	1261.55
388.48	1284.95
388.67	1343.47
388.86	1362.19
389.06	1310.70
389.25	1263.89
389.45	1294.32
389.64	1357.51
389.84	1409.00
390.03	1500.28
390.22	1439.43
390.42	1308.36
390.61	1327.08
390.81	1308.36
391.00	1406.66
391.19	1446.45
391.39	1430.07
391.58	1401.98
391.78	1465.18
391.97	1437.09
392.16	1519.01
392.36	1547.09
392.55	1547.09
392.75	1453.47
392.94	1549.43
393.13	1516.67
393.33	1423.05
393.52	1638.38
393.71	1685.19
393.91	1612.63
394.10	1577.52
394.29	1664.12
394.49	1558.80
394.68	1610.29
394.88	1540.07
395.07	1671.14
395.26	1694.55
395.46	1685.19
395.65	1678.16
395.84	1701.57
396.04	1769.44
396.23	1708.59
396.42	1713.27
396.62	1788.17
396.81	1755.40
397.00	1753.06
397.19	1790.51
397.39	1895.83
397.58	1820.94
397.77	1844.34
397.97	1849.02
398.16	1902.86
398.35	1837.32
398.55	1874.77
398.74	1877.11
398.93	1963.71
399.12	1970.73
399.32	1907.54
399.51	1877.11
399.70	1954.35
399.90	1954.35
400.09	2062.01
400.28	2031.58
400.47	2127.55
400.67	2141.59
400.86	2022.22
401.05	2001.16
401.24	2127.55
401.44	2101.80
401.63	2087.76
401.82	2087.76
402.01	2045.63
402.21	2174.36
402.40	2223.51
402.59	2249.25
402.78	2331.17
402.97	2235.21
403.17	2291.38
403.36	2296.07
403.55	2305.43
403.74	2438.84
403.93	2291.38
404.13	2284.36
404.32	2321.81
404.51	2438.84
404.70	2438.84
404.89	2427.14
405.09	2541.82
405.28	2410.75
405.47	2619.06
405.66	2541.82
405.85	2574.59
406.05	2628.42
406.24	2466.92
406.43	2548.84
406.62	2630.76
406.81	2651.83
407.00	2502.03
407.20	2637.78
407.39	2670.55
407.58	2722.04
407.77	2787.58
407.96	2736.09
408.15	2752.47
408.34	2860.13
408.54	2703.32
408.73	2829.71
408.92	2818.00
409.11	2841.41
409.30	2829.71
409.49	2897.58
409.68	3059.08
409.87	2986.52
410.07	3005.25
410.26	3000.57
410.45	3016.95
410.64	3155.04
410.83	3178.45
411.02	3105.89
411.21	3155.04
411.40	3070.78
411.59	3243.98
411.78	3194.83
411.98	3290.79
412.17	3356.33
412.36	3304.84
412.55	3403.14
412.74	3421.86
412.93	3501.44
413.12	3370.37
413.31	3496.76
413.50	3515.48
413.69	3522.51
413.88	3665.28
414.07	3716.77
414.26	3599.74
414.45	3648.90
414.64	3754.22
414.83	3808.05
415.02	3812.73
415.22	3836.14
415.41	3822.09
415.60	3868.91
415.79	3932.10
415.98	3960.19
416.17	3878.27
416.36	4133.39
416.55	4149.77
416.74	3997.64
416.93	4025.72
417.12	4072.53
417.31	4196.58
417.50	4245.73
417.69	4400.21
417.88	4313.61
418.07	4346.37
418.26	4255.09
418.45	4332.33
418.64	4718.52
418.83	4458.72
419.02	4442.34
419.21	4564.04
419.39	4582.77
419.58	4407.23
419.77	4372.12
419.96	4634.26
420.15	4585.11
420.34	4634.26
420.53	4645.96
420.72	4704.48
420.91	4713.84
421.10	4627.24
421.29	4912.78
421.48	4816.82
421.67	4870.65
421.86	4695.11
422.05	4805.12
422.24	4788.74
422.43	4905.76
422.61	4933.85
422.80	4884.70
422.99	4933.85
423.18	5006.41
423.37	5004.07
423.56	5011.09
423.75	4968.96
423.94	4863.63
424.13	4706.82
424.32	4868.31
424.50	5022.79
424.69	5252.16
424.88	5149.18
425.07	5032.15
425.26	4903.42
425.45	4945.55
425.64	4896.40
425.83	5020.45
426.01	5043.85
426.20	5172.58
426.39	5076.62
426.58	5018.11
426.77	5107.05
426.96	5123.43
427.15	5139.82
427.33	5254.50
427.52	5132.79
427.71	5390.25
427.90	5355.15
428.09	5338.76
428.28	5366.85
428.46	5406.64
428.65	5458.13
428.84	5486.22
429.03	5380.89
429.22	5355.15
429.40	5476.85
429.59	5680.48
429.78	5390.25
429.97	5277.91
430.16	5504.94
430.34	5755.38
430.53	5584.52
430.72	5638.35
430.91	5715.59
431.10	5631.33
431.28	5710.91
431.47	5767.08
431.66	5781.12
431.85	5638.35
432.03	5865.38
432.22	6026.88
432.41	5877.09
432.60	5951.98
432.79	5959.00
432.97	5994.11
433.16	6160.29
433.35	5956.66
433.54	5991.77
433.72	6017.52
433.91	6115.82
434.10	6260.93
434.28	6094.76
434.47	6347.53
434.66	6274.98
434.85	6457.54
435.03	6504.35
435.22	6324.13
435.41	6588.61
435.59	6562.86
435.78	6361.58
435.97	6513.71
436.16	6574.56
436.34	6492.65
436.53	6497.33
436.72	6513.71
436.90	6483.28
437.09	6696.27
437.28	6544.14
437.46	6750.10
437.65	6579.25
437.84	6958.41
438.02	6827.34
438.21	6691.59
438.40	6703.29
438.58	6906.92
438.77	7084.80
438.96	7124.59
439.14	7037.99
439.33	7265.02
439.52	7375.03
439.70	7180.76
439.89	7470.99
440.08	7325.88
440.26	7494.40
440.45	7424.18
440.63	7576.31
440.82	7641.85
441.01	7358.64
441.19	7566.95
441.38	7672.28
441.57	7747.17
441.75	7831.43
441.94	8327.63
442.12	7892.29
442.31	8067.83
442.50	8030.38
442.68	8049.10
442.87	8032.72
443.05	8346.35
443.24	8128.68
443.43	8109.96
443.61	8177.83
443.80	8498.49
443.98	8215.28
444.17	7871.22
444.35	8292.52
444.54	8622.53
444.73	8418.91
444.91	8313.58
445.10	8325.29
445.28	8421.25
445.47	8379.12
445.65	8264.43
445.84	8514.87
446.02	8552.32
446.21	8592.11
446.39	8336.99
446.58	8479.76
446.77	8533.59
446.95	8313.58
447.14	8395.50
447.32	8521.89
447.51	8575.72
447.69	8531.25
447.88	8601.47
448.06	8580.40
448.25	8468.06
448.43	8645.94
448.62	8456.36
448.80	8526.57
448.99	8737.22
449.17	8800.41
449.36	8734.88
449.54	8945.53
449.73	9200.65
449.91	9074.26
450.10	8908.08
450.28	9137.45
450.46	9018.08
450.65	9048.51
450.83	9146.81
451.02	9202.99
451.20	9355.12
451.39	9156.18
451.57	9177.24
451.76	9160.86
451.94	9525.98
452.13	9413.63
452.31	9525.98
452.49	9289.59
452.68	9392.57
452.86	9334.06
453.05	9296.61
453.23	9481.51
453.42	9329.38
453.60	9448.74
453.78	9650.03
453.97	9357.46
454.15	9497.89
454.34	9570.45
454.52	9764.72
454.70	9547.05
454.89	9820.89
455.07	9841.95
455.26	9846.63
455.44	10122.82
455.62	10150.90
455.81	10066.64
455.99	9977.70
456.17	9961.32
456.36	10129.84
456.54	10207.08
456.73	10317.08
456.91	10403.68
457.09	10377.94
457.28	10633.05
457.46	10326.44
457.64	10558.16
457.83	10457.51
458.01	10726.68
458.19	10724.33
458.38	10654.12
458.56	10782.85
458.74	10853.06
458.93	10642.42
459.11	10705.61
459.29	10885.83
459.48	10736.04
459.66	10815.62
459.84	10871.79
460.03	11204.14
460.21	11091.80
460.39	11173.72
460.57	11112.86
460.76	11431.18
460.94	11321.17
461.12	11260.32
461.31	11405.43
461.49	11265.00
461.67	11382.03
461.85	11513.10
462.04	11372.66
462.22	11590.33
462.40	11669.91
462.59	11438.20
462.77	11543.52
462.95	11728.42
463.13	11646.51
463.32	11674.59
463.50	11822.05
463.68	12102.91
463.86	11899.28
464.05	11838.43
464.23	11674.59
464.41	12081.85
464.59	11829.07
464.78	12140.36
464.96	12091.21
465.14	11815.02
465.32	12149.72
465.50	12315.90
465.69	12299.52
465.87	12451.65
466.05	12348.67
466.23	12180.15
466.41	12264.41
466.60	12325.26
466.78	12388.46
466.96	12507.82
467.14	12315.90
467.32	12400.16
467.51	12891.67
467.69	12336.96
467.87	12540.59
468.05	12608.47
468.23	12449.31
468.41	12388.46
468.60	12868.27
468.78	12901.03
468.96	12762.94
469.14	12905.71
469.32	13081.25
469.50	12823.80
469.69	13006.36
469.87	13179.56
470.05	13371.48
470.23	13294.24
470.41	13273.18
470.59	13345.73
470.77	12908.05
470.95	13179.56
471.14	13689.79
471.32	13355.10
471.50	13621.92
471.68	13598.51
471.86	13888.74
472.04	13865.33
472.22	14108.75
472.40	13610.22
472.58	14380.25
472.77	13914.48
472.95	14160.24
473.13	14839.00
473.31	14258.54
473.49	14520.68
473.67	14298.33
473.85	14438.76
474.03	14707.93
474.21	14483.24
474.39	14750.06
474.57	14675.16
474.75	15143.27
474.93	15316.47
475.12	14949.00
475.30	15358.60
475.48	14986.45
475.66	15126.88
475.84	15225.18
476.02	15396.04
476.20	15697.97
476.38	15712.02
476.56	16276.09
476.74	16201.19
476.92	16121.61
477.10	15892.24
477.28	16428.22
477.46	16133.31
477.64	16346.30
477.82	16718.45
478.00	17003.99
478.18	16893.99
478.36	17078.89
478.54	17364.43
478.72	17219.32
478.90	17479.12
479.08	17652.32
479.26	17734.24
479.44	17886.37
479.62	18078.30
479.80	18134.47
479.98	18113.41
480.16	18745.35
480.34	18443.42
480.52	18916.21
480.70	18757.05
480.88	18466.83
481.06	18773.44
481.24	18883.44
481.41	19248.57
481.59	19637.09
481.77	19793.91
481.95	19651.14
482.13	19847.74
482.31	19569.22
482.49	20329.89
482.67	20467.98
482.85	20512.46
483.03	20615.44
483.21	20627.14
483.39	21071.84
483.57	20915.03
483.74	21341.00
483.92	21738.90
484.10	21542.29
484.28	21806.77
484.46	22071.25
484.64	22668.09
484.82	22265.52
485.00	22398.93
485.18	22817.88
485.35	22792.14
485.53	22902.14
485.71	23293.01
485.89	23983.47
486.07	23506.00
486.25	23578.56
486.43	24009.22
486.61	24116.88
486.78	24114.54
486.96	24250.29
487.14	24751.17
487.32	24978.20
487.50	24844.79
487.68	24863.51
487.85	25741.21
488.03	25596.10
488.21	26057.18
488.39	26115.70
488.57	26118.04
488.75	26471.46
488.92	26670.40
489.10	26895.10
489.28	27154.90
489.46	27190.00
489.64	26972.33
489.81	28002.17
489.99	27871.10
490.17	27934.29
490.35	28575.60
490.53	28615.39
490.70	28554.54
490.88	28339.21
491.06	29177.12
491.24	29193.50
491.41	29144.35
491.59	29605.44
491.77	29663.95
491.95	29806.72
492.13	29933.11
492.30	30277.17
492.48	30511.22
492.66	30307.60
492.84	30822.51
493.01	30998.06
493.19	30693.79
493.37	31206.36
493.54	31419.35
493.72	31889.80
493.90	31821.92
494.08	32236.20
494.25	32453.87
494.43	32460.89
494.61	32545.15
494.79	33172.41
494.96	32638.77
495.14	33144.33
495.32	33345.61
495.49	33263.69
495.67	33467.32
495.85	33825.42
496.02	34256.08
496.20	33930.75
496.38	34448.00
496.55	34546.31
496.73	35103.35
496.91	35290.60
497.09	34855.26
497.26	35227.40
497.44	35524.65
497.62	35536.35
497.79	36189.36
497.97	35859.35
498.14	36741.73
498.32	36446.82
498.50	36685.56
498.67	36809.61
498.85	36687.90
499.03	36957.06
499.20	36788.54
499.38	37226.22
499.56	37207.50
499.73	37537.51
499.91	37591.34
500.08	37809.01
500.26	37942.42
500.44	38064.13
500.61	37883.91
500.79	38183.50
500.97	38485.43
501.14	38604.80
501.32	38803.74
501.49	38815.44
501.67	38983.96
501.84	39328.02
502.02	39196.95
502.20	39014.39
502.37	39592.50
502.55	39363.13
502.72	40048.91
502.90	39908.47
503.07	40187.00
503.25	40018.48
503.43	40287.64
503.60	40800.22
503.78	40737.02
503.95	40435.10
504.13	40699.58
504.30	41041.29
504.48	40547.44
504.65	40935.97
504.83	41212.15
505.01	41904.95
505.18	41619.41
505.36	41982.19
505.53	41567.91
505.71	41907.29
505.88	42155.39
506.06	41851.12
506.23	42492.43
506.41	42356.67
506.58	42075.81
506.76	42396.46
506.93	43105.65
507.11	42593.07
507.28	42969.90
507.46	43250.76
507.63	43899.09
507.81	43871.00
507.98	43299.91
508.16	43533.96
508.33	43873.34
508.50	43835.89
508.68	43833.55
508.85	44053.56
509.03	44144.84
509.20	44472.52
509.38	44622.31
509.55	44818.92
509.73	44615.29
509.90	44769.77
510.08	45013.18
510.25	45008.50
510.42	45151.27
510.60	44898.50
510.77	45296.39
510.95	45577.25
511.12	45441.50
511.30	45762.15
511.47	45780.88
511.64	46333.24
511.82	46199.83
511.99	46108.55
512.17	46391.76
512.34	46033.66
512.51	46843.48
512.69	47037.75
512.86	46576.66
513.04	47014.34
513.21	47054.13
513.38	46836.46
513.56	47056.47
513.73	47269.46
513.90	47299.89
514.08	47175.84
514.25	47475.43
514.43	47636.92
514.60	47885.02
514.77	47821.83
514.95	47985.66
515.12	48151.84
515.29	47870.98
515.47	47952.90
515.64	48823.58
515.81	48313.34
515.99	48432.71
516.16	49055.29
516.33	48802.51
516.51	48825.92
516.68	48676.12
516.85	48275.89
517.03	49357.22
517.20	49282.32
517.37	49139.55
517.54	49148.91
517.72	49134.87
517.89	49226.15
518.06	49731.70
518.24	49645.10
518.41	49727.02
518.58	49928.31
518.75	49614.68
518.93	49900.22
519.10	49593.61
519.27	49928.31
519.45	50012.57
519.62	50340.24
519.79	49904.90
519.96	49736.38
520.14	50637.49
520.31	50365.99
520.48	50377.69
520.65	50759.20
520.83	50777.92
521.00	51033.04
521.17	50920.70
521.34	51023.68
521.52	51047.08
521.69	50969.85
521.86	51299.86
522.03	51526.89
522.20	51709.46
522.38	51735.20
522.55	51554.98
522.72	51559.66
522.89	51985.64
523.07	52165.86
523.24	51920.10
523.41	52051.17
523.58	51817.12
523.75	52112.03
523.92	52273.52
524.10	52147.14
524.27	52123.73
524.44	52381.19
524.61	52467.79
524.78	52200.97
524.96	52437.36
525.13	52545.03
525.30	52528.64
525.47	52954.62
525.64	52666.73
525.81	52837.59
525.98	52903.13
526.16	52886.74
526.33	53127.82
526.50	53509.33
526.67	53057.60
526.84	53202.72
527.01	53034.20
527.18	53481.24
527.36	53240.17
527.53	53052.92
527.70	53794.87
527.87	53839.34
528.04	53546.78
528.21	53776.15
528.38	53729.34
528.55	53593.59
528.72	53532.73
528.89	53574.86
529.07	53570.18
529.24	53609.97
529.41	54122.55
529.58	54099.14
529.75	53780.83
529.92	54122.55
530.09	54082.76
530.26	54274.68
530.43	54354.26
530.60	54000.84
530.77	54033.61
530.94	54546.18
531.11	54099.14
531.28	54468.95
531.46	54562.57
531.63	54424.48
531.80	54389.37
531.97	54525.12
532.14	54593.00
532.31	54731.09
532.48	54887.90
532.65	54951.10
532.82	54782.58
532.99	54756.83
533.16	54749.81
533.33	54920.67
533.50	55250.69
533.67	55136.00
533.84	54770.88
534.01	55136.00
534.18	55096.21
534.35	55627.51
534.52	55473.04
534.69	55145.36
534.86	55395.80
535.03	55178.13
535.20	55320.90
535.37	55608.79
535.54	55620.49
535.71	55653.26
535.88	55498.78
536.05	55702.41
536.22	55941.14
536.38	55732.84
536.55	55646.24
536.72	56067.53
536.89	55676.66
537.06	55838.16
537.23	55910.72
537.40	55847.52
537.57	55938.80
537.74	55887.31
537.91	56018.38
538.08	56086.26
538.25	55840.50
538.42	56324.99
538.59	56371.80
538.75	56179.88
538.92	56126.05
539.09	56381.16
539.26	56425.64
539.43	56144.77
539.60	56308.61
539.77	56507.55
539.94	56601.18
540.11	56713.52
540.28	56797.78
540.44	56556.70
540.61	56624.58
540.78	56493.51
540.95	56549.68
541.12	56610.54
541.29	56884.38
541.46	56720.54
541.62	56870.34
541.79	56928.85
541.96	56554.36
542.13	56842.25
542.30	57181.63
542.47	56905.44
542.63	57003.75
542.80	57123.11
542.97	57183.97
543.14	57439.09
543.31	57411.00
543.48	57153.54
543.64	57518.67
543.81	57523.35
543.98	57591.22
544.15	57762.08
544.32	57738.68
544.48	57944.64
544.65	57469.51
544.82	57652.08
544.99	57396.96
545.16	57726.97
545.32	57595.90
545.49	57836.98
545.66	57996.13
545.83	57733.99
546.00	57958.69
546.16	57851.02
546.33	57598.24
546.50	57497.60
546.67	57806.55
546.83	57752.72
547.00	58078.05
547.17	57970.39
547.34	57932.94
547.50	57949.32
547.67	58003.16
547.84	58199.76
548.00	58553.18
548.17	58379.98
548.34	58302.74
548.51	58482.97
548.67	58562.54
548.84	58305.09
549.01	58131.89
549.18	58361.26
549.34	58422.11
549.51	58230.19
549.68	58471.26
549.84	58475.94
550.01	58820.00
550.18	58485.31
550.34	58576.59
550.51	58777.87
550.68	58679.57
550.84	58391.68
551.01	58700.64
551.18	58658.51
551.34	58695.95
551.51	58773.19
551.68	58834.05
551.84	58901.92
552.01	58866.81
552.18	59215.55
552.34	58714.68
552.51	58883.20
552.68	58899.58
552.84	58944.05
553.01	59274.07
553.18	59042.35
553.34	59098.53
553.51	58960.44
553.67	59009.59
553.84	59199.17
554.01	59150.02
554.17	59157.04
554.34	59262.36
554.51	59100.87
554.67	59203.85
554.84	59112.57
555.00	59421.52
555.17	59271.73
555.33	59318.54
555.50	59171.08
555.67	59075.12
555.83	59283.43
556.00	59285.77
556.16	59568.97
556.33	59615.79
556.50	59290.45
556.66	59662.60
556.83	59501.10
556.99	59583.02
557.16	59695.36
557.32	59929.42
557.49	59875.58
557.65	59405.14
557.82	59580.68
557.98	59444.93
558.15	59538.55
558.32	59760.90
558.48	59620.47
558.65	59730.47
558.81	59650.89
558.98	59753.88
559.14	59908.35
559.31	59547.91
559.47	59964.52
559.64	59887.29
559.80	59821.75
559.97	59983.25
560.13	59873.24
560.30	59966.87
560.46	59807.71
560.63	59924.74
560.79	59920.05
560.96	59810.05
561.12	60090.91
561.29	59920.05
561.45	60104.96
561.61	59943.46
561.78	60011.34
561.94	59868.56
562.11	59889.63
562.27	60041.76
562.44	60182.19
562.60	60299.22
562.77	60158.79
562.93	60184.54
563.10	60308.58
563.26	60238.37
563.42	60275.82
563.59	60123.68
563.75	60271.14
563.92	60385.82
564.08	60252.41
564.24	60196.24
564.41	60261.77
564.57	60217.30
564.74	60449.02
564.90	60303.90
565.07	60289.86
565.23	60402.21
565.39	60348.37
565.56	60406.89
565.72	60257.09
565.88	60313.26
566.05	60357.74
566.21	60437.31
566.38	60385.82
566.54	60357.74
566.70	60523.91
566.87	60437.31
567.03	60505.19
567.19	60867.97
567.36	60427.95
567.52	60411.57
567.68	60874.99
567.85	60341.35
568.01	60706.47
568.17	60376.46
568.34	60587.11
568.50	60390.50
568.66	60413.91
568.83	60582.43
568.99	60331.99
569.15	60647.96
569.32	60706.47
569.48	60772.01
569.64	60706.47
569.81	60753.29
569.97	60549.66
570.13	60685.41
570.30	60647.96
570.46	60603.49
570.62	60598.81
570.78	60764.99
570.95	60575.40
571.11	60814.14
571.27	60498.17
571.43	60804.78
571.60	60781.37
571.76	60860.95
571.92	60987.34
572.09	60676.05
572.25	60870.31
572.41	60739.24
572.57	60839.89
572.74	61041.17
572.90	60973.30
573.06	60879.67
573.22	60828.18
573.38	60844.57
573.55	60776.69
573.71	61059.90
573.87	60987.34
574.03	60636.26
574.20	61059.90
574.36	60769.67
574.52	60748.60
574.68	60926.49
574.84	60903.08
575.01	60982.66
575.17	60814.14
575.33	60874.99
575.49	60961.59
575.65	60996.70
575.82	61144.16
575.98	60919.46
576.14	61087.98
576.30	61134.79
576.46	60926.49
576.62	60779.03
576.79	60919.46
576.95	61076.28
577.11	61034.15
577.27	61078.62
577.43	61015.43
577.59	60835.20
577.75	61118.41
577.92	60823.50
578.08	61041.17
578.24	61137.13
578.40	61158.20
578.56	60989.68
578.72	61036.49
578.88	61366.51
579.04	61268.20
579.21	61109.05
579.37	61254.16
579.53	61186.28
579.69	60945.21
579.85	61027.13
580.01	61102.03
580.17	60867.97
580.33	61106.71
580.49	61041.17
580.65	61247.14
580.82	61062.24
580.98	61031.81
581.14	61083.30
581.30	61197.99
581.46	61085.64
581.62	60959.25
581.78	61087.98
581.94	61228.41
582.10	61144.16
582.26	60980.32
582.42	61010.74
582.58	61085.64
582.74	61080.96
582.90	61041.17
583.06	61146.50
583.22	60975.64
583.38	61270.54
583.54	61272.88
583.70	61221.39
583.86	61195.65
584.02	60985.00
584.18	61120.75
584.34	61282.25
584.50	61216.71
584.66	60980.32
584.82	60851.59
584.98	61272.88
585.14	61223.73
585.30	61209.69
585.46	61228.41
585.62	61219.05
585.78	61338.42
585.94	61179.26
586.10	61261.18
586.26	61200.33
586.42	61378.21
586.58	61179.26
586.74	61303.31
586.90	61389.91
587.06	61176.92
587.22	61364.17
587.38	61027.13
587.54	61520.98
587.70	61432.04
587.86	61190.97
588.02	61092.66
588.18	61401.61
588.34	61282.25
588.49	61172.24
