SpectraSuite Data File
++++++++++++++++++++++++++++++++++++
Date: Fri Oct 25 11:26:34 EDT 2013
User: price-jones
Dark Spectrum Present: No
Reference Spectrum Present: No
Number of Sampled Component Spectra: 1
Spectrometers: USB2+H05261
Integration Time (usec): 100000 (USB2+H05261)
Spectra Averaged: 1 (USB2+H05261)
Boxcar Smoothing: 0 (USB2+H05261)
Correct for Electrical Dark: No (USB2+H05261)
Strobe/Lamp Enabled: No (USB2+H05261)
Correct for Detector Non-linearity: No (USB2+H05261)
Correct for Stray Light: No (USB2+H05261)
Number of Pixels in Processed Spectrum: 2048
>>>>>Begin Processed Spectral Data<<<<<
365.73	234.05
365.92	234.05
366.12	234.05
366.32	168.52
366.52	152.13
366.72	159.16
366.91	133.41
367.11	149.79
367.31	173.20
367.51	175.54
367.70	145.11
367.90	124.05
368.10	81.92
368.30	205.97
368.49	65.54
368.69	168.52
368.89	86.60
369.09	203.63
369.28	142.77
369.48	177.88
369.68	227.03
369.87	196.60
370.07	159.16
370.27	198.95
370.47	231.71
370.66	575.77
370.86	587.47
371.06	617.90
371.25	692.80
371.45	641.31
371.65	681.10
371.84	713.86
372.04	657.69
372.24	720.88
372.44	699.82
372.63	683.44
372.83	741.95
373.03	763.01
373.22	739.61
373.42	744.29
373.62	807.48
373.81	812.17
374.01	875.36
374.21	837.91
374.40	760.67
374.60	814.51
374.79	873.02
374.99	856.64
375.19	840.25
375.38	882.38
375.58	835.57
375.78	898.77
375.97	858.98
376.17	915.15
376.37	870.68
376.56	875.36
376.76	840.25
376.95	887.06
377.15	884.72
377.35	910.47
377.54	847.27
377.74	891.74
377.93	917.49
378.13	922.17
378.33	866.00
378.52	912.81
378.72	947.92
378.91	973.66
379.11	1015.79
379.31	856.64
379.50	903.45
379.70	957.28
379.89	999.41
380.09	973.66
380.28	954.94
380.48	940.90
380.68	952.60
380.87	999.41
381.07	1053.24
381.26	1118.78
381.46	1114.10
381.65	1078.99
381.85	1081.33
382.04	1067.28
382.24	1097.71
382.43	1086.01
382.63	1163.25
382.83	1046.22
383.02	1111.75
383.22	1128.14
383.41	1167.93
383.61	1123.46
383.80	1144.52
384.00	1139.84
384.19	1151.54
384.39	1083.67
384.58	1188.99
384.78	1193.67
384.97	1193.67
385.17	1231.12
385.36	1153.88
385.56	1203.04
385.75	1130.48
385.95	1128.14
386.14	1205.38
386.34	1266.23
386.53	1226.44
386.72	1165.59
386.92	1284.95
387.11	1282.61
387.31	1345.81
387.50	1200.69
387.70	1238.14
387.89	1231.12
388.09	1217.08
388.28	1235.80
388.48	1233.46
388.67	1352.83
388.86	1373.89
389.06	1376.24
389.25	1242.82
389.45	1399.64
389.64	1306.02
389.84	1336.45
390.03	1460.49
390.22	1462.83
390.42	1441.77
390.61	1427.73
390.81	1387.94
391.00	1455.81
391.19	1507.30
391.39	1483.90
391.58	1509.65
391.78	1453.47
391.97	1495.60
392.16	1462.83
392.36	1495.60
392.55	1523.69
392.75	1607.95
392.94	1476.88
393.13	1465.18
393.33	1460.49
393.52	1563.48
393.71	1572.84
393.91	1614.97
394.10	1610.29
394.29	1624.33
394.49	1647.74
394.68	1537.73
394.88	1624.33
395.07	1661.78
395.26	1682.85
395.46	1703.91
395.65	1650.08
395.84	1682.85
396.04	1846.68
396.23	1755.40
396.42	1746.04
396.62	1790.51
396.81	1827.96
397.00	1818.60
397.19	1834.98
397.39	1785.83
397.58	1909.88
397.77	1879.45
397.97	1820.94
398.16	1776.47
398.35	1926.26
398.55	1874.77
398.74	1893.49
398.93	2064.35
399.12	1926.26
399.32	1944.99
399.51	1947.33
399.70	2062.01
399.90	1996.48
400.09	2031.58
400.28	2024.56
400.47	2022.22
400.67	2036.27
400.86	2073.71
401.05	2125.21
401.24	2106.48
401.44	2057.33
401.63	2165.00
401.82	1996.48
402.01	2062.01
402.21	2195.42
402.40	2228.19
402.59	2207.13
402.78	2216.49
402.97	2232.87
403.17	2174.36
403.36	2223.51
403.55	2286.70
403.74	2317.13
403.93	2499.69
404.13	2483.31
404.32	2279.68
404.51	2380.32
404.70	2354.58
404.89	2380.32
405.09	2504.37
405.28	2462.24
405.47	2457.56
405.66	2487.99
405.85	2553.52
406.05	2438.84
406.24	2424.80
406.43	2520.76
406.62	2546.50
406.81	2679.91
407.00	2548.84
407.20	2691.62
407.39	2663.53
407.58	2771.19
407.77	2729.06
407.96	2740.77
408.15	2815.66
408.34	2745.45
408.54	2860.13
408.73	2700.98
408.92	2773.53
409.11	2780.56
409.30	2920.99
409.49	2867.16
409.68	2857.79
409.87	2864.82
410.07	3030.99
410.26	3014.61
410.45	3052.06
410.64	3035.67
410.83	3002.91
411.02	3087.17
411.21	3115.25
411.40	3049.72
411.59	3159.72
411.78	3314.20
411.98	3150.36
412.17	3309.52
412.36	3239.30
412.55	3431.23
412.74	3339.94
412.93	3452.29
413.12	3365.69
413.31	3578.68
413.50	3517.83
413.69	3389.10
413.88	3623.15
414.07	3475.70
414.26	3627.83
414.45	3588.04
414.64	3681.66
414.83	3833.80
415.02	3829.12
415.22	3857.20
415.41	3868.91
415.60	3857.20
415.79	3988.27
415.98	3962.53
416.17	3971.89
416.36	3964.87
416.55	3957.85
416.74	4147.43
416.93	4053.81
417.12	4119.34
417.31	4107.64
417.50	4177.86
417.69	4255.09
417.88	4252.75
418.07	4301.90
418.26	4374.46
418.45	4397.87
418.64	4475.10
418.83	4369.78
419.02	4493.83
419.21	4507.87
419.39	4493.83
419.58	4512.55
419.77	4500.85
419.96	4517.23
420.15	4664.69
420.34	4596.81
420.53	4472.76
420.72	4627.24
420.91	4777.03
421.10	4755.97
421.29	4880.02
421.48	4744.27
421.67	4826.18
421.86	4945.55
422.05	4851.93
422.24	4833.21
422.43	4861.29
422.61	4807.46
422.80	4964.28
422.99	5048.54
423.18	5142.16
423.37	5071.94
423.56	4954.91
423.75	4891.72
423.94	4957.25
424.13	4589.79
424.32	4711.50
424.50	4926.83
424.69	5104.71
424.88	5011.09
425.07	4985.34
425.26	4858.95
425.45	4873.00
425.64	5032.15
425.83	4938.53
426.01	5130.45
426.20	5041.51
426.39	5085.98
426.58	5137.48
426.77	5043.85
426.96	5221.74
427.15	5102.37
427.33	5240.46
427.52	5284.93
427.71	5315.36
427.90	5242.80
428.09	5259.18
428.28	5462.81
428.46	5420.68
428.65	5378.55
428.84	5451.11
429.03	5518.98
429.22	5451.11
429.40	5514.30
429.59	5528.35
429.78	5291.95
429.97	5252.16
430.16	5448.77
430.34	5469.83
430.53	5668.78
430.72	5806.87
430.91	5605.58
431.10	5518.98
431.28	5699.20
431.47	5823.25
431.66	5907.51
431.85	5825.59
432.03	5767.08
432.22	5977.73
432.41	5933.26
432.60	6026.88
432.79	5949.64
432.97	5973.05
433.16	6052.63
433.35	5954.32
433.54	6193.06
433.72	6076.03
433.91	6202.42
434.10	6179.01
434.28	6150.93
434.47	6125.18
434.66	6167.31
434.85	6338.17
435.03	6263.27
435.22	6305.40
435.41	6406.05
435.59	6345.19
435.78	6413.07
435.97	6541.80
436.16	6516.05
436.34	6462.22
436.53	6396.68
436.72	6696.27
436.90	6612.01
437.09	6796.92
437.28	6387.32
437.46	6731.38
437.65	6658.82
437.84	6764.15
438.02	6785.21
438.21	6761.81
438.40	6576.91
438.58	6958.41
438.77	7054.37
438.96	6970.12
439.14	7073.10
439.33	7232.26
439.52	7239.28
439.70	7452.27
439.89	7236.94
440.08	7419.50
440.26	7360.98
440.45	7213.53
440.63	7339.92
440.82	7513.12
441.01	7531.84
441.19	7592.70
441.38	7861.86
441.57	7695.68
441.75	7868.88
441.94	7864.20
442.12	7943.78
442.31	8042.08
442.50	8327.63
442.68	7852.50
442.87	7868.88
443.05	8037.40
443.24	8201.24
443.43	8205.92
443.61	8180.17
443.80	8608.49
443.98	7999.95
444.17	8044.42
444.35	8301.88
444.54	8348.69
444.73	8114.64
444.91	8348.69
445.10	8313.58
445.28	8477.42
445.47	8327.63
445.65	8259.75
445.84	8451.67
446.02	8428.27
446.21	8477.42
446.39	8381.46
446.58	8472.74
446.77	8557.00
446.95	8425.93
447.14	8465.72
447.32	8718.50
447.51	8493.80
447.69	8449.33
447.88	8484.44
448.06	8650.62
448.25	8493.80
448.43	8561.68
448.62	8575.72
448.80	8432.95
448.99	8772.33
449.17	8702.11
449.36	8578.06
449.54	8910.42
449.73	9064.89
449.91	8954.89
450.10	8833.18
450.28	9092.98
450.46	9142.13
450.65	8931.48
450.83	9123.41
451.02	9111.71
451.20	9362.14
451.39	8879.99
451.57	9146.81
451.76	9142.13
451.94	9364.48
452.13	9380.87
452.31	9369.16
452.49	9191.28
452.68	9352.78
452.86	9502.58
453.05	9469.81
453.23	9483.85
453.42	9369.16
453.60	9540.02
453.78	9579.81
453.97	9408.95
454.15	9640.67
454.34	9338.74
454.52	9621.94
454.70	9701.52
454.89	9614.92
455.07	9703.86
455.26	9729.61
455.44	9895.78
455.62	9975.36
455.81	9886.42
455.99	10129.84
456.17	9940.26
456.36	10085.37
456.54	10326.44
456.73	10354.53
456.91	10413.04
457.09	10389.64
457.28	10506.66
457.46	10197.71
457.64	10485.60
457.83	10628.37
458.01	10396.66
458.19	10822.64
458.38	10527.73
458.56	10654.12
458.74	10752.42
458.93	10611.99
459.11	10733.70
459.29	10464.54
459.48	10778.17
459.66	10934.98
459.84	10937.32
460.03	10988.82
460.21	10860.09
460.39	11070.73
460.57	11115.20
460.76	11080.10
460.94	11016.90
461.12	11229.89
461.31	11033.29
461.49	11152.65
461.67	11087.12
461.85	11454.58
462.04	11349.26
462.22	11595.01
462.40	11522.46
462.59	11566.93
462.77	11433.52
462.95	11716.72
463.13	11475.65
463.32	11658.21
463.50	11639.48
463.68	11775.24
463.86	11831.41
464.05	11648.85
464.23	11747.15
464.41	11920.35
464.59	11681.61
464.78	12241.00
464.96	11971.84
465.14	11786.94
465.32	11967.16
465.50	12128.66
465.69	12177.81
465.87	11999.93
466.05	12283.13
466.23	12194.19
466.41	12339.30
466.60	12395.48
466.78	12184.83
466.96	12320.58
467.14	12180.15
467.32	12449.31
467.51	12638.89
467.69	12131.00
467.87	12442.29
468.05	12498.46
468.23	12690.38
468.41	12475.06
468.60	12772.30
468.78	13015.72
468.96	12634.21
469.14	12458.67
469.32	13004.02
469.50	12727.83
469.69	12898.69
469.87	13224.03
470.05	13053.17
470.23	13186.58
470.41	13095.30
470.59	13324.67
470.77	13469.78
470.95	13277.86
471.14	13586.81
471.32	13228.71
471.50	13479.15
471.68	13462.76
471.86	13572.77
472.04	13748.31
472.22	14073.64
472.40	13626.60
472.58	13811.50
472.77	14050.24
472.95	14003.43
473.13	14436.42
473.31	14160.24
473.49	13900.44
473.67	14230.46
473.85	14104.07
474.03	14586.22
474.21	14551.11
474.39	14476.21
474.57	14941.98
474.75	14752.40
474.93	15150.29
475.12	15215.82
475.30	15047.30
475.48	14794.53
475.66	15255.61
475.84	15335.19
476.02	15396.04
476.20	15239.23
476.38	15786.91
476.56	16077.14
476.74	16198.85
476.92	15625.42
477.10	15852.45
477.28	16020.97
477.46	16327.58
477.64	16491.41
477.82	16535.88
478.00	16856.54
478.18	16978.25
478.36	16971.22
478.54	17242.73
478.72	17235.70
478.90	17490.82
479.08	17504.87
479.26	17795.09
479.44	17495.50
479.62	17771.69
479.80	18022.12
479.98	18181.28
480.16	18448.10
480.34	18200.01
480.52	18345.12
480.70	18621.30
480.88	18441.08
481.06	18616.62
481.24	18778.12
481.41	18920.89
481.59	19440.49
481.77	19576.24
481.95	19541.13
482.13	19791.57
482.31	19737.74
482.49	19887.53
482.67	20149.67
482.85	20542.88
483.03	20549.90
483.21	20671.61
483.39	20982.90
483.57	20816.72
483.74	21128.02
483.92	21277.81
484.10	21221.64
484.28	21715.49
484.46	21774.00
484.64	21963.59
484.82	22017.42
485.00	21970.61
485.18	22469.14
485.35	22782.77
485.53	22843.63
485.71	23105.77
485.89	23754.10
486.07	22913.84
486.25	23644.09
486.43	23756.44
486.61	23761.12
486.78	24294.76
486.96	24201.14
487.14	24360.30
487.32	24760.53
487.50	24842.45
487.68	24922.02
487.85	25186.50
488.03	25589.08
488.21	25926.11
488.39	25797.38
488.57	25905.05
488.75	26129.74
488.92	26022.08
489.10	26838.92
489.28	26478.48
489.46	27267.24
489.64	26803.82
489.81	27571.51
489.99	27644.07
490.17	28037.28
490.35	28128.56
490.53	27969.40
490.70	28453.89
490.88	28371.97
491.06	28535.81
491.24	28753.48
491.41	28858.81
491.59	29263.72
491.77	29226.27
491.95	29663.95
492.13	29523.52
492.30	29827.79
492.48	30075.88
492.66	30078.22
492.84	30822.51
493.01	30628.25
493.19	30579.10
493.37	30958.27
493.54	31049.55
493.72	31475.52
493.90	31290.62
494.08	31812.56
494.25	32112.15
494.43	32030.23
494.61	32343.86
494.79	32477.27
494.96	32416.42
495.14	33020.28
495.32	33350.29
495.49	33078.79
495.67	32971.13
495.85	33476.68
496.02	33830.10
496.20	33736.48
496.38	34345.02
496.55	34562.69
496.73	34808.45
496.91	34216.29
497.09	34691.42
497.26	35030.80
497.44	35115.06
497.62	35358.47
497.79	35754.02
497.97	35548.06
498.14	35793.81
498.32	35892.12
498.50	36039.57
498.67	36479.59
498.85	36589.59
499.03	36769.82
499.20	36636.41
499.38	37251.97
499.56	37156.00
499.73	37022.59
499.91	37200.47
500.08	37820.72
500.26	37642.84
500.44	37813.70
500.61	37722.41
500.79	37755.18
500.97	38054.77
501.14	38649.27
501.32	38232.65
501.49	38550.96
501.67	38925.45
501.84	39136.10
502.02	38944.17
502.20	39225.04
502.37	39040.14
502.55	39541.01
502.72	39634.63
502.90	39548.03
503.07	39431.01
503.25	39700.17
503.43	39576.12
503.60	40369.56
503.78	40238.49
503.95	40172.96
504.13	40605.95
504.30	40753.41
504.48	40648.08
504.65	40638.72
504.83	41031.93
505.01	41144.28
505.18	41310.46
505.36	41378.33
505.53	41471.95
505.71	41572.60
505.88	41673.24
506.06	41668.56
506.23	41928.36
506.41	41537.49
506.58	42148.37
506.76	42190.50
506.93	42485.40
507.11	42527.53
507.28	42122.62
507.46	42576.69
507.63	42784.99
507.81	43421.62
507.98	42674.99
508.16	43157.14
508.33	43283.53
508.50	43601.84
508.68	43379.49
508.85	43679.08
509.03	43545.67
509.20	43800.79
509.38	44226.76
509.55	44624.65
509.73	44172.93
509.90	44652.74
510.08	44339.11
510.25	45029.57
510.42	44643.38
510.60	44964.03
510.77	45406.39
510.95	45492.99
511.12	45397.03
511.30	45588.95
511.47	45382.99
511.64	45401.71
511.82	45937.69
511.99	45876.84
512.17	45413.41
512.34	45808.96
512.51	46122.60
512.69	46298.14
512.86	46550.91
513.04	46684.33
513.21	46803.69
513.38	46660.92
513.56	46782.63
513.73	46550.91
513.90	46693.69
514.08	46784.97
514.25	47047.11
514.43	47564.37
514.60	47494.15
514.77	47334.99
514.95	47629.90
515.12	47538.62
515.29	47650.97
515.47	47749.27
515.64	48165.88
515.81	47887.36
515.99	48172.91
516.16	48533.35
516.33	48238.44
516.51	48591.86
516.68	48500.58
516.85	48638.67
517.03	49205.08
517.20	48694.85
517.37	48816.55
517.54	48498.24
517.72	48870.39
517.89	49294.02
518.06	49141.89
518.24	49448.50
518.41	49258.91
518.58	49392.33
518.75	49263.60
518.93	49361.90
519.10	49523.40
519.27	49684.89
519.45	49268.28
519.62	49691.91
519.79	50206.83
519.96	49932.99
520.14	49954.05
520.31	50038.31
520.48	50499.40
520.65	50330.88
520.83	50635.15
521.00	50614.08
521.17	50363.65
521.34	50426.84
521.52	50518.12
521.69	50754.52
521.86	51033.04
522.03	50855.16
522.20	51147.73
522.38	51662.64
522.55	51150.07
522.72	51239.01
522.89	51349.01
523.07	51908.40
523.24	51426.25
523.41	51480.08
523.58	51501.15
523.75	51856.91
523.92	51547.96
524.10	52261.82
524.27	52259.48
524.44	51751.59
524.61	52217.35
524.78	52247.78
524.96	52231.40
525.13	52186.92
525.30	52577.79
525.47	52488.85
525.64	52364.81
525.81	52458.43
525.98	52729.93
526.16	52610.56
526.33	52416.30
526.50	52982.71
526.67	52865.68
526.84	53258.89
527.01	53022.50
527.18	52861.00
527.36	52947.60
527.53	53106.76
527.70	53375.92
527.87	53195.70
528.04	53027.18
528.21	53504.65
528.38	53560.82
528.55	53443.79
528.72	53284.64
528.89	53247.19
529.07	53279.96
529.24	53282.30
529.41	53701.25
529.58	53542.10
529.75	53659.12
529.92	53792.53
530.09	53954.03
530.26	54024.25
530.43	54057.01
530.60	53820.62
530.77	53862.75
530.94	54150.63
531.11	53841.68
531.28	54068.72
531.46	54155.32
531.63	54197.44
531.80	54202.13
531.97	54344.90
532.14	54279.36
532.31	54150.63
532.48	54749.81
532.65	54611.72
532.82	54174.04
532.99	54831.73
533.16	54522.78
533.33	54831.73
533.50	54831.73
533.67	54944.08
533.84	54564.91
534.01	54710.02
534.18	54749.81
534.35	55004.93
534.52	54930.03
534.69	55356.01
534.86	55199.19
535.03	54948.76
535.20	55075.15
535.37	55189.83
535.54	55330.26
535.71	55054.08
535.88	55554.96
536.05	55377.08
536.22	55545.59
536.38	55428.57
536.55	55339.63
536.72	55545.59
536.89	55590.06
537.06	55505.80
537.23	55625.17
537.40	55622.83
537.57	55952.85
537.74	55702.41
537.91	56013.70
538.08	55737.52
538.25	55601.77
538.42	56090.94
538.59	56205.62
538.75	55767.94
538.92	56310.95
539.09	56039.45
539.26	56055.83
539.43	56191.58
539.60	56203.28
539.77	56329.67
539.94	56615.22
540.11	56406.91
540.28	56329.67
540.44	56289.88
540.61	56233.71
540.78	56446.70
540.95	56556.70
541.12	56498.19
541.29	56222.01
541.46	56498.19
541.62	56645.65
541.79	56512.23
541.96	56348.40
542.13	56769.69
542.30	56837.57
542.47	56804.80
542.63	56697.14
542.80	56959.28
542.97	57146.52
543.14	57169.93
543.31	57020.13
543.48	57279.93
543.64	57614.63
543.81	57553.77
543.98	57312.70
544.15	57200.35
544.32	57511.64
544.48	57621.65
544.65	57425.04
544.82	57350.15
544.99	57406.32
545.16	57387.60
545.32	57357.17
545.49	57588.88
545.66	57675.48
545.83	57595.90
546.00	57729.31
546.16	57607.61
546.33	57605.26
546.50	57394.62
546.67	57811.23
546.83	57420.36
547.00	57783.15
547.17	57532.71
547.34	57822.93
547.50	58000.82
547.67	58019.54
547.84	58078.05
548.00	58005.50
548.17	58171.67
548.34	57991.45
548.51	58253.59
548.67	58262.96
548.84	58106.14
549.01	58190.40
549.18	58155.29
549.34	58190.40
549.51	58120.18
549.68	58382.32
549.84	58375.30
550.01	58569.57
550.18	58347.21
550.34	58464.24
550.51	58527.44
550.68	58424.45
550.84	58183.38
551.01	58550.84
551.18	58473.60
551.34	58487.65
551.51	58623.40
551.68	58784.90
551.84	58478.28
552.01	58422.11
552.18	58396.37
552.34	58513.39
552.51	58504.03
552.68	58625.74
552.84	58410.41
553.01	58843.41
553.18	58805.96
553.34	58953.41
553.51	58787.24
553.67	58848.09
553.84	58932.35
554.01	58850.43
554.17	58930.01
554.34	59040.01
554.51	58845.75
554.67	59100.87
554.84	59143.00
555.00	58794.26
555.17	59098.53
555.33	59131.29
555.50	58894.90
555.67	58937.03
555.83	58934.69
556.00	59164.06
556.16	59552.59
556.33	59290.45
556.50	59180.45
556.66	59241.30
556.83	59208.53
556.99	59253.00
557.16	59491.74
557.32	59306.83
557.49	59585.36
557.65	59377.05
557.82	59444.93
557.98	59447.27
558.15	59414.50
558.32	59531.53
558.48	59267.05
558.65	59351.30
558.81	59660.26
558.98	59763.24
559.14	59568.97
559.31	59625.15
559.47	59739.83
559.64	59821.75
559.80	59786.64
559.97	59800.69
560.13	59709.41
560.30	59524.50
560.46	59821.75
560.63	59845.16
560.79	59744.51
560.96	59803.03
561.12	59980.91
561.29	59760.90
561.45	59807.71
561.61	59868.56
561.78	59859.20
561.94	59788.98
562.11	59861.54
562.27	59924.74
562.44	60107.30
562.60	60004.31
562.77	60001.97
562.93	59840.48
563.10	59887.29
563.26	59838.14
563.42	60212.62
563.59	59842.82
563.75	59990.27
563.92	59810.05
564.08	60140.07
564.24	60310.92
564.41	60093.25
564.57	60034.74
564.74	59990.27
564.90	59938.78
565.07	60001.97
565.23	60268.79
565.39	60065.17
565.56	60229.01
565.72	60135.38
565.88	60133.04
566.05	60154.11
566.21	60214.96
566.38	60076.87
566.54	60135.38
566.70	60238.37
566.87	60362.42
567.03	60037.08
567.19	60343.69
567.36	60261.77
567.52	60451.36
567.68	60460.72
567.85	60212.62
568.01	60404.55
568.17	60193.90
568.34	60523.91
568.50	60212.62
568.66	60430.29
568.83	60348.37
568.99	60133.04
569.15	60458.38
569.32	60142.41
569.48	60329.65
569.64	60708.82
569.81	60348.37
569.97	60458.38
570.13	60458.38
570.30	60477.10
570.46	60563.70
570.62	60484.12
570.78	60409.23
570.95	60336.67
571.11	60434.97
571.27	60186.88
571.43	60552.00
571.60	60725.20
571.76	60591.79
571.92	60514.55
572.09	60554.34
572.25	60603.49
572.41	60481.78
572.57	60690.09
572.74	60437.31
572.90	60526.25
573.06	60713.50
573.22	60727.54
573.38	60671.37
573.55	60818.82
573.71	60907.76
573.87	60650.30
574.03	60629.24
574.20	60619.88
574.36	60683.07
574.52	60779.03
574.68	60729.88
574.84	60690.09
575.01	60779.03
575.17	60645.62
575.33	60687.75
575.49	60481.78
575.65	60633.92
575.82	60722.86
575.98	60687.75
576.14	60924.14
576.30	60797.76
576.46	60626.90
576.62	60584.77
576.79	60704.13
576.95	60662.00
577.11	60896.06
577.27	60940.53
577.43	60669.03
577.59	60704.13
577.75	60779.03
577.92	60741.58
578.08	60746.26
578.24	60910.10
578.40	61036.49
578.56	60872.65
578.72	60900.74
578.88	60790.73
579.04	60921.80
579.21	60867.97
579.37	60856.27
579.53	61104.37
579.69	60654.98
579.85	60748.60
580.01	60568.38
580.17	60533.28
580.33	60816.48
580.49	60774.35
580.65	60924.14
580.82	61017.77
580.98	60762.65
581.14	60741.58
581.30	61031.81
581.46	60830.52
581.62	60928.83
581.78	60797.76
581.94	60903.08
582.10	60872.65
582.26	60921.80
582.42	60867.97
582.58	61069.26
582.74	60793.07
582.90	60907.76
583.06	60910.10
583.22	60919.46
583.38	60837.54
583.54	60928.83
583.70	61015.43
583.86	61193.31
584.02	60760.31
584.18	60956.91
584.34	60938.19
584.50	60912.44
584.66	61003.72
584.82	60842.23
584.98	61284.59
585.14	60935.85
585.30	60795.42
585.46	61162.88
585.62	61104.37
585.78	61104.37
585.94	60877.33
586.10	61001.38
586.26	61226.07
586.42	61141.81
586.58	61062.24
586.74	61144.16
586.90	60842.23
587.06	61113.73
587.22	61123.09
587.38	60982.66
587.54	60999.04
587.70	61029.47
587.86	61130.11
588.02	61010.74
588.18	60973.30
588.34	61141.81
588.49	61099.68
