SpectraSuite Data File
++++++++++++++++++++++++++++++++++++
Date: Fri Oct 25 10:44:03 EDT 2013
User: price-jones
Dark Spectrum Present: No
Reference Spectrum Present: No
Number of Sampled Component Spectra: 1
Spectrometers: USB2+H05261
Integration Time (usec): 100000 (USB2+H05261)
Spectra Averaged: 1 (USB2+H05261)
Boxcar Smoothing: 0 (USB2+H05261)
Correct for Electrical Dark: No (USB2+H05261)
Strobe/Lamp Enabled: No (USB2+H05261)
Correct for Detector Non-linearity: No (USB2+H05261)
Correct for Stray Light: No (USB2+H05261)
Number of Pixels in Processed Spectrum: 2048
>>>>>Begin Processed Spectral Data<<<<<
365.73	152.13
365.92	152.13
366.12	152.13
366.32	42.13
366.52	16.38
366.72	84.26
366.91	18.72
367.11	0.00
367.31	7.02
367.51	0.00
367.70	79.58
367.90	2.34
368.10	49.15
368.30	0.00
368.49	0.00
368.69	51.49
368.89	0.00
369.09	23.41
369.28	0.00
369.48	44.47
369.68	60.85
369.87	140.43
370.07	84.26
370.27	86.60
370.47	205.97
370.66	409.59
370.86	425.98
371.06	521.94
371.25	461.09
371.45	535.98
371.65	444.70
371.84	428.32
372.04	463.43
372.24	489.17
372.44	477.47
372.63	465.77
372.83	526.62
373.03	603.86
373.22	472.79
373.42	503.22
373.62	582.79
373.81	578.11
374.01	545.34
374.21	613.22
374.40	554.71
374.60	540.66
374.79	545.34
374.99	552.37
375.19	617.90
375.38	559.39
375.58	622.58
375.78	627.26
375.97	620.24
376.17	653.01
376.37	697.48
376.56	660.03
376.76	601.52
376.95	629.60
377.15	690.46
377.35	671.73
377.54	638.97
377.74	683.44
377.93	695.14
378.13	739.61
378.33	608.54
378.52	662.37
378.72	732.59
378.91	770.04
379.11	606.20
379.31	664.71
379.50	641.31
379.70	741.95
379.89	657.69
380.09	770.04
380.28	699.82
380.48	741.95
380.68	737.27
380.87	711.52
381.07	720.88
381.26	758.33
381.46	732.59
381.65	734.93
381.85	697.48
382.04	788.76
382.24	772.38
382.43	748.97
382.63	592.16
382.83	826.21
383.02	727.91
383.22	779.40
383.41	720.88
383.61	763.01
383.80	741.95
384.00	777.06
384.19	779.40
384.39	866.00
384.58	802.80
384.78	809.83
384.97	793.44
385.17	828.55
385.36	774.72
385.56	835.57
385.75	875.36
385.95	858.98
386.14	856.64
386.34	847.27
386.53	903.45
386.72	835.57
386.92	877.70
387.11	842.59
387.31	763.01
387.50	922.17
387.70	882.38
387.89	875.36
388.09	978.34
388.28	992.39
388.48	983.02
388.67	957.28
388.86	894.08
389.06	954.94
389.25	999.41
389.45	1020.47
389.64	1039.20
389.84	1004.09
390.03	1107.07
390.22	933.87
390.42	980.68
390.61	1081.33
390.81	1078.99
391.00	1076.65
391.19	1198.35
391.39	1100.05
391.58	1111.75
391.78	1086.01
391.97	1050.90
392.16	1146.86
392.36	1116.44
392.55	1046.22
392.75	1041.54
392.94	917.49
393.13	1029.84
393.33	1018.13
393.52	1032.18
393.71	1118.78
393.91	1088.35
394.10	1146.86
394.29	1130.48
394.49	1212.40
394.68	1324.74
394.88	1359.85
395.07	1324.74
395.26	1238.14
395.46	1249.85
395.65	1380.92
395.84	1270.91
396.04	1277.93
396.23	1181.97
396.42	1184.31
396.62	1200.69
396.81	1324.74
397.00	1287.29
397.19	1338.79
397.39	1359.85
397.58	1406.66
397.77	1439.43
397.97	1469.86
398.16	1483.90
398.35	1596.25
398.55	1479.22
398.74	1561.14
398.93	1535.39
399.12	1493.26
399.32	1547.09
399.51	1713.27
399.70	1626.67
399.90	1664.12
400.09	1596.25
400.28	1645.40
400.47	1762.42
400.67	1757.74
400.86	1717.95
401.05	1767.10
401.24	1750.72
401.44	1720.29
401.63	1837.32
401.82	1849.02
402.01	1799.87
402.21	1895.83
402.40	1811.57
402.59	1851.36
402.78	1870.09
402.97	1872.43
403.17	1912.22
403.36	1944.99
403.55	1935.62
403.74	1954.35
403.93	1956.69
404.13	1919.24
404.32	1975.41
404.51	1888.81
404.70	2036.27
404.89	2066.69
405.09	2099.46
405.28	1944.99
405.47	2057.33
405.66	2078.40
405.85	2062.01
406.05	2087.76
406.24	2054.99
406.43	2155.63
406.62	2225.85
406.81	2305.43
407.00	2143.93
407.20	2104.14
407.39	2179.04
407.58	2176.70
407.77	2338.20
407.96	2298.41
408.15	2403.73
408.34	2333.51
408.54	2410.75
408.73	2352.24
408.92	2361.60
409.11	2476.29
409.30	2375.64
409.49	2328.83
409.68	2314.79
409.87	2363.94
410.07	2457.56
410.26	2506.71
410.45	2588.63
410.64	2658.85
410.83	2621.40
411.02	2560.55
411.21	2686.94
411.40	2579.27
411.59	2834.39
411.78	2712.68
411.98	2649.49
412.17	2780.56
412.36	2785.24
412.55	2818.00
412.74	2885.88
412.93	2832.05
413.12	2822.69
413.31	2993.55
413.50	2937.37
413.69	3021.63
413.88	3082.49
414.07	3110.57
414.26	2981.84
414.45	3143.34
414.64	3269.73
414.83	3108.23
415.02	3260.37
415.22	3262.71
415.41	3239.30
415.60	3321.22
415.79	3281.43
415.98	3382.07
416.17	3461.65
416.36	3506.12
416.55	3438.25
416.74	3499.10
416.93	3398.46
417.12	3382.07
417.31	3707.41
417.50	3433.57
417.69	3651.24
417.88	3639.53
418.07	3602.08
418.26	3716.77
418.45	3707.41
418.64	3714.43
418.83	3653.58
419.02	3791.67
419.21	3698.05
419.39	3838.48
419.58	3618.47
419.77	3531.87
419.96	3747.20
420.15	3948.48
420.34	3988.27
420.53	3964.87
420.72	3854.86
420.91	3978.91
421.10	4053.81
421.29	4159.13
421.48	3995.29
421.67	4035.08
421.86	4014.02
422.05	3950.82
422.24	3904.01
422.43	4032.74
422.61	3932.10
422.80	4107.64
422.99	4154.45
423.18	3990.61
423.37	4149.77
423.56	4058.49
423.75	4114.66
423.94	4133.39
424.13	3880.61
424.32	4021.04
424.50	4234.03
424.69	4212.96
424.88	4124.02
425.07	4210.62
425.26	3962.53
425.45	4142.75
425.64	4058.49
425.83	4257.43
426.01	4208.28
426.20	4285.52
426.39	4283.18
426.58	4163.81
426.77	4112.32
426.96	4124.02
427.15	4236.37
427.33	4266.80
427.52	4259.78
427.71	4332.33
427.90	4175.52
428.09	4339.35
428.28	4390.84
428.46	4313.61
428.65	4273.82
428.84	4550.00
429.03	4585.11
429.22	4257.43
429.40	4383.82
429.59	4266.80
429.78	3969.55
429.97	3957.85
430.16	4271.48
430.34	4262.12
430.53	4313.61
430.72	4358.08
430.91	4393.19
431.10	4484.47
431.28	4807.46
431.47	4908.10
431.66	4863.63
431.85	4667.03
432.03	4823.84
432.22	4723.20
432.41	4908.10
432.60	4908.10
432.79	4868.31
432.97	5055.56
433.16	5041.51
433.35	4844.91
433.54	4854.27
433.72	4837.89
433.91	4830.87
434.10	5022.79
434.28	4870.65
434.47	5132.79
434.66	5163.22
434.85	5277.91
435.03	5179.61
435.22	5252.16
435.41	5441.75
435.59	5207.69
435.78	5289.61
435.97	5380.89
436.16	5397.28
436.34	5291.95
436.53	5334.08
436.72	5479.19
436.90	5359.83
437.09	5483.88
437.28	5338.76
437.46	5416.00
437.65	5481.53
437.84	5481.53
438.02	5291.95
438.21	5547.07
438.40	5495.58
438.58	5703.89
438.77	5722.61
438.96	5540.05
439.14	5792.83
439.33	5919.21
439.52	5909.85
439.70	5785.80
439.89	5919.21
440.08	6036.24
440.26	5853.68
440.45	5846.66
440.63	6179.01
440.82	6457.54
441.01	6310.08
441.19	6244.55
441.38	6417.75
441.57	6408.39
441.75	6628.40
441.94	6520.73
442.12	6628.40
442.31	6619.04
442.50	6654.14
442.68	6794.58
442.87	6731.38
443.05	6675.21
443.24	6834.36
443.43	6682.23
443.61	6813.30
443.80	7037.99
443.98	6607.33
444.17	6637.76
444.35	6764.15
444.54	6979.48
444.73	6909.26
444.91	6665.85
445.10	6726.70
445.28	6684.57
445.47	6565.20
445.65	6642.44
445.84	6843.73
446.02	6815.64
446.21	7105.87
446.39	6899.90
446.58	7082.46
446.77	6920.96
446.95	6885.86
447.14	6897.56
447.32	7037.99
447.51	6881.18
447.69	6972.46
447.88	7070.76
448.06	7002.88
448.25	6939.69
448.43	7314.17
448.62	7115.23
448.80	7117.57
448.99	7164.38
449.17	7370.35
449.36	7152.68
449.54	7260.34
449.73	7297.79
449.91	7316.51
450.10	7428.86
450.28	7716.75
450.46	7515.46
450.65	7595.04
450.83	7623.12
451.02	7513.12
451.20	7679.30
451.39	7569.29
451.57	7489.71
451.76	7599.72
451.94	7552.91
452.13	7644.19
452.31	7714.41
452.49	7466.31
452.68	7517.80
452.86	7360.98
453.05	7515.46
453.23	7641.85
453.42	7384.39
453.60	7709.72
453.78	7728.45
453.97	7833.77
454.15	7946.12
454.34	7538.87
454.52	7801.01
454.70	7943.78
454.89	7943.78
455.07	7925.05
455.26	7953.14
455.44	8049.10
455.62	8201.24
455.81	8177.83
455.99	8116.98
456.17	8135.70
456.36	8116.98
456.54	8372.10
456.73	8290.18
456.91	8491.46
457.09	8585.08
457.28	8751.26
457.46	8353.37
457.64	8493.80
457.83	8578.06
458.01	8294.86
458.19	8615.51
458.38	8423.59
458.56	8526.57
458.74	8444.65
458.93	8589.77
459.11	8835.52
459.29	8720.84
459.48	8894.04
459.66	8676.37
459.84	8744.24
460.03	9104.68
460.21	8905.74
460.39	8997.02
460.57	8929.14
460.76	8987.66
460.94	9142.13
461.12	9001.70
461.31	9139.79
461.49	9252.14
461.67	9095.32
461.85	9338.74
462.04	9001.70
462.22	9745.99
462.40	9320.01
462.59	9338.74
462.77	9359.80
462.95	9280.22
463.13	9308.31
463.32	9228.73
463.50	9329.38
463.68	9345.76
463.86	9481.51
464.05	9305.97
464.23	9179.58
464.41	9584.49
464.59	9268.52
464.78	9598.54
464.96	9448.74
465.14	9315.33
465.32	9530.66
465.50	9586.83
465.69	9734.29
465.87	9558.75
466.05	9753.01
466.23	9703.86
466.41	9570.45
466.60	9851.31
466.78	9605.56
466.96	9736.63
467.14	9549.39
467.32	9755.35
467.51	10132.18
467.69	9689.82
467.87	9827.91
468.05	9963.66
468.23	9877.06
468.41	10033.88
468.60	9947.28
468.78	10059.62
468.96	10193.03
469.14	10155.58
469.32	10171.97
469.50	9895.78
469.69	10373.25
469.87	10132.18
470.05	10235.16
470.23	10225.80
470.41	10244.52
470.59	10487.94
470.77	10359.21
470.95	10303.04
471.14	10616.67
471.32	10361.55
471.50	10775.83
471.68	10581.56
471.86	10986.47
472.04	10785.19
472.22	11248.61
472.40	10574.54
472.58	10754.76
472.77	10827.32
472.95	10860.09
473.13	11222.87
473.31	11021.58
473.49	10981.79
473.67	10977.11
473.85	11162.01
474.03	11257.98
474.21	11356.28
474.39	11538.84
474.57	11566.93
474.75	11557.57
474.93	11847.79
475.12	11679.27
475.30	11864.18
475.48	11716.72
475.66	11861.84
475.84	11761.19
476.02	12002.27
476.20	11934.39
476.38	11976.52
476.56	12315.90
476.74	12351.01
476.92	12222.28
477.10	12535.91
477.28	12538.25
477.46	12486.76
477.64	12718.47
477.82	12868.27
478.00	13135.09
478.18	12992.31
478.36	13076.57
478.54	13462.76
478.72	13350.42
478.90	13411.27
479.08	13561.06
479.26	13549.36
479.44	13841.93
479.62	13650.00
479.80	13823.20
479.98	14008.11
480.16	14246.84
480.34	14115.77
480.52	14406.00
480.70	14312.38
480.88	14263.22
481.06	14415.36
481.24	14684.52
481.41	14881.13
481.59	14881.13
481.77	14949.00
481.95	15042.62
482.13	15204.12
482.31	15166.67
482.49	15414.77
482.67	15407.75
482.85	15939.05
483.03	15747.12
483.21	15925.00
483.39	16053.73
483.57	15941.39
483.74	16194.17
483.92	16205.87
484.10	16142.67
484.28	16641.21
484.46	16795.68
484.64	16931.44
484.82	16936.12
485.00	17034.42
485.18	17006.33
485.35	17296.56
485.53	16727.81
485.71	16678.66
485.89	16889.31
486.07	16968.88
486.25	17242.73
486.43	17757.64
486.61	17549.34
486.78	17869.99
486.96	18188.30
487.14	18214.05
487.32	18441.08
487.50	18717.26
487.68	18979.40
487.85	19124.52
488.03	19283.67
488.21	19101.11
488.39	19379.64
488.57	19304.74
488.75	19255.59
488.92	19730.72
489.10	19885.19
489.28	20367.34
489.46	20194.14
489.64	20510.11
489.81	20833.11
489.99	21156.10
490.17	20889.28
490.35	21490.80
490.53	20730.12
490.70	21247.38
490.88	21039.08
491.06	21738.90
491.24	21324.62
491.41	21352.71
491.59	21458.03
491.77	21596.12
491.95	21598.46
492.13	22005.72
492.30	22471.48
492.48	22317.01
492.66	22647.02
492.84	22595.53
493.01	23349.18
493.19	22920.87
493.37	23180.67
493.54	23014.49
493.72	23307.05
493.90	23527.06
494.08	23594.94
494.25	23800.91
494.43	24070.07
494.61	24177.73
494.79	24479.66
494.96	24535.84
495.14	24261.99
495.32	24423.49
495.49	24765.21
495.67	24886.92
495.85	24996.92
496.02	25174.80
496.20	25212.25
496.38	25376.09
496.55	25268.42
496.73	26342.73
496.91	25799.73
497.09	25811.43
497.26	25968.24
497.44	25865.26
497.62	26326.35
497.79	26651.68
497.97	25853.56
498.14	26431.67
498.32	26412.95
498.50	26326.35
498.67	26986.38
498.85	26984.04
499.03	26869.35
499.20	27302.35
499.38	27592.58
499.56	27447.46
499.73	27543.42
499.91	27840.67
500.08	27878.12
500.26	27138.51
500.44	27445.12
500.61	27763.43
500.79	27721.30
500.97	27967.06
501.14	28367.29
501.32	28048.98
501.49	27754.07
501.67	28411.76
501.84	27803.22
502.02	28666.88
502.20	28734.76
502.37	28739.44
502.55	29137.33
502.72	28905.62
502.90	29186.48
503.07	28847.10
503.25	28950.09
503.43	29120.95
503.60	28872.85
503.78	29132.65
503.95	29228.61
504.13	29422.87
504.30	29839.49
504.48	29378.40
504.65	30164.82
504.83	30064.18
505.01	30169.51
505.18	29963.54
505.36	30281.85
505.53	30625.91
505.71	30911.46
505.88	31068.27
506.06	30436.33
506.23	30909.11
506.41	30436.33
506.58	30960.61
506.76	31098.70
506.93	31248.49
507.11	31175.94
507.28	31077.63
507.46	31213.38
507.63	31178.28
507.81	31000.40
507.98	31124.44
508.16	31307.01
508.33	31374.88
508.50	31786.82
508.68	32130.87
508.85	32098.11
509.03	32362.59
509.20	32329.82
509.38	32594.30
509.55	32271.31
509.73	32613.02
509.90	32510.04
510.08	32397.70
510.25	32385.99
510.42	32561.53
510.60	32657.49
510.77	32861.12
510.95	33464.98
511.12	32716.01
511.30	33151.35
511.47	33230.93
511.64	33542.22
511.82	33376.04
511.99	33373.70
512.17	33577.33
512.34	33530.51
512.51	33755.21
512.69	34068.84
512.86	33986.92
513.04	34082.88
513.21	33902.66
513.38	33930.75
513.56	34403.53
513.73	34099.26
513.90	34054.79
514.08	33916.70
514.25	34583.76
514.43	34361.40
514.60	34462.05
514.77	34602.48
514.95	34653.97
515.12	34693.76
515.29	34756.96
515.47	35119.74
515.64	35000.37
515.81	34941.86
515.99	35145.48
516.16	34801.43
516.33	34726.53
516.51	34553.33
516.68	33792.65
516.85	34291.19
517.03	34490.13
517.20	34941.86
517.37	35044.84
517.54	35882.75
517.72	35005.05
517.89	35047.18
518.06	34909.09
518.24	34902.07
518.41	35255.49
518.58	35555.08
518.75	35899.14
518.93	35798.49
519.10	35950.63
519.27	36016.16
519.45	36259.58
519.62	36512.36
519.79	36568.53
519.96	36474.91
520.14	36477.25
520.31	36273.62
520.48	36409.37
520.65	36854.08
520.83	36950.04
521.00	37308.14
521.17	37191.11
521.34	37523.47
521.52	37591.34
521.69	37247.29
521.86	37528.15
522.03	37280.05
522.20	37577.30
522.38	37727.10
522.55	37237.92
522.72	37333.89
522.89	37312.82
523.07	37916.68
523.24	37626.45
523.41	38022.00
523.58	37755.18
523.75	38078.18
523.92	38258.40
524.10	38560.33
524.27	38426.92
524.44	38281.80
524.61	38824.81
524.78	38785.02
524.96	38469.04
525.13	38251.38
525.30	39168.87
525.47	39449.73
525.64	38588.41
525.81	38859.91
525.98	38796.72
526.16	37912.00
526.33	38410.53
526.50	38375.42
526.67	38312.23
526.84	37923.70
527.01	38553.30
527.18	38665.65
527.36	39019.07
527.53	39108.01
527.70	39285.89
527.87	40088.70
528.04	39344.41
528.21	39814.85
528.38	39803.15
528.55	40060.61
528.72	40142.53
528.89	39885.07
529.07	39880.39
529.24	39997.41
529.41	40046.57
529.58	40119.12
529.75	39688.46
529.92	40451.48
530.09	40126.14
530.26	40137.85
530.43	40102.74
530.60	40491.27
530.77	40580.21
530.94	40865.75
531.11	40266.58
531.28	40645.74
531.46	40931.29
531.63	40910.22
531.80	40528.72
531.97	40942.99
532.14	40547.44
532.31	40495.95
532.48	40872.78
532.65	40832.99
532.82	40411.69
532.99	40875.12
533.16	41111.51
533.33	41095.13
533.50	41862.82
533.67	41109.17
533.84	41249.60
534.01	41483.66
534.18	41155.98
534.35	41509.40
534.52	41572.60
534.69	41205.13
534.86	41670.90
535.03	41713.03
535.20	42370.72
535.37	42096.88
535.54	42279.44
535.71	41832.39
535.88	41841.76
536.05	41879.21
536.22	41874.52
536.38	41965.81
536.55	42113.26
536.72	41961.12
536.89	41797.29
537.06	42188.16
537.23	42408.17
537.40	42038.36
537.57	42344.97
537.74	42284.12
537.91	42373.06
538.08	41874.52
538.25	42188.16
538.42	42417.53
538.59	42967.55
538.75	42113.26
538.92	42270.08
539.09	42677.33
539.26	43058.84
539.43	42593.07
539.60	42677.33
539.77	42204.54
539.94	42700.73
540.11	42188.16
540.28	42632.86
540.44	42607.11
540.61	42696.05
540.78	42382.42
540.95	43016.71
541.12	42810.74
541.29	42684.35
541.46	43072.88
541.62	43196.93
541.79	43250.76
541.96	42724.14
542.13	42899.68
542.30	42990.96
542.47	43594.82
542.63	43054.15
542.80	43400.55
542.97	43573.75
543.14	43810.15
543.31	44027.82
543.48	43709.50
543.64	44011.43
543.81	44596.57
543.98	43882.70
544.15	43845.26
544.32	44231.44
544.48	44442.09
544.65	44201.02
544.82	43945.90
544.99	43964.62
545.16	44109.74
545.32	43962.28
545.49	44259.53
545.66	44926.58
545.83	44596.57
546.00	44240.81
546.16	44091.01
546.33	44322.72
546.50	44004.41
546.67	44472.52
546.83	43927.17
547.00	44311.02
547.17	44411.67
547.34	44229.10
547.50	44385.92
547.67	44678.49
547.84	44568.48
548.00	44861.05
548.17	45095.10
548.34	45015.52
548.51	45167.66
548.67	45303.41
548.84	44945.31
549.01	45146.59
549.18	44708.91
549.34	45193.40
549.51	45347.88
549.68	45010.84
549.84	45036.59
550.01	45179.36
550.18	44821.26
550.34	45294.05
550.51	45151.27
550.68	44863.39
550.84	44844.66
551.01	44940.63
551.18	44924.24
551.34	45029.57
551.51	45713.00
551.68	45539.80
551.84	45572.57
552.01	45277.66
552.18	45752.79
552.34	45085.74
552.51	45097.44
552.68	45193.40
552.84	45289.37
553.01	45495.33
553.18	45598.32
553.34	45556.19
553.51	45270.64
553.67	45610.02
553.84	45846.41
554.01	46162.39
554.17	46204.52
554.34	46422.19
554.51	45656.83
554.67	46113.23
554.84	45652.15
555.00	45851.09
555.17	45937.69
555.33	45818.33
555.50	45928.33
555.67	45909.61
555.83	45841.73
556.00	46127.28
556.16	46108.55
556.33	45977.48
556.50	45855.78
556.66	46080.47
556.83	45509.38
556.99	46131.96
557.16	46555.60
557.32	46480.70
557.49	46485.38
557.65	46246.65
557.82	46094.51
557.98	46323.88
558.15	45705.98
558.32	46307.50
558.48	45888.54
558.65	46270.05
558.81	46075.79
558.98	45993.87
559.14	46265.37
559.31	46059.40
559.47	46054.72
559.64	46375.37
559.80	46639.86
559.97	46380.06
560.13	46246.65
560.30	46363.67
560.46	46391.76
560.63	46492.40
560.79	46717.09
560.96	46501.76
561.12	46494.74
561.29	46471.34
561.45	46314.52
561.61	46335.59
561.78	46061.74
561.94	45881.52
562.11	46501.76
562.27	46162.39
562.44	46384.74
562.60	46834.12
562.77	46644.54
562.93	46621.13
563.10	46878.59
563.26	46344.95
563.42	46841.14
563.59	46485.38
563.75	46857.52
563.92	46632.83
564.08	46763.90
564.24	46419.84
564.41	46735.82
564.57	46679.64
564.74	46550.91
564.90	46635.17
565.07	47044.77
565.23	46717.09
565.39	46611.77
565.56	46738.16
565.72	46562.62
565.88	46583.68
566.05	47004.98
566.21	46670.28
566.38	46391.76
566.54	46916.04
566.70	47009.66
566.87	46937.10
567.03	46909.02
567.19	47023.70
567.36	47110.30
567.52	46775.61
567.68	46993.28
567.85	46719.43
568.01	47007.32
568.17	46953.49
568.34	46995.62
568.50	46628.15
568.66	47096.26
568.83	46696.03
568.99	46756.88
569.15	46653.90
569.32	46665.60
569.48	46527.51
569.64	47281.16
569.81	46691.35
569.97	47091.58
570.13	46609.43
570.30	46375.37
570.46	46724.11
570.62	46401.12
570.78	46618.79
570.95	46611.77
571.11	47098.60
571.27	46799.01
571.43	46775.61
571.60	47012.00
571.76	46787.31
571.92	47061.15
572.09	47016.68
572.25	46782.63
572.41	46955.83
572.57	47456.70
572.74	46981.57
572.90	46916.04
573.06	47112.64
573.22	47349.04
573.38	47033.07
573.55	46857.52
573.71	47414.57
573.87	46941.78
574.03	46953.49
574.20	47262.44
574.36	46960.51
574.52	46796.67
574.68	47012.00
574.84	47152.43
575.01	46880.93
575.17	46789.65
575.33	46775.61
575.49	46403.46
575.65	47077.54
575.82	46969.87
575.98	47098.60
576.14	47061.15
576.30	47470.75
576.46	47330.31
576.62	47143.07
576.79	46946.47
576.95	46674.96
577.11	47047.11
577.27	47356.06
577.43	46738.16
577.59	46719.43
577.75	47112.64
577.92	46522.83
578.08	46742.84
578.24	46738.16
578.40	47054.13
578.56	46557.94
578.72	47082.22
578.88	47468.40
579.04	47136.05
579.21	46553.26
579.37	46892.63
579.53	47243.71
579.69	46838.80
579.85	47122.01
580.01	47365.42
580.17	47224.99
580.33	46689.01
580.49	46986.25
580.65	47049.45
580.82	47250.74
580.98	46511.13
581.14	47012.00
581.30	47524.58
581.46	47239.03
581.62	47082.22
581.78	47133.71
581.94	47566.71
582.10	47192.22
582.26	47426.28
582.42	46829.44
582.58	47091.58
582.74	46899.65
582.90	47388.83
583.06	47557.35
583.22	47276.48
583.38	47449.68
583.54	47470.75
583.70	47447.34
583.86	47445.00
584.02	47395.85
584.18	47395.85
584.34	47398.19
584.50	47494.15
584.66	46995.62
584.82	46960.51
584.98	47475.43
585.14	47047.11
585.30	46740.50
585.46	47206.26
585.62	47079.88
585.78	47166.48
585.94	46979.23
586.10	46543.89
586.26	47112.64
586.42	47622.88
586.58	47423.93
586.74	46951.15
586.90	47035.41
587.06	47100.94
587.22	47044.77
587.38	47030.72
587.54	47213.29
587.70	47122.01
587.86	47187.54
588.02	47292.86
588.18	47138.39
588.34	47332.65
588.49	46398.78
588.65	46300.48
588.81	46693.69
588.97	46447.93
589.13	46251.33
589.29	46920.72
589.45	46670.28
589.61	46733.48
589.77	47557.35
589.93	46958.17
